SpectraSuite Data File
++++++++++++++++++++++++++++++++++++
Date: Fri Oct 25 12:10:26 EDT 2013
User: price-jones
Dark Spectrum Present: No
Reference Spectrum Present: No
Number of Sampled Component Spectra: 1
Spectrometers: USB2+H05261
Integration Time (usec): 100000 (USB2+H05261)
Spectra Averaged: 1 (USB2+H05261)
Boxcar Smoothing: 0 (USB2+H05261)
Correct for Electrical Dark: No (USB2+H05261)
Strobe/Lamp Enabled: No (USB2+H05261)
Correct for Detector Non-linearity: No (USB2+H05261)
Correct for Stray Light: No (USB2+H05261)
Number of Pixels in Processed Spectrum: 2048
>>>>>Begin Processed Spectral Data<<<<<
365.73	318.31
365.92	318.31
366.12	318.31
366.32	241.08
366.52	259.80
366.72	245.76
366.91	259.80
367.11	252.78
367.31	257.46
367.51	194.26
367.70	273.84
367.90	248.10
368.10	177.88
368.30	271.50
368.49	283.20
368.69	322.99
368.89	243.42
369.09	222.35
369.28	297.25
369.48	201.29
369.68	290.23
369.87	283.20
370.07	318.31
370.27	353.42
370.47	388.53
370.66	292.57
370.86	360.44
371.06	383.85
371.25	383.85
371.45	334.70
371.65	440.02
371.84	393.21
372.04	400.23
372.24	358.10
372.44	346.40
372.63	425.98
372.83	475.13
373.03	402.57
373.22	456.40
373.42	390.87
373.62	334.70
373.81	418.96
374.01	358.10
374.21	381.51
374.40	388.53
374.60	454.06
374.79	407.25
374.99	458.74
375.19	435.34
375.38	299.59
375.58	425.98
375.78	400.23
375.97	421.30
376.17	418.96
376.37	414.27
376.56	411.93
376.76	355.76
376.95	421.30
377.15	456.40
377.35	444.70
377.54	395.55
377.74	395.55
377.93	388.53
378.13	411.93
378.33	407.25
378.52	341.72
378.72	423.64
378.91	416.62
379.11	428.32
379.31	472.79
379.50	372.15
379.70	465.77
379.89	386.19
380.09	423.64
380.28	397.89
380.48	404.91
380.68	428.32
380.87	414.27
381.07	400.23
381.26	458.74
381.46	400.23
381.65	437.68
381.85	409.59
382.04	372.15
382.24	395.55
382.43	414.27
382.63	322.99
382.83	400.23
383.02	442.36
383.22	440.02
383.41	381.51
383.61	395.55
383.80	416.62
384.00	369.80
384.19	395.55
384.39	367.46
384.58	425.98
384.78	421.30
384.97	395.55
385.17	381.51
385.36	411.93
385.56	393.21
385.75	435.34
385.95	421.30
386.14	449.38
386.34	376.83
386.53	454.06
386.72	428.32
386.92	409.59
387.11	404.91
387.31	358.10
387.50	386.19
387.70	388.53
387.89	337.04
388.09	402.57
388.28	430.66
388.48	430.66
388.67	358.10
388.86	407.25
389.06	383.85
389.25	411.93
389.45	346.40
389.64	379.17
389.84	435.34
390.03	437.68
390.22	390.87
390.42	330.02
390.61	381.51
390.81	386.19
391.00	397.89
391.19	365.12
391.39	339.38
391.58	379.17
391.78	400.23
391.97	470.45
392.16	346.40
392.36	400.23
392.55	355.76
392.75	395.55
392.94	334.70
393.13	346.40
393.33	440.02
393.52	325.33
393.71	409.59
393.91	381.51
394.10	442.36
394.29	472.79
394.49	346.40
394.68	416.62
394.88	414.27
395.07	425.98
395.26	489.17
395.46	433.00
395.65	423.64
395.84	430.66
396.04	454.06
396.23	440.02
396.42	369.80
396.62	376.83
396.81	367.46
397.00	369.80
397.19	468.11
397.39	418.96
397.58	383.85
397.77	367.46
397.97	463.43
398.16	327.68
398.35	386.19
398.55	416.62
398.74	442.36
398.93	442.36
399.12	414.27
399.32	528.96
399.51	411.93
399.70	374.49
399.90	381.51
400.09	407.25
400.28	444.70
400.47	447.04
400.67	423.64
400.86	351.08
401.05	440.02
401.24	428.32
401.44	463.43
401.63	423.64
401.82	362.78
402.01	423.64
402.21	407.25
402.40	365.12
402.59	390.87
402.78	425.98
402.97	379.17
403.17	386.19
403.36	414.27
403.55	372.15
403.74	374.49
403.93	402.57
404.13	475.13
404.32	374.49
404.51	449.38
404.70	430.66
404.89	477.47
405.09	461.09
405.28	414.27
405.47	344.06
405.66	395.55
405.85	376.83
406.05	400.23
406.24	409.59
406.43	383.85
406.62	402.57
406.81	444.70
407.00	404.91
407.20	482.15
407.39	395.55
407.58	402.57
407.77	388.53
407.96	442.36
408.15	409.59
408.34	320.65
408.54	449.38
408.73	411.93
408.92	423.64
409.11	442.36
409.30	444.70
409.49	393.21
409.68	358.10
409.87	369.80
410.07	358.10
410.26	416.62
410.45	444.70
410.64	433.00
410.83	400.23
411.02	447.04
411.21	404.91
411.40	430.66
411.59	440.02
411.78	425.98
411.98	404.91
412.17	390.87
412.36	458.74
412.55	383.85
412.74	442.36
412.93	430.66
413.12	397.89
413.31	433.00
413.50	433.00
413.69	463.43
413.88	334.70
414.07	440.02
414.26	362.78
414.45	404.91
414.64	428.32
414.83	393.21
415.02	423.64
415.22	395.55
415.41	414.27
415.60	339.38
415.79	358.10
415.98	465.77
416.17	414.27
416.36	367.46
416.55	353.42
416.74	418.96
416.93	407.25
417.12	407.25
417.31	388.53
417.50	393.21
417.69	416.62
417.88	404.91
418.07	411.93
418.26	421.30
418.45	358.10
418.64	362.78
418.83	463.43
419.02	390.87
419.21	475.13
419.39	447.04
419.58	428.32
419.77	386.19
419.96	365.12
420.15	447.04
420.34	299.59
420.53	407.25
420.72	425.98
420.91	344.06
421.10	430.66
421.29	430.66
421.48	400.23
421.67	486.83
421.86	330.02
422.05	447.04
422.24	416.62
422.43	365.12
422.61	430.66
422.80	379.17
422.99	421.30
423.18	332.36
423.37	451.72
423.56	425.98
423.75	388.53
423.94	334.70
424.13	428.32
424.32	393.21
424.50	397.89
424.69	400.23
424.88	468.11
425.07	383.85
425.26	430.66
425.45	428.32
425.64	428.32
425.83	360.44
426.01	477.47
426.20	395.55
426.39	367.46
426.58	330.02
426.77	461.09
426.96	444.70
427.15	379.17
427.33	458.74
427.52	372.15
427.71	365.12
427.90	365.12
428.09	397.89
428.28	346.40
428.46	404.91
428.65	402.57
428.84	430.66
429.03	463.43
429.22	418.96
429.40	418.96
429.59	416.62
429.78	435.34
429.97	416.62
430.16	416.62
430.34	304.27
430.53	369.80
430.72	367.46
430.91	418.96
431.10	367.46
431.28	402.57
431.47	362.78
431.66	365.12
431.85	400.23
432.03	433.00
432.22	430.66
432.41	449.38
432.60	416.62
432.79	390.87
432.97	376.83
433.16	355.76
433.35	416.62
433.54	444.70
433.72	393.21
433.91	346.40
434.10	423.64
434.28	367.46
434.47	362.78
434.66	423.64
434.85	411.93
435.03	479.81
435.22	411.93
435.41	428.32
435.59	447.04
435.78	365.12
435.97	372.15
436.16	477.47
436.34	407.25
436.53	397.89
436.72	402.57
436.90	421.30
437.09	341.72
437.28	379.17
437.46	381.51
437.65	458.74
437.84	444.70
438.02	393.21
438.21	421.30
438.40	383.85
438.58	425.98
438.77	430.66
438.96	402.57
439.14	365.12
439.33	447.04
439.52	423.64
439.70	451.72
439.89	390.87
440.08	477.47
440.26	468.11
440.45	475.13
440.63	433.00
440.82	430.66
441.01	397.89
441.19	425.98
441.38	421.30
441.57	430.66
441.75	402.57
441.94	486.83
442.12	383.85
442.31	409.59
442.50	411.93
442.68	447.04
442.87	479.81
443.05	421.30
443.24	390.87
443.43	468.11
443.61	367.46
443.80	393.21
443.98	428.32
444.17	353.42
444.35	388.53
444.54	468.11
444.73	421.30
444.91	383.85
445.10	402.57
445.28	358.10
445.47	395.55
445.65	337.04
445.84	390.87
446.02	425.98
446.21	411.93
446.39	360.44
446.58	372.15
446.77	461.09
446.95	428.32
447.14	414.27
447.32	409.59
447.51	397.89
447.69	388.53
447.88	397.89
448.06	430.66
448.25	414.27
448.43	351.08
448.62	386.19
448.80	423.64
448.99	383.85
449.17	379.17
449.36	440.02
449.54	493.85
449.73	360.44
449.91	442.36
450.10	440.02
450.28	458.74
450.46	390.87
450.65	491.51
450.83	465.77
451.02	463.43
451.20	425.98
451.39	421.30
451.57	416.62
451.76	423.64
451.94	320.65
452.13	402.57
452.31	479.81
452.49	365.12
452.68	400.23
452.86	425.98
453.05	388.53
453.23	374.49
453.42	383.85
453.60	404.91
453.78	379.17
453.97	388.53
454.15	367.46
454.34	395.55
454.52	414.27
454.70	454.06
454.89	477.47
455.07	313.63
455.26	376.83
455.44	482.15
455.62	379.17
455.81	440.02
455.99	381.51
456.17	421.30
456.36	390.87
456.54	344.06
456.73	376.83
456.91	444.70
457.09	465.77
457.28	430.66
457.46	423.64
457.64	351.08
457.83	372.15
458.01	404.91
458.19	482.15
458.38	400.23
458.56	362.78
458.74	388.53
458.93	489.17
459.11	348.74
459.29	444.70
459.48	430.66
459.66	414.27
459.84	482.15
460.03	472.79
460.21	362.78
460.39	423.64
460.57	358.10
460.76	437.68
460.94	409.59
461.12	430.66
461.31	463.43
461.49	442.36
461.67	372.15
461.85	390.87
462.04	381.51
462.22	753.65
462.40	428.32
462.59	463.43
462.77	292.57
462.95	327.68
463.13	390.87
463.32	355.76
463.50	428.32
463.68	409.59
463.86	393.21
464.05	461.09
464.23	430.66
464.41	386.19
464.59	418.96
464.78	423.64
464.96	404.91
465.14	374.49
465.32	404.91
465.50	414.27
465.69	339.38
465.87	433.00
466.05	390.87
466.23	383.85
466.41	454.06
466.60	355.76
466.78	407.25
466.96	397.89
467.14	425.98
467.32	428.32
467.51	451.72
467.69	395.55
467.87	458.74
468.05	418.96
468.23	409.59
468.41	461.09
468.60	341.72
468.78	454.06
468.96	423.64
469.14	409.59
469.32	358.10
469.50	409.59
469.69	428.32
469.87	404.91
470.05	421.30
470.23	458.74
470.41	337.04
470.59	447.04
470.77	456.40
470.95	428.32
471.14	383.85
471.32	440.02
471.50	442.36
471.68	376.83
471.86	348.74
472.04	428.32
472.22	482.15
472.40	393.21
472.58	421.30
472.77	458.74
472.95	411.93
473.13	468.11
473.31	423.64
473.49	425.98
473.67	376.83
473.85	400.23
474.03	454.06
474.21	444.70
474.39	454.06
474.57	433.00
474.75	433.00
474.93	433.00
475.12	414.27
475.30	416.62
475.48	486.83
475.66	386.19
475.84	374.49
476.02	390.87
476.20	418.96
476.38	489.17
476.56	500.87
476.74	381.51
476.92	355.76
477.10	395.55
477.28	407.25
477.46	444.70
477.64	449.38
477.82	411.93
478.00	374.49
478.18	454.06
478.36	477.47
478.54	416.62
478.72	472.79
478.90	440.02
479.08	461.09
479.26	393.21
479.44	388.53
479.62	379.17
479.80	369.80
479.98	428.32
480.16	418.96
480.34	458.74
480.52	437.68
480.70	437.68
480.88	355.76
481.06	376.83
481.24	367.46
481.41	379.17
481.59	372.15
481.77	407.25
481.95	400.23
482.13	360.44
482.31	390.87
482.49	442.36
482.67	423.64
482.85	395.55
483.03	334.70
483.21	430.66
483.39	393.21
483.57	409.59
483.74	454.06
483.92	416.62
484.10	444.70
484.28	409.59
484.46	449.38
484.64	402.57
484.82	428.32
485.00	348.74
485.18	346.40
485.35	402.57
485.53	423.64
485.71	411.93
485.89	409.59
486.07	458.74
486.25	482.15
486.43	421.30
486.61	456.40
486.78	472.79
486.96	386.19
487.14	292.57
487.32	374.49
487.50	414.27
487.68	332.36
487.85	390.87
488.03	393.21
488.21	451.72
488.39	411.93
488.57	397.89
488.75	374.49
488.92	465.77
489.10	404.91
489.28	430.66
489.46	388.53
489.64	400.23
489.81	369.80
489.99	383.85
490.17	416.62
490.35	468.11
490.53	400.23
490.70	475.13
490.88	416.62
491.06	423.64
491.24	437.68
491.41	498.53
491.59	444.70
491.77	393.21
491.95	423.64
492.13	442.36
492.30	369.80
492.48	430.66
492.66	346.40
492.84	435.34
493.01	409.59
493.19	325.33
493.37	411.93
493.54	386.19
493.72	393.21
493.90	372.15
494.08	383.85
494.25	475.13
494.43	451.72
494.61	447.04
494.79	414.27
494.96	404.91
495.14	477.47
495.32	404.91
495.49	404.91
495.67	442.36
495.85	383.85
496.02	468.11
496.20	449.38
496.38	416.62
496.55	414.27
496.73	407.25
496.91	402.57
497.09	390.87
497.26	365.12
497.44	411.93
497.62	416.62
497.79	477.47
497.97	409.59
498.14	367.46
498.32	402.57
498.50	360.44
498.67	374.49
498.85	402.57
499.03	418.96
499.20	414.27
499.38	395.55
499.56	360.44
499.73	400.23
499.91	425.98
500.08	388.53
500.26	442.36
500.44	449.38
500.61	381.51
500.79	442.36
500.97	437.68
501.14	482.15
501.32	437.68
501.49	442.36
501.67	425.98
501.84	482.15
502.02	451.72
502.20	428.32
502.37	374.49
502.55	414.27
502.72	430.66
502.90	489.17
503.07	395.55
503.25	362.78
503.43	355.76
503.60	381.51
503.78	416.62
503.95	383.85
504.13	355.76
504.30	475.13
504.48	402.57
504.65	418.96
504.83	451.72
505.01	367.46
505.18	402.57
505.36	393.21
505.53	400.23
505.71	400.23
505.88	458.74
506.06	433.00
506.23	400.23
506.41	414.27
506.58	367.46
506.76	407.25
506.93	407.25
507.11	465.77
507.28	451.72
507.46	362.78
507.63	435.34
507.81	423.64
507.98	451.72
508.16	397.89
508.33	484.49
508.50	437.68
508.68	358.10
508.85	381.51
509.03	379.17
509.20	416.62
509.38	468.11
509.55	470.45
509.73	475.13
509.90	491.51
510.08	414.27
510.25	416.62
510.42	379.17
510.60	463.43
510.77	442.36
510.95	435.34
511.12	411.93
511.30	470.45
511.47	458.74
511.64	418.96
511.82	383.85
511.99	421.30
512.17	437.68
512.34	404.91
512.51	482.15
512.69	393.21
512.86	404.91
513.04	376.83
513.21	393.21
513.38	414.27
513.56	414.27
513.73	393.21
513.90	407.25
514.08	372.15
514.25	400.23
514.43	381.51
514.60	423.64
514.77	381.51
514.95	395.55
515.12	428.32
515.29	423.64
515.47	416.62
515.64	360.44
515.81	344.06
515.99	374.49
516.16	416.62
516.33	402.57
516.51	418.96
516.68	430.66
516.85	351.08
517.03	409.59
517.20	442.36
517.37	386.19
517.54	514.92
517.72	416.62
517.89	416.62
518.06	395.55
518.24	465.77
518.41	409.59
518.58	386.19
518.75	360.44
518.93	423.64
519.10	440.02
519.27	414.27
519.45	365.12
519.62	421.30
519.79	379.17
519.96	365.12
520.14	461.09
520.31	430.66
520.48	428.32
520.65	358.10
520.83	451.72
521.00	409.59
521.17	416.62
521.34	435.34
521.52	404.91
521.69	395.55
521.86	433.00
522.03	362.78
522.20	498.53
522.38	379.17
522.55	374.49
522.72	353.42
522.89	430.66
523.07	418.96
523.24	425.98
523.41	409.59
523.58	425.98
523.75	470.45
523.92	447.04
524.10	416.62
524.27	367.46
524.44	433.00
524.61	418.96
524.78	470.45
524.96	341.72
525.13	388.53
525.30	440.02
525.47	388.53
525.64	407.25
525.81	449.38
525.98	358.10
526.16	421.30
526.33	400.23
526.50	383.85
526.67	348.74
526.84	433.00
527.01	416.62
527.18	407.25
527.36	400.23
527.53	365.12
527.70	465.77
527.87	423.64
528.04	482.15
528.21	491.51
528.38	414.27
528.55	414.27
528.72	456.40
528.89	472.79
529.07	381.51
529.24	416.62
529.41	444.70
529.58	395.55
529.75	367.46
529.92	411.93
530.09	444.70
530.26	475.13
530.43	454.06
530.60	486.83
530.77	407.25
530.94	430.66
531.11	416.62
531.28	444.70
531.46	388.53
531.63	393.21
531.80	327.68
531.97	416.62
532.14	414.27
532.31	418.96
532.48	489.17
532.65	461.09
532.82	397.89
532.99	425.98
533.16	421.30
533.33	458.74
533.50	393.21
533.67	421.30
533.84	395.55
534.01	440.02
534.18	454.06
534.35	411.93
534.52	477.47
534.69	444.70
534.86	449.38
535.03	437.68
535.20	423.64
535.37	470.45
535.54	442.36
535.71	421.30
535.88	461.09
536.05	301.93
536.22	458.74
536.38	421.30
536.55	451.72
536.72	402.57
536.89	351.08
537.06	332.36
537.23	425.98
537.40	372.15
537.57	435.34
537.74	472.79
537.91	395.55
538.08	418.96
538.25	461.09
538.42	376.83
538.59	414.27
538.75	421.30
538.92	358.10
539.09	498.53
539.26	330.02
539.43	416.62
539.60	395.55
539.77	418.96
539.94	414.27
540.11	440.02
540.28	456.40
540.44	435.34
540.61	458.74
540.78	444.70
540.95	360.44
541.12	409.59
541.29	421.30
541.46	421.30
541.62	442.36
541.79	435.34
541.96	435.34
542.13	440.02
542.30	447.04
542.47	376.83
542.63	444.70
542.80	425.98
542.97	470.45
543.14	379.17
543.31	440.02
543.48	388.53
543.64	486.83
543.81	369.80
543.98	414.27
544.15	358.10
544.32	369.80
544.48	390.87
544.65	477.47
544.82	444.70
544.99	444.70
545.16	425.98
545.32	339.38
545.49	383.85
545.66	400.23
545.83	423.64
546.00	421.30
546.16	421.30
546.33	430.66
546.50	444.70
546.67	421.30
546.83	491.51
547.00	423.64
547.17	404.91
547.34	458.74
547.50	484.49
547.67	397.89
547.84	402.57
548.00	440.02
548.17	402.57
548.34	484.49
548.51	437.68
548.67	425.98
548.84	440.02
549.01	423.64
549.18	433.00
549.34	458.74
549.51	383.85
549.68	433.00
549.84	390.87
550.01	346.40
550.18	500.87
550.34	470.45
550.51	407.25
550.68	393.21
550.84	423.64
551.01	386.19
551.18	376.83
551.34	367.46
551.51	442.36
551.68	430.66
551.84	402.57
552.01	472.79
552.18	421.30
552.34	418.96
552.51	386.19
552.68	461.09
552.84	418.96
553.01	484.49
553.18	397.89
553.34	416.62
553.51	395.55
553.67	379.17
553.84	503.22
554.01	435.34
554.17	397.89
554.34	379.17
554.51	461.09
554.67	393.21
554.84	381.51
555.00	428.32
555.17	407.25
555.33	463.43
555.50	437.68
555.67	414.27
555.83	365.12
556.00	393.21
556.16	589.82
556.33	444.70
556.50	416.62
556.66	472.79
556.83	416.62
556.99	369.80
557.16	416.62
557.32	400.23
557.49	393.21
557.65	458.74
557.82	353.42
557.98	468.11
558.15	414.27
558.32	416.62
558.48	379.17
558.65	442.36
558.81	451.72
558.98	388.53
559.14	430.66
559.31	463.43
559.47	521.94
559.64	411.93
559.80	383.85
559.97	470.45
560.13	423.64
560.30	425.98
560.46	355.76
560.63	400.23
560.79	416.62
560.96	423.64
561.12	500.87
561.29	425.98
561.45	318.31
561.61	430.66
561.78	505.56
561.94	421.30
562.11	414.27
562.27	416.62
562.44	355.76
562.60	393.21
562.77	409.59
562.93	500.87
563.10	416.62
563.26	414.27
563.42	425.98
563.59	447.04
563.75	465.77
563.92	491.51
564.08	458.74
564.24	479.81
564.41	435.34
564.57	423.64
564.74	360.44
564.90	444.70
565.07	379.17
565.23	461.09
565.39	414.27
565.56	423.64
565.72	442.36
565.88	315.97
566.05	365.12
566.21	449.38
566.38	423.64
566.54	472.79
566.70	416.62
566.87	379.17
567.03	407.25
567.19	404.91
567.36	397.89
567.52	383.85
567.68	374.49
567.85	407.25
568.01	491.51
568.17	362.78
568.34	409.59
568.50	496.19
568.66	397.89
568.83	489.17
568.99	472.79
569.15	465.77
569.32	362.78
569.48	425.98
569.64	444.70
569.81	418.96
569.97	423.64
570.13	428.32
570.30	444.70
570.46	379.17
570.62	409.59
570.78	402.57
570.95	416.62
571.11	395.55
571.27	468.11
571.43	435.34
571.60	400.23
571.76	308.95
571.92	458.74
572.09	428.32
572.25	381.51
572.41	423.64
572.57	334.70
572.74	411.93
572.90	418.96
573.06	400.23
573.22	425.98
573.38	484.49
573.55	451.72
573.71	367.46
573.87	411.93
574.03	437.68
574.20	367.46
574.36	379.17
574.52	416.62
574.68	344.06
574.84	418.96
575.01	353.42
575.17	423.64
575.33	376.83
575.49	411.93
575.65	425.98
575.82	374.49
575.98	383.85
576.14	346.40
576.30	475.13
576.46	379.17
576.62	404.91
576.79	400.23
576.95	475.13
577.11	402.57
577.27	402.57
577.43	470.45
577.59	479.81
577.75	397.89
577.92	369.80
578.08	423.64
578.24	369.80
578.40	465.77
578.56	472.79
578.72	447.04
578.88	479.81
579.04	425.98
579.21	477.47
579.37	451.72
579.53	418.96
579.69	463.43
579.85	491.51
580.01	498.53
580.17	404.91
580.33	423.64
580.49	458.74
580.65	402.57
580.82	381.51
580.98	461.09
581.14	458.74
581.30	463.43
581.46	414.27
581.62	402.57
581.78	372.15
581.94	414.27
582.10	393.21
582.26	402.57
582.42	395.55
582.58	451.72
582.74	360.44
582.90	479.81
583.06	374.49
583.22	379.17
583.38	433.00
583.54	461.09
583.70	418.96
583.86	440.02
584.02	423.64
584.18	491.51
584.34	458.74
584.50	486.83
584.66	386.19
584.82	451.72
584.98	440.02
585.14	418.96
585.30	404.91
585.46	379.17
585.62	383.85
585.78	421.30
585.94	355.76
586.10	353.42
586.26	386.19
586.42	440.02
586.58	433.00
586.74	407.25
586.90	433.00
587.06	491.51
587.22	397.89
587.38	386.19
587.54	437.68
587.70	397.89
587.86	465.77
588.02	440.02
588.18	430.66
588.34	374.49
588.49	421.30
588.65	421.30
588.81	379.17
588.97	369.80
589.13	470.45
589.29	458.74
589.45	454.06
589.61	365.12
589.77	414.27
589.93	400.23
590.08	416.62
590.24	463.43
590.40	456.40
590.56	430.66
590.72	465.77
590.88	369.80
591.04	428.32
591.20	484.49
591.35	449.38
591.51	433.00
591.67	397.89
591.83	442.36
591.99	465.77
592.15	477.47
592.31	435.34
592.46	381.51
592.62	414.27
592.78	416.62
592.94	407.25
593.10	421.30
593.26	437.68
593.41	411.93
593.57	393.21
593.73	428.32
593.89	409.59
594.05	395.55
594.20	360.44
594.36	449.38
594.52	327.68
594.68	393.21
594.84	491.51
594.99	418.96
595.15	475.13
595.31	374.49
595.47	447.04
595.62	393.21
595.78	451.72
595.94	414.27
596.10	442.36
596.25	425.98
596.41	362.78
596.57	503.22
596.73	334.70
596.88	411.93
597.04	444.70
597.20	407.25
597.36	430.66
597.51	437.68
597.67	430.66
597.83	449.38
597.99	402.57
598.14	484.49
598.30	447.04
598.46	374.49
598.61	496.19
598.77	416.62
598.93	416.62
599.09	409.59
599.24	383.85
599.40	416.62
599.56	418.96
599.71	397.89
599.87	390.87
600.03	402.57
600.18	397.89
600.34	362.78
600.50	402.57
600.65	383.85
600.81	444.70
600.97	463.43
601.12	435.34
601.28	489.17
601.44	402.57
601.59	468.11
601.75	423.64
601.91	430.66
602.06	428.32
602.22	533.64
602.37	451.72
602.53	510.24
602.69	348.74
602.84	365.12
603.00	393.21
603.16	425.98
603.31	454.06
603.47	430.66
603.62	470.45
603.78	442.36
603.94	386.19
604.09	423.64
604.25	479.81
604.40	447.04
604.56	414.27
604.71	477.47
604.87	447.04
605.03	388.53
605.18	451.72
605.34	461.09
605.49	362.78
605.65	500.87
605.80	397.89
605.96	381.51
606.12	425.98
606.27	472.79
606.43	421.30
606.58	409.59
606.74	416.62
606.89	400.23
607.05	475.13
607.20	444.70
607.36	393.21
607.51	411.93
607.67	449.38
607.82	423.64
607.98	477.47
608.13	479.81
608.29	430.66
608.44	430.66
608.60	484.49
608.75	447.04
608.91	386.19
609.06	461.09
609.22	425.98
609.37	376.83
609.53	372.15
609.68	423.64
609.84	388.53
609.99	360.44
610.15	428.32
