SpectraSuite Data File
++++++++++++++++++++++++++++++++++++
Date: Fri Oct 25 12:11:22 EDT 2013
User: price-jones
Dark Spectrum Present: No
Reference Spectrum Present: No
Number of Sampled Component Spectra: 1
Spectrometers: USB2+H05261
Integration Time (usec): 100000 (USB2+H05261)
Spectra Averaged: 1 (USB2+H05261)
Boxcar Smoothing: 0 (USB2+H05261)
Correct for Electrical Dark: No (USB2+H05261)
Strobe/Lamp Enabled: No (USB2+H05261)
Correct for Detector Non-linearity: No (USB2+H05261)
Correct for Stray Light: No (USB2+H05261)
Number of Pixels in Processed Spectrum: 2048
>>>>>Begin Processed Spectral Data<<<<<
365.73	358.10
365.92	358.10
366.12	358.10
366.32	250.44
366.52	243.42
366.72	215.33
366.91	236.39
367.11	262.14
367.31	301.93
367.51	248.10
367.70	257.46
367.90	269.16
368.10	241.08
368.30	182.56
368.49	205.97
368.69	255.12
368.89	245.76
369.09	280.86
369.28	266.82
369.48	325.33
369.68	250.44
369.87	266.82
370.07	287.89
370.27	322.99
370.47	322.99
370.66	358.10
370.86	269.16
371.06	386.19
371.25	337.04
371.45	416.62
371.65	372.15
371.84	393.21
372.04	365.12
372.24	440.02
372.44	376.83
372.63	400.23
372.83	423.64
373.03	407.25
373.22	472.79
373.42	428.32
373.62	376.83
373.81	484.49
374.01	458.74
374.21	402.57
374.40	393.21
374.60	433.00
374.79	386.19
374.99	404.91
375.19	414.27
375.38	449.38
375.58	348.74
375.78	449.38
375.97	428.32
376.17	458.74
376.37	369.80
376.56	435.34
376.76	374.49
376.95	360.44
377.15	425.98
377.35	355.76
377.54	348.74
377.74	456.40
377.93	437.68
378.13	386.19
378.33	414.27
378.52	421.30
378.72	465.77
378.91	421.30
379.11	400.23
379.31	465.77
379.50	407.25
379.70	418.96
379.89	428.32
380.09	449.38
380.28	397.89
380.48	301.93
380.68	407.25
380.87	320.65
381.07	409.59
381.26	411.93
381.46	409.59
381.65	348.74
381.85	348.74
382.04	337.04
382.24	423.64
382.43	376.83
382.63	409.59
382.83	430.66
383.02	430.66
383.22	463.43
383.41	461.09
383.61	332.36
383.80	477.47
384.00	437.68
384.19	442.36
384.39	461.09
384.58	414.27
384.78	440.02
384.97	383.85
385.17	411.93
385.36	423.64
385.56	414.27
385.75	386.19
385.95	397.89
386.14	379.17
386.34	367.46
386.53	411.93
386.72	409.59
386.92	393.21
387.11	395.55
387.31	433.00
387.50	393.21
387.70	390.87
387.89	472.79
388.09	395.55
388.28	344.06
388.48	360.44
388.67	395.55
388.86	355.76
389.06	404.91
389.25	433.00
389.45	435.34
389.64	447.04
389.84	344.06
390.03	390.87
390.22	395.55
390.42	421.30
390.61	376.83
390.81	355.76
391.00	451.72
391.19	440.02
391.39	379.17
391.58	456.40
391.78	470.45
391.97	388.53
392.16	362.78
392.36	425.98
392.55	482.15
392.75	369.80
392.94	423.64
393.13	414.27
393.33	397.89
393.52	414.27
393.71	409.59
393.91	454.06
394.10	442.36
394.29	395.55
394.49	376.83
394.68	379.17
394.88	407.25
395.07	479.81
395.26	397.89
395.46	430.66
395.65	456.40
395.84	482.15
396.04	514.92
396.23	444.70
396.42	362.78
396.62	435.34
396.81	381.51
397.00	440.02
397.19	447.04
397.39	437.68
397.58	449.38
397.77	437.68
397.97	355.76
398.16	348.74
398.35	433.00
398.55	381.51
398.74	442.36
398.93	409.59
399.12	425.98
399.32	465.77
399.51	374.49
399.70	358.10
399.90	381.51
400.09	440.02
400.28	390.87
400.47	348.74
400.67	416.62
400.86	409.59
401.05	414.27
401.24	496.19
401.44	374.49
401.63	482.15
401.82	472.79
402.01	418.96
402.21	440.02
402.40	454.06
402.59	451.72
402.78	418.96
402.97	430.66
403.17	442.36
403.36	435.34
403.55	351.08
403.74	433.00
403.93	397.89
404.13	442.36
404.32	388.53
404.51	407.25
404.70	470.45
404.89	449.38
405.09	430.66
405.28	418.96
405.47	365.12
405.66	430.66
405.85	454.06
406.05	390.87
406.24	397.89
406.43	465.77
406.62	418.96
406.81	447.04
407.00	381.51
407.20	404.91
407.39	435.34
407.58	395.55
407.77	418.96
407.96	344.06
408.15	428.32
408.34	486.83
408.54	381.51
408.73	369.80
408.92	430.66
409.11	383.85
409.30	461.09
409.49	404.91
409.68	341.72
409.87	447.04
410.07	334.70
410.26	369.80
410.45	390.87
410.64	425.98
410.83	348.74
411.02	418.96
411.21	409.59
411.40	383.85
411.59	332.36
411.78	437.68
411.98	433.00
412.17	381.51
412.36	423.64
412.55	468.11
412.74	416.62
412.93	428.32
413.12	454.06
413.31	444.70
413.50	381.51
413.69	395.55
413.88	425.98
414.07	425.98
414.26	449.38
414.45	423.64
414.64	435.34
414.83	454.06
415.02	416.62
415.22	379.17
415.41	447.04
415.60	355.76
415.79	292.57
415.98	468.11
416.17	465.77
416.36	351.08
416.55	402.57
416.74	465.77
416.93	447.04
417.12	355.76
417.31	369.80
417.50	395.55
417.69	383.85
417.88	423.64
418.07	388.53
418.26	437.68
418.45	365.12
418.64	500.87
418.83	397.89
419.02	395.55
419.21	442.36
419.39	369.80
419.58	416.62
419.77	444.70
419.96	475.13
420.15	379.17
420.34	437.68
420.53	374.49
420.72	477.47
420.91	376.83
421.10	376.83
421.29	390.87
421.48	458.74
421.67	423.64
421.86	463.43
422.05	435.34
422.24	449.38
422.43	433.00
422.61	425.98
422.80	428.32
422.99	447.04
423.18	475.13
423.37	503.22
423.56	421.30
423.75	379.17
423.94	390.87
424.13	472.79
424.32	362.78
424.50	428.32
424.69	454.06
424.88	416.62
425.07	376.83
425.26	463.43
425.45	440.02
425.64	339.38
425.83	379.17
426.01	456.40
426.20	404.91
426.39	458.74
426.58	444.70
426.77	512.58
426.96	388.53
427.15	418.96
427.33	421.30
427.52	388.53
427.71	433.00
427.90	458.74
428.09	397.89
428.28	390.87
428.46	388.53
428.65	341.72
428.84	411.93
429.03	404.91
429.22	397.89
429.40	376.83
429.59	442.36
429.78	458.74
429.97	479.81
430.16	386.19
430.34	428.32
430.53	407.25
430.72	341.72
430.91	367.46
431.10	344.06
431.28	367.46
431.47	454.06
431.66	470.45
431.85	407.25
432.03	402.57
432.22	430.66
432.41	444.70
432.60	367.46
432.79	388.53
432.97	402.57
433.16	423.64
433.35	449.38
433.54	388.53
433.72	411.93
433.91	456.40
434.10	402.57
434.28	472.79
434.47	416.62
434.66	428.32
434.85	409.59
435.03	362.78
435.22	404.91
435.41	430.66
435.59	451.72
435.78	397.89
435.97	360.44
436.16	414.27
436.34	411.93
436.53	404.91
436.72	372.15
436.90	390.87
437.09	458.74
437.28	358.10
437.46	421.30
437.65	404.91
437.84	355.76
438.02	308.95
438.21	440.02
438.40	383.85
438.58	402.57
438.77	404.91
438.96	381.51
439.14	360.44
439.33	402.57
439.52	362.78
439.70	444.70
439.89	393.21
440.08	409.59
440.26	395.55
440.45	383.85
440.63	395.55
440.82	421.30
441.01	482.15
441.19	337.04
441.38	355.76
441.57	416.62
441.75	444.70
441.94	437.68
442.12	400.23
442.31	416.62
442.50	409.59
442.68	425.98
442.87	442.36
443.05	411.93
443.24	418.96
443.43	402.57
443.61	440.02
443.80	409.59
443.98	358.10
444.17	447.04
444.35	447.04
444.54	456.40
444.73	425.98
444.91	484.49
445.10	346.40
445.28	409.59
445.47	449.38
445.65	517.26
445.84	425.98
446.02	442.36
446.21	411.93
446.39	367.46
446.58	447.04
446.77	416.62
446.95	369.80
447.14	397.89
447.32	388.53
447.51	411.93
447.69	418.96
447.88	402.57
448.06	451.72
448.25	475.13
448.43	421.30
448.62	325.33
448.80	374.49
448.99	337.04
449.17	442.36
449.36	365.12
449.54	454.06
449.73	348.74
449.91	454.06
450.10	409.59
450.28	444.70
450.46	440.02
450.65	402.57
450.83	444.70
451.02	390.87
451.20	395.55
451.39	463.43
451.57	447.04
451.76	416.62
451.94	430.66
452.13	533.64
452.31	463.43
452.49	379.17
452.68	390.87
452.86	433.00
453.05	428.32
453.23	404.91
453.42	337.04
453.60	365.12
453.78	430.66
453.97	388.53
454.15	402.57
454.34	409.59
454.52	402.57
454.70	409.59
454.89	425.98
455.07	484.49
455.26	486.83
455.44	461.09
455.62	404.91
455.81	496.19
455.99	425.98
456.17	475.13
456.36	379.17
456.54	414.27
456.73	365.12
456.91	404.91
457.09	393.21
457.28	418.96
457.46	407.25
457.64	388.53
457.83	407.25
458.01	449.38
458.19	479.81
458.38	423.64
458.56	416.62
458.74	379.17
458.93	468.11
459.11	411.93
459.29	337.04
459.48	409.59
459.66	500.87
459.84	428.32
460.03	428.32
460.21	491.51
460.39	458.74
460.57	470.45
460.76	479.81
460.94	393.21
461.12	414.27
461.31	486.83
461.49	379.17
461.67	433.00
461.85	376.83
462.04	437.68
462.22	856.64
462.40	472.79
462.59	491.51
462.77	358.10
462.95	428.32
463.13	449.38
463.32	435.34
463.50	390.87
463.68	372.15
463.86	423.64
464.05	447.04
464.23	433.00
464.41	447.04
464.59	374.49
464.78	416.62
464.96	341.72
465.14	409.59
465.32	402.57
465.50	468.11
465.69	414.27
465.87	493.85
466.05	376.83
466.23	435.34
466.41	407.25
466.60	433.00
466.78	449.38
466.96	397.89
467.14	407.25
467.32	482.15
467.51	425.98
467.69	423.64
467.87	353.42
468.05	409.59
468.23	447.04
468.41	456.40
468.60	395.55
468.78	428.32
468.96	409.59
469.14	381.51
469.32	418.96
469.50	355.76
469.69	465.77
469.87	430.66
470.05	461.09
470.23	407.25
470.41	348.74
470.59	407.25
470.77	449.38
470.95	411.93
471.14	472.79
471.32	486.83
471.50	463.43
471.68	425.98
471.86	435.34
472.04	416.62
472.22	491.51
472.40	433.00
472.58	404.91
472.77	400.23
472.95	374.49
473.13	503.22
473.31	461.09
473.49	372.15
473.67	346.40
473.85	402.57
474.03	442.36
474.21	425.98
474.39	379.17
474.57	507.90
474.75	437.68
474.93	379.17
475.12	416.62
475.30	372.15
475.48	404.91
475.66	348.74
475.84	388.53
476.02	414.27
476.20	468.11
476.38	486.83
476.56	397.89
476.74	407.25
476.92	430.66
477.10	374.49
477.28	409.59
477.46	430.66
477.64	449.38
477.82	407.25
478.00	409.59
478.18	381.51
478.36	351.08
478.54	402.57
478.72	374.49
478.90	407.25
479.08	421.30
479.26	451.72
479.44	388.53
479.62	407.25
479.80	388.53
479.98	393.21
480.16	442.36
480.34	440.02
480.52	418.96
480.70	400.23
480.88	423.64
481.06	442.36
481.24	425.98
481.41	388.53
481.59	376.83
481.77	447.04
481.95	414.27
482.13	428.32
482.31	461.09
482.49	381.51
482.67	437.68
482.85	404.91
483.03	440.02
483.21	416.62
483.39	472.79
483.57	433.00
483.74	435.34
483.92	461.09
484.10	470.45
484.28	433.00
484.46	442.36
484.64	407.25
484.82	442.36
485.00	390.87
485.18	374.49
485.35	411.93
485.53	353.42
485.71	470.45
485.89	470.45
486.07	468.11
486.25	491.51
486.43	440.02
486.61	418.96
486.78	397.89
486.96	376.83
487.14	416.62
487.32	374.49
487.50	402.57
487.68	470.45
487.85	437.68
488.03	367.46
488.21	447.04
488.39	437.68
488.57	376.83
488.75	430.66
488.92	519.60
489.10	374.49
489.28	437.68
489.46	416.62
489.64	444.70
489.81	437.68
489.99	428.32
490.17	482.15
490.35	447.04
490.53	416.62
490.70	386.19
490.88	428.32
491.06	435.34
491.24	428.32
491.41	484.49
491.59	390.87
491.77	437.68
491.95	367.46
492.13	409.59
492.30	390.87
492.48	369.80
492.66	458.74
492.84	442.36
493.01	421.30
493.19	386.19
493.37	442.36
493.54	418.96
493.72	444.70
493.90	386.19
494.08	379.17
494.25	430.66
494.43	430.66
494.61	418.96
494.79	374.49
494.96	372.15
495.14	461.09
495.32	486.83
495.49	458.74
495.67	379.17
495.85	416.62
496.02	365.12
496.20	430.66
496.38	435.34
496.55	400.23
496.73	435.34
496.91	341.72
497.09	409.59
497.26	397.89
497.44	418.96
497.62	437.68
497.79	393.21
497.97	374.49
498.14	418.96
498.32	381.51
498.50	418.96
498.67	400.23
498.85	493.85
499.03	444.70
499.20	407.25
499.38	433.00
499.56	433.00
499.73	514.92
499.91	477.47
500.08	393.21
500.26	472.79
500.44	386.19
500.61	388.53
500.79	451.72
500.97	517.26
501.14	454.06
501.32	414.27
501.49	454.06
501.67	472.79
501.84	423.64
502.02	470.45
502.20	451.72
502.37	390.87
502.55	409.59
502.72	437.68
502.90	425.98
503.07	418.96
503.25	449.38
503.43	402.57
503.60	376.83
503.78	461.09
503.95	442.36
504.13	383.85
504.30	402.57
504.48	468.11
504.65	395.55
504.83	461.09
505.01	416.62
505.18	400.23
505.36	395.55
505.53	414.27
505.71	395.55
505.88	486.83
506.06	421.30
506.23	346.40
506.41	404.91
506.58	451.72
506.76	433.00
506.93	393.21
507.11	477.47
507.28	449.38
507.46	411.93
507.63	400.23
507.81	407.25
507.98	416.62
508.16	376.83
508.33	369.80
508.50	444.70
508.68	334.70
508.85	367.46
509.03	425.98
509.20	390.87
509.38	393.21
509.55	423.64
509.73	444.70
509.90	472.79
510.08	393.21
510.25	510.24
510.42	386.19
510.60	482.15
510.77	423.64
510.95	449.38
511.12	393.21
511.30	386.19
511.47	372.15
511.64	440.02
511.82	400.23
511.99	379.17
512.17	379.17
512.34	402.57
512.51	421.30
512.69	430.66
512.86	372.15
513.04	468.11
513.21	327.68
513.38	358.10
513.56	444.70
513.73	369.80
513.90	411.93
514.08	423.64
514.25	491.51
514.43	421.30
514.60	440.02
514.77	390.87
514.95	423.64
515.12	374.49
515.29	442.36
515.47	437.68
515.64	484.49
515.81	442.36
515.99	411.93
516.16	425.98
516.33	435.34
516.51	482.15
516.68	416.62
516.85	409.59
517.03	346.40
517.20	430.66
517.37	428.32
517.54	449.38
517.72	442.36
517.89	358.10
518.06	374.49
518.24	404.91
518.41	411.93
518.58	435.34
518.75	421.30
518.93	418.96
519.10	447.04
519.27	416.62
519.45	458.74
519.62	367.46
519.79	407.25
519.96	404.91
520.14	428.32
520.31	428.32
520.48	411.93
520.65	418.96
520.83	433.00
521.00	435.34
521.17	418.96
521.34	428.32
521.52	414.27
521.69	416.62
521.86	381.51
522.03	418.96
522.20	486.83
522.38	386.19
522.55	428.32
522.72	444.70
522.89	397.89
523.07	435.34
523.24	435.34
523.41	423.64
523.58	440.02
523.75	393.21
523.92	440.02
524.10	440.02
524.27	449.38
524.44	411.93
524.61	447.04
524.78	449.38
524.96	458.74
525.13	362.78
525.30	489.17
525.47	425.98
525.64	402.57
525.81	397.89
525.98	374.49
526.16	365.12
526.33	376.83
526.50	376.83
526.67	442.36
526.84	355.76
527.01	442.36
527.18	404.91
527.36	418.96
527.53	402.57
527.70	451.72
527.87	456.40
528.04	458.74
528.21	404.91
528.38	435.34
528.55	395.55
528.72	418.96
528.89	449.38
529.07	409.59
529.24	409.59
529.41	449.38
529.58	390.87
529.75	367.46
529.92	430.66
530.09	397.89
530.26	442.36
530.43	423.64
530.60	444.70
530.77	463.43
530.94	355.76
531.11	404.91
531.28	383.85
531.46	337.04
531.63	477.47
531.80	510.24
531.97	386.19
532.14	449.38
532.31	475.13
532.48	395.55
532.65	433.00
532.82	421.30
532.99	397.89
533.16	402.57
533.33	449.38
533.50	418.96
533.67	496.19
533.84	390.87
534.01	379.17
534.18	430.66
534.35	454.06
534.52	379.17
534.69	407.25
534.86	411.93
535.03	402.57
535.20	416.62
535.37	442.36
535.54	425.98
535.71	416.62
535.88	437.68
536.05	395.55
536.22	409.59
536.38	463.43
536.55	395.55
536.72	437.68
536.89	461.09
537.06	332.36
537.23	458.74
537.40	477.47
537.57	416.62
537.74	437.68
537.91	374.49
538.08	454.06
538.25	400.23
538.42	421.30
538.59	449.38
538.75	397.89
538.92	369.80
539.09	454.06
539.26	418.96
539.43	449.38
539.60	463.43
539.77	372.15
539.94	486.83
540.11	393.21
540.28	468.11
540.44	454.06
540.61	461.09
540.78	388.53
540.95	425.98
541.12	423.64
541.29	339.38
541.46	444.70
541.62	395.55
541.79	437.68
541.96	400.23
542.13	393.21
542.30	376.83
542.47	468.11
542.63	470.45
542.80	442.36
542.97	458.74
543.14	404.91
543.31	447.04
543.48	404.91
543.64	325.33
543.81	437.68
543.98	428.32
544.15	381.51
544.32	430.66
544.48	484.49
544.65	367.46
544.82	374.49
544.99	425.98
545.16	503.22
545.32	421.30
545.49	369.80
545.66	458.74
545.83	437.68
546.00	437.68
546.16	400.23
546.33	383.85
546.50	376.83
546.67	418.96
546.83	428.32
547.00	428.32
547.17	386.19
547.34	416.62
547.50	449.38
547.67	351.08
547.84	407.25
548.00	500.87
548.17	334.70
548.34	430.66
548.51	451.72
548.67	393.21
548.84	421.30
549.01	449.38
549.18	425.98
549.34	425.98
549.51	416.62
549.68	444.70
549.84	372.15
550.01	393.21
550.18	449.38
550.34	493.85
550.51	294.91
550.68	404.91
550.84	444.70
551.01	409.59
551.18	404.91
551.34	337.04
551.51	454.06
551.68	397.89
551.84	484.49
552.01	372.15
552.18	325.33
552.34	383.85
552.51	486.83
552.68	435.34
552.84	397.89
553.01	374.49
553.18	421.30
553.34	383.85
553.51	407.25
553.67	442.36
553.84	414.27
554.01	435.34
554.17	468.11
554.34	376.83
554.51	395.55
554.67	468.11
554.84	491.51
555.00	442.36
555.17	442.36
555.33	461.09
555.50	451.72
555.67	491.51
555.83	397.89
556.00	475.13
556.16	545.34
556.33	444.70
556.50	440.02
556.66	437.68
556.83	461.09
556.99	423.64
557.16	458.74
557.32	369.80
557.49	388.53
557.65	435.34
557.82	341.72
557.98	351.08
558.15	337.04
558.32	423.64
558.48	423.64
558.65	461.09
558.81	454.06
558.98	376.83
559.14	435.34
559.31	444.70
559.47	421.30
559.64	451.72
559.80	449.38
559.97	447.04
560.13	451.72
560.30	374.49
560.46	397.89
560.63	374.49
560.79	397.89
560.96	365.12
561.12	402.57
561.29	425.98
561.45	470.45
561.61	397.89
561.78	521.94
561.94	433.00
562.11	404.91
562.27	414.27
562.44	442.36
562.60	409.59
562.77	381.51
562.93	425.98
563.10	397.89
563.26	414.27
563.42	418.96
563.59	449.38
563.75	472.79
563.92	416.62
564.08	404.91
564.24	449.38
564.41	440.02
564.57	393.21
564.74	472.79
564.90	425.98
565.07	428.32
565.23	435.34
565.39	388.53
565.56	358.10
565.72	365.12
565.88	465.77
566.05	407.25
566.21	425.98
566.38	437.68
566.54	491.51
566.70	341.72
566.87	435.34
567.03	393.21
567.19	428.32
567.36	430.66
567.52	423.64
567.68	444.70
567.85	402.57
568.01	423.64
568.17	388.53
568.34	465.77
568.50	451.72
568.66	407.25
568.83	444.70
568.99	430.66
569.15	449.38
569.32	376.83
569.48	442.36
569.64	337.04
569.81	437.68
569.97	437.68
570.13	433.00
570.30	437.68
570.46	395.55
570.62	301.93
570.78	425.98
570.95	327.68
571.11	423.64
571.27	430.66
571.43	376.83
571.60	407.25
571.76	409.59
571.92	355.76
572.09	362.78
572.25	416.62
572.41	433.00
572.57	433.00
572.74	463.43
572.90	404.91
573.06	416.62
573.22	379.17
573.38	482.15
573.55	433.00
573.71	430.66
573.87	435.34
574.03	402.57
574.20	404.91
574.36	470.45
574.52	521.94
574.68	397.89
574.84	428.32
575.01	437.68
575.17	468.11
575.33	454.06
575.49	498.53
575.65	470.45
575.82	433.00
575.98	414.27
576.14	454.06
576.30	390.87
576.46	374.49
576.62	433.00
576.79	393.21
576.95	416.62
577.11	390.87
577.27	362.78
577.43	425.98
577.59	482.15
577.75	435.34
577.92	386.19
578.08	332.36
578.24	393.21
578.40	475.13
578.56	433.00
578.72	418.96
578.88	458.74
579.04	433.00
579.21	423.64
579.37	430.66
579.53	404.91
579.69	414.27
579.85	447.04
580.01	404.91
580.17	416.62
580.33	428.32
580.49	468.11
580.65	400.23
580.82	423.64
580.98	423.64
581.14	428.32
581.30	510.24
581.46	447.04
581.62	407.25
581.78	388.53
581.94	479.81
582.10	365.12
582.26	411.93
582.42	388.53
582.58	355.76
582.74	491.51
582.90	491.51
583.06	442.36
583.22	493.85
583.38	430.66
583.54	400.23
583.70	472.79
583.86	430.66
584.02	404.91
584.18	418.96
584.34	451.72
584.50	388.53
584.66	332.36
584.82	393.21
584.98	437.68
585.14	458.74
585.30	498.53
585.46	414.27
585.62	414.27
585.78	475.13
585.94	383.85
586.10	409.59
586.26	414.27
586.42	451.72
586.58	440.02
586.74	395.55
586.90	358.10
587.06	369.80
587.22	409.59
587.38	381.51
587.54	339.38
587.70	451.72
587.86	477.47
588.02	425.98
588.18	374.49
588.34	437.68
588.49	388.53
588.65	407.25
588.81	409.59
588.97	358.10
589.13	423.64
589.29	428.32
589.45	461.09
589.61	421.30
589.77	374.49
589.93	428.32
590.08	386.19
590.24	344.06
590.40	388.53
590.56	428.32
590.72	374.49
590.88	407.25
591.04	393.21
591.20	404.91
591.35	475.13
591.51	479.81
591.67	379.17
591.83	367.46
591.99	437.68
592.15	414.27
592.31	440.02
592.46	425.98
592.62	437.68
592.78	369.80
592.94	390.87
593.10	402.57
593.26	402.57
593.41	430.66
593.57	423.64
593.73	400.23
593.89	358.10
594.05	372.15
594.20	390.87
594.36	372.15
594.52	433.00
594.68	395.55
594.84	440.02
594.99	463.43
595.15	372.15
595.31	416.62
595.47	463.43
595.62	416.62
595.78	425.98
595.94	486.83
596.10	376.83
596.25	404.91
596.41	416.62
596.57	407.25
596.73	444.70
596.88	421.30
597.04	437.68
597.20	421.30
597.36	423.64
597.51	402.57
597.67	463.43
597.83	397.89
597.99	369.80
598.14	430.66
598.30	433.00
598.46	425.98
598.61	440.02
598.77	414.27
598.93	383.85
599.09	456.40
599.24	388.53
599.40	407.25
599.56	425.98
599.71	372.15
599.87	475.13
600.03	402.57
600.18	442.36
600.34	449.38
600.50	433.00
600.65	372.15
600.81	428.32
600.97	414.27
601.12	409.59
601.28	440.02
601.44	400.23
601.59	442.36
601.75	425.98
601.91	395.55
602.06	416.62
602.22	484.49
602.37	400.23
602.53	400.23
602.69	379.17
602.84	353.42
603.00	397.89
603.16	491.51
603.31	411.93
603.47	409.59
603.62	341.72
603.78	451.72
603.94	472.79
604.09	369.80
604.25	428.32
604.40	463.43
604.56	435.34
604.71	379.17
604.87	388.53
605.03	397.89
605.18	397.89
605.34	407.25
605.49	458.74
605.65	407.25
605.80	369.80
605.96	435.34
606.12	395.55
606.27	374.49
606.43	383.85
606.58	402.57
606.74	491.51
606.89	383.85
607.05	435.34
607.20	409.59
607.36	477.47
607.51	393.21
607.67	397.89
607.82	362.78
607.98	482.15
608.13	421.30
608.29	416.62
608.44	369.80
608.60	437.68
608.75	489.17
608.91	493.85
609.06	442.36
609.22	447.04
609.37	393.21
609.53	421.30
609.68	372.15
609.84	463.43
609.99	425.98
610.15	423.64
