SpectraSuite Data File
++++++++++++++++++++++++++++++++++++
Date: Fri Oct 25 12:11:22 EDT 2013
User: price-jones
Dark Spectrum Present: No
Reference Spectrum Present: No
Number of Sampled Component Spectra: 1
Spectrometers: USB2+H05261
Integration Time (usec): 100000 (USB2+H05261)
Spectra Averaged: 1 (USB2+H05261)
Boxcar Smoothing: 0 (USB2+H05261)
Correct for Electrical Dark: No (USB2+H05261)
Strobe/Lamp Enabled: No (USB2+H05261)
Correct for Detector Non-linearity: No (USB2+H05261)
Correct for Stray Light: No (USB2+H05261)
Number of Pixels in Processed Spectrum: 2048
>>>>>Begin Processed Spectral Data<<<<<
365.73	383.85
365.92	383.85
366.12	383.85
366.32	227.03
366.52	297.25
366.72	224.69
366.91	297.25
367.11	229.37
367.31	163.84
367.51	236.39
367.70	245.76
367.90	215.33
368.10	227.03
368.30	255.12
368.49	231.71
368.69	299.59
368.89	234.05
369.09	114.69
369.28	283.20
369.48	149.79
369.68	266.82
369.87	294.91
370.07	238.73
370.27	320.65
370.47	409.59
370.66	297.25
370.86	299.59
371.06	477.47
371.25	428.32
371.45	388.53
371.65	458.74
371.84	454.06
372.04	430.66
372.24	418.96
372.44	353.42
372.63	369.80
372.83	395.55
373.03	400.23
373.22	358.10
373.42	463.43
373.62	395.55
373.81	421.30
374.01	479.81
374.21	477.47
374.40	421.30
374.60	489.17
374.79	454.06
374.99	444.70
375.19	341.72
375.38	437.68
375.58	442.36
375.78	479.81
375.97	461.09
376.17	454.06
376.37	421.30
376.56	395.55
376.76	442.36
376.95	442.36
377.15	376.83
377.35	402.57
377.54	397.89
377.74	447.04
377.93	400.23
378.13	433.00
378.33	493.85
378.52	447.04
378.72	400.23
378.91	442.36
379.11	374.49
379.31	393.21
379.50	346.40
379.70	390.87
379.89	435.34
380.09	458.74
380.28	386.19
380.48	311.29
380.68	442.36
380.87	409.59
381.07	430.66
381.26	444.70
381.46	388.53
381.65	458.74
381.85	411.93
382.04	451.72
382.24	418.96
382.43	423.64
382.63	442.36
382.83	407.25
383.02	407.25
383.22	423.64
383.41	383.85
383.61	414.27
383.80	386.19
384.00	461.09
384.19	269.16
384.39	341.72
384.58	409.59
384.78	465.77
384.97	428.32
385.17	428.32
385.36	404.91
385.56	433.00
385.75	348.74
385.95	449.38
386.14	407.25
386.34	341.72
386.53	428.32
386.72	383.85
386.92	472.79
387.11	376.83
387.31	444.70
387.50	451.72
387.70	395.55
387.89	444.70
388.09	416.62
388.28	414.27
388.48	334.70
388.67	442.36
388.86	411.93
389.06	411.93
389.25	411.93
389.45	447.04
389.64	381.51
389.84	493.85
390.03	393.21
390.22	447.04
390.42	430.66
390.61	447.04
390.81	358.10
391.00	414.27
391.19	423.64
391.39	409.59
391.58	435.34
391.78	374.49
391.97	416.62
392.16	379.17
392.36	447.04
392.55	414.27
392.75	442.36
392.94	395.55
393.13	465.77
393.33	355.76
393.52	365.12
393.71	440.02
393.91	435.34
394.10	367.46
394.29	425.98
394.49	390.87
394.68	456.40
394.88	393.21
395.07	402.57
395.26	416.62
395.46	414.27
395.65	491.51
395.84	444.70
396.04	449.38
396.23	400.23
396.42	435.34
396.62	407.25
396.81	409.59
397.00	393.21
397.19	322.99
397.39	435.34
397.58	416.62
397.77	386.19
397.97	465.77
398.16	442.36
398.35	376.83
398.55	358.10
398.74	388.53
398.93	423.64
399.12	367.46
399.32	418.96
399.51	435.34
399.70	470.45
399.90	442.36
400.09	461.09
400.28	463.43
400.47	407.25
400.67	472.79
400.86	397.89
401.05	360.44
401.24	423.64
401.44	395.55
401.63	409.59
401.82	428.32
402.01	461.09
402.21	369.80
402.40	437.68
402.59	447.04
402.78	451.72
402.97	416.62
403.17	440.02
403.36	407.25
403.55	341.72
403.74	425.98
403.93	386.19
404.13	416.62
404.32	353.42
404.51	383.85
404.70	390.87
404.89	397.89
405.09	440.02
405.28	454.06
405.47	379.17
405.66	430.66
405.85	456.40
406.05	440.02
406.24	390.87
406.43	411.93
406.62	411.93
406.81	456.40
407.00	404.91
407.20	442.36
407.39	372.15
407.58	461.09
407.77	397.89
407.96	409.59
408.15	423.64
408.34	414.27
408.54	458.74
408.73	402.57
408.92	423.64
409.11	440.02
409.30	528.96
409.49	351.08
409.68	423.64
409.87	482.15
410.07	372.15
410.26	421.30
410.45	301.93
410.64	411.93
410.83	369.80
411.02	372.15
411.21	421.30
411.40	437.68
411.59	388.53
411.78	358.10
411.98	414.27
412.17	397.89
412.36	425.98
412.55	409.59
412.74	395.55
412.93	472.79
413.12	430.66
413.31	433.00
413.50	369.80
413.69	362.78
413.88	416.62
414.07	393.21
414.26	425.98
414.45	416.62
414.64	470.45
414.83	416.62
415.02	388.53
415.22	430.66
415.41	418.96
415.60	440.02
415.79	425.98
415.98	423.64
416.17	400.23
416.36	418.96
416.55	409.59
416.74	334.70
416.93	519.60
417.12	442.36
417.31	390.87
417.50	355.76
417.69	416.62
417.88	433.00
418.07	482.15
418.26	362.78
418.45	334.70
418.64	435.34
418.83	369.80
419.02	393.21
419.21	435.34
419.39	440.02
419.58	444.70
419.77	411.93
419.96	456.40
420.15	379.17
420.34	383.85
420.53	425.98
420.72	449.38
420.91	414.27
421.10	411.93
421.29	402.57
421.48	393.21
421.67	402.57
421.86	383.85
422.05	444.70
422.24	421.30
422.43	418.96
422.61	348.74
422.80	400.23
422.99	395.55
423.18	421.30
423.37	463.43
423.56	442.36
423.75	433.00
423.94	362.78
424.13	447.04
424.32	388.53
424.50	374.49
424.69	390.87
424.88	437.68
425.07	400.23
425.26	458.74
425.45	423.64
425.64	454.06
425.83	411.93
426.01	416.62
426.20	351.08
426.39	358.10
426.58	362.78
426.77	402.57
426.96	458.74
427.15	507.90
427.33	390.87
427.52	379.17
427.71	381.51
427.90	348.74
428.09	390.87
428.28	299.59
428.46	442.36
428.65	388.53
428.84	404.91
429.03	409.59
429.22	358.10
429.40	404.91
429.59	397.89
429.78	447.04
429.97	433.00
430.16	418.96
430.34	374.49
430.53	416.62
430.72	437.68
430.91	416.62
431.10	386.19
431.28	369.80
431.47	468.11
431.66	393.21
431.85	433.00
432.03	409.59
432.22	449.38
432.41	402.57
432.60	423.64
432.79	409.59
432.97	327.68
433.16	365.12
433.35	407.25
433.54	344.06
433.72	461.09
433.91	379.17
434.10	390.87
434.28	416.62
434.47	395.55
434.66	531.30
434.85	327.68
435.03	400.23
435.22	362.78
435.41	482.15
435.59	454.06
435.78	353.42
435.97	433.00
436.16	435.34
436.34	414.27
436.53	355.76
436.72	365.12
436.90	409.59
437.09	397.89
437.28	451.72
437.46	400.23
437.65	465.77
437.84	526.62
438.02	433.00
438.21	437.68
438.40	381.51
438.58	451.72
438.77	463.43
438.96	388.53
439.14	444.70
439.33	416.62
439.52	381.51
439.70	374.49
439.89	458.74
440.08	390.87
440.26	393.21
440.45	423.64
440.63	421.30
440.82	463.43
441.01	461.09
441.19	430.66
441.38	418.96
441.57	435.34
441.75	514.92
441.94	435.34
442.12	458.74
442.31	428.32
442.50	400.23
442.68	440.02
442.87	330.02
443.05	404.91
443.24	449.38
443.43	334.70
443.61	430.66
443.80	407.25
443.98	433.00
444.17	428.32
444.35	510.24
444.54	393.21
444.73	367.46
444.91	365.12
445.10	372.15
445.28	397.89
445.47	390.87
445.65	444.70
445.84	379.17
446.02	416.62
446.21	348.74
446.39	351.08
446.58	365.12
446.77	425.98
446.95	442.36
447.14	332.36
447.32	449.38
447.51	425.98
447.69	423.64
447.88	304.27
448.06	409.59
448.25	418.96
448.43	381.51
448.62	440.02
448.80	400.23
448.99	454.06
449.17	372.15
449.36	341.72
449.54	447.04
449.73	414.27
449.91	468.11
450.10	409.59
450.28	468.11
450.46	477.47
450.65	404.91
450.83	332.36
451.02	456.40
451.20	397.89
451.39	409.59
451.57	383.85
451.76	416.62
451.94	367.46
452.13	421.30
452.31	482.15
452.49	414.27
452.68	327.68
452.86	379.17
453.05	416.62
453.23	379.17
453.42	430.66
453.60	444.70
453.78	360.44
453.97	409.59
454.15	428.32
454.34	400.23
454.52	430.66
454.70	404.91
454.89	472.79
455.07	362.78
455.26	395.55
455.44	376.83
455.62	428.32
455.81	463.43
455.99	423.64
456.17	465.77
456.36	369.80
456.54	430.66
456.73	362.78
456.91	409.59
457.09	362.78
457.28	423.64
457.46	358.10
457.64	477.47
457.83	360.44
458.01	379.17
458.19	332.36
458.38	374.49
458.56	454.06
458.74	404.91
458.93	386.19
459.11	355.76
459.29	409.59
459.48	404.91
459.66	421.30
459.84	472.79
460.03	454.06
460.21	416.62
460.39	444.70
460.57	395.55
460.76	437.68
460.94	414.27
461.12	411.93
461.31	435.34
461.49	400.23
461.67	411.93
461.85	444.70
462.04	402.57
462.22	690.46
462.40	416.62
462.59	334.70
462.77	381.51
462.95	397.89
463.13	402.57
463.32	461.09
463.50	463.43
463.68	423.64
463.86	425.98
464.05	418.96
464.23	423.64
464.41	414.27
464.59	500.87
464.78	404.91
464.96	400.23
465.14	423.64
465.32	388.53
465.50	409.59
465.69	367.46
465.87	367.46
466.05	416.62
466.23	400.23
466.41	395.55
466.60	447.04
466.78	451.72
466.96	440.02
467.14	346.40
467.32	418.96
467.51	437.68
467.69	383.85
467.87	442.36
468.05	433.00
468.23	482.15
468.41	463.43
468.60	449.38
468.78	393.21
468.96	451.72
469.14	353.42
469.32	381.51
469.50	383.85
469.69	400.23
469.87	456.40
470.05	458.74
470.23	367.46
470.41	383.85
470.59	425.98
470.77	468.11
470.95	421.30
471.14	444.70
471.32	425.98
471.50	402.57
471.68	416.62
471.86	442.36
472.04	447.04
472.22	411.93
472.40	386.19
472.58	332.36
472.77	369.80
472.95	383.85
473.13	472.79
473.31	440.02
473.49	388.53
473.67	334.70
473.85	372.15
474.03	376.83
474.21	465.77
474.39	400.23
474.57	470.45
474.75	409.59
474.93	390.87
475.12	440.02
475.30	472.79
475.48	435.34
475.66	369.80
475.84	423.64
476.02	402.57
476.20	402.57
476.38	397.89
476.56	557.05
476.74	418.96
476.92	383.85
477.10	388.53
477.28	390.87
477.46	404.91
477.64	367.46
477.82	402.57
478.00	411.93
478.18	428.32
478.36	386.19
478.54	344.06
478.72	463.43
478.90	386.19
479.08	435.34
479.26	423.64
479.44	442.36
479.62	383.85
479.80	383.85
479.98	388.53
480.16	404.91
480.34	444.70
480.52	360.44
480.70	348.74
480.88	407.25
481.06	447.04
481.24	374.49
481.41	355.76
481.59	388.53
481.77	351.08
481.95	393.21
482.13	521.94
482.31	407.25
482.49	402.57
482.67	423.64
482.85	416.62
483.03	484.49
483.21	433.00
483.39	430.66
483.57	395.55
483.74	444.70
483.92	430.66
484.10	337.04
484.28	344.06
484.46	444.70
484.64	386.19
484.82	414.27
485.00	397.89
485.18	425.98
485.35	395.55
485.53	315.97
485.71	395.55
485.89	458.74
486.07	458.74
486.25	440.02
486.43	430.66
486.61	507.90
486.78	440.02
486.96	397.89
487.14	421.30
487.32	367.46
487.50	372.15
487.68	454.06
487.85	400.23
488.03	486.83
488.21	423.64
488.39	360.44
488.57	428.32
488.75	468.11
488.92	496.19
489.10	465.77
489.28	463.43
489.46	404.91
489.64	425.98
489.81	493.85
489.99	388.53
490.17	447.04
490.35	461.09
490.53	404.91
490.70	390.87
490.88	374.49
491.06	411.93
491.24	414.27
491.41	365.12
491.59	470.45
491.77	397.89
491.95	418.96
492.13	358.10
492.30	383.85
492.48	360.44
492.66	409.59
492.84	367.46
493.01	409.59
493.19	388.53
493.37	425.98
493.54	442.36
493.72	458.74
493.90	360.44
494.08	330.02
494.25	442.36
494.43	442.36
494.61	372.15
494.79	348.74
494.96	407.25
495.14	322.99
495.32	383.85
495.49	414.27
495.67	512.58
495.85	358.10
496.02	414.27
496.20	489.17
496.38	451.72
496.55	449.38
496.73	440.02
496.91	468.11
497.09	414.27
497.26	379.17
497.44	388.53
497.62	379.17
497.79	386.19
497.97	381.51
498.14	435.34
498.32	416.62
498.50	369.80
498.67	351.08
498.85	372.15
499.03	430.66
499.20	407.25
499.38	386.19
499.56	360.44
499.73	428.32
499.91	433.00
500.08	425.98
500.26	376.83
500.44	404.91
500.61	395.55
500.79	454.06
500.97	381.51
501.14	458.74
501.32	433.00
501.49	475.13
501.67	379.17
501.84	308.95
502.02	451.72
502.20	468.11
502.37	397.89
502.55	449.38
502.72	423.64
502.90	383.85
503.07	397.89
503.25	423.64
503.43	482.15
503.60	440.02
503.78	451.72
503.95	376.83
504.13	449.38
504.30	430.66
504.48	397.89
504.65	440.02
504.83	362.78
505.01	367.46
505.18	447.04
505.36	397.89
505.53	374.49
505.71	365.12
505.88	433.00
506.06	367.46
506.23	461.09
506.41	449.38
506.58	435.34
506.76	386.19
506.93	411.93
507.11	425.98
507.28	409.59
507.46	376.83
507.63	404.91
507.81	320.65
507.98	379.17
508.16	374.49
508.33	437.68
508.50	376.83
508.68	418.96
508.85	440.02
509.03	379.17
509.20	365.12
509.38	428.32
509.55	454.06
509.73	348.74
509.90	416.62
510.08	433.00
510.25	449.38
510.42	390.87
510.60	327.68
510.77	379.17
510.95	440.02
511.12	362.78
511.30	421.30
511.47	449.38
511.64	400.23
511.82	402.57
511.99	411.93
512.17	416.62
512.34	425.98
512.51	395.55
512.69	444.70
512.86	423.64
513.04	388.53
513.21	475.13
513.38	447.04
513.56	437.68
513.73	404.91
513.90	393.21
514.08	428.32
514.25	465.77
514.43	409.59
514.60	351.08
514.77	421.30
514.95	395.55
515.12	414.27
515.29	344.06
515.47	433.00
515.64	341.72
515.81	442.36
515.99	423.64
516.16	416.62
516.33	400.23
516.51	322.99
516.68	472.79
516.85	416.62
517.03	388.53
517.20	402.57
517.37	367.46
517.54	437.68
517.72	358.10
517.89	365.12
518.06	402.57
518.24	435.34
518.41	507.90
518.58	435.34
518.75	421.30
518.93	402.57
519.10	369.80
519.27	472.79
519.45	365.12
519.62	461.09
519.79	447.04
519.96	425.98
520.14	397.89
520.31	456.40
520.48	421.30
520.65	402.57
520.83	376.83
521.00	564.07
521.17	458.74
521.34	414.27
521.52	390.87
521.69	411.93
521.86	416.62
522.03	381.51
522.20	454.06
522.38	386.19
522.55	456.40
522.72	360.44
522.89	369.80
523.07	479.81
523.24	433.00
523.41	320.65
523.58	472.79
523.75	393.21
523.92	470.45
524.10	393.21
524.27	423.64
524.44	496.19
524.61	451.72
524.78	444.70
524.96	463.43
525.13	369.80
525.30	440.02
525.47	404.91
525.64	365.12
525.81	463.43
525.98	435.34
526.16	486.83
526.33	414.27
526.50	390.87
526.67	393.21
526.84	386.19
527.01	383.85
527.18	463.43
527.36	430.66
527.53	397.89
527.70	458.74
527.87	437.68
528.04	435.34
528.21	393.21
528.38	416.62
528.55	472.79
528.72	409.59
528.89	475.13
529.07	461.09
529.24	444.70
529.41	465.77
529.58	383.85
529.75	433.00
529.92	463.43
530.09	383.85
530.26	421.30
530.43	449.38
530.60	456.40
530.77	393.21
530.94	400.23
531.11	479.81
531.28	404.91
531.46	334.70
531.63	472.79
531.80	402.57
531.97	437.68
532.14	428.32
532.31	444.70
532.48	472.79
532.65	418.96
532.82	379.17
532.99	465.77
533.16	400.23
533.33	355.76
533.50	348.74
533.67	383.85
533.84	425.98
534.01	416.62
534.18	425.98
534.35	386.19
534.52	386.19
534.69	414.27
534.86	353.42
535.03	393.21
535.20	461.09
535.37	397.89
535.54	404.91
535.71	355.76
535.88	461.09
536.05	386.19
536.22	423.64
536.38	386.19
536.55	428.32
536.72	465.77
536.89	449.38
537.06	376.83
537.23	421.30
537.40	381.51
537.57	414.27
537.74	449.38
537.91	507.90
538.08	379.17
538.25	400.23
538.42	465.77
538.59	397.89
538.75	425.98
538.92	456.40
539.09	409.59
539.26	477.47
539.43	437.68
539.60	470.45
539.77	416.62
539.94	383.85
540.11	395.55
540.28	425.98
540.44	437.68
540.61	442.36
540.78	451.72
540.95	407.25
541.12	468.11
541.29	442.36
541.46	416.62
541.62	397.89
541.79	484.49
541.96	379.17
542.13	447.04
542.30	423.64
542.47	428.32
542.63	400.23
542.80	400.23
542.97	411.93
543.14	435.34
543.31	390.87
543.48	475.13
543.64	400.23
543.81	409.59
543.98	337.04
544.15	355.76
544.32	411.93
544.48	451.72
544.65	355.76
544.82	386.19
544.99	433.00
545.16	423.64
545.32	425.98
545.49	376.83
545.66	400.23
545.83	425.98
546.00	402.57
546.16	400.23
546.33	390.87
546.50	430.66
546.67	411.93
546.83	393.21
547.00	369.80
547.17	393.21
547.34	437.68
547.50	421.30
547.67	451.72
547.84	461.09
548.00	465.77
548.17	451.72
548.34	498.53
548.51	390.87
548.67	383.85
548.84	423.64
549.01	425.98
549.18	463.43
549.34	421.30
549.51	402.57
549.68	393.21
549.84	477.47
550.01	372.15
550.18	465.77
550.34	533.64
550.51	411.93
550.68	440.02
550.84	407.25
551.01	407.25
551.18	449.38
551.34	362.78
551.51	468.11
551.68	411.93
551.84	470.45
552.01	395.55
552.18	440.02
552.34	449.38
552.51	388.53
552.68	433.00
552.84	402.57
553.01	407.25
553.18	444.70
553.34	334.70
553.51	365.12
553.67	395.55
553.84	454.06
554.01	416.62
554.17	444.70
554.34	444.70
554.51	433.00
554.67	470.45
554.84	421.30
555.00	372.15
555.17	435.34
555.33	428.32
555.50	433.00
555.67	400.23
555.83	395.55
556.00	390.87
556.16	475.13
556.33	409.59
556.50	334.70
556.66	451.72
556.83	374.49
556.99	383.85
557.16	369.80
557.32	407.25
557.49	404.91
557.65	449.38
557.82	437.68
557.98	414.27
558.15	383.85
558.32	435.34
558.48	423.64
558.65	341.72
558.81	381.51
558.98	435.34
559.14	451.72
559.31	414.27
559.47	397.89
559.64	372.15
559.80	433.00
559.97	407.25
560.13	435.34
560.30	428.32
560.46	383.85
560.63	423.64
560.79	327.68
560.96	416.62
561.12	421.30
561.29	381.51
561.45	451.72
561.61	407.25
561.78	493.85
561.94	409.59
562.11	348.74
562.27	444.70
562.44	404.91
562.60	418.96
562.77	465.77
562.93	458.74
563.10	395.55
563.26	407.25
563.42	400.23
563.59	475.13
563.75	400.23
563.92	402.57
564.08	444.70
564.24	383.85
564.41	458.74
564.57	353.42
564.74	337.04
564.90	472.79
565.07	421.30
565.23	379.17
565.39	355.76
565.56	442.36
565.72	458.74
565.88	433.00
566.05	351.08
566.21	454.06
566.38	388.53
566.54	383.85
566.70	428.32
566.87	348.74
567.03	430.66
567.19	416.62
567.36	470.45
567.52	414.27
567.68	395.55
567.85	404.91
568.01	400.23
568.17	374.49
568.34	428.32
568.50	447.04
568.66	351.08
568.83	489.17
568.99	407.25
569.15	423.64
569.32	428.32
569.48	409.59
569.64	423.64
569.81	433.00
569.97	411.93
570.13	376.83
570.30	479.81
570.46	454.06
570.62	458.74
570.78	400.23
570.95	440.02
571.11	437.68
571.27	465.77
571.43	404.91
571.60	400.23
571.76	390.87
571.92	400.23
572.09	395.55
572.25	388.53
572.41	430.66
572.57	430.66
572.74	468.11
572.90	477.47
573.06	468.11
573.22	456.40
573.38	416.62
573.55	500.87
573.71	423.64
573.87	440.02
574.03	444.70
574.20	428.32
574.36	444.70
574.52	381.51
574.68	395.55
574.84	500.87
575.01	437.68
575.17	397.89
575.33	451.72
575.49	519.60
575.65	379.17
575.82	400.23
575.98	421.30
576.14	393.21
576.30	414.27
576.46	477.47
576.62	400.23
576.79	416.62
576.95	388.53
577.11	369.80
577.27	423.64
577.43	475.13
577.59	416.62
577.75	407.25
577.92	397.89
578.08	390.87
578.24	332.36
578.40	437.68
578.56	430.66
578.72	404.91
578.88	433.00
579.04	409.59
579.21	435.34
579.37	374.49
579.53	393.21
579.69	456.40
579.85	428.32
580.01	437.68
580.17	411.93
580.33	379.17
580.49	433.00
580.65	362.78
580.82	428.32
580.98	374.49
581.14	372.15
581.30	397.89
581.46	440.02
581.62	425.98
581.78	379.17
581.94	468.11
582.10	362.78
582.26	456.40
582.42	418.96
582.58	397.89
582.74	362.78
582.90	414.27
583.06	404.91
583.22	463.43
583.38	461.09
583.54	348.74
583.70	411.93
583.86	440.02
584.02	395.55
584.18	395.55
584.34	418.96
584.50	465.77
584.66	437.68
584.82	416.62
584.98	379.17
585.14	435.34
585.30	407.25
585.46	437.68
585.62	365.12
585.78	440.02
585.94	404.91
586.10	374.49
586.26	461.09
586.42	442.36
586.58	421.30
586.74	442.36
586.90	486.83
587.06	374.49
587.22	479.81
587.38	397.89
587.54	376.83
587.70	442.36
587.86	510.24
588.02	372.15
588.18	388.53
588.34	418.96
588.49	409.59
588.65	379.17
588.81	409.59
588.97	388.53
589.13	425.98
589.29	425.98
589.45	463.43
589.61	390.87
589.77	411.93
589.93	386.19
590.08	414.27
590.24	425.98
590.40	456.40
590.56	447.04
590.72	430.66
590.88	430.66
591.04	383.85
591.20	388.53
591.35	407.25
591.51	414.27
591.67	386.19
591.83	393.21
591.99	454.06
592.15	482.15
592.31	442.36
592.46	367.46
592.62	507.90
592.78	395.55
592.94	433.00
593.10	409.59
593.26	337.04
593.41	402.57
593.57	430.66
593.73	423.64
593.89	442.36
594.05	388.53
594.20	416.62
594.36	437.68
594.52	409.59
594.68	388.53
594.84	447.04
594.99	507.90
595.15	414.27
595.31	444.70
595.47	430.66
595.62	484.49
595.78	456.40
595.94	337.04
596.10	404.91
596.25	383.85
596.41	433.00
596.57	435.34
596.73	433.00
596.88	418.96
597.04	409.59
597.20	421.30
597.36	449.38
597.51	346.40
597.67	461.09
597.83	440.02
597.99	418.96
598.14	414.27
598.30	421.30
598.46	411.93
598.61	451.72
598.77	430.66
598.93	477.47
599.09	418.96
599.24	465.77
599.40	458.74
599.56	500.87
599.71	341.72
599.87	425.98
600.03	442.36
600.18	404.91
600.34	437.68
600.50	404.91
600.65	437.68
600.81	437.68
600.97	440.02
601.12	374.49
601.28	437.68
601.44	355.76
601.59	461.09
601.75	411.93
601.91	425.98
602.06	456.40
602.22	543.00
602.37	402.57
602.53	358.10
602.69	390.87
602.84	409.59
603.00	458.74
603.16	435.34
603.31	435.34
603.47	362.78
603.62	503.22
603.78	482.15
603.94	421.30
604.09	430.66
604.25	390.87
604.40	411.93
604.56	397.89
604.71	395.55
604.87	416.62
605.03	423.64
605.18	477.47
605.34	512.58
605.49	402.57
605.65	425.98
605.80	341.72
605.96	409.59
606.12	433.00
606.27	428.32
606.43	440.02
606.58	376.83
606.74	503.22
606.89	519.60
607.05	449.38
607.20	402.57
607.36	435.34
607.51	435.34
607.67	428.32
607.82	489.17
607.98	376.83
608.13	393.21
608.29	447.04
608.44	400.23
608.60	456.40
608.75	451.72
608.91	407.25
609.06	475.13
609.22	442.36
609.37	397.89
609.53	423.64
609.68	383.85
609.84	400.23
609.99	395.55
610.15	440.02
