SpectraSuite Data File
++++++++++++++++++++++++++++++++++++
Date: Fri Oct 25 12:11:09 EDT 2013
User: price-jones
Dark Spectrum Present: No
Reference Spectrum Present: No
Number of Sampled Component Spectra: 1
Spectrometers: USB2+H05261
Integration Time (usec): 100000 (USB2+H05261)
Spectra Averaged: 1 (USB2+H05261)
Boxcar Smoothing: 0 (USB2+H05261)
Correct for Electrical Dark: No (USB2+H05261)
Strobe/Lamp Enabled: No (USB2+H05261)
Correct for Detector Non-linearity: No (USB2+H05261)
Correct for Stray Light: No (USB2+H05261)
Number of Pixels in Processed Spectrum: 2048
>>>>>Begin Processed Spectral Data<<<<<
365.73	332.36
365.92	332.36
366.12	332.36
366.32	290.23
366.52	236.39
366.72	217.67
366.91	208.31
367.11	248.10
367.31	243.42
367.51	215.33
367.70	208.31
367.90	269.16
368.10	229.37
368.30	238.73
368.49	217.67
368.69	187.24
368.89	252.78
369.09	264.48
369.28	248.10
369.48	245.76
369.68	283.20
369.87	320.65
370.07	320.65
370.27	351.08
370.47	402.57
370.66	330.02
370.86	404.91
371.06	400.23
371.25	433.00
371.45	334.70
371.65	346.40
371.84	421.30
372.04	290.23
372.24	397.89
372.44	440.02
372.63	414.27
372.83	402.57
373.03	332.36
373.22	369.80
373.42	372.15
373.62	388.53
373.81	397.89
374.01	425.98
374.21	418.96
374.40	397.89
374.60	454.06
374.79	425.98
374.99	400.23
375.19	437.68
375.38	418.96
375.58	409.59
375.78	461.09
375.97	440.02
376.17	409.59
376.37	369.80
376.56	491.51
376.76	344.06
376.95	355.76
377.15	414.27
377.35	468.11
377.54	503.22
377.74	491.51
377.93	447.04
378.13	423.64
378.33	379.17
378.52	360.44
378.72	442.36
378.91	435.34
379.11	388.53
379.31	367.46
379.50	386.19
379.70	442.36
379.89	498.53
380.09	348.74
380.28	454.06
380.48	360.44
380.68	353.42
380.87	433.00
381.07	428.32
381.26	416.62
381.46	381.51
381.65	507.90
381.85	351.08
382.04	315.97
382.24	374.49
382.43	362.78
382.63	360.44
382.83	461.09
383.02	430.66
383.22	489.17
383.41	440.02
383.61	383.85
383.80	353.42
384.00	358.10
384.19	351.08
384.39	376.83
384.58	386.19
384.78	421.30
384.97	423.64
385.17	440.02
385.36	386.19
385.56	449.38
385.75	348.74
385.95	397.89
386.14	402.57
386.34	435.34
386.53	411.93
386.72	358.10
386.92	425.98
387.11	397.89
387.31	360.44
387.50	423.64
387.70	428.32
387.89	381.51
388.09	393.21
388.28	330.02
388.48	362.78
388.67	355.76
388.86	416.62
389.06	334.70
389.25	407.25
389.45	372.15
389.64	423.64
389.84	486.83
390.03	376.83
390.22	334.70
390.42	397.89
390.61	390.87
390.81	330.02
391.00	395.55
391.19	362.78
391.39	416.62
391.58	411.93
391.78	393.21
391.97	425.98
392.16	353.42
392.36	437.68
392.55	458.74
392.75	404.91
392.94	423.64
393.13	449.38
393.33	451.72
393.52	402.57
393.71	425.98
393.91	447.04
394.10	390.87
394.29	341.72
394.49	442.36
394.68	418.96
394.88	428.32
395.07	479.81
395.26	369.80
395.46	407.25
395.65	411.93
395.84	411.93
396.04	461.09
396.23	475.13
396.42	477.47
396.62	440.02
396.81	430.66
397.00	435.34
397.19	416.62
397.39	437.68
397.58	379.17
397.77	372.15
397.97	386.19
398.16	362.78
398.35	362.78
398.55	386.19
398.74	372.15
398.93	397.89
399.12	458.74
399.32	411.93
399.51	337.04
399.70	510.24
399.90	416.62
400.09	386.19
400.28	421.30
400.47	435.34
400.67	463.43
400.86	470.45
401.05	395.55
401.24	437.68
401.44	442.36
401.63	402.57
401.82	407.25
402.01	390.87
402.21	369.80
402.40	388.53
402.59	442.36
402.78	395.55
402.97	463.43
403.17	437.68
403.36	449.38
403.55	421.30
403.74	313.63
403.93	456.40
404.13	437.68
404.32	358.10
404.51	383.85
404.70	425.98
404.89	348.74
405.09	500.87
405.28	440.02
405.47	360.44
405.66	479.81
405.85	430.66
406.05	428.32
406.24	444.70
406.43	421.30
406.62	440.02
406.81	484.49
407.00	458.74
407.20	407.25
407.39	379.17
407.58	376.83
407.77	374.49
407.96	393.21
408.15	442.36
408.34	341.72
408.54	365.12
408.73	407.25
408.92	365.12
409.11	425.98
409.30	463.43
409.49	381.51
409.68	388.53
409.87	407.25
410.07	421.30
410.26	346.40
410.45	372.15
410.64	341.72
410.83	337.04
411.02	388.53
411.21	428.32
411.40	447.04
411.59	383.85
411.78	407.25
411.98	411.93
412.17	393.21
412.36	397.89
412.55	440.02
412.74	376.83
412.93	416.62
413.12	395.55
413.31	517.26
413.50	451.72
413.69	376.83
413.88	451.72
414.07	379.17
414.26	423.64
414.45	351.08
414.64	395.55
414.83	421.30
415.02	367.46
415.22	447.04
415.41	411.93
415.60	379.17
415.79	402.57
415.98	404.91
416.17	444.70
416.36	409.59
416.55	416.62
416.74	461.09
416.93	400.23
417.12	442.36
417.31	428.32
417.50	414.27
417.69	505.56
417.88	386.19
418.07	360.44
418.26	407.25
418.45	402.57
418.64	421.30
418.83	433.00
419.02	411.93
419.21	437.68
419.39	461.09
419.58	418.96
419.77	418.96
419.96	402.57
420.15	475.13
420.34	461.09
420.53	442.36
420.72	468.11
420.91	437.68
421.10	428.32
421.29	409.59
421.48	365.12
421.67	442.36
421.86	388.53
422.05	503.22
422.24	381.51
422.43	393.21
422.61	390.87
422.80	327.68
422.99	428.32
423.18	423.64
423.37	475.13
423.56	430.66
423.75	365.12
423.94	374.49
424.13	397.89
424.32	449.38
424.50	472.79
424.69	421.30
424.88	390.87
425.07	372.15
425.26	395.55
425.45	411.93
425.64	444.70
425.83	425.98
426.01	404.91
426.20	395.55
426.39	454.06
426.58	463.43
426.77	463.43
426.96	430.66
427.15	367.46
427.33	407.25
427.52	407.25
427.71	404.91
427.90	379.17
428.09	407.25
428.28	355.76
428.46	500.87
428.65	383.85
428.84	435.34
429.03	477.47
429.22	444.70
429.40	386.19
429.59	369.80
429.78	418.96
429.97	414.27
430.16	400.23
430.34	468.11
430.53	414.27
430.72	442.36
430.91	428.32
431.10	374.49
431.28	447.04
431.47	440.02
431.66	397.89
431.85	425.98
432.03	456.40
432.22	465.77
432.41	421.30
432.60	477.47
432.79	407.25
432.97	381.51
433.16	355.76
433.35	435.34
433.54	294.91
433.72	437.68
433.91	402.57
434.10	386.19
434.28	374.49
434.47	395.55
434.66	491.51
434.85	397.89
435.03	397.89
435.22	435.34
435.41	458.74
435.59	425.98
435.78	421.30
435.97	383.85
436.16	416.62
436.34	404.91
436.53	402.57
436.72	442.36
436.90	491.51
437.09	416.62
437.28	442.36
437.46	402.57
437.65	454.06
437.84	447.04
438.02	409.59
438.21	428.32
438.40	423.64
438.58	327.68
438.77	416.62
438.96	470.45
439.14	386.19
439.33	383.85
439.52	390.87
439.70	360.44
439.89	388.53
440.08	428.32
440.26	437.68
440.45	411.93
440.63	454.06
440.82	386.19
441.01	409.59
441.19	451.72
441.38	400.23
441.57	334.70
441.75	379.17
441.94	451.72
442.12	430.66
442.31	402.57
442.50	360.44
442.68	433.00
442.87	428.32
443.05	437.68
443.24	390.87
443.43	386.19
443.61	411.93
443.80	397.89
443.98	421.30
444.17	472.79
444.35	451.72
444.54	390.87
444.73	435.34
444.91	411.93
445.10	390.87
445.28	367.46
445.47	451.72
445.65	416.62
445.84	458.74
446.02	428.32
446.21	393.21
446.39	393.21
446.58	390.87
446.77	301.93
446.95	425.98
447.14	454.06
447.32	503.22
447.51	416.62
447.69	428.32
447.88	468.11
448.06	386.19
448.25	393.21
448.43	369.80
448.62	430.66
448.80	388.53
448.99	447.04
449.17	367.46
449.36	428.32
449.54	418.96
449.73	379.17
449.91	409.59
450.10	353.42
450.28	358.10
450.46	433.00
450.65	465.77
450.83	421.30
451.02	379.17
451.20	383.85
451.39	369.80
451.57	425.98
451.76	409.59
451.94	409.59
452.13	418.96
452.31	409.59
452.49	486.83
452.68	400.23
452.86	416.62
453.05	423.64
453.23	447.04
453.42	430.66
453.60	369.80
453.78	421.30
453.97	411.93
454.15	428.32
454.34	430.66
454.52	358.10
454.70	400.23
454.89	386.19
455.07	407.25
455.26	395.55
455.44	362.78
455.62	407.25
455.81	393.21
455.99	444.70
456.17	461.09
456.36	390.87
456.54	425.98
456.73	430.66
456.91	376.83
457.09	390.87
457.28	465.77
457.46	435.34
457.64	491.51
457.83	414.27
458.01	362.78
458.19	489.17
458.38	414.27
458.56	421.30
458.74	472.79
458.93	318.31
459.11	416.62
459.29	327.68
459.48	383.85
459.66	411.93
459.84	468.11
460.03	430.66
460.21	444.70
460.39	395.55
460.57	423.64
460.76	339.38
460.94	407.25
461.12	437.68
461.31	351.08
461.49	404.91
461.67	332.36
461.85	456.40
462.04	400.23
462.22	770.04
462.40	451.72
462.59	358.10
462.77	416.62
462.95	358.10
463.13	414.27
463.32	435.34
463.50	344.06
463.68	418.96
463.86	407.25
464.05	428.32
464.23	418.96
464.41	411.93
464.59	425.98
464.78	433.00
464.96	397.89
465.14	393.21
465.32	395.55
465.50	423.64
465.69	418.96
465.87	369.80
466.05	500.87
466.23	344.06
466.41	395.55
466.60	425.98
466.78	348.74
466.96	458.74
467.14	421.30
467.32	468.11
467.51	421.30
467.69	489.17
467.87	468.11
468.05	379.17
468.23	498.53
468.41	388.53
468.60	416.62
468.78	411.93
468.96	435.34
469.14	383.85
469.32	388.53
469.50	440.02
469.69	423.64
469.87	423.64
470.05	458.74
470.23	498.53
470.41	393.21
470.59	353.42
470.77	440.02
470.95	383.85
471.14	433.00
471.32	428.32
471.50	451.72
471.68	421.30
471.86	454.06
472.04	365.12
472.22	465.77
472.40	400.23
472.58	390.87
472.77	411.93
472.95	435.34
473.13	425.98
473.31	507.90
473.49	421.30
473.67	416.62
473.85	395.55
474.03	489.17
474.21	379.17
474.39	442.36
474.57	411.93
474.75	404.91
474.93	425.98
475.12	367.46
475.30	423.64
475.48	414.27
475.66	407.25
475.84	379.17
476.02	440.02
476.20	404.91
476.38	411.93
476.56	472.79
476.74	428.32
476.92	414.27
477.10	325.33
477.28	337.04
477.46	414.27
477.64	367.46
477.82	397.89
478.00	442.36
478.18	409.59
478.36	433.00
478.54	440.02
478.72	489.17
478.90	311.29
479.08	461.09
479.26	411.93
479.44	430.66
479.62	440.02
479.80	433.00
479.98	381.51
480.16	383.85
480.34	423.64
480.52	397.89
480.70	397.89
480.88	433.00
481.06	444.70
481.24	332.36
481.41	479.81
481.59	472.79
481.77	376.83
481.95	390.87
482.13	458.74
482.31	418.96
482.49	407.25
482.67	404.91
482.85	421.30
483.03	470.45
483.21	416.62
483.39	390.87
483.57	435.34
483.74	461.09
483.92	423.64
484.10	367.46
484.28	414.27
484.46	421.30
484.64	449.38
484.82	376.83
485.00	381.51
485.18	449.38
485.35	526.62
485.53	503.22
485.71	400.23
485.89	465.77
486.07	397.89
486.25	433.00
486.43	407.25
486.61	454.06
486.78	409.59
486.96	411.93
487.14	475.13
487.32	423.64
487.50	381.51
487.68	402.57
487.85	444.70
488.03	428.32
488.21	491.51
488.39	369.80
488.57	409.59
488.75	416.62
488.92	552.37
489.10	479.81
489.28	456.40
489.46	416.62
489.64	440.02
489.81	379.17
489.99	444.70
490.17	423.64
490.35	477.47
490.53	414.27
490.70	454.06
490.88	414.27
491.06	355.76
491.24	381.51
491.41	395.55
491.59	430.66
491.77	372.15
491.95	414.27
492.13	379.17
492.30	402.57
492.48	409.59
492.66	435.34
492.84	423.64
493.01	414.27
493.19	365.12
493.37	456.40
493.54	465.77
493.72	416.62
493.90	404.91
494.08	386.19
494.25	449.38
494.43	463.43
494.61	430.66
494.79	402.57
494.96	367.46
495.14	369.80
495.32	374.49
495.49	414.27
495.67	425.98
495.85	393.21
496.02	416.62
496.20	409.59
496.38	393.21
496.55	362.78
496.73	430.66
496.91	454.06
497.09	367.46
497.26	367.46
497.44	407.25
497.62	435.34
497.79	381.51
497.97	383.85
498.14	383.85
498.32	409.59
498.50	409.59
498.67	463.43
498.85	456.40
499.03	395.55
499.20	393.21
499.38	414.27
499.56	402.57
499.73	465.77
499.91	440.02
500.08	461.09
500.26	418.96
500.44	428.32
500.61	409.59
500.79	390.87
500.97	430.66
501.14	472.79
501.32	407.25
501.49	404.91
501.67	407.25
501.84	421.30
502.02	322.99
502.20	433.00
502.37	416.62
502.55	461.09
502.72	409.59
502.90	407.25
503.07	376.83
503.25	456.40
503.43	402.57
503.60	423.64
503.78	330.02
503.95	407.25
504.13	416.62
504.30	425.98
504.48	468.11
504.65	416.62
504.83	479.81
505.01	421.30
505.18	451.72
505.36	451.72
505.53	470.45
505.71	383.85
505.88	456.40
506.06	393.21
506.23	353.42
506.41	418.96
506.58	437.68
506.76	444.70
506.93	449.38
507.11	491.51
507.28	416.62
507.46	416.62
507.63	456.40
507.81	404.91
507.98	449.38
508.16	393.21
508.33	362.78
508.50	390.87
508.68	362.78
508.85	470.45
509.03	411.93
509.20	430.66
509.38	550.03
509.55	395.55
509.73	458.74
509.90	388.53
510.08	430.66
510.25	447.04
510.42	496.19
510.60	425.98
510.77	454.06
510.95	421.30
511.12	442.36
511.30	430.66
511.47	416.62
511.64	442.36
511.82	449.38
511.99	442.36
512.17	365.12
512.34	383.85
512.51	449.38
512.69	409.59
512.86	395.55
513.04	444.70
513.21	388.53
513.38	400.23
513.56	327.68
513.73	409.59
513.90	304.27
514.08	423.64
514.25	386.19
514.43	397.89
514.60	444.70
514.77	367.46
514.95	383.85
515.12	358.10
515.29	344.06
515.47	407.25
515.64	395.55
515.81	421.30
515.99	433.00
516.16	397.89
516.33	442.36
516.51	381.51
516.68	449.38
516.85	383.85
517.03	369.80
517.20	489.17
517.37	409.59
517.54	395.55
517.72	458.74
517.89	358.10
518.06	550.03
518.24	369.80
518.41	435.34
518.58	472.79
518.75	395.55
518.93	435.34
519.10	358.10
519.27	440.02
519.45	337.04
519.62	400.23
519.79	416.62
519.96	353.42
520.14	425.98
520.31	418.96
520.48	351.08
520.65	409.59
520.83	444.70
521.00	444.70
521.17	409.59
521.34	393.21
521.52	449.38
521.69	472.79
521.86	388.53
522.03	428.32
522.20	451.72
522.38	369.80
522.55	423.64
522.72	346.40
522.89	491.51
523.07	428.32
523.24	461.09
523.41	390.87
523.58	402.57
523.75	416.62
523.92	456.40
524.10	540.66
524.27	379.17
524.44	367.46
524.61	456.40
524.78	402.57
524.96	416.62
525.13	489.17
525.30	458.74
525.47	475.13
525.64	425.98
525.81	369.80
525.98	484.49
526.16	435.34
526.33	393.21
526.50	423.64
526.67	416.62
526.84	447.04
527.01	418.96
527.18	440.02
527.36	372.15
527.53	351.08
527.70	430.66
527.87	451.72
528.04	362.78
528.21	433.00
528.38	458.74
528.55	425.98
528.72	447.04
528.89	458.74
529.07	454.06
529.24	482.15
529.41	503.22
529.58	390.87
529.75	402.57
529.92	409.59
530.09	470.45
530.26	479.81
530.43	433.00
530.60	472.79
530.77	409.59
530.94	440.02
531.11	477.47
531.28	393.21
531.46	428.32
531.63	454.06
531.80	414.27
531.97	409.59
532.14	421.30
532.31	383.85
532.48	416.62
532.65	411.93
532.82	376.83
532.99	447.04
533.16	404.91
533.33	470.45
533.50	355.76
533.67	369.80
533.84	379.17
534.01	388.53
534.18	428.32
534.35	456.40
534.52	458.74
534.69	482.15
534.86	433.00
535.03	418.96
535.20	421.30
535.37	428.32
535.54	442.36
535.71	430.66
535.88	512.58
536.05	402.57
536.22	421.30
536.38	454.06
536.55	388.53
536.72	425.98
536.89	400.23
537.06	416.62
537.23	425.98
537.40	423.64
537.57	416.62
537.74	456.40
537.91	379.17
538.08	430.66
538.25	416.62
538.42	383.85
538.59	341.72
538.75	383.85
538.92	423.64
539.09	388.53
539.26	374.49
539.43	484.49
539.60	386.19
539.77	360.44
539.94	421.30
540.11	433.00
540.28	402.57
540.44	437.68
540.61	388.53
540.78	465.77
540.95	402.57
541.12	454.06
541.29	393.21
541.46	421.30
541.62	407.25
541.79	456.40
541.96	409.59
542.13	430.66
542.30	433.00
542.47	510.24
542.63	383.85
542.80	423.64
542.97	435.34
543.14	477.47
543.31	411.93
543.48	346.40
543.64	421.30
543.81	505.56
543.98	388.53
544.15	442.36
544.32	472.79
544.48	472.79
544.65	435.34
544.82	372.15
544.99	383.85
545.16	477.47
545.32	348.74
545.49	425.98
545.66	416.62
545.83	463.43
546.00	376.83
546.16	416.62
546.33	421.30
546.50	367.46
546.67	461.09
546.83	461.09
547.00	416.62
547.17	365.12
547.34	409.59
547.50	362.78
547.67	442.36
547.84	402.57
548.00	475.13
548.17	482.15
548.34	461.09
548.51	437.68
548.67	423.64
548.84	468.11
549.01	311.29
549.18	393.21
549.34	458.74
549.51	409.59
549.68	393.21
549.84	444.70
550.01	376.83
550.18	486.83
550.34	524.28
550.51	468.11
550.68	465.77
550.84	458.74
551.01	400.23
551.18	416.62
551.34	496.19
551.51	437.68
551.68	416.62
551.84	437.68
552.01	360.44
552.18	395.55
552.34	454.06
552.51	395.55
552.68	418.96
552.84	400.23
553.01	491.51
553.18	383.85
553.34	390.87
553.51	402.57
553.67	365.12
553.84	468.11
554.01	463.43
554.17	449.38
554.34	369.80
554.51	475.13
554.67	517.26
554.84	451.72
555.00	444.70
555.17	465.77
555.33	411.93
555.50	374.49
555.67	369.80
555.83	390.87
556.00	423.64
556.16	575.77
556.33	409.59
556.50	386.19
556.66	393.21
556.83	388.53
556.99	339.38
557.16	386.19
557.32	423.64
557.49	367.46
557.65	461.09
557.82	374.49
557.98	416.62
558.15	390.87
558.32	463.43
558.48	435.34
558.65	433.00
558.81	479.81
558.98	428.32
559.14	376.83
559.31	402.57
559.47	416.62
559.64	456.40
559.80	428.32
559.97	365.12
560.13	369.80
560.30	353.42
560.46	435.34
560.63	388.53
560.79	430.66
560.96	423.64
561.12	379.17
561.29	454.06
561.45	491.51
561.61	472.79
561.78	550.03
561.94	451.72
562.11	418.96
562.27	425.98
562.44	458.74
562.60	484.49
562.77	409.59
562.93	510.24
563.10	362.78
563.26	397.89
563.42	472.79
563.59	344.06
563.75	435.34
563.92	411.93
564.08	470.45
564.24	451.72
564.41	449.38
564.57	498.53
564.74	381.51
564.90	400.23
565.07	365.12
565.23	414.27
565.39	461.09
565.56	425.98
565.72	393.21
565.88	425.98
566.05	425.98
566.21	381.51
566.38	407.25
566.54	435.34
566.70	416.62
566.87	395.55
567.03	351.08
567.19	383.85
567.36	428.32
567.52	418.96
567.68	444.70
567.85	430.66
568.01	383.85
568.17	397.89
568.34	423.64
568.50	433.00
568.66	430.66
568.83	423.64
568.99	360.44
569.15	458.74
569.32	411.93
569.48	425.98
569.64	465.77
569.81	376.83
569.97	367.46
570.13	430.66
570.30	388.53
570.46	301.93
570.62	430.66
570.78	435.34
570.95	416.62
571.11	374.49
571.27	519.60
571.43	393.21
571.60	433.00
571.76	400.23
571.92	454.06
572.09	407.25
572.25	341.72
572.41	390.87
572.57	400.23
572.74	388.53
572.90	449.38
573.06	444.70
573.22	374.49
573.38	416.62
573.55	418.96
573.71	505.56
573.87	465.77
574.03	442.36
574.20	381.51
574.36	414.27
574.52	447.04
574.68	397.89
574.84	421.30
575.01	374.49
575.17	388.53
575.33	521.94
575.49	496.19
575.65	425.98
575.82	451.72
575.98	376.83
576.14	402.57
576.30	440.02
576.46	449.38
576.62	383.85
576.79	496.19
576.95	468.11
577.11	449.38
577.27	393.21
577.43	491.51
577.59	444.70
577.75	444.70
577.92	374.49
578.08	425.98
578.24	404.91
578.40	510.24
578.56	470.45
578.72	454.06
578.88	484.49
579.04	386.19
579.21	465.77
579.37	383.85
579.53	390.87
579.69	428.32
579.85	425.98
580.01	449.38
580.17	365.12
580.33	374.49
580.49	402.57
580.65	369.80
580.82	428.32
580.98	414.27
581.14	428.32
581.30	442.36
581.46	433.00
581.62	395.55
581.78	463.43
581.94	418.96
582.10	414.27
582.26	479.81
582.42	440.02
582.58	416.62
582.74	421.30
582.90	425.98
583.06	472.79
583.22	425.98
583.38	346.40
583.54	442.36
583.70	463.43
583.86	367.46
584.02	444.70
584.18	456.40
584.34	456.40
584.50	411.93
584.66	386.19
584.82	416.62
584.98	369.80
585.14	463.43
585.30	425.98
585.46	383.85
585.62	395.55
585.78	425.98
585.94	414.27
586.10	334.70
586.26	409.59
586.42	404.91
586.58	437.68
586.74	402.57
586.90	512.58
587.06	451.72
587.22	472.79
587.38	374.49
587.54	383.85
587.70	395.55
587.86	484.49
588.02	430.66
588.18	435.34
588.34	430.66
588.49	447.04
588.65	409.59
588.81	311.29
588.97	482.15
589.13	346.40
589.29	369.80
589.45	425.98
589.61	365.12
589.77	425.98
589.93	390.87
590.08	428.32
590.24	496.19
590.40	409.59
590.56	433.00
590.72	376.83
590.88	404.91
591.04	409.59
591.20	383.85
591.35	442.36
591.51	416.62
591.67	423.64
591.83	404.91
591.99	433.00
592.15	484.49
592.31	414.27
592.46	362.78
592.62	425.98
592.78	365.12
592.94	423.64
593.10	437.68
593.26	414.27
593.41	428.32
593.57	418.96
593.73	458.74
593.89	454.06
594.05	369.80
594.20	395.55
594.36	421.30
594.52	430.66
594.68	367.46
594.84	435.34
594.99	423.64
595.15	421.30
595.31	395.55
595.47	458.74
595.62	463.43
595.78	435.34
595.94	360.44
596.10	470.45
596.25	386.19
596.41	383.85
596.57	374.49
596.73	416.62
596.88	365.12
597.04	397.89
597.20	369.80
597.36	421.30
597.51	365.12
597.67	425.98
597.83	447.04
597.99	475.13
598.14	409.59
598.30	423.64
598.46	437.68
598.61	479.81
598.77	440.02
598.93	400.23
599.09	479.81
599.24	479.81
599.40	444.70
599.56	425.98
599.71	461.09
599.87	360.44
600.03	435.34
600.18	477.47
600.34	433.00
600.50	402.57
600.65	374.49
600.81	440.02
600.97	414.27
601.12	456.40
601.28	458.74
601.44	402.57
601.59	358.10
601.75	416.62
601.91	433.00
602.06	414.27
602.22	418.96
602.37	442.36
602.53	411.93
602.69	390.87
602.84	383.85
603.00	430.66
603.16	397.89
603.31	437.68
603.47	400.23
603.62	383.85
603.78	407.25
603.94	362.78
604.09	407.25
604.25	400.23
604.40	379.17
604.56	411.93
604.71	381.51
604.87	449.38
605.03	437.68
605.18	360.44
605.34	414.27
605.49	353.42
605.65	418.96
605.80	465.77
605.96	362.78
606.12	447.04
606.27	437.68
606.43	386.19
606.58	425.98
606.74	407.25
606.89	388.53
607.05	458.74
607.20	383.85
607.36	402.57
607.51	346.40
607.67	360.44
607.82	433.00
607.98	397.89
608.13	428.32
608.29	393.21
608.44	430.66
608.60	407.25
608.75	470.45
608.91	482.15
609.06	458.74
609.22	440.02
609.37	339.38
609.53	346.40
609.68	376.83
609.84	397.89
609.99	425.98
610.15	390.87
