SpectraSuite Data File
++++++++++++++++++++++++++++++++++++
Date: Fri Oct 25 12:11:17 EDT 2013
User: price-jones
Dark Spectrum Present: No
Reference Spectrum Present: No
Number of Sampled Component Spectra: 1
Spectrometers: USB2+H05261
Integration Time (usec): 100000 (USB2+H05261)
Spectra Averaged: 1 (USB2+H05261)
Boxcar Smoothing: 0 (USB2+H05261)
Correct for Electrical Dark: No (USB2+H05261)
Strobe/Lamp Enabled: No (USB2+H05261)
Correct for Detector Non-linearity: No (USB2+H05261)
Correct for Stray Light: No (USB2+H05261)
Number of Pixels in Processed Spectrum: 2048
>>>>>Begin Processed Spectral Data<<<<<
365.73	360.44
365.92	360.44
366.12	360.44
366.32	262.14
366.52	159.16
366.72	215.33
366.91	220.01
367.11	245.76
367.31	252.78
367.51	187.24
367.70	201.29
367.90	313.63
368.10	243.42
368.30	208.31
368.49	154.48
368.69	215.33
368.89	205.97
369.09	220.01
369.28	283.20
369.48	330.02
369.68	285.55
369.87	348.74
370.07	339.38
370.27	395.55
370.47	339.38
370.66	306.61
370.86	381.51
371.06	418.96
371.25	404.91
371.45	248.10
371.65	369.80
371.84	397.89
372.04	348.74
372.24	423.64
372.44	355.76
372.63	470.45
372.83	444.70
373.03	400.23
373.22	428.32
373.42	435.34
373.62	365.12
373.81	442.36
374.01	447.04
374.21	447.04
374.40	393.21
374.60	477.47
374.79	479.81
374.99	411.93
375.19	367.46
375.38	435.34
375.58	456.40
375.78	482.15
375.97	451.72
376.17	470.45
376.37	362.78
376.56	393.21
376.76	383.85
376.95	454.06
377.15	421.30
377.35	358.10
377.54	369.80
377.74	395.55
377.93	330.02
378.13	400.23
378.33	416.62
378.52	358.10
378.72	442.36
378.91	386.19
379.11	407.25
379.31	442.36
379.50	423.64
379.70	454.06
379.89	372.15
380.09	353.42
380.28	381.51
380.48	407.25
380.68	430.66
380.87	330.02
381.07	400.23
381.26	510.24
381.46	442.36
381.65	430.66
381.85	400.23
382.04	400.23
382.24	496.19
382.43	334.70
382.63	411.93
382.83	440.02
383.02	428.32
383.22	496.19
383.41	463.43
383.61	376.83
383.80	393.21
384.00	421.30
384.19	402.57
384.39	397.89
384.58	463.43
384.78	365.12
384.97	402.57
385.17	425.98
385.36	388.53
385.56	341.72
385.75	404.91
385.95	376.83
386.14	383.85
386.34	372.15
386.53	442.36
386.72	348.74
386.92	447.04
387.11	425.98
387.31	444.70
387.50	421.30
387.70	416.62
387.89	381.51
388.09	486.83
388.28	376.83
388.48	430.66
388.67	409.59
388.86	425.98
389.06	409.59
389.25	376.83
389.45	416.62
389.64	425.98
389.84	437.68
390.03	414.27
390.22	306.61
390.42	423.64
390.61	416.62
390.81	327.68
391.00	372.15
391.19	365.12
391.39	381.51
391.58	496.19
391.78	454.06
391.97	411.93
392.16	411.93
392.36	381.51
392.55	416.62
392.75	482.15
392.94	486.83
393.13	430.66
393.33	430.66
393.52	425.98
393.71	456.40
393.91	454.06
394.10	416.62
394.29	353.42
394.49	407.25
394.68	435.34
394.88	402.57
395.07	447.04
395.26	383.85
395.46	505.56
395.65	475.13
395.84	390.87
396.04	451.72
396.23	416.62
396.42	402.57
396.62	486.83
396.81	397.89
397.00	461.09
397.19	428.32
397.39	475.13
397.58	470.45
397.77	390.87
397.97	376.83
398.16	454.06
398.35	418.96
398.55	397.89
398.74	339.38
398.93	416.62
399.12	379.17
399.32	437.68
399.51	411.93
399.70	428.32
399.90	463.43
400.09	376.83
400.28	423.64
400.47	500.87
400.67	477.47
400.86	360.44
401.05	456.40
401.24	447.04
401.44	423.64
401.63	477.47
401.82	372.15
402.01	440.02
402.21	440.02
402.40	451.72
402.59	425.98
402.78	421.30
402.97	402.57
403.17	444.70
403.36	414.27
403.55	449.38
403.74	409.59
403.93	334.70
404.13	437.68
404.32	358.10
404.51	451.72
404.70	334.70
404.89	395.55
405.09	451.72
405.28	365.12
405.47	351.08
405.66	435.34
405.85	402.57
406.05	444.70
406.24	442.36
406.43	409.59
406.62	421.30
406.81	477.47
407.00	528.96
407.20	390.87
407.39	395.55
407.58	416.62
407.77	393.21
407.96	423.64
408.15	440.02
408.34	463.43
408.54	475.13
408.73	449.38
408.92	353.42
409.11	425.98
409.30	416.62
409.49	390.87
409.68	440.02
409.87	507.90
410.07	444.70
410.26	376.83
410.45	440.02
410.64	397.89
410.83	418.96
411.02	430.66
411.21	451.72
411.40	390.87
411.59	414.27
411.78	376.83
411.98	402.57
412.17	388.53
412.36	428.32
412.55	458.74
412.74	346.40
412.93	510.24
413.12	404.91
413.31	435.34
413.50	416.62
413.69	468.11
413.88	395.55
414.07	369.80
414.26	390.87
414.45	372.15
414.64	376.83
414.83	444.70
415.02	386.19
415.22	386.19
415.41	451.72
415.60	409.59
415.79	386.19
415.98	433.00
416.17	376.83
416.36	367.46
416.55	451.72
416.74	458.74
416.93	355.76
417.12	421.30
417.31	383.85
417.50	358.10
417.69	442.36
417.88	418.96
418.07	444.70
418.26	456.40
418.45	428.32
418.64	390.87
418.83	451.72
419.02	395.55
419.21	390.87
419.39	395.55
419.58	402.57
419.77	360.44
419.96	421.30
420.15	407.25
420.34	421.30
420.53	325.33
420.72	437.68
420.91	444.70
421.10	346.40
421.29	468.11
421.48	393.21
421.67	440.02
421.86	402.57
422.05	442.36
422.24	386.19
422.43	430.66
422.61	393.21
422.80	461.09
422.99	360.44
423.18	428.32
423.37	498.53
423.56	440.02
423.75	423.64
423.94	351.08
424.13	383.85
424.32	397.89
424.50	425.98
424.69	435.34
424.88	409.59
425.07	407.25
425.26	397.89
425.45	381.51
425.64	421.30
425.83	383.85
426.01	454.06
426.20	425.98
426.39	397.89
426.58	351.08
426.77	456.40
426.96	447.04
427.15	376.83
427.33	407.25
427.52	360.44
427.71	425.98
427.90	437.68
428.09	416.62
428.28	437.68
428.46	395.55
428.65	435.34
428.84	376.83
429.03	423.64
429.22	390.87
429.40	367.46
429.59	418.96
429.78	393.21
429.97	402.57
430.16	463.43
430.34	369.80
430.53	447.04
430.72	404.91
430.91	437.68
431.10	372.15
431.28	395.55
431.47	386.19
431.66	407.25
431.85	381.51
432.03	456.40
432.22	475.13
432.41	379.17
432.60	416.62
432.79	416.62
432.97	468.11
433.16	479.81
433.35	402.57
433.54	423.64
433.72	423.64
433.91	407.25
434.10	379.17
434.28	423.64
434.47	421.30
434.66	402.57
434.85	423.64
435.03	414.27
435.22	486.83
435.41	454.06
435.59	505.56
435.78	444.70
435.97	369.80
436.16	397.89
436.34	358.10
436.53	346.40
436.72	407.25
436.90	395.55
437.09	397.89
437.28	402.57
437.46	449.38
437.65	449.38
437.84	383.85
438.02	395.55
438.21	454.06
438.40	320.65
438.58	404.91
438.77	414.27
438.96	393.21
439.14	360.44
439.33	461.09
439.52	409.59
439.70	433.00
439.89	433.00
440.08	470.45
440.26	411.93
440.45	477.47
440.63	404.91
440.82	414.27
441.01	414.27
441.19	407.25
441.38	421.30
441.57	423.64
441.75	395.55
441.94	454.06
442.12	402.57
442.31	437.68
442.50	411.93
442.68	311.29
442.87	418.96
443.05	407.25
443.24	447.04
443.43	409.59
443.61	407.25
443.80	430.66
443.98	411.93
444.17	404.91
444.35	484.49
444.54	444.70
444.73	374.49
444.91	454.06
445.10	341.72
445.28	411.93
445.47	416.62
445.65	458.74
445.84	400.23
446.02	383.85
446.21	444.70
446.39	397.89
446.58	374.49
446.77	447.04
446.95	414.27
447.14	397.89
447.32	418.96
447.51	416.62
447.69	475.13
447.88	461.09
448.06	477.47
448.25	430.66
448.43	348.74
448.62	449.38
448.80	458.74
448.99	395.55
449.17	435.34
449.36	418.96
449.54	447.04
449.73	463.43
449.91	433.00
450.10	414.27
450.28	477.47
450.46	404.91
450.65	449.38
450.83	442.36
451.02	433.00
451.20	388.53
451.39	390.87
451.57	355.76
451.76	360.44
451.94	430.66
452.13	388.53
452.31	414.27
452.49	463.43
452.68	414.27
452.86	437.68
453.05	435.34
453.23	325.33
453.42	414.27
453.60	362.78
453.78	461.09
453.97	367.46
454.15	416.62
454.34	418.96
454.52	449.38
454.70	463.43
454.89	458.74
455.07	411.93
455.26	379.17
455.44	383.85
455.62	390.87
455.81	376.83
455.99	449.38
456.17	475.13
456.36	430.66
456.54	344.06
456.73	365.12
456.91	430.66
457.09	393.21
457.28	477.47
457.46	351.08
457.64	444.70
457.83	402.57
458.01	454.06
458.19	360.44
458.38	456.40
458.56	423.64
458.74	428.32
458.93	428.32
459.11	440.02
459.29	423.64
459.48	402.57
459.66	430.66
459.84	458.74
460.03	486.83
460.21	374.49
460.39	411.93
460.57	463.43
460.76	458.74
460.94	425.98
461.12	477.47
461.31	449.38
461.49	449.38
461.67	423.64
461.85	381.51
462.04	379.17
462.22	746.63
462.40	402.57
462.59	479.81
462.77	397.89
462.95	418.96
463.13	425.98
463.32	451.72
463.50	510.24
463.68	381.51
463.86	444.70
464.05	393.21
464.23	381.51
464.41	540.66
464.59	388.53
464.78	421.30
464.96	386.19
465.14	456.40
465.32	423.64
465.50	430.66
465.69	451.72
465.87	435.34
466.05	458.74
466.23	376.83
466.41	344.06
466.60	433.00
466.78	444.70
466.96	451.72
467.14	456.40
467.32	498.53
467.51	449.38
467.69	407.25
467.87	414.27
468.05	416.62
468.23	505.56
468.41	451.72
468.60	407.25
468.78	397.89
468.96	372.15
469.14	374.49
469.32	425.98
469.50	430.66
469.69	421.30
469.87	444.70
470.05	379.17
470.23	393.21
470.41	428.32
470.59	472.79
470.77	409.59
470.95	470.45
471.14	451.72
471.32	454.06
471.50	435.34
471.68	383.85
471.86	454.06
472.04	425.98
472.22	386.19
472.40	465.77
472.58	414.27
472.77	390.87
472.95	367.46
473.13	437.68
473.31	468.11
473.49	386.19
473.67	444.70
473.85	458.74
474.03	470.45
474.21	447.04
474.39	454.06
474.57	482.15
474.75	376.83
474.93	435.34
475.12	454.06
475.30	381.51
475.48	449.38
475.66	496.19
475.84	411.93
476.02	444.70
476.20	376.83
476.38	442.36
476.56	444.70
476.74	390.87
476.92	353.42
477.10	465.77
477.28	395.55
477.46	404.91
477.64	416.62
477.82	397.89
478.00	442.36
478.18	477.47
478.36	479.81
478.54	442.36
478.72	393.21
478.90	365.12
479.08	418.96
479.26	376.83
479.44	425.98
479.62	411.93
479.80	489.17
479.98	365.12
480.16	454.06
480.34	320.65
480.52	365.12
480.70	505.56
480.88	435.34
481.06	407.25
481.24	299.59
481.41	416.62
481.59	407.25
481.77	505.56
481.95	395.55
482.13	341.72
482.31	437.68
482.49	416.62
482.67	489.17
482.85	461.09
483.03	421.30
483.21	365.12
483.39	411.93
483.57	475.13
483.74	456.40
483.92	435.34
484.10	409.59
484.28	428.32
484.46	428.32
484.64	386.19
484.82	390.87
485.00	393.21
485.18	404.91
485.35	351.08
485.53	395.55
485.71	463.43
485.89	374.49
486.07	423.64
486.25	400.23
486.43	397.89
486.61	400.23
486.78	383.85
486.96	379.17
487.14	400.23
487.32	456.40
487.50	423.64
487.68	404.91
487.85	425.98
488.03	409.59
488.21	461.09
488.39	437.68
488.57	433.00
488.75	470.45
488.92	433.00
489.10	444.70
489.28	461.09
489.46	416.62
489.64	376.83
489.81	344.06
489.99	456.40
490.17	390.87
490.35	484.49
490.53	430.66
490.70	379.17
490.88	402.57
491.06	421.30
491.24	388.53
491.41	496.19
491.59	416.62
491.77	433.00
491.95	484.49
492.13	390.87
492.30	437.68
492.48	458.74
492.66	418.96
492.84	376.83
493.01	437.68
493.19	362.78
493.37	482.15
493.54	402.57
493.72	449.38
493.90	477.47
494.08	430.66
494.25	411.93
494.43	437.68
494.61	381.51
494.79	407.25
494.96	374.49
495.14	486.83
495.32	355.76
495.49	447.04
495.67	397.89
495.85	376.83
496.02	486.83
496.20	451.72
496.38	400.23
496.55	428.32
496.73	409.59
496.91	428.32
497.09	447.04
497.26	491.51
497.44	421.30
497.62	388.53
497.79	400.23
497.97	393.21
498.14	416.62
498.32	475.13
498.50	418.96
498.67	400.23
498.85	416.62
499.03	416.62
499.20	369.80
499.38	418.96
499.56	456.40
499.73	386.19
499.91	402.57
500.08	428.32
500.26	433.00
500.44	421.30
500.61	402.57
500.79	423.64
500.97	418.96
501.14	477.47
501.32	402.57
501.49	461.09
501.67	407.25
501.84	416.62
502.02	381.51
502.20	472.79
502.37	454.06
502.55	397.89
502.72	400.23
502.90	458.74
503.07	458.74
503.25	435.34
503.43	440.02
503.60	393.21
503.78	425.98
503.95	383.85
504.13	395.55
504.30	491.51
504.48	472.79
504.65	440.02
504.83	407.25
505.01	463.43
505.18	442.36
505.36	421.30
505.53	390.87
505.71	404.91
505.88	493.85
506.06	440.02
506.23	454.06
506.41	362.78
506.58	430.66
506.76	383.85
506.93	468.11
507.11	423.64
507.28	414.27
507.46	404.91
507.63	449.38
507.81	395.55
507.98	409.59
508.16	409.59
508.33	379.17
508.50	496.19
508.68	540.66
508.85	407.25
509.03	367.46
509.20	407.25
509.38	365.12
509.55	449.38
509.73	468.11
509.90	388.53
510.08	362.78
510.25	311.29
510.42	414.27
510.60	339.38
510.77	383.85
510.95	447.04
511.12	407.25
511.30	372.15
511.47	451.72
511.64	423.64
511.82	435.34
511.99	468.11
512.17	421.30
512.34	430.66
512.51	362.78
512.69	454.06
512.86	468.11
513.04	437.68
513.21	442.36
513.38	440.02
513.56	442.36
513.73	442.36
513.90	425.98
514.08	437.68
514.25	451.72
514.43	493.85
514.60	430.66
514.77	442.36
514.95	437.68
515.12	358.10
515.29	463.43
515.47	437.68
515.64	383.85
515.81	437.68
515.99	458.74
516.16	407.25
516.33	493.85
516.51	491.51
516.68	360.44
516.85	449.38
517.03	386.19
517.20	411.93
517.37	491.51
517.54	456.40
517.72	461.09
517.89	386.19
518.06	386.19
518.24	456.40
518.41	517.26
518.58	470.45
518.75	489.17
518.93	458.74
519.10	386.19
519.27	451.72
519.45	381.51
519.62	454.06
519.79	444.70
519.96	365.12
520.14	416.62
520.31	423.64
520.48	458.74
520.65	458.74
520.83	409.59
521.00	444.70
521.17	489.17
521.34	442.36
521.52	451.72
521.69	500.87
521.86	421.30
522.03	402.57
522.20	395.55
522.38	416.62
522.55	404.91
522.72	428.32
522.89	430.66
523.07	472.79
523.24	358.10
523.41	353.42
523.58	414.27
523.75	369.80
523.92	386.19
524.10	468.11
524.27	376.83
524.44	458.74
524.61	409.59
524.78	376.83
524.96	376.83
525.13	390.87
525.30	395.55
525.47	428.32
525.64	428.32
525.81	421.30
525.98	414.27
526.16	395.55
526.33	442.36
526.50	461.09
526.67	437.68
526.84	400.23
527.01	390.87
527.18	414.27
527.36	447.04
527.53	325.33
527.70	444.70
527.87	390.87
528.04	440.02
528.21	475.13
528.38	421.30
528.55	433.00
528.72	454.06
528.89	381.51
529.07	409.59
529.24	440.02
529.41	451.72
529.58	421.30
529.75	390.87
529.92	414.27
530.09	418.96
530.26	477.47
530.43	440.02
530.60	360.44
530.77	468.11
530.94	470.45
531.11	472.79
531.28	358.10
531.46	348.74
531.63	428.32
531.80	393.21
531.97	456.40
532.14	433.00
532.31	442.36
532.48	416.62
532.65	447.04
532.82	381.51
532.99	423.64
533.16	414.27
533.33	416.62
533.50	458.74
533.67	449.38
533.84	416.62
534.01	381.51
534.18	491.51
534.35	358.10
534.52	411.93
534.69	430.66
534.86	334.70
535.03	425.98
535.20	379.17
535.37	435.34
535.54	376.83
535.71	395.55
535.88	463.43
536.05	437.68
536.22	414.27
536.38	374.49
536.55	470.45
536.72	465.77
536.89	393.21
537.06	428.32
537.23	383.85
537.40	468.11
537.57	479.81
537.74	411.93
537.91	477.47
538.08	449.38
538.25	454.06
538.42	409.59
538.59	479.81
538.75	386.19
538.92	421.30
539.09	435.34
539.26	379.17
539.43	479.81
539.60	334.70
539.77	444.70
539.94	365.12
540.11	379.17
540.28	498.53
540.44	472.79
540.61	418.96
540.78	383.85
540.95	458.74
541.12	379.17
541.29	381.51
541.46	463.43
541.62	458.74
541.79	416.62
541.96	397.89
542.13	402.57
542.30	400.23
542.47	440.02
542.63	447.04
542.80	435.34
542.97	447.04
543.14	379.17
543.31	510.24
543.48	372.15
543.64	435.34
543.81	414.27
543.98	390.87
544.15	404.91
544.32	374.49
544.48	461.09
544.65	484.49
544.82	414.27
544.99	447.04
545.16	428.32
545.32	463.43
545.49	451.72
545.66	414.27
545.83	468.11
546.00	388.53
546.16	447.04
546.33	418.96
546.50	376.83
546.67	484.49
546.83	468.11
547.00	402.57
547.17	400.23
547.34	440.02
547.50	325.33
547.67	351.08
547.84	355.76
548.00	379.17
548.17	433.00
548.34	451.72
548.51	409.59
548.67	435.34
548.84	386.19
549.01	430.66
549.18	442.36
549.34	409.59
549.51	414.27
549.68	397.89
549.84	388.53
550.01	339.38
550.18	400.23
550.34	465.77
550.51	374.49
550.68	510.24
550.84	440.02
551.01	435.34
551.18	477.47
551.34	409.59
551.51	397.89
551.68	409.59
551.84	449.38
552.01	428.32
552.18	414.27
552.34	475.13
552.51	442.36
552.68	498.53
552.84	461.09
553.01	374.49
553.18	430.66
553.34	414.27
553.51	353.42
553.67	360.44
553.84	442.36
554.01	449.38
554.17	418.96
554.34	388.53
554.51	447.04
554.67	411.93
554.84	463.43
555.00	440.02
555.17	449.38
555.33	514.92
555.50	472.79
555.67	493.85
555.83	447.04
556.00	369.80
556.16	507.90
556.33	484.49
556.50	444.70
556.66	390.87
556.83	339.38
556.99	372.15
557.16	451.72
557.32	386.19
557.49	397.89
557.65	383.85
557.82	376.83
557.98	390.87
558.15	423.64
558.32	472.79
558.48	442.36
558.65	369.80
558.81	433.00
558.98	423.64
559.14	351.08
559.31	416.62
559.47	444.70
559.64	409.59
559.80	407.25
559.97	437.68
560.13	402.57
560.30	449.38
560.46	447.04
560.63	365.12
560.79	409.59
560.96	425.98
561.12	358.10
561.29	407.25
561.45	430.66
561.61	369.80
561.78	458.74
561.94	390.87
562.11	423.64
562.27	461.09
562.44	381.51
562.60	437.68
562.77	372.15
562.93	514.92
563.10	407.25
563.26	400.23
563.42	447.04
563.59	458.74
563.75	454.06
563.92	397.89
564.08	337.04
564.24	414.27
564.41	418.96
564.57	404.91
564.74	362.78
564.90	414.27
565.07	475.13
565.23	498.53
565.39	393.21
565.56	451.72
565.72	397.89
565.88	435.34
566.05	414.27
566.21	327.68
566.38	477.47
566.54	372.15
566.70	400.23
566.87	416.62
567.03	376.83
567.19	409.59
567.36	404.91
567.52	463.43
567.68	421.30
567.85	479.81
568.01	414.27
568.17	376.83
568.34	414.27
568.50	369.80
568.66	360.44
568.83	510.24
568.99	381.51
569.15	465.77
569.32	402.57
569.48	418.96
569.64	461.09
569.81	376.83
569.97	348.74
570.13	447.04
570.30	393.21
570.46	447.04
570.62	456.40
570.78	458.74
570.95	430.66
571.11	425.98
571.27	458.74
571.43	491.51
571.60	414.27
571.76	367.46
571.92	433.00
572.09	486.83
572.25	430.66
572.41	421.30
572.57	437.68
572.74	458.74
572.90	463.43
573.06	475.13
573.22	428.32
573.38	484.49
573.55	477.47
573.71	404.91
573.87	498.53
574.03	404.91
574.20	437.68
574.36	425.98
574.52	400.23
574.68	404.91
574.84	437.68
575.01	402.57
575.17	468.11
575.33	440.02
575.49	479.81
575.65	437.68
575.82	444.70
575.98	395.55
576.14	404.91
576.30	395.55
576.46	421.30
576.62	458.74
576.79	414.27
576.95	414.27
577.11	404.91
577.27	395.55
577.43	470.45
577.59	430.66
577.75	465.77
577.92	325.33
578.08	372.15
578.24	358.10
578.40	493.85
578.56	491.51
578.72	386.19
578.88	456.40
579.04	407.25
579.21	381.51
579.37	430.66
579.53	463.43
579.69	498.53
579.85	425.98
580.01	397.89
580.17	365.12
580.33	433.00
580.49	423.64
580.65	435.34
580.82	386.19
580.98	411.93
581.14	414.27
581.30	428.32
581.46	465.77
581.62	444.70
581.78	475.13
581.94	498.53
582.10	447.04
582.26	386.19
582.42	355.76
582.58	435.34
582.74	404.91
582.90	369.80
583.06	393.21
583.22	383.85
583.38	395.55
583.54	428.32
583.70	440.02
583.86	402.57
584.02	421.30
584.18	458.74
584.34	430.66
584.50	463.43
584.66	355.76
584.82	376.83
584.98	402.57
585.14	411.93
585.30	489.17
585.46	468.11
585.62	351.08
585.78	400.23
585.94	402.57
586.10	440.02
586.26	475.13
586.42	409.59
586.58	470.45
586.74	395.55
586.90	402.57
587.06	449.38
587.22	407.25
587.38	372.15
587.54	372.15
587.70	362.78
587.86	456.40
588.02	379.17
588.18	440.02
588.34	430.66
588.49	409.59
588.65	374.49
588.81	416.62
588.97	358.10
589.13	395.55
589.29	442.36
589.45	440.02
589.61	442.36
589.77	430.66
589.93	388.53
590.08	440.02
590.24	374.49
590.40	402.57
590.56	421.30
590.72	407.25
590.88	393.21
591.04	489.17
591.20	425.98
591.35	475.13
591.51	358.10
591.67	390.87
591.83	337.04
591.99	365.12
592.15	479.81
592.31	388.53
592.46	418.96
592.62	440.02
592.78	386.19
592.94	425.98
593.10	430.66
593.26	374.49
593.41	447.04
593.57	449.38
593.73	454.06
593.89	458.74
594.05	458.74
594.20	390.87
594.36	451.72
594.52	435.34
594.68	397.89
594.84	346.40
594.99	496.19
595.15	440.02
595.31	425.98
595.47	456.40
595.62	339.38
595.78	400.23
595.94	388.53
596.10	442.36
596.25	491.51
596.41	435.34
596.57	407.25
596.73	404.91
596.88	369.80
597.04	409.59
597.20	407.25
597.36	468.11
597.51	454.06
597.67	402.57
597.83	414.27
597.99	425.98
598.14	493.85
598.30	477.47
598.46	402.57
598.61	379.17
598.77	447.04
598.93	400.23
599.09	461.09
599.24	367.46
599.40	444.70
599.56	407.25
599.71	442.36
599.87	381.51
600.03	447.04
600.18	440.02
600.34	498.53
600.50	346.40
600.65	383.85
600.81	383.85
600.97	461.09
601.12	428.32
601.28	482.15
601.44	449.38
601.59	414.27
601.75	383.85
601.91	409.59
602.06	421.30
602.22	447.04
602.37	451.72
602.53	313.63
602.69	423.64
602.84	475.13
603.00	416.62
603.16	470.45
603.31	475.13
603.47	400.23
603.62	334.70
603.78	454.06
603.94	393.21
604.09	400.23
604.25	374.49
604.40	416.62
604.56	397.89
604.71	414.27
604.87	442.36
605.03	449.38
605.18	421.30
605.34	402.57
605.49	442.36
605.65	470.45
605.80	433.00
605.96	332.36
606.12	416.62
606.27	449.38
606.43	423.64
606.58	456.40
606.74	416.62
606.89	374.49
607.05	360.44
607.20	425.98
607.36	423.64
607.51	409.59
607.67	393.21
607.82	447.04
607.98	402.57
608.13	397.89
608.29	470.45
608.44	435.34
608.60	381.51
608.75	435.34
608.91	360.44
609.06	477.47
609.22	397.89
609.37	395.55
609.53	402.57
609.68	425.98
609.84	454.06
609.99	315.97
610.15	409.59
