SpectraSuite Data File
++++++++++++++++++++++++++++++++++++
Date: Fri Oct 25 12:10:16 EDT 2013
User: price-jones
Dark Spectrum Present: No
Reference Spectrum Present: No
Number of Sampled Component Spectra: 1
Spectrometers: USB2+H05261
Integration Time (usec): 100000 (USB2+H05261)
Spectra Averaged: 1 (USB2+H05261)
Boxcar Smoothing: 0 (USB2+H05261)
Correct for Electrical Dark: No (USB2+H05261)
Strobe/Lamp Enabled: No (USB2+H05261)
Correct for Detector Non-linearity: No (USB2+H05261)
Correct for Stray Light: No (USB2+H05261)
Number of Pixels in Processed Spectrum: 2048
>>>>>Begin Processed Spectral Data<<<<<
365.73	290.23
365.92	290.23
366.12	290.23
366.32	287.89
366.52	311.29
366.72	212.99
366.91	231.71
367.11	238.73
367.31	205.97
367.51	250.44
367.70	264.48
367.90	227.03
368.10	194.26
368.30	264.48
368.49	266.82
368.69	217.67
368.89	196.60
369.09	234.05
369.28	248.10
369.48	227.03
369.68	290.23
369.87	285.55
370.07	299.59
370.27	344.06
370.47	355.76
370.66	351.08
370.86	337.04
371.06	400.23
371.25	442.36
371.45	325.33
371.65	367.46
371.84	358.10
372.04	404.91
372.24	379.17
372.44	390.87
372.63	407.25
372.83	367.46
373.03	404.91
373.22	477.47
373.42	440.02
373.62	418.96
373.81	414.27
374.01	491.51
374.21	379.17
374.40	374.49
374.60	388.53
374.79	351.08
374.99	383.85
375.19	428.32
375.38	458.74
375.58	447.04
375.78	416.62
375.97	449.38
376.17	479.81
376.37	404.91
376.56	440.02
376.76	458.74
376.95	376.83
377.15	449.38
377.35	353.42
377.54	386.19
377.74	416.62
377.93	360.44
378.13	330.02
378.33	395.55
378.52	402.57
378.72	414.27
378.91	383.85
379.11	433.00
379.31	468.11
379.50	400.23
379.70	407.25
379.89	407.25
380.09	428.32
380.28	393.21
380.48	524.28
380.68	430.66
380.87	379.17
381.07	407.25
381.26	411.93
381.46	407.25
381.65	376.83
381.85	397.89
382.04	430.66
382.24	367.46
382.43	365.12
382.63	313.63
382.83	458.74
383.02	425.98
383.22	414.27
383.41	393.21
383.61	395.55
383.80	468.11
384.00	437.68
384.19	447.04
384.39	430.66
384.58	435.34
384.78	348.74
384.97	414.27
385.17	437.68
385.36	421.30
385.56	418.96
385.75	393.21
385.95	447.04
386.14	404.91
386.34	409.59
386.53	411.93
386.72	449.38
386.92	435.34
387.11	409.59
387.31	414.27
387.50	433.00
387.70	353.42
387.89	423.64
388.09	367.46
388.28	397.89
388.48	444.70
388.67	440.02
388.86	339.38
389.06	374.49
389.25	435.34
389.45	407.25
389.64	444.70
389.84	433.00
390.03	430.66
390.22	440.02
390.42	407.25
390.61	437.68
390.81	395.55
391.00	423.64
391.19	416.62
391.39	358.10
391.58	430.66
391.78	374.49
391.97	407.25
392.16	395.55
392.36	456.40
392.55	451.72
392.75	479.81
392.94	386.19
393.13	400.23
393.33	379.17
393.52	308.95
393.71	437.68
393.91	447.04
394.10	355.76
394.29	388.53
394.49	390.87
394.68	423.64
394.88	369.80
395.07	433.00
395.26	339.38
395.46	341.72
395.65	468.11
395.84	444.70
396.04	442.36
396.23	402.57
396.42	400.23
396.62	479.81
396.81	468.11
397.00	395.55
397.19	407.25
397.39	386.19
397.58	418.96
397.77	351.08
397.97	388.53
398.16	425.98
398.35	425.98
398.55	376.83
398.74	374.49
398.93	425.98
399.12	379.17
399.32	433.00
399.51	479.81
399.70	397.89
399.90	383.85
400.09	362.78
400.28	337.04
400.47	341.72
400.67	442.36
400.86	381.51
401.05	477.47
401.24	437.68
401.44	421.30
401.63	479.81
401.82	479.81
402.01	404.91
402.21	416.62
402.40	402.57
402.59	435.34
402.78	397.89
402.97	407.25
403.17	430.66
403.36	367.46
403.55	344.06
403.74	351.08
403.93	376.83
404.13	348.74
404.32	365.12
404.51	334.70
404.70	463.43
404.89	475.13
405.09	365.12
405.28	388.53
405.47	465.77
405.66	428.32
405.85	395.55
406.05	402.57
406.24	397.89
406.43	414.27
406.62	367.46
406.81	440.02
407.00	435.34
407.20	421.30
407.39	351.08
407.58	337.04
407.77	395.55
407.96	365.12
408.15	395.55
408.34	374.49
408.54	430.66
408.73	348.74
408.92	461.09
409.11	393.21
409.30	411.93
409.49	383.85
409.68	447.04
409.87	383.85
410.07	358.10
410.26	395.55
410.45	374.49
410.64	397.89
410.83	440.02
411.02	332.36
411.21	393.21
411.40	381.51
411.59	341.72
411.78	433.00
411.98	402.57
412.17	358.10
412.36	468.11
412.55	397.89
412.74	402.57
412.93	489.17
413.12	388.53
413.31	447.04
413.50	421.30
413.69	451.72
413.88	397.89
414.07	353.42
414.26	414.27
414.45	430.66
414.64	411.93
414.83	372.15
415.02	472.79
415.22	430.66
415.41	493.85
415.60	423.64
415.79	414.27
415.98	416.62
416.17	395.55
416.36	355.76
416.55	425.98
416.74	388.53
416.93	451.72
417.12	348.74
417.31	390.87
417.50	418.96
417.69	440.02
417.88	397.89
418.07	376.83
418.26	393.21
418.45	416.62
418.64	388.53
418.83	425.98
419.02	418.96
419.21	468.11
419.39	416.62
419.58	374.49
419.77	339.38
419.96	454.06
420.15	449.38
420.34	365.12
420.53	433.00
420.72	477.47
420.91	376.83
421.10	381.51
421.29	423.64
421.48	433.00
421.67	381.51
421.86	486.83
422.05	372.15
422.24	461.09
422.43	421.30
422.61	381.51
422.80	374.49
422.99	379.17
423.18	421.30
423.37	442.36
423.56	458.74
423.75	447.04
423.94	454.06
424.13	425.98
424.32	414.27
424.50	337.04
424.69	425.98
424.88	397.89
425.07	404.91
425.26	437.68
425.45	362.78
425.64	425.98
425.83	437.68
426.01	423.64
426.20	423.64
426.39	414.27
426.58	456.40
426.77	374.49
426.96	341.72
427.15	421.30
427.33	390.87
427.52	390.87
427.71	369.80
427.90	395.55
428.09	430.66
428.28	332.36
428.46	418.96
428.65	475.13
428.84	477.47
429.03	421.30
429.22	322.99
429.40	381.51
429.59	372.15
429.78	381.51
429.97	388.53
430.16	395.55
430.34	451.72
430.53	409.59
430.72	360.44
430.91	397.89
431.10	376.83
431.28	416.62
431.47	451.72
431.66	395.55
431.85	353.42
432.03	404.91
432.22	362.78
432.41	374.49
432.60	397.89
432.79	489.17
432.97	407.25
433.16	416.62
433.35	376.83
433.54	433.00
433.72	435.34
433.91	369.80
434.10	421.30
434.28	414.27
434.47	362.78
434.66	496.19
434.85	395.55
435.03	339.38
435.22	440.02
435.41	491.51
435.59	414.27
435.78	451.72
435.97	313.63
436.16	433.00
436.34	465.77
436.53	395.55
436.72	461.09
436.90	395.55
437.09	461.09
437.28	451.72
437.46	416.62
437.65	447.04
437.84	346.40
438.02	491.51
438.21	418.96
438.40	428.32
438.58	374.49
438.77	411.93
438.96	409.59
439.14	458.74
439.33	440.02
439.52	411.93
439.70	440.02
439.89	416.62
440.08	416.62
440.26	442.36
440.45	397.89
440.63	430.66
440.82	430.66
441.01	423.64
441.19	379.17
441.38	390.87
441.57	351.08
441.75	379.17
441.94	470.45
442.12	449.38
442.31	409.59
442.50	393.21
442.68	423.64
442.87	395.55
443.05	414.27
443.24	402.57
443.43	346.40
443.61	421.30
443.80	414.27
443.98	374.49
444.17	451.72
444.35	390.87
444.54	388.53
444.73	407.25
444.91	327.68
445.10	393.21
445.28	365.12
445.47	425.98
445.65	404.91
445.84	416.62
446.02	425.98
446.21	402.57
446.39	437.68
446.58	374.49
446.77	393.21
446.95	442.36
447.14	421.30
447.32	470.45
447.51	395.55
447.69	374.49
447.88	402.57
448.06	411.93
448.25	423.64
448.43	341.72
448.62	374.49
448.80	507.90
448.99	440.02
449.17	386.19
449.36	346.40
449.54	360.44
449.73	393.21
449.91	386.19
450.10	390.87
450.28	409.59
450.46	489.17
450.65	409.59
450.83	423.64
451.02	423.64
451.20	395.55
451.39	404.91
451.57	449.38
451.76	367.46
451.94	372.15
452.13	425.98
452.31	444.70
452.49	362.78
452.68	339.38
452.86	442.36
453.05	468.11
453.23	449.38
453.42	423.64
453.60	390.87
453.78	395.55
453.97	447.04
454.15	386.19
454.34	435.34
454.52	447.04
454.70	433.00
454.89	339.38
455.07	423.64
455.26	411.93
455.44	388.53
455.62	451.72
455.81	425.98
455.99	386.19
456.17	463.43
456.36	351.08
456.54	369.80
456.73	444.70
456.91	449.38
457.09	386.19
457.28	395.55
457.46	447.04
457.64	381.51
457.83	402.57
458.01	435.34
458.19	374.49
458.38	402.57
458.56	468.11
458.74	369.80
458.93	451.72
459.11	369.80
459.29	425.98
459.48	341.72
459.66	425.98
459.84	414.27
460.03	465.77
460.21	379.17
460.39	500.87
460.57	416.62
460.76	393.21
460.94	428.32
461.12	425.98
461.31	475.13
461.49	423.64
461.67	428.32
461.85	486.83
462.04	465.77
462.22	823.87
462.40	430.66
462.59	423.64
462.77	411.93
462.95	493.85
463.13	351.08
463.32	390.87
463.50	414.27
463.68	423.64
463.86	383.85
464.05	404.91
464.23	433.00
464.41	472.79
464.59	407.25
464.78	327.68
464.96	400.23
465.14	425.98
465.32	372.15
465.50	379.17
465.69	428.32
465.87	414.27
466.05	416.62
466.23	393.21
466.41	421.30
466.60	411.93
466.78	433.00
466.96	449.38
467.14	437.68
467.32	381.51
467.51	447.04
467.69	376.83
467.87	425.98
468.05	444.70
468.23	477.47
468.41	433.00
468.60	519.60
468.78	433.00
468.96	444.70
469.14	437.68
469.32	400.23
469.50	386.19
469.69	440.02
469.87	435.34
470.05	393.21
470.23	449.38
470.41	447.04
470.59	484.49
470.77	409.59
470.95	393.21
471.14	423.64
471.32	367.46
471.50	475.13
471.68	451.72
471.86	395.55
472.04	360.44
472.22	458.74
472.40	447.04
472.58	435.34
472.77	416.62
472.95	411.93
473.13	514.92
473.31	458.74
473.49	393.21
473.67	379.17
473.85	458.74
474.03	351.08
474.21	409.59
474.39	402.57
474.57	425.98
474.75	344.06
474.93	423.64
475.12	442.36
475.30	372.15
475.48	369.80
475.66	512.58
475.84	360.44
476.02	482.15
476.20	341.72
476.38	346.40
476.56	425.98
476.74	430.66
476.92	414.27
477.10	358.10
477.28	379.17
477.46	416.62
477.64	416.62
477.82	435.34
478.00	409.59
478.18	475.13
478.36	369.80
478.54	433.00
478.72	386.19
478.90	383.85
479.08	365.12
479.26	346.40
479.44	374.49
479.62	381.51
479.80	311.29
479.98	339.38
480.16	454.06
480.34	409.59
480.52	451.72
480.70	414.27
480.88	430.66
481.06	423.64
481.24	456.40
481.41	440.02
481.59	393.21
481.77	400.23
481.95	383.85
482.13	465.77
482.31	440.02
482.49	440.02
482.67	409.59
482.85	393.21
483.03	402.57
483.21	395.55
483.39	433.00
483.57	400.23
483.74	411.93
483.92	421.30
484.10	418.96
484.28	437.68
484.46	433.00
484.64	330.02
484.82	383.85
485.00	386.19
485.18	470.45
485.35	386.19
485.53	423.64
485.71	444.70
485.89	379.17
486.07	472.79
486.25	414.27
486.43	423.64
486.61	444.70
486.78	404.91
486.96	402.57
487.14	390.87
487.32	454.06
487.50	362.78
487.68	437.68
487.85	440.02
488.03	400.23
488.21	418.96
488.39	451.72
488.57	411.93
488.75	425.98
488.92	444.70
489.10	449.38
489.28	491.51
489.46	433.00
489.64	423.64
489.81	400.23
489.99	365.12
490.17	435.34
490.35	407.25
490.53	379.17
490.70	433.00
490.88	440.02
491.06	421.30
491.24	440.02
491.41	423.64
491.59	395.55
491.77	433.00
491.95	397.89
492.13	397.89
492.30	353.42
492.48	362.78
492.66	470.45
492.84	433.00
493.01	444.70
493.19	437.68
493.37	449.38
493.54	400.23
493.72	437.68
493.90	468.11
494.08	444.70
494.25	475.13
494.43	470.45
494.61	414.27
494.79	430.66
494.96	423.64
495.14	411.93
495.32	477.47
495.49	416.62
495.67	374.49
495.85	386.19
496.02	400.23
496.20	440.02
496.38	416.62
496.55	362.78
496.73	348.74
496.91	442.36
497.09	374.49
497.26	465.77
497.44	386.19
497.62	407.25
497.79	416.62
497.97	416.62
498.14	437.68
498.32	390.87
498.50	365.12
498.67	383.85
498.85	458.74
499.03	400.23
499.20	360.44
499.38	388.53
499.56	407.25
499.73	510.24
499.91	461.09
500.08	402.57
500.26	423.64
500.44	341.72
500.61	390.87
500.79	451.72
500.97	493.85
501.14	472.79
501.32	390.87
501.49	414.27
501.67	461.09
501.84	468.11
502.02	437.68
502.20	433.00
502.37	400.23
502.55	470.45
502.72	425.98
502.90	407.25
503.07	409.59
503.25	425.98
503.43	461.09
503.60	440.02
503.78	463.43
503.95	395.55
504.13	383.85
504.30	538.32
504.48	425.98
504.65	468.11
504.83	404.91
505.01	411.93
505.18	451.72
505.36	423.64
505.53	418.96
505.71	409.59
505.88	369.80
506.06	383.85
506.23	407.25
506.41	458.74
506.58	395.55
506.76	496.19
506.93	348.74
507.11	472.79
507.28	465.77
507.46	409.59
507.63	437.68
507.81	437.68
507.98	393.21
508.16	421.30
508.33	489.17
508.50	379.17
508.68	379.17
508.85	433.00
509.03	393.21
509.20	404.91
509.38	376.83
509.55	351.08
509.73	482.15
509.90	543.00
510.08	416.62
510.25	470.45
510.42	386.19
510.60	383.85
510.77	386.19
510.95	505.56
511.12	433.00
511.30	496.19
511.47	449.38
511.64	423.64
511.82	458.74
511.99	390.87
512.17	362.78
512.34	409.59
512.51	376.83
512.69	416.62
512.86	376.83
513.04	400.23
513.21	411.93
513.38	353.42
513.56	344.06
513.73	379.17
513.90	351.08
514.08	435.34
514.25	372.15
514.43	482.15
514.60	395.55
514.77	416.62
514.95	362.78
515.12	393.21
515.29	411.93
515.47	454.06
515.64	430.66
515.81	322.99
515.99	416.62
516.16	414.27
516.33	449.38
516.51	397.89
516.68	404.91
516.85	416.62
517.03	383.85
517.20	418.96
517.37	437.68
517.54	442.36
517.72	409.59
517.89	411.93
518.06	344.06
518.24	388.53
518.41	414.27
518.58	451.72
518.75	435.34
518.93	437.68
519.10	437.68
519.27	416.62
519.45	456.40
519.62	334.70
519.79	465.77
519.96	425.98
520.14	418.96
520.31	416.62
520.48	421.30
520.65	386.19
520.83	437.68
521.00	444.70
521.17	442.36
521.34	402.57
521.52	468.11
521.69	416.62
521.86	386.19
522.03	475.13
522.20	421.30
522.38	414.27
522.55	456.40
522.72	449.38
522.89	407.25
523.07	477.47
523.24	381.51
523.41	402.57
523.58	454.06
523.75	407.25
523.92	414.27
524.10	383.85
524.27	409.59
524.44	367.46
524.61	477.47
524.78	428.32
524.96	442.36
525.13	447.04
525.30	390.87
525.47	472.79
525.64	411.93
525.81	430.66
525.98	379.17
526.16	418.96
526.33	369.80
526.50	400.23
526.67	444.70
526.84	437.68
527.01	430.66
527.18	418.96
527.36	400.23
527.53	461.09
527.70	451.72
527.87	390.87
528.04	451.72
528.21	383.85
528.38	428.32
528.55	414.27
528.72	430.66
528.89	465.77
529.07	430.66
529.24	454.06
529.41	454.06
529.58	437.68
529.75	400.23
529.92	423.64
530.09	400.23
530.26	425.98
530.43	465.77
530.60	404.91
530.77	451.72
530.94	379.17
531.11	463.43
531.28	440.02
531.46	416.62
531.63	421.30
531.80	416.62
531.97	421.30
532.14	416.62
532.31	409.59
532.48	379.17
532.65	414.27
532.82	330.02
532.99	372.15
533.16	416.62
533.33	400.23
533.50	463.43
533.67	386.19
533.84	393.21
534.01	433.00
534.18	416.62
534.35	440.02
534.52	402.57
534.69	463.43
534.86	358.10
535.03	383.85
535.20	435.34
535.37	461.09
535.54	416.62
535.71	449.38
535.88	374.49
536.05	402.57
536.22	386.19
536.38	393.21
536.55	414.27
536.72	430.66
536.89	355.76
537.06	486.83
537.23	395.55
537.40	379.17
537.57	390.87
537.74	444.70
537.91	444.70
538.08	437.68
538.25	395.55
538.42	421.30
538.59	430.66
538.75	418.96
538.92	360.44
539.09	388.53
539.26	433.00
539.43	425.98
539.60	423.64
539.77	454.06
539.94	430.66
540.11	463.43
540.28	517.26
540.44	402.57
540.61	374.49
540.78	447.04
540.95	489.17
541.12	449.38
541.29	416.62
541.46	416.62
541.62	435.34
541.79	444.70
541.96	423.64
542.13	404.91
542.30	463.43
542.47	383.85
542.63	397.89
542.80	475.13
542.97	472.79
543.14	407.25
543.31	330.02
543.48	367.46
543.64	404.91
543.81	400.23
543.98	353.42
544.15	397.89
544.32	374.49
544.48	383.85
544.65	423.64
544.82	397.89
544.99	395.55
545.16	475.13
545.32	395.55
545.49	404.91
545.66	430.66
545.83	430.66
546.00	400.23
546.16	451.72
546.33	430.66
546.50	386.19
546.67	404.91
546.83	379.17
547.00	428.32
547.17	535.98
547.34	409.59
547.50	395.55
547.67	430.66
547.84	514.92
548.00	465.77
548.17	416.62
548.34	358.10
548.51	400.23
548.67	437.68
548.84	383.85
549.01	423.64
549.18	461.09
549.34	440.02
549.51	475.13
549.68	500.87
549.84	393.21
550.01	449.38
550.18	435.34
550.34	477.47
550.51	447.04
550.68	482.15
550.84	409.59
551.01	463.43
551.18	428.32
551.34	390.87
551.51	400.23
551.68	285.55
551.84	404.91
552.01	449.38
552.18	442.36
552.34	423.64
552.51	374.49
552.68	437.68
552.84	355.76
553.01	437.68
553.18	482.15
553.34	423.64
553.51	418.96
553.67	482.15
553.84	479.81
554.01	437.68
554.17	489.17
554.34	402.57
554.51	433.00
554.67	472.79
554.84	489.17
555.00	440.02
555.17	461.09
555.33	470.45
555.50	386.19
555.67	449.38
555.83	498.53
556.00	358.10
556.16	444.70
556.33	472.79
556.50	407.25
556.66	440.02
556.83	428.32
556.99	409.59
557.16	348.74
557.32	334.70
557.49	425.98
557.65	421.30
557.82	393.21
557.98	397.89
558.15	395.55
558.32	369.80
558.48	383.85
558.65	456.40
558.81	468.11
558.98	425.98
559.14	461.09
559.31	421.30
559.47	477.47
559.64	465.77
559.80	379.17
559.97	360.44
560.13	383.85
560.30	411.93
560.46	454.06
560.63	407.25
560.79	444.70
560.96	447.04
561.12	369.80
561.29	454.06
561.45	407.25
561.61	409.59
561.78	470.45
561.94	416.62
562.11	407.25
562.27	430.66
562.44	376.83
562.60	414.27
562.77	447.04
562.93	444.70
563.10	449.38
563.26	402.57
563.42	423.64
563.59	383.85
563.75	421.30
563.92	416.62
564.08	425.98
564.24	498.53
564.41	430.66
564.57	369.80
564.74	463.43
564.90	454.06
565.07	451.72
565.23	437.68
565.39	418.96
565.56	388.53
565.72	379.17
565.88	433.00
566.05	301.93
566.21	454.06
566.38	367.46
566.54	409.59
566.70	409.59
566.87	411.93
567.03	437.68
567.19	414.27
567.36	414.27
567.52	442.36
567.68	521.94
567.85	440.02
568.01	433.00
568.17	393.21
568.34	430.66
568.50	386.19
568.66	421.30
568.83	524.28
568.99	437.68
569.15	376.83
569.32	411.93
569.48	486.83
569.64	407.25
569.81	411.93
569.97	411.93
570.13	449.38
570.30	388.53
570.46	458.74
570.62	440.02
570.78	381.51
570.95	491.51
571.11	482.15
571.27	468.11
571.43	355.76
571.60	535.98
571.76	322.99
571.92	440.02
572.09	442.36
572.25	484.49
572.41	435.34
572.57	447.04
572.74	435.34
572.90	503.22
573.06	454.06
573.22	341.72
573.38	458.74
573.55	449.38
573.71	458.74
573.87	365.12
574.03	468.11
574.20	386.19
574.36	400.23
574.52	479.81
574.68	390.87
574.84	407.25
575.01	409.59
575.17	458.74
575.33	416.62
575.49	468.11
575.65	454.06
575.82	409.59
575.98	433.00
576.14	400.23
576.30	395.55
576.46	416.62
576.62	365.12
576.79	416.62
576.95	493.85
577.11	386.19
577.27	346.40
577.43	430.66
577.59	489.17
577.75	416.62
577.92	430.66
578.08	468.11
578.24	451.72
578.40	442.36
578.56	486.83
578.72	449.38
578.88	496.19
579.04	421.30
579.21	425.98
579.37	393.21
579.53	437.68
579.69	451.72
579.85	397.89
580.01	397.89
580.17	407.25
580.33	360.44
580.49	395.55
580.65	416.62
580.82	475.13
580.98	442.36
581.14	407.25
581.30	456.40
581.46	404.91
581.62	402.57
581.78	461.09
581.94	407.25
582.10	367.46
582.26	414.27
582.42	360.44
582.58	435.34
582.74	414.27
582.90	435.34
583.06	390.87
583.22	465.77
583.38	433.00
583.54	416.62
583.70	489.17
583.86	334.70
584.02	365.12
584.18	416.62
584.34	433.00
584.50	402.57
584.66	442.36
584.82	409.59
584.98	489.17
585.14	402.57
585.30	451.72
585.46	449.38
585.62	437.68
585.78	407.25
585.94	491.51
586.10	358.10
586.26	416.62
586.42	393.21
586.58	388.53
586.74	451.72
586.90	451.72
587.06	447.04
587.22	440.02
587.38	402.57
587.54	423.64
587.70	421.30
587.86	437.68
588.02	409.59
588.18	395.55
588.34	409.59
588.49	341.72
588.65	383.85
588.81	435.34
588.97	400.23
589.13	454.06
589.29	421.30
589.45	402.57
589.61	393.21
589.77	393.21
589.93	430.66
590.08	416.62
590.24	433.00
590.40	388.53
590.56	433.00
590.72	395.55
590.88	395.55
591.04	423.64
591.20	411.93
591.35	447.04
591.51	449.38
591.67	386.19
591.83	447.04
591.99	372.15
592.15	449.38
592.31	416.62
592.46	444.70
592.62	451.72
592.78	330.02
592.94	369.80
593.10	369.80
593.26	442.36
593.41	449.38
593.57	458.74
593.73	428.32
593.89	470.45
594.05	341.72
594.20	418.96
594.36	416.62
594.52	332.36
594.68	372.15
594.84	376.83
594.99	397.89
595.15	433.00
595.31	358.10
595.47	421.30
595.62	358.10
595.78	451.72
595.94	456.40
596.10	365.12
596.25	409.59
596.41	435.34
596.57	418.96
596.73	454.06
596.88	470.45
597.04	433.00
597.20	468.11
597.36	463.43
597.51	472.79
597.67	477.47
597.83	414.27
597.99	463.43
598.14	400.23
598.30	475.13
598.46	458.74
598.61	379.17
598.77	458.74
598.93	351.08
599.09	418.96
599.24	430.66
599.40	477.47
599.56	435.34
599.71	454.06
599.87	393.21
600.03	327.68
600.18	465.77
600.34	475.13
600.50	428.32
600.65	447.04
600.81	416.62
600.97	463.43
601.12	383.85
601.28	449.38
601.44	372.15
601.59	440.02
601.75	395.55
601.91	414.27
602.06	425.98
602.22	505.56
602.37	428.32
602.53	512.58
602.69	416.62
602.84	365.12
603.00	421.30
603.16	496.19
603.31	444.70
603.47	409.59
603.62	369.80
603.78	362.78
603.94	395.55
604.09	465.77
604.25	484.49
604.40	423.64
604.56	442.36
604.71	486.83
604.87	416.62
605.03	444.70
605.18	409.59
605.34	442.36
605.49	411.93
605.65	463.43
605.80	430.66
605.96	416.62
606.12	482.15
606.27	477.47
606.43	400.23
606.58	428.32
606.74	416.62
606.89	425.98
607.05	395.55
607.20	374.49
607.36	435.34
607.51	411.93
607.67	468.11
607.82	447.04
607.98	454.06
608.13	418.96
608.29	425.98
608.44	423.64
608.60	400.23
608.75	475.13
608.91	409.59
609.06	437.68
609.22	393.21
609.37	409.59
609.53	386.19
609.68	440.02
609.84	418.96
609.99	409.59
610.15	390.87
