SpectraSuite Data File
++++++++++++++++++++++++++++++++++++
Date: Fri Oct 25 12:11:28 EDT 2013
User: price-jones
Dark Spectrum Present: No
Reference Spectrum Present: No
Number of Sampled Component Spectra: 1
Spectrometers: USB2+H05261
Integration Time (usec): 100000 (USB2+H05261)
Spectra Averaged: 1 (USB2+H05261)
Boxcar Smoothing: 0 (USB2+H05261)
Correct for Electrical Dark: No (USB2+H05261)
Strobe/Lamp Enabled: No (USB2+H05261)
Correct for Detector Non-linearity: No (USB2+H05261)
Correct for Stray Light: No (USB2+H05261)
Number of Pixels in Processed Spectrum: 2048
>>>>>Begin Processed Spectral Data<<<<<
365.73	402.57
365.92	402.57
366.12	402.57
366.32	306.61
366.52	224.69
366.72	285.55
366.91	238.73
367.11	191.92
367.31	252.78
367.51	198.95
367.70	297.25
367.90	287.89
368.10	203.63
368.30	234.05
368.49	182.56
368.69	257.46
368.89	304.27
369.09	177.88
369.28	245.76
369.48	276.18
369.68	220.01
369.87	278.52
370.07	355.76
370.27	376.83
370.47	322.99
370.66	301.93
370.86	414.27
371.06	304.27
371.25	435.34
371.45	358.10
371.65	404.91
371.84	383.85
372.04	358.10
372.24	341.72
372.44	404.91
372.63	334.70
372.83	304.27
373.03	416.62
373.22	444.70
373.42	414.27
373.62	353.42
373.81	435.34
374.01	388.53
374.21	440.02
374.40	444.70
374.60	379.17
374.79	404.91
374.99	383.85
375.19	425.98
375.38	491.51
375.58	430.66
375.78	463.43
375.97	503.22
376.17	468.11
376.37	435.34
376.56	425.98
376.76	369.80
376.95	376.83
377.15	433.00
377.35	388.53
377.54	423.64
377.74	393.21
377.93	428.32
378.13	390.87
378.33	376.83
378.52	393.21
378.72	409.59
378.91	411.93
379.11	435.34
379.31	407.25
379.50	393.21
379.70	430.66
379.89	388.53
380.09	425.98
380.28	397.89
380.48	397.89
380.68	411.93
380.87	428.32
381.07	362.78
381.26	463.43
381.46	358.10
381.65	425.98
381.85	423.64
382.04	444.70
382.24	337.04
382.43	397.89
382.63	454.06
382.83	430.66
383.02	461.09
383.22	440.02
383.41	383.85
383.61	447.04
383.80	477.47
384.00	372.15
384.19	372.15
384.39	479.81
384.58	360.44
384.78	437.68
384.97	411.93
385.17	430.66
385.36	421.30
385.56	447.04
385.75	344.06
385.95	388.53
386.14	372.15
386.34	372.15
386.53	365.12
386.72	327.68
386.92	390.87
387.11	358.10
387.31	402.57
387.50	330.02
387.70	344.06
387.89	402.57
388.09	440.02
388.28	407.25
388.48	276.18
388.67	388.53
388.86	372.15
389.06	390.87
389.25	454.06
389.45	379.17
389.64	383.85
389.84	416.62
390.03	388.53
390.22	400.23
390.42	379.17
390.61	341.72
390.81	348.74
391.00	437.68
391.19	421.30
391.39	409.59
391.58	411.93
391.78	458.74
391.97	383.85
392.16	440.02
392.36	451.72
392.55	404.91
392.75	379.17
392.94	444.70
393.13	449.38
393.33	351.08
393.52	407.25
393.71	383.85
393.91	435.34
394.10	358.10
394.29	430.66
394.49	362.78
394.68	355.76
394.88	428.32
395.07	440.02
395.26	414.27
395.46	482.15
395.65	482.15
395.84	381.51
396.04	454.06
396.23	454.06
396.42	475.13
396.62	372.15
396.81	416.62
397.00	463.43
397.19	402.57
397.39	374.49
397.58	447.04
397.77	372.15
397.97	390.87
398.16	430.66
398.35	372.15
398.55	369.80
398.74	388.53
398.93	465.77
399.12	433.00
399.32	407.25
399.51	313.63
399.70	388.53
399.90	332.36
400.09	421.30
400.28	489.17
400.47	383.85
400.67	381.51
400.86	512.58
401.05	383.85
401.24	416.62
401.44	381.51
401.63	400.23
401.82	397.89
402.01	437.68
402.21	367.46
402.40	383.85
402.59	397.89
402.78	404.91
402.97	395.55
403.17	411.93
403.36	454.06
403.55	447.04
403.74	386.19
403.93	386.19
404.13	435.34
404.32	430.66
404.51	358.10
404.70	414.27
404.89	430.66
405.09	425.98
405.28	428.32
405.47	390.87
405.66	400.23
405.85	402.57
406.05	411.93
406.24	362.78
406.43	423.64
406.62	390.87
406.81	416.62
407.00	479.81
407.20	428.32
407.39	393.21
407.58	390.87
407.77	404.91
407.96	430.66
408.15	397.89
408.34	456.40
408.54	397.89
408.73	301.93
408.92	376.83
409.11	444.70
409.30	444.70
409.49	341.72
409.68	428.32
409.87	388.53
410.07	442.36
410.26	409.59
410.45	435.34
410.64	372.15
410.83	458.74
411.02	355.76
411.21	428.32
411.40	393.21
411.59	386.19
411.78	400.23
411.98	444.70
412.17	430.66
412.36	383.85
412.55	414.27
412.74	486.83
412.93	430.66
413.12	320.65
413.31	421.30
413.50	430.66
413.69	395.55
413.88	379.17
414.07	367.46
414.26	423.64
414.45	362.78
414.64	442.36
414.83	435.34
415.02	449.38
415.22	437.68
415.41	430.66
415.60	409.59
415.79	416.62
415.98	456.40
416.17	428.32
416.36	369.80
416.55	435.34
416.74	456.40
416.93	479.81
417.12	383.85
417.31	348.74
417.50	437.68
417.69	489.17
417.88	395.55
418.07	451.72
418.26	423.64
418.45	421.30
418.64	360.44
418.83	404.91
419.02	428.32
419.21	365.12
419.39	421.30
419.58	435.34
419.77	425.98
419.96	468.11
420.15	388.53
420.34	440.02
420.53	339.38
420.72	416.62
420.91	397.89
421.10	383.85
421.29	407.25
421.48	421.30
421.67	341.72
421.86	421.30
422.05	411.93
422.24	388.53
422.43	411.93
422.61	416.62
422.80	435.34
422.99	383.85
423.18	379.17
423.37	463.43
423.56	411.93
423.75	423.64
423.94	330.02
424.13	418.96
424.32	390.87
424.50	379.17
424.69	425.98
424.88	411.93
425.07	351.08
425.26	383.85
425.45	465.77
425.64	449.38
425.83	414.27
426.01	440.02
426.20	381.51
426.39	393.21
426.58	447.04
426.77	388.53
426.96	507.90
427.15	477.47
427.33	372.15
427.52	428.32
427.71	397.89
427.90	479.81
428.09	390.87
428.28	407.25
428.46	376.83
428.65	367.46
428.84	337.04
429.03	386.19
429.22	430.66
429.40	348.74
429.59	437.68
429.78	428.32
429.97	386.19
430.16	458.74
430.34	447.04
430.53	433.00
430.72	458.74
430.91	425.98
431.10	397.89
431.28	435.34
431.47	433.00
431.66	365.12
431.85	365.12
432.03	369.80
432.22	444.70
432.41	451.72
432.60	435.34
432.79	433.00
432.97	447.04
433.16	390.87
433.35	461.09
433.54	472.79
433.72	454.06
433.91	388.53
434.10	390.87
434.28	440.02
434.47	414.27
434.66	407.25
434.85	437.68
435.03	425.98
435.22	393.21
435.41	514.92
435.59	365.12
435.78	416.62
435.97	425.98
436.16	486.83
436.34	468.11
436.53	407.25
436.72	372.15
436.90	348.74
437.09	360.44
437.28	425.98
437.46	390.87
437.65	437.68
437.84	442.36
438.02	447.04
438.21	484.49
438.40	379.17
438.58	411.93
438.77	388.53
438.96	402.57
439.14	379.17
439.33	456.40
439.52	435.34
439.70	435.34
439.89	386.19
440.08	407.25
440.26	383.85
440.45	416.62
440.63	444.70
440.82	465.77
441.01	486.83
441.19	514.92
441.38	355.76
441.57	327.68
441.75	500.87
441.94	360.44
442.12	376.83
442.31	411.93
442.50	386.19
442.68	489.17
442.87	521.94
443.05	404.91
443.24	390.87
443.43	362.78
443.61	437.68
443.80	372.15
443.98	397.89
444.17	421.30
444.35	470.45
444.54	416.62
444.73	332.36
444.91	360.44
445.10	320.65
445.28	397.89
445.47	444.70
445.65	418.96
445.84	388.53
446.02	435.34
446.21	390.87
446.39	358.10
446.58	425.98
446.77	355.76
446.95	425.98
447.14	409.59
447.32	425.98
447.51	472.79
447.69	411.93
447.88	444.70
448.06	414.27
448.25	402.57
448.43	386.19
448.62	351.08
448.80	437.68
448.99	435.34
449.17	360.44
449.36	437.68
449.54	372.15
449.73	442.36
449.91	435.34
450.10	451.72
450.28	444.70
450.46	365.12
450.65	456.40
450.83	477.47
451.02	430.66
451.20	395.55
451.39	421.30
451.57	465.77
451.76	395.55
451.94	414.27
452.13	381.51
452.31	397.89
452.49	404.91
452.68	444.70
452.86	493.85
453.05	376.83
453.23	475.13
453.42	369.80
453.60	421.30
453.78	374.49
453.97	351.08
454.15	407.25
454.34	294.91
454.52	421.30
454.70	512.58
454.89	421.30
455.07	433.00
455.26	437.68
455.44	358.10
455.62	433.00
455.81	463.43
455.99	465.77
456.17	458.74
456.36	381.51
456.54	379.17
456.73	428.32
456.91	402.57
457.09	416.62
457.28	414.27
457.46	444.70
457.64	505.56
457.83	449.38
458.01	444.70
458.19	388.53
458.38	400.23
458.56	491.51
458.74	402.57
458.93	393.21
459.11	491.51
459.29	372.15
459.48	442.36
459.66	449.38
459.84	383.85
460.03	437.68
460.21	461.09
460.39	414.27
460.57	402.57
460.76	395.55
460.94	379.17
461.12	440.02
461.31	472.79
461.49	404.91
461.67	411.93
461.85	341.72
462.04	418.96
462.22	765.36
462.40	433.00
462.59	393.21
462.77	397.89
462.95	456.40
463.13	381.51
463.32	447.04
463.50	416.62
463.68	468.11
463.86	376.83
464.05	425.98
464.23	421.30
464.41	449.38
464.59	330.02
464.78	383.85
464.96	402.57
465.14	397.89
465.32	379.17
465.50	360.44
465.69	388.53
465.87	362.78
466.05	456.40
466.23	376.83
466.41	454.06
466.60	397.89
466.78	414.27
466.96	503.22
467.14	447.04
467.32	435.34
467.51	449.38
467.69	425.98
467.87	414.27
468.05	393.21
468.23	433.00
468.41	411.93
468.60	388.53
468.78	407.25
468.96	400.23
469.14	470.45
469.32	383.85
469.50	390.87
469.69	484.49
469.87	456.40
470.05	365.12
470.23	423.64
470.41	484.49
470.59	423.64
470.77	421.30
470.95	418.96
471.14	388.53
471.32	428.32
471.50	440.02
471.68	365.12
471.86	393.21
472.04	454.06
472.22	430.66
472.40	355.76
472.58	358.10
472.77	395.55
472.95	393.21
473.13	507.90
473.31	493.85
473.49	423.64
473.67	381.51
473.85	381.51
474.03	433.00
474.21	447.04
474.39	423.64
474.57	470.45
474.75	423.64
474.93	435.34
475.12	433.00
475.30	418.96
475.48	400.23
475.66	381.51
475.84	449.38
476.02	437.68
476.20	456.40
476.38	425.98
476.56	531.30
476.74	442.36
476.92	404.91
477.10	362.78
477.28	472.79
477.46	372.15
477.64	374.49
477.82	388.53
478.00	456.40
478.18	468.11
478.36	433.00
478.54	442.36
478.72	411.93
478.90	404.91
479.08	397.89
479.26	397.89
479.44	348.74
479.62	433.00
479.80	325.33
479.98	449.38
480.16	372.15
480.34	402.57
480.52	458.74
480.70	402.57
480.88	447.04
481.06	402.57
481.24	425.98
481.41	400.23
481.59	402.57
481.77	367.46
481.95	411.93
482.13	444.70
482.31	414.27
482.49	397.89
482.67	409.59
482.85	442.36
483.03	376.83
483.21	430.66
483.39	421.30
483.57	376.83
483.74	428.32
483.92	390.87
484.10	332.36
484.28	428.32
484.46	435.34
484.64	430.66
484.82	477.47
485.00	397.89
485.18	416.62
485.35	393.21
485.53	386.19
485.71	376.83
485.89	402.57
486.07	414.27
486.25	461.09
486.43	409.59
486.61	433.00
486.78	440.02
486.96	374.49
487.14	344.06
487.32	423.64
487.50	430.66
487.68	425.98
487.85	430.66
488.03	369.80
488.21	451.72
488.39	381.51
488.57	374.49
488.75	400.23
488.92	463.43
489.10	367.46
489.28	400.23
489.46	360.44
489.64	423.64
489.81	421.30
489.99	428.32
490.17	421.30
490.35	430.66
490.53	428.32
490.70	437.68
490.88	383.85
491.06	458.74
491.24	437.68
491.41	423.64
491.59	454.06
491.77	397.89
491.95	358.10
492.13	503.22
492.30	414.27
492.48	447.04
492.66	496.19
492.84	376.83
493.01	470.45
493.19	411.93
493.37	468.11
493.54	468.11
493.72	365.12
493.90	447.04
494.08	362.78
494.25	390.87
494.43	374.49
494.61	393.21
494.79	379.17
494.96	337.04
495.14	430.66
495.32	465.77
495.49	388.53
495.67	496.19
495.85	365.12
496.02	358.10
496.20	505.56
496.38	479.81
496.55	393.21
496.73	411.93
496.91	482.15
497.09	425.98
497.26	381.51
497.44	465.77
497.62	353.42
497.79	306.61
497.97	395.55
498.14	400.23
498.32	433.00
498.50	472.79
498.67	301.93
498.85	365.12
499.03	433.00
499.20	404.91
499.38	428.32
499.56	435.34
499.73	421.30
499.91	418.96
500.08	421.30
500.26	409.59
500.44	358.10
500.61	379.17
500.79	395.55
500.97	465.77
501.14	374.49
501.32	416.62
501.49	390.87
501.67	411.93
501.84	421.30
502.02	440.02
502.20	428.32
502.37	465.77
502.55	358.10
502.72	386.19
502.90	430.66
503.07	416.62
503.25	437.68
503.43	374.49
503.60	374.49
503.78	386.19
503.95	433.00
504.13	430.66
504.30	418.96
504.48	402.57
504.65	468.11
504.83	454.06
505.01	400.23
505.18	470.45
505.36	442.36
505.53	411.93
505.71	435.34
505.88	381.51
506.06	397.89
506.23	397.89
506.41	388.53
506.58	360.44
506.76	430.66
506.93	390.87
507.11	454.06
507.28	433.00
507.46	360.44
507.63	400.23
507.81	458.74
507.98	461.09
508.16	397.89
508.33	435.34
508.50	430.66
508.68	423.64
508.85	472.79
509.03	435.34
509.20	449.38
509.38	440.02
509.55	383.85
509.73	430.66
509.90	414.27
510.08	407.25
510.25	489.17
510.42	400.23
510.60	388.53
510.77	482.15
510.95	479.81
511.12	491.51
511.30	421.30
511.47	440.02
511.64	386.19
511.82	400.23
511.99	479.81
512.17	423.64
512.34	423.64
512.51	397.89
512.69	409.59
512.86	461.09
513.04	411.93
513.21	388.53
513.38	351.08
513.56	395.55
513.73	447.04
513.90	404.91
514.08	484.49
514.25	433.00
514.43	423.64
514.60	348.74
514.77	421.30
514.95	353.42
515.12	409.59
515.29	444.70
515.47	458.74
515.64	477.47
515.81	397.89
515.99	404.91
516.16	451.72
516.33	444.70
516.51	425.98
516.68	381.51
516.85	407.25
517.03	400.23
517.20	393.21
517.37	444.70
517.54	444.70
517.72	358.10
517.89	447.04
518.06	400.23
518.24	425.98
518.41	519.60
518.58	393.21
518.75	386.19
518.93	416.62
519.10	418.96
519.27	461.09
519.45	393.21
519.62	524.28
519.79	442.36
519.96	337.04
520.14	425.98
520.31	404.91
520.48	430.66
520.65	449.38
520.83	430.66
521.00	430.66
521.17	400.23
521.34	409.59
521.52	444.70
521.69	421.30
521.86	451.72
522.03	444.70
522.20	365.12
522.38	407.25
522.55	458.74
522.72	355.76
522.89	421.30
523.07	367.46
523.24	355.76
523.41	383.85
523.58	421.30
523.75	423.64
523.92	397.89
524.10	374.49
524.27	374.49
524.44	454.06
524.61	456.40
524.78	472.79
524.96	472.79
525.13	388.53
525.30	484.49
525.47	477.47
525.64	341.72
525.81	400.23
525.98	376.83
526.16	393.21
526.33	411.93
526.50	418.96
526.67	381.51
526.84	421.30
527.01	407.25
527.18	411.93
527.36	428.32
527.53	402.57
527.70	454.06
527.87	514.92
528.04	411.93
528.21	402.57
528.38	484.49
528.55	512.58
528.72	458.74
528.89	500.87
529.07	491.51
529.24	372.15
529.41	433.00
529.58	362.78
529.75	423.64
529.92	418.96
530.09	404.91
530.26	468.11
530.43	449.38
530.60	482.15
530.77	376.83
530.94	425.98
531.11	477.47
531.28	376.83
531.46	369.80
531.63	447.04
531.80	435.34
531.97	383.85
532.14	433.00
532.31	400.23
532.48	411.93
532.65	411.93
532.82	416.62
532.99	421.30
533.16	372.15
533.33	418.96
533.50	463.43
533.67	468.11
533.84	367.46
534.01	447.04
534.18	409.59
534.35	395.55
534.52	381.51
534.69	409.59
534.86	372.15
535.03	402.57
535.20	407.25
535.37	428.32
535.54	418.96
535.71	374.49
535.88	397.89
536.05	430.66
536.22	451.72
536.38	463.43
536.55	440.02
536.72	407.25
536.89	362.78
537.06	388.53
537.23	442.36
537.40	397.89
537.57	411.93
537.74	484.49
537.91	444.70
538.08	430.66
538.25	428.32
538.42	404.91
538.59	437.68
538.75	477.47
538.92	374.49
539.09	337.04
539.26	388.53
539.43	444.70
539.60	435.34
539.77	510.24
539.94	461.09
540.11	409.59
540.28	362.78
540.44	386.19
540.61	428.32
540.78	461.09
540.95	433.00
541.12	437.68
541.29	367.46
541.46	433.00
541.62	393.21
541.79	423.64
541.96	381.51
542.13	376.83
542.30	390.87
542.47	440.02
542.63	414.27
542.80	390.87
542.97	395.55
543.14	360.44
543.31	390.87
543.48	430.66
543.64	388.53
543.81	428.32
543.98	376.83
544.15	367.46
544.32	411.93
544.48	500.87
544.65	395.55
544.82	322.99
544.99	390.87
545.16	393.21
545.32	519.60
545.49	435.34
545.66	397.89
545.83	425.98
546.00	414.27
546.16	428.32
546.33	449.38
546.50	400.23
546.67	423.64
546.83	451.72
547.00	437.68
547.17	414.27
547.34	451.72
547.50	344.06
547.67	360.44
547.84	430.66
548.00	479.81
548.17	449.38
548.34	407.25
548.51	463.43
548.67	411.93
548.84	411.93
549.01	451.72
549.18	369.80
549.34	393.21
549.51	376.83
549.68	428.32
549.84	423.64
550.01	404.91
550.18	538.32
550.34	404.91
550.51	430.66
550.68	451.72
550.84	461.09
551.01	388.53
551.18	404.91
551.34	376.83
551.51	369.80
551.68	468.11
551.84	500.87
552.01	367.46
552.18	407.25
552.34	374.49
552.51	444.70
552.68	440.02
552.84	435.34
553.01	447.04
553.18	444.70
553.34	379.17
553.51	442.36
553.67	440.02
553.84	456.40
554.01	454.06
554.17	390.87
554.34	425.98
554.51	421.30
554.67	433.00
554.84	416.62
555.00	414.27
555.17	447.04
555.33	461.09
555.50	334.70
555.67	437.68
555.83	472.79
556.00	468.11
556.16	550.03
556.33	463.43
556.50	397.89
556.66	388.53
556.83	397.89
556.99	411.93
557.16	402.57
557.32	397.89
557.49	447.04
557.65	425.98
557.82	418.96
557.98	493.85
558.15	379.17
558.32	482.15
558.48	386.19
558.65	425.98
558.81	418.96
558.98	376.83
559.14	395.55
559.31	390.87
559.47	442.36
559.64	383.85
559.80	479.81
559.97	425.98
560.13	404.91
560.30	479.81
560.46	463.43
560.63	409.59
560.79	433.00
560.96	416.62
561.12	444.70
561.29	388.53
561.45	430.66
561.61	435.34
561.78	475.13
561.94	372.15
562.11	407.25
562.27	425.98
562.44	369.80
562.60	423.64
562.77	404.91
562.93	489.17
563.10	414.27
563.26	365.12
563.42	369.80
563.59	379.17
563.75	395.55
563.92	435.34
564.08	454.06
564.24	383.85
564.41	470.45
564.57	379.17
564.74	416.62
564.90	409.59
565.07	433.00
565.23	451.72
565.39	414.27
565.56	425.98
565.72	428.32
565.88	456.40
566.05	407.25
566.21	395.55
566.38	428.32
566.54	416.62
566.70	440.02
566.87	421.30
567.03	449.38
567.19	451.72
567.36	470.45
567.52	383.85
567.68	421.30
567.85	395.55
568.01	360.44
568.17	409.59
568.34	411.93
568.50	418.96
568.66	360.44
568.83	433.00
568.99	414.27
569.15	416.62
569.32	397.89
569.48	428.32
569.64	440.02
569.81	454.06
569.97	463.43
570.13	491.51
570.30	346.40
570.46	351.08
570.62	365.12
570.78	475.13
570.95	430.66
571.11	407.25
571.27	447.04
571.43	355.76
571.60	414.27
571.76	416.62
571.92	388.53
572.09	400.23
572.25	334.70
572.41	365.12
572.57	360.44
572.74	475.13
572.90	447.04
573.06	404.91
573.22	395.55
573.38	397.89
573.55	458.74
573.71	482.15
573.87	456.40
574.03	393.21
574.20	433.00
574.36	472.79
574.52	393.21
574.68	383.85
574.84	444.70
575.01	365.12
575.17	395.55
575.33	442.36
575.49	386.19
575.65	507.90
575.82	454.06
575.98	472.79
576.14	325.33
576.30	433.00
576.46	461.09
576.62	421.30
576.79	425.98
576.95	475.13
577.11	444.70
577.27	395.55
577.43	465.77
577.59	360.44
577.75	409.59
577.92	418.96
578.08	507.90
578.24	386.19
578.40	444.70
578.56	475.13
578.72	425.98
578.88	435.34
579.04	418.96
579.21	402.57
579.37	418.96
579.53	409.59
579.69	421.30
579.85	376.83
580.01	400.23
580.17	423.64
580.33	390.87
580.49	416.62
580.65	454.06
580.82	416.62
580.98	409.59
581.14	456.40
581.30	482.15
581.46	456.40
581.62	479.81
581.78	351.08
581.94	376.83
582.10	425.98
582.26	437.68
582.42	379.17
582.58	437.68
582.74	489.17
582.90	369.80
583.06	386.19
583.22	383.85
583.38	365.12
583.54	379.17
583.70	472.79
583.86	461.09
584.02	379.17
584.18	397.89
584.34	409.59
584.50	430.66
584.66	402.57
584.82	381.51
584.98	454.06
585.14	449.38
585.30	484.49
585.46	400.23
585.62	447.04
585.78	418.96
585.94	449.38
586.10	416.62
586.26	411.93
586.42	470.45
586.58	414.27
586.74	477.47
586.90	386.19
587.06	423.64
587.22	393.21
587.38	376.83
587.54	400.23
587.70	367.46
587.86	493.85
588.02	386.19
588.18	414.27
588.34	414.27
588.49	360.44
588.65	395.55
588.81	430.66
588.97	376.83
589.13	425.98
589.29	393.21
589.45	449.38
589.61	428.32
589.77	435.34
589.93	461.09
590.08	404.91
590.24	358.10
590.40	442.36
590.56	444.70
590.72	411.93
590.88	390.87
591.04	402.57
591.20	484.49
591.35	414.27
591.51	383.85
591.67	322.99
591.83	369.80
591.99	315.97
592.15	470.45
592.31	372.15
592.46	386.19
592.62	440.02
592.78	442.36
592.94	425.98
593.10	397.89
593.26	421.30
593.41	428.32
593.57	472.79
593.73	430.66
593.89	433.00
594.05	421.30
594.20	393.21
594.36	381.51
594.52	369.80
594.68	353.42
594.84	404.91
594.99	498.53
595.15	400.23
595.31	433.00
595.47	400.23
595.62	430.66
595.78	369.80
595.94	440.02
596.10	388.53
596.25	409.59
596.41	433.00
596.57	484.49
596.73	437.68
596.88	458.74
597.04	374.49
597.20	388.53
597.36	404.91
597.51	381.51
597.67	397.89
597.83	393.21
597.99	449.38
598.14	365.12
598.30	491.51
598.46	411.93
598.61	451.72
598.77	386.19
598.93	379.17
599.09	423.64
599.24	428.32
599.40	374.49
599.56	379.17
599.71	458.74
599.87	407.25
600.03	390.87
600.18	407.25
600.34	503.22
600.50	433.00
600.65	442.36
600.81	402.57
600.97	383.85
601.12	409.59
601.28	369.80
601.44	369.80
601.59	341.72
601.75	400.23
601.91	402.57
602.06	425.98
602.22	484.49
602.37	454.06
602.53	421.30
602.69	458.74
602.84	463.43
603.00	447.04
603.16	454.06
603.31	409.59
603.47	463.43
603.62	468.11
603.78	395.55
603.94	414.27
604.09	451.72
604.25	425.98
604.40	409.59
604.56	435.34
604.71	369.80
604.87	390.87
605.03	409.59
605.18	414.27
605.34	421.30
605.49	414.27
605.65	477.47
605.80	400.23
605.96	409.59
606.12	383.85
606.27	444.70
606.43	425.98
606.58	418.96
606.74	430.66
606.89	407.25
607.05	442.36
607.20	414.27
607.36	461.09
607.51	397.89
607.67	470.45
607.82	521.94
607.98	482.15
608.13	442.36
608.29	386.19
608.44	409.59
608.60	461.09
608.75	428.32
608.91	437.68
609.06	489.17
609.22	414.27
609.37	442.36
609.53	416.62
609.68	430.66
609.84	411.93
609.99	442.36
610.15	468.11
