SpectraSuite Data File
++++++++++++++++++++++++++++++++++++
Date: Fri Oct 25 12:11:21 EDT 2013
User: price-jones
Dark Spectrum Present: No
Reference Spectrum Present: No
Number of Sampled Component Spectra: 1
Spectrometers: USB2+H05261
Integration Time (usec): 100000 (USB2+H05261)
Spectra Averaged: 1 (USB2+H05261)
Boxcar Smoothing: 0 (USB2+H05261)
Correct for Electrical Dark: No (USB2+H05261)
Strobe/Lamp Enabled: No (USB2+H05261)
Correct for Detector Non-linearity: No (USB2+H05261)
Correct for Stray Light: No (USB2+H05261)
Number of Pixels in Processed Spectrum: 2048
>>>>>Begin Processed Spectral Data<<<<<
365.73	271.50
365.92	271.50
366.12	271.50
366.32	259.80
366.52	191.92
366.72	255.12
366.91	245.76
367.11	252.78
367.31	250.44
367.51	250.44
367.70	280.86
367.90	287.89
368.10	252.78
368.30	231.71
368.49	271.50
368.69	215.33
368.89	259.80
369.09	292.57
369.28	315.97
369.48	280.86
369.68	220.01
369.87	308.95
370.07	365.12
370.27	346.40
370.47	390.87
370.66	365.12
370.86	365.12
371.06	374.49
371.25	322.99
371.45	362.78
371.65	374.49
371.84	365.12
372.04	386.19
372.24	381.51
372.44	372.15
372.63	379.17
372.83	402.57
373.03	444.70
373.22	351.08
373.42	468.11
373.62	409.59
373.81	437.68
374.01	386.19
374.21	458.74
374.40	355.76
374.60	433.00
374.79	374.49
374.99	416.62
375.19	369.80
375.38	463.43
375.58	447.04
375.78	458.74
375.97	468.11
376.17	465.77
376.37	386.19
376.56	397.89
376.76	451.72
376.95	437.68
377.15	411.93
377.35	418.96
377.54	461.09
377.74	360.44
377.93	444.70
378.13	369.80
378.33	498.53
378.52	447.04
378.72	465.77
378.91	409.59
379.11	332.36
379.31	381.51
379.50	440.02
379.70	416.62
379.89	416.62
380.09	435.34
380.28	425.98
380.48	397.89
380.68	397.89
380.87	440.02
381.07	402.57
381.26	416.62
381.46	332.36
381.65	409.59
381.85	381.51
382.04	393.21
382.24	381.51
382.43	369.80
382.63	395.55
382.83	383.85
383.02	409.59
383.22	425.98
383.41	383.85
383.61	470.45
383.80	409.59
384.00	451.72
384.19	372.15
384.39	374.49
384.58	404.91
384.78	404.91
384.97	414.27
385.17	430.66
385.36	383.85
385.56	442.36
385.75	402.57
385.95	440.02
386.14	414.27
386.34	381.51
386.53	430.66
386.72	376.83
386.92	493.85
387.11	430.66
387.31	472.79
387.50	428.32
387.70	337.04
387.89	395.55
388.09	339.38
388.28	447.04
388.48	379.17
388.67	416.62
388.86	423.64
389.06	381.51
389.25	430.66
389.45	484.49
389.64	418.96
389.84	416.62
390.03	402.57
390.22	409.59
390.42	397.89
390.61	400.23
390.81	425.98
391.00	423.64
391.19	454.06
391.39	365.12
391.58	355.76
391.78	348.74
391.97	451.72
392.16	416.62
392.36	397.89
392.55	423.64
392.75	423.64
392.94	461.09
393.13	437.68
393.33	341.72
393.52	358.10
393.71	400.23
393.91	433.00
394.10	346.40
394.29	411.93
394.49	327.68
394.68	451.72
394.88	489.17
395.07	489.17
395.26	395.55
395.46	376.83
395.65	486.83
395.84	437.68
396.04	479.81
396.23	491.51
396.42	416.62
396.62	514.92
396.81	442.36
397.00	421.30
397.19	376.83
397.39	386.19
397.58	390.87
397.77	379.17
397.97	425.98
398.16	397.89
398.35	430.66
398.55	442.36
398.74	402.57
398.93	437.68
399.12	437.68
399.32	416.62
399.51	334.70
399.70	388.53
399.90	365.12
400.09	458.74
400.28	435.34
400.47	388.53
400.67	404.91
400.86	440.02
401.05	421.30
401.24	425.98
401.44	411.93
401.63	430.66
401.82	447.04
402.01	372.15
402.21	447.04
402.40	388.53
402.59	428.32
402.78	404.91
402.97	437.68
403.17	404.91
403.36	400.23
403.55	440.02
403.74	367.46
403.93	376.83
404.13	407.25
404.32	468.11
404.51	362.78
404.70	428.32
404.89	381.51
405.09	435.34
405.28	430.66
405.47	416.62
405.66	433.00
405.85	397.89
406.05	374.49
406.24	425.98
406.43	433.00
406.62	447.04
406.81	454.06
407.00	435.34
407.20	388.53
407.39	416.62
407.58	423.64
407.77	360.44
407.96	442.36
408.15	430.66
408.34	411.93
408.54	388.53
408.73	447.04
408.92	425.98
409.11	491.51
409.30	456.40
409.49	397.89
409.68	482.15
409.87	344.06
410.07	386.19
410.26	400.23
410.45	322.99
410.64	351.08
410.83	400.23
411.02	348.74
411.21	397.89
411.40	423.64
411.59	461.09
411.78	353.42
411.98	374.49
412.17	430.66
412.36	423.64
412.55	386.19
412.74	491.51
412.93	423.64
413.12	404.91
413.31	397.89
413.50	381.51
413.69	402.57
413.88	425.98
414.07	379.17
414.26	404.91
414.45	388.53
414.64	386.19
414.83	374.49
415.02	395.55
415.22	496.19
415.41	440.02
415.60	414.27
415.79	379.17
415.98	430.66
416.17	388.53
416.36	411.93
416.55	388.53
416.74	381.51
416.93	404.91
417.12	416.62
417.31	383.85
417.50	381.51
417.69	400.23
417.88	376.83
418.07	390.87
418.26	369.80
418.45	482.15
418.64	374.49
418.83	503.22
419.02	430.66
419.21	367.46
419.39	395.55
419.58	374.49
419.77	369.80
419.96	444.70
420.15	390.87
420.34	428.32
420.53	447.04
420.72	423.64
420.91	449.38
421.10	451.72
421.29	409.59
421.48	454.06
421.67	440.02
421.86	440.02
422.05	507.90
422.24	435.34
422.43	425.98
422.61	327.68
422.80	463.43
422.99	472.79
423.18	395.55
423.37	498.53
423.56	409.59
423.75	402.57
423.94	353.42
424.13	430.66
424.32	365.12
424.50	416.62
424.69	449.38
424.88	416.62
425.07	411.93
425.26	376.83
425.45	423.64
425.64	381.51
425.83	376.83
426.01	402.57
426.20	449.38
426.39	421.30
426.58	397.89
426.77	374.49
426.96	444.70
427.15	484.49
427.33	390.87
427.52	484.49
427.71	435.34
427.90	428.32
428.09	418.96
428.28	351.08
428.46	374.49
428.65	376.83
428.84	470.45
429.03	435.34
429.22	421.30
429.40	397.89
429.59	379.17
429.78	418.96
429.97	425.98
430.16	390.87
430.34	423.64
430.53	386.19
430.72	381.51
430.91	369.80
431.10	388.53
431.28	418.96
431.47	414.27
431.66	404.91
431.85	430.66
432.03	451.72
432.22	468.11
432.41	444.70
432.60	440.02
432.79	444.70
432.97	390.87
433.16	428.32
433.35	383.85
433.54	414.27
433.72	433.00
433.91	423.64
434.10	386.19
434.28	390.87
434.47	409.59
434.66	402.57
434.85	372.15
435.03	393.21
435.22	379.17
435.41	472.79
435.59	418.96
435.78	341.72
435.97	430.66
436.16	461.09
436.34	461.09
436.53	404.91
436.72	425.98
436.90	484.49
437.09	514.92
437.28	416.62
437.46	421.30
437.65	468.11
437.84	444.70
438.02	442.36
438.21	430.66
438.40	440.02
438.58	393.21
438.77	428.32
438.96	390.87
439.14	334.70
439.33	402.57
439.52	386.19
439.70	407.25
439.89	437.68
440.08	414.27
440.26	440.02
440.45	383.85
440.63	442.36
440.82	414.27
441.01	397.89
441.19	411.93
441.38	395.55
441.57	458.74
441.75	447.04
441.94	395.55
442.12	416.62
442.31	381.51
442.50	397.89
442.68	442.36
442.87	381.51
443.05	463.43
443.24	491.51
443.43	454.06
443.61	381.51
443.80	400.23
443.98	355.76
444.17	339.38
444.35	454.06
444.54	416.62
444.73	442.36
444.91	402.57
445.10	465.77
445.28	425.98
445.47	367.46
445.65	500.87
445.84	428.32
446.02	472.79
446.21	390.87
446.39	372.15
446.58	414.27
446.77	374.49
446.95	372.15
447.14	383.85
447.32	458.74
447.51	400.23
447.69	451.72
447.88	395.55
448.06	437.68
448.25	414.27
448.43	402.57
448.62	379.17
448.80	411.93
448.99	369.80
449.17	390.87
449.36	344.06
449.54	372.15
449.73	451.72
449.91	379.17
450.10	407.25
450.28	475.13
450.46	433.00
450.65	447.04
450.83	425.98
451.02	341.72
451.20	437.68
451.39	346.40
451.57	397.89
451.76	433.00
451.94	454.06
452.13	440.02
452.31	416.62
452.49	397.89
452.68	423.64
452.86	367.46
453.05	491.51
453.23	372.15
453.42	407.25
453.60	442.36
453.78	435.34
453.97	411.93
454.15	456.40
454.34	430.66
454.52	388.53
454.70	461.09
454.89	400.23
455.07	440.02
455.26	440.02
455.44	425.98
455.62	440.02
455.81	528.96
455.99	433.00
456.17	437.68
456.36	388.53
456.54	440.02
456.73	440.02
456.91	404.91
457.09	348.74
457.28	470.45
457.46	425.98
457.64	369.80
457.83	397.89
458.01	362.78
458.19	390.87
458.38	458.74
458.56	486.83
458.74	360.44
458.93	444.70
459.11	451.72
459.29	470.45
459.48	395.55
459.66	407.25
459.84	437.68
460.03	575.77
460.21	397.89
460.39	423.64
460.57	477.47
460.76	423.64
460.94	428.32
461.12	437.68
461.31	416.62
461.49	418.96
461.67	440.02
461.85	463.43
462.04	397.89
462.22	770.04
462.40	442.36
462.59	510.24
462.77	402.57
462.95	339.38
463.13	402.57
463.32	372.15
463.50	395.55
463.68	479.81
463.86	468.11
464.05	449.38
464.23	456.40
464.41	482.15
464.59	393.21
464.78	416.62
464.96	351.08
465.14	433.00
465.32	383.85
465.50	456.40
465.69	435.34
465.87	379.17
466.05	456.40
466.23	409.59
466.41	369.80
466.60	395.55
466.78	353.42
466.96	442.36
467.14	465.77
467.32	491.51
467.51	435.34
467.69	449.38
467.87	456.40
468.05	388.53
468.23	404.91
468.41	404.91
468.60	404.91
468.78	444.70
468.96	486.83
469.14	400.23
469.32	430.66
469.50	395.55
469.69	507.90
469.87	425.98
470.05	360.44
470.23	416.62
470.41	404.91
470.59	475.13
470.77	454.06
470.95	447.04
471.14	470.45
471.32	418.96
471.50	397.89
471.68	402.57
471.86	395.55
472.04	386.19
472.22	444.70
472.40	379.17
472.58	409.59
472.77	369.80
472.95	447.04
473.13	456.40
473.31	461.09
473.49	454.06
473.67	458.74
473.85	411.93
474.03	454.06
474.21	395.55
474.39	486.83
474.57	449.38
474.75	447.04
474.93	376.83
475.12	395.55
475.30	386.19
475.48	489.17
475.66	421.30
475.84	430.66
476.02	421.30
476.20	379.17
476.38	454.06
476.56	379.17
476.74	397.89
476.92	409.59
477.10	435.34
477.28	435.34
477.46	409.59
477.64	372.15
477.82	484.49
478.00	395.55
478.18	444.70
478.36	383.85
478.54	400.23
478.72	374.49
478.90	365.12
479.08	407.25
479.26	388.53
479.44	334.70
479.62	395.55
479.80	437.68
479.98	402.57
480.16	435.34
480.34	496.19
480.52	456.40
480.70	397.89
480.88	381.51
481.06	430.66
481.24	351.08
481.41	437.68
481.59	374.49
481.77	402.57
481.95	388.53
482.13	430.66
482.31	362.78
482.49	402.57
482.67	400.23
482.85	463.43
483.03	430.66
483.21	479.81
483.39	435.34
483.57	367.46
483.74	461.09
483.92	362.78
484.10	402.57
484.28	428.32
484.46	393.21
484.64	437.68
484.82	400.23
485.00	442.36
485.18	437.68
485.35	404.91
485.53	425.98
485.71	425.98
485.89	437.68
486.07	386.19
486.25	465.77
486.43	491.51
486.61	449.38
486.78	421.30
486.96	428.32
487.14	433.00
487.32	451.72
487.50	348.74
487.68	416.62
487.85	386.19
488.03	468.11
488.21	458.74
488.39	355.76
488.57	425.98
488.75	397.89
488.92	482.15
489.10	430.66
489.28	451.72
489.46	379.17
489.64	418.96
489.81	365.12
489.99	376.83
490.17	376.83
490.35	423.64
490.53	437.68
490.70	386.19
490.88	390.87
491.06	318.31
491.24	437.68
491.41	512.58
491.59	388.53
491.77	444.70
491.95	376.83
492.13	409.59
492.30	440.02
492.48	362.78
492.66	372.15
492.84	402.57
493.01	414.27
493.19	423.64
493.37	489.17
493.54	440.02
493.72	435.34
493.90	407.25
494.08	400.23
494.25	395.55
494.43	337.04
494.61	414.27
494.79	388.53
494.96	430.66
495.14	414.27
495.32	404.91
495.49	484.49
495.67	416.62
495.85	423.64
496.02	416.62
496.20	433.00
496.38	447.04
496.55	437.68
496.73	423.64
496.91	393.21
497.09	433.00
497.26	379.17
497.44	470.45
497.62	374.49
497.79	430.66
497.97	376.83
498.14	409.59
498.32	444.70
498.50	440.02
498.67	362.78
498.85	449.38
499.03	374.49
499.20	458.74
499.38	430.66
499.56	514.92
499.73	449.38
499.91	486.83
500.08	444.70
500.26	421.30
500.44	414.27
500.61	411.93
500.79	407.25
500.97	407.25
501.14	479.81
501.32	416.62
501.49	540.66
501.67	369.80
501.84	379.17
502.02	341.72
502.20	411.93
502.37	397.89
502.55	376.83
502.72	402.57
502.90	411.93
503.07	430.66
503.25	374.49
503.43	411.93
503.60	404.91
503.78	456.40
503.95	461.09
504.13	353.42
504.30	433.00
504.48	423.64
504.65	386.19
504.83	433.00
505.01	411.93
505.18	397.89
505.36	418.96
505.53	411.93
505.71	430.66
505.88	409.59
506.06	376.83
506.23	416.62
506.41	468.11
506.58	404.91
506.76	425.98
506.93	393.21
507.11	442.36
507.28	430.66
507.46	393.21
507.63	421.30
507.81	449.38
507.98	486.83
508.16	379.17
508.33	503.22
508.50	442.36
508.68	416.62
508.85	423.64
509.03	418.96
509.20	423.64
509.38	428.32
509.55	414.27
509.73	430.66
509.90	372.15
510.08	433.00
510.25	362.78
510.42	327.68
510.60	440.02
510.77	435.34
510.95	444.70
511.12	393.21
511.30	463.43
511.47	341.72
511.64	435.34
511.82	404.91
511.99	433.00
512.17	400.23
512.34	393.21
512.51	421.30
512.69	383.85
512.86	402.57
513.04	421.30
513.21	430.66
513.38	489.17
513.56	341.72
513.73	388.53
513.90	402.57
514.08	411.93
514.25	414.27
514.43	416.62
514.60	454.06
514.77	484.49
514.95	404.91
515.12	440.02
515.29	414.27
515.47	451.72
515.64	430.66
515.81	365.12
515.99	400.23
516.16	421.30
516.33	447.04
516.51	418.96
516.68	442.36
516.85	386.19
517.03	447.04
517.20	449.38
517.37	369.80
517.54	409.59
517.72	409.59
517.89	400.23
518.06	421.30
518.24	435.34
518.41	493.85
518.58	433.00
518.75	463.43
518.93	489.17
519.10	386.19
519.27	320.65
519.45	421.30
519.62	379.17
519.79	355.76
519.96	442.36
520.14	416.62
520.31	491.51
520.48	381.51
520.65	360.44
520.83	433.00
521.00	433.00
521.17	442.36
521.34	423.64
521.52	444.70
521.69	449.38
521.86	383.85
522.03	409.59
522.20	451.72
522.38	409.59
522.55	447.04
522.72	411.93
522.89	425.98
523.07	416.62
523.24	435.34
523.41	407.25
523.58	482.15
523.75	458.74
523.92	430.66
524.10	442.36
524.27	442.36
524.44	372.15
524.61	397.89
524.78	348.74
524.96	374.49
525.13	465.77
525.30	337.04
525.47	444.70
525.64	315.97
525.81	435.34
525.98	425.98
526.16	442.36
526.33	390.87
526.50	456.40
526.67	433.00
526.84	374.49
527.01	416.62
527.18	395.55
527.36	390.87
527.53	383.85
527.70	465.77
527.87	395.55
528.04	423.64
528.21	430.66
528.38	404.91
528.55	435.34
528.72	456.40
528.89	477.47
529.07	444.70
529.24	400.23
529.41	461.09
529.58	458.74
529.75	425.98
529.92	486.83
530.09	475.13
530.26	395.55
530.43	383.85
530.60	444.70
530.77	397.89
530.94	458.74
531.11	421.30
531.28	367.46
531.46	348.74
531.63	444.70
531.80	346.40
531.97	390.87
532.14	433.00
532.31	442.36
532.48	421.30
532.65	461.09
532.82	454.06
532.99	372.15
533.16	418.96
533.33	421.30
533.50	409.59
533.67	409.59
533.84	411.93
534.01	379.17
534.18	411.93
534.35	402.57
534.52	428.32
534.69	514.92
534.86	416.62
535.03	409.59
535.20	475.13
535.37	435.34
535.54	454.06
535.71	400.23
535.88	395.55
536.05	411.93
536.22	390.87
536.38	425.98
536.55	437.68
536.72	421.30
536.89	386.19
537.06	411.93
537.23	444.70
537.40	449.38
537.57	442.36
537.74	449.38
537.91	442.36
538.08	367.46
538.25	470.45
538.42	395.55
538.59	423.64
538.75	358.10
538.92	498.53
539.09	402.57
539.26	451.72
539.43	397.89
539.60	386.19
539.77	379.17
539.94	362.78
540.11	423.64
540.28	418.96
540.44	416.62
540.61	493.85
540.78	418.96
540.95	461.09
541.12	496.19
541.29	470.45
541.46	395.55
541.62	449.38
541.79	411.93
541.96	400.23
542.13	430.66
542.30	416.62
542.47	351.08
542.63	414.27
542.80	449.38
542.97	411.93
543.14	407.25
543.31	425.98
543.48	442.36
543.64	411.93
543.81	442.36
543.98	447.04
544.15	411.93
544.32	414.27
544.48	449.38
544.65	461.09
544.82	411.93
544.99	435.34
545.16	454.06
545.32	393.21
545.49	402.57
545.66	437.68
545.83	433.00
546.00	472.79
546.16	470.45
546.33	444.70
546.50	414.27
546.67	458.74
546.83	400.23
547.00	451.72
547.17	374.49
547.34	365.12
547.50	423.64
547.67	379.17
547.84	416.62
548.00	458.74
548.17	402.57
548.34	388.53
548.51	400.23
548.67	444.70
548.84	376.83
549.01	458.74
549.18	379.17
549.34	416.62
549.51	409.59
549.68	423.64
549.84	409.59
550.01	355.76
550.18	395.55
550.34	444.70
550.51	430.66
550.68	454.06
550.84	411.93
551.01	372.15
551.18	418.96
551.34	411.93
551.51	414.27
551.68	397.89
551.84	423.64
552.01	404.91
552.18	454.06
552.34	393.21
552.51	416.62
552.68	447.04
552.84	458.74
553.01	397.89
553.18	414.27
553.34	390.87
553.51	463.43
553.67	388.53
553.84	468.11
554.01	390.87
554.17	486.83
554.34	425.98
554.51	407.25
554.67	404.91
554.84	414.27
555.00	367.46
555.17	395.55
555.33	475.13
555.50	400.23
555.67	395.55
555.83	381.51
556.00	374.49
556.16	582.79
556.33	465.77
556.50	416.62
556.66	440.02
556.83	353.42
556.99	367.46
557.16	442.36
557.32	451.72
557.49	440.02
557.65	400.23
557.82	416.62
557.98	435.34
558.15	351.08
558.32	433.00
558.48	386.19
558.65	330.02
558.81	423.64
558.98	397.89
559.14	383.85
559.31	313.63
559.47	428.32
559.64	369.80
559.80	322.99
559.97	444.70
560.13	435.34
560.30	400.23
560.46	379.17
560.63	416.62
560.79	409.59
560.96	407.25
561.12	353.42
561.29	423.64
561.45	404.91
561.61	346.40
561.78	496.19
561.94	407.25
562.11	461.09
562.27	461.09
562.44	489.17
562.60	486.83
562.77	475.13
562.93	468.11
563.10	379.17
563.26	444.70
563.42	351.08
563.59	372.15
563.75	416.62
563.92	395.55
564.08	463.43
564.24	425.98
564.41	447.04
564.57	435.34
564.74	376.83
564.90	465.77
565.07	418.96
565.23	404.91
565.39	390.87
565.56	390.87
565.72	393.21
565.88	397.89
566.05	411.93
566.21	313.63
566.38	433.00
566.54	372.15
566.70	430.66
566.87	456.40
567.03	397.89
567.19	362.78
567.36	418.96
567.52	411.93
567.68	402.57
567.85	470.45
568.01	421.30
568.17	440.02
568.34	440.02
568.50	440.02
568.66	383.85
568.83	465.77
568.99	390.87
569.15	449.38
569.32	433.00
569.48	395.55
569.64	400.23
569.81	428.32
569.97	348.74
570.13	435.34
570.30	344.06
570.46	367.46
570.62	397.89
570.78	400.23
570.95	418.96
571.11	465.77
571.27	461.09
571.43	348.74
571.60	463.43
571.76	409.59
571.92	379.17
572.09	437.68
572.25	379.17
572.41	442.36
572.57	381.51
572.74	414.27
572.90	367.46
573.06	404.91
573.22	418.96
573.38	500.87
573.55	344.06
573.71	430.66
573.87	440.02
574.03	416.62
574.20	437.68
574.36	442.36
574.52	451.72
574.68	437.68
574.84	433.00
575.01	423.64
575.17	503.22
575.33	383.85
575.49	444.70
575.65	435.34
575.82	430.66
575.98	414.27
576.14	447.04
576.30	435.34
576.46	470.45
576.62	472.79
576.79	379.17
576.95	454.06
577.11	414.27
577.27	463.43
577.43	372.15
577.59	369.80
577.75	437.68
577.92	358.10
578.08	402.57
578.24	433.00
578.40	442.36
578.56	477.47
578.72	470.45
578.88	362.78
579.04	435.34
579.21	362.78
579.37	437.68
579.53	367.46
579.69	454.06
579.85	409.59
580.01	458.74
580.17	433.00
580.33	402.57
580.49	400.23
580.65	433.00
580.82	388.53
580.98	414.27
581.14	360.44
581.30	416.62
581.46	393.21
581.62	421.30
581.78	423.64
581.94	418.96
582.10	430.66
582.26	423.64
582.42	404.91
582.58	393.21
582.74	369.80
582.90	402.57
583.06	351.08
583.22	456.40
583.38	449.38
583.54	367.46
583.70	393.21
583.86	461.09
584.02	418.96
584.18	407.25
584.34	381.51
584.50	444.70
584.66	435.34
584.82	468.11
584.98	409.59
585.14	362.78
585.30	416.62
585.46	479.81
585.62	397.89
585.78	362.78
585.94	447.04
586.10	435.34
586.26	379.17
586.42	400.23
586.58	430.66
586.74	472.79
586.90	404.91
587.06	444.70
587.22	411.93
587.38	425.98
587.54	414.27
587.70	423.64
587.86	404.91
588.02	400.23
588.18	369.80
588.34	430.66
588.49	435.34
588.65	404.91
588.81	374.49
588.97	416.62
589.13	372.15
589.29	409.59
589.45	425.98
589.61	435.34
589.77	404.91
589.93	407.25
590.08	472.79
590.24	411.93
590.40	437.68
590.56	458.74
590.72	353.42
590.88	390.87
591.04	461.09
591.20	388.53
591.35	442.36
591.51	468.11
591.67	418.96
591.83	430.66
591.99	402.57
592.15	414.27
592.31	402.57
592.46	447.04
592.62	557.05
592.78	381.51
592.94	430.66
593.10	383.85
593.26	386.19
593.41	414.27
593.57	430.66
593.73	404.91
593.89	411.93
594.05	456.40
594.20	381.51
594.36	496.19
594.52	411.93
594.68	404.91
594.84	461.09
594.99	425.98
595.15	449.38
595.31	414.27
595.47	463.43
595.62	369.80
595.78	395.55
595.94	351.08
596.10	437.68
596.25	390.87
596.41	465.77
596.57	421.30
596.73	395.55
596.88	358.10
597.04	369.80
597.20	402.57
597.36	409.59
597.51	489.17
597.67	390.87
597.83	376.83
597.99	470.45
598.14	454.06
598.30	409.59
598.46	468.11
598.61	402.57
598.77	360.44
598.93	379.17
599.09	437.68
599.24	369.80
599.40	355.76
599.56	362.78
599.71	444.70
599.87	390.87
600.03	379.17
600.18	435.34
600.34	390.87
600.50	430.66
600.65	388.53
600.81	381.51
600.97	503.22
601.12	407.25
601.28	465.77
601.44	454.06
601.59	428.32
601.75	437.68
601.91	367.46
602.06	379.17
602.22	447.04
602.37	500.87
602.53	437.68
602.69	440.02
602.84	437.68
603.00	414.27
603.16	367.46
603.31	425.98
603.47	365.12
603.62	482.15
603.78	407.25
603.94	400.23
604.09	404.91
604.25	425.98
604.40	369.80
604.56	444.70
604.71	498.53
604.87	465.77
605.03	465.77
605.18	440.02
605.34	411.93
605.49	414.27
605.65	369.80
605.80	421.30
605.96	365.12
606.12	414.27
606.27	451.72
606.43	442.36
606.58	395.55
606.74	425.98
606.89	395.55
607.05	407.25
607.20	409.59
607.36	437.68
607.51	369.80
607.67	367.46
607.82	395.55
607.98	435.34
608.13	430.66
608.29	407.25
608.44	519.60
608.60	451.72
608.75	425.98
608.91	475.13
609.06	458.74
609.22	425.98
609.37	330.02
609.53	353.42
609.68	367.46
609.84	421.30
609.99	404.91
610.15	482.15
