SpectraSuite Data File
++++++++++++++++++++++++++++++++++++
Date: Fri Oct 25 12:10:41 EDT 2013
User: price-jones
Dark Spectrum Present: No
Reference Spectrum Present: No
Number of Sampled Component Spectra: 1
Spectrometers: USB2+H05261
Integration Time (usec): 100000 (USB2+H05261)
Spectra Averaged: 1 (USB2+H05261)
Boxcar Smoothing: 0 (USB2+H05261)
Correct for Electrical Dark: No (USB2+H05261)
Strobe/Lamp Enabled: No (USB2+H05261)
Correct for Detector Non-linearity: No (USB2+H05261)
Correct for Stray Light: No (USB2+H05261)
Number of Pixels in Processed Spectrum: 2048
>>>>>Begin Processed Spectral Data<<<<<
365.73	327.68
365.92	327.68
366.12	327.68
366.32	224.69
366.52	238.73
366.72	259.80
366.91	290.23
367.11	257.46
367.31	191.92
367.51	250.44
367.70	271.50
367.90	259.80
368.10	241.08
368.30	224.69
368.49	234.05
368.69	334.70
368.89	215.33
369.09	222.35
369.28	280.86
369.48	234.05
369.68	334.70
369.87	318.31
370.07	283.20
370.27	353.42
370.47	346.40
370.66	299.59
370.86	306.61
371.06	353.42
371.25	383.85
371.45	397.89
371.65	423.64
371.84	365.12
372.04	374.49
372.24	365.12
372.44	355.76
372.63	402.57
372.83	423.64
373.03	346.40
373.22	418.96
373.42	355.76
373.62	458.74
373.81	374.49
374.01	425.98
374.21	400.23
374.40	411.93
374.60	465.77
374.79	559.39
374.99	440.02
375.19	421.30
375.38	477.47
375.58	346.40
375.78	404.91
375.97	407.25
376.17	470.45
376.37	383.85
376.56	463.43
376.76	437.68
376.95	456.40
377.15	484.49
377.35	414.27
377.54	390.87
377.74	472.79
377.93	451.72
378.13	433.00
378.33	430.66
378.52	442.36
378.72	475.13
378.91	456.40
379.11	444.70
379.31	372.15
379.50	458.74
379.70	470.45
379.89	423.64
380.09	369.80
380.28	428.32
380.48	393.21
380.68	416.62
380.87	456.40
381.07	425.98
381.26	411.93
381.46	454.06
381.65	421.30
381.85	416.62
382.04	463.43
382.24	463.43
382.43	395.55
382.63	451.72
382.83	339.38
383.02	418.96
383.22	442.36
383.41	402.57
383.61	461.09
383.80	423.64
384.00	376.83
384.19	372.15
384.39	425.98
384.58	449.38
384.78	374.49
384.97	367.46
385.17	369.80
385.36	449.38
385.56	461.09
385.75	421.30
385.95	430.66
386.14	425.98
386.34	423.64
386.53	390.87
386.72	358.10
386.92	449.38
387.11	416.62
387.31	393.21
387.50	428.32
387.70	388.53
387.89	421.30
388.09	428.32
388.28	461.09
388.48	332.36
388.67	383.85
388.86	418.96
389.06	404.91
389.25	430.66
389.45	397.89
389.64	407.25
389.84	383.85
390.03	393.21
390.22	383.85
390.42	346.40
390.61	367.46
390.81	386.19
391.00	430.66
391.19	409.59
391.39	456.40
391.58	397.89
391.78	393.21
391.97	388.53
392.16	447.04
392.36	409.59
392.55	414.27
392.75	388.53
392.94	376.83
393.13	449.38
393.33	362.78
393.52	341.72
393.71	418.96
393.91	383.85
394.10	372.15
394.29	409.59
394.49	449.38
394.68	355.76
394.88	407.25
395.07	395.55
395.26	423.64
395.46	397.89
395.65	458.74
395.84	437.68
396.04	404.91
396.23	374.49
396.42	454.06
396.62	435.34
396.81	479.81
397.00	367.46
397.19	414.27
397.39	498.53
397.58	372.15
397.77	390.87
397.97	388.53
398.16	397.89
398.35	407.25
398.55	351.08
398.74	444.70
398.93	402.57
399.12	390.87
399.32	449.38
399.51	411.93
399.70	374.49
399.90	503.22
400.09	404.91
400.28	409.59
400.47	437.68
400.67	425.98
400.86	388.53
401.05	442.36
401.24	407.25
401.44	365.12
401.63	409.59
401.82	397.89
402.01	433.00
402.21	421.30
402.40	400.23
402.59	421.30
402.78	353.42
402.97	428.32
403.17	369.80
403.36	409.59
403.55	442.36
403.74	416.62
403.93	482.15
404.13	468.11
404.32	386.19
404.51	400.23
404.70	393.21
404.89	379.17
405.09	407.25
405.28	393.21
405.47	325.33
405.66	362.78
405.85	416.62
406.05	320.65
406.24	322.99
406.43	430.66
406.62	416.62
406.81	475.13
407.00	433.00
407.20	470.45
407.39	435.34
407.58	416.62
407.77	414.27
407.96	402.57
408.15	449.38
408.34	411.93
408.54	372.15
408.73	440.02
408.92	423.64
409.11	468.11
409.30	477.47
409.49	374.49
409.68	306.61
409.87	365.12
410.07	472.79
410.26	360.44
410.45	390.87
410.64	346.40
410.83	327.68
411.02	404.91
411.21	418.96
411.40	407.25
411.59	351.08
411.78	418.96
411.98	449.38
412.17	383.85
412.36	404.91
412.55	346.40
412.74	383.85
412.93	402.57
413.12	372.15
413.31	435.34
413.50	433.00
413.69	421.30
413.88	383.85
414.07	407.25
414.26	433.00
414.45	379.17
414.64	456.40
414.83	365.12
415.02	407.25
415.22	383.85
415.41	369.80
415.60	351.08
415.79	430.66
415.98	414.27
416.17	395.55
416.36	451.72
416.55	390.87
416.74	496.19
416.93	456.40
417.12	397.89
417.31	435.34
417.50	346.40
417.69	470.45
417.88	425.98
418.07	418.96
418.26	353.42
418.45	435.34
418.64	400.23
418.83	341.72
419.02	468.11
419.21	463.43
419.39	416.62
419.58	411.93
419.77	344.06
419.96	348.74
420.15	369.80
420.34	381.51
420.53	461.09
420.72	409.59
420.91	381.51
421.10	337.04
421.29	449.38
421.48	461.09
421.67	554.71
421.86	503.22
422.05	379.17
422.24	386.19
422.43	383.85
422.61	358.10
422.80	458.74
422.99	414.27
423.18	386.19
423.37	416.62
423.56	433.00
423.75	397.89
423.94	402.57
424.13	433.00
424.32	395.55
424.50	435.34
424.69	421.30
424.88	510.24
425.07	414.27
425.26	442.36
425.45	428.32
425.64	430.66
425.83	433.00
426.01	402.57
426.20	442.36
426.39	416.62
426.58	449.38
426.77	454.06
426.96	416.62
427.15	416.62
427.33	465.77
427.52	386.19
427.71	418.96
427.90	367.46
428.09	388.53
428.28	362.78
428.46	421.30
428.65	456.40
428.84	372.15
429.03	449.38
429.22	423.64
429.40	383.85
429.59	409.59
429.78	465.77
429.97	425.98
430.16	430.66
430.34	423.64
430.53	428.32
430.72	486.83
430.91	395.55
431.10	390.87
431.28	475.13
431.47	388.53
431.66	341.72
431.85	444.70
432.03	379.17
432.22	470.45
432.41	449.38
432.60	400.23
432.79	402.57
432.97	390.87
433.16	425.98
433.35	407.25
433.54	444.70
433.72	397.89
433.91	503.22
434.10	402.57
434.28	416.62
434.47	456.40
434.66	435.34
434.85	402.57
435.03	409.59
435.22	442.36
435.41	428.32
435.59	383.85
435.78	365.12
435.97	421.30
436.16	409.59
436.34	365.12
436.53	404.91
436.72	400.23
436.90	423.64
437.09	374.49
437.28	383.85
437.46	433.00
437.65	421.30
437.84	433.00
438.02	428.32
438.21	451.72
438.40	425.98
438.58	381.51
438.77	456.40
438.96	456.40
439.14	379.17
439.33	414.27
439.52	407.25
439.70	407.25
439.89	433.00
440.08	388.53
440.26	388.53
440.45	491.51
440.63	388.53
440.82	433.00
441.01	440.02
441.19	456.40
441.38	435.34
441.57	421.30
441.75	411.93
441.94	465.77
442.12	397.89
442.31	397.89
442.50	421.30
442.68	390.87
442.87	428.32
443.05	369.80
443.24	388.53
443.43	386.19
443.61	407.25
443.80	468.11
443.98	395.55
444.17	348.74
444.35	397.89
444.54	400.23
444.73	416.62
444.91	440.02
445.10	416.62
445.28	395.55
445.47	496.19
445.65	411.93
445.84	306.61
446.02	425.98
446.21	414.27
446.39	425.98
446.58	454.06
446.77	379.17
446.95	397.89
447.14	414.27
447.32	444.70
447.51	390.87
447.69	423.64
447.88	402.57
448.06	491.51
448.25	376.83
448.43	440.02
448.62	425.98
448.80	365.12
448.99	425.98
449.17	411.93
449.36	414.27
449.54	493.85
449.73	393.21
449.91	421.30
450.10	360.44
450.28	430.66
450.46	500.87
450.65	416.62
450.83	425.98
451.02	381.51
451.20	442.36
451.39	447.04
451.57	428.32
451.76	423.64
451.94	369.80
452.13	400.23
452.31	367.46
452.49	383.85
452.68	402.57
452.86	430.66
453.05	435.34
453.23	430.66
453.42	374.49
453.60	409.59
453.78	388.53
453.97	404.91
454.15	393.21
454.34	393.21
454.52	386.19
454.70	404.91
454.89	505.56
455.07	465.77
455.26	435.34
455.44	395.55
455.62	358.10
455.81	470.45
455.99	430.66
456.17	458.74
456.36	383.85
456.54	512.58
456.73	360.44
456.91	358.10
457.09	395.55
457.28	472.79
457.46	351.08
457.64	393.21
457.83	376.83
458.01	376.83
458.19	423.64
458.38	442.36
458.56	423.64
458.74	404.91
458.93	397.89
459.11	376.83
459.29	435.34
459.48	435.34
459.66	444.70
459.84	416.62
460.03	444.70
460.21	407.25
460.39	425.98
460.57	430.66
460.76	386.19
460.94	374.49
461.12	395.55
461.31	374.49
461.49	435.34
461.67	346.40
461.85	454.06
462.04	440.02
462.22	774.72
462.40	458.74
462.59	454.06
462.77	395.55
462.95	358.10
463.13	369.80
463.32	433.00
463.50	407.25
463.68	416.62
463.86	386.19
464.05	418.96
464.23	437.68
464.41	414.27
464.59	365.12
464.78	416.62
464.96	367.46
465.14	379.17
465.32	381.51
465.50	402.57
465.69	395.55
465.87	372.15
466.05	330.02
466.23	400.23
466.41	433.00
466.60	381.51
466.78	313.63
466.96	369.80
467.14	386.19
467.32	407.25
467.51	414.27
467.69	435.34
467.87	386.19
468.05	409.59
468.23	449.38
468.41	411.93
468.60	451.72
468.78	465.77
468.96	388.53
469.14	458.74
469.32	456.40
469.50	393.21
469.69	444.70
469.87	374.49
470.05	395.55
470.23	421.30
470.41	337.04
470.59	348.74
470.77	395.55
470.95	372.15
471.14	386.19
471.32	379.17
471.50	449.38
471.68	425.98
471.86	400.23
472.04	505.56
472.22	418.96
472.40	395.55
472.58	437.68
472.77	425.98
472.95	447.04
473.13	411.93
473.31	479.81
473.49	369.80
473.67	322.99
473.85	393.21
474.03	400.23
474.21	376.83
474.39	512.58
474.57	428.32
474.75	409.59
474.93	402.57
475.12	372.15
475.30	372.15
475.48	442.36
475.66	409.59
475.84	376.83
476.02	383.85
476.20	374.49
476.38	367.46
476.56	475.13
476.74	470.45
476.92	402.57
477.10	437.68
477.28	477.47
477.46	390.87
477.64	442.36
477.82	433.00
478.00	411.93
478.18	425.98
478.36	449.38
478.54	435.34
478.72	407.25
478.90	407.25
479.08	433.00
479.26	388.53
479.44	451.72
479.62	416.62
479.80	416.62
479.98	348.74
480.16	393.21
480.34	425.98
480.52	365.12
480.70	437.68
480.88	425.98
481.06	404.91
481.24	482.15
481.41	400.23
481.59	348.74
481.77	407.25
481.95	379.17
482.13	425.98
482.31	435.34
482.49	393.21
482.67	367.46
482.85	367.46
483.03	409.59
483.21	428.32
483.39	416.62
483.57	433.00
483.74	430.66
483.92	475.13
484.10	390.87
484.28	404.91
484.46	507.90
484.64	407.25
484.82	369.80
485.00	442.36
485.18	444.70
485.35	421.30
485.53	449.38
485.71	407.25
485.89	400.23
486.07	475.13
486.25	489.17
486.43	456.40
486.61	407.25
486.78	456.40
486.96	430.66
487.14	383.85
487.32	372.15
487.50	386.19
487.68	372.15
487.85	435.34
488.03	348.74
488.21	468.11
488.39	444.70
488.57	409.59
488.75	341.72
488.92	475.13
489.10	447.04
489.28	470.45
489.46	421.30
489.64	390.87
489.81	400.23
489.99	447.04
490.17	437.68
490.35	465.77
490.53	428.32
490.70	449.38
490.88	416.62
491.06	428.32
491.24	463.43
491.41	451.72
491.59	365.12
491.77	468.11
491.95	379.17
492.13	362.78
492.30	433.00
492.48	390.87
492.66	411.93
492.84	383.85
493.01	440.02
493.19	472.79
493.37	440.02
493.54	456.40
493.72	531.30
493.90	425.98
494.08	428.32
494.25	369.80
494.43	411.93
494.61	440.02
494.79	355.76
494.96	425.98
495.14	402.57
495.32	416.62
495.49	442.36
495.67	402.57
495.85	407.25
496.02	358.10
496.20	369.80
496.38	430.66
496.55	358.10
496.73	437.68
496.91	301.93
497.09	458.74
497.26	470.45
497.44	409.59
497.62	358.10
497.79	444.70
497.97	421.30
498.14	404.91
498.32	416.62
498.50	440.02
498.67	444.70
498.85	397.89
499.03	407.25
499.20	381.51
499.38	393.21
499.56	388.53
499.73	496.19
499.91	425.98
500.08	362.78
500.26	383.85
500.44	414.27
500.61	393.21
500.79	451.72
500.97	397.89
501.14	475.13
501.32	435.34
501.49	402.57
501.67	418.96
501.84	482.15
502.02	339.38
502.20	437.68
502.37	437.68
502.55	407.25
502.72	451.72
502.90	409.59
503.07	472.79
503.25	395.55
503.43	386.19
503.60	376.83
503.78	372.15
503.95	411.93
504.13	388.53
504.30	381.51
504.48	409.59
504.65	470.45
504.83	503.22
505.01	465.77
505.18	472.79
505.36	395.55
505.53	442.36
505.71	351.08
505.88	374.49
506.06	409.59
506.23	386.19
506.41	442.36
506.58	430.66
506.76	404.91
506.93	418.96
507.11	477.47
507.28	379.17
507.46	430.66
507.63	395.55
507.81	346.40
507.98	374.49
508.16	461.09
508.33	372.15
508.50	409.59
508.68	458.74
508.85	355.76
509.03	388.53
509.20	376.83
509.38	400.23
509.55	395.55
509.73	533.64
509.90	355.76
510.08	456.40
510.25	433.00
510.42	428.32
510.60	430.66
510.77	379.17
510.95	451.72
511.12	433.00
511.30	407.25
511.47	465.77
511.64	461.09
511.82	365.12
511.99	404.91
512.17	421.30
512.34	404.91
512.51	383.85
512.69	416.62
512.86	425.98
513.04	341.72
513.21	456.40
513.38	472.79
513.56	404.91
513.73	437.68
513.90	386.19
514.08	376.83
514.25	437.68
514.43	423.64
514.60	383.85
514.77	449.38
514.95	437.68
515.12	372.15
515.29	440.02
515.47	430.66
515.64	414.27
515.81	461.09
515.99	449.38
516.16	418.96
516.33	416.62
516.51	486.83
516.68	468.11
516.85	486.83
517.03	414.27
517.20	430.66
517.37	395.55
517.54	458.74
517.72	461.09
517.89	400.23
518.06	390.87
518.24	475.13
518.41	449.38
518.58	411.93
518.75	402.57
518.93	418.96
519.10	369.80
519.27	376.83
519.45	367.46
519.62	355.76
519.79	411.93
519.96	484.49
520.14	393.21
520.31	437.68
520.48	442.36
520.65	463.43
520.83	416.62
521.00	386.19
521.17	447.04
521.34	365.12
521.52	465.77
521.69	440.02
521.86	433.00
522.03	477.47
522.20	409.59
522.38	454.06
522.55	418.96
522.72	402.57
522.89	437.68
523.07	524.28
523.24	484.49
523.41	386.19
523.58	425.98
523.75	430.66
523.92	425.98
524.10	425.98
524.27	437.68
524.44	461.09
524.61	418.96
524.78	423.64
524.96	416.62
525.13	442.36
525.30	465.77
525.47	425.98
525.64	428.32
525.81	491.51
525.98	404.91
526.16	379.17
526.33	433.00
526.50	414.27
526.67	330.02
526.84	414.27
527.01	416.62
527.18	393.21
527.36	416.62
527.53	475.13
527.70	433.00
527.87	428.32
528.04	463.43
528.21	421.30
528.38	376.83
528.55	402.57
528.72	479.81
528.89	484.49
529.07	472.79
529.24	423.64
529.41	454.06
529.58	388.53
529.75	404.91
529.92	430.66
530.09	379.17
530.26	435.34
530.43	442.36
530.60	505.56
530.77	454.06
530.94	388.53
531.11	435.34
531.28	393.21
531.46	315.97
531.63	442.36
531.80	447.04
531.97	465.77
532.14	393.21
532.31	498.53
532.48	482.15
532.65	402.57
532.82	376.83
532.99	423.64
533.16	395.55
533.33	505.56
533.50	395.55
533.67	390.87
533.84	411.93
534.01	358.10
534.18	416.62
534.35	433.00
534.52	367.46
534.69	430.66
534.86	423.64
535.03	383.85
535.20	404.91
535.37	388.53
535.54	435.34
535.71	404.91
535.88	463.43
536.05	381.51
536.22	386.19
536.38	388.53
536.55	496.19
536.72	411.93
536.89	334.70
537.06	435.34
537.23	442.36
537.40	367.46
537.57	402.57
537.74	514.92
537.91	465.77
538.08	468.11
538.25	395.55
538.42	458.74
538.59	437.68
538.75	463.43
538.92	451.72
539.09	479.81
539.26	414.27
539.43	404.91
539.60	416.62
539.77	416.62
539.94	458.74
540.11	397.89
540.28	437.68
540.44	425.98
540.61	430.66
540.78	461.09
540.95	397.89
541.12	470.45
541.29	425.98
541.46	428.32
541.62	402.57
541.79	451.72
541.96	430.66
542.13	341.72
542.30	414.27
542.47	433.00
542.63	479.81
542.80	465.77
542.97	444.70
543.14	451.72
543.31	409.59
543.48	479.81
543.64	475.13
543.81	463.43
543.98	395.55
544.15	482.15
544.32	468.11
544.48	468.11
544.65	433.00
544.82	390.87
544.99	472.79
545.16	451.72
545.32	367.46
545.49	442.36
545.66	482.15
545.83	360.44
546.00	362.78
546.16	358.10
546.33	433.00
546.50	402.57
546.67	430.66
546.83	465.77
547.00	421.30
547.17	376.83
547.34	381.51
547.50	402.57
547.67	435.34
547.84	344.06
548.00	433.00
548.17	414.27
548.34	444.70
548.51	486.83
548.67	414.27
548.84	372.15
549.01	435.34
549.18	442.36
549.34	383.85
549.51	430.66
549.68	386.19
549.84	454.06
550.01	442.36
550.18	470.45
550.34	463.43
550.51	440.02
550.68	458.74
550.84	365.12
551.01	416.62
551.18	409.59
551.34	404.91
551.51	435.34
551.68	325.33
551.84	454.06
552.01	428.32
552.18	421.30
552.34	395.55
552.51	418.96
552.68	367.46
552.84	465.77
553.01	423.64
553.18	388.53
553.34	421.30
553.51	423.64
553.67	416.62
553.84	468.11
554.01	456.40
554.17	360.44
554.34	428.32
554.51	430.66
554.67	461.09
554.84	407.25
555.00	386.19
555.17	423.64
555.33	477.47
555.50	421.30
555.67	421.30
555.83	479.81
556.00	433.00
556.16	503.22
556.33	458.74
556.50	404.91
556.66	416.62
556.83	402.57
556.99	444.70
557.16	451.72
557.32	330.02
557.49	503.22
557.65	477.47
557.82	397.89
557.98	414.27
558.15	409.59
558.32	437.68
558.48	395.55
558.65	414.27
558.81	447.04
558.98	440.02
559.14	479.81
559.31	489.17
559.47	388.53
559.64	435.34
559.80	355.76
559.97	456.40
560.13	449.38
560.30	400.23
560.46	379.17
560.63	451.72
560.79	374.49
560.96	411.93
561.12	449.38
561.29	423.64
561.45	444.70
561.61	454.06
561.78	531.30
561.94	447.04
562.11	362.78
562.27	475.13
562.44	407.25
562.60	395.55
562.77	454.06
562.93	477.47
563.10	376.83
563.26	346.40
563.42	365.12
563.59	374.49
563.75	435.34
563.92	440.02
564.08	435.34
564.24	369.80
564.41	470.45
564.57	409.59
564.74	411.93
564.90	381.51
565.07	411.93
565.23	409.59
565.39	367.46
565.56	477.47
565.72	400.23
565.88	425.98
566.05	458.74
566.21	444.70
566.38	428.32
566.54	404.91
566.70	374.49
566.87	444.70
567.03	414.27
567.19	386.19
567.36	404.91
567.52	414.27
567.68	400.23
567.85	472.79
568.01	358.10
568.17	369.80
568.34	367.46
568.50	423.64
568.66	374.49
568.83	454.06
568.99	402.57
569.15	440.02
569.32	383.85
569.48	477.47
569.64	425.98
569.81	388.53
569.97	386.19
570.13	390.87
570.30	407.25
570.46	435.34
570.62	400.23
570.78	381.51
570.95	383.85
571.11	404.91
571.27	465.77
571.43	402.57
571.60	456.40
571.76	444.70
571.92	365.12
572.09	390.87
572.25	383.85
572.41	430.66
572.57	472.79
572.74	482.15
572.90	442.36
573.06	442.36
573.22	454.06
573.38	418.96
573.55	447.04
573.71	440.02
573.87	421.30
574.03	355.76
574.20	423.64
574.36	437.68
574.52	465.77
574.68	423.64
574.84	454.06
575.01	416.62
575.17	440.02
575.33	409.59
575.49	484.49
575.65	440.02
575.82	477.47
575.98	449.38
576.14	435.34
576.30	407.25
576.46	458.74
576.62	444.70
576.79	479.81
576.95	479.81
577.11	372.15
577.27	365.12
577.43	409.59
577.59	463.43
577.75	463.43
577.92	402.57
578.08	421.30
578.24	376.83
578.40	390.87
578.56	411.93
578.72	489.17
578.88	442.36
579.04	442.36
579.21	376.83
579.37	411.93
579.53	465.77
579.69	407.25
579.85	428.32
580.01	404.91
580.17	360.44
580.33	358.10
580.49	386.19
580.65	383.85
580.82	346.40
580.98	388.53
581.14	400.23
581.30	395.55
581.46	430.66
581.62	475.13
581.78	433.00
581.94	407.25
582.10	360.44
582.26	404.91
582.42	421.30
582.58	423.64
582.74	440.02
582.90	414.27
583.06	414.27
583.22	425.98
583.38	428.32
583.54	397.89
583.70	425.98
583.86	344.06
584.02	409.59
584.18	465.77
584.34	351.08
584.50	362.78
584.66	454.06
584.82	393.21
584.98	397.89
585.14	402.57
585.30	379.17
585.46	477.47
585.62	325.33
585.78	442.36
585.94	376.83
586.10	442.36
586.26	381.51
586.42	447.04
586.58	540.66
586.74	351.08
586.90	435.34
587.06	430.66
587.22	390.87
587.38	402.57
587.54	463.43
587.70	388.53
587.86	430.66
588.02	454.06
588.18	475.13
588.34	416.62
588.49	425.98
588.65	435.34
588.81	454.06
588.97	400.23
589.13	451.72
589.29	383.85
589.45	447.04
589.61	430.66
589.77	414.27
589.93	374.49
590.08	390.87
590.24	395.55
590.40	451.72
590.56	379.17
590.72	447.04
590.88	421.30
591.04	388.53
591.20	362.78
591.35	437.68
591.51	433.00
591.67	355.76
591.83	393.21
591.99	475.13
592.15	477.47
592.31	421.30
592.46	458.74
592.62	451.72
592.78	395.55
592.94	442.36
593.10	376.83
593.26	428.32
593.41	388.53
593.57	404.91
593.73	390.87
593.89	489.17
594.05	404.91
594.20	503.22
594.36	418.96
594.52	393.21
594.68	358.10
594.84	447.04
594.99	409.59
595.15	388.53
595.31	404.91
595.47	503.22
595.62	379.17
595.78	519.60
595.94	383.85
596.10	449.38
596.25	351.08
596.41	496.19
596.57	390.87
596.73	367.46
596.88	440.02
597.04	449.38
597.20	411.93
597.36	451.72
597.51	390.87
597.67	435.34
597.83	397.89
597.99	416.62
598.14	477.47
598.30	444.70
598.46	362.78
598.61	430.66
598.77	428.32
598.93	454.06
599.09	341.72
599.24	407.25
599.40	423.64
599.56	372.15
599.71	367.46
599.87	365.12
600.03	407.25
600.18	337.04
600.34	369.80
600.50	421.30
600.65	407.25
600.81	416.62
600.97	409.59
601.12	395.55
601.28	430.66
601.44	430.66
601.59	400.23
601.75	463.43
601.91	383.85
602.06	402.57
602.22	512.58
602.37	449.38
602.53	402.57
602.69	372.15
602.84	397.89
603.00	409.59
603.16	390.87
603.31	491.51
603.47	346.40
603.62	404.91
603.78	404.91
603.94	369.80
604.09	362.78
604.25	437.68
604.40	468.11
604.56	484.49
604.71	444.70
604.87	437.68
605.03	447.04
605.18	475.13
605.34	388.53
605.49	442.36
605.65	444.70
605.80	463.43
605.96	393.21
606.12	416.62
606.27	444.70
606.43	449.38
606.58	430.66
606.74	477.47
606.89	379.17
607.05	437.68
607.20	414.27
607.36	425.98
607.51	351.08
607.67	374.49
607.82	435.34
607.98	454.06
608.13	416.62
608.29	383.85
608.44	449.38
608.60	369.80
608.75	465.77
608.91	498.53
609.06	449.38
609.22	482.15
609.37	477.47
609.53	470.45
609.68	435.34
609.84	355.76
609.99	423.64
610.15	442.36
