SpectraSuite Data File
++++++++++++++++++++++++++++++++++++
Date: Fri Oct 25 12:11:01 EDT 2013
User: price-jones
Dark Spectrum Present: No
Reference Spectrum Present: No
Number of Sampled Component Spectra: 1
Spectrometers: USB2+H05261
Integration Time (usec): 100000 (USB2+H05261)
Spectra Averaged: 1 (USB2+H05261)
Boxcar Smoothing: 0 (USB2+H05261)
Correct for Electrical Dark: No (USB2+H05261)
Strobe/Lamp Enabled: No (USB2+H05261)
Correct for Detector Non-linearity: No (USB2+H05261)
Correct for Stray Light: No (USB2+H05261)
Number of Pixels in Processed Spectrum: 2048
>>>>>Begin Processed Spectral Data<<<<<
365.73	341.72
365.92	341.72
366.12	341.72
366.32	266.82
366.52	243.42
366.72	196.60
366.91	327.68
367.11	280.86
367.31	180.22
367.51	266.82
367.70	205.97
367.90	152.13
368.10	215.33
368.30	266.82
368.49	222.35
368.69	313.63
368.89	241.08
369.09	236.39
369.28	266.82
369.48	294.91
369.68	252.78
369.87	285.55
370.07	301.93
370.27	348.74
370.47	294.91
370.66	299.59
370.86	334.70
371.06	367.46
371.25	374.49
371.45	381.51
371.65	360.44
371.84	374.49
372.04	372.15
372.24	360.44
372.44	433.00
372.63	411.93
372.83	381.51
373.03	381.51
373.22	416.62
373.42	395.55
373.62	470.45
373.81	397.89
374.01	454.06
374.21	435.34
374.40	430.66
374.60	463.43
374.79	416.62
374.99	430.66
375.19	477.47
375.38	407.25
375.58	362.78
375.78	423.64
375.97	447.04
376.17	440.02
376.37	447.04
376.56	425.98
376.76	442.36
376.95	402.57
377.15	388.53
377.35	421.30
377.54	416.62
377.74	397.89
377.93	416.62
378.13	435.34
378.33	383.85
378.52	369.80
378.72	397.89
378.91	472.79
379.11	388.53
379.31	411.93
379.50	430.66
379.70	404.91
379.89	404.91
380.09	407.25
380.28	414.27
380.48	360.44
380.68	325.33
380.87	388.53
381.07	449.38
381.26	442.36
381.46	362.78
381.65	451.72
381.85	395.55
382.04	383.85
382.24	393.21
382.43	411.93
382.63	306.61
382.83	379.17
383.02	388.53
383.22	456.40
383.41	337.04
383.61	397.89
383.80	411.93
384.00	400.23
384.19	416.62
384.39	383.85
384.58	351.08
384.78	425.98
384.97	358.10
385.17	397.89
385.36	383.85
385.56	372.15
385.75	397.89
385.95	479.81
386.14	437.68
386.34	411.93
386.53	381.51
386.72	400.23
386.92	372.15
387.11	414.27
387.31	376.83
387.50	404.91
387.70	447.04
387.89	454.06
388.09	374.49
388.28	402.57
388.48	341.72
388.67	365.12
388.86	437.68
389.06	400.23
389.25	334.70
389.45	477.47
389.64	411.93
389.84	461.09
390.03	428.32
390.22	437.68
390.42	411.93
390.61	353.42
390.81	346.40
391.00	414.27
391.19	395.55
391.39	411.93
391.58	379.17
391.78	379.17
391.97	472.79
392.16	337.04
392.36	383.85
392.55	447.04
392.75	423.64
392.94	407.25
393.13	395.55
393.33	425.98
393.52	425.98
393.71	407.25
393.91	372.15
394.10	414.27
394.29	376.83
394.49	397.89
394.68	425.98
394.88	421.30
395.07	447.04
395.26	404.91
395.46	395.55
395.65	381.51
395.84	437.68
396.04	416.62
396.23	430.66
396.42	367.46
396.62	379.17
396.81	437.68
397.00	358.10
397.19	400.23
397.39	472.79
397.58	414.27
397.77	470.45
397.97	423.64
398.16	444.70
398.35	395.55
398.55	351.08
398.74	372.15
398.93	383.85
399.12	451.72
399.32	414.27
399.51	407.25
399.70	404.91
399.90	407.25
400.09	379.17
400.28	358.10
400.47	358.10
400.67	440.02
400.86	397.89
401.05	456.40
401.24	379.17
401.44	456.40
401.63	404.91
401.82	388.53
402.01	437.68
402.21	421.30
402.40	393.21
402.59	332.36
402.78	414.27
402.97	402.57
403.17	393.21
403.36	421.30
403.55	395.55
403.74	461.09
403.93	435.34
404.13	479.81
404.32	435.34
404.51	400.23
404.70	416.62
404.89	404.91
405.09	414.27
405.28	458.74
405.47	418.96
405.66	400.23
405.85	465.77
406.05	334.70
406.24	395.55
406.43	440.02
406.62	369.80
406.81	479.81
407.00	421.30
407.20	383.85
407.39	465.77
407.58	416.62
407.77	425.98
407.96	393.21
408.15	442.36
408.34	407.25
408.54	393.21
408.73	383.85
408.92	383.85
409.11	407.25
409.30	400.23
409.49	430.66
409.68	404.91
409.87	372.15
410.07	404.91
410.26	425.98
410.45	360.44
410.64	397.89
410.83	376.83
411.02	393.21
411.21	440.02
411.40	416.62
411.59	428.32
411.78	369.80
411.98	447.04
412.17	397.89
412.36	404.91
412.55	390.87
412.74	463.43
412.93	411.93
413.12	374.49
413.31	381.51
413.50	418.96
413.69	411.93
413.88	395.55
414.07	414.27
414.26	435.34
414.45	423.64
414.64	475.13
414.83	409.59
415.02	346.40
415.22	428.32
415.41	416.62
415.60	367.46
415.79	386.19
415.98	416.62
416.17	372.15
416.36	381.51
416.55	374.49
416.74	407.25
416.93	400.23
417.12	369.80
417.31	407.25
417.50	418.96
417.69	425.98
417.88	388.53
418.07	379.17
418.26	353.42
418.45	416.62
418.64	463.43
418.83	360.44
419.02	407.25
419.21	428.32
419.39	414.27
419.58	397.89
419.77	425.98
419.96	486.83
420.15	397.89
420.34	470.45
420.53	428.32
420.72	440.02
420.91	463.43
421.10	397.89
421.29	421.30
421.48	407.25
421.67	430.66
421.86	390.87
422.05	411.93
422.24	433.00
422.43	388.53
422.61	355.76
422.80	374.49
422.99	433.00
423.18	458.74
423.37	381.51
423.56	496.19
423.75	458.74
423.94	379.17
424.13	465.77
424.32	369.80
424.50	416.62
424.69	454.06
424.88	430.66
425.07	365.12
425.26	376.83
425.45	369.80
425.64	346.40
425.83	386.19
426.01	379.17
426.20	465.77
426.39	433.00
426.58	390.87
426.77	372.15
426.96	393.21
427.15	421.30
427.33	397.89
427.52	423.64
427.71	484.49
427.90	365.12
428.09	351.08
428.28	423.64
428.46	414.27
428.65	395.55
428.84	433.00
429.03	444.70
429.22	411.93
429.40	393.21
429.59	367.46
429.78	442.36
429.97	390.87
430.16	376.83
430.34	390.87
430.53	423.64
430.72	428.32
430.91	454.06
431.10	440.02
431.28	437.68
431.47	447.04
431.66	444.70
431.85	456.40
432.03	402.57
432.22	463.43
432.41	400.23
432.60	397.89
432.79	402.57
432.97	447.04
433.16	367.46
433.35	320.65
433.54	395.55
433.72	449.38
433.91	428.32
434.10	433.00
434.28	400.23
434.47	402.57
434.66	470.45
434.85	407.25
435.03	402.57
435.22	479.81
435.41	407.25
435.59	395.55
435.78	465.77
435.97	379.17
436.16	418.96
436.34	362.78
436.53	348.74
436.72	341.72
436.90	372.15
437.09	430.66
437.28	315.97
437.46	362.78
437.65	451.72
437.84	437.68
438.02	456.40
438.21	423.64
438.40	421.30
438.58	379.17
438.77	423.64
438.96	465.77
439.14	425.98
439.33	414.27
439.52	423.64
439.70	376.83
439.89	372.15
440.08	416.62
440.26	393.21
440.45	402.57
440.63	421.30
440.82	454.06
441.01	400.23
441.19	468.11
441.38	393.21
441.57	372.15
441.75	411.93
441.94	425.98
442.12	454.06
442.31	348.74
442.50	435.34
442.68	411.93
442.87	388.53
443.05	355.76
443.24	425.98
443.43	428.32
443.61	358.10
443.80	433.00
443.98	358.10
444.17	400.23
444.35	388.53
444.54	430.66
444.73	355.76
444.91	503.22
445.10	428.32
445.28	407.25
445.47	425.98
445.65	437.68
445.84	393.21
446.02	362.78
446.21	449.38
446.39	428.32
446.58	421.30
446.77	407.25
446.95	409.59
447.14	440.02
447.32	414.27
447.51	362.78
447.69	381.51
447.88	379.17
448.06	491.51
448.25	395.55
448.43	353.42
448.62	435.34
448.80	386.19
448.99	404.91
449.17	369.80
449.36	428.32
449.54	411.93
449.73	358.10
449.91	339.38
450.10	395.55
450.28	500.87
450.46	416.62
450.65	440.02
450.83	386.19
451.02	390.87
451.20	367.46
451.39	433.00
451.57	383.85
451.76	395.55
451.94	440.02
452.13	444.70
452.31	451.72
452.49	395.55
452.68	458.74
452.86	393.21
453.05	372.15
453.23	430.66
453.42	437.68
453.60	353.42
453.78	430.66
453.97	444.70
454.15	418.96
454.34	411.93
454.52	397.89
454.70	407.25
454.89	458.74
455.07	388.53
455.26	437.68
455.44	437.68
455.62	442.36
455.81	369.80
455.99	433.00
456.17	456.40
456.36	449.38
456.54	437.68
456.73	407.25
456.91	358.10
457.09	418.96
457.28	409.59
457.46	369.80
457.64	400.23
457.83	367.46
458.01	423.64
458.19	430.66
458.38	381.51
458.56	479.81
458.74	339.38
458.93	472.79
459.11	376.83
459.29	470.45
459.48	437.68
459.66	458.74
459.84	442.36
460.03	435.34
460.21	402.57
460.39	428.32
460.57	423.64
460.76	463.43
460.94	416.62
461.12	435.34
461.31	388.53
461.49	489.17
461.67	407.25
461.85	355.76
462.04	421.30
462.22	587.47
462.40	465.77
462.59	416.62
462.77	386.19
462.95	374.49
463.13	444.70
463.32	339.38
463.50	397.89
463.68	423.64
463.86	449.38
464.05	397.89
464.23	468.11
464.41	430.66
464.59	440.02
464.78	421.30
464.96	358.10
465.14	358.10
465.32	402.57
465.50	437.68
465.69	423.64
465.87	479.81
466.05	400.23
466.23	404.91
466.41	475.13
466.60	463.43
466.78	379.17
466.96	397.89
467.14	421.30
467.32	367.46
467.51	479.81
467.69	433.00
467.87	458.74
468.05	404.91
468.23	444.70
468.41	433.00
468.60	430.66
468.78	461.09
468.96	435.34
469.14	484.49
469.32	404.91
469.50	423.64
469.69	449.38
469.87	444.70
470.05	416.62
470.23	411.93
470.41	388.53
470.59	458.74
470.77	397.89
470.95	421.30
471.14	430.66
471.32	402.57
471.50	430.66
471.68	393.21
471.86	407.25
472.04	402.57
472.22	383.85
472.40	390.87
472.58	374.49
472.77	397.89
472.95	456.40
473.13	524.28
473.31	425.98
473.49	353.42
473.67	386.19
473.85	472.79
474.03	383.85
474.21	360.44
474.39	407.25
474.57	404.91
474.75	416.62
474.93	468.11
475.12	444.70
475.30	395.55
475.48	379.17
475.66	440.02
475.84	425.98
476.02	395.55
476.20	365.12
476.38	482.15
476.56	500.87
476.74	379.17
476.92	348.74
477.10	407.25
477.28	409.59
477.46	383.85
477.64	449.38
477.82	362.78
478.00	418.96
478.18	320.65
478.36	374.49
478.54	344.06
478.72	428.32
478.90	418.96
479.08	372.15
479.26	465.77
479.44	418.96
479.62	411.93
479.80	404.91
479.98	346.40
480.16	358.10
480.34	390.87
480.52	341.72
480.70	444.70
480.88	407.25
481.06	397.89
481.24	416.62
481.41	463.43
481.59	470.45
481.77	447.04
481.95	374.49
482.13	437.68
482.31	409.59
482.49	372.15
482.67	433.00
482.85	454.06
483.03	423.64
483.21	376.83
483.39	423.64
483.57	468.11
483.74	482.15
483.92	430.66
484.10	393.21
484.28	486.83
484.46	381.51
484.64	449.38
484.82	404.91
485.00	433.00
485.18	421.30
485.35	414.27
485.53	379.17
485.71	442.36
485.89	416.62
486.07	367.46
486.25	451.72
486.43	475.13
486.61	468.11
486.78	397.89
486.96	414.27
487.14	454.06
487.32	390.87
487.50	402.57
487.68	372.15
487.85	418.96
488.03	458.74
488.21	390.87
488.39	454.06
488.57	423.64
488.75	416.62
488.92	482.15
489.10	428.32
489.28	479.81
489.46	411.93
489.64	433.00
489.81	393.21
489.99	376.83
490.17	339.38
490.35	531.30
490.53	435.34
490.70	388.53
490.88	404.91
491.06	414.27
491.24	484.49
491.41	463.43
491.59	423.64
491.77	425.98
491.95	454.06
492.13	437.68
492.30	383.85
492.48	339.38
492.66	435.34
492.84	360.44
493.01	379.17
493.19	433.00
493.37	500.87
493.54	379.17
493.72	416.62
493.90	414.27
494.08	423.64
494.25	414.27
494.43	374.49
494.61	393.21
494.79	404.91
494.96	315.97
495.14	409.59
495.32	456.40
495.49	472.79
495.67	461.09
495.85	468.11
496.02	383.85
496.20	397.89
496.38	512.58
496.55	390.87
496.73	484.49
496.91	395.55
497.09	397.89
497.26	456.40
497.44	374.49
497.62	381.51
497.79	381.51
497.97	442.36
498.14	498.53
498.32	404.91
498.50	428.32
498.67	435.34
498.85	379.17
499.03	409.59
499.20	442.36
499.38	409.59
499.56	339.38
499.73	475.13
499.91	425.98
500.08	372.15
500.26	397.89
500.44	447.04
500.61	372.15
500.79	374.49
500.97	386.19
501.14	367.46
501.32	369.80
501.49	442.36
501.67	437.68
501.84	444.70
502.02	400.23
502.20	447.04
502.37	388.53
502.55	402.57
502.72	367.46
502.90	454.06
503.07	418.96
503.25	404.91
503.43	362.78
503.60	400.23
503.78	444.70
503.95	463.43
504.13	411.93
504.30	418.96
504.48	454.06
504.65	381.51
504.83	482.15
505.01	456.40
505.18	430.66
505.36	418.96
505.53	433.00
505.71	346.40
505.88	421.30
506.06	449.38
506.23	365.12
506.41	428.32
506.58	421.30
506.76	402.57
506.93	390.87
507.11	348.74
507.28	409.59
507.46	437.68
507.63	360.44
507.81	409.59
507.98	461.09
508.16	416.62
508.33	379.17
508.50	428.32
508.68	351.08
508.85	397.89
509.03	369.80
509.20	423.64
509.38	470.45
509.55	383.85
509.73	362.78
509.90	418.96
510.08	440.02
510.25	479.81
510.42	421.30
510.60	381.51
510.77	390.87
510.95	430.66
511.12	355.76
511.30	423.64
511.47	430.66
511.64	416.62
511.82	416.62
511.99	456.40
512.17	444.70
512.34	472.79
512.51	421.30
512.69	393.21
512.86	477.47
513.04	390.87
513.21	430.66
513.38	369.80
513.56	390.87
513.73	341.72
513.90	430.66
514.08	503.22
514.25	435.34
514.43	423.64
514.60	428.32
514.77	454.06
514.95	454.06
515.12	456.40
515.29	461.09
515.47	468.11
515.64	440.02
515.81	423.64
515.99	423.64
516.16	407.25
516.33	463.43
516.51	433.00
516.68	425.98
516.85	442.36
517.03	407.25
517.20	428.32
517.37	458.74
517.54	369.80
517.72	435.34
517.89	397.89
518.06	521.94
518.24	442.36
518.41	461.09
518.58	458.74
518.75	404.91
518.93	458.74
519.10	414.27
519.27	390.87
519.45	461.09
519.62	425.98
519.79	421.30
519.96	456.40
520.14	383.85
520.31	470.45
520.48	409.59
520.65	451.72
520.83	414.27
521.00	418.96
521.17	437.68
521.34	372.15
521.52	435.34
521.69	465.77
521.86	383.85
522.03	386.19
522.20	465.77
522.38	430.66
522.55	388.53
522.72	395.55
522.89	433.00
523.07	484.49
523.24	437.68
523.41	416.62
523.58	409.59
523.75	381.51
523.92	449.38
524.10	397.89
524.27	411.93
524.44	360.44
524.61	404.91
524.78	409.59
524.96	472.79
525.13	416.62
525.30	411.93
525.47	428.32
525.64	458.74
525.81	447.04
525.98	449.38
526.16	353.42
526.33	395.55
526.50	407.25
526.67	433.00
526.84	376.83
527.01	416.62
527.18	463.43
527.36	421.30
527.53	362.78
527.70	435.34
527.87	393.21
528.04	479.81
528.21	379.17
528.38	463.43
528.55	433.00
528.72	475.13
528.89	451.72
529.07	388.53
529.24	381.51
529.41	425.98
529.58	407.25
529.75	372.15
529.92	395.55
530.09	430.66
530.26	444.70
530.43	454.06
530.60	484.49
530.77	491.51
530.94	447.04
531.11	433.00
531.28	376.83
531.46	416.62
531.63	358.10
531.80	383.85
531.97	486.83
532.14	407.25
532.31	383.85
532.48	397.89
532.65	376.83
532.82	421.30
532.99	444.70
533.16	386.19
533.33	421.30
533.50	407.25
533.67	353.42
533.84	416.62
534.01	367.46
534.18	379.17
534.35	425.98
534.52	433.00
534.69	383.85
534.86	437.68
535.03	402.57
535.20	421.30
535.37	383.85
535.54	360.44
535.71	468.11
535.88	454.06
536.05	409.59
536.22	388.53
536.38	367.46
536.55	393.21
536.72	463.43
536.89	435.34
537.06	386.19
537.23	421.30
537.40	383.85
537.57	437.68
537.74	411.93
537.91	409.59
538.08	400.23
538.25	404.91
538.42	512.58
538.59	411.93
538.75	435.34
538.92	421.30
539.09	407.25
539.26	411.93
539.43	416.62
539.60	442.36
539.77	390.87
539.94	454.06
540.11	458.74
540.28	325.33
540.44	428.32
540.61	409.59
540.78	418.96
540.95	425.98
541.12	442.36
541.29	433.00
541.46	390.87
541.62	407.25
541.79	360.44
541.96	390.87
542.13	428.32
542.30	390.87
542.47	463.43
542.63	414.27
542.80	461.09
542.97	468.11
543.14	397.89
543.31	400.23
543.48	407.25
543.64	477.47
543.81	433.00
543.98	400.23
544.15	425.98
544.32	372.15
544.48	409.59
544.65	344.06
544.82	325.33
544.99	486.83
545.16	428.32
545.32	271.50
545.49	372.15
545.66	381.51
545.83	461.09
546.00	355.76
546.16	409.59
546.33	400.23
546.50	402.57
546.67	388.53
546.83	468.11
547.00	470.45
547.17	418.96
547.34	395.55
547.50	451.72
547.67	444.70
547.84	489.17
548.00	482.15
548.17	423.64
548.34	451.72
548.51	393.21
548.67	442.36
548.84	416.62
549.01	435.34
549.18	409.59
549.34	397.89
549.51	442.36
549.68	451.72
549.84	353.42
550.01	353.42
550.18	411.93
550.34	423.64
550.51	358.10
550.68	461.09
550.84	479.81
551.01	442.36
551.18	463.43
551.34	409.59
551.51	425.98
551.68	407.25
551.84	393.21
552.01	353.42
552.18	496.19
552.34	430.66
552.51	451.72
552.68	454.06
552.84	423.64
553.01	421.30
553.18	435.34
553.34	400.23
553.51	421.30
553.67	465.77
553.84	465.77
554.01	463.43
554.17	425.98
554.34	493.85
554.51	418.96
554.67	383.85
554.84	472.79
555.00	444.70
555.17	472.79
555.33	449.38
555.50	360.44
555.67	447.04
555.83	348.74
556.00	433.00
556.16	554.71
556.33	507.90
556.50	447.04
556.66	411.93
556.83	418.96
556.99	404.91
557.16	358.10
557.32	390.87
557.49	376.83
557.65	456.40
557.82	374.49
557.98	376.83
558.15	351.08
558.32	358.10
558.48	440.02
558.65	475.13
558.81	468.11
558.98	409.59
559.14	470.45
559.31	372.15
559.47	416.62
559.64	367.46
559.80	386.19
559.97	404.91
560.13	400.23
560.30	440.02
560.46	416.62
560.63	454.06
560.79	454.06
560.96	435.34
561.12	351.08
561.29	416.62
561.45	428.32
561.61	390.87
561.78	468.11
561.94	425.98
562.11	421.30
562.27	374.49
562.44	411.93
562.60	397.89
562.77	454.06
562.93	489.17
563.10	393.21
563.26	425.98
563.42	400.23
563.59	374.49
563.75	425.98
563.92	475.13
564.08	430.66
564.24	437.68
564.41	484.49
564.57	397.89
564.74	440.02
564.90	435.34
565.07	461.09
565.23	519.60
565.39	456.40
565.56	472.79
565.72	372.15
565.88	472.79
566.05	362.78
566.21	409.59
566.38	402.57
566.54	390.87
566.70	421.30
566.87	367.46
567.03	362.78
567.19	437.68
567.36	437.68
567.52	395.55
567.68	409.59
567.85	489.17
568.01	374.49
568.17	402.57
568.34	447.04
568.50	468.11
568.66	327.68
568.83	447.04
568.99	414.27
569.15	463.43
569.32	355.76
569.48	372.15
569.64	395.55
569.81	381.51
569.97	390.87
570.13	442.36
570.30	395.55
570.46	451.72
570.62	463.43
570.78	425.98
570.95	397.89
571.11	393.21
571.27	465.77
571.43	395.55
571.60	418.96
571.76	435.34
571.92	416.62
572.09	379.17
572.25	381.51
572.41	341.72
572.57	444.70
572.74	482.15
572.90	475.13
573.06	400.23
573.22	395.55
573.38	444.70
573.55	393.21
573.71	400.23
573.87	381.51
574.03	447.04
574.20	428.32
574.36	416.62
574.52	437.68
574.68	430.66
574.84	440.02
575.01	404.91
575.17	404.91
575.33	409.59
575.49	454.06
575.65	390.87
575.82	407.25
575.98	400.23
576.14	383.85
576.30	411.93
576.46	334.70
576.62	451.72
576.79	482.15
576.95	468.11
577.11	433.00
577.27	344.06
577.43	416.62
577.59	397.89
577.75	451.72
577.92	381.51
578.08	397.89
578.24	351.08
578.40	514.92
578.56	437.68
578.72	369.80
578.88	433.00
579.04	365.12
579.21	425.98
579.37	482.15
579.53	428.32
579.69	433.00
579.85	334.70
580.01	433.00
580.17	372.15
580.33	491.51
580.49	383.85
580.65	421.30
580.82	325.33
580.98	400.23
581.14	369.80
581.30	425.98
581.46	463.43
581.62	484.49
581.78	430.66
581.94	475.13
582.10	423.64
582.26	402.57
582.42	428.32
582.58	346.40
582.74	451.72
582.90	400.23
583.06	414.27
583.22	362.78
583.38	372.15
583.54	411.93
583.70	440.02
583.86	346.40
584.02	425.98
584.18	528.96
584.34	407.25
584.50	451.72
584.66	430.66
584.82	402.57
584.98	353.42
585.14	404.91
585.30	463.43
585.46	395.55
585.62	351.08
585.78	407.25
585.94	411.93
586.10	418.96
586.26	454.06
586.42	491.51
586.58	404.91
586.74	451.72
586.90	454.06
587.06	407.25
587.22	369.80
587.38	463.43
587.54	425.98
587.70	376.83
587.86	393.21
588.02	353.42
588.18	397.89
588.34	428.32
588.49	411.93
588.65	461.09
588.81	383.85
588.97	390.87
589.13	386.19
589.29	402.57
589.45	418.96
589.61	407.25
589.77	451.72
589.93	383.85
590.08	353.42
590.24	383.85
590.40	322.99
590.56	379.17
590.72	416.62
590.88	386.19
591.04	423.64
591.20	400.23
591.35	486.83
591.51	395.55
591.67	365.12
591.83	428.32
591.99	395.55
592.15	395.55
592.31	404.91
592.46	444.70
592.62	376.83
592.78	442.36
592.94	334.70
593.10	458.74
593.26	461.09
593.41	435.34
593.57	379.17
593.73	423.64
593.89	407.25
594.05	433.00
594.20	395.55
594.36	433.00
594.52	353.42
594.68	407.25
594.84	465.77
594.99	456.40
595.15	437.68
595.31	458.74
595.47	477.47
595.62	437.68
595.78	454.06
595.94	433.00
596.10	353.42
596.25	395.55
596.41	498.53
596.57	407.25
596.73	456.40
596.88	430.66
597.04	395.55
597.20	402.57
597.36	456.40
597.51	454.06
597.67	421.30
597.83	512.58
597.99	374.49
598.14	362.78
598.30	437.68
598.46	475.13
598.61	456.40
598.77	402.57
598.93	465.77
599.09	388.53
599.24	416.62
599.40	409.59
599.56	322.99
599.71	294.91
599.87	418.96
600.03	411.93
600.18	409.59
600.34	355.76
600.50	386.19
600.65	400.23
600.81	395.55
600.97	381.51
601.12	489.17
601.28	451.72
601.44	454.06
601.59	458.74
601.75	381.51
601.91	402.57
602.06	404.91
602.22	472.79
602.37	489.17
602.53	388.53
602.69	484.49
602.84	411.93
603.00	339.38
603.16	458.74
603.31	454.06
603.47	425.98
603.62	369.80
603.78	447.04
603.94	423.64
604.09	435.34
604.25	449.38
604.40	456.40
604.56	475.13
604.71	381.51
604.87	397.89
605.03	451.72
605.18	402.57
605.34	437.68
605.49	383.85
605.65	428.32
605.80	355.76
605.96	395.55
606.12	489.17
606.27	390.87
606.43	425.98
606.58	402.57
606.74	486.83
606.89	465.77
607.05	393.21
607.20	390.87
607.36	414.27
607.51	414.27
607.67	400.23
607.82	437.68
607.98	463.43
608.13	379.17
608.29	414.27
608.44	524.28
608.60	428.32
608.75	397.89
608.91	440.02
609.06	411.93
609.22	486.83
609.37	353.42
609.53	397.89
609.68	447.04
609.84	440.02
609.99	507.90
610.15	383.85
