SpectraSuite Data File
++++++++++++++++++++++++++++++++++++
Date: Fri Oct 25 12:10:45 EDT 2013
User: price-jones
Dark Spectrum Present: No
Reference Spectrum Present: No
Number of Sampled Component Spectra: 1
Spectrometers: USB2+H05261
Integration Time (usec): 100000 (USB2+H05261)
Spectra Averaged: 1 (USB2+H05261)
Boxcar Smoothing: 0 (USB2+H05261)
Correct for Electrical Dark: No (USB2+H05261)
Strobe/Lamp Enabled: No (USB2+H05261)
Correct for Detector Non-linearity: No (USB2+H05261)
Correct for Stray Light: No (USB2+H05261)
Number of Pixels in Processed Spectrum: 2048
>>>>>Begin Processed Spectral Data<<<<<
365.73	344.06
365.92	344.06
366.12	344.06
366.32	229.37
366.52	191.92
366.72	248.10
366.91	220.01
367.11	217.67
367.31	271.50
367.51	156.82
367.70	224.69
367.90	250.44
368.10	236.39
368.30	231.71
368.49	243.42
368.69	283.20
368.89	311.29
369.09	262.14
369.28	252.78
369.48	304.27
369.68	217.67
369.87	271.50
370.07	278.52
370.27	301.93
370.47	372.15
370.66	402.57
370.86	360.44
371.06	367.46
371.25	358.10
371.45	395.55
371.65	414.27
371.84	421.30
372.04	355.76
372.24	433.00
372.44	456.40
372.63	367.46
372.83	360.44
373.03	418.96
373.22	351.08
373.42	435.34
373.62	479.81
373.81	435.34
374.01	409.59
374.21	458.74
374.40	393.21
374.60	458.74
374.79	418.96
374.99	423.64
375.19	491.51
375.38	454.06
375.58	383.85
375.78	447.04
375.97	407.25
376.17	409.59
376.37	346.40
376.56	423.64
376.76	383.85
376.95	402.57
377.15	519.60
377.35	404.91
377.54	376.83
377.74	433.00
377.93	433.00
378.13	449.38
378.33	437.68
378.52	379.17
378.72	383.85
378.91	437.68
379.11	376.83
379.31	367.46
379.50	411.93
379.70	428.32
379.89	416.62
380.09	409.59
380.28	351.08
380.48	397.89
380.68	414.27
380.87	433.00
381.07	489.17
381.26	472.79
381.46	381.51
381.65	407.25
381.85	435.34
382.04	376.83
382.24	381.51
382.43	358.10
382.63	440.02
382.83	416.62
383.02	472.79
383.22	468.11
383.41	346.40
383.61	425.98
383.80	470.45
384.00	393.21
384.19	360.44
384.39	479.81
384.58	372.15
384.78	360.44
384.97	430.66
385.17	440.02
385.36	479.81
385.56	479.81
385.75	383.85
385.95	374.49
386.14	395.55
386.34	414.27
386.53	458.74
386.72	353.42
386.92	397.89
387.11	437.68
387.31	440.02
387.50	407.25
387.70	404.91
387.89	418.96
388.09	372.15
388.28	433.00
388.48	339.38
388.67	379.17
388.86	407.25
389.06	337.04
389.25	369.80
389.45	418.96
389.64	400.23
389.84	442.36
390.03	407.25
390.22	440.02
390.42	435.34
390.61	372.15
390.81	407.25
391.00	381.51
391.19	425.98
391.39	451.72
391.58	383.85
391.78	442.36
391.97	409.59
392.16	416.62
392.36	414.27
392.55	411.93
392.75	395.55
392.94	425.98
393.13	496.19
393.33	388.53
393.52	376.83
393.71	407.25
393.91	407.25
394.10	315.97
394.29	367.46
394.49	435.34
394.68	372.15
394.88	461.09
395.07	423.64
395.26	390.87
395.46	428.32
395.65	402.57
395.84	367.46
396.04	442.36
396.23	400.23
396.42	383.85
396.62	418.96
396.81	330.02
397.00	404.91
397.19	423.64
397.39	390.87
397.58	442.36
397.77	449.38
397.97	421.30
398.16	386.19
398.35	444.70
398.55	393.21
398.74	404.91
398.93	425.98
399.12	402.57
399.32	425.98
399.51	404.91
399.70	440.02
399.90	454.06
400.09	355.76
400.28	423.64
400.47	386.19
400.67	440.02
400.86	383.85
401.05	372.15
401.24	411.93
401.44	430.66
401.63	341.72
401.82	344.06
402.01	393.21
402.21	379.17
402.40	372.15
402.59	334.70
402.78	404.91
402.97	339.38
403.17	430.66
403.36	393.21
403.55	423.64
403.74	395.55
403.93	418.96
404.13	463.43
404.32	332.36
404.51	383.85
404.70	411.93
404.89	421.30
405.09	479.81
405.28	402.57
405.47	425.98
405.66	444.70
405.85	400.23
406.05	402.57
406.24	386.19
406.43	351.08
406.62	402.57
406.81	475.13
407.00	433.00
407.20	362.78
407.39	294.91
407.58	381.51
407.77	418.96
407.96	425.98
408.15	404.91
408.34	430.66
408.54	486.83
408.73	348.74
408.92	367.46
409.11	367.46
409.30	402.57
409.49	402.57
409.68	372.15
409.87	411.93
410.07	393.21
410.26	400.23
410.45	465.77
410.64	468.11
410.83	404.91
411.02	369.80
411.21	416.62
411.40	358.10
411.59	447.04
411.78	482.15
411.98	386.19
412.17	362.78
412.36	428.32
412.55	402.57
412.74	425.98
412.93	414.27
413.12	341.72
413.31	430.66
413.50	402.57
413.69	404.91
413.88	428.32
414.07	376.83
414.26	376.83
414.45	418.96
414.64	372.15
414.83	421.30
415.02	404.91
415.22	454.06
415.41	423.64
415.60	407.25
415.79	397.89
415.98	423.64
416.17	447.04
416.36	388.53
416.55	440.02
416.74	362.78
416.93	404.91
417.12	355.76
417.31	468.11
417.50	404.91
417.69	447.04
417.88	407.25
418.07	411.93
418.26	376.83
418.45	447.04
418.64	395.55
418.83	447.04
419.02	362.78
419.21	414.27
419.39	376.83
419.58	402.57
419.77	383.85
419.96	451.72
420.15	479.81
420.34	393.21
420.53	437.68
420.72	421.30
420.91	407.25
421.10	442.36
421.29	395.55
421.48	447.04
421.67	437.68
421.86	451.72
422.05	388.53
422.24	388.53
422.43	435.34
422.61	407.25
422.80	454.06
422.99	395.55
423.18	416.62
423.37	447.04
423.56	404.91
423.75	386.19
423.94	397.89
424.13	416.62
424.32	395.55
424.50	407.25
424.69	372.15
424.88	468.11
425.07	369.80
425.26	346.40
425.45	365.12
425.64	437.68
425.83	416.62
426.01	407.25
426.20	409.59
426.39	437.68
426.58	435.34
426.77	547.69
426.96	437.68
427.15	425.98
427.33	414.27
427.52	395.55
427.71	353.42
427.90	409.59
428.09	414.27
428.28	475.13
428.46	409.59
428.65	451.72
428.84	491.51
429.03	444.70
429.22	421.30
429.40	425.98
429.59	337.04
429.78	468.11
429.97	428.32
430.16	409.59
430.34	447.04
430.53	416.62
430.72	454.06
430.91	402.57
431.10	416.62
431.28	451.72
431.47	386.19
431.66	425.98
431.85	388.53
432.03	400.23
432.22	390.87
432.41	444.70
432.60	409.59
432.79	369.80
432.97	451.72
433.16	428.32
433.35	407.25
433.54	390.87
433.72	358.10
433.91	409.59
434.10	451.72
434.28	444.70
434.47	449.38
434.66	416.62
434.85	358.10
435.03	311.29
435.22	433.00
435.41	433.00
435.59	444.70
435.78	381.51
435.97	425.98
436.16	503.22
436.34	421.30
436.53	425.98
436.72	479.81
436.90	435.34
437.09	407.25
437.28	470.45
437.46	393.21
437.65	416.62
437.84	447.04
438.02	409.59
438.21	470.45
438.40	411.93
438.58	379.17
438.77	367.46
438.96	393.21
439.14	390.87
439.33	397.89
439.52	353.42
439.70	416.62
439.89	454.06
440.08	491.51
440.26	477.47
440.45	458.74
440.63	437.68
440.82	425.98
441.01	491.51
441.19	332.36
441.38	416.62
441.57	374.49
441.75	475.13
441.94	381.51
442.12	414.27
442.31	418.96
442.50	327.68
442.68	353.42
442.87	475.13
443.05	486.83
443.24	454.06
443.43	451.72
443.61	454.06
443.80	374.49
443.98	360.44
444.17	442.36
444.35	456.40
444.54	367.46
444.73	430.66
444.91	402.57
445.10	418.96
445.28	435.34
445.47	383.85
445.65	447.04
445.84	355.76
446.02	294.91
446.21	477.47
446.39	418.96
446.58	428.32
446.77	344.06
446.95	351.08
447.14	381.51
447.32	388.53
447.51	304.27
447.69	458.74
447.88	404.91
448.06	404.91
448.25	388.53
448.43	381.51
448.62	381.51
448.80	409.59
448.99	411.93
449.17	402.57
449.36	454.06
449.54	395.55
449.73	463.43
449.91	376.83
450.10	374.49
450.28	416.62
450.46	421.30
450.65	390.87
450.83	379.17
451.02	379.17
451.20	442.36
451.39	386.19
451.57	437.68
451.76	442.36
451.94	379.17
452.13	421.30
452.31	362.78
452.49	372.15
452.68	404.91
452.86	416.62
453.05	414.27
453.23	400.23
453.42	376.83
453.60	463.43
453.78	477.47
453.97	425.98
454.15	430.66
454.34	290.23
454.52	395.55
454.70	451.72
454.89	519.60
455.07	479.81
455.26	390.87
455.44	524.28
455.62	437.68
455.81	353.42
455.99	449.38
456.17	414.27
456.36	456.40
456.54	376.83
456.73	409.59
456.91	383.85
457.09	407.25
457.28	461.09
457.46	425.98
457.64	507.90
457.83	447.04
458.01	348.74
458.19	390.87
458.38	376.83
458.56	472.79
458.74	360.44
458.93	411.93
459.11	320.65
459.29	386.19
459.48	383.85
459.66	409.59
459.84	435.34
460.03	543.00
460.21	463.43
460.39	463.43
460.57	442.36
460.76	402.57
460.94	444.70
461.12	435.34
461.31	470.45
461.49	402.57
461.67	409.59
461.85	365.12
462.04	409.59
462.22	730.25
462.40	383.85
462.59	428.32
462.77	386.19
462.95	402.57
463.13	402.57
463.32	440.02
463.50	425.98
463.68	428.32
463.86	404.91
464.05	435.34
464.23	440.02
464.41	411.93
464.59	376.83
464.78	372.15
464.96	418.96
465.14	409.59
465.32	344.06
465.50	407.25
465.69	451.72
465.87	360.44
466.05	423.64
466.23	409.59
466.41	414.27
466.60	386.19
466.78	379.17
466.96	428.32
467.14	372.15
467.32	381.51
467.51	463.43
467.69	414.27
467.87	404.91
468.05	374.49
468.23	430.66
468.41	479.81
468.60	484.49
468.78	402.57
468.96	444.70
469.14	451.72
469.32	400.23
469.50	440.02
469.69	461.09
469.87	360.44
470.05	454.06
470.23	402.57
470.41	360.44
470.59	428.32
470.77	414.27
470.95	486.83
471.14	440.02
471.32	418.96
471.50	437.68
471.68	425.98
471.86	376.83
472.04	400.23
472.22	435.34
472.40	409.59
472.58	416.62
472.77	348.74
472.95	475.13
473.13	407.25
473.31	418.96
473.49	425.98
473.67	388.53
473.85	470.45
474.03	393.21
474.21	407.25
474.39	351.08
474.57	454.06
474.75	428.32
474.93	388.53
475.12	451.72
475.30	440.02
475.48	472.79
475.66	447.04
475.84	397.89
476.02	447.04
476.20	449.38
476.38	430.66
476.56	404.91
476.74	470.45
476.92	433.00
477.10	484.49
477.28	379.17
477.46	435.34
477.64	442.36
477.82	400.23
478.00	334.70
478.18	421.30
478.36	393.21
478.54	428.32
478.72	395.55
478.90	528.96
479.08	435.34
479.26	409.59
479.44	400.23
479.62	351.08
479.80	447.04
479.98	411.93
480.16	362.78
480.34	454.06
480.52	477.47
480.70	388.53
480.88	416.62
481.06	346.40
481.24	423.64
481.41	365.12
481.59	468.11
481.77	414.27
481.95	393.21
482.13	407.25
482.31	430.66
482.49	425.98
482.67	463.43
482.85	456.40
483.03	454.06
483.21	397.89
483.39	376.83
483.57	458.74
483.74	440.02
483.92	416.62
484.10	454.06
484.28	437.68
484.46	507.90
484.64	397.89
484.82	416.62
485.00	421.30
485.18	376.83
485.35	444.70
485.53	428.32
485.71	482.15
485.89	421.30
486.07	414.27
486.25	510.24
486.43	425.98
486.61	407.25
486.78	482.15
486.96	397.89
487.14	388.53
487.32	433.00
487.50	430.66
487.68	489.17
487.85	402.57
488.03	430.66
488.21	374.49
488.39	400.23
488.57	386.19
488.75	428.32
488.92	468.11
489.10	430.66
489.28	475.13
489.46	425.98
489.64	374.49
489.81	348.74
489.99	360.44
490.17	397.89
490.35	456.40
490.53	435.34
490.70	491.51
490.88	477.47
491.06	390.87
491.24	395.55
491.41	500.87
491.59	468.11
491.77	428.32
491.95	381.51
492.13	369.80
492.30	393.21
492.48	369.80
492.66	425.98
492.84	402.57
493.01	395.55
493.19	435.34
493.37	465.77
493.54	409.59
493.72	402.57
493.90	402.57
494.08	451.72
494.25	454.06
494.43	465.77
494.61	447.04
494.79	379.17
494.96	451.72
495.14	428.32
495.32	407.25
495.49	421.30
495.67	418.96
495.85	442.36
496.02	435.34
496.20	393.21
496.38	423.64
496.55	423.64
496.73	435.34
496.91	433.00
497.09	418.96
497.26	365.12
497.44	465.77
497.62	437.68
497.79	379.17
497.97	458.74
498.14	351.08
498.32	423.64
498.50	423.64
498.67	400.23
498.85	348.74
499.03	397.89
499.20	423.64
499.38	395.55
499.56	416.62
499.73	463.43
499.91	379.17
500.08	463.43
500.26	351.08
500.44	407.25
500.61	475.13
500.79	395.55
500.97	496.19
501.14	402.57
501.32	386.19
501.49	477.47
501.67	416.62
501.84	388.53
502.02	447.04
502.20	430.66
502.37	376.83
502.55	360.44
502.72	444.70
502.90	442.36
503.07	479.81
503.25	416.62
503.43	407.25
503.60	423.64
503.78	428.32
503.95	362.78
504.13	334.70
504.30	451.72
504.48	362.78
504.65	414.27
504.83	390.87
505.01	449.38
505.18	430.66
505.36	388.53
505.53	402.57
505.71	404.91
505.88	388.53
506.06	393.21
506.23	447.04
506.41	425.98
506.58	414.27
506.76	442.36
506.93	425.98
507.11	418.96
507.28	358.10
507.46	400.23
507.63	428.32
507.81	447.04
507.98	381.51
508.16	447.04
508.33	376.83
508.50	425.98
508.68	416.62
508.85	402.57
509.03	397.89
509.20	449.38
509.38	393.21
509.55	482.15
509.73	372.15
509.90	418.96
510.08	472.79
510.25	440.02
510.42	395.55
510.60	407.25
510.77	454.06
510.95	449.38
511.12	444.70
511.30	381.51
511.47	449.38
511.64	433.00
511.82	421.30
511.99	379.17
512.17	421.30
512.34	486.83
512.51	334.70
512.69	402.57
512.86	470.45
513.04	374.49
513.21	395.55
513.38	458.74
513.56	407.25
513.73	346.40
513.90	454.06
514.08	409.59
514.25	365.12
514.43	388.53
514.60	404.91
514.77	395.55
514.95	428.32
515.12	435.34
515.29	461.09
515.47	395.55
515.64	407.25
515.81	430.66
515.99	428.32
516.16	393.21
516.33	442.36
516.51	477.47
516.68	404.91
516.85	435.34
517.03	355.76
517.20	395.55
517.37	383.85
517.54	470.45
517.72	414.27
517.89	397.89
518.06	374.49
518.24	423.64
518.41	491.51
518.58	409.59
518.75	470.45
518.93	463.43
519.10	409.59
519.27	362.78
519.45	346.40
519.62	381.51
519.79	386.19
519.96	390.87
520.14	360.44
520.31	381.51
520.48	470.45
520.65	421.30
520.83	407.25
521.00	372.15
521.17	425.98
521.34	397.89
521.52	355.76
521.69	386.19
521.86	381.51
522.03	451.72
522.20	475.13
522.38	433.00
522.55	465.77
522.72	414.27
522.89	456.40
523.07	493.85
523.24	341.72
523.41	414.27
523.58	388.53
523.75	433.00
523.92	400.23
524.10	433.00
524.27	404.91
524.44	376.83
524.61	451.72
524.78	404.91
524.96	423.64
525.13	425.98
525.30	440.02
525.47	430.66
525.64	463.43
525.81	447.04
525.98	425.98
526.16	409.59
526.33	376.83
526.50	376.83
526.67	418.96
526.84	358.10
527.01	383.85
527.18	442.36
527.36	360.44
527.53	416.62
527.70	386.19
527.87	430.66
528.04	456.40
528.21	440.02
528.38	440.02
528.55	397.89
528.72	423.64
528.89	451.72
529.07	458.74
529.24	414.27
529.41	458.74
529.58	402.57
529.75	409.59
529.92	379.17
530.09	369.80
530.26	479.81
530.43	348.74
530.60	337.04
530.77	437.68
530.94	517.26
531.11	435.34
531.28	353.42
531.46	414.27
531.63	430.66
531.80	456.40
531.97	362.78
532.14	428.32
532.31	435.34
532.48	393.21
532.65	475.13
532.82	348.74
532.99	360.44
533.16	397.89
533.33	416.62
533.50	369.80
533.67	395.55
533.84	435.34
534.01	456.40
534.18	372.15
534.35	381.51
534.52	414.27
534.69	365.12
534.86	407.25
535.03	465.77
535.20	425.98
535.37	456.40
535.54	449.38
535.71	440.02
535.88	421.30
536.05	407.25
536.22	444.70
536.38	526.62
536.55	444.70
536.72	397.89
536.89	400.23
537.06	393.21
537.23	409.59
537.40	421.30
537.57	425.98
537.74	514.92
537.91	444.70
538.08	327.68
538.25	437.68
538.42	386.19
538.59	411.93
538.75	374.49
538.92	353.42
539.09	393.21
539.26	418.96
539.43	437.68
539.60	454.06
539.77	369.80
539.94	388.53
540.11	475.13
540.28	442.36
540.44	468.11
540.61	376.83
540.78	444.70
540.95	353.42
541.12	430.66
541.29	456.40
541.46	470.45
541.62	433.00
541.79	435.34
541.96	458.74
542.13	409.59
542.30	374.49
542.47	400.23
542.63	388.53
542.80	381.51
542.97	423.64
543.14	442.36
543.31	461.09
543.48	423.64
543.64	477.47
543.81	390.87
543.98	409.59
544.15	407.25
544.32	411.93
544.48	379.17
544.65	386.19
544.82	360.44
544.99	435.34
545.16	421.30
545.32	463.43
545.49	381.51
545.66	397.89
545.83	330.02
546.00	369.80
546.16	390.87
546.33	383.85
546.50	454.06
546.67	442.36
546.83	454.06
547.00	461.09
547.17	386.19
547.34	355.76
547.50	433.00
547.67	425.98
547.84	421.30
548.00	416.62
548.17	458.74
548.34	402.57
548.51	369.80
548.67	397.89
548.84	388.53
549.01	407.25
549.18	433.00
549.34	346.40
549.51	421.30
549.68	425.98
549.84	379.17
550.01	381.51
550.18	442.36
550.34	510.24
550.51	344.06
550.68	472.79
550.84	414.27
551.01	428.32
551.18	416.62
551.34	444.70
551.51	433.00
551.68	416.62
551.84	407.25
552.01	444.70
552.18	402.57
552.34	440.02
552.51	428.32
552.68	421.30
552.84	369.80
553.01	409.59
553.18	437.68
553.34	409.59
553.51	437.68
553.67	479.81
553.84	444.70
554.01	461.09
554.17	484.49
554.34	414.27
554.51	491.51
554.67	416.62
554.84	416.62
555.00	339.38
555.17	400.23
555.33	428.32
555.50	416.62
555.67	425.98
555.83	458.74
556.00	383.85
556.16	409.59
556.33	449.38
556.50	362.78
556.66	416.62
556.83	442.36
556.99	425.98
557.16	397.89
557.32	433.00
557.49	355.76
557.65	351.08
557.82	362.78
557.98	397.89
558.15	374.49
558.32	482.15
558.48	400.23
558.65	365.12
558.81	395.55
558.98	360.44
559.14	425.98
559.31	458.74
559.47	369.80
559.64	425.98
559.80	414.27
559.97	400.23
560.13	402.57
560.30	433.00
560.46	411.93
560.63	407.25
560.79	454.06
560.96	433.00
561.12	395.55
561.29	376.83
561.45	454.06
561.61	367.46
561.78	447.04
561.94	395.55
562.11	407.25
562.27	472.79
562.44	418.96
562.60	421.30
562.77	433.00
562.93	475.13
563.10	395.55
563.26	400.23
563.42	440.02
563.59	444.70
563.75	348.74
563.92	435.34
564.08	423.64
564.24	461.09
564.41	400.23
564.57	360.44
564.74	383.85
564.90	423.64
565.07	400.23
565.23	425.98
565.39	416.62
565.56	454.06
565.72	444.70
565.88	386.19
566.05	454.06
566.21	456.40
566.38	486.83
566.54	428.32
566.70	454.06
566.87	348.74
567.03	421.30
567.19	360.44
567.36	400.23
567.52	409.59
567.68	423.64
567.85	456.40
568.01	433.00
568.17	475.13
568.34	421.30
568.50	379.17
568.66	379.17
568.83	437.68
568.99	393.21
569.15	458.74
569.32	404.91
569.48	402.57
569.64	444.70
569.81	369.80
569.97	367.46
570.13	416.62
570.30	374.49
570.46	407.25
570.62	369.80
570.78	362.78
570.95	376.83
571.11	430.66
571.27	414.27
571.43	409.59
571.60	451.72
571.76	442.36
571.92	451.72
572.09	374.49
572.25	400.23
572.41	402.57
572.57	512.58
572.74	461.09
572.90	428.32
573.06	383.85
573.22	498.53
573.38	425.98
573.55	383.85
573.71	472.79
573.87	404.91
574.03	414.27
574.20	393.21
574.36	423.64
574.52	430.66
574.68	407.25
574.84	428.32
575.01	388.53
575.17	435.34
575.33	437.68
575.49	395.55
575.65	411.93
575.82	437.68
575.98	461.09
576.14	381.51
576.30	430.66
576.46	388.53
576.62	437.68
576.79	437.68
576.95	493.85
577.11	433.00
577.27	449.38
577.43	451.72
577.59	447.04
577.75	365.12
577.92	442.36
578.08	425.98
578.24	381.51
578.40	458.74
578.56	514.92
578.72	425.98
578.88	461.09
579.04	447.04
579.21	379.17
579.37	430.66
579.53	437.68
579.69	468.11
579.85	334.70
580.01	503.22
580.17	456.40
580.33	489.17
580.49	418.96
580.65	383.85
580.82	447.04
580.98	458.74
581.14	444.70
581.30	486.83
581.46	463.43
581.62	425.98
581.78	409.59
581.94	395.55
582.10	437.68
582.26	423.64
582.42	454.06
582.58	360.44
582.74	409.59
582.90	442.36
583.06	456.40
583.22	475.13
583.38	425.98
583.54	447.04
583.70	430.66
583.86	458.74
584.02	365.12
584.18	440.02
584.34	411.93
584.50	351.08
584.66	341.72
584.82	458.74
584.98	463.43
585.14	477.47
585.30	313.63
585.46	393.21
585.62	430.66
585.78	425.98
585.94	454.06
586.10	468.11
586.26	344.06
586.42	463.43
586.58	423.64
586.74	496.19
586.90	423.64
587.06	477.47
587.22	444.70
587.38	437.68
587.54	440.02
587.70	456.40
587.86	465.77
588.02	407.25
588.18	407.25
588.34	477.47
588.49	358.10
588.65	451.72
588.81	411.93
588.97	484.49
589.13	451.72
589.29	430.66
589.45	407.25
589.61	407.25
589.77	505.56
589.93	465.77
590.08	444.70
590.24	437.68
590.40	449.38
590.56	421.30
590.72	383.85
590.88	407.25
591.04	390.87
591.20	433.00
591.35	442.36
591.51	407.25
591.67	374.49
591.83	341.72
591.99	447.04
592.15	472.79
592.31	428.32
592.46	437.68
592.62	440.02
592.78	475.13
592.94	442.36
593.10	393.21
593.26	440.02
593.41	435.34
593.57	395.55
593.73	390.87
593.89	416.62
594.05	463.43
594.20	475.13
594.36	372.15
594.52	330.02
594.68	430.66
594.84	414.27
594.99	477.47
595.15	421.30
595.31	418.96
595.47	498.53
595.62	402.57
595.78	409.59
595.94	465.77
596.10	360.44
596.25	489.17
596.41	409.59
596.57	456.40
596.73	414.27
596.88	400.23
597.04	386.19
597.20	433.00
597.36	472.79
597.51	402.57
597.67	397.89
597.83	372.15
597.99	421.30
598.14	351.08
598.30	463.43
598.46	416.62
598.61	444.70
598.77	416.62
598.93	395.55
599.09	451.72
599.24	430.66
599.40	362.78
599.56	383.85
599.71	444.70
599.87	369.80
600.03	507.90
600.18	440.02
600.34	381.51
600.50	397.89
600.65	423.64
600.81	482.15
600.97	414.27
601.12	425.98
601.28	461.09
601.44	449.38
601.59	386.19
601.75	381.51
601.91	430.66
602.06	367.46
602.22	461.09
602.37	409.59
602.53	390.87
602.69	414.27
602.84	360.44
603.00	397.89
603.16	477.47
603.31	428.32
603.47	372.15
603.62	381.51
603.78	362.78
603.94	451.72
604.09	397.89
604.25	465.77
604.40	458.74
604.56	437.68
604.71	400.23
604.87	358.10
605.03	430.66
605.18	442.36
605.34	421.30
605.49	407.25
605.65	418.96
605.80	320.65
605.96	409.59
606.12	433.00
606.27	463.43
606.43	428.32
606.58	449.38
606.74	351.08
606.89	376.83
607.05	449.38
607.20	411.93
607.36	416.62
607.51	395.55
607.67	409.59
607.82	374.49
607.98	454.06
608.13	395.55
608.29	393.21
608.44	402.57
608.60	423.64
608.75	411.93
608.91	393.21
609.06	344.06
609.22	489.17
609.37	402.57
609.53	397.89
609.68	404.91
609.84	416.62
609.99	400.23
610.15	393.21
