SpectraSuite Data File
++++++++++++++++++++++++++++++++++++
Date: Fri Oct 25 12:10:46 EDT 2013
User: price-jones
Dark Spectrum Present: No
Reference Spectrum Present: No
Number of Sampled Component Spectra: 1
Spectrometers: USB2+H05261
Integration Time (usec): 100000 (USB2+H05261)
Spectra Averaged: 1 (USB2+H05261)
Boxcar Smoothing: 0 (USB2+H05261)
Correct for Electrical Dark: No (USB2+H05261)
Strobe/Lamp Enabled: No (USB2+H05261)
Correct for Detector Non-linearity: No (USB2+H05261)
Correct for Stray Light: No (USB2+H05261)
Number of Pixels in Processed Spectrum: 2048
>>>>>Begin Processed Spectral Data<<<<<
365.73	344.06
365.92	344.06
366.12	344.06
366.32	276.18
366.52	208.31
366.72	227.03
366.91	227.03
367.11	294.91
367.31	210.65
367.51	259.80
367.70	220.01
367.90	273.84
368.10	238.73
368.30	271.50
368.49	255.12
368.69	271.50
368.89	250.44
369.09	280.86
369.28	269.16
369.48	262.14
369.68	325.33
369.87	252.78
370.07	301.93
370.27	327.68
370.47	311.29
370.66	360.44
370.86	369.80
371.06	411.93
371.25	358.10
371.45	397.89
371.65	430.66
371.84	393.21
372.04	411.93
372.24	423.64
372.44	437.68
372.63	407.25
372.83	411.93
373.03	449.38
373.22	400.23
373.42	379.17
373.62	416.62
373.81	428.32
374.01	402.57
374.21	404.91
374.40	479.81
374.60	524.28
374.79	407.25
374.99	383.85
375.19	367.46
375.38	484.49
375.58	430.66
375.78	381.51
375.97	472.79
376.17	491.51
376.37	472.79
376.56	421.30
376.76	376.83
376.95	437.68
377.15	489.17
377.35	428.32
377.54	451.72
377.74	404.91
377.93	425.98
378.13	433.00
378.33	418.96
378.52	498.53
378.72	444.70
378.91	465.77
379.11	360.44
379.31	409.59
379.50	337.04
379.70	428.32
379.89	355.76
380.09	334.70
380.28	463.43
380.48	430.66
380.68	442.36
380.87	400.23
381.07	383.85
381.26	386.19
381.46	433.00
381.65	416.62
381.85	386.19
382.04	414.27
382.24	449.38
382.43	367.46
382.63	435.34
382.83	444.70
383.02	468.11
383.22	451.72
383.41	379.17
383.61	360.44
383.80	465.77
384.00	414.27
384.19	411.93
384.39	430.66
384.58	376.83
384.78	351.08
384.97	414.27
385.17	346.40
385.36	423.64
385.56	411.93
385.75	407.25
385.95	395.55
386.14	500.87
386.34	372.15
386.53	430.66
386.72	428.32
386.92	454.06
387.11	461.09
387.31	400.23
387.50	407.25
387.70	414.27
387.89	330.02
388.09	400.23
388.28	402.57
388.48	430.66
388.67	482.15
388.86	318.31
389.06	461.09
389.25	430.66
389.45	421.30
389.64	470.45
389.84	493.85
390.03	416.62
390.22	414.27
390.42	418.96
390.61	421.30
390.81	496.19
391.00	353.42
391.19	468.11
391.39	383.85
391.58	503.22
391.78	430.66
391.97	430.66
392.16	463.43
392.36	475.13
392.55	351.08
392.75	362.78
392.94	397.89
393.13	416.62
393.33	447.04
393.52	430.66
393.71	430.66
393.91	353.42
394.10	393.21
394.29	411.93
394.49	449.38
394.68	397.89
394.88	442.36
395.07	369.80
395.26	435.34
395.46	423.64
395.65	519.60
395.84	456.40
396.04	477.47
396.23	397.89
396.42	372.15
396.62	425.98
396.81	458.74
397.00	451.72
397.19	430.66
397.39	425.98
397.58	463.43
397.77	404.91
397.97	414.27
398.16	388.53
398.35	383.85
398.55	355.76
398.74	400.23
398.93	461.09
399.12	388.53
399.32	372.15
399.51	355.76
399.70	351.08
399.90	454.06
400.09	425.98
400.28	428.32
400.47	388.53
400.67	374.49
400.86	444.70
401.05	440.02
401.24	440.02
401.44	386.19
401.63	437.68
401.82	358.10
402.01	383.85
402.21	440.02
402.40	416.62
402.59	463.43
402.78	482.15
402.97	482.15
403.17	414.27
403.36	425.98
403.55	461.09
403.74	353.42
403.93	362.78
404.13	498.53
404.32	362.78
404.51	381.51
404.70	376.83
404.89	425.98
405.09	517.26
405.28	430.66
405.47	369.80
405.66	421.30
405.85	493.85
406.05	475.13
406.24	379.17
406.43	425.98
406.62	369.80
406.81	479.81
407.00	423.64
407.20	388.53
407.39	416.62
407.58	348.74
407.77	372.15
407.96	374.49
408.15	402.57
408.34	482.15
408.54	383.85
408.73	442.36
408.92	425.98
409.11	407.25
409.30	386.19
409.49	435.34
409.68	425.98
409.87	386.19
410.07	409.59
410.26	454.06
410.45	402.57
410.64	379.17
410.83	418.96
411.02	414.27
411.21	423.64
411.40	409.59
411.59	444.70
411.78	463.43
411.98	407.25
412.17	444.70
412.36	404.91
412.55	435.34
412.74	418.96
412.93	428.32
413.12	423.64
413.31	346.40
413.50	409.59
413.69	411.93
413.88	458.74
414.07	463.43
414.26	390.87
414.45	409.59
414.64	388.53
414.83	348.74
415.02	318.31
415.22	383.85
415.41	393.21
415.60	365.12
415.79	374.49
415.98	395.55
416.17	388.53
416.36	358.10
416.55	400.23
416.74	395.55
416.93	447.04
417.12	390.87
417.31	390.87
417.50	397.89
417.69	470.45
417.88	393.21
418.07	447.04
418.26	409.59
418.45	461.09
418.64	414.27
418.83	407.25
419.02	449.38
419.21	388.53
419.39	425.98
419.58	351.08
419.77	428.32
419.96	402.57
420.15	421.30
420.34	461.09
420.53	440.02
420.72	500.87
420.91	409.59
421.10	442.36
421.29	409.59
421.48	386.19
421.67	430.66
421.86	409.59
422.05	402.57
422.24	397.89
422.43	435.34
422.61	489.17
422.80	402.57
422.99	435.34
423.18	404.91
423.37	416.62
423.56	355.76
423.75	465.77
423.94	421.30
424.13	416.62
424.32	386.19
424.50	430.66
424.69	386.19
424.88	425.98
425.07	383.85
425.26	447.04
425.45	433.00
425.64	390.87
425.83	381.51
426.01	423.64
426.20	421.30
426.39	421.30
426.58	407.25
426.77	414.27
426.96	423.64
427.15	444.70
427.33	461.09
427.52	365.12
427.71	313.63
427.90	486.83
428.09	428.32
428.28	404.91
428.46	362.78
428.65	421.30
428.84	449.38
429.03	423.64
429.22	397.89
429.40	407.25
429.59	447.04
429.78	440.02
429.97	409.59
430.16	449.38
430.34	383.85
430.53	381.51
430.72	360.44
430.91	425.98
431.10	409.59
431.28	334.70
431.47	440.02
431.66	484.49
431.85	390.87
432.03	388.53
432.22	400.23
432.41	433.00
432.60	423.64
432.79	397.89
432.97	374.49
433.16	456.40
433.35	374.49
433.54	381.51
433.72	421.30
433.91	369.80
434.10	353.42
434.28	414.27
434.47	440.02
434.66	388.53
434.85	418.96
435.03	367.46
435.22	421.30
435.41	397.89
435.59	411.93
435.78	414.27
435.97	358.10
436.16	423.64
436.34	362.78
436.53	407.25
436.72	395.55
436.90	430.66
437.09	411.93
437.28	423.64
437.46	498.53
437.65	437.68
437.84	472.79
438.02	433.00
438.21	444.70
438.40	381.51
438.58	425.98
438.77	465.77
438.96	428.32
439.14	409.59
439.33	360.44
439.52	444.70
439.70	425.98
439.89	435.34
440.08	428.32
440.26	411.93
440.45	437.68
440.63	409.59
440.82	367.46
441.01	346.40
441.19	409.59
441.38	381.51
441.57	449.38
441.75	430.66
441.94	365.12
442.12	433.00
442.31	407.25
442.50	397.89
442.68	332.36
442.87	458.74
443.05	379.17
443.24	411.93
443.43	407.25
443.61	468.11
443.80	397.89
443.98	411.93
444.17	440.02
444.35	463.43
444.54	423.64
444.73	411.93
444.91	482.15
445.10	437.68
445.28	458.74
445.47	386.19
445.65	442.36
445.84	449.38
446.02	428.32
446.21	433.00
446.39	362.78
446.58	397.89
446.77	458.74
446.95	421.30
447.14	435.34
447.32	461.09
447.51	444.70
447.69	425.98
447.88	404.91
448.06	414.27
448.25	383.85
448.43	397.89
448.62	409.59
448.80	456.40
448.99	451.72
449.17	395.55
449.36	414.27
449.54	521.94
449.73	400.23
449.91	358.10
450.10	404.91
450.28	444.70
450.46	407.25
450.65	395.55
450.83	421.30
451.02	353.42
451.20	477.47
451.39	468.11
451.57	477.47
451.76	440.02
451.94	461.09
452.13	435.34
452.31	447.04
452.49	376.83
452.68	451.72
452.86	465.77
453.05	437.68
453.23	414.27
453.42	388.53
453.60	411.93
453.78	383.85
453.97	397.89
454.15	461.09
454.34	362.78
454.52	433.00
454.70	528.96
454.89	416.62
455.07	400.23
455.26	414.27
455.44	409.59
455.62	362.78
455.81	393.21
455.99	400.23
456.17	416.62
456.36	428.32
456.54	369.80
456.73	337.04
456.91	430.66
457.09	442.36
457.28	404.91
457.46	442.36
457.64	444.70
457.83	414.27
458.01	414.27
458.19	379.17
458.38	379.17
458.56	383.85
458.74	308.95
458.93	337.04
459.11	433.00
459.29	376.83
459.48	376.83
459.66	456.40
459.84	449.38
460.03	493.85
460.21	390.87
460.39	374.49
460.57	440.02
460.76	358.10
460.94	402.57
461.12	430.66
461.31	498.53
461.49	386.19
461.67	346.40
461.85	447.04
462.04	447.04
462.22	767.70
462.40	433.00
462.59	444.70
462.77	470.45
462.95	484.49
463.13	482.15
463.32	435.34
463.50	365.12
463.68	376.83
463.86	395.55
464.05	304.27
464.23	428.32
464.41	411.93
464.59	376.83
464.78	486.83
464.96	383.85
465.14	447.04
465.32	374.49
465.50	423.64
465.69	407.25
465.87	400.23
466.05	433.00
466.23	461.09
466.41	404.91
466.60	430.66
466.78	531.30
466.96	472.79
467.14	472.79
467.32	461.09
467.51	423.64
467.69	465.77
467.87	416.62
468.05	458.74
468.23	407.25
468.41	397.89
468.60	456.40
468.78	458.74
468.96	414.27
469.14	416.62
469.32	386.19
469.50	486.83
469.69	372.15
469.87	379.17
470.05	418.96
470.23	437.68
470.41	444.70
470.59	423.64
470.77	397.89
470.95	404.91
471.14	454.06
471.32	414.27
471.50	440.02
471.68	454.06
471.86	461.09
472.04	456.40
472.22	449.38
472.40	414.27
472.58	383.85
472.77	454.06
472.95	393.21
473.13	425.98
473.31	348.74
473.49	437.68
473.67	484.49
473.85	475.13
474.03	402.57
474.21	449.38
474.39	461.09
474.57	477.47
474.75	465.77
474.93	402.57
475.12	386.19
475.30	365.12
475.48	337.04
475.66	433.00
475.84	344.06
476.02	346.40
476.20	465.77
476.38	418.96
476.56	430.66
476.74	402.57
476.92	381.51
477.10	416.62
477.28	388.53
477.46	360.44
477.64	407.25
477.82	444.70
478.00	311.29
478.18	472.79
478.36	482.15
478.54	472.79
478.72	362.78
478.90	339.38
479.08	433.00
479.26	395.55
479.44	435.34
479.62	437.68
479.80	379.17
479.98	411.93
480.16	404.91
480.34	402.57
480.52	390.87
480.70	411.93
480.88	369.80
481.06	360.44
481.24	440.02
481.41	404.91
481.59	397.89
481.77	421.30
481.95	383.85
482.13	411.93
482.31	381.51
482.49	414.27
482.67	418.96
482.85	411.93
483.03	458.74
483.21	449.38
483.39	381.51
483.57	374.49
483.74	463.43
483.92	416.62
484.10	360.44
484.28	449.38
484.46	425.98
484.64	376.83
484.82	388.53
485.00	362.78
485.18	447.04
485.35	440.02
485.53	376.83
485.71	369.80
485.89	433.00
486.07	379.17
486.25	390.87
486.43	421.30
486.61	421.30
486.78	435.34
486.96	369.80
487.14	402.57
487.32	428.32
487.50	407.25
487.68	430.66
487.85	454.06
488.03	386.19
488.21	470.45
488.39	472.79
488.57	414.27
488.75	390.87
488.92	517.26
489.10	437.68
489.28	423.64
489.46	404.91
489.64	407.25
489.81	447.04
489.99	325.33
490.17	433.00
490.35	533.64
490.53	388.53
490.70	369.80
490.88	430.66
491.06	313.63
491.24	421.30
491.41	428.32
491.59	421.30
491.77	433.00
491.95	386.19
492.13	348.74
492.30	313.63
492.48	435.34
492.66	428.32
492.84	468.11
493.01	393.21
493.19	411.93
493.37	456.40
493.54	383.85
493.72	383.85
493.90	362.78
494.08	416.62
494.25	407.25
494.43	414.27
494.61	383.85
494.79	409.59
494.96	348.74
495.14	472.79
495.32	395.55
495.49	463.43
495.67	393.21
495.85	397.89
496.02	425.98
496.20	383.85
496.38	388.53
496.55	411.93
496.73	374.49
496.91	360.44
497.09	390.87
497.26	400.23
497.44	435.34
497.62	423.64
497.79	402.57
497.97	449.38
498.14	456.40
498.32	381.51
498.50	461.09
498.67	447.04
498.85	425.98
499.03	404.91
499.20	470.45
499.38	423.64
499.56	400.23
499.73	369.80
499.91	418.96
500.08	451.72
500.26	386.19
500.44	428.32
500.61	402.57
500.79	458.74
500.97	454.06
501.14	435.34
501.32	456.40
501.49	468.11
501.67	386.19
501.84	470.45
502.02	407.25
502.20	484.49
502.37	423.64
502.55	381.51
502.72	440.02
502.90	435.34
503.07	409.59
503.25	341.72
503.43	407.25
503.60	425.98
503.78	428.32
503.95	397.89
504.13	458.74
504.30	411.93
504.48	447.04
504.65	449.38
504.83	414.27
505.01	435.34
505.18	428.32
505.36	374.49
505.53	407.25
505.71	393.21
505.88	465.77
506.06	418.96
506.23	416.62
506.41	369.80
506.58	388.53
506.76	395.55
506.93	365.12
507.11	451.72
507.28	472.79
507.46	472.79
507.63	425.98
507.81	386.19
507.98	381.51
508.16	414.27
508.33	449.38
508.50	484.49
508.68	444.70
508.85	409.59
509.03	437.68
509.20	416.62
509.38	433.00
509.55	444.70
509.73	411.93
509.90	479.81
510.08	416.62
510.25	444.70
510.42	327.68
510.60	416.62
510.77	484.49
510.95	400.23
511.12	402.57
511.30	379.17
511.47	442.36
511.64	390.87
511.82	367.46
511.99	409.59
512.17	360.44
512.34	337.04
512.51	358.10
512.69	320.65
512.86	491.51
513.04	454.06
513.21	409.59
513.38	388.53
513.56	418.96
513.73	379.17
513.90	454.06
514.08	376.83
514.25	418.96
514.43	423.64
514.60	416.62
514.77	444.70
514.95	404.91
515.12	379.17
515.29	421.30
515.47	428.32
515.64	451.72
515.81	423.64
515.99	430.66
516.16	390.87
516.33	482.15
516.51	416.62
516.68	409.59
516.85	409.59
517.03	365.12
517.20	367.46
517.37	362.78
517.54	451.72
517.72	409.59
517.89	400.23
518.06	369.80
518.24	465.77
518.41	411.93
518.58	447.04
518.75	430.66
518.93	463.43
519.10	444.70
519.27	400.23
519.45	433.00
519.62	425.98
519.79	418.96
519.96	423.64
520.14	409.59
520.31	400.23
520.48	395.55
520.65	407.25
520.83	402.57
521.00	425.98
521.17	388.53
521.34	386.19
521.52	409.59
521.69	435.34
521.86	409.59
522.03	395.55
522.20	475.13
522.38	404.91
522.55	402.57
522.72	465.77
522.89	433.00
523.07	421.30
523.24	465.77
523.41	416.62
523.58	402.57
523.75	386.19
523.92	447.04
524.10	425.98
524.27	451.72
524.44	437.68
524.61	463.43
524.78	390.87
524.96	456.40
525.13	425.98
525.30	437.68
525.47	428.32
525.64	428.32
525.81	339.38
525.98	454.06
526.16	421.30
526.33	416.62
526.50	360.44
526.67	374.49
526.84	484.49
527.01	393.21
527.18	437.68
527.36	416.62
527.53	409.59
527.70	435.34
527.87	383.85
528.04	454.06
528.21	376.83
528.38	449.38
528.55	425.98
528.72	402.57
528.89	416.62
529.07	393.21
529.24	423.64
529.41	409.59
529.58	500.87
529.75	421.30
529.92	461.09
530.09	430.66
530.26	402.57
530.43	344.06
530.60	344.06
530.77	337.04
530.94	411.93
531.11	386.19
531.28	397.89
531.46	440.02
531.63	388.53
531.80	411.93
531.97	407.25
532.14	437.68
532.31	365.12
532.48	430.66
532.65	433.00
532.82	388.53
532.99	367.46
533.16	454.06
533.33	421.30
533.50	397.89
533.67	465.77
533.84	306.61
534.01	444.70
534.18	421.30
534.35	470.45
534.52	444.70
534.69	451.72
534.86	353.42
535.03	416.62
535.20	393.21
535.37	407.25
535.54	437.68
535.71	512.58
535.88	472.79
536.05	395.55
536.22	369.80
536.38	404.91
536.55	461.09
536.72	463.43
536.89	404.91
537.06	404.91
537.23	486.83
537.40	444.70
537.57	407.25
537.74	463.43
537.91	440.02
538.08	414.27
538.25	444.70
538.42	437.68
538.59	458.74
538.75	416.62
538.92	397.89
539.09	407.25
539.26	411.93
539.43	440.02
539.60	383.85
539.77	437.68
539.94	493.85
540.11	379.17
540.28	444.70
540.44	458.74
540.61	444.70
540.78	433.00
540.95	390.87
541.12	442.36
541.29	444.70
541.46	409.59
541.62	430.66
541.79	395.55
541.96	327.68
542.13	372.15
542.30	421.30
542.47	414.27
542.63	418.96
542.80	397.89
542.97	433.00
543.14	395.55
543.31	430.66
543.48	486.83
543.64	365.12
543.81	423.64
543.98	440.02
544.15	465.77
544.32	470.45
544.48	407.25
544.65	442.36
544.82	421.30
544.99	402.57
545.16	421.30
545.32	374.49
545.49	411.93
545.66	435.34
545.83	433.00
546.00	372.15
546.16	409.59
546.33	367.46
546.50	390.87
546.67	463.43
546.83	433.00
547.00	472.79
547.17	425.98
547.34	423.64
547.50	456.40
547.67	447.04
547.84	411.93
548.00	425.98
548.17	386.19
548.34	449.38
548.51	468.11
548.67	493.85
548.84	362.78
549.01	428.32
549.18	465.77
549.34	393.21
549.51	402.57
549.68	416.62
549.84	442.36
550.01	390.87
550.18	500.87
550.34	461.09
550.51	451.72
550.68	414.27
550.84	416.62
551.01	496.19
551.18	491.51
551.34	451.72
551.51	416.62
551.68	416.62
551.84	416.62
552.01	388.53
552.18	468.11
552.34	393.21
552.51	397.89
552.68	388.53
552.84	454.06
553.01	414.27
553.18	390.87
553.34	407.25
553.51	365.12
553.67	472.79
553.84	353.42
554.01	463.43
554.17	430.66
554.34	358.10
554.51	458.74
554.67	433.00
554.84	421.30
555.00	451.72
555.17	479.81
555.33	447.04
555.50	475.13
555.67	367.46
555.83	393.21
556.00	404.91
556.16	599.18
556.33	423.64
556.50	470.45
556.66	416.62
556.83	463.43
556.99	374.49
557.16	395.55
557.32	407.25
557.49	458.74
557.65	393.21
557.82	430.66
557.98	365.12
558.15	393.21
558.32	404.91
558.48	400.23
558.65	423.64
558.81	444.70
558.98	372.15
559.14	510.24
559.31	358.10
559.47	444.70
559.64	425.98
559.80	433.00
559.97	376.83
560.13	454.06
560.30	423.64
560.46	402.57
560.63	388.53
560.79	421.30
560.96	442.36
561.12	491.51
561.29	395.55
561.45	367.46
561.61	421.30
561.78	461.09
561.94	407.25
562.11	374.49
562.27	433.00
562.44	400.23
562.60	421.30
562.77	397.89
562.93	458.74
563.10	411.93
563.26	475.13
563.42	409.59
563.59	353.42
563.75	411.93
563.92	411.93
564.08	367.46
564.24	498.53
564.41	491.51
564.57	383.85
564.74	435.34
564.90	491.51
565.07	463.43
565.23	388.53
565.39	388.53
565.56	435.34
565.72	379.17
565.88	402.57
566.05	421.30
566.21	390.87
566.38	404.91
566.54	449.38
566.70	402.57
566.87	428.32
567.03	468.11
567.19	404.91
567.36	414.27
567.52	404.91
567.68	421.30
567.85	433.00
568.01	430.66
568.17	416.62
568.34	367.46
568.50	465.77
568.66	409.59
568.83	503.22
568.99	379.17
569.15	411.93
569.32	442.36
569.48	430.66
569.64	425.98
569.81	454.06
569.97	395.55
570.13	514.92
570.30	400.23
570.46	353.42
570.62	315.97
570.78	444.70
570.95	449.38
571.11	521.94
571.27	470.45
571.43	425.98
571.60	402.57
571.76	461.09
571.92	421.30
572.09	479.81
572.25	484.49
572.41	409.59
572.57	402.57
572.74	400.23
572.90	425.98
573.06	433.00
573.22	428.32
573.38	465.77
573.55	468.11
573.71	484.49
573.87	440.02
574.03	414.27
574.20	496.19
574.36	411.93
574.52	404.91
574.68	454.06
574.84	407.25
575.01	444.70
575.17	486.83
575.33	372.15
575.49	468.11
575.65	360.44
575.82	358.10
575.98	500.87
576.14	465.77
576.30	402.57
576.46	344.06
576.62	353.42
576.79	409.59
576.95	458.74
577.11	463.43
577.27	451.72
577.43	507.90
577.59	437.68
577.75	393.21
577.92	393.21
578.08	428.32
578.24	409.59
578.40	367.46
578.56	482.15
578.72	428.32
578.88	351.08
579.04	388.53
579.21	526.62
579.37	470.45
579.53	395.55
579.69	454.06
579.85	367.46
580.01	437.68
580.17	468.11
580.33	428.32
580.49	428.32
580.65	414.27
580.82	407.25
580.98	421.30
581.14	397.89
581.30	463.43
581.46	465.77
581.62	489.17
581.78	400.23
581.94	421.30
582.10	402.57
582.26	367.46
582.42	374.49
582.58	498.53
582.74	395.55
582.90	416.62
583.06	458.74
583.22	425.98
583.38	449.38
583.54	402.57
583.70	397.89
583.86	451.72
584.02	346.40
584.18	393.21
584.34	444.70
584.50	430.66
584.66	390.87
584.82	437.68
584.98	425.98
585.14	411.93
585.30	475.13
585.46	278.52
585.62	407.25
585.78	374.49
585.94	444.70
586.10	437.68
586.26	376.83
586.42	400.23
586.58	498.53
586.74	367.46
586.90	383.85
587.06	414.27
587.22	449.38
587.38	369.80
587.54	416.62
587.70	428.32
587.86	435.34
588.02	397.89
588.18	479.81
588.34	475.13
588.49	425.98
588.65	407.25
588.81	437.68
588.97	393.21
589.13	454.06
589.29	421.30
589.45	535.98
589.61	407.25
589.77	369.80
589.93	400.23
590.08	346.40
590.24	437.68
590.40	381.51
590.56	397.89
590.72	367.46
590.88	425.98
591.04	447.04
591.20	390.87
591.35	496.19
591.51	400.23
591.67	386.19
591.83	461.09
591.99	360.44
592.15	463.43
592.31	461.09
592.46	381.51
592.62	418.96
592.78	346.40
592.94	437.68
593.10	470.45
593.26	400.23
593.41	475.13
593.57	395.55
593.73	430.66
593.89	442.36
594.05	400.23
594.20	437.68
594.36	472.79
594.52	491.51
594.68	458.74
594.84	418.96
594.99	435.34
595.15	496.19
595.31	479.81
595.47	465.77
595.62	472.79
595.78	388.53
595.94	423.64
596.10	414.27
596.25	435.34
596.41	393.21
596.57	355.76
596.73	348.74
596.88	395.55
597.04	465.77
597.20	416.62
597.36	475.13
597.51	425.98
597.67	428.32
597.83	425.98
597.99	444.70
598.14	477.47
598.30	430.66
598.46	449.38
598.61	433.00
598.77	472.79
598.93	409.59
599.09	360.44
599.24	400.23
599.40	477.47
599.56	416.62
599.71	383.85
599.87	484.49
600.03	484.49
600.18	428.32
600.34	444.70
600.50	365.12
600.65	379.17
600.81	475.13
600.97	470.45
601.12	379.17
601.28	470.45
601.44	393.21
601.59	433.00
601.75	376.83
601.91	465.77
602.06	402.57
602.22	512.58
602.37	425.98
602.53	458.74
602.69	489.17
602.84	421.30
603.00	468.11
603.16	381.51
603.31	442.36
603.47	351.08
603.62	470.45
603.78	411.93
603.94	407.25
604.09	397.89
604.25	430.66
604.40	421.30
604.56	351.08
604.71	437.68
604.87	423.64
605.03	386.19
605.18	407.25
605.34	484.49
605.49	330.02
605.65	449.38
605.80	404.91
605.96	400.23
606.12	423.64
606.27	411.93
606.43	526.62
606.58	437.68
606.74	472.79
606.89	451.72
607.05	407.25
607.20	421.30
607.36	402.57
607.51	454.06
607.67	416.62
607.82	442.36
607.98	423.64
608.13	437.68
608.29	470.45
608.44	484.49
608.60	463.43
608.75	409.59
608.91	407.25
609.06	435.34
609.22	468.11
609.37	390.87
609.53	449.38
609.68	430.66
609.84	437.68
609.99	447.04
610.15	435.34
