SpectraSuite Data File
++++++++++++++++++++++++++++++++++++
Date: Fri Oct 25 12:10:54 EDT 2013
User: price-jones
Dark Spectrum Present: No
Reference Spectrum Present: No
Number of Sampled Component Spectra: 1
Spectrometers: USB2+H05261
Integration Time (usec): 100000 (USB2+H05261)
Spectra Averaged: 1 (USB2+H05261)
Boxcar Smoothing: 0 (USB2+H05261)
Correct for Electrical Dark: No (USB2+H05261)
Strobe/Lamp Enabled: No (USB2+H05261)
Correct for Detector Non-linearity: No (USB2+H05261)
Correct for Stray Light: No (USB2+H05261)
Number of Pixels in Processed Spectrum: 2048
>>>>>Begin Processed Spectral Data<<<<<
365.73	358.10
365.92	358.10
366.12	358.10
366.32	224.69
366.52	215.33
366.72	224.69
366.91	266.82
367.11	231.71
367.31	320.65
367.51	320.65
367.70	231.71
367.90	276.18
368.10	311.29
368.30	201.29
368.49	187.24
368.69	341.72
368.89	245.76
369.09	339.38
369.28	287.89
369.48	337.04
369.68	224.69
369.87	348.74
370.07	297.25
370.27	308.95
370.47	404.91
370.66	355.76
370.86	353.42
371.06	433.00
371.25	390.87
371.45	285.55
371.65	344.06
371.84	337.04
372.04	411.93
372.24	383.85
372.44	337.04
372.63	425.98
372.83	451.72
373.03	425.98
373.22	386.19
373.42	353.42
373.62	418.96
373.81	435.34
374.01	447.04
374.21	447.04
374.40	440.02
374.60	369.80
374.79	344.06
374.99	395.55
375.19	479.81
375.38	442.36
375.58	402.57
375.78	425.98
375.97	421.30
376.17	397.89
376.37	407.25
376.56	421.30
376.76	360.44
376.95	372.15
377.15	393.21
377.35	374.49
377.54	421.30
377.74	402.57
377.93	433.00
378.13	381.51
378.33	414.27
378.52	430.66
378.72	425.98
378.91	433.00
379.11	461.09
379.31	454.06
379.50	383.85
379.70	409.59
379.89	423.64
380.09	390.87
380.28	327.68
380.48	395.55
380.68	376.83
380.87	388.53
381.07	369.80
381.26	367.46
381.46	318.31
381.65	409.59
381.85	409.59
382.04	418.96
382.24	418.96
382.43	400.23
382.63	395.55
382.83	411.93
383.02	395.55
383.22	447.04
383.41	362.78
383.61	442.36
383.80	381.51
384.00	376.83
384.19	388.53
384.39	421.30
384.58	327.68
384.78	409.59
384.97	444.70
385.17	444.70
385.36	360.44
385.56	374.49
385.75	315.97
385.95	404.91
386.14	397.89
386.34	330.02
386.53	433.00
386.72	418.96
386.92	435.34
387.11	496.19
387.31	418.96
387.50	416.62
387.70	390.87
387.89	505.56
388.09	379.17
388.28	322.99
388.48	402.57
388.67	444.70
388.86	409.59
389.06	397.89
389.25	444.70
389.45	381.51
389.64	407.25
389.84	397.89
390.03	409.59
390.22	400.23
390.42	414.27
390.61	421.30
390.81	390.87
391.00	372.15
391.19	418.96
391.39	372.15
391.58	447.04
391.78	421.30
391.97	437.68
392.16	440.02
392.36	400.23
392.55	395.55
392.75	390.87
392.94	400.23
393.13	393.21
393.33	442.36
393.52	404.91
393.71	430.66
393.91	360.44
394.10	362.78
394.29	421.30
394.49	425.98
394.68	379.17
394.88	423.64
395.07	449.38
395.26	440.02
395.46	442.36
395.65	418.96
395.84	369.80
396.04	409.59
396.23	423.64
396.42	428.32
396.62	351.08
396.81	379.17
397.00	435.34
397.19	393.21
397.39	278.52
397.58	376.83
397.77	437.68
397.97	437.68
398.16	362.78
398.35	461.09
398.55	393.21
398.74	451.72
398.93	407.25
399.12	379.17
399.32	395.55
399.51	456.40
399.70	411.93
399.90	395.55
400.09	388.53
400.28	367.46
400.47	449.38
400.67	418.96
400.86	425.98
401.05	414.27
401.24	374.49
401.44	425.98
401.63	400.23
401.82	393.21
402.01	447.04
402.21	411.93
402.40	400.23
402.59	430.66
402.78	374.49
402.97	395.55
403.17	482.15
403.36	395.55
403.55	365.12
403.74	409.59
403.93	348.74
404.13	395.55
404.32	393.21
404.51	344.06
404.70	393.21
404.89	388.53
405.09	400.23
405.28	442.36
405.47	484.49
405.66	477.47
405.85	433.00
406.05	414.27
406.24	397.89
406.43	290.23
406.62	458.74
406.81	423.64
407.00	411.93
407.20	428.32
407.39	421.30
407.58	421.30
407.77	423.64
407.96	442.36
408.15	402.57
408.34	416.62
408.54	365.12
408.73	447.04
408.92	442.36
409.11	463.43
409.30	430.66
409.49	395.55
409.68	421.30
409.87	402.57
410.07	421.30
410.26	407.25
410.45	423.64
410.64	449.38
410.83	388.53
411.02	423.64
411.21	449.38
411.40	372.15
411.59	472.79
411.78	484.49
411.98	386.19
412.17	433.00
412.36	404.91
412.55	482.15
412.74	440.02
412.93	397.89
413.12	456.40
413.31	479.81
413.50	463.43
413.69	414.27
413.88	435.34
414.07	416.62
414.26	362.78
414.45	334.70
414.64	353.42
414.83	411.93
415.02	425.98
415.22	433.00
415.41	372.15
415.60	475.13
415.79	397.89
415.98	393.21
416.17	468.11
416.36	369.80
416.55	372.15
416.74	395.55
416.93	334.70
417.12	428.32
417.31	428.32
417.50	397.89
417.69	454.06
417.88	404.91
418.07	404.91
418.26	423.64
418.45	400.23
418.64	414.27
418.83	395.55
419.02	456.40
419.21	409.59
419.39	397.89
419.58	397.89
419.77	428.32
419.96	418.96
420.15	475.13
420.34	397.89
420.53	477.47
420.72	454.06
420.91	421.30
421.10	433.00
421.29	374.49
421.48	423.64
421.67	444.70
421.86	423.64
422.05	414.27
422.24	376.83
422.43	414.27
422.61	388.53
422.80	468.11
422.99	337.04
423.18	428.32
423.37	407.25
423.56	402.57
423.75	397.89
423.94	388.53
424.13	402.57
424.32	444.70
424.50	372.15
424.69	337.04
424.88	383.85
425.07	437.68
425.26	519.60
425.45	447.04
425.64	414.27
425.83	355.76
426.01	374.49
426.20	510.24
426.39	388.53
426.58	395.55
426.77	404.91
426.96	421.30
427.15	458.74
427.33	425.98
427.52	390.87
427.71	372.15
427.90	414.27
428.09	423.64
428.28	358.10
428.46	358.10
428.65	484.49
428.84	428.32
429.03	435.34
429.22	334.70
429.40	374.49
429.59	458.74
429.78	365.12
429.97	437.68
430.16	437.68
430.34	447.04
430.53	402.57
430.72	416.62
430.91	416.62
431.10	390.87
431.28	393.21
431.47	463.43
431.66	428.32
431.85	430.66
432.03	414.27
432.22	421.30
432.41	379.17
432.60	479.81
432.79	411.93
432.97	374.49
433.16	475.13
433.35	390.87
433.54	500.87
433.72	379.17
433.91	477.47
434.10	404.91
434.28	404.91
434.47	362.78
434.66	393.21
434.85	374.49
435.03	430.66
435.22	493.85
435.41	388.53
435.59	383.85
435.78	379.17
435.97	407.25
436.16	393.21
436.34	411.93
436.53	409.59
436.72	395.55
436.90	463.43
437.09	428.32
437.28	381.51
437.46	393.21
437.65	435.34
437.84	433.00
438.02	470.45
438.21	421.30
438.40	404.91
438.58	423.64
438.77	444.70
438.96	449.38
439.14	482.15
439.33	423.64
439.52	489.17
439.70	402.57
439.89	428.32
440.08	468.11
440.26	407.25
440.45	447.04
440.63	355.76
440.82	381.51
441.01	433.00
441.19	379.17
441.38	442.36
441.57	362.78
441.75	447.04
441.94	484.49
442.12	468.11
442.31	348.74
442.50	444.70
442.68	379.17
442.87	468.11
443.05	379.17
443.24	505.56
443.43	407.25
443.61	440.02
443.80	407.25
443.98	381.51
444.17	414.27
444.35	458.74
444.54	463.43
444.73	346.40
444.91	447.04
445.10	383.85
445.28	430.66
445.47	416.62
445.65	430.66
445.84	454.06
446.02	376.83
446.21	430.66
446.39	461.09
446.58	369.80
446.77	397.89
446.95	456.40
447.14	423.64
447.32	463.43
447.51	397.89
447.69	409.59
447.88	435.34
448.06	433.00
448.25	533.64
448.43	374.49
448.62	423.64
448.80	388.53
448.99	379.17
449.17	397.89
449.36	444.70
449.54	470.45
449.73	383.85
449.91	386.19
450.10	454.06
450.28	463.43
450.46	393.21
450.65	425.98
450.83	475.13
451.02	383.85
451.20	362.78
451.39	451.72
451.57	404.91
451.76	397.89
451.94	386.19
452.13	433.00
452.31	430.66
452.49	461.09
452.68	379.17
452.86	379.17
453.05	411.93
453.23	409.59
453.42	367.46
453.60	402.57
453.78	374.49
453.97	348.74
454.15	404.91
454.34	472.79
454.52	435.34
454.70	465.77
454.89	444.70
455.07	409.59
455.26	435.34
455.44	449.38
455.62	381.51
455.81	470.45
455.99	470.45
456.17	411.93
456.36	465.77
456.54	458.74
456.73	418.96
456.91	456.40
457.09	425.98
457.28	468.11
457.46	440.02
457.64	451.72
457.83	402.57
458.01	428.32
458.19	440.02
458.38	409.59
458.56	477.47
458.74	400.23
458.93	416.62
459.11	386.19
459.29	388.53
459.48	376.83
459.66	444.70
459.84	423.64
460.03	524.28
460.21	451.72
460.39	379.17
460.57	397.89
460.76	414.27
460.94	395.55
461.12	458.74
461.31	449.38
461.49	402.57
461.67	440.02
461.85	372.15
462.04	416.62
462.22	772.38
462.40	402.57
462.59	456.40
462.77	421.30
462.95	421.30
463.13	360.44
463.32	521.94
463.50	428.32
463.68	376.83
463.86	442.36
464.05	442.36
464.23	407.25
464.41	475.13
464.59	454.06
464.78	341.72
464.96	393.21
465.14	458.74
465.32	386.19
465.50	397.89
465.69	440.02
465.87	404.91
466.05	386.19
466.23	397.89
466.41	447.04
466.60	463.43
466.78	383.85
466.96	358.10
467.14	451.72
467.32	435.34
467.51	482.15
467.69	404.91
467.87	440.02
468.05	411.93
468.23	435.34
468.41	386.19
468.60	454.06
468.78	402.57
468.96	390.87
469.14	388.53
469.32	437.68
469.50	449.38
469.69	416.62
469.87	400.23
470.05	435.34
470.23	421.30
470.41	395.55
470.59	433.00
470.77	423.64
470.95	414.27
471.14	437.68
471.32	372.15
471.50	500.87
471.68	330.02
471.86	393.21
472.04	379.17
472.22	369.80
472.40	397.89
472.58	374.49
472.77	409.59
472.95	386.19
473.13	524.28
473.31	409.59
473.49	358.10
473.67	327.68
473.85	472.79
474.03	461.09
474.21	414.27
474.39	374.49
474.57	423.64
474.75	496.19
474.93	430.66
475.12	381.51
475.30	430.66
475.48	465.77
475.66	461.09
475.84	353.42
476.02	449.38
476.20	423.64
476.38	379.17
476.56	463.43
476.74	369.80
476.92	421.30
477.10	470.45
477.28	346.40
477.46	428.32
477.64	404.91
477.82	414.27
478.00	475.13
478.18	407.25
478.36	435.34
478.54	428.32
478.72	423.64
478.90	407.25
479.08	461.09
479.26	411.93
479.44	358.10
479.62	365.12
479.80	425.98
479.98	404.91
480.16	383.85
480.34	461.09
480.52	442.36
480.70	404.91
480.88	353.42
481.06	442.36
481.24	360.44
481.41	397.89
481.59	458.74
481.77	447.04
481.95	449.38
482.13	409.59
482.31	477.47
482.49	442.36
482.67	430.66
482.85	388.53
483.03	451.72
483.21	395.55
483.39	470.45
483.57	440.02
483.74	493.85
483.92	397.89
484.10	442.36
484.28	440.02
484.46	458.74
484.64	451.72
484.82	437.68
485.00	409.59
485.18	435.34
485.35	416.62
485.53	449.38
485.71	484.49
485.89	372.15
486.07	433.00
486.25	409.59
486.43	447.04
486.61	425.98
486.78	402.57
486.96	381.51
487.14	435.34
487.32	465.77
487.50	395.55
487.68	461.09
487.85	454.06
488.03	379.17
488.21	486.83
488.39	376.83
488.57	444.70
488.75	421.30
488.92	510.24
489.10	451.72
489.28	407.25
489.46	402.57
489.64	479.81
489.81	421.30
489.99	437.68
490.17	421.30
490.35	496.19
490.53	425.98
490.70	421.30
490.88	472.79
491.06	437.68
491.24	430.66
491.41	402.57
491.59	521.94
491.77	362.78
491.95	358.10
492.13	428.32
492.30	327.68
492.48	369.80
492.66	444.70
492.84	444.70
493.01	416.62
493.19	423.64
493.37	435.34
493.54	433.00
493.72	458.74
493.90	430.66
494.08	383.85
494.25	507.90
494.43	418.96
494.61	454.06
494.79	346.40
494.96	395.55
495.14	400.23
495.32	433.00
495.49	472.79
495.67	388.53
495.85	458.74
496.02	425.98
496.20	423.64
496.38	484.49
496.55	416.62
496.73	383.85
496.91	367.46
497.09	423.64
497.26	421.30
497.44	461.09
497.62	390.87
497.79	355.76
497.97	414.27
498.14	430.66
498.32	386.19
498.50	421.30
498.67	360.44
498.85	449.38
499.03	351.08
499.20	379.17
499.38	411.93
499.56	430.66
499.73	465.77
499.91	435.34
500.08	397.89
500.26	409.59
500.44	414.27
500.61	360.44
500.79	510.24
500.97	486.83
501.14	435.34
501.32	423.64
501.49	433.00
501.67	411.93
501.84	447.04
502.02	355.76
502.20	440.02
502.37	383.85
502.55	337.04
502.72	381.51
502.90	409.59
503.07	440.02
503.25	407.25
503.43	360.44
503.60	381.51
503.78	407.25
503.95	428.32
504.13	425.98
504.30	489.17
504.48	376.83
504.65	411.93
504.83	444.70
505.01	381.51
505.18	449.38
505.36	447.04
505.53	440.02
505.71	409.59
505.88	456.40
506.06	437.68
506.23	425.98
506.41	397.89
506.58	475.13
506.76	428.32
506.93	339.38
507.11	425.98
507.28	435.34
507.46	402.57
507.63	463.43
507.81	444.70
507.98	418.96
508.16	409.59
508.33	449.38
508.50	418.96
508.68	414.27
508.85	390.87
509.03	428.32
509.20	407.25
509.38	390.87
509.55	409.59
509.73	442.36
509.90	430.66
510.08	386.19
510.25	395.55
510.42	374.49
510.60	320.65
510.77	365.12
510.95	454.06
511.12	381.51
511.30	409.59
511.47	358.10
511.64	437.68
511.82	393.21
511.99	400.23
512.17	421.30
512.34	325.33
512.51	440.02
512.69	383.85
512.86	437.68
513.04	440.02
513.21	437.68
513.38	416.62
513.56	416.62
513.73	372.15
513.90	442.36
514.08	339.38
514.25	428.32
514.43	404.91
514.60	482.15
514.77	425.98
514.95	339.38
515.12	362.78
515.29	444.70
515.47	379.17
515.64	449.38
515.81	397.89
515.99	379.17
516.16	397.89
516.33	458.74
516.51	374.49
516.68	402.57
516.85	461.09
517.03	379.17
517.20	411.93
517.37	451.72
517.54	428.32
517.72	430.66
517.89	423.64
518.06	428.32
518.24	440.02
518.41	465.77
518.58	442.36
518.75	390.87
518.93	451.72
519.10	435.34
519.27	454.06
519.45	400.23
519.62	365.12
519.79	489.17
519.96	435.34
520.14	425.98
520.31	479.81
520.48	468.11
520.65	433.00
520.83	435.34
521.00	444.70
521.17	451.72
521.34	447.04
521.52	381.51
521.69	418.96
521.86	416.62
522.03	454.06
522.20	449.38
522.38	346.40
522.55	454.06
522.72	376.83
522.89	418.96
523.07	472.79
523.24	360.44
523.41	416.62
523.58	381.51
523.75	442.36
523.92	393.21
524.10	430.66
524.27	402.57
524.44	358.10
524.61	383.85
524.78	409.59
524.96	411.93
525.13	470.45
525.30	550.03
525.47	388.53
525.64	440.02
525.81	486.83
525.98	395.55
526.16	407.25
526.33	400.23
526.50	428.32
526.67	425.98
526.84	393.21
527.01	411.93
527.18	414.27
527.36	484.49
527.53	486.83
527.70	414.27
527.87	379.17
528.04	421.30
528.21	456.40
528.38	381.51
528.55	416.62
528.72	475.13
528.89	447.04
529.07	407.25
529.24	360.44
529.41	411.93
529.58	416.62
529.75	416.62
529.92	463.43
530.09	344.06
530.26	407.25
530.43	440.02
530.60	418.96
530.77	425.98
530.94	397.89
531.11	435.34
531.28	400.23
531.46	397.89
531.63	440.02
531.80	416.62
531.97	461.09
532.14	437.68
532.31	411.93
532.48	447.04
532.65	362.78
532.82	416.62
532.99	475.13
533.16	435.34
533.33	456.40
533.50	430.66
533.67	423.64
533.84	409.59
534.01	428.32
534.18	423.64
534.35	444.70
534.52	348.74
534.69	442.36
534.86	374.49
535.03	374.49
535.20	386.19
535.37	414.27
535.54	437.68
535.71	425.98
535.88	404.91
536.05	395.55
536.22	468.11
536.38	465.77
536.55	433.00
536.72	381.51
536.89	414.27
537.06	369.80
537.23	402.57
537.40	344.06
537.57	416.62
537.74	463.43
537.91	475.13
538.08	365.12
538.25	376.83
538.42	418.96
538.59	418.96
538.75	393.21
538.92	411.93
539.09	477.47
539.26	404.91
539.43	447.04
539.60	440.02
539.77	425.98
539.94	411.93
540.11	463.43
540.28	435.34
540.44	430.66
540.61	435.34
540.78	482.15
540.95	442.36
541.12	433.00
541.29	461.09
541.46	423.64
541.62	458.74
541.79	400.23
541.96	348.74
542.13	465.77
542.30	351.08
542.47	468.11
542.63	374.49
542.80	409.59
542.97	332.36
543.14	423.64
543.31	444.70
543.48	430.66
543.64	409.59
543.81	461.09
543.98	489.17
544.15	355.76
544.32	428.32
544.48	433.00
544.65	374.49
544.82	433.00
544.99	404.91
545.16	374.49
545.32	409.59
545.49	402.57
545.66	428.32
545.83	381.51
546.00	395.55
546.16	437.68
546.33	407.25
546.50	409.59
546.67	400.23
546.83	393.21
547.00	358.10
547.17	360.44
547.34	376.83
547.50	433.00
547.67	411.93
547.84	414.27
548.00	400.23
548.17	351.08
548.34	360.44
548.51	435.34
548.67	470.45
548.84	397.89
549.01	416.62
549.18	435.34
549.34	442.36
549.51	437.68
549.68	449.38
549.84	477.47
550.01	367.46
550.18	447.04
550.34	498.53
550.51	456.40
550.68	447.04
550.84	430.66
551.01	456.40
551.18	418.96
551.34	491.51
551.51	454.06
551.68	358.10
551.84	383.85
552.01	468.11
552.18	470.45
552.34	458.74
552.51	360.44
552.68	416.62
552.84	409.59
553.01	435.34
553.18	503.22
553.34	428.32
553.51	346.40
553.67	388.53
553.84	475.13
554.01	451.72
554.17	463.43
554.34	344.06
554.51	475.13
554.67	369.80
554.84	463.43
555.00	402.57
555.17	411.93
555.33	521.94
555.50	407.25
555.67	451.72
555.83	355.76
556.00	365.12
556.16	550.03
556.33	416.62
556.50	423.64
556.66	437.68
556.83	390.87
556.99	386.19
557.16	411.93
557.32	395.55
557.49	404.91
557.65	442.36
557.82	414.27
557.98	451.72
558.15	451.72
558.32	386.19
558.48	463.43
558.65	447.04
558.81	458.74
558.98	430.66
559.14	388.53
559.31	409.59
559.47	449.38
559.64	482.15
559.80	472.79
559.97	344.06
560.13	362.78
560.30	383.85
560.46	433.00
560.63	454.06
560.79	491.51
560.96	402.57
561.12	425.98
561.29	491.51
561.45	477.47
561.61	418.96
561.78	491.51
561.94	407.25
562.11	486.83
562.27	425.98
562.44	404.91
562.60	400.23
562.77	418.96
562.93	454.06
563.10	397.89
563.26	545.34
563.42	437.68
563.59	367.46
563.75	292.57
563.92	475.13
564.08	461.09
564.24	437.68
564.41	500.87
564.57	388.53
564.74	430.66
564.90	414.27
565.07	496.19
565.23	416.62
565.39	428.32
565.56	433.00
565.72	351.08
565.88	411.93
566.05	425.98
566.21	461.09
566.38	383.85
566.54	437.68
566.70	430.66
566.87	423.64
567.03	390.87
567.19	435.34
567.36	449.38
567.52	411.93
567.68	442.36
567.85	416.62
568.01	367.46
568.17	414.27
568.34	444.70
568.50	397.89
568.66	397.89
568.83	461.09
568.99	393.21
569.15	379.17
569.32	318.31
569.48	418.96
569.64	437.68
569.81	381.51
569.97	330.02
570.13	416.62
570.30	402.57
570.46	430.66
570.62	447.04
570.78	470.45
570.95	404.91
571.11	299.59
571.27	433.00
571.43	440.02
571.60	451.72
571.76	425.98
571.92	379.17
572.09	482.15
572.25	421.30
572.41	447.04
572.57	444.70
572.74	444.70
572.90	393.21
573.06	400.23
573.22	365.12
573.38	447.04
573.55	465.77
573.71	465.77
573.87	447.04
574.03	388.53
574.20	489.17
574.36	458.74
574.52	456.40
574.68	374.49
574.84	397.89
575.01	393.21
575.17	470.45
575.33	402.57
575.49	404.91
575.65	418.96
575.82	458.74
575.98	386.19
576.14	451.72
576.30	425.98
576.46	491.51
576.62	379.17
576.79	437.68
576.95	465.77
577.11	458.74
577.27	543.00
577.43	451.72
577.59	360.44
577.75	414.27
577.92	395.55
578.08	421.30
578.24	472.79
578.40	472.79
578.56	475.13
578.72	386.19
578.88	423.64
579.04	440.02
579.21	383.85
579.37	447.04
579.53	435.34
579.69	423.64
579.85	489.17
580.01	374.49
580.17	423.64
580.33	430.66
580.49	379.17
580.65	458.74
580.82	449.38
580.98	482.15
581.14	390.87
581.30	386.19
581.46	416.62
581.62	383.85
581.78	367.46
581.94	428.32
582.10	512.58
582.26	454.06
582.42	390.87
582.58	458.74
582.74	379.17
582.90	461.09
583.06	496.19
583.22	383.85
583.38	362.78
583.54	404.91
583.70	409.59
583.86	416.62
584.02	451.72
584.18	444.70
584.34	414.27
584.50	526.62
584.66	444.70
584.82	393.21
584.98	376.83
585.14	402.57
585.30	479.81
585.46	428.32
585.62	458.74
585.78	491.51
585.94	376.83
586.10	388.53
586.26	463.43
586.42	496.19
586.58	409.59
586.74	397.89
586.90	449.38
587.06	454.06
587.22	449.38
587.38	447.04
587.54	383.85
587.70	414.27
587.86	461.09
588.02	376.83
588.18	402.57
588.34	461.09
588.49	360.44
588.65	374.49
588.81	334.70
588.97	435.34
589.13	379.17
589.29	421.30
589.45	423.64
589.61	433.00
589.77	449.38
589.93	379.17
590.08	390.87
590.24	440.02
590.40	386.19
590.56	449.38
590.72	458.74
590.88	376.83
591.04	407.25
591.20	383.85
591.35	440.02
591.51	468.11
591.67	407.25
591.83	393.21
591.99	416.62
592.15	404.91
592.31	449.38
592.46	440.02
592.62	390.87
592.78	456.40
592.94	425.98
593.10	428.32
593.26	465.77
593.41	414.27
593.57	397.89
593.73	409.59
593.89	444.70
594.05	425.98
594.20	381.51
594.36	465.77
594.52	454.06
594.68	449.38
594.84	491.51
594.99	454.06
595.15	428.32
595.31	376.83
595.47	435.34
595.62	348.74
595.78	440.02
595.94	444.70
596.10	472.79
596.25	498.53
596.41	414.27
596.57	372.15
596.73	477.47
596.88	437.68
597.04	430.66
597.20	404.91
597.36	444.70
597.51	411.93
597.67	449.38
597.83	418.96
597.99	425.98
598.14	386.19
598.30	442.36
598.46	360.44
598.61	528.96
598.77	395.55
598.93	418.96
599.09	369.80
599.24	449.38
599.40	449.38
599.56	339.38
599.71	348.74
599.87	475.13
600.03	360.44
600.18	376.83
600.34	484.49
600.50	435.34
600.65	388.53
600.81	383.85
600.97	444.70
601.12	444.70
601.28	447.04
601.44	444.70
601.59	393.21
601.75	437.68
601.91	440.02
602.06	402.57
602.22	500.87
602.37	435.34
602.53	458.74
602.69	447.04
602.84	383.85
603.00	447.04
603.16	440.02
603.31	454.06
603.47	440.02
603.62	362.78
603.78	402.57
603.94	440.02
604.09	456.40
604.25	475.13
604.40	423.64
604.56	421.30
604.71	456.40
604.87	465.77
605.03	388.53
605.18	411.93
605.34	416.62
605.49	404.91
605.65	390.87
605.80	390.87
605.96	365.12
606.12	393.21
606.27	461.09
606.43	437.68
606.58	381.51
606.74	451.72
606.89	381.51
607.05	386.19
607.20	444.70
607.36	393.21
607.51	400.23
607.67	381.51
607.82	440.02
607.98	482.15
608.13	407.25
608.29	397.89
608.44	430.66
608.60	463.43
608.75	470.45
608.91	503.22
609.06	393.21
609.22	433.00
609.37	407.25
609.53	407.25
609.68	393.21
609.84	365.12
609.99	402.57
610.15	440.02
