SpectraSuite Data File
++++++++++++++++++++++++++++++++++++
Date: Fri Oct 25 12:10:28 EDT 2013
User: price-jones
Dark Spectrum Present: No
Reference Spectrum Present: No
Number of Sampled Component Spectra: 1
Spectrometers: USB2+H05261
Integration Time (usec): 100000 (USB2+H05261)
Spectra Averaged: 1 (USB2+H05261)
Boxcar Smoothing: 0 (USB2+H05261)
Correct for Electrical Dark: No (USB2+H05261)
Strobe/Lamp Enabled: No (USB2+H05261)
Correct for Detector Non-linearity: No (USB2+H05261)
Correct for Stray Light: No (USB2+H05261)
Number of Pixels in Processed Spectrum: 2048
>>>>>Begin Processed Spectral Data<<<<<
365.73	348.74
365.92	348.74
366.12	348.74
366.32	320.65
366.52	276.18
366.72	355.76
366.91	203.63
367.11	198.95
367.31	229.37
367.51	217.67
367.70	212.99
367.90	257.46
368.10	243.42
368.30	177.88
368.49	327.68
368.69	271.50
368.89	231.71
369.09	250.44
369.28	304.27
369.48	194.26
369.68	330.02
369.87	262.14
370.07	351.08
370.27	299.59
370.47	341.72
370.66	308.95
370.86	353.42
371.06	376.83
371.25	456.40
371.45	383.85
371.65	320.65
371.84	379.17
372.04	327.68
372.24	379.17
372.44	423.64
372.63	409.59
372.83	447.04
373.03	393.21
373.22	447.04
373.42	430.66
373.62	416.62
373.81	402.57
374.01	477.47
374.21	451.72
374.40	456.40
374.60	404.91
374.79	433.00
374.99	433.00
375.19	477.47
375.38	449.38
375.58	367.46
375.78	397.89
375.97	393.21
376.17	472.79
376.37	383.85
376.56	327.68
376.76	404.91
376.95	433.00
377.15	454.06
377.35	423.64
377.54	395.55
377.74	430.66
377.93	367.46
378.13	461.09
378.33	430.66
378.52	358.10
378.72	390.87
378.91	339.38
379.11	435.34
379.31	416.62
379.50	379.17
379.70	358.10
379.89	454.06
380.09	372.15
380.28	395.55
380.48	456.40
380.68	418.96
380.87	386.19
381.07	407.25
381.26	407.25
381.46	442.36
381.65	486.83
381.85	479.81
382.04	346.40
382.24	393.21
382.43	397.89
382.63	330.02
382.83	421.30
383.02	437.68
383.22	372.15
383.41	400.23
383.61	402.57
383.80	407.25
384.00	327.68
384.19	379.17
384.39	383.85
384.58	393.21
384.78	386.19
384.97	369.80
385.17	418.96
385.36	386.19
385.56	407.25
385.75	341.72
385.95	386.19
386.14	486.83
386.34	435.34
386.53	381.51
386.72	395.55
386.92	482.15
387.11	442.36
387.31	435.34
387.50	421.30
387.70	393.21
387.89	435.34
388.09	407.25
388.28	411.93
388.48	355.76
388.67	360.44
388.86	351.08
389.06	376.83
389.25	418.96
389.45	400.23
389.64	395.55
389.84	402.57
390.03	414.27
390.22	379.17
390.42	353.42
390.61	402.57
390.81	404.91
391.00	395.55
391.19	409.59
391.39	421.30
391.58	470.45
391.78	388.53
391.97	374.49
392.16	337.04
392.36	416.62
392.55	444.70
392.75	442.36
392.94	320.65
393.13	470.45
393.33	365.12
393.52	339.38
393.71	475.13
393.91	393.21
394.10	421.30
394.29	411.93
394.49	435.34
394.68	393.21
394.88	477.47
395.07	468.11
395.26	414.27
395.46	407.25
395.65	430.66
395.84	430.66
396.04	418.96
396.23	416.62
396.42	325.33
396.62	421.30
396.81	428.32
397.00	456.40
397.19	386.19
397.39	379.17
397.58	423.64
397.77	393.21
397.97	458.74
398.16	440.02
398.35	404.91
398.55	390.87
398.74	442.36
398.93	458.74
399.12	472.79
399.32	479.81
399.51	433.00
399.70	411.93
399.90	388.53
400.09	369.80
400.28	360.44
400.47	344.06
400.67	390.87
400.86	400.23
401.05	402.57
401.24	447.04
401.44	421.30
401.63	358.10
401.82	390.87
402.01	414.27
402.21	365.12
402.40	414.27
402.59	416.62
402.78	318.31
402.97	435.34
403.17	383.85
403.36	407.25
403.55	414.27
403.74	344.06
403.93	423.64
404.13	463.43
404.32	456.40
404.51	407.25
404.70	369.80
404.89	423.64
405.09	447.04
405.28	416.62
405.47	369.80
405.66	465.77
405.85	454.06
406.05	353.42
406.24	461.09
406.43	379.17
406.62	458.74
406.81	447.04
407.00	468.11
407.20	346.40
407.39	400.23
407.58	353.42
407.77	402.57
407.96	414.27
408.15	407.25
408.34	397.89
408.54	402.57
408.73	428.32
408.92	454.06
409.11	365.12
409.30	433.00
409.49	435.34
409.68	348.74
409.87	409.59
410.07	428.32
410.26	404.91
410.45	388.53
410.64	346.40
410.83	402.57
411.02	393.21
411.21	407.25
411.40	400.23
411.59	379.17
411.78	390.87
411.98	435.34
412.17	294.91
412.36	414.27
412.55	407.25
412.74	440.02
412.93	482.15
413.12	423.64
413.31	393.21
413.50	418.96
413.69	430.66
413.88	423.64
414.07	421.30
414.26	407.25
414.45	404.91
414.64	376.83
414.83	388.53
415.02	346.40
415.22	362.78
415.41	479.81
415.60	496.19
415.79	404.91
415.98	367.46
416.17	472.79
416.36	374.49
416.55	482.15
416.74	386.19
416.93	423.64
417.12	409.59
417.31	386.19
417.50	442.36
417.69	421.30
417.88	404.91
418.07	409.59
418.26	379.17
418.45	409.59
418.64	430.66
418.83	344.06
419.02	409.59
419.21	435.34
419.39	388.53
419.58	376.83
419.77	430.66
419.96	468.11
420.15	442.36
420.34	435.34
420.53	451.72
420.72	421.30
420.91	484.49
421.10	383.85
421.29	409.59
421.48	482.15
421.67	407.25
421.86	395.55
422.05	468.11
422.24	430.66
422.43	381.51
422.61	400.23
422.80	409.59
422.99	437.68
423.18	454.06
423.37	479.81
423.56	447.04
423.75	376.83
423.94	409.59
424.13	362.78
424.32	433.00
424.50	418.96
424.69	421.30
424.88	411.93
425.07	425.98
425.26	381.51
425.45	414.27
425.64	524.28
425.83	407.25
426.01	451.72
426.20	430.66
426.39	369.80
426.58	374.49
426.77	393.21
426.96	383.85
427.15	355.76
427.33	346.40
427.52	341.72
427.71	390.87
427.90	421.30
428.09	451.72
428.28	416.62
428.46	381.51
428.65	414.27
428.84	390.87
429.03	395.55
429.22	433.00
429.40	367.46
429.59	414.27
429.78	430.66
429.97	519.60
430.16	383.85
430.34	449.38
430.53	458.74
430.72	407.25
430.91	463.43
431.10	463.43
431.28	468.11
431.47	355.76
431.66	489.17
431.85	376.83
432.03	393.21
432.22	435.34
432.41	404.91
432.60	468.11
432.79	388.53
432.97	407.25
433.16	374.49
433.35	435.34
433.54	407.25
433.72	421.30
433.91	461.09
434.10	374.49
434.28	390.87
434.47	353.42
434.66	411.93
434.85	388.53
435.03	369.80
435.22	442.36
435.41	414.27
435.59	433.00
435.78	425.98
435.97	388.53
436.16	418.96
436.34	397.89
436.53	376.83
436.72	444.70
436.90	425.98
437.09	437.68
437.28	379.17
437.46	465.77
437.65	344.06
437.84	440.02
438.02	423.64
438.21	447.04
438.40	395.55
438.58	393.21
438.77	327.68
438.96	496.19
439.14	362.78
439.33	437.68
439.52	379.17
439.70	409.59
439.89	416.62
440.08	461.09
440.26	418.96
440.45	463.43
440.63	472.79
440.82	353.42
441.01	395.55
441.19	442.36
441.38	461.09
441.57	468.11
441.75	390.87
441.94	367.46
442.12	369.80
442.31	353.42
442.50	330.02
442.68	454.06
442.87	505.56
443.05	388.53
443.24	416.62
443.43	428.32
443.61	472.79
443.80	428.32
443.98	447.04
444.17	372.15
444.35	447.04
444.54	393.21
444.73	482.15
444.91	477.47
445.10	437.68
445.28	416.62
445.47	390.87
445.65	437.68
445.84	386.19
446.02	416.62
446.21	367.46
446.39	395.55
446.58	365.12
446.77	397.89
446.95	344.06
447.14	449.38
447.32	327.68
447.51	444.70
447.69	393.21
447.88	498.53
448.06	395.55
448.25	477.47
448.43	437.68
448.62	388.53
448.80	456.40
448.99	416.62
449.17	409.59
449.36	425.98
449.54	402.57
449.73	407.25
449.91	404.91
450.10	444.70
450.28	461.09
450.46	489.17
450.65	454.06
450.83	374.49
451.02	339.38
451.20	435.34
451.39	472.79
451.57	458.74
451.76	484.49
451.94	418.96
452.13	299.59
452.31	458.74
452.49	435.34
452.68	393.21
452.86	423.64
453.05	423.64
453.23	409.59
453.42	402.57
453.60	409.59
453.78	411.93
453.97	353.42
454.15	440.02
454.34	479.81
454.52	407.25
454.70	470.45
454.89	435.34
455.07	353.42
455.26	386.19
455.44	374.49
455.62	397.89
455.81	390.87
455.99	402.57
456.17	376.83
456.36	425.98
456.54	416.62
456.73	407.25
456.91	416.62
457.09	433.00
457.28	430.66
457.46	440.02
457.64	433.00
457.83	388.53
458.01	372.15
458.19	461.09
458.38	423.64
458.56	496.19
458.74	365.12
458.93	369.80
459.11	482.15
459.29	414.27
459.48	353.42
459.66	458.74
459.84	400.23
460.03	449.38
460.21	397.89
460.39	409.59
460.57	435.34
460.76	503.22
460.94	390.87
461.12	402.57
461.31	472.79
461.49	395.55
461.67	407.25
461.85	404.91
462.04	404.91
462.22	800.46
462.40	421.30
462.59	372.15
462.77	421.30
462.95	400.23
463.13	344.06
463.32	416.62
463.50	444.70
463.68	451.72
463.86	456.40
464.05	404.91
464.23	512.58
464.41	433.00
464.59	463.43
464.78	379.17
464.96	339.38
465.14	428.32
465.32	374.49
465.50	430.66
465.69	454.06
465.87	411.93
466.05	463.43
466.23	414.27
466.41	367.46
466.60	475.13
466.78	456.40
466.96	374.49
467.14	365.12
467.32	461.09
467.51	407.25
467.69	458.74
467.87	472.79
468.05	465.77
468.23	430.66
468.41	470.45
468.60	341.72
468.78	475.13
468.96	444.70
469.14	468.11
469.32	395.55
469.50	362.78
469.69	477.47
469.87	348.74
470.05	360.44
470.23	381.51
470.41	365.12
470.59	442.36
470.77	416.62
470.95	456.40
471.14	463.43
471.32	442.36
471.50	482.15
471.68	397.89
471.86	383.85
472.04	465.77
472.22	397.89
472.40	365.12
472.58	421.30
472.77	421.30
472.95	425.98
473.13	463.43
473.31	421.30
473.49	428.32
473.67	402.57
473.85	411.93
474.03	430.66
474.21	414.27
474.39	472.79
474.57	425.98
474.75	435.34
474.93	444.70
475.12	388.53
475.30	374.49
475.48	456.40
475.66	400.23
475.84	351.08
476.02	386.19
476.20	404.91
476.38	390.87
476.56	449.38
476.74	404.91
476.92	402.57
477.10	498.53
477.28	454.06
477.46	454.06
477.64	433.00
477.82	440.02
478.00	393.21
478.18	404.91
478.36	475.13
478.54	411.93
478.72	355.76
478.90	411.93
479.08	461.09
479.26	397.89
479.44	390.87
479.62	421.30
479.80	337.04
479.98	414.27
480.16	367.46
480.34	428.32
480.52	486.83
480.70	390.87
480.88	355.76
481.06	351.08
481.24	400.23
481.41	486.83
481.59	374.49
481.77	365.12
481.95	414.27
482.13	440.02
482.31	447.04
482.49	416.62
482.67	444.70
482.85	489.17
483.03	430.66
483.21	416.62
483.39	332.36
483.57	416.62
483.74	447.04
483.92	463.43
484.10	400.23
484.28	404.91
484.46	425.98
484.64	500.87
484.82	470.45
485.00	407.25
485.18	430.66
485.35	395.55
485.53	428.32
485.71	409.59
485.89	369.80
486.07	397.89
486.25	416.62
486.43	409.59
486.61	374.49
486.78	404.91
486.96	423.64
487.14	461.09
487.32	379.17
487.50	407.25
487.68	390.87
487.85	421.30
488.03	503.22
488.21	358.10
488.39	454.06
488.57	402.57
488.75	372.15
488.92	491.51
489.10	355.76
489.28	423.64
489.46	395.55
489.64	397.89
489.81	416.62
489.99	500.87
490.17	418.96
490.35	454.06
490.53	311.29
490.70	428.32
490.88	388.53
491.06	360.44
491.24	465.77
491.41	470.45
491.59	484.49
491.77	383.85
491.95	463.43
492.13	451.72
492.30	372.15
492.48	390.87
492.66	407.25
492.84	351.08
493.01	447.04
493.19	404.91
493.37	451.72
493.54	449.38
493.72	416.62
493.90	381.51
494.08	428.32
494.25	435.34
494.43	440.02
494.61	351.08
494.79	409.59
494.96	449.38
495.14	409.59
495.32	425.98
495.49	468.11
495.67	451.72
495.85	444.70
496.02	411.93
496.20	409.59
496.38	390.87
496.55	383.85
496.73	388.53
496.91	334.70
497.09	468.11
497.26	491.51
497.44	440.02
497.62	421.30
497.79	440.02
497.97	376.83
498.14	437.68
498.32	407.25
498.50	423.64
498.67	409.59
498.85	344.06
499.03	379.17
499.20	400.23
499.38	374.49
499.56	430.66
499.73	411.93
499.91	444.70
500.08	397.89
500.26	369.80
500.44	383.85
500.61	430.66
500.79	442.36
500.97	365.12
501.14	411.93
501.32	468.11
501.49	484.49
501.67	358.10
501.84	386.19
502.02	428.32
502.20	442.36
502.37	390.87
502.55	374.49
502.72	475.13
502.90	409.59
503.07	456.40
503.25	409.59
503.43	369.80
503.60	411.93
503.78	486.83
503.95	379.17
504.13	404.91
504.30	475.13
504.48	465.77
504.65	423.64
504.83	383.85
505.01	376.83
505.18	435.34
505.36	402.57
505.53	428.32
505.71	468.11
505.88	461.09
506.06	421.30
506.23	346.40
506.41	393.21
506.58	458.74
506.76	444.70
506.93	400.23
507.11	390.87
507.28	425.98
507.46	479.81
507.63	374.49
507.81	376.83
507.98	407.25
508.16	355.76
508.33	411.93
508.50	421.30
508.68	428.32
508.85	416.62
509.03	425.98
509.20	367.46
509.38	458.74
509.55	386.19
509.73	447.04
509.90	425.98
510.08	395.55
510.25	358.10
510.42	386.19
510.60	383.85
510.77	411.93
510.95	362.78
511.12	386.19
511.30	386.19
511.47	479.81
511.64	449.38
511.82	416.62
511.99	383.85
512.17	435.34
512.34	383.85
512.51	433.00
512.69	418.96
512.86	428.32
513.04	425.98
513.21	447.04
513.38	388.53
513.56	386.19
513.73	414.27
513.90	362.78
514.08	442.36
514.25	442.36
514.43	395.55
514.60	341.72
514.77	397.89
514.95	505.56
515.12	386.19
515.29	482.15
515.47	374.49
515.64	407.25
515.81	428.32
515.99	411.93
516.16	463.43
516.33	465.77
516.51	339.38
516.68	348.74
516.85	409.59
517.03	386.19
517.20	409.59
517.37	367.46
517.54	454.06
517.72	423.64
517.89	386.19
518.06	468.11
518.24	414.27
518.41	472.79
518.58	348.74
518.75	376.83
518.93	374.49
519.10	376.83
519.27	367.46
519.45	421.30
519.62	425.98
519.79	458.74
519.96	395.55
520.14	531.30
520.31	437.68
520.48	433.00
520.65	447.04
520.83	360.44
521.00	404.91
521.17	383.85
521.34	388.53
521.52	451.72
521.69	433.00
521.86	411.93
522.03	435.34
522.20	493.85
522.38	407.25
522.55	379.17
522.72	374.49
522.89	435.34
523.07	489.17
523.24	416.62
523.41	444.70
523.58	418.96
523.75	325.33
523.92	437.68
524.10	463.43
524.27	358.10
524.44	407.25
524.61	458.74
524.78	330.02
524.96	383.85
525.13	447.04
525.30	435.34
525.47	423.64
525.64	463.43
525.81	353.42
525.98	428.32
526.16	407.25
526.33	404.91
526.50	404.91
526.67	390.87
526.84	428.32
527.01	381.51
527.18	411.93
527.36	386.19
527.53	395.55
527.70	411.93
527.87	451.72
528.04	395.55
528.21	451.72
528.38	447.04
528.55	393.21
528.72	444.70
528.89	472.79
529.07	360.44
529.24	447.04
529.41	400.23
529.58	416.62
529.75	388.53
529.92	463.43
530.09	388.53
530.26	416.62
530.43	477.47
530.60	461.09
530.77	456.40
530.94	437.68
531.11	433.00
531.28	386.19
531.46	337.04
531.63	386.19
531.80	409.59
531.97	456.40
532.14	435.34
532.31	374.49
532.48	411.93
532.65	395.55
532.82	367.46
532.99	414.27
533.16	365.12
533.33	402.57
533.50	418.96
533.67	411.93
533.84	348.74
534.01	411.93
534.18	402.57
534.35	440.02
534.52	430.66
534.69	451.72
534.86	435.34
535.03	440.02
535.20	435.34
535.37	458.74
535.54	423.64
535.71	437.68
535.88	512.58
536.05	367.46
536.22	414.27
536.38	397.89
536.55	404.91
536.72	388.53
536.89	484.49
537.06	362.78
537.23	393.21
537.40	440.02
537.57	456.40
537.74	491.51
537.91	404.91
538.08	365.12
538.25	404.91
538.42	465.77
538.59	404.91
538.75	397.89
538.92	411.93
539.09	449.38
539.26	454.06
539.43	390.87
539.60	418.96
539.77	379.17
539.94	383.85
540.11	411.93
540.28	493.85
540.44	418.96
540.61	402.57
540.78	444.70
540.95	393.21
541.12	505.56
541.29	390.87
541.46	451.72
541.62	418.96
541.79	433.00
541.96	395.55
542.13	330.02
542.30	440.02
542.47	322.99
542.63	435.34
542.80	416.62
542.97	411.93
543.14	332.36
543.31	376.83
543.48	454.06
543.64	407.25
543.81	444.70
543.98	390.87
544.15	393.21
544.32	458.74
544.48	360.44
544.65	374.49
544.82	447.04
544.99	346.40
545.16	437.68
545.32	346.40
545.49	388.53
545.66	433.00
545.83	393.21
546.00	428.32
546.16	454.06
546.33	461.09
546.50	430.66
546.67	416.62
546.83	395.55
547.00	348.74
547.17	435.34
547.34	400.23
547.50	407.25
547.67	465.77
547.84	477.47
548.00	461.09
548.17	376.83
548.34	322.99
548.51	454.06
548.67	449.38
548.84	383.85
549.01	496.19
549.18	416.62
549.34	386.19
549.51	400.23
549.68	409.59
549.84	348.74
550.01	402.57
550.18	475.13
550.34	437.68
550.51	416.62
550.68	465.77
550.84	421.30
551.01	437.68
551.18	470.45
551.34	393.21
551.51	365.12
551.68	379.17
551.84	449.38
552.01	351.08
552.18	418.96
552.34	397.89
552.51	451.72
552.68	447.04
552.84	503.22
553.01	404.91
553.18	374.49
553.34	351.08
553.51	379.17
553.67	409.59
553.84	423.64
554.01	393.21
554.17	458.74
554.34	440.02
554.51	411.93
554.67	447.04
554.84	447.04
555.00	374.49
555.17	337.04
555.33	519.60
555.50	365.12
555.67	465.77
555.83	379.17
556.00	404.91
556.16	475.13
556.33	491.51
556.50	430.66
556.66	365.12
556.83	388.53
556.99	383.85
557.16	430.66
557.32	388.53
557.49	507.90
557.65	421.30
557.82	362.78
557.98	463.43
558.15	444.70
558.32	463.43
558.48	447.04
558.65	383.85
558.81	493.85
558.98	409.59
559.14	404.91
559.31	393.21
559.47	365.12
559.64	463.43
559.80	451.72
559.97	386.19
560.13	416.62
560.30	440.02
560.46	423.64
560.63	468.11
560.79	472.79
560.96	444.70
561.12	418.96
561.29	423.64
561.45	444.70
561.61	390.87
561.78	463.43
561.94	512.58
562.11	388.53
562.27	395.55
562.44	404.91
562.60	346.40
562.77	440.02
562.93	414.27
563.10	362.78
563.26	355.76
563.42	390.87
563.59	454.06
563.75	447.04
563.92	468.11
564.08	442.36
564.24	479.81
564.41	362.78
564.57	332.36
564.74	374.49
564.90	367.46
565.07	428.32
565.23	475.13
565.39	463.43
565.56	428.32
565.72	416.62
565.88	489.17
566.05	500.87
566.21	461.09
566.38	416.62
566.54	381.51
566.70	386.19
566.87	416.62
567.03	433.00
567.19	388.53
567.36	390.87
567.52	344.06
567.68	430.66
567.85	421.30
568.01	411.93
568.17	470.45
568.34	458.74
568.50	454.06
568.66	332.36
568.83	493.85
568.99	470.45
569.15	428.32
569.32	421.30
569.48	433.00
569.64	397.89
569.81	416.62
569.97	404.91
570.13	404.91
570.30	414.27
570.46	402.57
570.62	437.68
570.78	411.93
570.95	400.23
571.11	440.02
571.27	491.51
571.43	376.83
571.60	442.36
571.76	414.27
571.92	388.53
572.09	374.49
572.25	409.59
572.41	409.59
572.57	451.72
572.74	444.70
572.90	435.34
573.06	435.34
573.22	397.89
573.38	430.66
573.55	524.28
573.71	479.81
573.87	395.55
574.03	404.91
574.20	320.65
574.36	418.96
574.52	374.49
574.68	418.96
574.84	472.79
575.01	465.77
575.17	442.36
575.33	440.02
575.49	416.62
575.65	437.68
575.82	437.68
575.98	421.30
576.14	423.64
576.30	407.25
576.46	381.51
576.62	404.91
576.79	461.09
576.95	461.09
577.11	386.19
577.27	418.96
577.43	425.98
577.59	416.62
577.75	500.87
577.92	400.23
578.08	397.89
578.24	393.21
578.40	421.30
578.56	418.96
578.72	400.23
578.88	421.30
579.04	374.49
579.21	421.30
579.37	390.87
579.53	423.64
579.69	484.49
579.85	442.36
580.01	475.13
580.17	430.66
580.33	411.93
580.49	461.09
580.65	472.79
580.82	444.70
580.98	458.74
581.14	369.80
581.30	414.27
581.46	440.02
581.62	414.27
581.78	346.40
581.94	444.70
582.10	433.00
582.26	440.02
582.42	376.83
582.58	440.02
582.74	500.87
582.90	388.53
583.06	437.68
583.22	390.87
583.38	369.80
583.54	346.40
583.70	365.12
583.86	461.09
584.02	489.17
584.18	402.57
584.34	437.68
584.50	411.93
584.66	421.30
584.82	444.70
584.98	390.87
585.14	334.70
585.30	362.78
585.46	353.42
585.62	339.38
585.78	388.53
585.94	442.36
586.10	334.70
586.26	435.34
586.42	496.19
586.58	374.49
586.74	397.89
586.90	339.38
587.06	451.72
587.22	454.06
587.38	404.91
587.54	435.34
587.70	472.79
587.86	444.70
588.02	461.09
588.18	386.19
588.34	393.21
588.49	388.53
588.65	444.70
588.81	372.15
588.97	365.12
589.13	435.34
589.29	404.91
589.45	402.57
589.61	430.66
589.77	416.62
589.93	379.17
590.08	496.19
590.24	416.62
590.40	421.30
590.56	442.36
590.72	383.85
590.88	421.30
591.04	437.68
591.20	388.53
591.35	421.30
591.51	365.12
591.67	447.04
591.83	444.70
591.99	437.68
592.15	411.93
592.31	428.32
592.46	322.99
592.62	465.77
592.78	376.83
592.94	367.46
593.10	430.66
593.26	386.19
593.41	461.09
593.57	433.00
593.73	402.57
593.89	416.62
594.05	444.70
594.20	374.49
594.36	437.68
594.52	353.42
594.68	451.72
594.84	468.11
594.99	433.00
595.15	526.62
595.31	369.80
595.47	414.27
595.62	447.04
595.78	383.85
595.94	386.19
596.10	461.09
596.25	437.68
596.41	435.34
596.57	376.83
596.73	416.62
596.88	437.68
597.04	407.25
597.20	353.42
597.36	449.38
597.51	449.38
597.67	407.25
597.83	334.70
597.99	468.11
598.14	388.53
598.30	484.49
598.46	423.64
598.61	428.32
598.77	381.51
598.93	383.85
599.09	409.59
599.24	486.83
599.40	421.30
599.56	383.85
599.71	383.85
599.87	416.62
600.03	547.69
600.18	372.15
600.34	421.30
600.50	461.09
600.65	465.77
600.81	440.02
600.97	402.57
601.12	416.62
601.28	444.70
601.44	416.62
601.59	353.42
601.75	381.51
601.91	491.51
602.06	465.77
602.22	477.47
602.37	411.93
602.53	395.55
602.69	407.25
602.84	449.38
603.00	428.32
603.16	414.27
603.31	351.08
603.47	428.32
603.62	416.62
603.78	393.21
603.94	418.96
604.09	346.40
604.25	372.15
604.40	404.91
604.56	428.32
604.71	341.72
604.87	411.93
605.03	414.27
605.18	400.23
605.34	435.34
605.49	400.23
605.65	435.34
605.80	374.49
605.96	376.83
606.12	456.40
606.27	472.79
606.43	411.93
606.58	428.32
606.74	315.97
606.89	461.09
607.05	390.87
607.20	381.51
607.36	428.32
607.51	449.38
607.67	444.70
607.82	379.17
607.98	388.53
608.13	423.64
608.29	372.15
608.44	358.10
608.60	411.93
608.75	433.00
608.91	449.38
609.06	475.13
609.22	393.21
609.37	402.57
609.53	425.98
609.68	386.19
609.84	456.40
609.99	369.80
610.15	458.74
