SpectraSuite Data File
++++++++++++++++++++++++++++++++++++
Date: Fri Oct 25 12:10:32 EDT 2013
User: price-jones
Dark Spectrum Present: No
Reference Spectrum Present: No
Number of Sampled Component Spectra: 1
Spectrometers: USB2+H05261
Integration Time (usec): 100000 (USB2+H05261)
Spectra Averaged: 1 (USB2+H05261)
Boxcar Smoothing: 0 (USB2+H05261)
Correct for Electrical Dark: No (USB2+H05261)
Strobe/Lamp Enabled: No (USB2+H05261)
Correct for Detector Non-linearity: No (USB2+H05261)
Correct for Stray Light: No (USB2+H05261)
Number of Pixels in Processed Spectrum: 2048
>>>>>Begin Processed Spectral Data<<<<<
365.73	318.31
365.92	318.31
366.12	318.31
366.32	243.42
366.52	229.37
366.72	217.67
366.91	236.39
367.11	220.01
367.31	201.29
367.51	231.71
367.70	257.46
367.90	250.44
368.10	273.84
368.30	187.24
368.49	220.01
368.69	250.44
368.89	243.42
369.09	215.33
369.28	276.18
369.48	210.65
369.68	238.73
369.87	262.14
370.07	315.97
370.27	367.46
370.47	341.72
370.66	341.72
370.86	322.99
371.06	411.93
371.25	369.80
371.45	355.76
371.65	393.21
371.84	365.12
372.04	404.91
372.24	388.53
372.44	390.87
372.63	409.59
372.83	425.98
373.03	346.40
373.22	355.76
373.42	454.06
373.62	362.78
373.81	411.93
374.01	461.09
374.21	437.68
374.40	454.06
374.60	437.68
374.79	437.68
374.99	390.87
375.19	440.02
375.38	337.04
375.58	360.44
375.78	463.43
375.97	442.36
376.17	447.04
376.37	482.15
376.56	414.27
376.76	395.55
376.95	341.72
377.15	444.70
377.35	379.17
377.54	365.12
377.74	486.83
377.93	435.34
378.13	374.49
378.33	402.57
378.52	416.62
378.72	451.72
378.91	397.89
379.11	360.44
379.31	353.42
379.50	369.80
379.70	369.80
379.89	397.89
380.09	444.70
380.28	355.76
380.48	456.40
380.68	299.59
380.87	315.97
381.07	470.45
381.26	451.72
381.46	376.83
381.65	472.79
381.85	411.93
382.04	365.12
382.24	454.06
382.43	369.80
382.63	379.17
382.83	418.96
383.02	430.66
383.22	407.25
383.41	411.93
383.61	416.62
383.80	454.06
384.00	393.21
384.19	383.85
384.39	425.98
384.58	423.64
384.78	463.43
384.97	379.17
385.17	409.59
385.36	435.34
385.56	358.10
385.75	433.00
385.95	407.25
386.14	327.68
386.34	390.87
386.53	400.23
386.72	393.21
386.92	386.19
387.11	456.40
387.31	390.87
387.50	425.98
387.70	425.98
387.89	362.78
388.09	435.34
388.28	386.19
388.48	304.27
388.67	444.70
388.86	369.80
389.06	411.93
389.25	482.15
389.45	411.93
389.64	341.72
389.84	451.72
390.03	423.64
390.22	491.51
390.42	386.19
390.61	376.83
390.81	372.15
391.00	425.98
391.19	437.68
391.39	402.57
391.58	383.85
391.78	451.72
391.97	475.13
392.16	365.12
392.36	332.36
392.55	395.55
392.75	470.45
392.94	353.42
393.13	348.74
393.33	365.12
393.52	386.19
393.71	416.62
393.91	383.85
394.10	386.19
394.29	407.25
394.49	383.85
394.68	423.64
394.88	425.98
395.07	468.11
395.26	465.77
395.46	388.53
395.65	428.32
395.84	369.80
396.04	433.00
396.23	355.76
396.42	418.96
396.62	437.68
396.81	346.40
397.00	407.25
397.19	358.10
397.39	425.98
397.58	465.77
397.77	421.30
397.97	341.72
398.16	414.27
398.35	381.51
398.55	411.93
398.74	308.95
398.93	400.23
399.12	374.49
399.32	430.66
399.51	454.06
399.70	428.32
399.90	465.77
400.09	442.36
400.28	330.02
400.47	318.31
400.67	430.66
400.86	402.57
401.05	449.38
401.24	376.83
401.44	421.30
401.63	435.34
401.82	411.93
402.01	414.27
402.21	411.93
402.40	376.83
402.59	395.55
402.78	440.02
402.97	397.89
403.17	421.30
403.36	454.06
403.55	397.89
403.74	421.30
403.93	362.78
404.13	451.72
404.32	423.64
404.51	360.44
404.70	456.40
404.89	365.12
405.09	397.89
405.28	404.91
405.47	411.93
405.66	458.74
405.85	475.13
406.05	414.27
406.24	400.23
406.43	390.87
406.62	418.96
406.81	519.60
407.00	454.06
407.20	402.57
407.39	320.65
407.58	454.06
407.77	411.93
407.96	395.55
408.15	458.74
408.34	383.85
408.54	416.62
408.73	404.91
408.92	433.00
409.11	388.53
409.30	414.27
409.49	341.72
409.68	425.98
409.87	414.27
410.07	407.25
410.26	390.87
410.45	409.59
410.64	421.30
410.83	411.93
411.02	409.59
411.21	472.79
411.40	435.34
411.59	346.40
411.78	414.27
411.98	454.06
412.17	421.30
412.36	393.21
412.55	423.64
412.74	379.17
412.93	404.91
413.12	468.11
413.31	386.19
413.50	404.91
413.69	397.89
413.88	470.45
414.07	379.17
414.26	400.23
414.45	355.76
414.64	470.45
414.83	477.47
415.02	414.27
415.22	367.46
415.41	414.27
415.60	325.33
415.79	334.70
415.98	430.66
416.17	440.02
416.36	386.19
416.55	369.80
416.74	454.06
416.93	381.51
417.12	301.93
417.31	404.91
417.50	402.57
417.69	550.03
417.88	433.00
418.07	451.72
418.26	400.23
418.45	437.68
418.64	456.40
418.83	407.25
419.02	507.90
419.21	423.64
419.39	400.23
419.58	372.15
419.77	421.30
419.96	402.57
420.15	411.93
420.34	353.42
420.53	376.83
420.72	400.23
420.91	393.21
421.10	444.70
421.29	400.23
421.48	372.15
421.67	456.40
421.86	402.57
422.05	393.21
422.24	451.72
422.43	360.44
422.61	428.32
422.80	489.17
422.99	390.87
423.18	433.00
423.37	362.78
423.56	414.27
423.75	311.29
423.94	414.27
424.13	454.06
424.32	456.40
424.50	458.74
424.69	346.40
424.88	381.51
425.07	393.21
425.26	397.89
425.45	421.30
425.64	393.21
425.83	402.57
426.01	428.32
426.20	475.13
426.39	395.55
426.58	320.65
426.77	425.98
426.96	369.80
427.15	334.70
427.33	360.44
427.52	393.21
427.71	402.57
427.90	416.62
428.09	383.85
428.28	430.66
428.46	353.42
428.65	414.27
428.84	397.89
429.03	449.38
429.22	425.98
429.40	376.83
429.59	393.21
429.78	341.72
429.97	369.80
430.16	402.57
430.34	393.21
430.53	442.36
430.72	425.98
430.91	428.32
431.10	362.78
431.28	386.19
431.47	369.80
431.66	379.17
431.85	376.83
432.03	440.02
432.22	421.30
432.41	386.19
432.60	367.46
432.79	425.98
432.97	454.06
433.16	416.62
433.35	332.36
433.54	390.87
433.72	444.70
433.91	456.40
434.10	386.19
434.28	353.42
434.47	468.11
434.66	409.59
434.85	397.89
435.03	425.98
435.22	400.23
435.41	423.64
435.59	428.32
435.78	421.30
435.97	334.70
436.16	397.89
436.34	411.93
436.53	409.59
436.72	411.93
436.90	372.15
437.09	425.98
437.28	390.87
437.46	409.59
437.65	414.27
437.84	493.85
438.02	379.17
438.21	423.64
438.40	351.08
438.58	423.64
438.77	355.76
438.96	433.00
439.14	444.70
439.33	351.08
439.52	348.74
439.70	447.04
439.89	341.72
440.08	376.83
440.26	437.68
440.45	435.34
440.63	421.30
440.82	411.93
441.01	365.12
441.19	397.89
441.38	322.99
441.57	435.34
441.75	463.43
441.94	393.21
442.12	379.17
442.31	435.34
442.50	421.30
442.68	313.63
442.87	374.49
443.05	461.09
443.24	393.21
443.43	447.04
443.61	451.72
443.80	451.72
443.98	362.78
444.17	383.85
444.35	397.89
444.54	376.83
444.73	447.04
444.91	393.21
445.10	437.68
445.28	386.19
445.47	477.47
445.65	386.19
445.84	437.68
446.02	461.09
446.21	395.55
446.39	397.89
446.58	374.49
446.77	362.78
446.95	440.02
447.14	447.04
447.32	447.04
447.51	503.22
447.69	318.31
447.88	395.55
448.06	482.15
448.25	379.17
448.43	402.57
448.62	437.68
448.80	461.09
448.99	479.81
449.17	418.96
449.36	358.10
449.54	449.38
449.73	433.00
449.91	421.30
450.10	447.04
450.28	465.77
450.46	425.98
450.65	423.64
450.83	437.68
451.02	362.78
451.20	456.40
451.39	449.38
451.57	344.06
451.76	397.89
451.94	383.85
452.13	451.72
452.31	475.13
452.49	475.13
452.68	362.78
452.86	411.93
453.05	397.89
453.23	355.76
453.42	421.30
453.60	404.91
453.78	411.93
453.97	355.76
454.15	369.80
454.34	404.91
454.52	369.80
454.70	390.87
454.89	440.02
455.07	360.44
455.26	479.81
455.44	397.89
455.62	344.06
455.81	397.89
455.99	423.64
456.17	425.98
456.36	440.02
456.54	358.10
456.73	498.53
456.91	440.02
457.09	442.36
457.28	388.53
457.46	379.17
457.64	433.00
457.83	447.04
458.01	409.59
458.19	416.62
458.38	428.32
458.56	390.87
458.74	355.76
458.93	395.55
459.11	346.40
459.29	372.15
459.48	362.78
459.66	461.09
459.84	475.13
460.03	456.40
460.21	447.04
460.39	461.09
460.57	458.74
460.76	437.68
460.94	463.43
461.12	470.45
461.31	386.19
461.49	388.53
461.67	407.25
461.85	449.38
462.04	456.40
462.22	732.59
462.40	416.62
462.59	418.96
462.77	475.13
462.95	430.66
463.13	397.89
463.32	451.72
463.50	369.80
463.68	440.02
463.86	395.55
464.05	400.23
464.23	395.55
464.41	388.53
464.59	404.91
464.78	425.98
464.96	411.93
465.14	390.87
465.32	355.76
465.50	414.27
465.69	425.98
465.87	444.70
466.05	353.42
466.23	423.64
466.41	339.38
466.60	390.87
466.78	318.31
466.96	388.53
467.14	397.89
467.32	458.74
467.51	451.72
467.69	404.91
467.87	383.85
468.05	428.32
468.23	491.51
468.41	451.72
468.60	341.72
468.78	451.72
468.96	484.49
469.14	470.45
469.32	388.53
469.50	351.08
469.69	421.30
469.87	442.36
470.05	454.06
470.23	365.12
470.41	332.36
470.59	437.68
470.77	449.38
470.95	395.55
471.14	404.91
471.32	383.85
471.50	461.09
471.68	383.85
471.86	437.68
472.04	414.27
472.22	390.87
472.40	430.66
472.58	383.85
472.77	365.12
472.95	423.64
473.13	475.13
473.31	414.27
473.49	351.08
473.67	414.27
473.85	409.59
474.03	472.79
474.21	425.98
474.39	463.43
474.57	486.83
474.75	447.04
474.93	411.93
475.12	332.36
475.30	425.98
475.48	428.32
475.66	451.72
475.84	430.66
476.02	414.27
476.20	353.42
476.38	421.30
476.56	433.00
476.74	393.21
476.92	444.70
477.10	388.53
477.28	407.25
477.46	362.78
477.64	477.47
477.82	388.53
478.00	449.38
478.18	404.91
478.36	411.93
478.54	451.72
478.72	442.36
478.90	416.62
479.08	400.23
479.26	479.81
479.44	372.15
479.62	388.53
479.80	440.02
479.98	449.38
480.16	416.62
480.34	425.98
480.52	400.23
480.70	447.04
480.88	353.42
481.06	456.40
481.24	458.74
481.41	360.44
481.59	369.80
481.77	414.27
481.95	407.25
482.13	416.62
482.31	383.85
482.49	402.57
482.67	475.13
482.85	477.47
483.03	421.30
483.21	351.08
483.39	458.74
483.57	383.85
483.74	416.62
483.92	390.87
484.10	456.40
484.28	514.92
484.46	440.02
484.64	461.09
484.82	418.96
485.00	437.68
485.18	360.44
485.35	390.87
485.53	435.34
485.71	414.27
485.89	367.46
486.07	360.44
486.25	360.44
486.43	411.93
486.61	425.98
486.78	390.87
486.96	402.57
487.14	433.00
487.32	365.12
487.50	407.25
487.68	468.11
487.85	425.98
488.03	444.70
488.21	418.96
488.39	411.93
488.57	404.91
488.75	421.30
488.92	444.70
489.10	397.89
489.28	383.85
489.46	395.55
489.64	421.30
489.81	365.12
489.99	458.74
490.17	337.04
490.35	491.51
490.53	404.91
490.70	430.66
490.88	418.96
491.06	486.83
491.24	418.96
491.41	449.38
491.59	454.06
491.77	348.74
491.95	402.57
492.13	404.91
492.30	498.53
492.48	355.76
492.66	425.98
492.84	395.55
493.01	386.19
493.19	442.36
493.37	421.30
493.54	428.32
493.72	374.49
493.90	388.53
494.08	491.51
494.25	461.09
494.43	437.68
494.61	362.78
494.79	374.49
494.96	440.02
495.14	437.68
495.32	423.64
495.49	407.25
495.67	379.17
495.85	421.30
496.02	395.55
496.20	435.34
496.38	454.06
496.55	418.96
496.73	414.27
496.91	454.06
497.09	461.09
497.26	376.83
497.44	463.43
497.62	437.68
497.79	386.19
497.97	393.21
498.14	414.27
498.32	402.57
498.50	411.93
498.67	355.76
498.85	428.32
499.03	433.00
499.20	337.04
499.38	351.08
499.56	374.49
499.73	451.72
499.91	486.83
500.08	367.46
500.26	404.91
500.44	470.45
500.61	468.11
500.79	388.53
500.97	435.34
501.14	423.64
501.32	437.68
501.49	440.02
501.67	383.85
501.84	437.68
502.02	372.15
502.20	479.81
502.37	430.66
502.55	409.59
502.72	440.02
502.90	425.98
503.07	393.21
503.25	386.19
503.43	456.40
503.60	458.74
503.78	402.57
503.95	404.91
504.13	435.34
504.30	376.83
504.48	425.98
504.65	397.89
504.83	428.32
505.01	479.81
505.18	435.34
505.36	358.10
505.53	428.32
505.71	320.65
505.88	442.36
506.06	463.43
506.23	383.85
506.41	386.19
506.58	404.91
506.76	521.94
506.93	451.72
507.11	374.49
507.28	418.96
507.46	421.30
507.63	386.19
507.81	414.27
507.98	433.00
508.16	407.25
508.33	512.58
508.50	475.13
508.68	468.11
508.85	414.27
509.03	414.27
509.20	355.76
509.38	468.11
509.55	454.06
509.73	454.06
509.90	437.68
510.08	430.66
510.25	458.74
510.42	477.47
510.60	435.34
510.77	486.83
510.95	374.49
511.12	400.23
511.30	376.83
511.47	435.34
511.64	430.66
511.82	440.02
511.99	395.55
512.17	409.59
512.34	346.40
512.51	411.93
512.69	397.89
512.86	423.64
513.04	409.59
513.21	397.89
513.38	369.80
513.56	376.83
513.73	400.23
513.90	376.83
514.08	395.55
514.25	402.57
514.43	381.51
514.60	381.51
514.77	421.30
514.95	449.38
515.12	351.08
515.29	400.23
515.47	414.27
515.64	379.17
515.81	355.76
515.99	484.49
516.16	475.13
516.33	442.36
516.51	489.17
516.68	365.12
516.85	404.91
517.03	447.04
517.20	486.83
517.37	437.68
517.54	388.53
517.72	425.98
517.89	397.89
518.06	407.25
518.24	454.06
518.41	451.72
518.58	365.12
518.75	433.00
518.93	444.70
519.10	393.21
519.27	372.15
519.45	447.04
519.62	430.66
519.79	442.36
519.96	421.30
520.14	332.36
520.31	348.74
520.48	451.72
520.65	414.27
520.83	435.34
521.00	442.36
521.17	470.45
521.34	433.00
521.52	421.30
521.69	414.27
521.86	395.55
522.03	379.17
522.20	447.04
522.38	458.74
522.55	369.80
522.72	416.62
522.89	416.62
523.07	489.17
523.24	418.96
523.41	435.34
523.58	388.53
523.75	416.62
523.92	447.04
524.10	365.12
524.27	386.19
524.44	341.72
524.61	486.83
524.78	449.38
524.96	430.66
525.13	442.36
525.30	440.02
525.47	447.04
525.64	393.21
525.81	423.64
525.98	447.04
526.16	411.93
526.33	411.93
526.50	425.98
526.67	404.91
526.84	416.62
527.01	421.30
527.18	393.21
527.36	404.91
527.53	351.08
527.70	358.10
527.87	374.49
528.04	414.27
528.21	369.80
528.38	418.96
528.55	437.68
528.72	454.06
528.89	482.15
529.07	395.55
529.24	461.09
529.41	449.38
529.58	404.91
529.75	400.23
529.92	416.62
530.09	425.98
530.26	479.81
530.43	411.93
530.60	437.68
530.77	456.40
530.94	428.32
531.11	404.91
531.28	433.00
531.46	332.36
531.63	362.78
531.80	416.62
531.97	503.22
532.14	454.06
532.31	388.53
532.48	442.36
532.65	442.36
532.82	390.87
532.99	344.06
533.16	355.76
533.33	416.62
533.50	416.62
533.67	400.23
533.84	379.17
534.01	388.53
534.18	437.68
534.35	442.36
534.52	402.57
534.69	498.53
534.86	456.40
535.03	479.81
535.20	440.02
535.37	402.57
535.54	435.34
535.71	433.00
535.88	475.13
536.05	416.62
536.22	425.98
536.38	416.62
536.55	418.96
536.72	470.45
536.89	337.04
537.06	418.96
537.23	444.70
537.40	409.59
537.57	362.78
537.74	486.83
537.91	451.72
538.08	397.89
538.25	458.74
538.42	425.98
538.59	393.21
538.75	341.72
538.92	344.06
539.09	470.45
539.26	397.89
539.43	404.91
539.60	437.68
539.77	465.77
539.94	425.98
540.11	393.21
540.28	465.77
540.44	435.34
540.61	346.40
540.78	496.19
540.95	355.76
541.12	437.68
541.29	372.15
541.46	409.59
541.62	435.34
541.79	397.89
541.96	376.83
542.13	430.66
542.30	402.57
542.47	367.46
542.63	423.64
542.80	421.30
542.97	425.98
543.14	367.46
543.31	404.91
543.48	418.96
543.64	409.59
543.81	475.13
543.98	351.08
544.15	325.33
544.32	451.72
544.48	428.32
544.65	353.42
544.82	360.44
544.99	414.27
545.16	358.10
545.32	407.25
545.49	435.34
545.66	425.98
545.83	411.93
546.00	353.42
546.16	425.98
546.33	416.62
546.50	416.62
546.67	383.85
546.83	440.02
547.00	397.89
547.17	372.15
547.34	400.23
547.50	362.78
547.67	397.89
547.84	409.59
548.00	393.21
548.17	475.13
548.34	437.68
548.51	470.45
548.67	414.27
548.84	435.34
549.01	425.98
549.18	465.77
549.34	477.47
549.51	449.38
549.68	425.98
549.84	423.64
550.01	400.23
550.18	489.17
550.34	402.57
550.51	369.80
550.68	430.66
550.84	430.66
551.01	442.36
551.18	411.93
551.34	425.98
551.51	416.62
551.68	388.53
551.84	414.27
552.01	402.57
552.18	421.30
552.34	404.91
552.51	369.80
552.68	425.98
552.84	407.25
553.01	407.25
553.18	447.04
553.34	360.44
553.51	449.38
553.67	444.70
553.84	465.77
554.01	456.40
554.17	526.62
554.34	395.55
554.51	416.62
554.67	402.57
554.84	458.74
555.00	395.55
555.17	388.53
555.33	374.49
555.50	388.53
555.67	430.66
555.83	458.74
556.00	435.34
556.16	587.47
556.33	400.23
556.50	503.22
556.66	433.00
556.83	454.06
556.99	404.91
557.16	449.38
557.32	379.17
557.49	449.38
557.65	447.04
557.82	435.34
557.98	367.46
558.15	433.00
558.32	468.11
558.48	491.51
558.65	472.79
558.81	491.51
558.98	423.64
559.14	428.32
559.31	414.27
559.47	407.25
559.64	318.31
559.80	421.30
559.97	463.43
560.13	449.38
560.30	447.04
560.46	416.62
560.63	442.36
560.79	461.09
560.96	458.74
561.12	351.08
561.29	433.00
561.45	402.57
561.61	430.66
561.78	505.56
561.94	372.15
562.11	390.87
562.27	358.10
562.44	421.30
562.60	348.74
562.77	454.06
562.93	442.36
563.10	388.53
563.26	407.25
563.42	463.43
563.59	430.66
563.75	402.57
563.92	465.77
564.08	428.32
564.24	428.32
564.41	418.96
564.57	388.53
564.74	449.38
564.90	414.27
565.07	451.72
565.23	524.28
565.39	482.15
565.56	428.32
565.72	381.51
565.88	395.55
566.05	390.87
566.21	372.15
566.38	421.30
566.54	491.51
566.70	416.62
566.87	402.57
567.03	447.04
567.19	444.70
567.36	379.17
567.52	414.27
567.68	409.59
567.85	369.80
568.01	367.46
568.17	430.66
568.34	442.36
568.50	353.42
568.66	421.30
568.83	435.34
568.99	374.49
569.15	465.77
569.32	442.36
569.48	430.66
569.64	395.55
569.81	353.42
569.97	393.21
570.13	381.51
570.30	332.36
570.46	388.53
570.62	381.51
570.78	414.27
570.95	355.76
571.11	402.57
571.27	442.36
571.43	416.62
571.60	386.19
571.76	402.57
571.92	383.85
572.09	430.66
572.25	407.25
572.41	353.42
572.57	393.21
572.74	442.36
572.90	451.72
573.06	475.13
573.22	404.91
573.38	390.87
573.55	360.44
573.71	397.89
573.87	383.85
574.03	440.02
574.20	411.93
574.36	402.57
574.52	472.79
574.68	447.04
574.84	351.08
575.01	442.36
575.17	365.12
575.33	449.38
575.49	470.45
575.65	362.78
575.82	418.96
575.98	355.76
576.14	409.59
576.30	447.04
576.46	404.91
576.62	404.91
576.79	388.53
576.95	390.87
577.11	442.36
577.27	416.62
577.43	433.00
577.59	451.72
577.75	486.83
577.92	386.19
578.08	390.87
578.24	355.76
578.40	433.00
578.56	486.83
578.72	463.43
578.88	355.76
579.04	447.04
579.21	512.58
579.37	404.91
579.53	451.72
579.69	386.19
579.85	388.53
580.01	388.53
580.17	493.85
580.33	430.66
580.49	458.74
580.65	397.89
580.82	465.77
580.98	360.44
581.14	395.55
581.30	428.32
581.46	425.98
581.62	463.43
581.78	428.32
581.94	388.53
582.10	346.40
582.26	362.78
582.42	334.70
582.58	414.27
582.74	416.62
582.90	390.87
583.06	470.45
583.22	353.42
583.38	449.38
583.54	418.96
583.70	400.23
583.86	421.30
584.02	383.85
584.18	468.11
584.34	454.06
584.50	411.93
584.66	414.27
584.82	360.44
584.98	381.51
585.14	477.47
585.30	407.25
585.46	397.89
585.62	395.55
585.78	440.02
585.94	416.62
586.10	381.51
586.26	423.64
586.42	409.59
586.58	454.06
586.74	395.55
586.90	430.66
587.06	383.85
587.22	388.53
587.38	404.91
587.54	444.70
587.70	428.32
587.86	447.04
588.02	337.04
588.18	475.13
588.34	491.51
588.49	404.91
588.65	433.00
588.81	437.68
588.97	514.92
589.13	411.93
589.29	423.64
589.45	428.32
589.61	440.02
589.77	425.98
589.93	468.11
590.08	475.13
590.24	423.64
590.40	402.57
590.56	451.72
590.72	402.57
590.88	395.55
591.04	383.85
591.20	416.62
591.35	376.83
591.51	411.93
591.67	449.38
591.83	351.08
591.99	444.70
592.15	524.28
592.31	491.51
592.46	458.74
592.62	414.27
592.78	395.55
592.94	379.17
593.10	327.68
593.26	397.89
593.41	423.64
593.57	411.93
593.73	451.72
593.89	425.98
594.05	435.34
594.20	395.55
594.36	526.62
594.52	428.32
594.68	411.93
594.84	397.89
594.99	433.00
595.15	416.62
595.31	358.10
595.47	479.81
595.62	435.34
595.78	376.83
595.94	409.59
596.10	461.09
596.25	397.89
596.41	461.09
596.57	440.02
596.73	418.96
596.88	449.38
597.04	418.96
597.20	418.96
597.36	379.17
597.51	451.72
597.67	330.02
597.83	411.93
597.99	479.81
598.14	390.87
598.30	470.45
598.46	496.19
598.61	440.02
598.77	498.53
598.93	423.64
599.09	379.17
599.24	456.40
599.40	517.26
599.56	442.36
599.71	435.34
599.87	397.89
600.03	430.66
600.18	404.91
600.34	425.98
600.50	402.57
600.65	416.62
600.81	390.87
600.97	393.21
601.12	409.59
601.28	414.27
601.44	440.02
601.59	435.34
601.75	428.32
601.91	416.62
602.06	493.85
602.22	461.09
602.37	449.38
602.53	475.13
602.69	430.66
602.84	367.46
603.00	425.98
603.16	381.51
603.31	425.98
603.47	435.34
603.62	444.70
603.78	433.00
603.94	435.34
604.09	400.23
604.25	337.04
604.40	400.23
604.56	479.81
604.71	442.36
604.87	435.34
605.03	465.77
605.18	367.46
605.34	414.27
605.49	395.55
605.65	341.72
605.80	449.38
605.96	454.06
606.12	430.66
606.27	435.34
606.43	416.62
606.58	393.21
606.74	449.38
606.89	447.04
607.05	428.32
607.20	423.64
607.36	470.45
607.51	386.19
607.67	449.38
607.82	437.68
607.98	496.19
608.13	379.17
608.29	367.46
608.44	374.49
608.60	365.12
608.75	472.79
608.91	388.53
609.06	505.56
609.22	458.74
609.37	402.57
609.53	386.19
609.68	414.27
609.84	365.12
609.99	360.44
610.15	395.55
