SpectraSuite Data File
++++++++++++++++++++++++++++++++++++
Date: Fri Oct 25 12:10:11 EDT 2013
User: price-jones
Dark Spectrum Present: No
Reference Spectrum Present: No
Number of Sampled Component Spectra: 1
Spectrometers: USB2+H05261
Integration Time (usec): 100000 (USB2+H05261)
Spectra Averaged: 1 (USB2+H05261)
Boxcar Smoothing: 0 (USB2+H05261)
Correct for Electrical Dark: No (USB2+H05261)
Strobe/Lamp Enabled: No (USB2+H05261)
Correct for Detector Non-linearity: No (USB2+H05261)
Correct for Stray Light: No (USB2+H05261)
Number of Pixels in Processed Spectrum: 2048
>>>>>Begin Processed Spectral Data<<<<<
365.73	362.78
365.92	362.78
366.12	362.78
366.32	259.80
366.52	212.99
366.72	271.50
366.91	198.95
367.11	262.14
367.31	198.95
367.51	217.67
367.70	269.16
367.90	297.25
368.10	280.86
368.30	182.56
368.49	299.59
368.69	212.99
368.89	252.78
369.09	327.68
369.28	271.50
369.48	243.42
369.68	271.50
369.87	257.46
370.07	283.20
370.27	351.08
370.47	369.80
370.66	264.48
370.86	353.42
371.06	404.91
371.25	461.09
371.45	395.55
371.65	346.40
371.84	346.40
372.04	332.36
372.24	341.72
372.44	348.74
372.63	360.44
372.83	386.19
373.03	433.00
373.22	362.78
373.42	369.80
373.62	358.10
373.81	456.40
374.01	430.66
374.21	463.43
374.40	383.85
374.60	425.98
374.79	430.66
374.99	437.68
375.19	411.93
375.38	388.53
375.58	393.21
375.78	421.30
375.97	442.36
376.17	514.92
376.37	475.13
376.56	409.59
376.76	486.83
376.95	404.91
377.15	440.02
377.35	425.98
377.54	482.15
377.74	393.21
377.93	388.53
378.13	381.51
378.33	425.98
378.52	348.74
378.72	444.70
378.91	421.30
379.11	339.38
379.31	383.85
379.50	351.08
379.70	451.72
379.89	367.46
380.09	421.30
380.28	404.91
380.48	395.55
380.68	379.17
380.87	313.63
381.07	393.21
381.26	423.64
381.46	379.17
381.65	418.96
381.85	362.78
382.04	376.83
382.24	463.43
382.43	411.93
382.63	421.30
382.83	334.70
383.02	344.06
383.22	437.68
383.41	355.76
383.61	393.21
383.80	435.34
384.00	325.33
384.19	411.93
384.39	404.91
384.58	437.68
384.78	465.77
384.97	430.66
385.17	449.38
385.36	369.80
385.56	404.91
385.75	402.57
385.95	435.34
386.14	442.36
386.34	428.32
386.53	383.85
386.72	416.62
386.92	400.23
387.11	369.80
387.31	428.32
387.50	421.30
387.70	402.57
387.89	365.12
388.09	404.91
388.28	416.62
388.48	409.59
388.67	400.23
388.86	404.91
389.06	341.72
389.25	390.87
389.45	402.57
389.64	416.62
389.84	433.00
390.03	381.51
390.22	346.40
390.42	479.81
390.61	416.62
390.81	409.59
391.00	386.19
391.19	379.17
391.39	414.27
391.58	437.68
391.78	418.96
391.97	437.68
392.16	337.04
392.36	411.93
392.55	435.34
392.75	428.32
392.94	362.78
393.13	402.57
393.33	348.74
393.52	367.46
393.71	397.89
393.91	393.21
394.10	334.70
394.29	451.72
394.49	388.53
394.68	365.12
394.88	447.04
395.07	418.96
395.26	428.32
395.46	348.74
395.65	472.79
395.84	358.10
396.04	482.15
396.23	409.59
396.42	428.32
396.62	425.98
396.81	442.36
397.00	397.89
397.19	374.49
397.39	402.57
397.58	395.55
397.77	411.93
397.97	435.34
398.16	395.55
398.35	461.09
398.55	430.66
398.74	339.38
398.93	409.59
399.12	397.89
399.32	390.87
399.51	435.34
399.70	376.83
399.90	421.30
400.09	409.59
400.28	376.83
400.47	395.55
400.67	374.49
400.86	395.55
401.05	456.40
401.24	383.85
401.44	433.00
401.63	330.02
401.82	456.40
402.01	358.10
402.21	341.72
402.40	353.42
402.59	414.27
402.78	418.96
402.97	353.42
403.17	395.55
403.36	437.68
403.55	381.51
403.74	404.91
403.93	428.32
404.13	416.62
404.32	428.32
404.51	407.25
404.70	425.98
404.89	337.04
405.09	407.25
405.28	355.76
405.47	465.77
405.66	374.49
405.85	411.93
406.05	341.72
406.24	404.91
406.43	442.36
406.62	430.66
406.81	456.40
407.00	421.30
407.20	341.72
407.39	360.44
407.58	433.00
407.77	437.68
407.96	388.53
408.15	390.87
408.34	318.31
408.54	470.45
408.73	362.78
408.92	397.89
409.11	414.27
409.30	383.85
409.49	348.74
409.68	411.93
409.87	423.64
410.07	383.85
410.26	414.27
410.45	397.89
410.64	334.70
410.83	458.74
411.02	418.96
411.21	339.38
411.40	428.32
411.59	447.04
411.78	451.72
411.98	404.91
412.17	355.76
412.36	402.57
412.55	367.46
412.74	498.53
412.93	372.15
413.12	423.64
413.31	442.36
413.50	465.77
413.69	472.79
413.88	395.55
414.07	395.55
414.26	437.68
414.45	390.87
414.64	414.27
414.83	374.49
415.02	409.59
415.22	428.32
415.41	372.15
415.60	402.57
415.79	404.91
415.98	421.30
416.17	456.40
416.36	374.49
416.55	344.06
416.74	400.23
416.93	395.55
417.12	374.49
417.31	365.12
417.50	379.17
417.69	414.27
417.88	468.11
418.07	381.51
418.26	414.27
418.45	414.27
418.64	447.04
418.83	433.00
419.02	430.66
419.21	428.32
419.39	421.30
419.58	365.12
419.77	390.87
419.96	433.00
420.15	430.66
420.34	407.25
420.53	369.80
420.72	379.17
420.91	449.38
421.10	386.19
421.29	425.98
421.48	418.96
421.67	465.77
421.86	423.64
422.05	330.02
422.24	386.19
422.43	358.10
422.61	433.00
422.80	423.64
422.99	470.45
423.18	447.04
423.37	470.45
423.56	442.36
423.75	416.62
423.94	397.89
424.13	409.59
424.32	353.42
424.50	374.49
424.69	372.15
424.88	395.55
425.07	400.23
425.26	395.55
425.45	416.62
425.64	388.53
425.83	416.62
426.01	402.57
426.20	447.04
426.39	374.49
426.58	395.55
426.77	395.55
426.96	451.72
427.15	414.27
427.33	353.42
427.52	435.34
427.71	393.21
427.90	376.83
428.09	341.72
428.28	383.85
428.46	402.57
428.65	383.85
428.84	395.55
429.03	414.27
429.22	393.21
429.40	411.93
429.59	325.33
429.78	386.19
429.97	430.66
430.16	404.91
430.34	379.17
430.53	388.53
430.72	381.51
430.91	404.91
431.10	327.68
431.28	393.21
431.47	472.79
431.66	416.62
431.85	451.72
432.03	395.55
432.22	425.98
432.41	376.83
432.60	440.02
432.79	362.78
432.97	379.17
433.16	388.53
433.35	397.89
433.54	383.85
433.72	425.98
433.91	500.87
434.10	421.30
434.28	437.68
434.47	409.59
434.66	503.22
434.85	451.72
435.03	388.53
435.22	440.02
435.41	411.93
435.59	454.06
435.78	505.56
435.97	421.30
436.16	440.02
436.34	383.85
436.53	435.34
436.72	400.23
436.90	386.19
437.09	493.85
437.28	402.57
437.46	409.59
437.65	482.15
437.84	407.25
438.02	374.49
438.21	430.66
438.40	365.12
438.58	435.34
438.77	444.70
438.96	386.19
439.14	430.66
439.33	416.62
439.52	374.49
439.70	397.89
439.89	400.23
440.08	411.93
440.26	404.91
440.45	447.04
440.63	451.72
440.82	372.15
441.01	407.25
441.19	390.87
441.38	395.55
441.57	369.80
441.75	388.53
441.94	465.77
442.12	449.38
442.31	407.25
442.50	400.23
442.68	332.36
442.87	447.04
443.05	447.04
443.24	414.27
443.43	423.64
443.61	374.49
443.80	400.23
443.98	306.61
444.17	358.10
444.35	381.51
444.54	402.57
444.73	425.98
444.91	390.87
445.10	409.59
445.28	418.96
445.47	416.62
445.65	414.27
445.84	461.09
446.02	402.57
446.21	498.53
446.39	341.72
446.58	402.57
446.77	409.59
446.95	348.74
447.14	444.70
447.32	454.06
447.51	372.15
447.69	404.91
447.88	416.62
448.06	479.81
448.25	381.51
448.43	358.10
448.62	383.85
448.80	379.17
448.99	409.59
449.17	404.91
449.36	362.78
449.54	379.17
449.73	421.30
449.91	435.34
450.10	435.34
450.28	418.96
450.46	496.19
450.65	390.87
450.83	425.98
451.02	390.87
451.20	418.96
451.39	393.21
451.57	397.89
451.76	444.70
451.94	444.70
452.13	388.53
452.31	465.77
452.49	397.89
452.68	334.70
452.86	381.51
453.05	381.51
453.23	442.36
453.42	386.19
453.60	465.77
453.78	416.62
453.97	470.45
454.15	440.02
454.34	388.53
454.52	369.80
454.70	440.02
454.89	362.78
455.07	409.59
455.26	416.62
455.44	402.57
455.62	393.21
455.81	491.51
455.99	386.19
456.17	470.45
456.36	383.85
456.54	428.32
456.73	395.55
456.91	383.85
457.09	393.21
457.28	465.77
457.46	416.62
457.64	411.93
457.83	428.32
458.01	435.34
458.19	477.47
458.38	376.83
458.56	433.00
458.74	362.78
458.93	397.89
459.11	383.85
459.29	416.62
459.48	374.49
459.66	388.53
459.84	360.44
460.03	437.68
460.21	367.46
460.39	351.08
460.57	397.89
460.76	409.59
460.94	400.23
461.12	477.47
461.31	379.17
461.49	433.00
461.67	440.02
461.85	414.27
462.04	421.30
462.22	812.17
462.40	437.68
462.59	411.93
462.77	409.59
462.95	395.55
463.13	423.64
463.32	435.34
463.50	386.19
463.68	463.43
463.86	486.83
464.05	390.87
464.23	414.27
464.41	386.19
464.59	409.59
464.78	465.77
464.96	334.70
465.14	407.25
465.32	416.62
465.50	374.49
465.69	414.27
465.87	435.34
466.05	430.66
466.23	425.98
466.41	395.55
466.60	418.96
466.78	365.12
466.96	402.57
467.14	418.96
467.32	440.02
467.51	428.32
467.69	477.47
467.87	456.40
468.05	388.53
468.23	454.06
468.41	444.70
468.60	477.47
468.78	437.68
468.96	423.64
469.14	477.47
469.32	386.19
469.50	367.46
469.69	358.10
469.87	435.34
470.05	404.91
470.23	402.57
470.41	365.12
470.59	423.64
470.77	440.02
470.95	358.10
471.14	472.79
471.32	365.12
471.50	482.15
471.68	456.40
471.86	414.27
472.04	388.53
472.22	386.19
472.40	430.66
472.58	440.02
472.77	353.42
472.95	393.21
473.13	458.74
473.31	411.93
473.49	421.30
473.67	388.53
473.85	440.02
474.03	421.30
474.21	393.21
474.39	442.36
474.57	414.27
474.75	440.02
474.93	433.00
475.12	421.30
475.30	416.62
475.48	402.57
475.66	374.49
475.84	421.30
476.02	451.72
476.20	461.09
476.38	444.70
476.56	411.93
476.74	458.74
476.92	346.40
477.10	351.08
477.28	351.08
477.46	390.87
477.64	425.98
477.82	393.21
478.00	407.25
478.18	425.98
478.36	407.25
478.54	425.98
478.72	451.72
478.90	430.66
479.08	421.30
479.26	388.53
479.44	379.17
479.62	423.64
479.80	461.09
479.98	409.59
480.16	449.38
480.34	358.10
480.52	430.66
480.70	428.32
480.88	360.44
481.06	322.99
481.24	437.68
481.41	451.72
481.59	454.06
481.77	337.04
481.95	425.98
482.13	416.62
482.31	447.04
482.49	351.08
482.67	409.59
482.85	435.34
483.03	393.21
483.21	353.42
483.39	433.00
483.57	423.64
483.74	428.32
483.92	411.93
484.10	435.34
484.28	477.47
484.46	416.62
484.64	458.74
484.82	390.87
485.00	372.15
485.18	423.64
485.35	428.32
485.53	454.06
485.71	442.36
485.89	393.21
486.07	458.74
486.25	428.32
486.43	470.45
486.61	404.91
486.78	454.06
486.96	348.74
487.14	404.91
487.32	402.57
487.50	409.59
487.68	379.17
487.85	372.15
488.03	360.44
488.21	409.59
488.39	435.34
488.57	395.55
488.75	407.25
488.92	468.11
489.10	383.85
489.28	479.81
489.46	425.98
489.64	421.30
489.81	397.89
489.99	367.46
490.17	390.87
490.35	510.24
490.53	444.70
490.70	449.38
490.88	395.55
491.06	346.40
491.24	461.09
491.41	507.90
491.59	463.43
491.77	435.34
491.95	421.30
492.13	414.27
492.30	435.34
492.48	418.96
492.66	475.13
492.84	402.57
493.01	425.98
493.19	416.62
493.37	470.45
493.54	395.55
493.72	395.55
493.90	428.32
494.08	440.02
494.25	414.27
494.43	440.02
494.61	409.59
494.79	428.32
494.96	493.85
495.14	428.32
495.32	407.25
495.49	500.87
495.67	484.49
495.85	442.36
496.02	395.55
496.20	461.09
496.38	430.66
496.55	367.46
496.73	428.32
496.91	468.11
497.09	362.78
497.26	397.89
497.44	372.15
497.62	353.42
497.79	365.12
497.97	393.21
498.14	411.93
498.32	386.19
498.50	397.89
498.67	346.40
498.85	416.62
499.03	360.44
499.20	409.59
499.38	409.59
499.56	400.23
499.73	440.02
499.91	395.55
500.08	479.81
500.26	442.36
500.44	421.30
500.61	348.74
500.79	425.98
500.97	421.30
501.14	414.27
501.32	383.85
501.49	411.93
501.67	376.83
501.84	442.36
502.02	430.66
502.20	440.02
502.37	383.85
502.55	395.55
502.72	430.66
502.90	468.11
503.07	407.25
503.25	447.04
503.43	374.49
503.60	355.76
503.78	416.62
503.95	404.91
504.13	379.17
504.30	423.64
504.48	416.62
504.65	456.40
504.83	397.89
505.01	465.77
505.18	397.89
505.36	470.45
505.53	337.04
505.71	400.23
505.88	442.36
506.06	376.83
506.23	442.36
506.41	407.25
506.58	472.79
506.76	402.57
506.93	330.02
507.11	400.23
507.28	379.17
507.46	407.25
507.63	376.83
507.81	365.12
507.98	395.55
508.16	425.98
508.33	430.66
508.50	482.15
508.68	423.64
508.85	428.32
509.03	393.21
509.20	390.87
509.38	372.15
509.55	409.59
509.73	407.25
509.90	353.42
510.08	374.49
510.25	477.47
510.42	390.87
510.60	369.80
510.77	435.34
510.95	390.87
511.12	437.68
511.30	353.42
511.47	367.46
511.64	402.57
511.82	390.87
511.99	475.13
512.17	365.12
512.34	365.12
512.51	390.87
512.69	332.36
512.86	440.02
513.04	496.19
513.21	433.00
513.38	437.68
513.56	390.87
513.73	390.87
513.90	334.70
514.08	449.38
514.25	414.27
514.43	386.19
514.60	454.06
514.77	496.19
514.95	416.62
515.12	372.15
515.29	411.93
515.47	388.53
515.64	454.06
515.81	404.91
515.99	407.25
516.16	388.53
516.33	430.66
516.51	425.98
516.68	369.80
516.85	421.30
517.03	393.21
517.20	416.62
517.37	400.23
517.54	489.17
517.72	351.08
517.89	386.19
518.06	437.68
518.24	451.72
518.41	433.00
518.58	484.49
518.75	374.49
518.93	416.62
519.10	479.81
519.27	332.36
519.45	421.30
519.62	395.55
519.79	397.89
519.96	346.40
520.14	451.72
520.31	465.77
520.48	418.96
520.65	355.76
520.83	463.43
521.00	442.36
521.17	458.74
521.34	461.09
521.52	430.66
521.69	416.62
521.86	390.87
522.03	433.00
522.20	418.96
522.38	369.80
522.55	383.85
522.72	397.89
522.89	402.57
523.07	456.40
523.24	402.57
523.41	423.64
523.58	400.23
523.75	330.02
523.92	337.04
524.10	425.98
524.27	463.43
524.44	463.43
524.61	430.66
524.78	402.57
524.96	416.62
525.13	425.98
525.30	369.80
525.47	430.66
525.64	444.70
525.81	407.25
525.98	425.98
526.16	358.10
526.33	433.00
526.50	362.78
526.67	390.87
526.84	404.91
527.01	409.59
527.18	379.17
527.36	407.25
527.53	437.68
527.70	430.66
527.87	414.27
528.04	482.15
528.21	395.55
528.38	472.79
528.55	454.06
528.72	414.27
528.89	381.51
529.07	383.85
529.24	383.85
529.41	468.11
529.58	379.17
529.75	379.17
529.92	395.55
530.09	409.59
530.26	414.27
530.43	322.99
530.60	416.62
530.77	456.40
530.94	458.74
531.11	465.77
531.28	393.21
531.46	470.45
531.63	418.96
531.80	423.64
531.97	390.87
532.14	440.02
532.31	416.62
532.48	461.09
532.65	442.36
532.82	348.74
532.99	383.85
533.16	395.55
533.33	367.46
533.50	404.91
533.67	388.53
533.84	435.34
534.01	468.11
534.18	414.27
534.35	430.66
534.52	379.17
534.69	477.47
534.86	395.55
535.03	402.57
535.20	489.17
535.37	442.36
535.54	395.55
535.71	444.70
535.88	486.83
536.05	477.47
536.22	425.98
536.38	362.78
536.55	498.53
536.72	463.43
536.89	365.12
537.06	421.30
537.23	337.04
537.40	423.64
537.57	369.80
537.74	456.40
537.91	472.79
538.08	425.98
538.25	372.15
538.42	374.49
538.59	339.38
538.75	418.96
538.92	418.96
539.09	414.27
539.26	367.46
539.43	407.25
539.60	449.38
539.77	428.32
539.94	376.83
540.11	402.57
540.28	449.38
540.44	496.19
540.61	402.57
540.78	397.89
540.95	353.42
541.12	379.17
541.29	486.83
541.46	512.58
541.62	407.25
541.79	365.12
541.96	374.49
542.13	418.96
542.30	430.66
542.47	472.79
542.63	477.47
542.80	369.80
542.97	463.43
543.14	458.74
543.31	433.00
543.48	435.34
543.64	428.32
543.81	428.32
543.98	369.80
544.15	496.19
544.32	461.09
544.48	367.46
544.65	433.00
544.82	376.83
544.99	393.21
545.16	404.91
545.32	465.77
545.49	430.66
545.66	411.93
545.83	465.77
546.00	435.34
546.16	388.53
546.33	332.36
546.50	409.59
546.67	444.70
546.83	418.96
547.00	397.89
547.17	372.15
547.34	425.98
547.50	418.96
547.67	346.40
547.84	353.42
548.00	374.49
548.17	416.62
548.34	484.49
548.51	423.64
548.67	418.96
548.84	409.59
549.01	454.06
549.18	390.87
549.34	362.78
549.51	423.64
549.68	449.38
549.84	393.21
550.01	407.25
550.18	496.19
550.34	470.45
550.51	411.93
550.68	440.02
550.84	421.30
551.01	428.32
551.18	402.57
551.34	433.00
551.51	437.68
551.68	491.51
551.84	484.49
552.01	369.80
552.18	397.89
552.34	437.68
552.51	376.83
552.68	472.79
552.84	381.51
553.01	482.15
553.18	421.30
553.34	367.46
553.51	451.72
553.67	393.21
553.84	416.62
554.01	418.96
554.17	447.04
554.34	379.17
554.51	388.53
554.67	407.25
554.84	407.25
555.00	372.15
555.17	440.02
555.33	442.36
555.50	425.98
555.67	395.55
555.83	397.89
556.00	372.15
556.16	589.82
556.33	479.81
556.50	444.70
556.66	369.80
556.83	365.12
556.99	493.85
557.16	379.17
557.32	425.98
557.49	421.30
557.65	404.91
557.82	369.80
557.98	407.25
558.15	428.32
558.32	402.57
558.48	442.36
558.65	390.87
558.81	421.30
558.98	447.04
559.14	386.19
559.31	421.30
559.47	489.17
559.64	423.64
559.80	503.22
559.97	404.91
560.13	475.13
560.30	369.80
560.46	421.30
560.63	381.51
560.79	409.59
560.96	456.40
561.12	402.57
561.29	479.81
561.45	395.55
561.61	388.53
561.78	468.11
561.94	395.55
562.11	421.30
562.27	454.06
562.44	397.89
562.60	421.30
562.77	449.38
562.93	521.94
563.10	421.30
563.26	421.30
563.42	397.89
563.59	397.89
563.75	421.30
563.92	442.36
564.08	428.32
564.24	428.32
564.41	383.85
564.57	360.44
564.74	390.87
564.90	423.64
565.07	489.17
565.23	463.43
565.39	362.78
565.56	376.83
565.72	433.00
565.88	484.49
566.05	409.59
566.21	404.91
566.38	404.91
566.54	447.04
566.70	421.30
566.87	440.02
567.03	411.93
567.19	404.91
567.36	421.30
567.52	430.66
567.68	358.10
567.85	475.13
568.01	418.96
568.17	393.21
568.34	404.91
568.50	425.98
568.66	451.72
568.83	475.13
568.99	423.64
569.15	428.32
569.32	442.36
569.48	451.72
569.64	353.42
569.81	416.62
569.97	397.89
570.13	421.30
570.30	416.62
570.46	407.25
570.62	428.32
570.78	428.32
570.95	435.34
571.11	428.32
571.27	395.55
571.43	311.29
571.60	369.80
571.76	374.49
571.92	381.51
572.09	402.57
572.25	463.43
572.41	360.44
572.57	428.32
572.74	468.11
572.90	383.85
573.06	411.93
573.22	388.53
573.38	416.62
573.55	358.10
573.71	374.49
573.87	397.89
574.03	369.80
574.20	449.38
574.36	423.64
574.52	386.19
574.68	397.89
574.84	458.74
575.01	440.02
575.17	428.32
575.33	411.93
575.49	355.76
575.65	458.74
575.82	465.77
575.98	435.34
576.14	411.93
576.30	428.32
576.46	479.81
576.62	393.21
576.79	442.36
576.95	440.02
577.11	409.59
577.27	428.32
577.43	360.44
577.59	496.19
577.75	379.17
577.92	437.68
578.08	442.36
578.24	428.32
578.40	444.70
578.56	433.00
578.72	402.57
578.88	463.43
579.04	444.70
579.21	395.55
579.37	472.79
579.53	465.77
579.69	414.27
579.85	304.27
580.01	433.00
580.17	393.21
580.33	407.25
580.49	463.43
580.65	449.38
580.82	409.59
580.98	402.57
581.14	477.47
581.30	414.27
581.46	423.64
581.62	472.79
581.78	409.59
581.94	360.44
582.10	416.62
582.26	414.27
582.42	418.96
582.58	465.77
582.74	388.53
582.90	381.51
583.06	428.32
583.22	332.36
583.38	411.93
583.54	388.53
583.70	428.32
583.86	362.78
584.02	496.19
584.18	507.90
584.34	465.77
584.50	409.59
584.66	393.21
584.82	489.17
584.98	430.66
585.14	451.72
585.30	393.21
585.46	416.62
585.62	337.04
585.78	461.09
585.94	454.06
586.10	407.25
586.26	372.15
586.42	411.93
586.58	498.53
586.74	437.68
586.90	407.25
587.06	428.32
587.22	400.23
587.38	337.04
587.54	400.23
587.70	353.42
587.86	421.30
588.02	435.34
588.18	430.66
588.34	409.59
588.49	470.45
588.65	430.66
588.81	325.33
588.97	454.06
589.13	353.42
589.29	486.83
589.45	472.79
589.61	440.02
589.77	379.17
589.93	458.74
590.08	362.78
590.24	351.08
590.40	334.70
590.56	437.68
590.72	360.44
590.88	339.38
591.04	437.68
591.20	372.15
591.35	519.60
591.51	440.02
591.67	479.81
591.83	430.66
591.99	386.19
592.15	418.96
592.31	425.98
592.46	360.44
592.62	451.72
592.78	472.79
592.94	444.70
593.10	470.45
593.26	313.63
593.41	383.85
593.57	411.93
593.73	433.00
593.89	463.43
594.05	461.09
594.20	402.57
594.36	458.74
594.52	381.51
594.68	393.21
594.84	454.06
594.99	421.30
595.15	456.40
595.31	433.00
595.47	430.66
595.62	528.96
595.78	402.57
595.94	444.70
596.10	404.91
596.25	393.21
596.41	423.64
596.57	402.57
596.73	489.17
596.88	404.91
597.04	402.57
597.20	346.40
597.36	397.89
597.51	411.93
597.67	444.70
597.83	425.98
597.99	423.64
598.14	449.38
598.30	416.62
598.46	393.21
598.61	454.06
598.77	458.74
598.93	479.81
599.09	367.46
599.24	444.70
599.40	491.51
599.56	447.04
599.71	416.62
599.87	430.66
600.03	416.62
600.18	400.23
600.34	400.23
600.50	388.53
600.65	362.78
600.81	461.09
600.97	440.02
601.12	437.68
601.28	400.23
601.44	418.96
601.59	440.02
601.75	435.34
601.91	416.62
602.06	451.72
602.22	456.40
602.37	444.70
602.53	414.27
602.69	379.17
602.84	421.30
603.00	409.59
603.16	386.19
603.31	472.79
603.47	440.02
603.62	461.09
603.78	404.91
603.94	402.57
604.09	337.04
604.25	482.15
604.40	458.74
604.56	365.12
604.71	411.93
604.87	386.19
605.03	423.64
605.18	383.85
605.34	442.36
605.49	447.04
605.65	414.27
605.80	376.83
605.96	444.70
606.12	393.21
606.27	444.70
606.43	404.91
606.58	444.70
606.74	423.64
606.89	355.76
607.05	442.36
607.20	449.38
607.36	355.76
607.51	334.70
607.67	470.45
607.82	449.38
607.98	468.11
608.13	418.96
608.29	355.76
608.44	425.98
608.60	423.64
608.75	411.93
608.91	407.25
609.06	461.09
609.22	407.25
609.37	421.30
609.53	390.87
609.68	407.25
609.84	416.62
609.99	339.38
610.15	454.06
