SpectraSuite Data File
++++++++++++++++++++++++++++++++++++
Date: Fri Oct 25 12:10:14 EDT 2013
User: price-jones
Dark Spectrum Present: No
Reference Spectrum Present: No
Number of Sampled Component Spectra: 1
Spectrometers: USB2+H05261
Integration Time (usec): 100000 (USB2+H05261)
Spectra Averaged: 1 (USB2+H05261)
Boxcar Smoothing: 0 (USB2+H05261)
Correct for Electrical Dark: No (USB2+H05261)
Strobe/Lamp Enabled: No (USB2+H05261)
Correct for Detector Non-linearity: No (USB2+H05261)
Correct for Stray Light: No (USB2+H05261)
Number of Pixels in Processed Spectrum: 2048
>>>>>Begin Processed Spectral Data<<<<<
365.73	320.65
365.92	320.65
366.12	320.65
366.32	287.89
366.52	208.31
366.72	283.20
366.91	198.95
367.11	266.82
367.31	290.23
367.51	248.10
367.70	210.65
367.90	250.44
368.10	198.95
368.30	273.84
368.49	215.33
368.69	250.44
368.89	215.33
369.09	280.86
369.28	205.97
369.48	276.18
369.68	262.14
369.87	313.63
370.07	304.27
370.27	383.85
370.47	346.40
370.66	327.68
370.86	330.02
371.06	374.49
371.25	369.80
371.45	348.74
371.65	362.78
371.84	402.57
372.04	360.44
372.24	376.83
372.44	390.87
372.63	465.77
372.83	379.17
373.03	353.42
373.22	447.04
373.42	423.64
373.62	433.00
373.81	421.30
374.01	447.04
374.21	475.13
374.40	421.30
374.60	440.02
374.79	477.47
374.99	449.38
375.19	418.96
375.38	465.77
375.58	369.80
375.78	451.72
375.97	381.51
376.17	369.80
376.37	447.04
376.56	500.87
376.76	477.47
376.95	381.51
377.15	444.70
377.35	355.76
377.54	423.64
377.74	388.53
377.93	421.30
378.13	388.53
378.33	428.32
378.52	360.44
378.72	360.44
378.91	404.91
379.11	402.57
379.31	388.53
379.50	433.00
379.70	430.66
379.89	486.83
380.09	454.06
380.28	383.85
380.48	411.93
380.68	386.19
380.87	360.44
381.07	341.72
381.26	468.11
381.46	430.66
381.65	341.72
381.85	400.23
382.04	407.25
382.24	409.59
382.43	407.25
382.63	400.23
382.83	475.13
383.02	498.53
383.22	369.80
383.41	337.04
383.61	468.11
383.80	433.00
384.00	416.62
384.19	404.91
384.39	404.91
384.58	423.64
384.78	386.19
384.97	435.34
385.17	393.21
385.36	388.53
385.56	404.91
385.75	425.98
385.95	444.70
386.14	407.25
386.34	411.93
386.53	423.64
386.72	400.23
386.92	454.06
387.11	468.11
387.31	390.87
387.50	404.91
387.70	390.87
387.89	369.80
388.09	416.62
388.28	404.91
388.48	440.02
388.67	397.89
388.86	423.64
389.06	353.42
389.25	418.96
389.45	447.04
389.64	367.46
389.84	339.38
390.03	388.53
390.22	388.53
390.42	421.30
390.61	365.12
390.81	388.53
391.00	397.89
391.19	458.74
391.39	397.89
391.58	454.06
391.78	386.19
391.97	409.59
392.16	369.80
392.36	428.32
392.55	430.66
392.75	425.98
392.94	440.02
393.13	379.17
393.33	292.57
393.52	407.25
393.71	465.77
393.91	447.04
394.10	346.40
394.29	414.27
394.49	444.70
394.68	440.02
394.88	418.96
395.07	421.30
395.26	430.66
395.46	390.87
395.65	435.34
395.84	416.62
396.04	421.30
396.23	416.62
396.42	386.19
396.62	404.91
396.81	418.96
397.00	454.06
397.19	332.36
397.39	418.96
397.58	395.55
397.77	444.70
397.97	376.83
398.16	339.38
398.35	475.13
398.55	400.23
398.74	372.15
398.93	423.64
399.12	411.93
399.32	423.64
399.51	470.45
399.70	484.49
399.90	449.38
400.09	407.25
400.28	440.02
400.47	395.55
400.67	442.36
400.86	458.74
401.05	449.38
401.24	449.38
401.44	463.43
401.63	423.64
401.82	484.49
402.01	379.17
402.21	414.27
402.40	395.55
402.59	397.89
402.78	332.36
402.97	425.98
403.17	360.44
403.36	404.91
403.55	428.32
403.74	390.87
403.93	360.44
404.13	425.98
404.32	435.34
404.51	521.94
404.70	435.34
404.89	388.53
405.09	402.57
405.28	374.49
405.47	358.10
405.66	369.80
405.85	383.85
406.05	369.80
406.24	421.30
406.43	390.87
406.62	386.19
406.81	372.15
407.00	428.32
407.20	362.78
407.39	388.53
407.58	430.66
407.77	423.64
407.96	386.19
408.15	339.38
408.34	369.80
408.54	383.85
408.73	386.19
408.92	409.59
409.11	433.00
409.30	440.02
409.49	393.21
409.68	442.36
409.87	428.32
410.07	407.25
410.26	437.68
410.45	407.25
410.64	374.49
410.83	456.40
411.02	397.89
411.21	395.55
411.40	430.66
411.59	327.68
411.78	304.27
411.98	425.98
412.17	404.91
412.36	416.62
412.55	393.21
412.74	465.77
412.93	400.23
413.12	376.83
413.31	468.11
413.50	444.70
413.69	425.98
413.88	533.64
414.07	409.59
414.26	425.98
414.45	353.42
414.64	376.83
414.83	374.49
415.02	355.76
415.22	421.30
415.41	411.93
415.60	390.87
415.79	440.02
415.98	379.17
416.17	369.80
416.36	425.98
416.55	407.25
416.74	395.55
416.93	418.96
417.12	327.68
417.31	374.49
417.50	369.80
417.69	477.47
417.88	411.93
418.07	369.80
418.26	390.87
418.45	440.02
418.64	447.04
418.83	407.25
419.02	367.46
419.21	386.19
419.39	440.02
419.58	365.12
419.77	463.43
419.96	383.85
420.15	386.19
420.34	421.30
420.53	402.57
420.72	393.21
420.91	353.42
421.10	390.87
421.29	372.15
421.48	416.62
421.67	404.91
421.86	337.04
422.05	433.00
422.24	444.70
422.43	376.83
422.61	407.25
422.80	376.83
422.99	390.87
423.18	430.66
423.37	454.06
423.56	348.74
423.75	355.76
423.94	386.19
424.13	381.51
424.32	409.59
424.50	358.10
424.69	470.45
424.88	491.51
425.07	451.72
425.26	407.25
425.45	447.04
425.64	430.66
425.83	491.51
426.01	470.45
426.20	470.45
426.39	435.34
426.58	449.38
426.77	458.74
426.96	418.96
427.15	390.87
427.33	407.25
427.52	505.56
427.71	458.74
427.90	447.04
428.09	353.42
428.28	477.47
428.46	376.83
428.65	367.46
428.84	449.38
429.03	447.04
429.22	430.66
429.40	425.98
429.59	355.76
429.78	423.64
429.97	411.93
430.16	386.19
430.34	379.17
430.53	407.25
430.72	435.34
430.91	456.40
431.10	372.15
431.28	332.36
431.47	402.57
431.66	411.93
431.85	393.21
432.03	451.72
432.22	447.04
432.41	421.30
432.60	461.09
432.79	395.55
432.97	451.72
433.16	456.40
433.35	332.36
433.54	365.12
433.72	369.80
433.91	407.25
434.10	428.32
434.28	423.64
434.47	442.36
434.66	428.32
434.85	353.42
435.03	496.19
435.22	407.25
435.41	409.59
435.59	444.70
435.78	409.59
435.97	393.21
436.16	428.32
436.34	383.85
436.53	397.89
436.72	447.04
436.90	418.96
437.09	411.93
437.28	355.76
437.46	433.00
437.65	337.04
437.84	435.34
438.02	430.66
438.21	435.34
438.40	341.72
438.58	339.38
438.77	355.76
438.96	454.06
439.14	395.55
439.33	458.74
439.52	444.70
439.70	470.45
439.89	411.93
440.08	390.87
440.26	423.64
440.45	465.77
440.63	430.66
440.82	395.55
441.01	414.27
441.19	386.19
441.38	440.02
441.57	430.66
441.75	367.46
441.94	451.72
442.12	418.96
442.31	292.57
442.50	400.23
442.68	414.27
442.87	484.49
443.05	365.12
443.24	386.19
443.43	433.00
443.61	449.38
443.80	416.62
443.98	369.80
444.17	421.30
444.35	463.43
444.54	440.02
444.73	414.27
444.91	337.04
445.10	409.59
445.28	339.38
445.47	374.49
445.65	414.27
445.84	458.74
446.02	451.72
446.21	425.98
446.39	388.53
446.58	367.46
446.77	402.57
446.95	407.25
447.14	421.30
447.32	397.89
447.51	374.49
447.69	421.30
447.88	400.23
448.06	472.79
448.25	423.64
448.43	400.23
448.62	411.93
448.80	393.21
448.99	435.34
449.17	306.61
449.36	397.89
449.54	449.38
449.73	402.57
449.91	435.34
450.10	454.06
450.28	454.06
450.46	444.70
450.65	416.62
450.83	414.27
451.02	500.87
451.20	449.38
451.39	430.66
451.57	411.93
451.76	365.12
451.94	425.98
452.13	421.30
452.31	484.49
452.49	411.93
452.68	414.27
452.86	428.32
453.05	491.51
453.23	311.29
453.42	402.57
453.60	416.62
453.78	440.02
453.97	418.96
454.15	353.42
454.34	372.15
454.52	395.55
454.70	393.21
454.89	421.30
455.07	440.02
455.26	418.96
455.44	353.42
455.62	402.57
455.81	437.68
455.99	393.21
456.17	388.53
456.36	376.83
456.54	381.51
456.73	454.06
456.91	416.62
457.09	423.64
457.28	386.19
457.46	383.85
457.64	447.04
457.83	449.38
458.01	430.66
458.19	388.53
458.38	404.91
458.56	362.78
458.74	376.83
458.93	449.38
459.11	376.83
459.29	437.68
459.48	383.85
459.66	458.74
459.84	425.98
460.03	482.15
460.21	470.45
460.39	404.91
460.57	465.77
460.76	390.87
460.94	425.98
461.12	454.06
461.31	444.70
461.49	390.87
461.67	484.49
461.85	428.32
462.04	407.25
462.22	791.10
462.40	437.68
462.59	393.21
462.77	407.25
462.95	440.02
463.13	325.33
463.32	468.11
463.50	330.02
463.68	409.59
463.86	367.46
464.05	433.00
464.23	449.38
464.41	414.27
464.59	393.21
464.78	444.70
464.96	395.55
465.14	435.34
465.32	447.04
465.50	400.23
465.69	442.36
465.87	390.87
466.05	437.68
466.23	425.98
466.41	379.17
466.60	454.06
466.78	397.89
466.96	486.83
467.14	400.23
467.32	418.96
467.51	386.19
467.69	444.70
467.87	456.40
468.05	337.04
468.23	440.02
468.41	379.17
468.60	411.93
468.78	451.72
468.96	465.77
469.14	395.55
469.32	425.98
469.50	479.81
469.69	358.10
469.87	414.27
470.05	409.59
470.23	414.27
470.41	444.70
470.59	369.80
470.77	372.15
470.95	421.30
471.14	376.83
471.32	374.49
471.50	454.06
471.68	388.53
471.86	468.11
472.04	428.32
472.22	381.51
472.40	397.89
472.58	402.57
472.77	388.53
472.95	463.43
473.13	500.87
473.31	482.15
473.49	400.23
473.67	428.32
473.85	444.70
474.03	479.81
474.21	425.98
474.39	482.15
474.57	411.93
474.75	470.45
474.93	351.08
475.12	447.04
475.30	421.30
475.48	486.83
475.66	433.00
475.84	402.57
476.02	430.66
476.20	435.34
476.38	491.51
476.56	440.02
476.74	390.87
476.92	449.38
477.10	379.17
477.28	433.00
477.46	386.19
477.64	484.49
477.82	486.83
478.00	348.74
478.18	449.38
478.36	395.55
478.54	444.70
478.72	365.12
478.90	423.64
479.08	360.44
479.26	428.32
479.44	369.80
479.62	390.87
479.80	374.49
479.98	402.57
480.16	386.19
480.34	395.55
480.52	540.66
480.70	390.87
480.88	395.55
481.06	421.30
481.24	435.34
481.41	393.21
481.59	428.32
481.77	414.27
481.95	454.06
482.13	519.60
482.31	430.66
482.49	409.59
482.67	386.19
482.85	486.83
483.03	393.21
483.21	367.46
483.39	428.32
483.57	379.17
483.74	489.17
483.92	393.21
484.10	505.56
484.28	433.00
484.46	482.15
484.64	449.38
484.82	444.70
485.00	500.87
485.18	381.51
485.35	383.85
485.53	496.19
485.71	393.21
485.89	414.27
486.07	503.22
486.25	423.64
486.43	442.36
486.61	374.49
486.78	407.25
486.96	407.25
487.14	404.91
487.32	367.46
487.50	409.59
487.68	400.23
487.85	437.68
488.03	442.36
488.21	416.62
488.39	423.64
488.57	416.62
488.75	400.23
488.92	479.81
489.10	428.32
489.28	409.59
489.46	444.70
489.64	362.78
489.81	351.08
489.99	397.89
490.17	423.64
490.35	566.41
490.53	400.23
490.70	388.53
490.88	456.40
491.06	411.93
491.24	395.55
491.41	482.15
491.59	433.00
491.77	379.17
491.95	379.17
492.13	339.38
492.30	372.15
492.48	433.00
492.66	449.38
492.84	400.23
493.01	376.83
493.19	344.06
493.37	425.98
493.54	435.34
493.72	458.74
493.90	428.32
494.08	404.91
494.25	461.09
494.43	423.64
494.61	353.42
494.79	437.68
494.96	465.77
495.14	386.19
495.32	393.21
495.49	435.34
495.67	486.83
495.85	388.53
496.02	379.17
496.20	449.38
496.38	386.19
496.55	381.51
496.73	365.12
496.91	372.15
497.09	430.66
497.26	379.17
497.44	348.74
497.62	411.93
497.79	348.74
497.97	372.15
498.14	388.53
498.32	358.10
498.50	411.93
498.67	369.80
498.85	404.91
499.03	395.55
499.20	425.98
499.38	423.64
499.56	423.64
499.73	388.53
499.91	395.55
500.08	421.30
500.26	407.25
500.44	442.36
500.61	390.87
500.79	386.19
500.97	407.25
501.14	449.38
501.32	369.80
501.49	498.53
501.67	418.96
501.84	437.68
502.02	390.87
502.20	404.91
502.37	383.85
502.55	428.32
502.72	390.87
502.90	416.62
503.07	425.98
503.25	496.19
503.43	348.74
503.60	430.66
503.78	456.40
503.95	416.62
504.13	365.12
504.30	449.38
504.48	388.53
504.65	435.34
504.83	423.64
505.01	327.68
505.18	444.70
505.36	475.13
505.53	341.72
505.71	430.66
505.88	416.62
506.06	421.30
506.23	486.83
506.41	358.10
506.58	411.93
506.76	433.00
506.93	414.27
507.11	430.66
507.28	376.83
507.46	435.34
507.63	402.57
507.81	428.32
507.98	402.57
508.16	416.62
508.33	418.96
508.50	369.80
508.68	411.93
508.85	416.62
509.03	411.93
509.20	393.21
509.38	418.96
509.55	447.04
509.73	404.91
509.90	418.96
510.08	454.06
510.25	428.32
510.42	365.12
510.60	400.23
510.77	414.27
510.95	512.58
511.12	388.53
511.30	418.96
511.47	444.70
511.64	442.36
511.82	390.87
511.99	425.98
512.17	367.46
512.34	374.49
512.51	435.34
512.69	430.66
512.86	437.68
513.04	369.80
513.21	425.98
513.38	414.27
513.56	372.15
513.73	409.59
513.90	390.87
514.08	337.04
514.25	386.19
514.43	404.91
514.60	430.66
514.77	390.87
514.95	442.36
515.12	416.62
515.29	421.30
515.47	428.32
515.64	472.79
515.81	430.66
515.99	489.17
516.16	421.30
516.33	472.79
516.51	423.64
516.68	416.62
516.85	435.34
517.03	456.40
517.20	482.15
517.37	470.45
517.54	397.89
517.72	379.17
517.89	402.57
518.06	423.64
518.24	482.15
518.41	388.53
518.58	362.78
518.75	355.76
518.93	428.32
519.10	491.51
519.27	440.02
519.45	433.00
519.62	440.02
519.79	423.64
519.96	351.08
520.14	360.44
520.31	423.64
520.48	400.23
520.65	421.30
520.83	465.77
521.00	454.06
521.17	360.44
521.34	400.23
521.52	395.55
521.69	397.89
521.86	428.32
522.03	430.66
522.20	479.81
522.38	414.27
522.55	407.25
522.72	381.51
522.89	475.13
523.07	418.96
523.24	416.62
523.41	409.59
523.58	435.34
523.75	423.64
523.92	407.25
524.10	369.80
524.27	337.04
524.44	416.62
524.61	388.53
524.78	395.55
524.96	463.43
525.13	402.57
525.30	358.10
525.47	479.81
525.64	416.62
525.81	402.57
525.98	395.55
526.16	421.30
526.33	390.87
526.50	400.23
526.67	416.62
526.84	421.30
527.01	421.30
527.18	454.06
527.36	372.15
527.53	339.38
527.70	421.30
527.87	456.40
528.04	461.09
528.21	369.80
528.38	437.68
528.55	454.06
528.72	472.79
528.89	454.06
529.07	414.27
529.24	503.22
529.41	475.13
529.58	442.36
529.75	451.72
529.92	418.96
530.09	381.51
530.26	444.70
530.43	442.36
530.60	421.30
530.77	477.47
530.94	393.21
531.11	416.62
531.28	397.89
531.46	433.00
531.63	411.93
531.80	376.83
531.97	456.40
532.14	367.46
532.31	400.23
532.48	409.59
532.65	407.25
532.82	428.32
532.99	465.77
533.16	414.27
533.33	348.74
533.50	400.23
533.67	421.30
533.84	421.30
534.01	376.83
534.18	451.72
534.35	447.04
534.52	397.89
534.69	393.21
534.86	468.11
535.03	416.62
535.20	369.80
535.37	409.59
535.54	339.38
535.71	416.62
535.88	402.57
536.05	353.42
536.22	423.64
536.38	458.74
536.55	486.83
536.72	402.57
536.89	449.38
537.06	393.21
537.23	482.15
537.40	454.06
537.57	365.12
537.74	416.62
537.91	451.72
538.08	379.17
538.25	461.09
538.42	390.87
538.59	358.10
538.75	416.62
538.92	362.78
539.09	444.70
539.26	514.92
539.43	486.83
539.60	430.66
539.77	500.87
539.94	372.15
540.11	447.04
540.28	425.98
540.44	489.17
540.61	320.65
540.78	374.49
540.95	425.98
541.12	430.66
541.29	433.00
541.46	407.25
541.62	400.23
541.79	386.19
541.96	344.06
542.13	395.55
542.30	376.83
542.47	458.74
542.63	372.15
542.80	402.57
542.97	458.74
543.14	425.98
543.31	477.47
543.48	463.43
543.64	360.44
543.81	447.04
543.98	393.21
544.15	447.04
544.32	449.38
544.48	402.57
544.65	418.96
544.82	409.59
544.99	397.89
545.16	440.02
545.32	423.64
545.49	425.98
545.66	337.04
545.83	386.19
546.00	407.25
546.16	435.34
546.33	433.00
546.50	383.85
546.67	423.64
546.83	447.04
547.00	447.04
547.17	425.98
547.34	397.89
547.50	472.79
547.67	402.57
547.84	376.83
548.00	334.70
548.17	400.23
548.34	425.98
548.51	435.34
548.67	407.25
548.84	409.59
549.01	404.91
549.18	447.04
549.34	451.72
549.51	418.96
549.68	367.46
549.84	365.12
550.01	418.96
550.18	437.68
550.34	428.32
550.51	416.62
550.68	433.00
550.84	421.30
551.01	437.68
551.18	425.98
551.34	433.00
551.51	407.25
551.68	381.51
551.84	358.10
552.01	402.57
552.18	477.47
552.34	433.00
552.51	388.53
552.68	468.11
552.84	418.96
553.01	409.59
553.18	425.98
553.34	374.49
553.51	411.93
553.67	423.64
553.84	435.34
554.01	435.34
554.17	442.36
554.34	416.62
554.51	472.79
554.67	423.64
554.84	411.93
555.00	437.68
555.17	444.70
555.33	468.11
555.50	383.85
555.67	437.68
555.83	461.09
556.00	409.59
556.16	610.88
556.33	435.34
556.50	393.21
556.66	353.42
556.83	367.46
556.99	416.62
557.16	416.62
557.32	353.42
557.49	444.70
557.65	400.23
557.82	416.62
557.98	425.98
558.15	353.42
558.32	414.27
558.48	484.49
558.65	435.34
558.81	395.55
558.98	447.04
559.14	414.27
559.31	369.80
559.47	496.19
559.64	414.27
559.80	475.13
559.97	444.70
560.13	390.87
560.30	440.02
560.46	388.53
560.63	386.19
560.79	397.89
560.96	393.21
561.12	379.17
561.29	388.53
561.45	390.87
561.61	386.19
561.78	489.17
561.94	421.30
562.11	400.23
562.27	393.21
562.44	379.17
562.60	400.23
562.77	414.27
562.93	428.32
563.10	414.27
563.26	430.66
563.42	512.58
563.59	318.31
563.75	388.53
563.92	489.17
564.08	451.72
564.24	400.23
564.41	468.11
564.57	421.30
564.74	484.49
564.90	428.32
565.07	428.32
565.23	437.68
565.39	423.64
565.56	393.21
565.72	418.96
565.88	451.72
566.05	332.36
566.21	423.64
566.38	414.27
566.54	447.04
566.70	463.43
566.87	421.30
567.03	421.30
567.19	461.09
567.36	475.13
567.52	341.72
567.68	397.89
567.85	423.64
568.01	447.04
568.17	505.56
568.34	339.38
568.50	470.45
568.66	369.80
568.83	416.62
568.99	423.64
569.15	379.17
569.32	437.68
569.48	435.34
569.64	447.04
569.81	425.98
569.97	423.64
570.13	402.57
570.30	337.04
570.46	430.66
570.62	386.19
570.78	461.09
570.95	360.44
571.11	402.57
571.27	395.55
571.43	414.27
571.60	468.11
571.76	390.87
571.92	400.23
572.09	334.70
572.25	353.42
572.41	416.62
572.57	489.17
572.74	458.74
572.90	461.09
573.06	491.51
573.22	355.76
573.38	540.66
573.55	407.25
573.71	365.12
573.87	381.51
574.03	430.66
574.20	409.59
574.36	379.17
574.52	411.93
574.68	395.55
574.84	407.25
575.01	454.06
575.17	554.71
575.33	451.72
575.49	430.66
575.65	531.30
575.82	433.00
575.98	409.59
576.14	393.21
576.30	442.36
576.46	477.47
576.62	411.93
576.79	428.32
576.95	386.19
577.11	503.22
577.27	425.98
577.43	397.89
577.59	435.34
577.75	430.66
577.92	428.32
578.08	358.10
578.24	355.76
578.40	418.96
578.56	468.11
578.72	433.00
578.88	484.49
579.04	327.68
579.21	423.64
579.37	397.89
579.53	418.96
579.69	407.25
579.85	400.23
580.01	362.78
580.17	344.06
580.33	386.19
580.49	402.57
580.65	428.32
580.82	444.70
580.98	390.87
581.14	428.32
581.30	463.43
581.46	433.00
581.62	463.43
581.78	423.64
581.94	423.64
582.10	423.64
582.26	425.98
582.42	362.78
582.58	468.11
582.74	454.06
582.90	475.13
583.06	505.56
583.22	425.98
583.38	372.15
583.54	449.38
583.70	465.77
583.86	404.91
584.02	454.06
584.18	472.79
584.34	461.09
584.50	402.57
584.66	397.89
584.82	395.55
584.98	440.02
585.14	383.85
585.30	414.27
585.46	428.32
585.62	430.66
585.78	409.59
585.94	458.74
586.10	442.36
586.26	435.34
586.42	475.13
586.58	428.32
586.74	447.04
586.90	430.66
587.06	442.36
587.22	397.89
587.38	416.62
587.54	308.95
587.70	444.70
587.86	435.34
588.02	388.53
588.18	376.83
588.34	463.43
588.49	397.89
588.65	348.74
588.81	393.21
588.97	388.53
589.13	393.21
589.29	381.51
589.45	418.96
589.61	447.04
589.77	393.21
589.93	379.17
590.08	404.91
590.24	362.78
590.40	442.36
590.56	484.49
590.72	433.00
590.88	440.02
591.04	409.59
591.20	353.42
591.35	444.70
591.51	447.04
591.67	397.89
591.83	397.89
591.99	395.55
592.15	409.59
592.31	428.32
592.46	404.91
592.62	449.38
592.78	461.09
592.94	397.89
593.10	379.17
593.26	397.89
593.41	411.93
593.57	437.68
593.73	463.43
593.89	435.34
594.05	428.32
594.20	369.80
594.36	468.11
594.52	407.25
594.68	393.21
594.84	409.59
594.99	444.70
595.15	456.40
595.31	425.98
595.47	451.72
595.62	421.30
595.78	451.72
595.94	458.74
596.10	465.77
596.25	348.74
596.41	430.66
596.57	414.27
596.73	461.09
596.88	465.77
597.04	404.91
597.20	409.59
597.36	482.15
597.51	414.27
597.67	442.36
597.83	440.02
597.99	447.04
598.14	428.32
598.30	414.27
598.46	449.38
598.61	461.09
598.77	397.89
598.93	407.25
599.09	461.09
599.24	451.72
599.40	430.66
599.56	409.59
599.71	428.32
599.87	330.02
600.03	388.53
600.18	472.79
600.34	395.55
600.50	454.06
600.65	505.56
600.81	465.77
600.97	430.66
601.12	465.77
601.28	416.62
601.44	425.98
601.59	386.19
601.75	358.10
601.91	430.66
602.06	395.55
602.22	510.24
602.37	442.36
602.53	411.93
602.69	407.25
602.84	437.68
603.00	404.91
603.16	454.06
603.31	440.02
603.47	521.94
603.62	374.49
603.78	435.34
603.94	409.59
604.09	435.34
604.25	444.70
604.40	386.19
604.56	372.15
604.71	465.77
604.87	346.40
605.03	400.23
605.18	339.38
605.34	454.06
605.49	507.90
605.65	463.43
605.80	397.89
605.96	397.89
606.12	465.77
606.27	414.27
606.43	484.49
606.58	362.78
606.74	416.62
606.89	332.36
607.05	395.55
607.20	365.12
607.36	395.55
607.51	374.49
607.67	362.78
607.82	489.17
607.98	437.68
608.13	470.45
608.29	482.15
608.44	386.19
608.60	425.98
608.75	430.66
608.91	437.68
609.06	437.68
609.22	449.38
609.37	435.34
609.53	430.66
609.68	433.00
609.84	376.83
609.99	372.15
610.15	440.02
