SpectraSuite Data File
++++++++++++++++++++++++++++++++++++
Date: Fri Oct 25 12:11:07 EDT 2013
User: price-jones
Dark Spectrum Present: No
Reference Spectrum Present: No
Number of Sampled Component Spectra: 1
Spectrometers: USB2+H05261
Integration Time (usec): 100000 (USB2+H05261)
Spectra Averaged: 1 (USB2+H05261)
Boxcar Smoothing: 0 (USB2+H05261)
Correct for Electrical Dark: No (USB2+H05261)
Strobe/Lamp Enabled: No (USB2+H05261)
Correct for Detector Non-linearity: No (USB2+H05261)
Correct for Stray Light: No (USB2+H05261)
Number of Pixels in Processed Spectrum: 2048
>>>>>Begin Processed Spectral Data<<<<<
365.73	315.97
365.92	315.97
366.12	315.97
366.32	229.37
366.52	269.16
366.72	259.80
366.91	234.05
367.11	231.71
367.31	210.65
367.51	212.99
367.70	222.35
367.90	257.46
368.10	227.03
368.30	266.82
368.49	210.65
368.69	259.80
368.89	266.82
369.09	365.12
369.28	297.25
369.48	297.25
369.68	358.10
369.87	330.02
370.07	320.65
370.27	278.52
370.47	334.70
370.66	374.49
370.86	367.46
371.06	407.25
371.25	400.23
371.45	402.57
371.65	360.44
371.84	383.85
372.04	304.27
372.24	433.00
372.44	397.89
372.63	468.11
372.83	458.74
373.03	395.55
373.22	400.23
373.42	393.21
373.62	341.72
373.81	430.66
374.01	425.98
374.21	411.93
374.40	447.04
374.60	416.62
374.79	470.45
374.99	351.08
375.19	477.47
375.38	416.62
375.58	433.00
375.78	407.25
375.97	393.21
376.17	519.60
376.37	423.64
376.56	409.59
376.76	425.98
376.95	379.17
377.15	435.34
377.35	465.77
377.54	435.34
377.74	397.89
377.93	411.93
378.13	411.93
378.33	491.51
378.52	411.93
378.72	423.64
378.91	409.59
379.11	442.36
379.31	468.11
379.50	388.53
379.70	404.91
379.89	400.23
380.09	435.34
380.28	358.10
380.48	496.19
380.68	440.02
380.87	362.78
381.07	440.02
381.26	414.27
381.46	358.10
381.65	404.91
381.85	397.89
382.04	397.89
382.24	414.27
382.43	369.80
382.63	379.17
382.83	428.32
383.02	465.77
383.22	456.40
383.41	360.44
383.61	372.15
383.80	444.70
384.00	365.12
384.19	344.06
384.39	362.78
384.58	369.80
384.78	423.64
384.97	383.85
385.17	376.83
385.36	404.91
385.56	435.34
385.75	346.40
385.95	400.23
386.14	433.00
386.34	365.12
386.53	468.11
386.72	369.80
386.92	414.27
387.11	498.53
387.31	454.06
387.50	351.08
387.70	440.02
387.89	425.98
388.09	458.74
388.28	409.59
388.48	416.62
388.67	456.40
388.86	428.32
389.06	449.38
389.25	430.66
389.45	365.12
389.64	402.57
389.84	397.89
390.03	428.32
390.22	397.89
390.42	369.80
390.61	313.63
390.81	400.23
391.00	407.25
391.19	447.04
391.39	353.42
391.58	442.36
391.78	425.98
391.97	482.15
392.16	414.27
392.36	442.36
392.55	402.57
392.75	458.74
392.94	388.53
393.13	367.46
393.33	374.49
393.52	395.55
393.71	437.68
393.91	299.59
394.10	404.91
394.29	388.53
394.49	433.00
394.68	341.72
394.88	409.59
395.07	447.04
395.26	397.89
395.46	383.85
395.65	414.27
395.84	437.68
396.04	449.38
396.23	440.02
396.42	416.62
396.62	414.27
396.81	416.62
397.00	423.64
397.19	400.23
397.39	395.55
397.58	423.64
397.77	376.83
397.97	390.87
398.16	386.19
398.35	407.25
398.55	327.68
398.74	404.91
398.93	463.43
399.12	348.74
399.32	433.00
399.51	414.27
399.70	451.72
399.90	433.00
400.09	383.85
400.28	496.19
400.47	425.98
400.67	435.34
400.86	390.87
401.05	379.17
401.24	315.97
401.44	372.15
401.63	454.06
401.82	425.98
402.01	365.12
402.21	379.17
402.40	341.72
402.59	365.12
402.78	397.89
402.97	407.25
403.17	407.25
403.36	423.64
403.55	369.80
403.74	353.42
403.93	430.66
404.13	449.38
404.32	367.46
404.51	409.59
404.70	374.49
404.89	400.23
405.09	433.00
405.28	397.89
405.47	402.57
405.66	433.00
405.85	407.25
406.05	386.19
406.24	407.25
406.43	463.43
406.62	442.36
406.81	496.19
407.00	360.44
407.20	369.80
407.39	367.46
407.58	449.38
407.77	411.93
407.96	456.40
408.15	449.38
408.34	404.91
408.54	423.64
408.73	395.55
408.92	348.74
409.11	400.23
409.30	400.23
409.49	395.55
409.68	388.53
409.87	388.53
410.07	374.49
410.26	374.49
410.45	440.02
410.64	440.02
410.83	444.70
411.02	447.04
411.21	416.62
411.40	423.64
411.59	362.78
411.78	461.09
411.98	395.55
412.17	393.21
412.36	393.21
412.55	411.93
412.74	430.66
412.93	463.43
413.12	379.17
413.31	465.77
413.50	454.06
413.69	433.00
413.88	444.70
414.07	400.23
414.26	430.66
414.45	367.46
414.64	465.77
414.83	411.93
415.02	416.62
415.22	395.55
415.41	440.02
415.60	374.49
415.79	348.74
415.98	404.91
416.17	332.36
416.36	416.62
416.55	423.64
416.74	463.43
416.93	454.06
417.12	416.62
417.31	388.53
417.50	423.64
417.69	500.87
417.88	503.22
418.07	414.27
418.26	383.85
418.45	475.13
418.64	367.46
418.83	407.25
419.02	416.62
419.21	383.85
419.39	421.30
419.58	386.19
419.77	351.08
419.96	456.40
420.15	479.81
420.34	353.42
420.53	407.25
420.72	416.62
420.91	287.89
421.10	472.79
421.29	348.74
421.48	425.98
421.67	454.06
421.86	451.72
422.05	468.11
422.24	402.57
422.43	388.53
422.61	388.53
422.80	447.04
422.99	400.23
423.18	397.89
423.37	397.89
423.56	358.10
423.75	418.96
423.94	367.46
424.13	428.32
424.32	409.59
424.50	421.30
424.69	416.62
424.88	402.57
425.07	421.30
425.26	521.94
425.45	404.91
425.64	393.21
425.83	397.89
426.01	433.00
426.20	409.59
426.39	379.17
426.58	409.59
426.77	440.02
426.96	414.27
427.15	414.27
427.33	393.21
427.52	454.06
427.71	409.59
427.90	465.77
428.09	414.27
428.28	325.33
428.46	414.27
428.65	440.02
428.84	444.70
429.03	449.38
429.22	404.91
429.40	402.57
429.59	379.17
429.78	463.43
429.97	395.55
430.16	437.68
430.34	465.77
430.53	397.89
430.72	421.30
430.91	365.12
431.10	428.32
431.28	421.30
431.47	390.87
431.66	430.66
431.85	397.89
432.03	395.55
432.22	440.02
432.41	402.57
432.60	470.45
432.79	379.17
432.97	390.87
433.16	374.49
433.35	393.21
433.54	393.21
433.72	416.62
433.91	430.66
434.10	428.32
434.28	468.11
434.47	393.21
434.66	421.30
434.85	386.19
435.03	372.15
435.22	411.93
435.41	456.40
435.59	456.40
435.78	416.62
435.97	463.43
436.16	465.77
436.34	397.89
436.53	381.51
436.72	470.45
436.90	416.62
437.09	484.49
437.28	486.83
437.46	411.93
437.65	449.38
437.84	440.02
438.02	372.15
438.21	489.17
438.40	447.04
438.58	472.79
438.77	465.77
438.96	381.51
439.14	383.85
439.33	362.78
439.52	416.62
439.70	430.66
439.89	423.64
440.08	468.11
440.26	428.32
440.45	533.64
440.63	411.93
440.82	414.27
441.01	451.72
441.19	383.85
441.38	461.09
441.57	479.81
441.75	395.55
441.94	358.10
442.12	447.04
442.31	360.44
442.50	390.87
442.68	355.76
442.87	416.62
443.05	421.30
443.24	435.34
443.43	458.74
443.61	503.22
443.80	444.70
443.98	458.74
444.17	388.53
444.35	411.93
444.54	430.66
444.73	400.23
444.91	442.36
445.10	437.68
445.28	423.64
445.47	498.53
445.65	320.65
445.84	418.96
446.02	440.02
446.21	414.27
446.39	414.27
446.58	456.40
446.77	411.93
446.95	407.25
447.14	407.25
447.32	407.25
447.51	430.66
447.69	451.72
447.88	416.62
448.06	482.15
448.25	482.15
448.43	437.68
448.62	418.96
448.80	376.83
448.99	404.91
449.17	386.19
449.36	414.27
449.54	521.94
449.73	421.30
449.91	407.25
450.10	440.02
450.28	444.70
450.46	486.83
450.65	404.91
450.83	383.85
451.02	372.15
451.20	491.51
451.39	414.27
451.57	411.93
451.76	425.98
451.94	388.53
452.13	348.74
452.31	404.91
452.49	454.06
452.68	465.77
452.86	416.62
453.05	437.68
453.23	463.43
453.42	376.83
453.60	470.45
453.78	430.66
453.97	402.57
454.15	425.98
454.34	435.34
454.52	423.64
454.70	477.47
454.89	428.32
455.07	400.23
455.26	486.83
455.44	447.04
455.62	348.74
455.81	400.23
455.99	351.08
456.17	482.15
456.36	411.93
456.54	344.06
456.73	437.68
456.91	374.49
457.09	521.94
457.28	397.89
457.46	341.72
457.64	423.64
457.83	411.93
458.01	383.85
458.19	421.30
458.38	433.00
458.56	442.36
458.74	416.62
458.93	433.00
459.11	402.57
459.29	409.59
459.48	388.53
459.66	451.72
459.84	386.19
460.03	484.49
460.21	414.27
460.39	435.34
460.57	404.91
460.76	383.85
460.94	411.93
461.12	463.43
461.31	472.79
461.49	435.34
461.67	400.23
461.85	315.97
462.04	425.98
462.22	774.72
462.40	423.64
462.59	496.19
462.77	411.93
462.95	421.30
463.13	395.55
463.32	454.06
463.50	428.32
463.68	360.44
463.86	416.62
464.05	425.98
464.23	407.25
464.41	409.59
464.59	390.87
464.78	393.21
464.96	367.46
465.14	411.93
465.32	379.17
465.50	458.74
465.69	400.23
465.87	409.59
466.05	360.44
466.23	390.87
466.41	414.27
466.60	409.59
466.78	444.70
466.96	463.43
467.14	416.62
467.32	484.49
467.51	451.72
467.69	465.77
467.87	414.27
468.05	484.49
468.23	411.93
468.41	400.23
468.60	414.27
468.78	428.32
468.96	435.34
469.14	355.76
469.32	395.55
469.50	397.89
469.69	484.49
469.87	423.64
470.05	447.04
470.23	482.15
470.41	409.59
470.59	395.55
470.77	425.98
470.95	437.68
471.14	472.79
471.32	475.13
471.50	393.21
471.68	414.27
471.86	355.76
472.04	421.30
472.22	404.91
472.40	444.70
472.58	437.68
472.77	411.93
472.95	407.25
473.13	463.43
473.31	451.72
473.49	411.93
473.67	397.89
473.85	470.45
474.03	407.25
474.21	353.42
474.39	454.06
474.57	482.15
474.75	433.00
474.93	351.08
475.12	355.76
475.30	447.04
475.48	423.64
475.66	393.21
475.84	414.27
476.02	351.08
476.20	409.59
476.38	421.30
476.56	479.81
476.74	383.85
476.92	425.98
477.10	388.53
477.28	512.58
477.46	449.38
477.64	430.66
477.82	334.70
478.00	465.77
478.18	402.57
478.36	372.15
478.54	386.19
478.72	430.66
478.90	435.34
479.08	388.53
479.26	400.23
479.44	425.98
479.62	374.49
479.80	397.89
479.98	390.87
480.16	444.70
480.34	449.38
480.52	456.40
480.70	430.66
480.88	428.32
481.06	400.23
481.24	437.68
481.41	358.10
481.59	418.96
481.77	447.04
481.95	458.74
482.13	486.83
482.31	465.77
482.49	404.91
482.67	381.51
482.85	416.62
483.03	414.27
483.21	402.57
483.39	402.57
483.57	383.85
483.74	425.98
483.92	325.33
484.10	400.23
484.28	479.81
484.46	440.02
484.64	400.23
484.82	386.19
485.00	376.83
485.18	388.53
485.35	402.57
485.53	379.17
485.71	470.45
485.89	360.44
486.07	428.32
486.25	414.27
486.43	449.38
486.61	402.57
486.78	428.32
486.96	362.78
487.14	360.44
487.32	430.66
487.50	397.89
487.68	531.30
487.85	421.30
488.03	388.53
488.21	489.17
488.39	447.04
488.57	409.59
488.75	440.02
488.92	514.92
489.10	437.68
489.28	404.91
489.46	440.02
489.64	498.53
489.81	425.98
489.99	383.85
490.17	454.06
490.35	433.00
490.53	440.02
490.70	416.62
490.88	449.38
491.06	454.06
491.24	397.89
491.41	393.21
491.59	379.17
491.77	381.51
491.95	435.34
492.13	456.40
492.30	416.62
492.48	372.15
492.66	367.46
492.84	376.83
493.01	404.91
493.19	407.25
493.37	440.02
493.54	393.21
493.72	404.91
493.90	388.53
494.08	388.53
494.25	365.12
494.43	346.40
494.61	444.70
494.79	423.64
494.96	383.85
495.14	411.93
495.32	435.34
495.49	465.77
495.67	421.30
495.85	397.89
496.02	425.98
496.20	362.78
496.38	355.76
496.55	456.40
496.73	440.02
496.91	400.23
497.09	430.66
497.26	428.32
497.44	383.85
497.62	404.91
497.79	421.30
497.97	400.23
498.14	390.87
498.32	447.04
498.50	449.38
498.67	407.25
498.85	458.74
499.03	411.93
499.20	442.36
499.38	440.02
499.56	386.19
499.73	465.77
499.91	435.34
500.08	409.59
500.26	372.15
500.44	381.51
500.61	414.27
500.79	421.30
500.97	489.17
501.14	465.77
501.32	402.57
501.49	367.46
501.67	404.91
501.84	425.98
502.02	468.11
502.20	470.45
502.37	414.27
502.55	442.36
502.72	393.21
502.90	468.11
503.07	395.55
503.25	407.25
503.43	430.66
503.60	430.66
503.78	416.62
503.95	383.85
504.13	379.17
504.30	393.21
504.48	407.25
504.65	425.98
504.83	447.04
505.01	407.25
505.18	407.25
505.36	411.93
505.53	437.68
505.71	461.09
505.88	367.46
506.06	404.91
506.23	416.62
506.41	390.87
506.58	414.27
506.76	376.83
506.93	470.45
507.11	383.85
507.28	428.32
507.46	416.62
507.63	456.40
507.81	428.32
507.98	386.19
508.16	433.00
508.33	444.70
508.50	414.27
508.68	362.78
508.85	421.30
509.03	444.70
509.20	463.43
509.38	395.55
509.55	397.89
509.73	416.62
509.90	468.11
510.08	404.91
510.25	404.91
510.42	416.62
510.60	428.32
510.77	386.19
510.95	402.57
511.12	393.21
511.30	447.04
511.47	365.12
511.64	440.02
511.82	404.91
511.99	425.98
512.17	433.00
512.34	444.70
512.51	402.57
512.69	423.64
512.86	390.87
513.04	383.85
513.21	421.30
513.38	411.93
513.56	390.87
513.73	425.98
513.90	374.49
514.08	393.21
514.25	442.36
514.43	395.55
514.60	346.40
514.77	411.93
514.95	407.25
515.12	435.34
515.29	531.30
515.47	451.72
515.64	372.15
515.81	428.32
515.99	421.30
516.16	411.93
516.33	411.93
516.51	402.57
516.68	442.36
516.85	414.27
517.03	358.10
517.20	360.44
517.37	444.70
517.54	433.00
517.72	409.59
517.89	477.47
518.06	339.38
518.24	449.38
518.41	444.70
518.58	418.96
518.75	395.55
518.93	397.89
519.10	409.59
519.27	418.96
519.45	477.47
519.62	416.62
519.79	407.25
519.96	416.62
520.14	379.17
520.31	456.40
520.48	472.79
520.65	458.74
520.83	425.98
521.00	374.49
521.17	411.93
521.34	351.08
521.52	428.32
521.69	458.74
521.86	353.42
522.03	411.93
522.20	505.56
522.38	402.57
522.55	493.85
522.72	425.98
522.89	428.32
523.07	479.81
523.24	465.77
523.41	367.46
523.58	337.04
523.75	414.27
523.92	402.57
524.10	395.55
524.27	437.68
524.44	423.64
524.61	390.87
524.78	421.30
524.96	407.25
525.13	435.34
525.30	393.21
525.47	390.87
525.64	421.30
525.81	430.66
525.98	409.59
526.16	418.96
526.33	421.30
526.50	388.53
526.67	437.68
526.84	402.57
527.01	437.68
527.18	451.72
527.36	376.83
527.53	360.44
527.70	458.74
527.87	376.83
528.04	428.32
528.21	376.83
528.38	428.32
528.55	332.36
528.72	444.70
528.89	447.04
529.07	442.36
529.24	440.02
529.41	341.72
529.58	397.89
529.75	461.09
529.92	444.70
530.09	440.02
530.26	360.44
530.43	416.62
530.60	379.17
530.77	358.10
530.94	468.11
531.11	425.98
531.28	402.57
531.46	407.25
531.63	425.98
531.80	418.96
531.97	472.79
532.14	463.43
532.31	411.93
532.48	414.27
532.65	294.91
532.82	414.27
532.99	454.06
533.16	402.57
533.33	388.53
533.50	395.55
533.67	393.21
533.84	379.17
534.01	402.57
534.18	449.38
534.35	404.91
534.52	444.70
534.69	400.23
534.86	348.74
535.03	379.17
535.20	451.72
535.37	428.32
535.54	393.21
535.71	442.36
535.88	465.77
536.05	475.13
536.22	463.43
536.38	400.23
536.55	465.77
536.72	435.34
536.89	409.59
537.06	404.91
537.23	437.68
537.40	381.51
537.57	395.55
537.74	425.98
537.91	461.09
538.08	360.44
538.25	489.17
538.42	397.89
538.59	444.70
538.75	409.59
538.92	468.11
539.09	444.70
539.26	376.83
539.43	409.59
539.60	447.04
539.77	503.22
539.94	416.62
540.11	425.98
540.28	411.93
540.44	409.59
540.61	447.04
540.78	461.09
540.95	411.93
541.12	447.04
541.29	409.59
541.46	430.66
541.62	404.91
541.79	463.43
541.96	461.09
542.13	444.70
542.30	421.30
542.47	458.74
542.63	465.77
542.80	484.49
542.97	383.85
543.14	414.27
543.31	454.06
543.48	447.04
543.64	386.19
543.81	381.51
543.98	404.91
544.15	425.98
544.32	362.78
544.48	355.76
544.65	367.46
544.82	512.58
544.99	423.64
545.16	435.34
545.32	318.31
545.49	395.55
545.66	437.68
545.83	475.13
546.00	369.80
546.16	442.36
546.33	358.10
546.50	428.32
546.67	468.11
546.83	484.49
547.00	428.32
547.17	379.17
547.34	369.80
547.50	367.46
547.67	369.80
547.84	430.66
548.00	367.46
548.17	379.17
548.34	458.74
548.51	430.66
548.67	386.19
548.84	423.64
549.01	383.85
549.18	388.53
549.34	409.59
549.51	388.53
549.68	402.57
549.84	425.98
550.01	463.43
550.18	484.49
550.34	479.81
550.51	451.72
550.68	477.47
550.84	447.04
551.01	440.02
551.18	458.74
551.34	372.15
551.51	351.08
551.68	402.57
551.84	428.32
552.01	395.55
552.18	374.49
552.34	454.06
552.51	404.91
552.68	369.80
552.84	418.96
553.01	351.08
553.18	409.59
553.34	407.25
553.51	451.72
553.67	458.74
553.84	393.21
554.01	393.21
554.17	456.40
554.34	416.62
554.51	425.98
554.67	447.04
554.84	437.68
555.00	416.62
555.17	442.36
555.33	463.43
555.50	444.70
555.67	414.27
555.83	395.55
556.00	482.15
556.16	550.03
556.33	573.43
556.50	409.59
556.66	360.44
556.83	381.51
556.99	463.43
557.16	444.70
557.32	411.93
557.49	386.19
557.65	404.91
557.82	440.02
557.98	435.34
558.15	475.13
558.32	428.32
558.48	418.96
558.65	369.80
558.81	400.23
558.98	470.45
559.14	468.11
559.31	355.76
559.47	353.42
559.64	337.04
559.80	435.34
559.97	386.19
560.13	409.59
560.30	437.68
560.46	404.91
560.63	376.83
560.79	458.74
560.96	423.64
561.12	472.79
561.29	423.64
561.45	435.34
561.61	449.38
561.78	491.51
561.94	393.21
562.11	414.27
562.27	423.64
562.44	435.34
562.60	456.40
562.77	397.89
562.93	526.62
563.10	390.87
563.26	489.17
563.42	383.85
563.59	416.62
563.75	355.76
563.92	475.13
564.08	409.59
564.24	416.62
564.41	404.91
564.57	383.85
564.74	365.12
564.90	404.91
565.07	484.49
565.23	416.62
565.39	418.96
565.56	425.98
565.72	383.85
565.88	428.32
566.05	430.66
566.21	491.51
566.38	435.34
566.54	447.04
566.70	507.90
566.87	484.49
567.03	388.53
567.19	393.21
567.36	351.08
567.52	425.98
567.68	470.45
567.85	388.53
568.01	407.25
568.17	395.55
568.34	362.78
568.50	451.72
568.66	393.21
568.83	491.51
568.99	486.83
569.15	472.79
569.32	376.83
569.48	449.38
569.64	400.23
569.81	400.23
569.97	435.34
570.13	379.17
570.30	411.93
570.46	507.90
570.62	388.53
570.78	395.55
570.95	486.83
571.11	437.68
571.27	472.79
571.43	383.85
571.60	479.81
571.76	341.72
571.92	418.96
572.09	430.66
572.25	425.98
572.41	402.57
572.57	409.59
572.74	404.91
572.90	428.32
573.06	409.59
573.22	407.25
573.38	386.19
573.55	351.08
573.71	468.11
573.87	386.19
574.03	402.57
574.20	402.57
574.36	468.11
574.52	461.09
574.68	372.15
574.84	376.83
575.01	353.42
575.17	372.15
575.33	463.43
575.49	449.38
575.65	479.81
575.82	447.04
575.98	449.38
576.14	395.55
576.30	482.15
576.46	435.34
576.62	395.55
576.79	475.13
576.95	346.40
577.11	397.89
577.27	428.32
577.43	372.15
577.59	425.98
577.75	428.32
577.92	444.70
578.08	402.57
578.24	425.98
578.40	433.00
578.56	416.62
578.72	400.23
578.88	425.98
579.04	444.70
579.21	498.53
579.37	376.83
579.53	395.55
579.69	437.68
579.85	294.91
580.01	416.62
580.17	404.91
580.33	383.85
580.49	404.91
580.65	409.59
580.82	407.25
580.98	402.57
581.14	369.80
581.30	365.12
581.46	400.23
581.62	388.53
581.78	337.04
581.94	362.78
582.10	414.27
582.26	395.55
582.42	491.51
582.58	440.02
582.74	409.59
582.90	409.59
583.06	400.23
583.22	444.70
583.38	379.17
583.54	367.46
583.70	428.32
583.86	440.02
584.02	358.10
584.18	479.81
584.34	423.64
584.50	409.59
584.66	379.17
584.82	430.66
584.98	409.59
585.14	400.23
585.30	418.96
585.46	318.31
585.62	411.93
585.78	390.87
585.94	372.15
586.10	489.17
586.26	409.59
586.42	496.19
586.58	407.25
586.74	454.06
586.90	416.62
587.06	447.04
587.22	430.66
587.38	379.17
587.54	435.34
587.70	470.45
587.86	395.55
588.02	390.87
588.18	379.17
588.34	407.25
588.49	418.96
588.65	418.96
588.81	423.64
588.97	360.44
589.13	435.34
589.29	437.68
589.45	433.00
589.61	496.19
589.77	482.15
589.93	379.17
590.08	383.85
590.24	416.62
590.40	416.62
590.56	470.45
590.72	404.91
590.88	360.44
591.04	355.76
591.20	388.53
591.35	397.89
591.51	421.30
591.67	351.08
591.83	346.40
591.99	421.30
592.15	425.98
592.31	414.27
592.46	379.17
592.62	435.34
592.78	386.19
592.94	451.72
593.10	374.49
593.26	433.00
593.41	404.91
593.57	360.44
593.73	374.49
593.89	423.64
594.05	411.93
594.20	376.83
594.36	451.72
594.52	454.06
594.68	379.17
594.84	461.09
594.99	390.87
595.15	477.47
595.31	454.06
595.47	411.93
595.62	456.40
595.78	404.91
595.94	390.87
596.10	444.70
596.25	407.25
596.41	461.09
596.57	379.17
596.73	414.27
596.88	482.15
597.04	400.23
597.20	477.47
597.36	402.57
597.51	428.32
597.67	418.96
597.83	339.38
597.99	425.98
598.14	402.57
598.30	482.15
598.46	458.74
598.61	442.36
598.77	425.98
598.93	486.83
599.09	400.23
599.24	451.72
599.40	451.72
599.56	440.02
599.71	409.59
599.87	383.85
600.03	421.30
600.18	470.45
600.34	423.64
600.50	402.57
600.65	444.70
600.81	388.53
600.97	444.70
601.12	400.23
601.28	463.43
601.44	400.23
601.59	416.62
601.75	402.57
601.91	348.74
602.06	390.87
602.22	451.72
602.37	470.45
602.53	322.99
602.69	374.49
602.84	334.70
603.00	418.96
603.16	500.87
603.31	423.64
603.47	346.40
603.62	418.96
603.78	428.32
603.94	372.15
604.09	440.02
604.25	428.32
604.40	491.51
604.56	407.25
604.71	435.34
604.87	360.44
605.03	423.64
605.18	435.34
605.34	388.53
605.49	416.62
605.65	369.80
605.80	367.46
605.96	414.27
606.12	437.68
606.27	454.06
606.43	407.25
606.58	465.77
606.74	414.27
606.89	348.74
607.05	433.00
607.20	400.23
607.36	365.12
607.51	475.13
607.67	512.58
607.82	486.83
607.98	493.85
608.13	463.43
608.29	416.62
608.44	425.98
608.60	311.29
608.75	444.70
608.91	444.70
609.06	461.09
609.22	433.00
609.37	374.49
609.53	393.21
609.68	344.06
609.84	379.17
609.99	418.96
610.15	397.89
