SpectraSuite Data File
++++++++++++++++++++++++++++++++++++
Date: Fri Oct 25 12:11:24 EDT 2013
User: price-jones
Dark Spectrum Present: No
Reference Spectrum Present: No
Number of Sampled Component Spectra: 1
Spectrometers: USB2+H05261
Integration Time (usec): 100000 (USB2+H05261)
Spectra Averaged: 1 (USB2+H05261)
Boxcar Smoothing: 0 (USB2+H05261)
Correct for Electrical Dark: No (USB2+H05261)
Strobe/Lamp Enabled: No (USB2+H05261)
Correct for Detector Non-linearity: No (USB2+H05261)
Correct for Stray Light: No (USB2+H05261)
Number of Pixels in Processed Spectrum: 2048
>>>>>Begin Processed Spectral Data<<<<<
365.73	334.70
365.92	334.70
366.12	334.70
366.32	234.05
366.52	243.42
366.72	217.67
366.91	236.39
367.11	250.44
367.31	217.67
367.51	259.80
367.70	276.18
367.90	266.82
368.10	292.57
368.30	217.67
368.49	234.05
368.69	236.39
368.89	287.89
369.09	210.65
369.28	276.18
369.48	315.97
369.68	308.95
369.87	273.84
370.07	327.68
370.27	348.74
370.47	339.38
370.66	271.50
370.86	367.46
371.06	386.19
371.25	425.98
371.45	379.17
371.65	367.46
371.84	372.15
372.04	383.85
372.24	402.57
372.44	437.68
372.63	437.68
372.83	390.87
373.03	386.19
373.22	330.02
373.42	407.25
373.62	315.97
373.81	381.51
374.01	421.30
374.21	404.91
374.40	390.87
374.60	393.21
374.79	461.09
374.99	454.06
375.19	388.53
375.38	411.93
375.58	442.36
375.78	437.68
375.97	402.57
376.17	526.62
376.37	425.98
376.56	430.66
376.76	341.72
376.95	416.62
377.15	404.91
377.35	388.53
377.54	395.55
377.74	447.04
377.93	454.06
378.13	411.93
378.33	404.91
378.52	374.49
378.72	397.89
378.91	418.96
379.11	395.55
379.31	411.93
379.50	367.46
379.70	393.21
379.89	444.70
380.09	416.62
380.28	355.76
380.48	425.98
380.68	381.51
380.87	346.40
381.07	372.15
381.26	365.12
381.46	388.53
381.65	369.80
381.85	397.89
382.04	362.78
382.24	390.87
382.43	397.89
382.63	440.02
382.83	397.89
383.02	421.30
383.22	407.25
383.41	451.72
383.61	425.98
383.80	451.72
384.00	430.66
384.19	411.93
384.39	407.25
384.58	386.19
384.78	383.85
384.97	440.02
385.17	369.80
385.36	444.70
385.56	435.34
385.75	449.38
385.95	414.27
386.14	461.09
386.34	505.56
386.53	374.49
386.72	390.87
386.92	374.49
387.11	376.83
387.31	423.64
387.50	456.40
387.70	477.47
387.89	369.80
388.09	395.55
388.28	421.30
388.48	449.38
388.67	433.00
388.86	423.64
389.06	451.72
389.25	390.87
389.45	421.30
389.64	440.02
389.84	442.36
390.03	447.04
390.22	463.43
390.42	407.25
390.61	444.70
390.81	383.85
391.00	430.66
391.19	465.77
391.39	444.70
391.58	440.02
391.78	447.04
391.97	388.53
392.16	372.15
392.36	407.25
392.55	461.09
392.75	416.62
392.94	489.17
393.13	425.98
393.33	428.32
393.52	449.38
393.71	411.93
393.91	435.34
394.10	395.55
394.29	393.21
394.49	381.51
394.68	416.62
394.88	388.53
395.07	472.79
395.26	440.02
395.46	454.06
395.65	383.85
395.84	397.89
396.04	456.40
396.23	414.27
396.42	444.70
396.62	407.25
396.81	383.85
397.00	449.38
397.19	404.91
397.39	416.62
397.58	372.15
397.77	428.32
397.97	416.62
398.16	379.17
398.35	463.43
398.55	435.34
398.74	339.38
398.93	358.10
399.12	294.91
399.32	360.44
399.51	365.12
399.70	433.00
399.90	437.68
400.09	395.55
400.28	433.00
400.47	425.98
400.67	376.83
400.86	425.98
401.05	444.70
401.24	407.25
401.44	416.62
401.63	472.79
401.82	430.66
402.01	381.51
402.21	411.93
402.40	444.70
402.59	348.74
402.78	409.59
402.97	404.91
403.17	351.08
403.36	362.78
403.55	367.46
403.74	386.19
403.93	376.83
404.13	465.77
404.32	423.64
404.51	381.51
404.70	390.87
404.89	358.10
405.09	418.96
405.28	400.23
405.47	428.32
405.66	411.93
405.85	425.98
406.05	449.38
406.24	411.93
406.43	442.36
406.62	456.40
406.81	458.74
407.00	388.53
407.20	360.44
407.39	418.96
407.58	458.74
407.77	395.55
407.96	416.62
408.15	433.00
408.34	367.46
408.54	395.55
408.73	454.06
408.92	369.80
409.11	433.00
409.30	404.91
409.49	318.31
409.68	365.12
409.87	437.68
410.07	428.32
410.26	416.62
410.45	433.00
410.64	418.96
410.83	332.36
411.02	381.51
411.21	381.51
411.40	381.51
411.59	444.70
411.78	423.64
411.98	367.46
412.17	313.63
412.36	404.91
412.55	414.27
412.74	447.04
412.93	393.21
413.12	416.62
413.31	437.68
413.50	435.34
413.69	379.17
413.88	395.55
414.07	451.72
414.26	411.93
414.45	395.55
414.64	339.38
414.83	411.93
415.02	374.49
415.22	423.64
415.41	407.25
415.60	374.49
415.79	433.00
415.98	433.00
416.17	393.21
416.36	435.34
416.55	395.55
416.74	449.38
416.93	353.42
417.12	475.13
417.31	341.72
417.50	433.00
417.69	479.81
417.88	451.72
418.07	402.57
418.26	395.55
418.45	397.89
418.64	372.15
418.83	437.68
419.02	423.64
419.21	430.66
419.39	437.68
419.58	409.59
419.77	430.66
419.96	430.66
420.15	498.53
420.34	379.17
420.53	447.04
420.72	353.42
420.91	397.89
421.10	414.27
421.29	402.57
421.48	355.76
421.67	451.72
421.86	423.64
422.05	381.51
422.24	374.49
422.43	414.27
422.61	430.66
422.80	379.17
422.99	416.62
423.18	362.78
423.37	442.36
423.56	409.59
423.75	451.72
423.94	362.78
424.13	402.57
424.32	456.40
424.50	451.72
424.69	465.77
424.88	393.21
425.07	409.59
425.26	447.04
425.45	386.19
425.64	416.62
425.83	435.34
426.01	386.19
426.20	402.57
426.39	458.74
426.58	414.27
426.77	442.36
426.96	388.53
427.15	411.93
427.33	348.74
427.52	365.12
427.71	411.93
427.90	337.04
428.09	397.89
428.28	461.09
428.46	388.53
428.65	411.93
428.84	395.55
429.03	477.47
429.22	353.42
429.40	423.64
429.59	404.91
429.78	362.78
429.97	423.64
430.16	407.25
430.34	416.62
430.53	390.87
430.72	379.17
430.91	372.15
431.10	388.53
431.28	346.40
431.47	449.38
431.66	428.32
431.85	381.51
432.03	418.96
432.22	444.70
432.41	440.02
432.60	428.32
432.79	397.89
432.97	472.79
433.16	379.17
433.35	454.06
433.54	360.44
433.72	369.80
433.91	463.43
434.10	447.04
434.28	465.77
434.47	468.11
434.66	440.02
434.85	397.89
435.03	468.11
435.22	402.57
435.41	400.23
435.59	561.73
435.78	447.04
435.97	400.23
436.16	416.62
436.34	367.46
436.53	407.25
436.72	421.30
436.90	470.45
437.09	463.43
437.28	482.15
437.46	400.23
437.65	458.74
437.84	360.44
438.02	414.27
438.21	454.06
438.40	444.70
438.58	348.74
438.77	360.44
438.96	386.19
439.14	498.53
439.33	372.15
439.52	444.70
439.70	390.87
439.89	416.62
440.08	437.68
440.26	402.57
440.45	386.19
440.63	425.98
440.82	409.59
441.01	437.68
441.19	423.64
441.38	435.34
441.57	435.34
441.75	472.79
441.94	327.68
442.12	395.55
442.31	395.55
442.50	365.12
442.68	411.93
442.87	447.04
443.05	344.06
443.24	451.72
443.43	458.74
443.61	348.74
443.80	414.27
443.98	386.19
444.17	395.55
444.35	463.43
444.54	411.93
444.73	458.74
444.91	376.83
445.10	402.57
445.28	383.85
445.47	454.06
445.65	404.91
445.84	395.55
446.02	482.15
446.21	461.09
446.39	348.74
446.58	428.32
446.77	383.85
446.95	440.02
447.14	416.62
447.32	454.06
447.51	449.38
447.69	449.38
447.88	400.23
448.06	440.02
448.25	428.32
448.43	353.42
448.62	311.29
448.80	449.38
448.99	376.83
449.17	395.55
449.36	430.66
449.54	428.32
449.73	362.78
449.91	388.53
450.10	451.72
450.28	489.17
450.46	435.34
450.65	454.06
450.83	372.15
451.02	425.98
451.20	386.19
451.39	337.04
451.57	388.53
451.76	456.40
451.94	407.25
452.13	369.80
452.31	393.21
452.49	421.30
452.68	428.32
452.86	376.83
453.05	468.11
453.23	379.17
453.42	397.89
453.60	418.96
453.78	325.33
453.97	344.06
454.15	383.85
454.34	402.57
454.52	407.25
454.70	437.68
454.89	444.70
455.07	337.04
455.26	477.47
455.44	444.70
455.62	395.55
455.81	442.36
455.99	418.96
456.17	397.89
456.36	418.96
456.54	482.15
456.73	381.51
456.91	425.98
457.09	367.46
457.28	430.66
457.46	390.87
457.64	470.45
457.83	337.04
458.01	458.74
458.19	451.72
458.38	416.62
458.56	477.47
458.74	449.38
458.93	435.34
459.11	433.00
459.29	411.93
459.48	451.72
459.66	400.23
459.84	475.13
460.03	444.70
460.21	482.15
460.39	397.89
460.57	414.27
460.76	451.72
460.94	444.70
461.12	493.85
461.31	437.68
461.49	409.59
461.67	454.06
461.85	428.32
462.04	416.62
462.22	704.50
462.40	379.17
462.59	409.59
462.77	397.89
462.95	407.25
463.13	390.87
463.32	411.93
463.50	475.13
463.68	486.83
463.86	416.62
464.05	433.00
464.23	440.02
464.41	414.27
464.59	374.49
464.78	348.74
464.96	416.62
465.14	442.36
465.32	411.93
465.50	425.98
465.69	402.57
465.87	313.63
466.05	358.10
466.23	484.49
466.41	423.64
466.60	489.17
466.78	388.53
466.96	433.00
467.14	437.68
467.32	489.17
467.51	348.74
467.69	454.06
467.87	402.57
468.05	430.66
468.23	440.02
468.41	496.19
468.60	390.87
468.78	425.98
468.96	447.04
469.14	461.09
469.32	395.55
469.50	393.21
469.69	400.23
469.87	447.04
470.05	463.43
470.23	430.66
470.41	418.96
470.59	470.45
470.77	465.77
470.95	461.09
471.14	428.32
471.32	437.68
471.50	376.83
471.68	395.55
471.86	444.70
472.04	383.85
472.22	447.04
472.40	393.21
472.58	477.47
472.77	374.49
472.95	407.25
473.13	463.43
473.31	428.32
473.49	437.68
473.67	395.55
473.85	461.09
474.03	390.87
474.21	381.51
474.39	430.66
474.57	437.68
474.75	449.38
474.93	383.85
475.12	372.15
475.30	407.25
475.48	379.17
475.66	400.23
475.84	437.68
476.02	407.25
476.20	458.74
476.38	442.36
476.56	507.90
476.74	428.32
476.92	351.08
477.10	458.74
477.28	463.43
477.46	402.57
477.64	440.02
477.82	393.21
478.00	393.21
478.18	348.74
478.36	430.66
478.54	362.78
478.72	433.00
478.90	433.00
479.08	365.12
479.26	430.66
479.44	442.36
479.62	409.59
479.80	397.89
479.98	421.30
480.16	402.57
480.34	348.74
480.52	402.57
480.70	418.96
480.88	369.80
481.06	411.93
481.24	402.57
481.41	400.23
481.59	465.77
481.77	454.06
481.95	393.21
482.13	463.43
482.31	444.70
482.49	447.04
482.67	440.02
482.85	393.21
483.03	308.95
483.21	477.47
483.39	388.53
483.57	365.12
483.74	393.21
483.92	442.36
484.10	484.49
484.28	472.79
484.46	486.83
484.64	470.45
484.82	411.93
485.00	409.59
485.18	379.17
485.35	496.19
485.53	416.62
485.71	414.27
485.89	397.89
486.07	360.44
486.25	414.27
486.43	433.00
486.61	400.23
486.78	423.64
486.96	414.27
487.14	351.08
487.32	367.46
487.50	425.98
487.68	402.57
487.85	395.55
488.03	393.21
488.21	416.62
488.39	414.27
488.57	379.17
488.75	437.68
488.92	433.00
489.10	437.68
489.28	482.15
489.46	421.30
489.64	346.40
489.81	390.87
489.99	390.87
490.17	421.30
490.35	493.85
490.53	402.57
490.70	414.27
490.88	447.04
491.06	414.27
491.24	440.02
491.41	397.89
491.59	456.40
491.77	418.96
491.95	395.55
492.13	395.55
492.30	374.49
492.48	418.96
492.66	433.00
492.84	472.79
493.01	433.00
493.19	393.21
493.37	468.11
493.54	421.30
493.72	416.62
493.90	353.42
494.08	327.68
494.25	435.34
494.43	428.32
494.61	393.21
494.79	425.98
494.96	470.45
495.14	400.23
495.32	400.23
495.49	353.42
495.67	376.83
495.85	407.25
496.02	397.89
496.20	395.55
496.38	418.96
496.55	465.77
496.73	411.93
496.91	383.85
497.09	376.83
497.26	414.27
497.44	393.21
497.62	470.45
497.79	374.49
497.97	423.64
498.14	365.12
498.32	379.17
498.50	416.62
498.67	407.25
498.85	360.44
499.03	346.40
499.20	386.19
499.38	402.57
499.56	456.40
499.73	486.83
499.91	430.66
500.08	465.77
500.26	397.89
500.44	318.31
500.61	376.83
500.79	383.85
500.97	414.27
501.14	437.68
501.32	433.00
501.49	444.70
501.67	386.19
501.84	418.96
502.02	404.91
502.20	397.89
502.37	388.53
502.55	395.55
502.72	369.80
502.90	440.02
503.07	381.51
503.25	449.38
503.43	425.98
503.60	418.96
503.78	475.13
503.95	367.46
504.13	327.68
504.30	451.72
504.48	475.13
504.65	449.38
504.83	414.27
505.01	393.21
505.18	447.04
505.36	447.04
505.53	510.24
505.71	428.32
505.88	428.32
506.06	402.57
506.23	346.40
506.41	456.40
506.58	435.34
506.76	381.51
506.93	407.25
507.11	381.51
507.28	463.43
507.46	428.32
507.63	416.62
507.81	358.10
507.98	416.62
508.16	402.57
508.33	407.25
508.50	404.91
508.68	395.55
508.85	362.78
509.03	425.98
509.20	395.55
509.38	400.23
509.55	493.85
509.73	409.59
509.90	428.32
510.08	400.23
510.25	402.57
510.42	374.49
510.60	458.74
510.77	400.23
510.95	421.30
511.12	423.64
511.30	447.04
511.47	463.43
511.64	454.06
511.82	428.32
511.99	402.57
512.17	479.81
512.34	451.72
512.51	376.83
512.69	442.36
512.86	491.51
513.04	440.02
513.21	409.59
513.38	395.55
513.56	409.59
513.73	423.64
513.90	367.46
514.08	409.59
514.25	308.95
514.43	386.19
514.60	437.68
514.77	442.36
514.95	470.45
515.12	421.30
515.29	376.83
515.47	416.62
515.64	444.70
515.81	369.80
515.99	425.98
516.16	463.43
516.33	468.11
516.51	358.10
516.68	388.53
516.85	393.21
517.03	411.93
517.20	440.02
517.37	393.21
517.54	411.93
517.72	437.68
517.89	381.51
518.06	442.36
518.24	444.70
518.41	454.06
518.58	449.38
518.75	430.66
518.93	395.55
519.10	425.98
519.27	386.19
519.45	355.76
519.62	484.49
519.79	435.34
519.96	479.81
520.14	414.27
520.31	521.94
520.48	430.66
520.65	468.11
520.83	411.93
521.00	461.09
521.17	404.91
521.34	376.83
521.52	458.74
521.69	451.72
521.86	393.21
522.03	472.79
522.20	454.06
522.38	393.21
522.55	454.06
522.72	411.93
522.89	430.66
523.07	430.66
523.24	404.91
523.41	409.59
523.58	369.80
523.75	465.77
523.92	418.96
524.10	381.51
524.27	444.70
524.44	465.77
524.61	437.68
524.78	400.23
524.96	423.64
525.13	397.89
525.30	456.40
525.47	505.56
525.64	437.68
525.81	381.51
525.98	435.34
526.16	367.46
526.33	379.17
526.50	482.15
526.67	414.27
526.84	425.98
527.01	465.77
527.18	411.93
527.36	400.23
527.53	376.83
527.70	454.06
527.87	381.51
528.04	454.06
528.21	421.30
528.38	421.30
528.55	463.43
528.72	423.64
528.89	414.27
529.07	386.19
529.24	381.51
529.41	461.09
529.58	369.80
529.75	411.93
529.92	416.62
530.09	409.59
530.26	444.70
530.43	418.96
530.60	416.62
530.77	374.49
530.94	425.98
531.11	404.91
531.28	421.30
531.46	395.55
531.63	381.51
531.80	449.38
531.97	397.89
532.14	407.25
532.31	381.51
532.48	456.40
532.65	372.15
532.82	433.00
532.99	409.59
533.16	418.96
533.33	440.02
533.50	402.57
533.67	411.93
533.84	447.04
534.01	444.70
534.18	402.57
534.35	358.10
534.52	435.34
534.69	451.72
534.86	386.19
535.03	369.80
535.20	414.27
535.37	390.87
535.54	428.32
535.71	411.93
535.88	447.04
536.05	411.93
536.22	421.30
536.38	374.49
536.55	449.38
536.72	435.34
536.89	407.25
537.06	395.55
537.23	451.72
537.40	472.79
537.57	388.53
537.74	428.32
537.91	437.68
538.08	381.51
538.25	411.93
538.42	351.08
538.59	458.74
538.75	400.23
538.92	421.30
539.09	444.70
539.26	395.55
539.43	463.43
539.60	411.93
539.77	433.00
539.94	430.66
540.11	423.64
540.28	400.23
540.44	477.47
540.61	386.19
540.78	454.06
540.95	416.62
541.12	414.27
541.29	397.89
541.46	386.19
541.62	463.43
541.79	472.79
541.96	489.17
542.13	390.87
542.30	348.74
542.47	423.64
542.63	383.85
542.80	400.23
542.97	449.38
543.14	372.15
543.31	407.25
543.48	409.59
543.64	414.27
543.81	430.66
543.98	407.25
544.15	425.98
544.32	475.13
544.48	416.62
544.65	383.85
544.82	428.32
544.99	390.87
545.16	416.62
545.32	381.51
545.49	486.83
545.66	433.00
545.83	409.59
546.00	390.87
546.16	390.87
546.33	355.76
546.50	472.79
546.67	475.13
546.83	456.40
547.00	440.02
547.17	456.40
547.34	416.62
547.50	435.34
547.67	395.55
547.84	416.62
548.00	423.64
548.17	440.02
548.34	442.36
548.51	468.11
548.67	545.34
548.84	437.68
549.01	472.79
549.18	433.00
549.34	442.36
549.51	428.32
549.68	493.85
549.84	435.34
550.01	395.55
550.18	500.87
550.34	461.09
550.51	393.21
550.68	449.38
550.84	397.89
551.01	374.49
551.18	437.68
551.34	383.85
551.51	369.80
551.68	430.66
551.84	482.15
552.01	404.91
552.18	451.72
552.34	421.30
552.51	498.53
552.68	451.72
552.84	379.17
553.01	404.91
553.18	435.34
553.34	339.38
553.51	386.19
553.67	449.38
553.84	461.09
554.01	428.32
554.17	386.19
554.34	393.21
554.51	348.74
554.67	447.04
554.84	409.59
555.00	409.59
555.17	376.83
555.33	381.51
555.50	390.87
555.67	454.06
555.83	397.89
556.00	381.51
556.16	493.85
556.33	423.64
556.50	367.46
556.66	421.30
556.83	404.91
556.99	365.12
557.16	404.91
557.32	425.98
557.49	400.23
557.65	393.21
557.82	423.64
557.98	386.19
558.15	414.27
558.32	440.02
558.48	386.19
558.65	437.68
558.81	395.55
558.98	407.25
559.14	437.68
559.31	416.62
559.47	355.76
559.64	409.59
559.80	374.49
559.97	393.21
560.13	372.15
560.30	437.68
560.46	428.32
560.63	362.78
560.79	421.30
560.96	369.80
561.12	374.49
561.29	428.32
561.45	397.89
561.61	416.62
561.78	461.09
561.94	407.25
562.11	440.02
562.27	428.32
562.44	400.23
562.60	414.27
562.77	369.80
562.93	472.79
563.10	489.17
563.26	367.46
563.42	437.68
563.59	468.11
563.75	468.11
563.92	404.91
564.08	423.64
564.24	402.57
564.41	449.38
564.57	381.51
564.74	510.24
564.90	479.81
565.07	437.68
565.23	383.85
565.39	454.06
565.56	482.15
565.72	358.10
565.88	393.21
566.05	388.53
566.21	421.30
566.38	376.83
566.54	409.59
566.70	430.66
566.87	437.68
567.03	428.32
567.19	344.06
567.36	414.27
567.52	454.06
567.68	409.59
567.85	503.22
568.01	463.43
568.17	365.12
568.34	353.42
568.50	444.70
568.66	404.91
568.83	477.47
568.99	425.98
569.15	458.74
569.32	414.27
569.48	425.98
569.64	372.15
569.81	458.74
569.97	514.92
570.13	395.55
570.30	449.38
570.46	440.02
570.62	400.23
570.78	521.94
570.95	402.57
571.11	414.27
571.27	437.68
571.43	411.93
571.60	454.06
571.76	470.45
571.92	332.36
572.09	430.66
572.25	433.00
572.41	390.87
572.57	479.81
572.74	444.70
572.90	482.15
573.06	437.68
573.22	372.15
573.38	390.87
573.55	468.11
573.71	475.13
573.87	496.19
574.03	341.72
574.20	414.27
574.36	414.27
574.52	477.47
574.68	425.98
574.84	428.32
575.01	360.44
575.17	428.32
575.33	486.83
575.49	433.00
575.65	442.36
575.82	400.23
575.98	423.64
576.14	418.96
576.30	374.49
576.46	440.02
576.62	423.64
576.79	477.47
576.95	451.72
577.11	503.22
577.27	430.66
577.43	447.04
577.59	479.81
577.75	433.00
577.92	372.15
578.08	428.32
578.24	416.62
578.40	395.55
578.56	404.91
578.72	433.00
578.88	381.51
579.04	433.00
579.21	430.66
579.37	444.70
579.53	393.21
579.69	437.68
579.85	414.27
580.01	409.59
580.17	341.72
580.33	404.91
580.49	395.55
580.65	468.11
580.82	440.02
580.98	409.59
581.14	404.91
581.30	435.34
581.46	461.09
581.62	393.21
581.78	397.89
581.94	423.64
582.10	425.98
582.26	386.19
582.42	458.74
582.58	416.62
582.74	397.89
582.90	475.13
583.06	475.13
583.22	428.32
583.38	472.79
583.54	360.44
583.70	463.43
583.86	498.53
584.02	447.04
584.18	461.09
584.34	423.64
584.50	409.59
584.66	416.62
584.82	388.53
584.98	482.15
585.14	454.06
585.30	407.25
585.46	418.96
585.62	390.87
585.78	465.77
585.94	435.34
586.10	400.23
586.26	428.32
586.42	372.15
586.58	416.62
586.74	433.00
586.90	397.89
587.06	416.62
587.22	465.77
587.38	365.12
587.54	414.27
587.70	475.13
587.86	418.96
588.02	418.96
588.18	423.64
588.34	365.12
588.49	451.72
588.65	468.11
588.81	444.70
588.97	374.49
589.13	400.23
589.29	447.04
589.45	484.49
589.61	454.06
589.77	425.98
589.93	458.74
590.08	402.57
590.24	374.49
590.40	461.09
590.56	416.62
590.72	404.91
590.88	411.93
591.04	472.79
591.20	360.44
591.35	414.27
591.51	374.49
591.67	372.15
591.83	423.64
591.99	435.34
592.15	423.64
592.31	374.49
592.46	472.79
592.62	456.40
592.78	353.42
592.94	414.27
593.10	372.15
593.26	376.83
593.41	393.21
593.57	397.89
593.73	425.98
593.89	395.55
594.05	472.79
594.20	411.93
594.36	463.43
594.52	416.62
594.68	411.93
594.84	383.85
594.99	430.66
595.15	423.64
595.31	461.09
595.47	463.43
595.62	402.57
595.78	418.96
595.94	433.00
596.10	400.23
596.25	423.64
596.41	463.43
596.57	376.83
596.73	388.53
596.88	388.53
597.04	451.72
597.20	496.19
597.36	407.25
597.51	449.38
597.67	409.59
597.83	433.00
597.99	458.74
598.14	423.64
598.30	411.93
598.46	465.77
598.61	442.36
598.77	409.59
598.93	367.46
599.09	376.83
599.24	395.55
599.40	397.89
599.56	414.27
599.71	418.96
599.87	451.72
600.03	421.30
600.18	475.13
600.34	393.21
600.50	440.02
600.65	386.19
600.81	435.34
600.97	451.72
601.12	402.57
601.28	423.64
601.44	390.87
601.59	409.59
601.75	418.96
601.91	404.91
602.06	451.72
602.22	440.02
602.37	407.25
602.53	388.53
602.69	421.30
602.84	322.99
603.00	372.15
603.16	369.80
603.31	414.27
603.47	454.06
603.62	458.74
603.78	428.32
603.94	374.49
604.09	386.19
604.25	433.00
604.40	299.59
604.56	411.93
604.71	435.34
604.87	423.64
605.03	409.59
605.18	376.83
605.34	498.53
605.49	444.70
605.65	486.83
605.80	447.04
605.96	500.87
606.12	437.68
606.27	491.51
606.43	390.87
606.58	355.76
606.74	418.96
606.89	451.72
607.05	414.27
607.20	407.25
607.36	428.32
607.51	454.06
607.67	433.00
607.82	395.55
607.98	442.36
608.13	404.91
608.29	442.36
608.44	390.87
608.60	437.68
608.75	383.85
608.91	456.40
609.06	505.56
609.22	468.11
609.37	409.59
609.53	472.79
609.68	421.30
609.84	444.70
609.99	381.51
610.15	425.98
