SpectraSuite Data File
++++++++++++++++++++++++++++++++++++
Date: Fri Oct 25 12:11:20 EDT 2013
User: price-jones
Dark Spectrum Present: No
Reference Spectrum Present: No
Number of Sampled Component Spectra: 1
Spectrometers: USB2+H05261
Integration Time (usec): 100000 (USB2+H05261)
Spectra Averaged: 1 (USB2+H05261)
Boxcar Smoothing: 0 (USB2+H05261)
Correct for Electrical Dark: No (USB2+H05261)
Strobe/Lamp Enabled: No (USB2+H05261)
Correct for Detector Non-linearity: No (USB2+H05261)
Correct for Stray Light: No (USB2+H05261)
Number of Pixels in Processed Spectrum: 2048
>>>>>Begin Processed Spectral Data<<<<<
365.73	369.80
365.92	369.80
366.12	369.80
366.32	313.63
366.52	243.42
366.72	276.18
366.91	212.99
367.11	294.91
367.31	264.48
367.51	271.50
367.70	243.42
367.90	196.60
368.10	212.99
368.30	255.12
368.49	201.29
368.69	266.82
368.89	245.76
369.09	250.44
369.28	266.82
369.48	264.48
369.68	318.31
369.87	339.38
370.07	308.95
370.27	327.68
370.47	283.20
370.66	301.93
370.86	299.59
371.06	395.55
371.25	365.12
371.45	348.74
371.65	346.40
371.84	407.25
372.04	437.68
372.24	393.21
372.44	306.61
372.63	397.89
372.83	397.89
373.03	393.21
373.22	477.47
373.42	409.59
373.62	362.78
373.81	381.51
374.01	379.17
374.21	475.13
374.40	484.49
374.60	468.11
374.79	416.62
374.99	383.85
375.19	472.79
375.38	402.57
375.58	428.32
375.78	423.64
375.97	491.51
376.17	468.11
376.37	444.70
376.56	397.89
376.76	449.38
376.95	400.23
377.15	374.49
377.35	395.55
377.54	369.80
377.74	339.38
377.93	461.09
378.13	482.15
378.33	379.17
378.52	386.19
378.72	397.89
378.91	414.27
379.11	386.19
379.31	358.10
379.50	330.02
379.70	468.11
379.89	402.57
380.09	435.34
380.28	374.49
380.48	395.55
380.68	386.19
380.87	395.55
381.07	491.51
381.26	411.93
381.46	367.46
381.65	458.74
381.85	397.89
382.04	489.17
382.24	383.85
382.43	404.91
382.63	348.74
382.83	383.85
383.02	397.89
383.22	423.64
383.41	388.53
383.61	369.80
383.80	367.46
384.00	367.46
384.19	423.64
384.39	421.30
384.58	376.83
384.78	397.89
384.97	442.36
385.17	428.32
385.36	362.78
385.56	416.62
385.75	435.34
385.95	425.98
386.14	395.55
386.34	421.30
386.53	402.57
386.72	444.70
386.92	449.38
387.11	458.74
387.31	414.27
387.50	383.85
387.70	372.15
387.89	409.59
388.09	404.91
388.28	292.57
388.48	430.66
388.67	395.55
388.86	395.55
389.06	400.23
389.25	402.57
389.45	386.19
389.64	416.62
389.84	374.49
390.03	435.34
390.22	416.62
390.42	442.36
390.61	411.93
390.81	470.45
391.00	383.85
391.19	482.15
391.39	428.32
391.58	461.09
391.78	397.89
391.97	395.55
392.16	409.59
392.36	465.77
392.55	416.62
392.75	428.32
392.94	416.62
393.13	390.87
393.33	433.00
393.52	400.23
393.71	440.02
393.91	423.64
394.10	397.89
394.29	500.87
394.49	369.80
394.68	407.25
394.88	381.51
395.07	418.96
395.26	440.02
395.46	409.59
395.65	418.96
395.84	402.57
396.04	489.17
396.23	449.38
396.42	465.77
396.62	404.91
396.81	416.62
397.00	379.17
397.19	404.91
397.39	477.47
397.58	456.40
397.77	346.40
397.97	390.87
398.16	379.17
398.35	344.06
398.55	395.55
398.74	493.85
398.93	444.70
399.12	390.87
399.32	390.87
399.51	425.98
399.70	477.47
399.90	507.90
400.09	372.15
400.28	465.77
400.47	383.85
400.67	430.66
400.86	397.89
401.05	400.23
401.24	442.36
401.44	407.25
401.63	421.30
401.82	393.21
402.01	397.89
402.21	416.62
402.40	442.36
402.59	451.72
402.78	407.25
402.97	409.59
403.17	411.93
403.36	430.66
403.55	388.53
403.74	416.62
403.93	442.36
404.13	416.62
404.32	435.34
404.51	435.34
404.70	362.78
404.89	367.46
405.09	393.21
405.28	404.91
405.47	351.08
405.66	369.80
405.85	458.74
406.05	444.70
406.24	425.98
406.43	376.83
406.62	435.34
406.81	407.25
407.00	425.98
407.20	390.87
407.39	468.11
407.58	341.72
407.77	376.83
407.96	428.32
408.15	489.17
408.34	447.04
408.54	400.23
408.73	433.00
408.92	362.78
409.11	365.12
409.30	418.96
409.49	475.13
409.68	362.78
409.87	374.49
410.07	393.21
410.26	381.51
410.45	362.78
410.64	313.63
410.83	407.25
411.02	383.85
411.21	425.98
411.40	400.23
411.59	362.78
411.78	449.38
411.98	397.89
412.17	433.00
412.36	449.38
412.55	402.57
412.74	470.45
412.93	496.19
413.12	365.12
413.31	395.55
413.50	388.53
413.69	425.98
413.88	440.02
414.07	397.89
414.26	428.32
414.45	348.74
414.64	428.32
414.83	414.27
415.02	444.70
415.22	339.38
415.41	365.12
415.60	433.00
415.79	353.42
415.98	493.85
416.17	444.70
416.36	388.53
416.55	381.51
416.74	404.91
416.93	397.89
417.12	404.91
417.31	409.59
417.50	421.30
417.69	535.98
417.88	353.42
418.07	376.83
418.26	428.32
418.45	411.93
418.64	367.46
418.83	435.34
419.02	421.30
419.21	416.62
419.39	489.17
419.58	416.62
419.77	498.53
419.96	491.51
420.15	484.49
420.34	442.36
420.53	416.62
420.72	486.83
420.91	470.45
421.10	465.77
421.29	400.23
421.48	472.79
421.67	444.70
421.86	400.23
422.05	407.25
422.24	435.34
422.43	425.98
422.61	430.66
422.80	383.85
422.99	425.98
423.18	435.34
423.37	538.32
423.56	416.62
423.75	486.83
423.94	404.91
424.13	414.27
424.32	400.23
424.50	409.59
424.69	407.25
424.88	449.38
425.07	358.10
425.26	407.25
425.45	372.15
425.64	454.06
425.83	430.66
426.01	400.23
426.20	304.27
426.39	388.53
426.58	360.44
426.77	425.98
426.96	390.87
427.15	402.57
427.33	444.70
427.52	414.27
427.71	407.25
427.90	367.46
428.09	381.51
428.28	475.13
428.46	355.76
428.65	425.98
428.84	461.09
429.03	416.62
429.22	447.04
429.40	423.64
429.59	423.64
429.78	454.06
429.97	442.36
430.16	379.17
430.34	397.89
430.53	395.55
430.72	388.53
430.91	379.17
431.10	449.38
431.28	461.09
431.47	379.17
431.66	404.91
431.85	372.15
432.03	397.89
432.22	447.04
432.41	409.59
432.60	400.23
432.79	358.10
432.97	365.12
433.16	402.57
433.35	414.27
433.54	444.70
433.72	400.23
433.91	442.36
434.10	435.34
434.28	437.68
434.47	407.25
434.66	449.38
434.85	414.27
435.03	369.80
435.22	428.32
435.41	418.96
435.59	435.34
435.78	421.30
435.97	440.02
436.16	428.32
436.34	409.59
436.53	456.40
436.72	458.74
436.90	369.80
437.09	369.80
437.28	404.91
437.46	435.34
437.65	360.44
437.84	444.70
438.02	397.89
438.21	381.51
438.40	411.93
438.58	386.19
438.77	409.59
438.96	409.59
439.14	400.23
439.33	388.53
439.52	404.91
439.70	503.22
439.89	421.30
440.08	390.87
440.26	355.76
440.45	418.96
440.63	447.04
440.82	449.38
441.01	451.72
441.19	435.34
441.38	379.17
441.57	414.27
441.75	402.57
441.94	430.66
442.12	407.25
442.31	416.62
442.50	407.25
442.68	437.68
442.87	425.98
443.05	388.53
443.24	430.66
443.43	418.96
443.61	437.68
443.80	414.27
443.98	355.76
444.17	400.23
444.35	383.85
444.54	388.53
444.73	411.93
444.91	400.23
445.10	463.43
445.28	423.64
445.47	386.19
445.65	444.70
445.84	449.38
446.02	498.53
446.21	393.21
446.39	414.27
446.58	425.98
446.77	358.10
446.95	367.46
447.14	479.81
447.32	454.06
447.51	365.12
447.69	454.06
447.88	442.36
448.06	407.25
448.25	468.11
448.43	425.98
448.62	372.15
448.80	463.43
448.99	479.81
449.17	421.30
449.36	407.25
449.54	393.21
449.73	409.59
449.91	369.80
450.10	351.08
450.28	507.90
450.46	390.87
450.65	388.53
450.83	362.78
451.02	393.21
451.20	463.43
451.39	451.72
451.57	388.53
451.76	449.38
451.94	407.25
452.13	475.13
452.31	433.00
452.49	365.12
452.68	416.62
452.86	465.77
453.05	442.36
453.23	454.06
453.42	423.64
453.60	437.68
453.78	414.27
453.97	358.10
454.15	404.91
454.34	437.68
454.52	435.34
454.70	526.62
454.89	425.98
455.07	418.96
455.26	472.79
455.44	456.40
455.62	292.57
455.81	416.62
455.99	430.66
456.17	433.00
456.36	430.66
456.54	425.98
456.73	381.51
456.91	374.49
457.09	414.27
457.28	435.34
457.46	435.34
457.64	447.04
457.83	376.83
458.01	390.87
458.19	564.07
458.38	386.19
458.56	447.04
458.74	451.72
458.93	470.45
459.11	451.72
459.29	416.62
459.48	390.87
459.66	411.93
459.84	379.17
460.03	514.92
460.21	390.87
460.39	416.62
460.57	442.36
460.76	402.57
460.94	372.15
461.12	374.49
461.31	454.06
461.49	383.85
461.67	505.56
461.85	372.15
462.04	430.66
462.22	788.76
462.40	348.74
462.59	442.36
462.77	447.04
462.95	465.77
463.13	404.91
463.32	449.38
463.50	386.19
463.68	372.15
463.86	444.70
464.05	390.87
464.23	418.96
464.41	395.55
464.59	397.89
464.78	425.98
464.96	418.96
465.14	376.83
465.32	395.55
465.50	402.57
465.69	411.93
465.87	437.68
466.05	411.93
466.23	400.23
466.41	423.64
466.60	498.53
466.78	365.12
466.96	423.64
467.14	407.25
467.32	365.12
467.51	442.36
467.69	442.36
467.87	414.27
468.05	360.44
468.23	440.02
468.41	404.91
468.60	344.06
468.78	390.87
468.96	414.27
469.14	468.11
469.32	407.25
469.50	428.32
469.69	393.21
469.87	379.17
470.05	402.57
470.23	442.36
470.41	322.99
470.59	433.00
470.77	330.02
470.95	414.27
471.14	397.89
471.32	486.83
471.50	365.12
471.68	428.32
471.86	447.04
472.04	386.19
472.22	416.62
472.40	407.25
472.58	454.06
472.77	402.57
472.95	442.36
473.13	447.04
473.31	397.89
473.49	404.91
473.67	472.79
473.85	386.19
474.03	404.91
474.21	421.30
474.39	477.47
474.57	465.77
474.75	444.70
474.93	461.09
475.12	407.25
475.30	367.46
475.48	407.25
475.66	449.38
475.84	519.60
476.02	400.23
476.20	479.81
476.38	388.53
476.56	449.38
476.74	386.19
476.92	451.72
477.10	451.72
477.28	404.91
477.46	461.09
477.64	376.83
477.82	421.30
478.00	433.00
478.18	440.02
478.36	442.36
478.54	451.72
478.72	444.70
478.90	468.11
479.08	435.34
479.26	456.40
479.44	451.72
479.62	402.57
479.80	416.62
479.98	449.38
480.16	444.70
480.34	440.02
480.52	355.76
480.70	353.42
480.88	472.79
481.06	454.06
481.24	407.25
481.41	440.02
481.59	451.72
481.77	409.59
481.95	407.25
482.13	421.30
482.31	447.04
482.49	404.91
482.67	418.96
482.85	393.21
483.03	479.81
483.21	456.40
483.39	444.70
483.57	437.68
483.74	458.74
483.92	402.57
484.10	465.77
484.28	428.32
484.46	381.51
484.64	404.91
484.82	454.06
485.00	425.98
485.18	435.34
485.35	456.40
485.53	386.19
485.71	475.13
485.89	414.27
486.07	496.19
486.25	397.89
486.43	442.36
486.61	507.90
486.78	433.00
486.96	407.25
487.14	388.53
487.32	386.19
487.50	503.22
487.68	423.64
487.85	465.77
488.03	393.21
488.21	360.44
488.39	433.00
488.57	444.70
488.75	440.02
488.92	528.96
489.10	470.45
489.28	367.46
489.46	416.62
489.64	423.64
489.81	463.43
489.99	418.96
490.17	421.30
490.35	484.49
490.53	393.21
490.70	416.62
490.88	461.09
491.06	346.40
491.24	465.77
491.41	442.36
491.59	372.15
491.77	425.98
491.95	421.30
492.13	386.19
492.30	465.77
492.48	447.04
492.66	416.62
492.84	447.04
493.01	437.68
493.19	430.66
493.37	463.43
493.54	489.17
493.72	337.04
493.90	421.30
494.08	423.64
494.25	421.30
494.43	355.76
494.61	468.11
494.79	433.00
494.96	374.49
495.14	454.06
495.32	421.30
495.49	393.21
495.67	461.09
495.85	388.53
496.02	369.80
496.20	390.87
496.38	458.74
496.55	447.04
496.73	468.11
496.91	379.17
497.09	379.17
497.26	381.51
497.44	444.70
497.62	418.96
497.79	344.06
497.97	402.57
498.14	503.22
498.32	430.66
498.50	428.32
498.67	435.34
498.85	362.78
499.03	407.25
499.20	440.02
499.38	393.21
499.56	379.17
499.73	500.87
499.91	449.38
500.08	442.36
500.26	395.55
500.44	416.62
500.61	388.53
500.79	411.93
500.97	409.59
501.14	374.49
501.32	416.62
501.49	463.43
501.67	365.12
501.84	379.17
502.02	430.66
502.20	435.34
502.37	456.40
502.55	353.42
502.72	414.27
502.90	397.89
503.07	435.34
503.25	423.64
503.43	381.51
503.60	423.64
503.78	414.27
503.95	456.40
504.13	346.40
504.30	362.78
504.48	383.85
504.65	503.22
504.83	482.15
505.01	440.02
505.18	493.85
505.36	402.57
505.53	449.38
505.71	374.49
505.88	465.77
506.06	430.66
506.23	407.25
506.41	341.72
506.58	388.53
506.76	428.32
506.93	409.59
507.11	447.04
507.28	433.00
507.46	418.96
507.63	381.51
507.81	393.21
507.98	425.98
508.16	416.62
508.33	425.98
508.50	442.36
508.68	407.25
508.85	454.06
509.03	507.90
509.20	313.63
509.38	421.30
509.55	344.06
509.73	416.62
509.90	454.06
510.08	407.25
510.25	512.58
510.42	395.55
510.60	395.55
510.77	461.09
510.95	397.89
511.12	414.27
511.30	418.96
511.47	458.74
511.64	461.09
511.82	447.04
511.99	386.19
512.17	379.17
512.34	397.89
512.51	423.64
512.69	360.44
512.86	442.36
513.04	379.17
513.21	346.40
513.38	428.32
513.56	437.68
513.73	411.93
513.90	465.77
514.08	510.24
514.25	388.53
514.43	353.42
514.60	376.83
514.77	388.53
514.95	477.47
515.12	409.59
515.29	404.91
515.47	355.76
515.64	449.38
515.81	425.98
515.99	423.64
516.16	416.62
516.33	346.40
516.51	447.04
516.68	404.91
516.85	430.66
517.03	482.15
517.20	418.96
517.37	374.49
517.54	449.38
517.72	465.77
517.89	451.72
518.06	330.02
518.24	451.72
518.41	390.87
518.58	465.77
518.75	414.27
518.93	386.19
519.10	435.34
519.27	402.57
519.45	454.06
519.62	414.27
519.79	437.68
519.96	437.68
520.14	421.30
520.31	388.53
520.48	444.70
520.65	449.38
520.83	430.66
521.00	489.17
521.17	428.32
521.34	418.96
521.52	409.59
521.69	376.83
521.86	440.02
522.03	393.21
522.20	472.79
522.38	468.11
522.55	379.17
522.72	393.21
522.89	451.72
523.07	437.68
523.24	400.23
523.41	404.91
523.58	456.40
523.75	442.36
523.92	386.19
524.10	423.64
524.27	346.40
524.44	435.34
524.61	454.06
524.78	468.11
524.96	393.21
525.13	437.68
525.30	486.83
525.47	482.15
525.64	449.38
525.81	400.23
525.98	409.59
526.16	418.96
526.33	414.27
526.50	407.25
526.67	428.32
526.84	475.13
527.01	372.15
527.18	430.66
527.36	409.59
527.53	409.59
527.70	451.72
527.87	458.74
528.04	425.98
528.21	390.87
528.38	482.15
528.55	465.77
528.72	411.93
528.89	416.62
529.07	390.87
529.24	383.85
529.41	418.96
529.58	425.98
529.75	447.04
529.92	468.11
530.09	435.34
530.26	421.30
530.43	346.40
530.60	402.57
530.77	477.47
530.94	444.70
531.11	390.87
531.28	381.51
531.46	440.02
531.63	393.21
531.80	444.70
531.97	411.93
532.14	430.66
532.31	423.64
532.48	465.77
532.65	374.49
532.82	381.51
532.99	402.57
533.16	351.08
533.33	484.49
533.50	414.27
533.67	376.83
533.84	451.72
534.01	400.23
534.18	386.19
534.35	475.13
534.52	379.17
534.69	393.21
534.86	433.00
535.03	449.38
535.20	402.57
535.37	442.36
535.54	444.70
535.71	472.79
535.88	421.30
536.05	355.76
536.22	390.87
536.38	440.02
536.55	383.85
536.72	346.40
536.89	395.55
537.06	433.00
537.23	442.36
537.40	437.68
537.57	376.83
537.74	461.09
537.91	463.43
538.08	437.68
538.25	437.68
538.42	468.11
538.59	444.70
538.75	404.91
538.92	372.15
539.09	472.79
539.26	411.93
539.43	435.34
539.60	362.78
539.77	475.13
539.94	482.15
540.11	400.23
540.28	440.02
540.44	449.38
540.61	423.64
540.78	383.85
540.95	496.19
541.12	435.34
541.29	374.49
541.46	437.68
541.62	458.74
541.79	411.93
541.96	461.09
542.13	430.66
542.30	416.62
542.47	468.11
542.63	397.89
542.80	402.57
542.97	393.21
543.14	409.59
543.31	425.98
543.48	421.30
543.64	491.51
543.81	411.93
543.98	297.25
544.15	430.66
544.32	493.85
544.48	404.91
544.65	390.87
544.82	404.91
544.99	402.57
545.16	390.87
545.32	468.11
545.49	416.62
545.66	393.21
545.83	421.30
546.00	397.89
546.16	379.17
546.33	395.55
546.50	346.40
546.67	456.40
546.83	484.49
547.00	475.13
547.17	395.55
547.34	365.12
547.50	404.91
547.67	465.77
547.84	440.02
548.00	430.66
548.17	397.89
548.34	367.46
548.51	465.77
548.67	407.25
548.84	390.87
549.01	414.27
549.18	433.00
549.34	407.25
549.51	482.15
549.68	470.45
549.84	393.21
550.01	437.68
550.18	442.36
550.34	435.34
550.51	444.70
550.68	409.59
550.84	477.47
551.01	393.21
551.18	362.78
551.34	393.21
551.51	379.17
551.68	449.38
551.84	444.70
552.01	433.00
552.18	407.25
552.34	444.70
552.51	386.19
552.68	416.62
552.84	447.04
553.01	500.87
553.18	393.21
553.34	393.21
553.51	383.85
553.67	454.06
553.84	456.40
554.01	456.40
554.17	416.62
554.34	381.51
554.51	411.93
554.67	440.02
554.84	447.04
555.00	493.85
555.17	414.27
555.33	341.72
555.50	465.77
555.67	472.79
555.83	470.45
556.00	440.02
556.16	540.66
556.33	472.79
556.50	414.27
556.66	442.36
556.83	395.55
556.99	421.30
557.16	470.45
557.32	393.21
557.49	486.83
557.65	421.30
557.82	440.02
557.98	379.17
558.15	491.51
558.32	491.51
558.48	475.13
558.65	477.47
558.81	477.47
558.98	411.93
559.14	400.23
559.31	404.91
559.47	498.53
559.64	440.02
559.80	428.32
559.97	463.43
560.13	393.21
560.30	388.53
560.46	437.68
560.63	444.70
560.79	430.66
560.96	451.72
561.12	519.60
561.29	444.70
561.45	360.44
561.61	454.06
561.78	430.66
561.94	374.49
562.11	404.91
562.27	425.98
562.44	456.40
562.60	411.93
562.77	437.68
562.93	337.04
563.10	437.68
563.26	395.55
563.42	463.43
563.59	414.27
563.75	372.15
563.92	458.74
564.08	421.30
564.24	444.70
564.41	451.72
564.57	390.87
564.74	407.25
564.90	444.70
565.07	418.96
565.23	402.57
565.39	332.36
565.56	416.62
565.72	379.17
565.88	362.78
566.05	430.66
566.21	482.15
566.38	430.66
566.54	402.57
566.70	414.27
566.87	428.32
567.03	505.56
567.19	461.09
567.36	393.21
567.52	475.13
567.68	402.57
567.85	397.89
568.01	411.93
568.17	430.66
568.34	418.96
568.50	423.64
568.66	463.43
568.83	477.47
568.99	423.64
569.15	468.11
569.32	411.93
569.48	447.04
569.64	386.19
569.81	416.62
569.97	435.34
570.13	465.77
570.30	402.57
570.46	456.40
570.62	461.09
570.78	442.36
570.95	418.96
571.11	454.06
571.27	451.72
571.43	451.72
571.60	433.00
571.76	332.36
571.92	416.62
572.09	388.53
572.25	330.02
572.41	421.30
572.57	416.62
572.74	421.30
572.90	411.93
573.06	430.66
573.22	425.98
573.38	411.93
573.55	444.70
573.71	416.62
573.87	468.11
574.03	437.68
574.20	447.04
574.36	348.74
574.52	393.21
574.68	444.70
574.84	381.51
575.01	479.81
575.17	430.66
575.33	428.32
575.49	449.38
575.65	425.98
575.82	393.21
575.98	451.72
576.14	456.40
576.30	383.85
576.46	414.27
576.62	463.43
576.79	376.83
576.95	374.49
577.11	440.02
577.27	482.15
577.43	416.62
577.59	407.25
577.75	393.21
577.92	470.45
578.08	475.13
578.24	425.98
578.40	397.89
578.56	440.02
578.72	416.62
578.88	440.02
579.04	416.62
579.21	416.62
579.37	449.38
579.53	360.44
579.69	447.04
579.85	290.23
580.01	444.70
580.17	475.13
580.33	372.15
580.49	388.53
580.65	440.02
580.82	362.78
580.98	369.80
581.14	425.98
581.30	425.98
581.46	447.04
581.62	402.57
581.78	383.85
581.94	367.46
582.10	423.64
582.26	449.38
582.42	456.40
582.58	381.51
582.74	372.15
582.90	423.64
583.06	433.00
583.22	386.19
583.38	379.17
583.54	351.08
583.70	358.10
583.86	437.68
584.02	386.19
584.18	435.34
584.34	376.83
584.50	390.87
584.66	355.76
584.82	402.57
584.98	449.38
585.14	418.96
585.30	458.74
585.46	435.34
585.62	397.89
585.78	468.11
585.94	411.93
586.10	393.21
586.26	491.51
586.42	442.36
586.58	322.99
586.74	388.53
586.90	390.87
587.06	400.23
587.22	395.55
587.38	395.55
587.54	430.66
587.70	400.23
587.86	451.72
588.02	423.64
588.18	414.27
588.34	416.62
588.49	379.17
588.65	430.66
588.81	386.19
588.97	416.62
589.13	430.66
589.29	393.21
589.45	449.38
589.61	444.70
589.77	472.79
589.93	372.15
590.08	416.62
590.24	479.81
590.40	369.80
590.56	407.25
590.72	472.79
590.88	397.89
591.04	409.59
591.20	425.98
591.35	428.32
591.51	381.51
591.67	362.78
591.83	362.78
591.99	442.36
592.15	381.51
592.31	463.43
592.46	428.32
592.62	407.25
592.78	411.93
592.94	425.98
593.10	344.06
593.26	447.04
593.41	428.32
593.57	428.32
593.73	365.12
593.89	475.13
594.05	414.27
594.20	379.17
594.36	470.45
594.52	456.40
594.68	397.89
594.84	414.27
594.99	418.96
595.15	456.40
595.31	428.32
595.47	395.55
595.62	428.32
595.78	418.96
595.94	400.23
596.10	496.19
596.25	461.09
596.41	461.09
596.57	353.42
596.73	388.53
596.88	435.34
597.04	348.74
597.20	367.46
597.36	433.00
597.51	395.55
597.67	376.83
597.83	383.85
597.99	449.38
598.14	388.53
598.30	475.13
598.46	395.55
598.61	442.36
598.77	451.72
598.93	388.53
599.09	411.93
599.24	512.58
599.40	379.17
599.56	388.53
599.71	425.98
599.87	388.53
600.03	386.19
600.18	409.59
600.34	430.66
600.50	430.66
600.65	355.76
600.81	442.36
600.97	437.68
601.12	468.11
601.28	407.25
601.44	365.12
601.59	402.57
601.75	418.96
601.91	423.64
602.06	491.51
602.22	449.38
602.37	463.43
602.53	479.81
602.69	477.47
602.84	344.06
603.00	393.21
603.16	411.93
603.31	442.36
603.47	365.12
603.62	320.65
603.78	409.59
603.94	430.66
604.09	425.98
604.25	449.38
604.40	442.36
604.56	367.46
604.71	421.30
604.87	397.89
605.03	463.43
605.18	404.91
605.34	451.72
605.49	440.02
605.65	404.91
605.80	428.32
605.96	472.79
606.12	475.13
606.27	397.89
606.43	425.98
606.58	402.57
606.74	475.13
606.89	430.66
607.05	456.40
607.20	447.04
607.36	411.93
607.51	379.17
607.67	458.74
607.82	421.30
607.98	418.96
608.13	390.87
608.29	418.96
608.44	416.62
608.60	409.59
608.75	451.72
608.91	468.11
609.06	470.45
609.22	411.93
609.37	442.36
609.53	404.91
609.68	416.62
609.84	407.25
609.99	393.21
610.15	411.93
