SpectraSuite Data File
++++++++++++++++++++++++++++++++++++
Date: Fri Oct 25 12:11:18 EDT 2013
User: price-jones
Dark Spectrum Present: No
Reference Spectrum Present: No
Number of Sampled Component Spectra: 1
Spectrometers: USB2+H05261
Integration Time (usec): 100000 (USB2+H05261)
Spectra Averaged: 1 (USB2+H05261)
Boxcar Smoothing: 0 (USB2+H05261)
Correct for Electrical Dark: No (USB2+H05261)
Strobe/Lamp Enabled: No (USB2+H05261)
Correct for Detector Non-linearity: No (USB2+H05261)
Correct for Stray Light: No (USB2+H05261)
Number of Pixels in Processed Spectrum: 2048
>>>>>Begin Processed Spectral Data<<<<<
365.73	341.72
365.92	341.72
366.12	341.72
366.32	287.89
366.52	264.48
366.72	248.10
366.91	229.37
367.11	252.78
367.31	208.31
367.51	184.90
367.70	231.71
367.90	191.92
368.10	140.43
368.30	248.10
368.49	215.33
368.69	238.73
368.89	231.71
369.09	299.59
369.28	271.50
369.48	294.91
369.68	290.23
369.87	332.36
370.07	325.33
370.27	308.95
370.47	383.85
370.66	374.49
370.86	320.65
371.06	390.87
371.25	414.27
371.45	327.68
371.65	358.10
371.84	369.80
372.04	376.83
372.24	383.85
372.44	346.40
372.63	423.64
372.83	383.85
373.03	418.96
373.22	472.79
373.42	374.49
373.62	404.91
373.81	442.36
374.01	430.66
374.21	411.93
374.40	470.45
374.60	475.13
374.79	381.51
374.99	402.57
375.19	449.38
375.38	411.93
375.58	376.83
375.78	430.66
375.97	440.02
376.17	411.93
376.37	449.38
376.56	372.15
376.76	388.53
376.95	449.38
377.15	433.00
377.35	475.13
377.54	400.23
377.74	372.15
377.93	390.87
378.13	449.38
378.33	372.15
378.52	360.44
378.72	425.98
378.91	402.57
379.11	407.25
379.31	372.15
379.50	409.59
379.70	402.57
379.89	510.24
380.09	423.64
380.28	339.38
380.48	390.87
380.68	437.68
380.87	362.78
381.07	409.59
381.26	486.83
381.46	334.70
381.65	454.06
381.85	411.93
382.04	409.59
382.24	404.91
382.43	433.00
382.63	449.38
382.83	339.38
383.02	428.32
383.22	437.68
383.41	351.08
383.61	458.74
383.80	425.98
384.00	379.17
384.19	402.57
384.39	383.85
384.58	381.51
384.78	409.59
384.97	372.15
385.17	330.02
385.36	414.27
385.56	493.85
385.75	383.85
385.95	390.87
386.14	365.12
386.34	437.68
386.53	388.53
386.72	381.51
386.92	407.25
387.11	440.02
387.31	393.21
387.50	442.36
387.70	339.38
387.89	365.12
388.09	325.33
388.28	404.91
388.48	360.44
388.67	440.02
388.86	393.21
389.06	423.64
389.25	435.34
389.45	421.30
389.64	414.27
389.84	451.72
390.03	383.85
390.22	355.76
390.42	376.83
390.61	369.80
390.81	337.04
391.00	484.49
391.19	451.72
391.39	500.87
391.58	383.85
391.78	365.12
391.97	330.02
392.16	358.10
392.36	433.00
392.55	479.81
392.75	451.72
392.94	442.36
393.13	442.36
393.33	409.59
393.52	353.42
393.71	444.70
393.91	367.46
394.10	393.21
394.29	463.43
394.49	362.78
394.68	397.89
394.88	369.80
395.07	437.68
395.26	437.68
395.46	386.19
395.65	465.77
395.84	416.62
396.04	498.53
396.23	433.00
396.42	449.38
396.62	423.64
396.81	400.23
397.00	360.44
397.19	355.76
397.39	411.93
397.58	388.53
397.77	428.32
397.97	428.32
398.16	365.12
398.35	433.00
398.55	358.10
398.74	425.98
398.93	435.34
399.12	379.17
399.32	404.91
399.51	433.00
399.70	433.00
399.90	381.51
400.09	409.59
400.28	437.68
400.47	395.55
400.67	379.17
400.86	437.68
401.05	477.47
401.24	395.55
401.44	411.93
401.63	425.98
401.82	414.27
402.01	411.93
402.21	320.65
402.40	360.44
402.59	444.70
402.78	334.70
402.97	372.15
403.17	372.15
403.36	458.74
403.55	369.80
403.74	390.87
403.93	409.59
404.13	491.51
404.32	414.27
404.51	402.57
404.70	376.83
404.89	465.77
405.09	491.51
405.28	397.89
405.47	407.25
405.66	388.53
405.85	435.34
406.05	461.09
406.24	360.44
406.43	454.06
406.62	411.93
406.81	437.68
407.00	383.85
407.20	341.72
407.39	423.64
407.58	435.34
407.77	416.62
407.96	425.98
408.15	402.57
408.34	458.74
408.54	367.46
408.73	393.21
408.92	390.87
409.11	454.06
409.30	489.17
409.49	444.70
409.68	376.83
409.87	362.78
410.07	372.15
410.26	383.85
410.45	479.81
410.64	435.34
410.83	395.55
411.02	311.29
411.21	437.68
411.40	418.96
411.59	463.43
411.78	320.65
411.98	423.64
412.17	404.91
412.36	395.55
412.55	337.04
412.74	430.66
412.93	390.87
413.12	428.32
413.31	390.87
413.50	395.55
413.69	418.96
413.88	423.64
414.07	423.64
414.26	414.27
414.45	381.51
414.64	411.93
414.83	404.91
415.02	428.32
415.22	440.02
415.41	365.12
415.60	376.83
415.79	442.36
415.98	411.93
416.17	500.87
416.36	402.57
416.55	372.15
416.74	383.85
416.93	519.60
417.12	451.72
417.31	388.53
417.50	416.62
417.69	360.44
417.88	372.15
418.07	355.76
418.26	379.17
418.45	367.46
418.64	425.98
418.83	362.78
419.02	435.34
419.21	433.00
419.39	425.98
419.58	421.30
419.77	411.93
419.96	428.32
420.15	428.32
420.34	472.79
420.53	533.64
420.72	409.59
420.91	351.08
421.10	395.55
421.29	444.70
421.48	433.00
421.67	397.89
421.86	416.62
422.05	433.00
422.24	381.51
422.43	369.80
422.61	341.72
422.80	400.23
422.99	428.32
423.18	344.06
423.37	524.28
423.56	500.87
423.75	437.68
423.94	428.32
424.13	423.64
424.32	421.30
424.50	383.85
424.69	358.10
424.88	440.02
425.07	411.93
425.26	484.49
425.45	482.15
425.64	418.96
425.83	365.12
426.01	390.87
426.20	404.91
426.39	411.93
426.58	440.02
426.77	472.79
426.96	362.78
427.15	367.46
427.33	451.72
427.52	404.91
427.71	451.72
427.90	390.87
428.09	386.19
428.28	327.68
428.46	440.02
428.65	428.32
428.84	360.44
429.03	404.91
429.22	374.49
429.40	421.30
429.59	358.10
429.78	393.21
429.97	465.77
430.16	393.21
430.34	365.12
430.53	409.59
430.72	418.96
430.91	365.12
431.10	428.32
431.28	386.19
431.47	458.74
431.66	425.98
431.85	418.96
432.03	428.32
432.22	454.06
432.41	468.11
432.60	447.04
432.79	430.66
432.97	400.23
433.16	421.30
433.35	486.83
433.54	470.45
433.72	475.13
433.91	472.79
434.10	374.49
434.28	449.38
434.47	447.04
434.66	496.19
434.85	407.25
435.03	374.49
435.22	433.00
435.41	374.49
435.59	381.51
435.78	475.13
435.97	372.15
436.16	383.85
436.34	421.30
436.53	423.64
436.72	428.32
436.90	430.66
437.09	430.66
437.28	428.32
437.46	372.15
437.65	386.19
437.84	355.76
438.02	428.32
438.21	444.70
438.40	428.32
438.58	454.06
438.77	362.78
438.96	365.12
439.14	395.55
439.33	440.02
439.52	404.91
439.70	496.19
439.89	449.38
440.08	416.62
440.26	442.36
440.45	386.19
440.63	397.89
440.82	393.21
441.01	407.25
441.19	468.11
441.38	351.08
441.57	327.68
441.75	433.00
441.94	360.44
442.12	414.27
442.31	372.15
442.50	428.32
442.68	454.06
442.87	425.98
443.05	418.96
443.24	425.98
443.43	428.32
443.61	379.17
443.80	437.68
443.98	461.09
444.17	376.83
444.35	440.02
444.54	374.49
444.73	348.74
444.91	468.11
445.10	400.23
445.28	423.64
445.47	351.08
445.65	367.46
445.84	353.42
446.02	479.81
446.21	414.27
446.39	454.06
446.58	369.80
446.77	404.91
446.95	416.62
447.14	505.56
447.32	470.45
447.51	390.87
447.69	484.49
447.88	444.70
448.06	400.23
448.25	435.34
448.43	402.57
448.62	402.57
448.80	388.53
448.99	414.27
449.17	454.06
449.36	327.68
449.54	458.74
449.73	365.12
449.91	395.55
450.10	404.91
450.28	379.17
450.46	458.74
450.65	395.55
450.83	414.27
451.02	444.70
451.20	400.23
451.39	379.17
451.57	402.57
451.76	360.44
451.94	400.23
452.13	367.46
452.31	498.53
452.49	423.64
452.68	428.32
452.86	444.70
453.05	510.24
453.23	397.89
453.42	367.46
453.60	372.15
453.78	423.64
453.97	472.79
454.15	447.04
454.34	393.21
454.52	393.21
454.70	407.25
454.89	468.11
455.07	421.30
455.26	479.81
455.44	404.91
455.62	369.80
455.81	402.57
455.99	461.09
456.17	423.64
456.36	393.21
456.54	386.19
456.73	383.85
456.91	407.25
457.09	400.23
457.28	442.36
457.46	451.72
457.64	461.09
457.83	381.51
458.01	353.42
458.19	430.66
458.38	383.85
458.56	327.68
458.74	400.23
458.93	496.19
459.11	447.04
459.29	447.04
459.48	425.98
459.66	465.77
459.84	456.40
460.03	414.27
460.21	369.80
460.39	416.62
460.57	486.83
460.76	386.19
460.94	388.53
461.12	433.00
461.31	470.45
461.49	372.15
461.67	372.15
461.85	430.66
462.04	402.57
462.22	837.91
462.40	433.00
462.59	421.30
462.77	355.76
462.95	402.57
463.13	351.08
463.32	365.12
463.50	411.93
463.68	369.80
463.86	376.83
464.05	409.59
464.23	402.57
464.41	444.70
464.59	444.70
464.78	433.00
464.96	425.98
465.14	395.55
465.32	437.68
465.50	454.06
465.69	411.93
465.87	397.89
466.05	374.49
466.23	318.31
466.41	407.25
466.60	418.96
466.78	421.30
466.96	393.21
467.14	425.98
467.32	461.09
467.51	397.89
467.69	433.00
467.87	400.23
468.05	428.32
468.23	468.11
468.41	468.11
468.60	365.12
468.78	400.23
468.96	414.27
469.14	369.80
469.32	477.47
469.50	388.53
469.69	411.93
469.87	395.55
470.05	411.93
470.23	430.66
470.41	341.72
470.59	421.30
470.77	423.64
470.95	400.23
471.14	386.19
471.32	400.23
471.50	477.47
471.68	409.59
471.86	423.64
472.04	369.80
472.22	498.53
472.40	395.55
472.58	463.43
472.77	344.06
472.95	430.66
473.13	493.85
473.31	414.27
473.49	409.59
473.67	421.30
473.85	447.04
474.03	437.68
474.21	358.10
474.39	425.98
474.57	433.00
474.75	360.44
474.93	374.49
475.12	433.00
475.30	390.87
475.48	409.59
475.66	486.83
475.84	421.30
476.02	404.91
476.20	400.23
476.38	428.32
476.56	524.28
476.74	496.19
476.92	355.76
477.10	411.93
477.28	449.38
477.46	423.64
477.64	519.60
477.82	407.25
478.00	461.09
478.18	381.51
478.36	423.64
478.54	362.78
478.72	454.06
478.90	423.64
479.08	423.64
479.26	489.17
479.44	433.00
479.62	388.53
479.80	344.06
479.98	393.21
480.16	369.80
480.34	381.51
480.52	418.96
480.70	411.93
480.88	395.55
481.06	390.87
481.24	393.21
481.41	435.34
481.59	418.96
481.77	486.83
481.95	437.68
482.13	416.62
482.31	475.13
482.49	393.21
482.67	430.66
482.85	395.55
483.03	418.96
483.21	390.87
483.39	365.12
483.57	456.40
483.74	355.76
483.92	388.53
484.10	393.21
484.28	435.34
484.46	468.11
484.64	442.36
484.82	367.46
485.00	369.80
485.18	418.96
485.35	428.32
485.53	367.46
485.71	407.25
485.89	393.21
486.07	421.30
486.25	440.02
486.43	430.66
486.61	388.53
486.78	430.66
486.96	353.42
487.14	411.93
487.32	444.70
487.50	407.25
487.68	449.38
487.85	428.32
488.03	472.79
488.21	423.64
488.39	435.34
488.57	400.23
488.75	447.04
488.92	458.74
489.10	451.72
489.28	369.80
489.46	411.93
489.64	442.36
489.81	351.08
489.99	341.72
490.17	395.55
490.35	484.49
490.53	449.38
490.70	355.76
490.88	428.32
491.06	360.44
491.24	510.24
491.41	486.83
491.59	437.68
491.77	257.46
491.95	367.46
492.13	435.34
492.30	407.25
492.48	421.30
492.66	425.98
492.84	383.85
493.01	430.66
493.19	386.19
493.37	440.02
493.54	433.00
493.72	346.40
493.90	411.93
494.08	353.42
494.25	465.77
494.43	400.23
494.61	374.49
494.79	411.93
494.96	416.62
495.14	442.36
495.32	421.30
495.49	468.11
495.67	379.17
495.85	337.04
496.02	470.45
496.20	428.32
496.38	435.34
496.55	386.19
496.73	395.55
496.91	421.30
497.09	454.06
497.26	407.25
497.44	461.09
497.62	393.21
497.79	456.40
497.97	428.32
498.14	423.64
498.32	381.51
498.50	353.42
498.67	318.31
498.85	393.21
499.03	407.25
499.20	383.85
499.38	311.29
499.56	409.59
499.73	454.06
499.91	409.59
500.08	423.64
500.26	416.62
500.44	444.70
500.61	404.91
500.79	402.57
500.97	416.62
501.14	444.70
501.32	440.02
501.49	447.04
501.67	407.25
501.84	376.83
502.02	367.46
502.20	444.70
502.37	454.06
502.55	430.66
502.72	372.15
502.90	402.57
503.07	470.45
503.25	475.13
503.43	414.27
503.60	379.17
503.78	447.04
503.95	435.34
504.13	428.32
504.30	428.32
504.48	404.91
504.65	454.06
504.83	400.23
505.01	442.36
505.18	435.34
505.36	376.83
505.53	425.98
505.71	374.49
505.88	407.25
506.06	423.64
506.23	397.89
506.41	388.53
506.58	414.27
506.76	468.11
506.93	465.77
507.11	367.46
507.28	414.27
507.46	418.96
507.63	374.49
507.81	386.19
507.98	447.04
508.16	372.15
508.33	444.70
508.50	425.98
508.68	400.23
508.85	416.62
509.03	454.06
509.20	341.72
509.38	444.70
509.55	416.62
509.73	416.62
509.90	428.32
510.08	416.62
510.25	430.66
510.42	360.44
510.60	416.62
510.77	461.09
510.95	416.62
511.12	395.55
511.30	472.79
511.47	402.57
511.64	484.49
511.82	276.18
511.99	337.04
512.17	409.59
512.34	402.57
512.51	358.10
512.69	484.49
512.86	472.79
513.04	400.23
513.21	477.47
513.38	404.91
513.56	365.12
513.73	404.91
513.90	388.53
514.08	418.96
514.25	425.98
514.43	456.40
514.60	440.02
514.77	404.91
514.95	383.85
515.12	397.89
515.29	381.51
515.47	447.04
515.64	376.83
515.81	468.11
515.99	416.62
516.16	376.83
516.33	430.66
516.51	414.27
516.68	395.55
516.85	379.17
517.03	402.57
517.20	437.68
517.37	442.36
517.54	447.04
517.72	400.23
517.89	376.83
518.06	451.72
518.24	535.98
518.41	395.55
518.58	414.27
518.75	482.15
518.93	458.74
519.10	447.04
519.27	390.87
519.45	458.74
519.62	418.96
519.79	402.57
519.96	407.25
520.14	409.59
520.31	435.34
520.48	404.91
520.65	411.93
520.83	535.98
521.00	496.19
521.17	416.62
521.34	451.72
521.52	428.32
521.69	449.38
521.86	468.11
522.03	430.66
522.20	444.70
522.38	397.89
522.55	454.06
522.72	411.93
522.89	465.77
523.07	517.26
523.24	383.85
523.41	372.15
523.58	407.25
523.75	414.27
523.92	393.21
524.10	461.09
524.27	402.57
524.44	423.64
524.61	440.02
524.78	465.77
524.96	472.79
525.13	477.47
525.30	449.38
525.47	454.06
525.64	390.87
525.81	470.45
525.98	479.81
526.16	472.79
526.33	482.15
526.50	390.87
526.67	381.51
526.84	344.06
527.01	421.30
527.18	402.57
527.36	407.25
527.53	458.74
527.70	414.27
527.87	477.47
528.04	470.45
528.21	444.70
528.38	454.06
528.55	543.00
528.72	423.64
528.89	449.38
529.07	376.83
529.24	372.15
529.41	507.90
529.58	409.59
529.75	442.36
529.92	463.43
530.09	484.49
530.26	411.93
530.43	484.49
530.60	362.78
530.77	393.21
530.94	421.30
531.11	411.93
531.28	468.11
531.46	503.22
531.63	435.34
531.80	395.55
531.97	447.04
532.14	461.09
532.31	421.30
532.48	397.89
532.65	404.91
532.82	409.59
532.99	435.34
533.16	367.46
533.33	442.36
533.50	411.93
533.67	390.87
533.84	411.93
534.01	437.68
534.18	337.04
534.35	416.62
534.52	428.32
534.69	402.57
534.86	416.62
535.03	479.81
535.20	402.57
535.37	390.87
535.54	435.34
535.71	421.30
535.88	400.23
536.05	423.64
536.22	421.30
536.38	381.51
536.55	437.68
536.72	472.79
536.89	418.96
537.06	409.59
537.23	475.13
537.40	444.70
537.57	355.76
537.74	456.40
537.91	437.68
538.08	440.02
538.25	404.91
538.42	423.64
538.59	409.59
538.75	425.98
538.92	351.08
539.09	386.19
539.26	451.72
539.43	351.08
539.60	386.19
539.77	397.89
539.94	475.13
540.11	393.21
540.28	496.19
540.44	477.47
540.61	447.04
540.78	428.32
540.95	421.30
541.12	411.93
541.29	397.89
541.46	388.53
541.62	407.25
541.79	369.80
541.96	395.55
542.13	407.25
542.30	430.66
542.47	468.11
542.63	360.44
542.80	472.79
542.97	449.38
543.14	451.72
543.31	451.72
543.48	365.12
543.64	465.77
543.81	421.30
543.98	440.02
544.15	472.79
544.32	416.62
544.48	388.53
544.65	397.89
544.82	362.78
544.99	351.08
545.16	444.70
545.32	339.38
545.49	496.19
545.66	407.25
545.83	386.19
546.00	454.06
546.16	442.36
546.33	456.40
546.50	437.68
546.67	430.66
546.83	449.38
547.00	425.98
547.17	491.51
547.34	407.25
547.50	421.30
547.67	362.78
547.84	423.64
548.00	435.34
548.17	339.38
548.34	475.13
548.51	484.49
548.67	416.62
548.84	325.33
549.01	407.25
549.18	407.25
549.34	397.89
549.51	383.85
549.68	388.53
549.84	456.40
550.01	451.72
550.18	447.04
550.34	472.79
550.51	428.32
550.68	533.64
550.84	388.53
551.01	390.87
551.18	428.32
551.34	351.08
551.51	383.85
551.68	458.74
551.84	442.36
552.01	414.27
552.18	449.38
552.34	435.34
552.51	390.87
552.68	451.72
552.84	407.25
553.01	360.44
553.18	472.79
553.34	451.72
553.51	428.32
553.67	472.79
553.84	482.15
554.01	397.89
554.17	372.15
554.34	348.74
554.51	423.64
554.67	442.36
554.84	402.57
555.00	456.40
555.17	444.70
555.33	519.60
555.50	454.06
555.67	498.53
555.83	423.64
556.00	409.59
556.16	510.24
556.33	435.34
556.50	414.27
556.66	451.72
556.83	444.70
556.99	390.87
557.16	402.57
557.32	407.25
557.49	503.22
557.65	428.32
557.82	454.06
557.98	430.66
558.15	484.49
558.32	435.34
558.48	440.02
558.65	409.59
558.81	404.91
558.98	428.32
559.14	447.04
559.31	397.89
559.47	376.83
559.64	472.79
559.80	421.30
559.97	435.34
560.13	435.34
560.30	433.00
560.46	435.34
560.63	390.87
560.79	358.10
560.96	376.83
561.12	400.23
561.29	416.62
561.45	430.66
561.61	367.46
561.78	482.15
561.94	414.27
562.11	456.40
562.27	475.13
562.44	381.51
562.60	423.64
562.77	376.83
562.93	521.94
563.10	353.42
563.26	411.93
563.42	416.62
563.59	376.83
563.75	477.47
563.92	425.98
564.08	435.34
564.24	400.23
564.41	409.59
564.57	353.42
564.74	458.74
564.90	339.38
565.07	404.91
565.23	493.85
565.39	397.89
565.56	428.32
565.72	437.68
565.88	369.80
566.05	358.10
566.21	468.11
566.38	496.19
566.54	449.38
566.70	351.08
566.87	461.09
567.03	393.21
567.19	355.76
567.36	383.85
567.52	374.49
567.68	346.40
567.85	423.64
568.01	472.79
568.17	418.96
568.34	440.02
568.50	437.68
568.66	428.32
568.83	425.98
568.99	351.08
569.15	442.36
569.32	416.62
569.48	421.30
569.64	416.62
569.81	402.57
569.97	465.77
570.13	425.98
570.30	458.74
570.46	400.23
570.62	397.89
570.78	428.32
570.95	437.68
571.11	491.51
571.27	433.00
571.43	416.62
571.60	517.26
571.76	402.57
571.92	416.62
572.09	374.49
572.25	449.38
572.41	461.09
572.57	390.87
572.74	430.66
572.90	397.89
573.06	484.49
573.22	358.10
573.38	477.47
573.55	442.36
573.71	409.59
573.87	409.59
574.03	435.34
574.20	437.68
574.36	505.56
574.52	440.02
574.68	393.21
574.84	458.74
575.01	397.89
575.17	449.38
575.33	437.68
575.49	428.32
575.65	451.72
575.82	388.53
575.98	468.11
576.14	365.12
576.30	423.64
576.46	418.96
576.62	372.15
576.79	442.36
576.95	383.85
577.11	461.09
577.27	418.96
577.43	421.30
577.59	451.72
577.75	482.15
577.92	430.66
578.08	386.19
578.24	346.40
578.40	404.91
578.56	400.23
578.72	411.93
578.88	442.36
579.04	449.38
579.21	386.19
579.37	437.68
579.53	407.25
579.69	456.40
579.85	299.59
580.01	435.34
580.17	491.51
580.33	395.55
580.49	435.34
580.65	411.93
580.82	400.23
580.98	379.17
581.14	346.40
581.30	425.98
581.46	472.79
581.62	421.30
581.78	479.81
581.94	435.34
582.10	386.19
582.26	346.40
582.42	484.49
582.58	418.96
582.74	454.06
582.90	435.34
583.06	379.17
583.22	423.64
583.38	442.36
583.54	381.51
583.70	369.80
583.86	440.02
584.02	367.46
584.18	442.36
584.34	418.96
584.50	418.96
584.66	437.68
584.82	409.59
584.98	383.85
585.14	414.27
585.30	418.96
585.46	435.34
585.62	379.17
585.78	404.91
585.94	358.10
586.10	397.89
586.26	411.93
586.42	454.06
586.58	458.74
586.74	379.17
586.90	416.62
587.06	397.89
587.22	411.93
587.38	407.25
587.54	367.46
587.70	381.51
587.86	423.64
588.02	428.32
588.18	423.64
588.34	395.55
588.49	367.46
588.65	437.68
588.81	365.12
588.97	423.64
589.13	423.64
589.29	425.98
589.45	521.94
589.61	425.98
589.77	430.66
589.93	400.23
590.08	341.72
590.24	458.74
590.40	360.44
590.56	470.45
590.72	355.76
590.88	348.74
591.04	388.53
591.20	355.76
591.35	423.64
591.51	437.68
591.67	388.53
591.83	437.68
591.99	479.81
592.15	409.59
592.31	475.13
592.46	425.98
592.62	491.51
592.78	430.66
592.94	463.43
593.10	355.76
593.26	355.76
593.41	407.25
593.57	416.62
593.73	402.57
593.89	409.59
594.05	423.64
594.20	416.62
594.36	425.98
594.52	386.19
594.68	454.06
594.84	407.25
594.99	423.64
595.15	393.21
595.31	433.00
595.47	414.27
595.62	470.45
595.78	447.04
595.94	390.87
596.10	472.79
596.25	409.59
596.41	397.89
596.57	362.78
596.73	369.80
596.88	482.15
597.04	461.09
597.20	355.76
597.36	514.92
597.51	397.89
597.67	500.87
597.83	421.30
597.99	493.85
598.14	411.93
598.30	472.79
598.46	411.93
598.61	386.19
598.77	468.11
598.93	437.68
599.09	428.32
599.24	486.83
599.40	463.43
599.56	447.04
599.71	454.06
599.87	386.19
600.03	397.89
600.18	421.30
600.34	475.13
600.50	449.38
600.65	421.30
600.81	404.91
600.97	411.93
601.12	381.51
601.28	468.11
601.44	400.23
601.59	444.70
601.75	376.83
601.91	407.25
602.06	400.23
602.22	465.77
602.37	486.83
602.53	395.55
602.69	458.74
602.84	418.96
603.00	407.25
603.16	362.78
603.31	418.96
603.47	400.23
603.62	418.96
603.78	465.77
603.94	402.57
604.09	390.87
604.25	458.74
604.40	463.43
604.56	386.19
604.71	435.34
604.87	409.59
605.03	510.24
605.18	493.85
605.34	414.27
605.49	397.89
605.65	489.17
605.80	442.36
605.96	421.30
606.12	421.30
606.27	353.42
606.43	418.96
606.58	514.92
606.74	404.91
606.89	442.36
607.05	407.25
607.20	425.98
607.36	482.15
607.51	414.27
607.67	351.08
607.82	388.53
607.98	423.64
608.13	416.62
608.29	404.91
608.44	447.04
608.60	451.72
608.75	409.59
608.91	409.59
609.06	486.83
609.22	418.96
609.37	397.89
609.53	486.83
609.68	367.46
609.84	479.81
609.99	465.77
610.15	423.64
