SpectraSuite Data File
++++++++++++++++++++++++++++++++++++
Date: Fri Oct 25 12:10:41 EDT 2013
User: price-jones
Dark Spectrum Present: No
Reference Spectrum Present: No
Number of Sampled Component Spectra: 1
Spectrometers: USB2+H05261
Integration Time (usec): 100000 (USB2+H05261)
Spectra Averaged: 1 (USB2+H05261)
Boxcar Smoothing: 0 (USB2+H05261)
Correct for Electrical Dark: No (USB2+H05261)
Strobe/Lamp Enabled: No (USB2+H05261)
Correct for Detector Non-linearity: No (USB2+H05261)
Correct for Stray Light: No (USB2+H05261)
Number of Pixels in Processed Spectrum: 2048
>>>>>Begin Processed Spectral Data<<<<<
365.73	386.19
365.92	386.19
366.12	386.19
366.32	252.78
366.52	255.12
366.72	266.82
366.91	290.23
367.11	215.33
367.31	205.97
367.51	241.08
367.70	229.37
367.90	280.86
368.10	245.76
368.30	292.57
368.49	205.97
368.69	269.16
368.89	334.70
369.09	241.08
369.28	220.01
369.48	203.63
369.68	297.25
369.87	259.80
370.07	358.10
370.27	379.17
370.47	306.61
370.66	306.61
370.86	299.59
371.06	374.49
371.25	367.46
371.45	290.23
371.65	351.08
371.84	341.72
372.04	341.72
372.24	339.38
372.44	379.17
372.63	451.72
372.83	383.85
373.03	386.19
373.22	376.83
373.42	411.93
373.62	390.87
373.81	397.89
374.01	404.91
374.21	407.25
374.40	367.46
374.60	423.64
374.79	435.34
374.99	437.68
375.19	425.98
375.38	468.11
375.58	433.00
375.78	447.04
375.97	402.57
376.17	388.53
376.37	360.44
376.56	449.38
376.76	414.27
376.95	440.02
377.15	454.06
377.35	433.00
377.54	393.21
377.74	428.32
377.93	341.72
378.13	400.23
378.33	468.11
378.52	346.40
378.72	325.33
378.91	339.38
379.11	470.45
379.31	367.46
379.50	433.00
379.70	381.51
379.89	381.51
380.09	421.30
380.28	402.57
380.48	414.27
380.68	365.12
380.87	393.21
381.07	430.66
381.26	390.87
381.46	444.70
381.65	411.93
381.85	390.87
382.04	463.43
382.24	425.98
382.43	416.62
382.63	341.72
382.83	402.57
383.02	395.55
383.22	428.32
383.41	390.87
383.61	428.32
383.80	397.89
384.00	411.93
384.19	402.57
384.39	440.02
384.58	444.70
384.78	383.85
384.97	409.59
385.17	369.80
385.36	362.78
385.56	416.62
385.75	386.19
385.95	458.74
386.14	447.04
386.34	374.49
386.53	449.38
386.72	360.44
386.92	400.23
387.11	360.44
387.31	383.85
387.50	365.12
387.70	414.27
387.89	407.25
388.09	334.70
388.28	407.25
388.48	388.53
388.67	437.68
388.86	376.83
389.06	447.04
389.25	461.09
389.45	421.30
389.64	346.40
389.84	395.55
390.03	355.76
390.22	372.15
390.42	402.57
390.61	414.27
390.81	390.87
391.00	383.85
391.19	416.62
391.39	442.36
391.58	402.57
391.78	376.83
391.97	381.51
392.16	395.55
392.36	390.87
392.55	470.45
392.75	402.57
392.94	442.36
393.13	468.11
393.33	421.30
393.52	381.51
393.71	414.27
393.91	407.25
394.10	423.64
394.29	440.02
394.49	297.25
394.68	470.45
394.88	430.66
395.07	367.46
395.26	440.02
395.46	299.59
395.65	468.11
395.84	482.15
396.04	510.24
396.23	379.17
396.42	451.72
396.62	397.89
396.81	404.91
397.00	440.02
397.19	454.06
397.39	362.78
397.58	435.34
397.77	390.87
397.97	367.46
398.16	416.62
398.35	395.55
398.55	379.17
398.74	433.00
398.93	456.40
399.12	353.42
399.32	475.13
399.51	404.91
399.70	353.42
399.90	365.12
400.09	521.94
400.28	456.40
400.47	404.91
400.67	437.68
400.86	395.55
401.05	372.15
401.24	344.06
401.44	407.25
401.63	435.34
401.82	374.49
402.01	369.80
402.21	390.87
402.40	442.36
402.59	390.87
402.78	430.66
402.97	365.12
403.17	404.91
403.36	365.12
403.55	346.40
403.74	367.46
403.93	327.68
404.13	409.59
404.32	409.59
404.51	386.19
404.70	447.04
404.89	365.12
405.09	404.91
405.28	409.59
405.47	472.79
405.66	418.96
405.85	465.77
406.05	320.65
406.24	428.32
406.43	388.53
406.62	433.00
406.81	463.43
407.00	346.40
407.20	440.02
407.39	414.27
407.58	421.30
407.77	470.45
407.96	447.04
408.15	390.87
408.34	435.34
408.54	397.89
408.73	386.19
408.92	440.02
409.11	458.74
409.30	379.17
409.49	376.83
409.68	360.44
409.87	348.74
410.07	369.80
410.26	358.10
410.45	435.34
410.64	383.85
410.83	402.57
411.02	416.62
411.21	402.57
411.40	456.40
411.59	416.62
411.78	449.38
411.98	440.02
412.17	421.30
412.36	479.81
412.55	362.78
412.74	386.19
412.93	526.62
413.12	358.10
413.31	416.62
413.50	433.00
413.69	425.98
413.88	367.46
414.07	447.04
414.26	440.02
414.45	400.23
414.64	407.25
414.83	454.06
415.02	383.85
415.22	369.80
415.41	463.43
415.60	425.98
415.79	369.80
415.98	425.98
416.17	442.36
416.36	407.25
416.55	374.49
416.74	409.59
416.93	402.57
417.12	416.62
417.31	418.96
417.50	463.43
417.69	360.44
417.88	409.59
418.07	381.51
418.26	388.53
418.45	428.32
418.64	404.91
418.83	372.15
419.02	341.72
419.21	437.68
419.39	369.80
419.58	360.44
419.77	381.51
419.96	344.06
420.15	493.85
420.34	442.36
420.53	414.27
420.72	393.21
420.91	428.32
421.10	393.21
421.29	440.02
421.48	447.04
421.67	517.26
421.86	409.59
422.05	358.10
422.24	390.87
422.43	451.72
422.61	404.91
422.80	435.34
422.99	470.45
423.18	374.49
423.37	437.68
423.56	390.87
423.75	365.12
423.94	381.51
424.13	416.62
424.32	355.76
424.50	425.98
424.69	437.68
424.88	447.04
425.07	468.11
425.26	482.15
425.45	442.36
425.64	409.59
425.83	411.93
426.01	425.98
426.20	409.59
426.39	433.00
426.58	404.91
426.77	393.21
426.96	395.55
427.15	402.57
427.33	433.00
427.52	428.32
427.71	449.38
427.90	416.62
428.09	461.09
428.28	418.96
428.46	390.87
428.65	400.23
428.84	475.13
429.03	437.68
429.22	376.83
429.40	351.08
429.59	428.32
429.78	393.21
429.97	381.51
430.16	318.31
430.34	484.49
430.53	470.45
430.72	430.66
430.91	369.80
431.10	358.10
431.28	379.17
431.47	447.04
431.66	447.04
431.85	346.40
432.03	383.85
432.22	475.13
432.41	355.76
432.60	421.30
432.79	404.91
432.97	425.98
433.16	425.98
433.35	341.72
433.54	512.58
433.72	393.21
433.91	418.96
434.10	332.36
434.28	372.15
434.47	425.98
434.66	393.21
434.85	332.36
435.03	440.02
435.22	386.19
435.41	442.36
435.59	409.59
435.78	444.70
435.97	444.70
436.16	395.55
436.34	355.76
436.53	393.21
436.72	475.13
436.90	404.91
437.09	430.66
437.28	330.02
437.46	388.53
437.65	395.55
437.84	425.98
438.02	430.66
438.21	456.40
438.40	381.51
438.58	315.97
438.77	475.13
438.96	393.21
439.14	339.38
439.33	437.68
439.52	414.27
439.70	400.23
439.89	411.93
440.08	411.93
440.26	550.03
440.45	489.17
440.63	482.15
440.82	397.89
441.01	468.11
441.19	421.30
441.38	418.96
441.57	390.87
441.75	386.19
441.94	512.58
442.12	461.09
442.31	362.78
442.50	365.12
442.68	402.57
442.87	400.23
443.05	444.70
443.24	400.23
443.43	402.57
443.61	421.30
443.80	430.66
443.98	386.19
444.17	325.33
444.35	428.32
444.54	442.36
444.73	362.78
444.91	435.34
445.10	433.00
445.28	486.83
445.47	486.83
445.65	374.49
445.84	421.30
446.02	416.62
446.21	425.98
446.39	402.57
446.58	491.51
446.77	402.57
446.95	458.74
447.14	369.80
447.32	463.43
447.51	409.59
447.69	435.34
447.88	433.00
448.06	386.19
448.25	428.32
448.43	421.30
448.62	418.96
448.80	416.62
448.99	458.74
449.17	397.89
449.36	379.17
449.54	500.87
449.73	376.83
449.91	395.55
450.10	449.38
450.28	489.17
450.46	442.36
450.65	486.83
450.83	397.89
451.02	442.36
451.20	400.23
451.39	358.10
451.57	383.85
451.76	395.55
451.94	383.85
452.13	447.04
452.31	433.00
452.49	386.19
452.68	400.23
452.86	411.93
453.05	355.76
453.23	367.46
453.42	383.85
453.60	451.72
453.78	395.55
453.97	428.32
454.15	437.68
454.34	379.17
454.52	409.59
454.70	423.64
454.89	477.47
455.07	411.93
455.26	362.78
455.44	465.77
455.62	484.49
455.81	451.72
455.99	454.06
456.17	477.47
456.36	454.06
456.54	423.64
456.73	395.55
456.91	444.70
457.09	463.43
457.28	435.34
457.46	416.62
457.64	440.02
457.83	409.59
458.01	400.23
458.19	484.49
458.38	395.55
458.56	369.80
458.74	390.87
458.93	414.27
459.11	402.57
459.29	407.25
459.48	362.78
459.66	414.27
459.84	400.23
460.03	482.15
460.21	402.57
460.39	477.47
460.57	425.98
460.76	442.36
460.94	489.17
461.12	444.70
461.31	456.40
461.49	421.30
461.67	402.57
461.85	463.43
462.04	365.12
462.22	746.63
462.40	362.78
462.59	430.66
462.77	468.11
462.95	365.12
463.13	416.62
463.32	444.70
463.50	442.36
463.68	421.30
463.86	423.64
464.05	507.90
464.23	425.98
464.41	514.92
464.59	430.66
464.78	437.68
464.96	383.85
465.14	479.81
465.32	402.57
465.50	397.89
465.69	409.59
465.87	407.25
466.05	528.96
466.23	447.04
466.41	306.61
466.60	416.62
466.78	390.87
466.96	395.55
467.14	409.59
467.32	379.17
467.51	442.36
467.69	400.23
467.87	407.25
468.05	400.23
468.23	400.23
468.41	400.23
468.60	402.57
468.78	421.30
468.96	477.47
469.14	454.06
469.32	400.23
469.50	386.19
469.69	383.85
469.87	507.90
470.05	402.57
470.23	383.85
470.41	393.21
470.59	456.40
470.77	372.15
470.95	433.00
471.14	421.30
471.32	400.23
471.50	416.62
471.68	388.53
471.86	393.21
472.04	386.19
472.22	425.98
472.40	383.85
472.58	365.12
472.77	421.30
472.95	411.93
473.13	418.96
473.31	386.19
473.49	428.32
473.67	358.10
473.85	416.62
474.03	386.19
474.21	402.57
474.39	447.04
474.57	416.62
474.75	409.59
474.93	374.49
475.12	379.17
475.30	355.76
475.48	418.96
475.66	421.30
475.84	395.55
476.02	461.09
476.20	440.02
476.38	397.89
476.56	477.47
476.74	393.21
476.92	409.59
477.10	440.02
477.28	409.59
477.46	423.64
477.64	383.85
477.82	421.30
478.00	425.98
478.18	440.02
478.36	386.19
478.54	447.04
478.72	449.38
478.90	383.85
479.08	407.25
479.26	418.96
479.44	400.23
479.62	376.83
479.80	365.12
479.98	395.55
480.16	442.36
480.34	404.91
480.52	444.70
480.70	442.36
480.88	386.19
481.06	388.53
481.24	442.36
481.41	449.38
481.59	383.85
481.77	390.87
481.95	456.40
482.13	428.32
482.31	411.93
482.49	334.70
482.67	447.04
482.85	416.62
483.03	421.30
483.21	465.77
483.39	435.34
483.57	374.49
483.74	528.96
483.92	482.15
484.10	344.06
484.28	463.43
484.46	451.72
484.64	407.25
484.82	430.66
485.00	407.25
485.18	355.76
485.35	454.06
485.53	376.83
485.71	484.49
485.89	362.78
486.07	418.96
486.25	414.27
486.43	372.15
486.61	463.43
486.78	390.87
486.96	433.00
487.14	409.59
487.32	430.66
487.50	383.85
487.68	428.32
487.85	395.55
488.03	386.19
488.21	416.62
488.39	416.62
488.57	409.59
488.75	435.34
488.92	559.39
489.10	402.57
489.28	414.27
489.46	346.40
489.64	470.45
489.81	437.68
489.99	318.31
490.17	393.21
490.35	409.59
490.53	400.23
490.70	409.59
490.88	416.62
491.06	428.32
491.24	468.11
491.41	433.00
491.59	472.79
491.77	428.32
491.95	369.80
492.13	393.21
492.30	374.49
492.48	327.68
492.66	393.21
492.84	383.85
493.01	381.51
493.19	463.43
493.37	442.36
493.54	423.64
493.72	477.47
493.90	402.57
494.08	402.57
494.25	409.59
494.43	414.27
494.61	407.25
494.79	430.66
494.96	386.19
495.14	435.34
495.32	433.00
495.49	528.96
495.67	379.17
495.85	395.55
496.02	416.62
496.20	395.55
496.38	449.38
496.55	393.21
496.73	369.80
496.91	451.72
497.09	493.85
497.26	491.51
497.44	418.96
497.62	437.68
497.79	433.00
497.97	369.80
498.14	486.83
498.32	416.62
498.50	379.17
498.67	379.17
498.85	456.40
499.03	400.23
499.20	418.96
499.38	381.51
499.56	517.26
499.73	463.43
499.91	437.68
500.08	376.83
500.26	358.10
500.44	425.98
500.61	395.55
500.79	430.66
500.97	456.40
501.14	458.74
501.32	397.89
501.49	435.34
501.67	421.30
501.84	386.19
502.02	339.38
502.20	496.19
502.37	414.27
502.55	358.10
502.72	428.32
502.90	390.87
503.07	421.30
503.25	390.87
503.43	395.55
503.60	411.93
503.78	468.11
503.95	386.19
504.13	465.77
504.30	372.15
504.48	358.10
504.65	430.66
504.83	381.51
505.01	383.85
505.18	411.93
505.36	400.23
505.53	468.11
505.71	397.89
505.88	447.04
506.06	458.74
506.23	376.83
506.41	463.43
506.58	418.96
506.76	397.89
506.93	386.19
507.11	362.78
507.28	322.99
507.46	461.09
507.63	409.59
507.81	423.64
507.98	461.09
508.16	421.30
508.33	489.17
508.50	428.32
508.68	386.19
508.85	437.68
509.03	421.30
509.20	362.78
509.38	433.00
509.55	395.55
509.73	379.17
509.90	365.12
510.08	433.00
510.25	486.83
510.42	372.15
510.60	416.62
510.77	425.98
510.95	451.72
511.12	418.96
511.30	451.72
511.47	416.62
511.64	376.83
511.82	381.51
511.99	416.62
512.17	358.10
512.34	376.83
512.51	383.85
512.69	355.76
512.86	437.68
513.04	365.12
513.21	416.62
513.38	407.25
513.56	409.59
513.73	416.62
513.90	376.83
514.08	369.80
514.25	444.70
514.43	454.06
514.60	449.38
514.77	440.02
514.95	414.27
515.12	400.23
515.29	411.93
515.47	489.17
515.64	414.27
515.81	440.02
515.99	400.23
516.16	479.81
516.33	355.76
516.51	421.30
516.68	423.64
516.85	435.34
517.03	351.08
517.20	404.91
517.37	341.72
517.54	449.38
517.72	440.02
517.89	416.62
518.06	456.40
518.24	468.11
518.41	444.70
518.58	458.74
518.75	411.93
518.93	456.40
519.10	346.40
519.27	425.98
519.45	435.34
519.62	355.76
519.79	386.19
519.96	456.40
520.14	444.70
520.31	402.57
520.48	416.62
520.65	395.55
520.83	365.12
521.00	433.00
521.17	372.15
521.34	365.12
521.52	409.59
521.69	433.00
521.86	327.68
522.03	414.27
522.20	465.77
522.38	418.96
522.55	381.51
522.72	425.98
522.89	454.06
523.07	451.72
523.24	423.64
523.41	435.34
523.58	386.19
523.75	362.78
523.92	372.15
524.10	416.62
524.27	482.15
524.44	402.57
524.61	407.25
524.78	402.57
524.96	404.91
525.13	421.30
525.30	381.51
525.47	447.04
525.64	430.66
525.81	393.21
525.98	461.09
526.16	407.25
526.33	397.89
526.50	383.85
526.67	425.98
526.84	458.74
527.01	346.40
527.18	318.31
527.36	379.17
527.53	402.57
527.70	442.36
527.87	404.91
528.04	517.26
528.21	360.44
528.38	379.17
528.55	351.08
528.72	442.36
528.89	449.38
529.07	472.79
529.24	416.62
529.41	430.66
529.58	423.64
529.75	365.12
529.92	433.00
530.09	442.36
530.26	449.38
530.43	440.02
530.60	444.70
530.77	425.98
530.94	407.25
531.11	369.80
531.28	411.93
531.46	421.30
531.63	383.85
531.80	348.74
531.97	440.02
532.14	388.53
532.31	468.11
532.48	437.68
532.65	416.62
532.82	393.21
532.99	372.15
533.16	402.57
533.33	374.49
533.50	435.34
533.67	376.83
533.84	393.21
534.01	339.38
534.18	411.93
534.35	430.66
534.52	493.85
534.69	428.32
534.86	388.53
535.03	390.87
535.20	397.89
535.37	451.72
535.54	348.74
535.71	444.70
535.88	433.00
536.05	407.25
536.22	430.66
536.38	395.55
536.55	351.08
536.72	463.43
536.89	360.44
537.06	456.40
537.23	433.00
537.40	463.43
537.57	416.62
537.74	456.40
537.91	374.49
538.08	409.59
538.25	383.85
538.42	447.04
538.59	454.06
538.75	449.38
538.92	430.66
539.09	418.96
539.26	447.04
539.43	397.89
539.60	437.68
539.77	402.57
539.94	400.23
540.11	489.17
540.28	463.43
540.44	449.38
540.61	456.40
540.78	500.87
540.95	472.79
541.12	498.53
541.29	430.66
541.46	418.96
541.62	430.66
541.79	437.68
541.96	409.59
542.13	447.04
542.30	402.57
542.47	442.36
542.63	334.70
542.80	472.79
542.97	437.68
543.14	411.93
543.31	447.04
543.48	418.96
543.64	414.27
543.81	433.00
543.98	390.87
544.15	418.96
544.32	484.49
544.48	397.89
544.65	444.70
544.82	353.42
544.99	472.79
545.16	433.00
545.32	400.23
545.49	374.49
545.66	388.53
545.83	447.04
546.00	404.91
546.16	411.93
546.33	442.36
546.50	372.15
546.67	433.00
546.83	395.55
547.00	447.04
547.17	395.55
547.34	369.80
547.50	395.55
547.67	400.23
547.84	397.89
548.00	428.32
548.17	390.87
548.34	397.89
548.51	388.53
548.67	381.51
548.84	414.27
549.01	397.89
549.18	381.51
549.34	409.59
549.51	442.36
549.68	430.66
549.84	451.72
550.01	381.51
550.18	505.56
550.34	482.15
550.51	386.19
550.68	437.68
550.84	454.06
551.01	409.59
551.18	435.34
551.34	386.19
551.51	395.55
551.68	386.19
551.84	430.66
552.01	430.66
552.18	496.19
552.34	430.66
552.51	428.32
552.68	428.32
552.84	381.51
553.01	458.74
553.18	444.70
553.34	407.25
553.51	407.25
553.67	428.32
553.84	465.77
554.01	442.36
554.17	374.49
554.34	416.62
554.51	400.23
554.67	491.51
554.84	411.93
555.00	418.96
555.17	451.72
555.33	507.90
555.50	421.30
555.67	365.12
555.83	374.49
556.00	486.83
556.16	608.54
556.33	514.92
556.50	416.62
556.66	433.00
556.83	388.53
556.99	383.85
557.16	414.27
557.32	465.77
557.49	372.15
557.65	440.02
557.82	409.59
557.98	362.78
558.15	388.53
558.32	421.30
558.48	428.32
558.65	376.83
558.81	461.09
558.98	416.62
559.14	458.74
559.31	454.06
559.47	435.34
559.64	458.74
559.80	365.12
559.97	395.55
560.13	395.55
560.30	386.19
560.46	393.21
560.63	465.77
560.79	376.83
560.96	395.55
561.12	381.51
561.29	421.30
561.45	390.87
561.61	423.64
561.78	503.22
561.94	449.38
562.11	376.83
562.27	444.70
562.44	430.66
562.60	451.72
562.77	428.32
562.93	402.57
563.10	421.30
563.26	407.25
563.42	477.47
563.59	451.72
563.75	447.04
563.92	463.43
564.08	454.06
564.24	456.40
564.41	416.62
564.57	358.10
564.74	381.51
564.90	449.38
565.07	475.13
565.23	393.21
565.39	379.17
565.56	414.27
565.72	463.43
565.88	379.17
566.05	348.74
566.21	402.57
566.38	416.62
566.54	386.19
566.70	388.53
566.87	402.57
567.03	423.64
567.19	433.00
567.36	402.57
567.52	393.21
567.68	500.87
567.85	458.74
568.01	428.32
568.17	430.66
568.34	444.70
568.50	425.98
568.66	442.36
568.83	425.98
568.99	414.27
569.15	442.36
569.32	390.87
569.48	402.57
569.64	404.91
569.81	414.27
569.97	444.70
570.13	472.79
570.30	493.85
570.46	411.93
570.62	386.19
570.78	407.25
570.95	456.40
571.11	414.27
571.27	477.47
571.43	456.40
571.60	482.15
571.76	442.36
571.92	430.66
572.09	425.98
572.25	463.43
572.41	381.51
572.57	416.62
572.74	486.83
572.90	444.70
573.06	409.59
573.22	318.31
573.38	454.06
573.55	411.93
573.71	449.38
573.87	393.21
574.03	397.89
574.20	430.66
574.36	376.83
574.52	465.77
574.68	423.64
574.84	456.40
575.01	461.09
575.17	428.32
575.33	461.09
575.49	470.45
575.65	388.53
575.82	404.91
575.98	465.77
576.14	456.40
576.30	425.98
576.46	367.46
576.62	491.51
576.79	400.23
576.95	470.45
577.11	339.38
577.27	416.62
577.43	365.12
577.59	465.77
577.75	388.53
577.92	407.25
578.08	402.57
578.24	402.57
578.40	505.56
578.56	407.25
578.72	418.96
578.88	365.12
579.04	435.34
579.21	425.98
579.37	454.06
579.53	440.02
579.69	454.06
579.85	442.36
580.01	425.98
580.17	409.59
580.33	404.91
580.49	369.80
580.65	449.38
580.82	407.25
580.98	484.49
581.14	383.85
581.30	493.85
581.46	348.74
581.62	404.91
581.78	475.13
581.94	505.56
582.10	479.81
582.26	425.98
582.42	360.44
582.58	461.09
582.74	454.06
582.90	447.04
583.06	402.57
583.22	411.93
583.38	454.06
583.54	447.04
583.70	451.72
583.86	433.00
584.02	395.55
584.18	372.15
584.34	421.30
584.50	433.00
584.66	411.93
584.82	360.44
584.98	386.19
585.14	418.96
585.30	461.09
585.46	423.64
585.62	442.36
585.78	418.96
585.94	444.70
586.10	402.57
586.26	475.13
586.42	440.02
586.58	383.85
586.74	393.21
586.90	376.83
587.06	500.87
587.22	423.64
587.38	442.36
587.54	421.30
587.70	383.85
587.86	428.32
588.02	444.70
588.18	400.23
588.34	423.64
588.49	409.59
588.65	367.46
588.81	395.55
588.97	440.02
589.13	407.25
589.29	433.00
589.45	358.10
589.61	465.77
589.77	491.51
589.93	437.68
590.08	425.98
590.24	470.45
590.40	444.70
590.56	374.49
590.72	416.62
590.88	416.62
591.04	411.93
591.20	458.74
591.35	425.98
591.51	409.59
591.67	451.72
591.83	423.64
591.99	468.11
592.15	393.21
592.31	425.98
592.46	402.57
592.62	418.96
592.78	458.74
592.94	360.44
593.10	383.85
593.26	372.15
593.41	444.70
593.57	447.04
593.73	430.66
593.89	390.87
594.05	397.89
594.20	404.91
594.36	524.28
594.52	400.23
594.68	411.93
594.84	402.57
594.99	479.81
595.15	381.51
595.31	451.72
595.47	430.66
595.62	376.83
595.78	451.72
595.94	379.17
596.10	421.30
596.25	388.53
596.41	479.81
596.57	414.27
596.73	388.53
596.88	428.32
597.04	428.32
597.20	416.62
597.36	435.34
597.51	339.38
597.67	418.96
597.83	409.59
597.99	411.93
598.14	475.13
598.30	411.93
598.46	376.83
598.61	416.62
598.77	461.09
598.93	440.02
599.09	437.68
599.24	433.00
599.40	362.78
599.56	348.74
599.71	397.89
599.87	346.40
600.03	411.93
600.18	416.62
600.34	379.17
600.50	393.21
600.65	407.25
600.81	454.06
600.97	421.30
601.12	390.87
601.28	482.15
601.44	397.89
601.59	423.64
601.75	477.47
601.91	458.74
602.06	369.80
602.22	505.56
602.37	458.74
602.53	397.89
602.69	440.02
602.84	393.21
603.00	447.04
603.16	435.34
603.31	393.21
603.47	416.62
603.62	458.74
603.78	526.62
603.94	428.32
604.09	421.30
604.25	416.62
604.40	505.56
604.56	372.15
604.71	433.00
604.87	374.49
605.03	325.33
605.18	395.55
605.34	418.96
605.49	386.19
605.65	346.40
605.80	397.89
605.96	463.43
606.12	496.19
606.27	451.72
606.43	423.64
606.58	402.57
606.74	407.25
606.89	402.57
607.05	358.10
607.20	456.40
607.36	395.55
607.51	407.25
607.67	433.00
607.82	447.04
607.98	468.11
608.13	425.98
608.29	418.96
608.44	449.38
608.60	381.51
608.75	428.32
608.91	346.40
609.06	390.87
609.22	519.60
609.37	393.21
609.53	362.78
609.68	351.08
609.84	395.55
609.99	428.32
610.15	423.64
