SpectraSuite Data File
++++++++++++++++++++++++++++++++++++
Date: Fri Oct 25 12:11:44 EDT 2013
User: price-jones
Dark Spectrum Present: No
Reference Spectrum Present: No
Number of Sampled Component Spectra: 1
Spectrometers: USB2+H05261
Integration Time (usec): 100000 (USB2+H05261)
Spectra Averaged: 1 (USB2+H05261)
Boxcar Smoothing: 0 (USB2+H05261)
Correct for Electrical Dark: No (USB2+H05261)
Strobe/Lamp Enabled: No (USB2+H05261)
Correct for Detector Non-linearity: No (USB2+H05261)
Correct for Stray Light: No (USB2+H05261)
Number of Pixels in Processed Spectrum: 2048
>>>>>Begin Processed Spectral Data<<<<<
365.73	341.72
365.92	341.72
366.12	341.72
366.32	271.50
366.52	255.12
366.72	276.18
366.91	227.03
367.11	236.39
367.31	252.78
367.51	229.37
367.70	208.31
367.90	229.37
368.10	269.16
368.30	266.82
368.49	234.05
368.69	278.52
368.89	257.46
369.09	220.01
369.28	287.89
369.48	259.80
369.68	332.36
369.87	294.91
370.07	339.38
370.27	318.31
370.47	306.61
370.66	311.29
370.86	362.78
371.06	395.55
371.25	353.42
371.45	381.51
371.65	351.08
371.84	393.21
372.04	430.66
372.24	388.53
372.44	388.53
372.63	414.27
372.83	395.55
373.03	395.55
373.22	395.55
373.42	400.23
373.62	386.19
373.81	454.06
374.01	433.00
374.21	407.25
374.40	339.38
374.60	440.02
374.79	444.70
374.99	386.19
375.19	430.66
375.38	355.76
375.58	409.59
375.78	423.64
375.97	409.59
376.17	447.04
376.37	411.93
376.56	454.06
376.76	367.46
376.95	500.87
377.15	390.87
377.35	362.78
377.54	430.66
377.74	383.85
377.93	454.06
378.13	395.55
378.33	454.06
378.52	463.43
378.72	369.80
378.91	353.42
379.11	376.83
379.31	372.15
379.50	360.44
379.70	404.91
379.89	388.53
380.09	404.91
380.28	351.08
380.48	447.04
380.68	400.23
380.87	358.10
381.07	388.53
381.26	430.66
381.46	376.83
381.65	414.27
381.85	400.23
382.04	386.19
382.24	376.83
382.43	468.11
382.63	362.78
382.83	411.93
383.02	493.85
383.22	507.90
383.41	346.40
383.61	451.72
383.80	437.68
384.00	435.34
384.19	449.38
384.39	442.36
384.58	393.21
384.78	491.51
384.97	409.59
385.17	423.64
385.36	386.19
385.56	404.91
385.75	362.78
385.95	498.53
386.14	376.83
386.34	379.17
386.53	407.25
386.72	383.85
386.92	402.57
387.11	404.91
387.31	421.30
387.50	372.15
387.70	381.51
387.89	376.83
388.09	383.85
388.28	407.25
388.48	376.83
388.67	496.19
388.86	409.59
389.06	334.70
389.25	388.53
389.45	301.93
389.64	428.32
389.84	416.62
390.03	393.21
390.22	362.78
390.42	442.36
390.61	468.11
390.81	344.06
391.00	365.12
391.19	482.15
391.39	461.09
391.58	404.91
391.78	421.30
391.97	400.23
392.16	332.36
392.36	451.72
392.55	428.32
392.75	447.04
392.94	397.89
393.13	475.13
393.33	362.78
393.52	461.09
393.71	451.72
393.91	362.78
394.10	341.72
394.29	407.25
394.49	348.74
394.68	395.55
394.88	383.85
395.07	346.40
395.26	369.80
395.46	400.23
395.65	404.91
395.84	344.06
396.04	491.51
396.23	376.83
396.42	440.02
396.62	351.08
396.81	444.70
397.00	360.44
397.19	414.27
397.39	407.25
397.58	407.25
397.77	425.98
397.97	390.87
398.16	423.64
398.35	447.04
398.55	369.80
398.74	402.57
398.93	383.85
399.12	393.21
399.32	447.04
399.51	416.62
399.70	444.70
399.90	458.74
400.09	386.19
400.28	491.51
400.47	447.04
400.67	367.46
400.86	416.62
401.05	400.23
401.24	470.45
401.44	440.02
401.63	404.91
401.82	423.64
402.01	423.64
402.21	437.68
402.40	430.66
402.59	351.08
402.78	313.63
402.97	440.02
403.17	430.66
403.36	414.27
403.55	376.83
403.74	454.06
403.93	397.89
404.13	454.06
404.32	458.74
404.51	374.49
404.70	414.27
404.89	423.64
405.09	337.04
405.28	346.40
405.47	442.36
405.66	407.25
405.85	374.49
406.05	386.19
406.24	486.83
406.43	433.00
406.62	388.53
406.81	402.57
407.00	409.59
407.20	390.87
407.39	390.87
407.58	369.80
407.77	383.85
407.96	409.59
408.15	414.27
408.34	358.10
408.54	442.36
408.73	437.68
408.92	440.02
409.11	435.34
409.30	402.57
409.49	367.46
409.68	407.25
409.87	344.06
410.07	332.36
410.26	433.00
410.45	475.13
410.64	409.59
410.83	470.45
411.02	447.04
411.21	428.32
411.40	379.17
411.59	337.04
411.78	421.30
411.98	411.93
412.17	418.96
412.36	395.55
412.55	461.09
412.74	369.80
412.93	491.51
413.12	397.89
413.31	458.74
413.50	393.21
413.69	393.21
413.88	468.11
414.07	381.51
414.26	433.00
414.45	454.06
414.64	400.23
414.83	423.64
415.02	519.60
415.22	383.85
415.41	358.10
415.60	358.10
415.79	423.64
415.98	334.70
416.17	463.43
416.36	454.06
416.55	395.55
416.74	418.96
416.93	414.27
417.12	493.85
417.31	358.10
417.50	393.21
417.69	484.49
417.88	442.36
418.07	428.32
418.26	475.13
418.45	402.57
418.64	402.57
418.83	393.21
419.02	374.49
419.21	409.59
419.39	425.98
419.58	369.80
419.77	348.74
419.96	535.98
420.15	409.59
420.34	444.70
420.53	414.27
420.72	449.38
420.91	402.57
421.10	421.30
421.29	358.10
421.48	379.17
421.67	388.53
421.86	390.87
422.05	458.74
422.24	383.85
422.43	381.51
422.61	407.25
422.80	411.93
422.99	414.27
423.18	444.70
423.37	416.62
423.56	379.17
423.75	449.38
423.94	418.96
424.13	418.96
424.32	409.59
424.50	425.98
424.69	430.66
424.88	440.02
425.07	428.32
425.26	374.49
425.45	524.28
425.64	402.57
425.83	491.51
426.01	404.91
426.20	416.62
426.39	442.36
426.58	414.27
426.77	472.79
426.96	400.23
427.15	301.93
427.33	393.21
427.52	414.27
427.71	451.72
427.90	458.74
428.09	442.36
428.28	435.34
428.46	411.93
428.65	423.64
428.84	367.46
429.03	458.74
429.22	407.25
429.40	465.77
429.59	332.36
429.78	430.66
429.97	365.12
430.16	421.30
430.34	397.89
430.53	388.53
430.72	411.93
430.91	421.30
431.10	374.49
431.28	348.74
431.47	395.55
431.66	388.53
431.85	416.62
432.03	402.57
432.22	447.04
432.41	339.38
432.60	402.57
432.79	381.51
432.97	437.68
433.16	376.83
433.35	421.30
433.54	381.51
433.72	470.45
433.91	489.17
434.10	393.21
434.28	344.06
434.47	472.79
434.66	421.30
434.85	423.64
435.03	442.36
435.22	409.59
435.41	423.64
435.59	383.85
435.78	414.27
435.97	451.72
436.16	484.49
436.34	442.36
436.53	407.25
436.72	437.68
436.90	404.91
437.09	430.66
437.28	400.23
437.46	379.17
437.65	416.62
437.84	390.87
438.02	430.66
438.21	437.68
438.40	472.79
438.58	409.59
438.77	372.15
438.96	320.65
439.14	428.32
439.33	341.72
439.52	477.47
439.70	472.79
439.89	491.51
440.08	383.85
440.26	484.49
440.45	500.87
440.63	381.51
440.82	376.83
441.01	479.81
441.19	407.25
441.38	411.93
441.57	409.59
441.75	444.70
441.94	449.38
442.12	330.02
442.31	447.04
442.50	451.72
442.68	348.74
442.87	407.25
443.05	383.85
443.24	365.12
443.43	437.68
443.61	435.34
443.80	386.19
443.98	358.10
444.17	433.00
444.35	454.06
444.54	395.55
444.73	372.15
444.91	435.34
445.10	395.55
445.28	409.59
445.47	376.83
445.65	447.04
445.84	435.34
446.02	353.42
446.21	430.66
446.39	348.74
446.58	484.49
446.77	416.62
446.95	400.23
447.14	409.59
447.32	456.40
447.51	416.62
447.69	440.02
447.88	381.51
448.06	437.68
448.25	395.55
448.43	383.85
448.62	362.78
448.80	393.21
448.99	402.57
449.17	404.91
449.36	430.66
449.54	416.62
449.73	395.55
449.91	379.17
450.10	414.27
450.28	505.56
450.46	414.27
450.65	402.57
450.83	428.32
451.02	376.83
451.20	388.53
451.39	482.15
451.57	442.36
451.76	374.49
451.94	447.04
452.13	320.65
452.31	449.38
452.49	332.36
452.68	416.62
452.86	440.02
453.05	486.83
453.23	470.45
453.42	430.66
453.60	423.64
453.78	395.55
453.97	393.21
454.15	393.21
454.34	470.45
454.52	402.57
454.70	433.00
454.89	416.62
455.07	444.70
455.26	416.62
455.44	435.34
455.62	451.72
455.81	348.74
455.99	369.80
456.17	461.09
456.36	351.08
456.54	440.02
456.73	332.36
456.91	367.46
457.09	397.89
457.28	461.09
457.46	411.93
457.64	440.02
457.83	552.37
458.01	355.76
458.19	421.30
458.38	442.36
458.56	400.23
458.74	447.04
458.93	428.32
459.11	407.25
459.29	379.17
459.48	496.19
459.66	456.40
459.84	395.55
460.03	510.24
460.21	440.02
460.39	442.36
460.57	425.98
460.76	440.02
460.94	435.34
461.12	484.49
461.31	444.70
461.49	395.55
461.67	411.93
461.85	407.25
462.04	407.25
462.22	765.36
462.40	421.30
462.59	411.93
462.77	395.55
462.95	440.02
463.13	379.17
463.32	437.68
463.50	423.64
463.68	496.19
463.86	454.06
464.05	444.70
464.23	421.30
464.41	461.09
464.59	341.72
464.78	381.51
464.96	416.62
465.14	442.36
465.32	447.04
465.50	421.30
465.69	428.32
465.87	404.91
466.05	416.62
466.23	440.02
466.41	430.66
466.60	404.91
466.78	411.93
466.96	435.34
467.14	390.87
467.32	444.70
467.51	440.02
467.69	454.06
467.87	465.77
468.05	428.32
468.23	479.81
468.41	372.15
468.60	430.66
468.78	425.98
468.96	430.66
469.14	442.36
469.32	395.55
469.50	362.78
469.69	404.91
469.87	386.19
470.05	404.91
470.23	390.87
470.41	444.70
470.59	428.32
470.77	449.38
470.95	416.62
471.14	425.98
471.32	454.06
471.50	388.53
471.68	397.89
471.86	463.43
472.04	383.85
472.22	451.72
472.40	367.46
472.58	379.17
472.77	383.85
472.95	393.21
473.13	386.19
473.31	425.98
473.49	404.91
473.67	407.25
473.85	425.98
474.03	454.06
474.21	437.68
474.39	461.09
474.57	454.06
474.75	449.38
474.93	397.89
475.12	397.89
475.30	421.30
475.48	416.62
475.66	442.36
475.84	402.57
476.02	367.46
476.20	355.76
476.38	400.23
476.56	482.15
476.74	344.06
476.92	411.93
477.10	411.93
477.28	444.70
477.46	339.38
477.64	498.53
477.82	407.25
478.00	435.34
478.18	423.64
478.36	402.57
478.54	411.93
478.72	437.68
478.90	339.38
479.08	423.64
479.26	383.85
479.44	383.85
479.62	409.59
479.80	479.81
479.98	409.59
480.16	418.96
480.34	484.49
480.52	444.70
480.70	484.49
480.88	414.27
481.06	440.02
481.24	381.51
481.41	362.78
481.59	425.98
481.77	402.57
481.95	461.09
482.13	409.59
482.31	402.57
482.49	355.76
482.67	416.62
482.85	414.27
483.03	381.51
483.21	437.68
483.39	383.85
483.57	440.02
483.74	442.36
483.92	447.04
484.10	393.21
484.28	388.53
484.46	447.04
484.64	430.66
484.82	456.40
485.00	351.08
485.18	355.76
485.35	433.00
485.53	358.10
485.71	463.43
485.89	381.51
486.07	454.06
486.25	512.58
486.43	379.17
486.61	433.00
486.78	334.70
486.96	388.53
487.14	409.59
487.32	395.55
487.50	475.13
487.68	416.62
487.85	433.00
488.03	433.00
488.21	433.00
488.39	428.32
488.57	416.62
488.75	393.21
488.92	463.43
489.10	442.36
489.28	407.25
489.46	397.89
489.64	421.30
489.81	374.49
489.99	435.34
490.17	416.62
490.35	440.02
490.53	482.15
490.70	425.98
490.88	437.68
491.06	346.40
491.24	449.38
491.41	418.96
491.59	421.30
491.77	470.45
491.95	433.00
492.13	461.09
492.30	440.02
492.48	358.10
492.66	397.89
492.84	400.23
493.01	447.04
493.19	468.11
493.37	404.91
493.54	397.89
493.72	421.30
493.90	435.34
494.08	454.06
494.25	386.19
494.43	475.13
494.61	327.68
494.79	383.85
494.96	358.10
495.14	362.78
495.32	472.79
495.49	451.72
495.67	395.55
495.85	362.78
496.02	395.55
496.20	468.11
496.38	430.66
496.55	416.62
496.73	425.98
496.91	327.68
497.09	393.21
497.26	447.04
497.44	423.64
497.62	341.72
497.79	414.27
497.97	395.55
498.14	465.77
498.32	369.80
498.50	353.42
498.67	395.55
498.85	465.77
499.03	414.27
499.20	325.33
499.38	355.76
499.56	383.85
499.73	388.53
499.91	409.59
500.08	484.49
500.26	379.17
500.44	355.76
500.61	365.12
500.79	400.23
500.97	411.93
501.14	414.27
501.32	433.00
501.49	402.57
501.67	416.62
501.84	404.91
502.02	425.98
502.20	425.98
502.37	470.45
502.55	440.02
502.72	421.30
502.90	381.51
503.07	433.00
503.25	425.98
503.43	383.85
503.60	421.30
503.78	435.34
503.95	388.53
504.13	463.43
504.30	458.74
504.48	472.79
504.65	486.83
504.83	437.68
505.01	407.25
505.18	451.72
505.36	425.98
505.53	393.21
505.71	390.87
505.88	379.17
506.06	383.85
506.23	411.93
506.41	416.62
506.58	463.43
506.76	374.49
506.93	400.23
507.11	430.66
507.28	330.02
507.46	360.44
507.63	442.36
507.81	388.53
507.98	390.87
508.16	400.23
508.33	348.74
508.50	404.91
508.68	409.59
508.85	435.34
509.03	411.93
509.20	421.30
509.38	444.70
509.55	447.04
509.73	482.15
509.90	477.47
510.08	355.76
510.25	411.93
510.42	435.34
510.60	416.62
510.77	416.62
510.95	425.98
511.12	423.64
511.30	435.34
511.47	411.93
511.64	484.49
511.82	390.87
511.99	414.27
512.17	374.49
512.34	362.78
512.51	425.98
512.69	416.62
512.86	372.15
513.04	430.66
513.21	421.30
513.38	451.72
513.56	461.09
513.73	367.46
513.90	351.08
514.08	381.51
514.25	365.12
514.43	491.51
514.60	449.38
514.77	428.32
514.95	433.00
515.12	430.66
515.29	423.64
515.47	442.36
515.64	440.02
515.81	369.80
515.99	444.70
516.16	451.72
516.33	500.87
516.51	437.68
516.68	404.91
516.85	425.98
517.03	390.87
517.20	447.04
517.37	348.74
517.54	358.10
517.72	435.34
517.89	414.27
518.06	451.72
518.24	435.34
518.41	440.02
518.58	400.23
518.75	386.19
518.93	388.53
519.10	421.30
519.27	397.89
519.45	440.02
519.62	379.17
519.79	381.51
519.96	388.53
520.14	425.98
520.31	444.70
520.48	440.02
520.65	395.55
520.83	404.91
521.00	440.02
521.17	458.74
521.34	395.55
521.52	447.04
521.69	388.53
521.86	407.25
522.03	477.47
522.20	496.19
522.38	369.80
522.55	376.83
522.72	297.25
522.89	393.21
523.07	470.45
523.24	428.32
523.41	423.64
523.58	447.04
523.75	397.89
523.92	344.06
524.10	482.15
524.27	376.83
524.44	463.43
524.61	465.77
524.78	416.62
524.96	449.38
525.13	449.38
525.30	428.32
525.47	470.45
525.64	421.30
525.81	372.15
525.98	425.98
526.16	402.57
526.33	388.53
526.50	418.96
526.67	397.89
526.84	463.43
527.01	367.46
527.18	397.89
527.36	388.53
527.53	484.49
527.70	468.11
527.87	334.70
528.04	463.43
528.21	468.11
528.38	437.68
528.55	440.02
528.72	482.15
528.89	496.19
529.07	444.70
529.24	411.93
529.41	489.17
529.58	400.23
529.75	454.06
529.92	400.23
530.09	360.44
530.26	409.59
530.43	341.72
530.60	376.83
530.77	433.00
530.94	447.04
531.11	428.32
531.28	418.96
531.46	423.64
531.63	383.85
531.80	416.62
531.97	521.94
532.14	475.13
532.31	428.32
532.48	444.70
532.65	458.74
532.82	423.64
532.99	365.12
533.16	390.87
533.33	421.30
533.50	425.98
533.67	379.17
533.84	421.30
534.01	407.25
534.18	355.76
534.35	465.77
534.52	437.68
534.69	386.19
534.86	456.40
535.03	423.64
535.20	409.59
535.37	510.24
535.54	449.38
535.71	388.53
535.88	425.98
536.05	416.62
536.22	402.57
536.38	404.91
536.55	486.83
536.72	465.77
536.89	400.23
537.06	367.46
537.23	376.83
537.40	393.21
537.57	421.30
537.74	507.90
537.91	425.98
538.08	440.02
538.25	435.34
538.42	430.66
538.59	470.45
538.75	379.17
538.92	493.85
539.09	472.79
539.26	407.25
539.43	486.83
539.60	386.19
539.77	458.74
539.94	416.62
540.11	353.42
540.28	465.77
540.44	484.49
540.61	454.06
540.78	409.59
540.95	390.87
541.12	423.64
541.29	444.70
541.46	393.21
541.62	428.32
541.79	379.17
541.96	475.13
542.13	409.59
542.30	463.43
542.47	397.89
542.63	433.00
542.80	348.74
542.97	475.13
543.14	496.19
543.31	414.27
543.48	404.91
543.64	447.04
543.81	381.51
543.98	390.87
544.15	414.27
544.32	433.00
544.48	437.68
544.65	393.21
544.82	362.78
544.99	411.93
545.16	376.83
545.32	402.57
545.49	404.91
545.66	374.49
545.83	442.36
546.00	416.62
546.16	381.51
546.33	430.66
546.50	425.98
546.67	503.22
546.83	498.53
547.00	468.11
547.17	376.83
547.34	411.93
547.50	416.62
547.67	491.51
547.84	491.51
548.00	346.40
548.17	484.49
548.34	428.32
548.51	463.43
548.67	416.62
548.84	386.19
549.01	414.27
549.18	421.30
549.34	402.57
549.51	425.98
549.68	435.34
549.84	440.02
550.01	407.25
550.18	430.66
550.34	437.68
550.51	454.06
550.68	458.74
550.84	404.91
551.01	393.21
551.18	416.62
551.34	475.13
551.51	435.34
551.68	390.87
551.84	444.70
552.01	411.93
552.18	425.98
552.34	454.06
552.51	440.02
552.68	486.83
552.84	416.62
553.01	447.04
553.18	397.89
553.34	395.55
553.51	383.85
553.67	510.24
553.84	447.04
554.01	435.34
554.17	404.91
554.34	390.87
554.51	379.17
554.67	386.19
554.84	407.25
555.00	486.83
555.17	447.04
555.33	400.23
555.50	444.70
555.67	449.38
555.83	418.96
556.00	414.27
556.16	514.92
556.33	440.02
556.50	383.85
556.66	409.59
556.83	444.70
556.99	372.15
557.16	421.30
557.32	486.83
557.49	411.93
557.65	360.44
557.82	430.66
557.98	479.81
558.15	376.83
558.32	416.62
558.48	442.36
558.65	402.57
558.81	400.23
558.98	409.59
559.14	379.17
559.31	400.23
559.47	451.72
559.64	437.68
559.80	388.53
559.97	423.64
560.13	463.43
560.30	397.89
560.46	444.70
560.63	430.66
560.79	402.57
560.96	409.59
561.12	383.85
561.29	465.77
561.45	411.93
561.61	433.00
561.78	540.66
561.94	465.77
562.11	367.46
562.27	489.17
562.44	407.25
562.60	428.32
562.77	407.25
562.93	472.79
563.10	407.25
563.26	423.64
563.42	390.87
563.59	477.47
563.75	372.15
563.92	435.34
564.08	442.36
564.24	372.15
564.41	404.91
564.57	456.40
564.74	421.30
564.90	433.00
565.07	397.89
565.23	430.66
565.39	390.87
565.56	430.66
565.72	425.98
565.88	369.80
566.05	400.23
566.21	400.23
566.38	449.38
566.54	440.02
566.70	407.25
566.87	433.00
567.03	418.96
567.19	428.32
567.36	517.26
567.52	447.04
567.68	451.72
567.85	437.68
568.01	395.55
568.17	379.17
568.34	489.17
568.50	402.57
568.66	425.98
568.83	430.66
568.99	381.51
569.15	526.62
569.32	449.38
569.48	421.30
569.64	379.17
569.81	447.04
569.97	411.93
570.13	423.64
570.30	404.91
570.46	507.90
570.62	402.57
570.78	334.70
570.95	388.53
571.11	454.06
571.27	484.49
571.43	393.21
571.60	404.91
571.76	390.87
571.92	353.42
572.09	463.43
572.25	372.15
572.41	379.17
572.57	503.22
572.74	433.00
572.90	449.38
573.06	437.68
573.22	374.49
573.38	433.00
573.55	465.77
573.71	395.55
573.87	440.02
574.03	435.34
574.20	435.34
574.36	505.56
574.52	397.89
574.68	430.66
574.84	372.15
575.01	425.98
575.17	397.89
575.33	489.17
575.49	416.62
575.65	461.09
575.82	433.00
575.98	437.68
576.14	447.04
576.30	400.23
576.46	411.93
576.62	416.62
576.79	402.57
576.95	498.53
577.11	365.12
577.27	440.02
577.43	376.83
577.59	393.21
577.75	409.59
577.92	400.23
578.08	449.38
578.24	351.08
578.40	440.02
578.56	451.72
578.72	421.30
578.88	430.66
579.04	433.00
579.21	440.02
579.37	482.15
579.53	425.98
579.69	327.68
579.85	369.80
580.01	421.30
580.17	355.76
580.33	360.44
580.49	486.83
580.65	374.49
580.82	423.64
580.98	369.80
581.14	390.87
581.30	428.32
581.46	468.11
581.62	409.59
581.78	404.91
581.94	440.02
582.10	414.27
582.26	465.77
582.42	423.64
582.58	425.98
582.74	444.70
582.90	437.68
583.06	423.64
583.22	355.76
583.38	428.32
583.54	493.85
583.70	402.57
583.86	395.55
584.02	402.57
584.18	461.09
584.34	360.44
584.50	421.30
584.66	454.06
584.82	454.06
584.98	411.93
585.14	400.23
585.30	468.11
585.46	376.83
585.62	437.68
585.78	402.57
585.94	341.72
586.10	449.38
586.26	435.34
586.42	416.62
586.58	421.30
586.74	454.06
586.90	414.27
587.06	442.36
587.22	458.74
587.38	411.93
587.54	381.51
587.70	496.19
587.86	440.02
588.02	428.32
588.18	400.23
588.34	411.93
588.49	435.34
588.65	383.85
588.81	411.93
588.97	421.30
589.13	475.13
589.29	435.34
589.45	470.45
589.61	423.64
589.77	423.64
589.93	437.68
590.08	465.77
590.24	372.15
590.40	355.76
590.56	400.23
590.72	437.68
590.88	402.57
591.04	482.15
591.20	444.70
591.35	435.34
591.51	372.15
591.67	393.21
591.83	393.21
591.99	381.51
592.15	444.70
592.31	421.30
592.46	369.80
592.62	458.74
592.78	458.74
592.94	484.49
593.10	458.74
593.26	428.32
593.41	435.34
593.57	461.09
593.73	397.89
593.89	440.02
594.05	477.47
594.20	437.68
594.36	393.21
594.52	430.66
594.68	428.32
594.84	395.55
594.99	472.79
595.15	472.79
595.31	341.72
595.47	479.81
595.62	386.19
595.78	418.96
595.94	425.98
596.10	524.28
596.25	458.74
596.41	428.32
596.57	418.96
596.73	404.91
596.88	386.19
597.04	409.59
597.20	456.40
597.36	395.55
597.51	409.59
597.67	379.17
597.83	444.70
597.99	461.09
598.14	409.59
598.30	475.13
598.46	458.74
598.61	411.93
598.77	444.70
598.93	430.66
599.09	440.02
599.24	456.40
599.40	416.62
599.56	386.19
599.71	475.13
599.87	416.62
600.03	418.96
600.18	498.53
600.34	421.30
600.50	477.47
600.65	440.02
600.81	437.68
600.97	414.27
601.12	428.32
601.28	465.77
601.44	388.53
601.59	381.51
601.75	428.32
601.91	395.55
602.06	449.38
602.22	433.00
602.37	512.58
602.53	402.57
602.69	411.93
602.84	395.55
603.00	437.68
603.16	433.00
603.31	423.64
603.47	517.26
603.62	355.76
603.78	348.74
603.94	475.13
604.09	355.76
604.25	500.87
604.40	423.64
604.56	428.32
604.71	409.59
604.87	444.70
605.03	430.66
605.18	397.89
605.34	414.27
605.49	376.83
605.65	423.64
605.80	463.43
605.96	407.25
606.12	383.85
606.27	458.74
606.43	435.34
606.58	409.59
606.74	510.24
606.89	416.62
607.05	430.66
607.20	463.43
607.36	449.38
607.51	493.85
607.67	414.27
607.82	416.62
607.98	489.17
608.13	402.57
608.29	414.27
608.44	379.17
608.60	411.93
608.75	449.38
608.91	393.21
609.06	390.87
609.22	458.74
609.37	332.36
609.53	423.64
609.68	393.21
609.84	374.49
609.99	383.85
610.15	461.09
