SpectraSuite Data File
++++++++++++++++++++++++++++++++++++
Date: Fri Oct 25 12:10:31 EDT 2013
User: price-jones
Dark Spectrum Present: No
Reference Spectrum Present: No
Number of Sampled Component Spectra: 1
Spectrometers: USB2+H05261
Integration Time (usec): 100000 (USB2+H05261)
Spectra Averaged: 1 (USB2+H05261)
Boxcar Smoothing: 0 (USB2+H05261)
Correct for Electrical Dark: No (USB2+H05261)
Strobe/Lamp Enabled: No (USB2+H05261)
Correct for Detector Non-linearity: No (USB2+H05261)
Correct for Stray Light: No (USB2+H05261)
Number of Pixels in Processed Spectrum: 2048
>>>>>Begin Processed Spectral Data<<<<<
365.73	348.74
365.92	348.74
366.12	348.74
366.32	311.29
366.52	231.71
366.72	243.42
366.91	266.82
367.11	322.99
367.31	250.44
367.51	259.80
367.70	262.14
367.90	224.69
368.10	292.57
368.30	224.69
368.49	245.76
368.69	259.80
368.89	231.71
369.09	245.76
369.28	238.73
369.48	313.63
369.68	334.70
369.87	304.27
370.07	299.59
370.27	332.36
370.47	327.68
370.66	299.59
370.86	299.59
371.06	369.80
371.25	402.57
371.45	283.20
371.65	355.76
371.84	388.53
372.04	339.38
372.24	411.93
372.44	393.21
372.63	454.06
372.83	421.30
373.03	411.93
373.22	411.93
373.42	362.78
373.62	425.98
373.81	400.23
374.01	472.79
374.21	468.11
374.40	444.70
374.60	397.89
374.79	444.70
374.99	465.77
375.19	414.27
375.38	449.38
375.58	470.45
375.78	409.59
375.97	372.15
376.17	376.83
376.37	468.11
376.56	404.91
376.76	465.77
376.95	411.93
377.15	435.34
377.35	430.66
377.54	353.42
377.74	489.17
377.93	418.96
378.13	358.10
378.33	449.38
378.52	348.74
378.72	411.93
378.91	449.38
379.11	418.96
379.31	414.27
379.50	327.68
379.70	437.68
379.89	416.62
380.09	400.23
380.28	376.83
380.48	393.21
380.68	388.53
380.87	339.38
381.07	425.98
381.26	470.45
381.46	341.72
381.65	414.27
381.85	369.80
382.04	301.93
382.24	374.49
382.43	425.98
382.63	367.46
382.83	379.17
383.02	411.93
383.22	430.66
383.41	475.13
383.61	346.40
383.80	404.91
384.00	425.98
384.19	400.23
384.39	390.87
384.58	334.70
384.78	458.74
384.97	435.34
385.17	376.83
385.36	360.44
385.56	430.66
385.75	330.02
385.95	461.09
386.14	447.04
386.34	409.59
386.53	465.77
386.72	386.19
386.92	402.57
387.11	374.49
387.31	425.98
387.50	430.66
387.70	437.68
387.89	381.51
388.09	381.51
388.28	322.99
388.48	372.15
388.67	404.91
388.86	395.55
389.06	379.17
389.25	362.78
389.45	433.00
389.64	435.34
389.84	388.53
390.03	411.93
390.22	395.55
390.42	386.19
390.61	308.95
390.81	348.74
391.00	339.38
391.19	395.55
391.39	425.98
391.58	339.38
391.78	409.59
391.97	468.11
392.16	404.91
392.36	407.25
392.55	470.45
392.75	435.34
392.94	390.87
393.13	360.44
393.33	465.77
393.52	447.04
393.71	428.32
393.91	395.55
394.10	386.19
394.29	395.55
394.49	409.59
394.68	411.93
394.88	458.74
395.07	465.77
395.26	386.19
395.46	491.51
395.65	449.38
395.84	383.85
396.04	458.74
396.23	435.34
396.42	348.74
396.62	334.70
396.81	435.34
397.00	386.19
397.19	402.57
397.39	411.93
397.58	390.87
397.77	383.85
397.97	400.23
398.16	386.19
398.35	407.25
398.55	440.02
398.74	433.00
398.93	449.38
399.12	388.53
399.32	486.83
399.51	388.53
399.70	444.70
399.90	414.27
400.09	414.27
400.28	470.45
400.47	461.09
400.67	482.15
400.86	386.19
401.05	381.51
401.24	414.27
401.44	414.27
401.63	421.30
401.82	407.25
402.01	355.76
402.21	372.15
402.40	407.25
402.59	407.25
402.78	414.27
402.97	390.87
403.17	435.34
403.36	400.23
403.55	430.66
403.74	395.55
403.93	339.38
404.13	470.45
404.32	418.96
404.51	433.00
404.70	400.23
404.89	433.00
405.09	458.74
405.28	346.40
405.47	411.93
405.66	411.93
405.85	418.96
406.05	407.25
406.24	468.11
406.43	381.51
406.62	358.10
406.81	404.91
407.00	435.34
407.20	390.87
407.39	404.91
407.58	379.17
407.77	404.91
407.96	390.87
408.15	416.62
408.34	479.81
408.54	360.44
408.73	407.25
408.92	414.27
409.11	451.72
409.30	454.06
409.49	386.19
409.68	374.49
409.87	437.68
410.07	437.68
410.26	407.25
410.45	416.62
410.64	409.59
410.83	351.08
411.02	447.04
411.21	337.04
411.40	433.00
411.59	428.32
411.78	416.62
411.98	477.47
412.17	423.64
412.36	351.08
412.55	465.77
412.74	362.78
412.93	454.06
413.12	409.59
413.31	433.00
413.50	379.17
413.69	388.53
413.88	341.72
414.07	449.38
414.26	383.85
414.45	362.78
414.64	372.15
414.83	465.77
415.02	407.25
415.22	397.89
415.41	407.25
415.60	428.32
415.79	386.19
415.98	397.89
416.17	444.70
416.36	447.04
416.55	404.91
416.74	430.66
416.93	430.66
417.12	400.23
417.31	430.66
417.50	372.15
417.69	423.64
417.88	397.89
418.07	351.08
418.26	449.38
418.45	425.98
418.64	444.70
418.83	428.32
419.02	400.23
419.21	379.17
419.39	414.27
419.58	372.15
419.77	372.15
419.96	430.66
420.15	475.13
420.34	395.55
420.53	386.19
420.72	393.21
420.91	451.72
421.10	437.68
421.29	367.46
421.48	362.78
421.67	463.43
421.86	369.80
422.05	393.21
422.24	372.15
422.43	414.27
422.61	414.27
422.80	416.62
422.99	407.25
423.18	383.85
423.37	388.53
423.56	407.25
423.75	423.64
423.94	416.62
424.13	411.93
424.32	404.91
424.50	402.57
424.69	346.40
424.88	430.66
425.07	416.62
425.26	440.02
425.45	421.30
425.64	374.49
425.83	400.23
426.01	435.34
426.20	414.27
426.39	355.76
426.58	425.98
426.77	395.55
426.96	418.96
427.15	458.74
427.33	397.89
427.52	416.62
427.71	437.68
427.90	416.62
428.09	433.00
428.28	402.57
428.46	456.40
428.65	404.91
428.84	463.43
429.03	444.70
429.22	376.83
429.40	390.87
429.59	472.79
429.78	447.04
429.97	437.68
430.16	376.83
430.34	381.51
430.53	437.68
430.72	339.38
430.91	388.53
431.10	325.33
431.28	372.15
431.47	383.85
431.66	423.64
431.85	402.57
432.03	440.02
432.22	463.43
432.41	376.83
432.60	395.55
432.79	372.15
432.97	402.57
433.16	402.57
433.35	418.96
433.54	423.64
433.72	404.91
433.91	374.49
434.10	447.04
434.28	365.12
434.47	400.23
434.66	397.89
434.85	458.74
435.03	360.44
435.22	435.34
435.41	482.15
435.59	409.59
435.78	388.53
435.97	287.89
436.16	318.31
436.34	383.85
436.53	395.55
436.72	416.62
436.90	465.77
437.09	442.36
437.28	376.83
437.46	447.04
437.65	383.85
437.84	402.57
438.02	451.72
438.21	437.68
438.40	416.62
438.58	430.66
438.77	416.62
438.96	444.70
439.14	414.27
439.33	472.79
439.52	372.15
439.70	355.76
439.89	430.66
440.08	379.17
440.26	386.19
440.45	489.17
440.63	458.74
440.82	369.80
441.01	411.93
441.19	433.00
441.38	402.57
441.57	388.53
441.75	461.09
441.94	400.23
442.12	447.04
442.31	365.12
442.50	465.77
442.68	423.64
442.87	461.09
443.05	400.23
443.24	409.59
443.43	404.91
443.61	442.36
443.80	465.77
443.98	437.68
444.17	437.68
444.35	484.49
444.54	395.55
444.73	407.25
444.91	402.57
445.10	435.34
445.28	458.74
445.47	433.00
445.65	372.15
445.84	402.57
446.02	433.00
446.21	360.44
446.39	388.53
446.58	402.57
446.77	372.15
446.95	430.66
447.14	299.59
447.32	440.02
447.51	447.04
447.69	383.85
447.88	472.79
448.06	482.15
448.25	404.91
448.43	367.46
448.62	416.62
448.80	409.59
448.99	407.25
449.17	397.89
449.36	461.09
449.54	465.77
449.73	409.59
449.91	475.13
450.10	435.34
450.28	528.96
450.46	463.43
450.65	425.98
450.83	418.96
451.02	425.98
451.20	484.49
451.39	444.70
451.57	409.59
451.76	430.66
451.94	395.55
452.13	437.68
452.31	428.32
452.49	496.19
452.68	346.40
452.86	447.04
453.05	381.51
453.23	292.57
453.42	421.30
453.60	369.80
453.78	388.53
453.97	444.70
454.15	409.59
454.34	414.27
454.52	388.53
454.70	442.36
454.89	482.15
455.07	393.21
455.26	442.36
455.44	397.89
455.62	374.49
455.81	376.83
455.99	433.00
456.17	386.19
456.36	454.06
456.54	435.34
456.73	386.19
456.91	449.38
457.09	418.96
457.28	397.89
457.46	402.57
457.64	428.32
457.83	372.15
458.01	477.47
458.19	416.62
458.38	402.57
458.56	404.91
458.74	351.08
458.93	435.34
459.11	407.25
459.29	383.85
459.48	393.21
459.66	383.85
459.84	454.06
460.03	430.66
460.21	477.47
460.39	425.98
460.57	463.43
460.76	390.87
460.94	484.49
461.12	468.11
461.31	428.32
461.49	397.89
461.67	477.47
461.85	414.27
462.04	437.68
462.22	753.65
462.40	484.49
462.59	437.68
462.77	390.87
462.95	369.80
463.13	369.80
463.32	468.11
463.50	477.47
463.68	430.66
463.86	411.93
464.05	390.87
464.23	454.06
464.41	414.27
464.59	320.65
464.78	390.87
464.96	360.44
465.14	442.36
465.32	395.55
465.50	437.68
465.69	379.17
465.87	355.76
466.05	482.15
466.23	407.25
466.41	404.91
466.60	421.30
466.78	482.15
466.96	461.09
467.14	414.27
467.32	477.47
467.51	411.93
467.69	454.06
467.87	454.06
468.05	433.00
468.23	442.36
468.41	421.30
468.60	407.25
468.78	367.46
468.96	512.58
469.14	451.72
469.32	362.78
469.50	374.49
469.69	435.34
469.87	348.74
470.05	407.25
470.23	348.74
470.41	418.96
470.59	355.76
470.77	461.09
470.95	423.64
471.14	444.70
471.32	447.04
471.50	472.79
471.68	402.57
471.86	447.04
472.04	381.51
472.22	437.68
472.40	477.47
472.58	421.30
472.77	440.02
472.95	351.08
473.13	454.06
473.31	400.23
473.49	418.96
473.67	395.55
473.85	418.96
474.03	402.57
474.21	475.13
474.39	411.93
474.57	482.15
474.75	416.62
474.93	456.40
475.12	365.12
475.30	390.87
475.48	470.45
475.66	482.15
475.84	402.57
476.02	397.89
476.20	456.40
476.38	461.09
476.56	411.93
476.74	430.66
476.92	348.74
477.10	332.36
477.28	367.46
477.46	463.43
477.64	435.34
477.82	372.15
478.00	442.36
478.18	425.98
478.36	433.00
478.54	334.70
478.72	330.02
478.90	414.27
479.08	404.91
479.26	388.53
479.44	351.08
479.62	404.91
479.80	414.27
479.98	397.89
480.16	418.96
480.34	454.06
480.52	369.80
480.70	376.83
480.88	348.74
481.06	440.02
481.24	404.91
481.41	404.91
481.59	397.89
481.77	409.59
481.95	425.98
482.13	407.25
482.31	423.64
482.49	407.25
482.67	517.26
482.85	440.02
483.03	435.34
483.21	425.98
483.39	330.02
483.57	390.87
483.74	372.15
483.92	433.00
484.10	315.97
484.28	463.43
484.46	407.25
484.64	463.43
484.82	397.89
485.00	416.62
485.18	355.76
485.35	395.55
485.53	402.57
485.71	454.06
485.89	353.42
486.07	337.04
486.25	479.81
486.43	402.57
486.61	425.98
486.78	437.68
486.96	414.27
487.14	449.38
487.32	358.10
487.50	423.64
487.68	411.93
487.85	449.38
488.03	440.02
488.21	512.58
488.39	423.64
488.57	386.19
488.75	428.32
488.92	458.74
489.10	416.62
489.28	367.46
489.46	358.10
489.64	379.17
489.81	381.51
489.99	362.78
490.17	409.59
490.35	435.34
490.53	400.23
490.70	327.68
490.88	440.02
491.06	435.34
491.24	442.36
491.41	484.49
491.59	425.98
491.77	437.68
491.95	428.32
492.13	404.91
492.30	411.93
492.48	388.53
492.66	463.43
492.84	411.93
493.01	404.91
493.19	404.91
493.37	493.85
493.54	379.17
493.72	442.36
493.90	423.64
494.08	416.62
494.25	400.23
494.43	360.44
494.61	442.36
494.79	383.85
494.96	388.53
495.14	442.36
495.32	414.27
495.49	397.89
495.67	407.25
495.85	395.55
496.02	376.83
496.20	437.68
496.38	475.13
496.55	407.25
496.73	465.77
496.91	447.04
497.09	416.62
497.26	418.96
497.44	454.06
497.62	425.98
497.79	451.72
497.97	458.74
498.14	437.68
498.32	442.36
498.50	440.02
498.67	404.91
498.85	400.23
499.03	355.76
499.20	461.09
499.38	388.53
499.56	416.62
499.73	493.85
499.91	418.96
500.08	407.25
500.26	475.13
500.44	407.25
500.61	433.00
500.79	381.51
500.97	433.00
501.14	463.43
501.32	400.23
501.49	470.45
501.67	407.25
501.84	395.55
502.02	411.93
502.20	388.53
502.37	404.91
502.55	348.74
502.72	409.59
502.90	402.57
503.07	411.93
503.25	442.36
503.43	414.27
503.60	482.15
503.78	351.08
503.95	421.30
504.13	433.00
504.30	383.85
504.48	444.70
504.65	372.15
504.83	362.78
505.01	393.21
505.18	414.27
505.36	416.62
505.53	411.93
505.71	430.66
505.88	447.04
506.06	428.32
506.23	383.85
506.41	411.93
506.58	437.68
506.76	428.32
506.93	423.64
507.11	456.40
507.28	409.59
507.46	404.91
507.63	456.40
507.81	421.30
507.98	479.81
508.16	423.64
508.33	442.36
508.50	444.70
508.68	437.68
508.85	407.25
509.03	442.36
509.20	383.85
509.38	444.70
509.55	461.09
509.73	418.96
509.90	454.06
510.08	404.91
510.25	482.15
510.42	383.85
510.60	442.36
510.77	416.62
510.95	444.70
511.12	360.44
511.30	442.36
511.47	407.25
511.64	463.43
511.82	435.34
511.99	381.51
512.17	383.85
512.34	437.68
512.51	395.55
512.69	388.53
512.86	416.62
513.04	411.93
513.21	397.89
513.38	444.70
513.56	421.30
513.73	421.30
513.90	404.91
514.08	433.00
514.25	374.49
514.43	418.96
514.60	423.64
514.77	395.55
514.95	472.79
515.12	402.57
515.29	393.21
515.47	388.53
515.64	435.34
515.81	390.87
515.99	407.25
516.16	421.30
516.33	416.62
516.51	362.78
516.68	451.72
516.85	407.25
517.03	411.93
517.20	435.34
517.37	367.46
517.54	416.62
517.72	444.70
517.89	367.46
518.06	454.06
518.24	458.74
518.41	414.27
518.58	369.80
518.75	386.19
518.93	425.98
519.10	449.38
519.27	348.74
519.45	418.96
519.62	348.74
519.79	437.68
519.96	353.42
520.14	409.59
520.31	428.32
520.48	442.36
520.65	437.68
520.83	472.79
521.00	407.25
521.17	365.12
521.34	348.74
521.52	346.40
521.69	444.70
521.86	383.85
522.03	416.62
522.20	414.27
522.38	442.36
522.55	433.00
522.72	461.09
522.89	449.38
523.07	442.36
523.24	411.93
523.41	444.70
523.58	407.25
523.75	421.30
523.92	376.83
524.10	397.89
524.27	404.91
524.44	381.51
524.61	414.27
524.78	416.62
524.96	344.06
525.13	451.72
525.30	402.57
525.47	472.79
525.64	409.59
525.81	414.27
525.98	400.23
526.16	465.77
526.33	454.06
526.50	388.53
526.67	407.25
526.84	400.23
527.01	409.59
527.18	386.19
527.36	409.59
527.53	440.02
527.70	477.47
527.87	440.02
528.04	449.38
528.21	433.00
528.38	470.45
528.55	428.32
528.72	383.85
528.89	414.27
529.07	386.19
529.24	379.17
529.41	411.93
529.58	418.96
529.75	411.93
529.92	468.11
530.09	416.62
530.26	470.45
530.43	355.76
530.60	397.89
530.77	344.06
530.94	395.55
531.11	390.87
531.28	433.00
531.46	381.51
531.63	477.47
531.80	407.25
531.97	428.32
532.14	397.89
532.31	447.04
532.48	400.23
532.65	376.83
532.82	437.68
532.99	449.38
533.16	425.98
533.33	449.38
533.50	360.44
533.67	339.38
533.84	433.00
534.01	442.36
534.18	381.51
534.35	461.09
534.52	315.97
534.69	416.62
534.86	435.34
535.03	386.19
535.20	421.30
535.37	390.87
535.54	365.12
535.71	397.89
535.88	461.09
536.05	402.57
536.22	517.26
536.38	470.45
536.55	437.68
536.72	454.06
536.89	435.34
537.06	416.62
537.23	362.78
537.40	400.23
537.57	388.53
537.74	528.96
537.91	454.06
538.08	425.98
538.25	393.21
538.42	355.76
538.59	393.21
538.75	421.30
538.92	411.93
539.09	440.02
539.26	388.53
539.43	451.72
539.60	388.53
539.77	433.00
539.94	416.62
540.11	390.87
540.28	447.04
540.44	418.96
540.61	421.30
540.78	425.98
540.95	423.64
541.12	435.34
541.29	444.70
541.46	454.06
541.62	407.25
541.79	395.55
541.96	365.12
542.13	425.98
542.30	390.87
542.47	402.57
542.63	409.59
542.80	418.96
542.97	430.66
543.14	388.53
543.31	355.76
543.48	376.83
543.64	454.06
543.81	372.15
543.98	454.06
544.15	393.21
544.32	430.66
544.48	416.62
544.65	433.00
544.82	376.83
544.99	454.06
545.16	418.96
545.32	472.79
545.49	486.83
545.66	355.76
545.83	435.34
546.00	397.89
546.16	433.00
546.33	365.12
546.50	437.68
546.67	425.98
546.83	400.23
547.00	409.59
547.17	468.11
547.34	365.12
547.50	383.85
547.67	428.32
547.84	362.78
548.00	402.57
548.17	327.68
548.34	437.68
548.51	489.17
548.67	463.43
548.84	435.34
549.01	418.96
549.18	482.15
549.34	454.06
549.51	418.96
549.68	463.43
549.84	374.49
550.01	416.62
550.18	447.04
550.34	503.22
550.51	430.66
550.68	428.32
550.84	425.98
551.01	404.91
551.18	449.38
551.34	402.57
551.51	437.68
551.68	360.44
551.84	416.62
552.01	428.32
552.18	449.38
552.34	407.25
552.51	425.98
552.68	414.27
552.84	447.04
553.01	407.25
553.18	442.36
553.34	454.06
553.51	451.72
553.67	409.59
553.84	433.00
554.01	428.32
554.17	454.06
554.34	418.96
554.51	418.96
554.67	475.13
554.84	437.68
555.00	458.74
555.17	477.47
555.33	458.74
555.50	442.36
555.67	393.21
555.83	397.89
556.00	414.27
556.16	524.28
556.33	433.00
556.50	437.68
556.66	411.93
556.83	433.00
556.99	463.43
557.16	418.96
557.32	402.57
557.49	334.70
557.65	409.59
557.82	468.11
557.98	451.72
558.15	409.59
558.32	374.49
558.48	428.32
558.65	449.38
558.81	388.53
558.98	425.98
559.14	421.30
559.31	430.66
559.47	437.68
559.64	486.83
559.80	395.55
559.97	437.68
560.13	337.04
560.30	395.55
560.46	435.34
560.63	400.23
560.79	440.02
560.96	402.57
561.12	397.89
561.29	407.25
561.45	383.85
561.61	362.78
561.78	461.09
561.94	418.96
562.11	444.70
562.27	395.55
562.44	374.49
562.60	402.57
562.77	479.81
562.93	477.47
563.10	383.85
563.26	409.59
563.42	484.49
563.59	372.15
563.75	402.57
563.92	440.02
564.08	404.91
564.24	468.11
564.41	451.72
564.57	423.64
564.74	435.34
564.90	402.57
565.07	400.23
565.23	428.32
565.39	379.17
565.56	463.43
565.72	402.57
565.88	449.38
566.05	414.27
566.21	411.93
566.38	433.00
566.54	381.51
566.70	341.72
566.87	468.11
567.03	362.78
567.19	346.40
567.36	470.45
567.52	463.43
567.68	496.19
567.85	360.44
568.01	423.64
568.17	416.62
568.34	414.27
568.50	461.09
568.66	386.19
568.83	449.38
568.99	388.53
569.15	465.77
569.32	376.83
569.48	423.64
569.64	395.55
569.81	355.76
569.97	367.46
570.13	379.17
570.30	393.21
570.46	402.57
570.62	404.91
570.78	308.95
570.95	374.49
571.11	507.90
571.27	411.93
571.43	418.96
571.60	475.13
571.76	421.30
571.92	411.93
572.09	414.27
572.25	425.98
572.41	379.17
572.57	376.83
572.74	430.66
572.90	435.34
573.06	428.32
573.22	386.19
573.38	418.96
573.55	500.87
573.71	423.64
573.87	435.34
574.03	451.72
574.20	421.30
574.36	397.89
574.52	423.64
574.68	404.91
574.84	404.91
575.01	447.04
575.17	428.32
575.33	304.27
575.49	423.64
575.65	428.32
575.82	393.21
575.98	369.80
576.14	519.60
576.30	440.02
576.46	421.30
576.62	435.34
576.79	468.11
576.95	451.72
577.11	414.27
577.27	395.55
577.43	491.51
577.59	428.32
577.75	416.62
577.92	409.59
578.08	388.53
578.24	449.38
578.40	428.32
578.56	369.80
578.72	477.47
578.88	447.04
579.04	435.34
579.21	355.76
579.37	418.96
579.53	409.59
579.69	479.81
579.85	353.42
580.01	418.96
580.17	416.62
580.33	435.34
580.49	393.21
580.65	433.00
580.82	383.85
580.98	402.57
581.14	390.87
581.30	451.72
581.46	404.91
581.62	430.66
581.78	449.38
581.94	404.91
582.10	435.34
582.26	437.68
582.42	390.87
582.58	404.91
582.74	435.34
582.90	407.25
583.06	493.85
583.22	482.15
583.38	444.70
583.54	454.06
583.70	500.87
583.86	430.66
584.02	461.09
584.18	407.25
584.34	416.62
584.50	395.55
584.66	416.62
584.82	379.17
584.98	388.53
585.14	388.53
585.30	418.96
585.46	433.00
585.62	407.25
585.78	418.96
585.94	447.04
586.10	388.53
586.26	379.17
586.42	465.77
586.58	425.98
586.74	397.89
586.90	475.13
587.06	470.45
587.22	463.43
587.38	395.55
587.54	400.23
587.70	451.72
587.86	449.38
588.02	437.68
588.18	407.25
588.34	447.04
588.49	416.62
588.65	397.89
588.81	425.98
588.97	353.42
589.13	400.23
589.29	404.91
589.45	418.96
589.61	383.85
589.77	409.59
589.93	365.12
590.08	449.38
590.24	402.57
590.40	447.04
590.56	475.13
590.72	393.21
590.88	414.27
591.04	449.38
591.20	411.93
591.35	493.85
591.51	397.89
591.67	421.30
591.83	456.40
591.99	454.06
592.15	414.27
592.31	430.66
592.46	383.85
592.62	418.96
592.78	400.23
592.94	397.89
593.10	472.79
593.26	348.74
593.41	358.10
593.57	402.57
593.73	428.32
593.89	477.47
594.05	379.17
594.20	444.70
594.36	435.34
594.52	423.64
594.68	435.34
594.84	423.64
594.99	440.02
595.15	379.17
595.31	489.17
595.47	458.74
595.62	437.68
595.78	430.66
595.94	365.12
596.10	482.15
596.25	425.98
596.41	437.68
596.57	397.89
596.73	409.59
596.88	402.57
597.04	461.09
597.20	395.55
597.36	484.49
597.51	435.34
597.67	477.47
597.83	386.19
597.99	437.68
598.14	428.32
598.30	400.23
598.46	383.85
598.61	402.57
598.77	414.27
598.93	386.19
599.09	430.66
599.24	397.89
599.40	486.83
599.56	386.19
599.71	463.43
599.87	402.57
600.03	407.25
600.18	435.34
600.34	365.12
600.50	360.44
600.65	369.80
600.81	423.64
600.97	386.19
601.12	442.36
601.28	376.83
601.44	397.89
601.59	409.59
601.75	458.74
601.91	360.44
602.06	397.89
602.22	533.64
602.37	440.02
602.53	388.53
602.69	428.32
602.84	400.23
603.00	458.74
603.16	451.72
603.31	440.02
603.47	451.72
603.62	444.70
603.78	418.96
603.94	393.21
604.09	428.32
604.25	486.83
604.40	404.91
604.56	503.22
604.71	482.15
604.87	393.21
605.03	411.93
605.18	482.15
605.34	397.89
605.49	346.40
605.65	339.38
605.80	383.85
605.96	407.25
606.12	411.93
606.27	461.09
606.43	440.02
606.58	409.59
606.74	390.87
606.89	430.66
607.05	472.79
607.20	348.74
607.36	416.62
607.51	365.12
607.67	444.70
607.82	348.74
607.98	468.11
608.13	402.57
608.29	407.25
608.44	402.57
608.60	330.02
608.75	425.98
608.91	390.87
609.06	433.00
609.22	421.30
609.37	421.30
609.53	388.53
609.68	461.09
609.84	442.36
609.99	400.23
610.15	365.12
