SpectraSuite Data File
++++++++++++++++++++++++++++++++++++
Date: Fri Oct 25 12:10:51 EDT 2013
User: price-jones
Dark Spectrum Present: No
Reference Spectrum Present: No
Number of Sampled Component Spectra: 1
Spectrometers: USB2+H05261
Integration Time (usec): 100000 (USB2+H05261)
Spectra Averaged: 1 (USB2+H05261)
Boxcar Smoothing: 0 (USB2+H05261)
Correct for Electrical Dark: No (USB2+H05261)
Strobe/Lamp Enabled: No (USB2+H05261)
Correct for Detector Non-linearity: No (USB2+H05261)
Correct for Stray Light: No (USB2+H05261)
Number of Pixels in Processed Spectrum: 2048
>>>>>Begin Processed Spectral Data<<<<<
365.73	308.95
365.92	308.95
366.12	308.95
366.32	248.10
366.52	222.35
366.72	287.89
366.91	187.24
367.11	175.54
367.31	245.76
367.51	201.29
367.70	250.44
367.90	252.78
368.10	269.16
368.30	287.89
368.49	334.70
368.69	234.05
368.89	248.10
369.09	383.85
369.28	327.68
369.48	252.78
369.68	273.84
369.87	241.08
370.07	257.46
370.27	341.72
370.47	297.25
370.66	301.93
370.86	362.78
371.06	341.72
371.25	430.66
371.45	376.83
371.65	421.30
371.84	372.15
372.04	379.17
372.24	395.55
372.44	353.42
372.63	433.00
372.83	442.36
373.03	369.80
373.22	400.23
373.42	367.46
373.62	470.45
373.81	456.40
374.01	475.13
374.21	458.74
374.40	423.64
374.60	416.62
374.79	395.55
374.99	468.11
375.19	372.15
375.38	437.68
375.58	451.72
375.78	414.27
375.97	449.38
376.17	454.06
376.37	421.30
376.56	393.21
376.76	465.77
376.95	409.59
377.15	416.62
377.35	430.66
377.54	421.30
377.74	407.25
377.93	360.44
378.13	353.42
378.33	383.85
378.52	416.62
378.72	393.21
378.91	428.32
379.11	400.23
379.31	425.98
379.50	325.33
379.70	397.89
379.89	381.51
380.09	407.25
380.28	369.80
380.48	409.59
380.68	411.93
380.87	416.62
381.07	477.47
381.26	404.91
381.46	418.96
381.65	409.59
381.85	376.83
382.04	397.89
382.24	390.87
382.43	372.15
382.63	503.22
382.83	463.43
383.02	430.66
383.22	454.06
383.41	346.40
383.61	379.17
383.80	330.02
384.00	369.80
384.19	421.30
384.39	402.57
384.58	416.62
384.78	421.30
384.97	393.21
385.17	376.83
385.36	409.59
385.56	418.96
385.75	383.85
385.95	456.40
386.14	433.00
386.34	374.49
386.53	365.12
386.72	341.72
386.92	393.21
387.11	423.64
387.31	322.99
387.50	381.51
387.70	386.19
387.89	400.23
388.09	411.93
388.28	388.53
388.48	388.53
388.67	449.38
388.86	362.78
389.06	421.30
389.25	395.55
389.45	442.36
389.64	425.98
389.84	407.25
390.03	465.77
390.22	358.10
390.42	444.70
390.61	376.83
390.81	390.87
391.00	430.66
391.19	461.09
391.39	360.44
391.58	435.34
391.78	442.36
391.97	468.11
392.16	351.08
392.36	400.23
392.55	418.96
392.75	463.43
392.94	372.15
393.13	353.42
393.33	414.27
393.52	437.68
393.71	444.70
393.91	393.21
394.10	355.76
394.29	388.53
394.49	334.70
394.68	374.49
394.88	379.17
395.07	447.04
395.26	379.17
395.46	386.19
395.65	482.15
395.84	514.92
396.04	423.64
396.23	376.83
396.42	372.15
396.62	444.70
396.81	381.51
397.00	421.30
397.19	484.49
397.39	376.83
397.58	440.02
397.77	393.21
397.97	381.51
398.16	367.46
398.35	444.70
398.55	358.10
398.74	388.53
398.93	400.23
399.12	400.23
399.32	386.19
399.51	397.89
399.70	409.59
399.90	393.21
400.09	416.62
400.28	411.93
400.47	304.27
400.67	376.83
400.86	440.02
401.05	376.83
401.24	360.44
401.44	339.38
401.63	437.68
401.82	367.46
402.01	297.25
402.21	339.38
402.40	414.27
402.59	465.77
402.78	440.02
402.97	456.40
403.17	486.83
403.36	346.40
403.55	383.85
403.74	423.64
403.93	381.51
404.13	465.77
404.32	425.98
404.51	416.62
404.70	423.64
404.89	461.09
405.09	381.51
405.28	374.49
405.47	421.30
405.66	362.78
405.85	360.44
406.05	430.66
406.24	461.09
406.43	414.27
406.62	423.64
406.81	472.79
407.00	414.27
407.20	402.57
407.39	418.96
407.58	393.21
407.77	397.89
407.96	407.25
408.15	447.04
408.34	355.76
408.54	421.30
408.73	440.02
408.92	360.44
409.11	381.51
409.30	444.70
409.49	332.36
409.68	311.29
409.87	456.40
410.07	418.96
410.26	397.89
410.45	404.91
410.64	465.77
410.83	435.34
411.02	362.78
411.21	486.83
411.40	433.00
411.59	444.70
411.78	531.30
411.98	437.68
412.17	362.78
412.36	388.53
412.55	337.04
412.74	444.70
412.93	402.57
413.12	500.87
413.31	409.59
413.50	395.55
413.69	341.72
413.88	379.17
414.07	407.25
414.26	332.36
414.45	346.40
414.64	393.21
414.83	444.70
415.02	341.72
415.22	414.27
415.41	461.09
415.60	351.08
415.79	454.06
415.98	393.21
416.17	435.34
416.36	395.55
416.55	404.91
416.74	397.89
416.93	440.02
417.12	355.76
417.31	397.89
417.50	395.55
417.69	374.49
417.88	397.89
418.07	397.89
418.26	430.66
418.45	383.85
418.64	428.32
418.83	437.68
419.02	428.32
419.21	379.17
419.39	470.45
419.58	456.40
419.77	454.06
419.96	489.17
420.15	430.66
420.34	428.32
420.53	418.96
420.72	428.32
420.91	402.57
421.10	372.15
421.29	386.19
421.48	444.70
421.67	409.59
421.86	362.78
422.05	447.04
422.24	400.23
422.43	367.46
422.61	383.85
422.80	456.40
422.99	440.02
423.18	376.83
423.37	454.06
423.56	418.96
423.75	360.44
423.94	390.87
424.13	390.87
424.32	402.57
424.50	418.96
424.69	376.83
424.88	402.57
425.07	451.72
425.26	414.27
425.45	407.25
425.64	367.46
425.83	425.98
426.01	425.98
426.20	386.19
426.39	360.44
426.58	353.42
426.77	407.25
426.96	411.93
427.15	463.43
427.33	503.22
427.52	440.02
427.71	407.25
427.90	360.44
428.09	428.32
428.28	379.17
428.46	376.83
428.65	442.36
428.84	425.98
429.03	437.68
429.22	362.78
429.40	374.49
429.59	330.02
429.78	402.57
429.97	346.40
430.16	400.23
430.34	339.38
430.53	367.46
430.72	430.66
430.91	332.36
431.10	386.19
431.28	381.51
431.47	500.87
431.66	440.02
431.85	491.51
432.03	437.68
432.22	458.74
432.41	409.59
432.60	444.70
432.79	395.55
432.97	440.02
433.16	407.25
433.35	472.79
433.54	369.80
433.72	402.57
433.91	414.27
434.10	416.62
434.28	430.66
434.47	395.55
434.66	402.57
434.85	332.36
435.03	395.55
435.22	418.96
435.41	390.87
435.59	372.15
435.78	456.40
435.97	407.25
436.16	491.51
436.34	393.21
436.53	362.78
436.72	348.74
436.90	507.90
437.09	393.21
437.28	428.32
437.46	440.02
437.65	442.36
437.84	428.32
438.02	433.00
438.21	435.34
438.40	388.53
438.58	423.64
438.77	367.46
438.96	430.66
439.14	402.57
439.33	447.04
439.52	402.57
439.70	418.96
439.89	433.00
440.08	369.80
440.26	376.83
440.45	444.70
440.63	416.62
440.82	433.00
441.01	414.27
441.19	437.68
441.38	390.87
441.57	425.98
441.75	444.70
441.94	358.10
442.12	418.96
442.31	430.66
442.50	409.59
442.68	372.15
442.87	411.93
443.05	390.87
443.24	444.70
443.43	498.53
443.61	477.47
443.80	409.59
443.98	472.79
444.17	388.53
444.35	320.65
444.54	428.32
444.73	430.66
444.91	395.55
445.10	407.25
445.28	348.74
445.47	407.25
445.65	402.57
445.84	400.23
446.02	411.93
446.21	418.96
446.39	449.38
446.58	440.02
446.77	463.43
446.95	428.32
447.14	346.40
447.32	397.89
447.51	365.12
447.69	374.49
447.88	386.19
448.06	379.17
448.25	381.51
448.43	411.93
448.62	358.10
448.80	402.57
448.99	397.89
449.17	374.49
449.36	395.55
449.54	444.70
449.73	386.19
449.91	376.83
450.10	393.21
450.28	454.06
450.46	358.10
450.65	369.80
450.83	379.17
451.02	447.04
451.20	430.66
451.39	400.23
451.57	365.12
451.76	416.62
451.94	372.15
452.13	428.32
452.31	423.64
452.49	475.13
452.68	390.87
452.86	374.49
453.05	465.77
453.23	461.09
453.42	461.09
453.60	421.30
453.78	411.93
453.97	348.74
454.15	395.55
454.34	411.93
454.52	416.62
454.70	400.23
454.89	521.94
455.07	416.62
455.26	411.93
455.44	421.30
455.62	376.83
455.81	428.32
455.99	379.17
456.17	386.19
456.36	372.15
456.54	411.93
456.73	442.36
456.91	369.80
457.09	409.59
457.28	414.27
457.46	447.04
457.64	397.89
457.83	440.02
458.01	454.06
458.19	463.43
458.38	433.00
458.56	440.02
458.74	355.76
458.93	360.44
459.11	397.89
459.29	346.40
459.48	428.32
459.66	386.19
459.84	433.00
460.03	482.15
460.21	437.68
460.39	367.46
460.57	414.27
460.76	379.17
460.94	482.15
461.12	440.02
461.31	416.62
461.49	425.98
461.67	367.46
461.85	437.68
462.04	383.85
462.22	805.14
462.40	390.87
462.59	402.57
462.77	369.80
462.95	444.70
463.13	320.65
463.32	451.72
463.50	353.42
463.68	425.98
463.86	428.32
464.05	421.30
464.23	496.19
464.41	442.36
464.59	369.80
464.78	444.70
464.96	388.53
465.14	397.89
465.32	437.68
465.50	369.80
465.69	358.10
465.87	393.21
466.05	418.96
466.23	397.89
466.41	414.27
466.60	430.66
466.78	402.57
466.96	468.11
467.14	388.53
467.32	416.62
467.51	381.51
467.69	489.17
467.87	421.30
468.05	433.00
468.23	433.00
468.41	458.74
468.60	430.66
468.78	376.83
468.96	458.74
469.14	407.25
469.32	409.59
469.50	376.83
469.69	383.85
469.87	409.59
470.05	355.76
470.23	404.91
470.41	365.12
470.59	388.53
470.77	376.83
470.95	383.85
471.14	402.57
471.32	409.59
471.50	411.93
471.68	393.21
471.86	451.72
472.04	409.59
472.22	330.02
472.40	447.04
472.58	393.21
472.77	433.00
472.95	374.49
473.13	447.04
473.31	397.89
473.49	472.79
473.67	362.78
473.85	437.68
474.03	390.87
474.21	372.15
474.39	423.64
474.57	409.59
474.75	425.98
474.93	397.89
475.12	358.10
475.30	383.85
475.48	376.83
475.66	379.17
475.84	416.62
476.02	404.91
476.20	461.09
476.38	433.00
476.56	456.40
476.74	493.85
476.92	414.27
477.10	430.66
477.28	379.17
477.46	433.00
477.64	409.59
477.82	435.34
478.00	414.27
478.18	407.25
478.36	346.40
478.54	367.46
478.72	348.74
478.90	395.55
479.08	353.42
479.26	407.25
479.44	386.19
479.62	430.66
479.80	407.25
479.98	411.93
480.16	407.25
480.34	442.36
480.52	327.68
480.70	430.66
480.88	353.42
481.06	402.57
481.24	372.15
481.41	435.34
481.59	351.08
481.77	386.19
481.95	402.57
482.13	482.15
482.31	409.59
482.49	416.62
482.67	418.96
482.85	461.09
483.03	468.11
483.21	400.23
483.39	365.12
483.57	447.04
483.74	461.09
483.92	418.96
484.10	355.76
484.28	447.04
484.46	414.27
484.64	407.25
484.82	435.34
485.00	409.59
485.18	465.77
485.35	418.96
485.53	388.53
485.71	397.89
485.89	397.89
486.07	428.32
486.25	383.85
486.43	428.32
486.61	451.72
486.78	475.13
486.96	334.70
487.14	330.02
487.32	397.89
487.50	463.43
487.68	428.32
487.85	418.96
488.03	430.66
488.21	388.53
488.39	379.17
488.57	458.74
488.75	381.51
488.92	526.62
489.10	390.87
489.28	362.78
489.46	456.40
489.64	423.64
489.81	367.46
489.99	407.25
490.17	416.62
490.35	486.83
490.53	442.36
490.70	428.32
490.88	379.17
491.06	339.38
491.24	421.30
491.41	423.64
491.59	388.53
491.77	367.46
491.95	346.40
492.13	374.49
492.30	433.00
492.48	402.57
492.66	437.68
492.84	369.80
493.01	425.98
493.19	442.36
493.37	447.04
493.54	337.04
493.72	435.34
493.90	402.57
494.08	386.19
494.25	348.74
494.43	440.02
494.61	376.83
494.79	360.44
494.96	353.42
495.14	418.96
495.32	454.06
495.49	418.96
495.67	444.70
495.85	437.68
496.02	388.53
496.20	374.49
496.38	355.76
496.55	458.74
496.73	440.02
496.91	367.46
497.09	421.30
497.26	430.66
497.44	386.19
497.62	416.62
497.79	400.23
497.97	376.83
498.14	430.66
498.32	468.11
498.50	514.92
498.67	383.85
498.85	402.57
499.03	447.04
499.20	339.38
499.38	404.91
499.56	411.93
499.73	386.19
499.91	414.27
500.08	407.25
500.26	400.23
500.44	337.04
500.61	372.15
500.79	327.68
500.97	407.25
501.14	372.15
501.32	416.62
501.49	416.62
501.67	421.30
501.84	470.45
502.02	444.70
502.20	461.09
502.37	390.87
502.55	386.19
502.72	402.57
502.90	376.83
503.07	514.92
503.25	468.11
503.43	360.44
503.60	379.17
503.78	376.83
503.95	407.25
504.13	409.59
504.30	435.34
504.48	390.87
504.65	390.87
504.83	433.00
505.01	383.85
505.18	472.79
505.36	456.40
505.53	496.19
505.71	461.09
505.88	465.77
506.06	367.46
506.23	433.00
506.41	411.93
506.58	404.91
506.76	454.06
506.93	463.43
507.11	430.66
507.28	346.40
507.46	390.87
507.63	437.68
507.81	433.00
507.98	367.46
508.16	397.89
508.33	430.66
508.50	386.19
508.68	353.42
508.85	421.30
509.03	437.68
509.20	362.78
509.38	383.85
509.55	458.74
509.73	463.43
509.90	477.47
510.08	404.91
510.25	358.10
510.42	458.74
510.60	409.59
510.77	383.85
510.95	437.68
511.12	416.62
511.30	416.62
511.47	407.25
511.64	383.85
511.82	442.36
511.99	433.00
512.17	442.36
512.34	325.33
512.51	388.53
512.69	463.43
512.86	503.22
513.04	395.55
513.21	393.21
513.38	390.87
513.56	388.53
513.73	489.17
513.90	454.06
514.08	477.47
514.25	435.34
514.43	430.66
514.60	379.17
514.77	407.25
514.95	489.17
515.12	430.66
515.29	411.93
515.47	428.32
515.64	400.23
515.81	458.74
515.99	444.70
516.16	414.27
516.33	430.66
516.51	390.87
516.68	444.70
516.85	390.87
517.03	360.44
517.20	425.98
517.37	475.13
517.54	414.27
517.72	381.51
517.89	477.47
518.06	418.96
518.24	407.25
518.41	428.32
518.58	540.66
518.75	390.87
518.93	390.87
519.10	376.83
519.27	416.62
519.45	463.43
519.62	430.66
519.79	447.04
519.96	416.62
520.14	454.06
520.31	468.11
520.48	425.98
520.65	428.32
520.83	397.89
521.00	423.64
521.17	421.30
521.34	416.62
521.52	360.44
521.69	430.66
521.86	400.23
522.03	358.10
522.20	440.02
522.38	388.53
522.55	440.02
522.72	358.10
522.89	430.66
523.07	442.36
523.24	386.19
523.41	383.85
523.58	440.02
523.75	418.96
523.92	430.66
524.10	409.59
524.27	402.57
524.44	393.21
524.61	451.72
524.78	353.42
524.96	369.80
525.13	379.17
525.30	437.68
525.47	411.93
525.64	416.62
525.81	442.36
525.98	430.66
526.16	334.70
526.33	376.83
526.50	386.19
526.67	365.12
526.84	393.21
527.01	458.74
527.18	409.59
527.36	414.27
527.53	435.34
527.70	437.68
527.87	461.09
528.04	456.40
528.21	351.08
528.38	346.40
528.55	449.38
528.72	409.59
528.89	521.94
529.07	379.17
529.24	411.93
529.41	369.80
529.58	421.30
529.75	454.06
529.92	418.96
530.09	421.30
530.26	423.64
530.43	353.42
530.60	341.72
530.77	348.74
530.94	397.89
531.11	381.51
531.28	428.32
531.46	395.55
531.63	425.98
531.80	397.89
531.97	409.59
532.14	437.68
532.31	433.00
532.48	365.12
532.65	360.44
532.82	376.83
532.99	362.78
533.16	444.70
533.33	355.76
533.50	383.85
533.67	444.70
533.84	379.17
534.01	379.17
534.18	447.04
534.35	414.27
534.52	465.77
534.69	425.98
534.86	418.96
535.03	409.59
535.20	367.46
535.37	430.66
535.54	428.32
535.71	402.57
535.88	388.53
536.05	442.36
536.22	421.30
536.38	425.98
536.55	395.55
536.72	416.62
536.89	454.06
537.06	332.36
537.23	447.04
537.40	381.51
537.57	372.15
537.74	496.19
537.91	360.44
538.08	379.17
538.25	365.12
538.42	465.77
538.59	409.59
538.75	437.68
538.92	440.02
539.09	414.27
539.26	390.87
539.43	430.66
539.60	411.93
539.77	414.27
539.94	409.59
540.11	374.49
540.28	472.79
540.44	430.66
540.61	475.13
540.78	409.59
540.95	458.74
541.12	397.89
541.29	435.34
541.46	482.15
541.62	454.06
541.79	400.23
541.96	411.93
542.13	479.81
542.30	369.80
542.47	437.68
542.63	463.43
542.80	482.15
542.97	433.00
543.14	437.68
543.31	414.27
543.48	491.51
543.64	409.59
543.81	381.51
543.98	470.45
544.15	348.74
544.32	390.87
544.48	383.85
544.65	407.25
544.82	360.44
544.99	348.74
545.16	379.17
545.32	416.62
545.49	479.81
545.66	388.53
545.83	470.45
546.00	430.66
546.16	376.83
546.33	440.02
546.50	374.49
546.67	440.02
546.83	390.87
547.00	407.25
547.17	461.09
547.34	367.46
547.50	507.90
547.67	442.36
547.84	404.91
548.00	383.85
548.17	404.91
548.34	360.44
548.51	465.77
548.67	386.19
548.84	416.62
549.01	411.93
549.18	421.30
549.34	437.68
549.51	433.00
549.68	451.72
549.84	437.68
550.01	372.15
550.18	472.79
550.34	409.59
550.51	383.85
550.68	407.25
550.84	442.36
551.01	479.81
551.18	477.47
551.34	463.43
551.51	404.91
551.68	411.93
551.84	470.45
552.01	339.38
552.18	430.66
552.34	409.59
552.51	404.91
552.68	461.09
552.84	386.19
553.01	393.21
553.18	451.72
553.34	451.72
553.51	353.42
553.67	440.02
553.84	526.62
554.01	437.68
554.17	475.13
554.34	435.34
554.51	430.66
554.67	519.60
554.84	416.62
555.00	411.93
555.17	423.64
555.33	468.11
555.50	407.25
555.67	411.93
555.83	362.78
556.00	393.21
556.16	498.53
556.33	458.74
556.50	367.46
556.66	437.68
556.83	397.89
556.99	386.19
557.16	458.74
557.32	470.45
557.49	428.32
557.65	388.53
557.82	461.09
557.98	435.34
558.15	454.06
558.32	458.74
558.48	351.08
558.65	425.98
558.81	393.21
558.98	402.57
559.14	435.34
559.31	456.40
559.47	486.83
559.64	463.43
559.80	411.93
559.97	330.02
560.13	372.15
560.30	409.59
560.46	400.23
560.63	451.72
560.79	425.98
560.96	372.15
561.12	437.68
561.29	433.00
561.45	468.11
561.61	451.72
561.78	505.56
561.94	496.19
562.11	447.04
562.27	418.96
562.44	372.15
562.60	425.98
562.77	433.00
562.93	491.51
563.10	465.77
563.26	477.47
563.42	393.21
563.59	376.83
563.75	465.77
563.92	423.64
564.08	400.23
564.24	416.62
564.41	472.79
564.57	447.04
564.74	449.38
564.90	404.91
565.07	428.32
565.23	400.23
565.39	365.12
565.56	372.15
565.72	411.93
565.88	435.34
566.05	418.96
566.21	407.25
566.38	468.11
566.54	409.59
566.70	489.17
566.87	421.30
567.03	374.49
567.19	433.00
567.36	451.72
567.52	421.30
567.68	468.11
567.85	447.04
568.01	383.85
568.17	435.34
568.34	388.53
568.50	404.91
568.66	425.98
568.83	517.26
568.99	409.59
569.15	416.62
569.32	383.85
569.48	428.32
569.64	458.74
569.81	374.49
569.97	388.53
570.13	400.23
570.30	428.32
570.46	430.66
570.62	456.40
570.78	388.53
570.95	337.04
571.11	407.25
571.27	465.77
571.43	423.64
571.60	543.00
571.76	376.83
571.92	425.98
572.09	444.70
572.25	465.77
572.41	433.00
572.57	397.89
572.74	465.77
572.90	484.49
573.06	409.59
573.22	433.00
573.38	428.32
573.55	440.02
573.71	388.53
573.87	374.49
574.03	383.85
574.20	477.47
574.36	454.06
574.52	475.13
574.68	404.91
574.84	418.96
575.01	381.51
575.17	418.96
575.33	390.87
575.49	444.70
575.65	435.34
575.82	503.22
575.98	393.21
576.14	409.59
576.30	348.74
576.46	444.70
576.62	421.30
576.79	411.93
576.95	407.25
577.11	411.93
577.27	407.25
577.43	470.45
577.59	451.72
577.75	365.12
577.92	430.66
578.08	400.23
578.24	367.46
578.40	374.49
578.56	491.51
578.72	444.70
578.88	416.62
579.04	435.34
579.21	414.27
579.37	423.64
579.53	440.02
579.69	414.27
579.85	458.74
580.01	372.15
580.17	348.74
580.33	367.46
580.49	454.06
580.65	433.00
580.82	409.59
580.98	402.57
581.14	468.11
581.30	414.27
581.46	435.34
581.62	503.22
581.78	409.59
581.94	437.68
582.10	355.76
582.26	454.06
582.42	418.96
582.58	421.30
582.74	430.66
582.90	470.45
583.06	435.34
583.22	472.79
583.38	425.98
583.54	421.30
583.70	442.36
583.86	444.70
584.02	379.17
584.18	458.74
584.34	430.66
584.50	402.57
584.66	414.27
584.82	404.91
584.98	442.36
585.14	351.08
585.30	463.43
585.46	425.98
585.62	411.93
585.78	383.85
585.94	458.74
586.10	416.62
586.26	428.32
586.42	428.32
586.58	418.96
586.74	376.83
586.90	414.27
587.06	433.00
587.22	393.21
587.38	390.87
587.54	423.64
587.70	404.91
587.86	400.23
588.02	416.62
588.18	388.53
588.34	440.02
588.49	402.57
588.65	393.21
588.81	433.00
588.97	418.96
589.13	458.74
589.29	409.59
589.45	449.38
589.61	428.32
589.77	461.09
589.93	411.93
590.08	491.51
590.24	440.02
590.40	369.80
590.56	498.53
590.72	489.17
590.88	346.40
591.04	423.64
591.20	407.25
591.35	397.89
591.51	358.10
591.67	372.15
591.83	414.27
591.99	433.00
592.15	402.57
592.31	437.68
592.46	430.66
592.62	456.40
592.78	381.51
592.94	325.33
593.10	332.36
593.26	320.65
593.41	369.80
593.57	365.12
593.73	369.80
593.89	444.70
594.05	440.02
594.20	369.80
594.36	486.83
594.52	397.89
594.68	409.59
594.84	437.68
594.99	330.02
595.15	477.47
595.31	404.91
595.47	559.39
595.62	388.53
595.78	416.62
595.94	468.11
596.10	421.30
596.25	435.34
596.41	332.36
596.57	386.19
596.73	416.62
596.88	397.89
597.04	332.36
597.20	337.04
597.36	409.59
597.51	409.59
597.67	414.27
597.83	346.40
597.99	379.17
598.14	428.32
598.30	402.57
598.46	465.77
598.61	444.70
598.77	400.23
598.93	386.19
599.09	383.85
599.24	430.66
599.40	470.45
599.56	402.57
599.71	411.93
599.87	409.59
600.03	421.30
600.18	390.87
600.34	414.27
600.50	400.23
600.65	440.02
600.81	407.25
600.97	383.85
601.12	440.02
601.28	395.55
601.44	400.23
601.59	402.57
601.75	409.59
601.91	360.44
602.06	428.32
602.22	519.60
602.37	421.30
602.53	418.96
602.69	362.78
602.84	414.27
603.00	369.80
603.16	383.85
603.31	468.11
603.47	465.77
603.62	367.46
603.78	430.66
603.94	404.91
604.09	414.27
604.25	482.15
604.40	393.21
604.56	418.96
604.71	397.89
604.87	379.17
605.03	411.93
605.18	397.89
605.34	383.85
605.49	421.30
605.65	313.63
605.80	346.40
605.96	409.59
606.12	472.79
606.27	407.25
606.43	451.72
606.58	372.15
606.74	451.72
606.89	447.04
607.05	407.25
607.20	395.55
607.36	367.46
607.51	444.70
607.67	454.06
607.82	449.38
607.98	458.74
608.13	376.83
608.29	351.08
608.44	468.11
608.60	477.47
608.75	404.91
608.91	365.12
609.06	507.90
609.22	435.34
609.37	407.25
609.53	348.74
609.68	395.55
609.84	423.64
609.99	421.30
610.15	395.55
