SpectraSuite Data File
++++++++++++++++++++++++++++++++++++
Date: Fri Oct 25 12:11:20 EDT 2013
User: price-jones
Dark Spectrum Present: No
Reference Spectrum Present: No
Number of Sampled Component Spectra: 1
Spectrometers: USB2+H05261
Integration Time (usec): 100000 (USB2+H05261)
Spectra Averaged: 1 (USB2+H05261)
Boxcar Smoothing: 0 (USB2+H05261)
Correct for Electrical Dark: No (USB2+H05261)
Strobe/Lamp Enabled: No (USB2+H05261)
Correct for Detector Non-linearity: No (USB2+H05261)
Correct for Stray Light: No (USB2+H05261)
Number of Pixels in Processed Spectrum: 2048
>>>>>Begin Processed Spectral Data<<<<<
365.73	318.31
365.92	318.31
366.12	318.31
366.32	217.67
366.52	290.23
366.72	297.25
366.91	243.42
367.11	210.65
367.31	201.29
367.51	159.16
367.70	198.95
367.90	318.31
368.10	234.05
368.30	290.23
368.49	191.92
368.69	250.44
368.89	252.78
369.09	262.14
369.28	287.89
369.48	306.61
369.68	297.25
369.87	292.57
370.07	271.50
370.27	341.72
370.47	290.23
370.66	313.63
370.86	318.31
371.06	374.49
371.25	416.62
371.45	327.68
371.65	393.21
371.84	372.15
372.04	339.38
372.24	418.96
372.44	346.40
372.63	376.83
372.83	440.02
373.03	358.10
373.22	423.64
373.42	416.62
373.62	491.51
373.81	414.27
374.01	451.72
374.21	465.77
374.40	444.70
374.60	472.79
374.79	411.93
374.99	435.34
375.19	409.59
375.38	442.36
375.58	437.68
375.78	402.57
375.97	362.78
376.17	430.66
376.37	402.57
376.56	395.55
376.76	447.04
376.95	414.27
377.15	472.79
377.35	461.09
377.54	409.59
377.74	449.38
377.93	428.32
378.13	402.57
378.33	409.59
378.52	442.36
378.72	416.62
378.91	383.85
379.11	393.21
379.31	379.17
379.50	374.49
379.70	383.85
379.89	423.64
380.09	468.11
380.28	388.53
380.48	395.55
380.68	358.10
380.87	367.46
381.07	425.98
381.26	440.02
381.46	386.19
381.65	416.62
381.85	367.46
382.04	411.93
382.24	440.02
382.43	402.57
382.63	404.91
382.83	388.53
383.02	383.85
383.22	388.53
383.41	414.27
383.61	388.53
383.80	367.46
384.00	320.65
384.19	372.15
384.39	404.91
384.58	379.17
384.78	367.46
384.97	344.06
385.17	428.32
385.36	386.19
385.56	376.83
385.75	442.36
385.95	470.45
386.14	479.81
386.34	379.17
386.53	468.11
386.72	358.10
386.92	449.38
387.11	437.68
387.31	404.91
387.50	414.27
387.70	437.68
387.89	435.34
388.09	397.89
388.28	344.06
388.48	416.62
388.67	456.40
388.86	423.64
389.06	355.76
389.25	404.91
389.45	353.42
389.64	372.15
389.84	388.53
390.03	421.30
390.22	367.46
390.42	381.51
390.61	414.27
390.81	447.04
391.00	365.12
391.19	425.98
391.39	477.47
391.58	423.64
391.78	400.23
391.97	442.36
392.16	376.83
392.36	402.57
392.55	402.57
392.75	472.79
392.94	433.00
393.13	386.19
393.33	374.49
393.52	395.55
393.71	386.19
393.91	400.23
394.10	400.23
394.29	386.19
394.49	358.10
394.68	381.51
394.88	430.66
395.07	402.57
395.26	411.93
395.46	395.55
395.65	428.32
395.84	351.08
396.04	435.34
396.23	425.98
396.42	411.93
396.62	468.11
396.81	346.40
397.00	423.64
397.19	376.83
397.39	376.83
397.58	402.57
397.77	397.89
397.97	435.34
398.16	379.17
398.35	393.21
398.55	491.51
398.74	344.06
398.93	388.53
399.12	496.19
399.32	456.40
399.51	404.91
399.70	472.79
399.90	397.89
400.09	472.79
400.28	437.68
400.47	390.87
400.67	367.46
400.86	337.04
401.05	383.85
401.24	381.51
401.44	449.38
401.63	390.87
401.82	449.38
402.01	388.53
402.21	433.00
402.40	402.57
402.59	407.25
402.78	423.64
402.97	369.80
403.17	440.02
403.36	458.74
403.55	386.19
403.74	365.12
403.93	423.64
404.13	411.93
404.32	358.10
404.51	367.46
404.70	461.09
404.89	442.36
405.09	470.45
405.28	411.93
405.47	372.15
405.66	479.81
405.85	496.19
406.05	442.36
406.24	402.57
406.43	421.30
406.62	421.30
406.81	472.79
407.00	435.34
407.20	306.61
407.39	454.06
407.58	407.25
407.77	435.34
407.96	449.38
408.15	479.81
408.34	463.43
408.54	416.62
408.73	454.06
408.92	402.57
409.11	433.00
409.30	435.34
409.49	362.78
409.68	465.77
409.87	470.45
410.07	355.76
410.26	416.62
410.45	365.12
410.64	376.83
410.83	421.30
411.02	397.89
411.21	390.87
411.40	388.53
411.59	465.77
411.78	416.62
411.98	365.12
412.17	440.02
412.36	351.08
412.55	372.15
412.74	428.32
412.93	404.91
413.12	416.62
413.31	386.19
413.50	433.00
413.69	397.89
413.88	458.74
414.07	496.19
414.26	393.21
414.45	402.57
414.64	475.13
414.83	430.66
415.02	409.59
415.22	400.23
415.41	451.72
415.60	484.49
415.79	362.78
415.98	395.55
416.17	428.32
416.36	430.66
416.55	423.64
416.74	425.98
416.93	486.83
417.12	409.59
417.31	433.00
417.50	423.64
417.69	489.17
417.88	407.25
418.07	468.11
418.26	435.34
418.45	416.62
418.64	418.96
418.83	465.77
419.02	416.62
419.21	404.91
419.39	388.53
419.58	362.78
419.77	388.53
419.96	449.38
420.15	437.68
420.34	421.30
420.53	430.66
420.72	423.64
420.91	470.45
421.10	367.46
421.29	416.62
421.48	393.21
421.67	435.34
421.86	423.64
422.05	409.59
422.24	395.55
422.43	449.38
422.61	456.40
422.80	411.93
422.99	433.00
423.18	369.80
423.37	372.15
423.56	409.59
423.75	442.36
423.94	339.38
424.13	390.87
424.32	444.70
424.50	430.66
424.69	397.89
424.88	404.91
425.07	440.02
425.26	461.09
425.45	428.32
425.64	395.55
425.83	416.62
426.01	393.21
426.20	407.25
426.39	449.38
426.58	418.96
426.77	425.98
426.96	409.59
427.15	468.11
427.33	465.77
427.52	346.40
427.71	381.51
427.90	416.62
428.09	353.42
428.28	404.91
428.46	463.43
428.65	465.77
428.84	383.85
429.03	475.13
429.22	416.62
429.40	353.42
429.59	390.87
429.78	428.32
429.97	411.93
430.16	351.08
430.34	421.30
430.53	465.77
430.72	416.62
430.91	451.72
431.10	404.91
431.28	381.51
431.47	479.81
431.66	479.81
431.85	421.30
432.03	440.02
432.22	468.11
432.41	414.27
432.60	470.45
432.79	482.15
432.97	470.45
433.16	390.87
433.35	379.17
433.54	393.21
433.72	379.17
433.91	411.93
434.10	423.64
434.28	433.00
434.47	416.62
434.66	365.12
434.85	442.36
435.03	409.59
435.22	435.34
435.41	437.68
435.59	430.66
435.78	416.62
435.97	358.10
436.16	463.43
436.34	425.98
436.53	376.83
436.72	414.27
436.90	397.89
437.09	416.62
437.28	442.36
437.46	400.23
437.65	440.02
437.84	365.12
438.02	475.13
438.21	411.93
438.40	423.64
438.58	447.04
438.77	475.13
438.96	372.15
439.14	414.27
439.33	456.40
439.52	468.11
439.70	379.17
439.89	444.70
440.08	454.06
440.26	374.49
440.45	353.42
440.63	442.36
440.82	505.56
441.01	433.00
441.19	416.62
441.38	395.55
441.57	458.74
441.75	442.36
441.94	400.23
442.12	400.23
442.31	386.19
442.50	433.00
442.68	444.70
442.87	454.06
443.05	365.12
443.24	451.72
443.43	433.00
443.61	458.74
443.80	404.91
443.98	374.49
444.17	425.98
444.35	430.66
444.54	402.57
444.73	390.87
444.91	512.58
445.10	400.23
445.28	355.76
445.47	390.87
445.65	369.80
445.84	414.27
446.02	341.72
446.21	477.47
446.39	374.49
446.58	395.55
446.77	355.76
446.95	353.42
447.14	430.66
447.32	430.66
447.51	411.93
447.69	344.06
447.88	454.06
448.06	470.45
448.25	454.06
448.43	404.91
448.62	360.44
448.80	395.55
448.99	409.59
449.17	400.23
449.36	390.87
449.54	468.11
449.73	402.57
449.91	428.32
450.10	372.15
450.28	514.92
450.46	507.90
450.65	456.40
450.83	365.12
451.02	472.79
451.20	454.06
451.39	365.12
451.57	435.34
451.76	390.87
451.94	353.42
452.13	402.57
452.31	411.93
452.49	425.98
452.68	435.34
452.86	402.57
453.05	449.38
453.23	407.25
453.42	512.58
453.60	475.13
453.78	512.58
453.97	381.51
454.15	437.68
454.34	451.72
454.52	409.59
454.70	498.53
454.89	496.19
455.07	444.70
455.26	418.96
455.44	386.19
455.62	409.59
455.81	374.49
455.99	496.19
456.17	283.20
456.36	428.32
456.54	416.62
456.73	440.02
456.91	456.40
457.09	374.49
457.28	425.98
457.46	374.49
457.64	411.93
457.83	409.59
458.01	454.06
458.19	407.25
458.38	369.80
458.56	423.64
458.74	418.96
458.93	477.47
459.11	444.70
459.29	440.02
459.48	402.57
459.66	496.19
459.84	463.43
460.03	388.53
460.21	414.27
460.39	400.23
460.57	531.30
460.76	468.11
460.94	351.08
461.12	433.00
461.31	456.40
461.49	468.11
461.67	454.06
461.85	409.59
462.04	447.04
462.22	784.08
462.40	489.17
462.59	477.47
462.77	376.83
462.95	395.55
463.13	435.34
463.32	409.59
463.50	355.76
463.68	376.83
463.86	428.32
464.05	397.89
464.23	402.57
464.41	498.53
464.59	402.57
464.78	458.74
464.96	400.23
465.14	414.27
465.32	421.30
465.50	344.06
465.69	447.04
465.87	390.87
466.05	444.70
466.23	470.45
466.41	437.68
466.60	465.77
466.78	442.36
466.96	416.62
467.14	519.60
467.32	386.19
467.51	433.00
467.69	447.04
467.87	468.11
468.05	418.96
468.23	451.72
468.41	428.32
468.60	423.64
468.78	442.36
468.96	440.02
469.14	369.80
469.32	428.32
469.50	421.30
469.69	491.51
469.87	449.38
470.05	449.38
470.23	414.27
470.41	390.87
470.59	477.47
470.77	353.42
470.95	383.85
471.14	421.30
471.32	390.87
471.50	449.38
471.68	379.17
471.86	416.62
472.04	444.70
472.22	489.17
472.40	374.49
472.58	402.57
472.77	372.15
472.95	334.70
473.13	454.06
473.31	421.30
473.49	411.93
473.67	390.87
473.85	479.81
474.03	402.57
474.21	379.17
474.39	402.57
474.57	447.04
474.75	435.34
474.93	404.91
475.12	369.80
475.30	418.96
475.48	437.68
475.66	379.17
475.84	447.04
476.02	409.59
476.20	414.27
476.38	372.15
476.56	491.51
476.74	318.31
476.92	472.79
477.10	402.57
477.28	418.96
477.46	447.04
477.64	404.91
477.82	430.66
478.00	461.09
478.18	341.72
478.36	416.62
478.54	425.98
478.72	409.59
478.90	411.93
479.08	418.96
479.26	407.25
479.44	444.70
479.62	404.91
479.80	428.32
479.98	374.49
480.16	379.17
480.34	383.85
480.52	322.99
480.70	449.38
480.88	327.68
481.06	433.00
481.24	468.11
481.41	468.11
481.59	365.12
481.77	440.02
481.95	388.53
482.13	402.57
482.31	421.30
482.49	461.09
482.67	381.51
482.85	397.89
483.03	393.21
483.21	461.09
483.39	435.34
483.57	458.74
483.74	418.96
483.92	374.49
484.10	423.64
484.28	456.40
484.46	425.98
484.64	379.17
484.82	388.53
485.00	468.11
485.18	421.30
485.35	442.36
485.53	437.68
485.71	437.68
485.89	397.89
486.07	440.02
486.25	433.00
486.43	435.34
486.61	465.77
486.78	463.43
486.96	400.23
487.14	411.93
487.32	433.00
487.50	414.27
487.68	393.21
487.85	397.89
488.03	372.15
488.21	433.00
488.39	503.22
488.57	461.09
488.75	442.36
488.92	383.85
489.10	402.57
489.28	404.91
489.46	355.76
489.64	407.25
489.81	461.09
489.99	411.93
490.17	358.10
490.35	477.47
490.53	381.51
490.70	414.27
490.88	414.27
491.06	355.76
491.24	395.55
491.41	418.96
491.59	388.53
491.77	423.64
491.95	456.40
492.13	404.91
492.30	379.17
492.48	388.53
492.66	440.02
492.84	489.17
493.01	440.02
493.19	428.32
493.37	440.02
493.54	465.77
493.72	461.09
493.90	430.66
494.08	458.74
494.25	437.68
494.43	493.85
494.61	416.62
494.79	393.21
494.96	418.96
495.14	440.02
495.32	444.70
495.49	374.49
495.67	390.87
495.85	437.68
496.02	407.25
496.20	365.12
496.38	388.53
496.55	360.44
496.73	411.93
496.91	433.00
497.09	440.02
497.26	372.15
497.44	341.72
497.62	397.89
497.79	374.49
497.97	489.17
498.14	447.04
498.32	411.93
498.50	430.66
498.67	397.89
498.85	388.53
499.03	425.98
499.20	407.25
499.38	414.27
499.56	388.53
499.73	514.92
499.91	425.98
500.08	409.59
500.26	437.68
500.44	330.02
500.61	351.08
500.79	346.40
500.97	437.68
501.14	435.34
501.32	444.70
501.49	465.77
501.67	341.72
501.84	425.98
502.02	374.49
502.20	374.49
502.37	454.06
502.55	430.66
502.72	451.72
502.90	444.70
503.07	458.74
503.25	346.40
503.43	388.53
503.60	397.89
503.78	442.36
503.95	411.93
504.13	454.06
504.30	402.57
504.48	433.00
504.65	444.70
504.83	421.30
505.01	421.30
505.18	421.30
505.36	376.83
505.53	414.27
505.71	416.62
505.88	442.36
506.06	444.70
506.23	423.64
506.41	358.10
506.58	379.17
506.76	409.59
506.93	381.51
507.11	491.51
507.28	372.15
507.46	390.87
507.63	428.32
507.81	294.91
507.98	332.36
508.16	444.70
508.33	428.32
508.50	416.62
508.68	407.25
508.85	404.91
509.03	369.80
509.20	383.85
509.38	418.96
509.55	489.17
509.73	365.12
509.90	402.57
510.08	404.91
510.25	437.68
510.42	454.06
510.60	437.68
510.77	468.11
510.95	507.90
511.12	397.89
511.30	393.21
511.47	395.55
511.64	433.00
511.82	339.38
511.99	400.23
512.17	416.62
512.34	381.51
512.51	411.93
512.69	428.32
512.86	442.36
513.04	383.85
513.21	376.83
513.38	423.64
513.56	362.78
513.73	418.96
513.90	330.02
514.08	400.23
514.25	470.45
514.43	486.83
514.60	425.98
514.77	421.30
514.95	430.66
515.12	353.42
515.29	402.57
515.47	402.57
515.64	351.08
515.81	411.93
515.99	393.21
516.16	337.04
516.33	444.70
516.51	435.34
516.68	402.57
516.85	376.83
517.03	409.59
517.20	400.23
517.37	383.85
517.54	470.45
517.72	346.40
517.89	411.93
518.06	337.04
518.24	435.34
518.41	477.47
518.58	430.66
518.75	447.04
518.93	395.55
519.10	437.68
519.27	433.00
519.45	411.93
519.62	411.93
519.79	411.93
519.96	402.57
520.14	493.85
520.31	458.74
520.48	416.62
520.65	416.62
520.83	486.83
521.00	486.83
521.17	477.47
521.34	470.45
521.52	400.23
521.69	470.45
521.86	386.19
522.03	447.04
522.20	458.74
522.38	400.23
522.55	421.30
522.72	388.53
522.89	440.02
523.07	351.08
523.24	430.66
523.41	486.83
523.58	409.59
523.75	369.80
523.92	383.85
524.10	414.27
524.27	421.30
524.44	388.53
524.61	416.62
524.78	456.40
524.96	376.83
525.13	418.96
525.30	425.98
525.47	367.46
525.64	369.80
525.81	376.83
525.98	393.21
526.16	416.62
526.33	409.59
526.50	390.87
526.67	395.55
526.84	416.62
527.01	381.51
527.18	475.13
527.36	421.30
527.53	475.13
527.70	404.91
527.87	451.72
528.04	533.64
528.21	449.38
528.38	437.68
528.55	381.51
528.72	397.89
528.89	425.98
529.07	425.98
529.24	465.77
529.41	390.87
529.58	425.98
529.75	463.43
529.92	411.93
530.09	437.68
530.26	435.34
530.43	339.38
530.60	337.04
530.77	423.64
530.94	503.22
531.11	414.27
531.28	407.25
531.46	369.80
531.63	430.66
531.80	454.06
531.97	393.21
532.14	442.36
532.31	423.64
532.48	463.43
532.65	456.40
532.82	444.70
532.99	367.46
533.16	397.89
533.33	414.27
533.50	369.80
533.67	440.02
533.84	393.21
534.01	470.45
534.18	386.19
534.35	447.04
534.52	411.93
534.69	425.98
534.86	416.62
535.03	344.06
535.20	322.99
535.37	404.91
535.54	451.72
535.71	409.59
535.88	386.19
536.05	454.06
536.22	374.49
536.38	463.43
536.55	411.93
536.72	418.96
536.89	383.85
537.06	341.72
537.23	421.30
537.40	418.96
537.57	381.51
537.74	463.43
537.91	381.51
538.08	353.42
538.25	433.00
538.42	423.64
538.59	390.87
538.75	425.98
538.92	358.10
539.09	421.30
539.26	421.30
539.43	383.85
539.60	393.21
539.77	477.47
539.94	440.02
540.11	395.55
540.28	381.51
540.44	444.70
540.61	388.53
540.78	374.49
540.95	386.19
541.12	454.06
541.29	423.64
541.46	465.77
541.62	402.57
541.79	395.55
541.96	348.74
542.13	484.49
542.30	367.46
542.47	360.44
542.63	393.21
542.80	397.89
542.97	486.83
543.14	409.59
543.31	433.00
543.48	418.96
543.64	447.04
543.81	409.59
543.98	341.72
544.15	444.70
544.32	409.59
544.48	255.12
544.65	414.27
544.82	372.15
544.99	330.02
545.16	468.11
545.32	386.19
545.49	351.08
545.66	433.00
545.83	383.85
546.00	369.80
546.16	407.25
546.33	416.62
546.50	402.57
546.67	381.51
546.83	447.04
547.00	409.59
547.17	383.85
547.34	381.51
547.50	456.40
547.67	433.00
547.84	353.42
548.00	435.34
548.17	393.21
548.34	372.15
548.51	442.36
548.67	381.51
548.84	484.49
549.01	407.25
549.18	376.83
549.34	416.62
549.51	362.78
549.68	358.10
549.84	463.43
550.01	451.72
550.18	402.57
550.34	461.09
550.51	465.77
550.68	423.64
550.84	465.77
551.01	447.04
551.18	327.68
551.34	376.83
551.51	388.53
551.68	456.40
551.84	402.57
552.01	379.17
552.18	395.55
552.34	418.96
552.51	409.59
552.68	454.06
552.84	425.98
553.01	425.98
553.18	454.06
553.34	416.62
553.51	444.70
553.67	421.30
553.84	442.36
554.01	404.91
554.17	458.74
554.34	388.53
554.51	449.38
554.67	395.55
554.84	430.66
555.00	430.66
555.17	442.36
555.33	465.77
555.50	397.89
555.67	440.02
555.83	430.66
556.00	379.17
556.16	526.62
556.33	411.93
556.50	379.17
556.66	330.02
556.83	461.09
556.99	407.25
557.16	411.93
557.32	388.53
557.49	444.70
557.65	454.06
557.82	468.11
557.98	379.17
558.15	369.80
558.32	468.11
558.48	383.85
558.65	416.62
558.81	484.49
558.98	416.62
559.14	472.79
559.31	451.72
559.47	440.02
559.64	444.70
559.80	465.77
559.97	409.59
560.13	388.53
560.30	425.98
560.46	407.25
560.63	386.19
560.79	395.55
560.96	486.83
561.12	498.53
561.29	451.72
561.45	428.32
561.61	367.46
561.78	468.11
561.94	421.30
562.11	400.23
562.27	444.70
562.44	402.57
562.60	458.74
562.77	435.34
562.93	418.96
563.10	442.36
563.26	418.96
563.42	397.89
563.59	430.66
563.75	440.02
563.92	477.47
564.08	416.62
564.24	411.93
564.41	416.62
564.57	409.59
564.74	404.91
564.90	477.47
565.07	519.60
565.23	435.34
565.39	444.70
565.56	442.36
565.72	397.89
565.88	397.89
566.05	367.46
566.21	330.02
566.38	407.25
566.54	414.27
566.70	372.15
566.87	440.02
567.03	376.83
567.19	374.49
567.36	428.32
567.52	428.32
567.68	421.30
567.85	484.49
568.01	393.21
568.17	297.25
568.34	444.70
568.50	461.09
568.66	430.66
568.83	507.90
568.99	376.83
569.15	470.45
569.32	390.87
569.48	362.78
569.64	409.59
569.81	430.66
569.97	374.49
570.13	409.59
570.30	407.25
570.46	388.53
570.62	425.98
570.78	390.87
570.95	447.04
571.11	395.55
571.27	470.45
571.43	404.91
571.60	367.46
571.76	416.62
571.92	393.21
572.09	393.21
572.25	479.81
572.41	421.30
572.57	388.53
572.74	372.15
572.90	388.53
573.06	437.68
573.22	430.66
573.38	447.04
573.55	442.36
573.71	463.43
573.87	425.98
574.03	362.78
574.20	351.08
574.36	397.89
574.52	414.27
574.68	435.34
574.84	320.65
575.01	430.66
575.17	430.66
575.33	400.23
575.49	449.38
575.65	390.87
575.82	428.32
575.98	407.25
576.14	409.59
576.30	510.24
576.46	437.68
576.62	435.34
576.79	437.68
576.95	470.45
577.11	346.40
577.27	386.19
577.43	421.30
577.59	482.15
577.75	449.38
577.92	479.81
578.08	418.96
578.24	369.80
578.40	461.09
578.56	454.06
578.72	423.64
578.88	454.06
579.04	409.59
579.21	456.40
579.37	407.25
579.53	433.00
579.69	463.43
579.85	374.49
580.01	388.53
580.17	437.68
580.33	404.91
580.49	402.57
580.65	440.02
580.82	430.66
580.98	393.21
581.14	388.53
581.30	428.32
581.46	428.32
581.62	383.85
581.78	435.34
581.94	428.32
582.10	491.51
582.26	362.78
582.42	425.98
582.58	400.23
582.74	456.40
582.90	379.17
583.06	404.91
583.22	416.62
583.38	433.00
583.54	388.53
583.70	512.58
583.86	440.02
584.02	346.40
584.18	447.04
584.34	379.17
584.50	428.32
584.66	400.23
584.82	458.74
584.98	472.79
585.14	418.96
585.30	440.02
585.46	418.96
585.62	435.34
585.78	435.34
585.94	454.06
586.10	369.80
586.26	418.96
586.42	468.11
586.58	386.19
586.74	433.00
586.90	393.21
587.06	404.91
587.22	435.34
587.38	418.96
587.54	423.64
587.70	444.70
587.86	449.38
588.02	428.32
588.18	423.64
588.34	411.93
588.49	372.15
588.65	346.40
588.81	376.83
588.97	402.57
589.13	482.15
589.29	360.44
589.45	477.47
589.61	414.27
589.77	388.53
589.93	414.27
590.08	400.23
590.24	411.93
590.40	400.23
590.56	477.47
590.72	362.78
590.88	442.36
591.04	409.59
591.20	437.68
591.35	547.69
591.51	444.70
591.67	416.62
591.83	407.25
591.99	456.40
592.15	440.02
592.31	425.98
592.46	397.89
592.62	402.57
592.78	374.49
592.94	437.68
593.10	475.13
593.26	449.38
593.41	425.98
593.57	416.62
593.73	449.38
593.89	341.72
594.05	425.98
594.20	376.83
594.36	493.85
594.52	365.12
594.68	484.49
594.84	397.89
594.99	341.72
595.15	404.91
595.31	456.40
595.47	437.68
595.62	454.06
595.78	404.91
595.94	407.25
596.10	348.74
596.25	393.21
596.41	369.80
596.57	449.38
596.73	414.27
596.88	435.34
597.04	465.77
597.20	458.74
597.36	416.62
597.51	344.06
597.67	346.40
597.83	444.70
597.99	421.30
598.14	381.51
598.30	402.57
598.46	379.17
598.61	472.79
598.77	400.23
598.93	386.19
599.09	376.83
599.24	372.15
599.40	428.32
599.56	388.53
599.71	451.72
599.87	344.06
600.03	472.79
600.18	437.68
600.34	435.34
600.50	416.62
600.65	442.36
600.81	482.15
600.97	447.04
601.12	411.93
601.28	507.90
601.44	461.09
601.59	388.53
601.75	365.12
601.91	433.00
602.06	404.91
602.22	402.57
602.37	416.62
602.53	468.11
602.69	418.96
602.84	360.44
603.00	425.98
603.16	346.40
603.31	430.66
603.47	465.77
603.62	418.96
603.78	376.83
603.94	362.78
604.09	404.91
604.25	454.06
604.40	402.57
604.56	374.49
604.71	402.57
604.87	393.21
605.03	404.91
605.18	454.06
605.34	421.30
605.49	390.87
605.65	414.27
605.80	386.19
605.96	414.27
606.12	402.57
606.27	411.93
606.43	454.06
606.58	404.91
606.74	479.81
606.89	425.98
607.05	383.85
607.20	407.25
607.36	393.21
607.51	395.55
607.67	402.57
607.82	402.57
607.98	454.06
608.13	444.70
608.29	449.38
608.44	463.43
608.60	428.32
608.75	463.43
608.91	486.83
609.06	486.83
609.22	433.00
609.37	430.66
609.53	393.21
609.68	369.80
609.84	390.87
609.99	421.30
610.15	449.38
