SpectraSuite Data File
++++++++++++++++++++++++++++++++++++
Date: Fri Oct 25 12:10:25 EDT 2013
User: price-jones
Dark Spectrum Present: No
Reference Spectrum Present: No
Number of Sampled Component Spectra: 1
Spectrometers: USB2+H05261
Integration Time (usec): 100000 (USB2+H05261)
Spectra Averaged: 1 (USB2+H05261)
Boxcar Smoothing: 0 (USB2+H05261)
Correct for Electrical Dark: No (USB2+H05261)
Strobe/Lamp Enabled: No (USB2+H05261)
Correct for Detector Non-linearity: No (USB2+H05261)
Correct for Stray Light: No (USB2+H05261)
Number of Pixels in Processed Spectrum: 2048
>>>>>Begin Processed Spectral Data<<<<<
365.73	318.31
365.92	318.31
366.12	318.31
366.32	262.14
366.52	266.82
366.72	245.76
366.91	227.03
367.11	285.55
367.31	198.95
367.51	203.63
367.70	234.05
367.90	330.02
368.10	212.99
368.30	161.50
368.49	243.42
368.69	297.25
368.89	231.71
369.09	280.86
369.28	341.72
369.48	262.14
369.68	259.80
369.87	294.91
370.07	294.91
370.27	411.93
370.47	273.84
370.66	313.63
370.86	322.99
371.06	400.23
371.25	386.19
371.45	395.55
371.65	381.51
371.84	369.80
372.04	322.99
372.24	421.30
372.44	344.06
372.63	407.25
372.83	393.21
373.03	423.64
373.22	409.59
373.42	411.93
373.62	463.43
373.81	479.81
374.01	358.10
374.21	402.57
374.40	425.98
374.60	468.11
374.79	341.72
374.99	388.53
375.19	386.19
375.38	435.34
375.58	428.32
375.78	489.17
375.97	430.66
376.17	510.24
376.37	433.00
376.56	414.27
376.76	395.55
376.95	344.06
377.15	390.87
377.35	374.49
377.54	360.44
377.74	388.53
377.93	367.46
378.13	351.08
378.33	433.00
378.52	493.85
378.72	374.49
378.91	472.79
379.11	390.87
379.31	442.36
379.50	449.38
379.70	496.19
379.89	397.89
380.09	327.68
380.28	346.40
380.48	346.40
380.68	337.04
380.87	348.74
381.07	383.85
381.26	442.36
381.46	374.49
381.65	395.55
381.85	383.85
382.04	372.15
382.24	351.08
382.43	411.93
382.63	421.30
382.83	486.83
383.02	458.74
383.22	421.30
383.41	416.62
383.61	390.87
383.80	388.53
384.00	418.96
384.19	444.70
384.39	400.23
384.58	374.49
384.78	421.30
384.97	444.70
385.17	465.77
385.36	409.59
385.56	388.53
385.75	383.85
385.95	362.78
386.14	362.78
386.34	456.40
386.53	395.55
386.72	395.55
386.92	402.57
387.11	437.68
387.31	454.06
387.50	409.59
387.70	414.27
387.89	449.38
388.09	386.19
388.28	360.44
388.48	381.51
388.67	409.59
388.86	407.25
389.06	383.85
389.25	435.34
389.45	376.83
389.64	390.87
389.84	381.51
390.03	421.30
390.22	428.32
390.42	400.23
390.61	313.63
390.81	367.46
391.00	411.93
391.19	409.59
391.39	395.55
391.58	421.30
391.78	355.76
391.97	461.09
392.16	376.83
392.36	381.51
392.55	400.23
392.75	330.02
392.94	381.51
393.13	437.68
393.33	344.06
393.52	430.66
393.71	421.30
393.91	430.66
394.10	353.42
394.29	423.64
394.49	339.38
394.68	322.99
394.88	477.47
395.07	395.55
395.26	444.70
395.46	353.42
395.65	418.96
395.84	407.25
396.04	430.66
396.23	365.12
396.42	430.66
396.62	390.87
396.81	447.04
397.00	404.91
397.19	456.40
397.39	386.19
397.58	454.06
397.77	365.12
397.97	365.12
398.16	365.12
398.35	397.89
398.55	454.06
398.74	374.49
398.93	418.96
399.12	383.85
399.32	395.55
399.51	411.93
399.70	390.87
399.90	395.55
400.09	451.72
400.28	447.04
400.47	411.93
400.67	430.66
400.86	358.10
401.05	393.21
401.24	367.46
401.44	451.72
401.63	428.32
401.82	475.13
402.01	425.98
402.21	454.06
402.40	451.72
402.59	425.98
402.78	407.25
402.97	404.91
403.17	407.25
403.36	444.70
403.55	372.15
403.74	477.47
403.93	444.70
404.13	451.72
404.32	355.76
404.51	313.63
404.70	414.27
404.89	418.96
405.09	468.11
405.28	362.78
405.47	353.42
405.66	358.10
405.85	444.70
406.05	409.59
406.24	437.68
406.43	393.21
406.62	435.34
406.81	379.17
407.00	344.06
407.20	409.59
407.39	390.87
407.58	386.19
407.77	404.91
407.96	390.87
408.15	451.72
408.34	435.34
408.54	337.04
408.73	433.00
408.92	416.62
409.11	386.19
409.30	409.59
409.49	442.36
409.68	386.19
409.87	407.25
410.07	454.06
410.26	451.72
410.45	393.21
410.64	409.59
410.83	484.49
411.02	428.32
411.21	404.91
411.40	468.11
411.59	444.70
411.78	454.06
411.98	430.66
412.17	468.11
412.36	421.30
412.55	433.00
412.74	437.68
412.93	472.79
413.12	425.98
413.31	407.25
413.50	386.19
413.69	390.87
413.88	454.06
414.07	400.23
414.26	355.76
414.45	362.78
414.64	458.74
414.83	390.87
415.02	386.19
415.22	449.38
415.41	461.09
415.60	353.42
415.79	414.27
415.98	407.25
416.17	465.77
416.36	400.23
416.55	430.66
416.74	346.40
416.93	430.66
417.12	407.25
417.31	407.25
417.50	430.66
417.69	440.02
417.88	341.72
418.07	458.74
418.26	386.19
418.45	421.30
418.64	421.30
418.83	393.21
419.02	355.76
419.21	486.83
419.39	355.76
419.58	386.19
419.77	400.23
419.96	470.45
420.15	418.96
420.34	383.85
420.53	341.72
420.72	428.32
420.91	411.93
421.10	442.36
421.29	407.25
421.48	414.27
421.67	440.02
421.86	444.70
422.05	365.12
422.24	381.51
422.43	393.21
422.61	444.70
422.80	423.64
422.99	444.70
423.18	468.11
423.37	409.59
423.56	301.93
423.75	393.21
423.94	381.51
424.13	351.08
424.32	428.32
424.50	433.00
424.69	374.49
424.88	437.68
425.07	339.38
425.26	451.72
425.45	400.23
425.64	435.34
425.83	360.44
426.01	418.96
426.20	437.68
426.39	451.72
426.58	397.89
426.77	433.00
426.96	409.59
427.15	365.12
427.33	468.11
427.52	454.06
427.71	397.89
427.90	418.96
428.09	435.34
428.28	379.17
428.46	393.21
428.65	381.51
428.84	484.49
429.03	472.79
429.22	395.55
429.40	358.10
429.59	372.15
429.78	411.93
429.97	411.93
430.16	414.27
430.34	407.25
430.53	414.27
430.72	388.53
430.91	435.34
431.10	425.98
431.28	454.06
431.47	440.02
431.66	465.77
431.85	461.09
432.03	418.96
432.22	482.15
432.41	440.02
432.60	421.30
432.79	400.23
432.97	407.25
433.16	409.59
433.35	386.19
433.54	367.46
433.72	437.68
433.91	374.49
434.10	461.09
434.28	341.72
434.47	402.57
434.66	411.93
434.85	388.53
435.03	449.38
435.22	458.74
435.41	454.06
435.59	479.81
435.78	418.96
435.97	430.66
436.16	430.66
436.34	374.49
436.53	449.38
436.72	400.23
436.90	376.83
437.09	437.68
437.28	482.15
437.46	416.62
437.65	416.62
437.84	374.49
438.02	458.74
438.21	463.43
438.40	421.30
438.58	407.25
438.77	381.51
438.96	404.91
439.14	435.34
439.33	475.13
439.52	376.83
439.70	390.87
439.89	362.78
440.08	407.25
440.26	400.23
440.45	430.66
440.63	456.40
440.82	411.93
441.01	442.36
441.19	418.96
441.38	425.98
441.57	444.70
441.75	400.23
441.94	435.34
442.12	416.62
442.31	470.45
442.50	411.93
442.68	418.96
442.87	418.96
443.05	381.51
443.24	444.70
443.43	337.04
443.61	355.76
443.80	449.38
443.98	437.68
444.17	451.72
444.35	454.06
444.54	365.12
444.73	390.87
444.91	449.38
445.10	489.17
445.28	414.27
445.47	358.10
445.65	421.30
445.84	416.62
446.02	433.00
446.21	409.59
446.39	374.49
446.58	346.40
446.77	496.19
446.95	449.38
447.14	358.10
447.32	486.83
447.51	365.12
447.69	400.23
447.88	397.89
448.06	395.55
448.25	442.36
448.43	393.21
448.62	447.04
448.80	407.25
448.99	430.66
449.17	430.66
449.36	458.74
449.54	402.57
449.73	400.23
449.91	468.11
450.10	397.89
450.28	425.98
450.46	437.68
450.65	374.49
450.83	362.78
451.02	404.91
451.20	386.19
451.39	400.23
451.57	418.96
451.76	386.19
451.94	379.17
452.13	449.38
452.31	341.72
452.49	332.36
452.68	355.76
452.86	418.96
453.05	409.59
453.23	404.91
453.42	435.34
453.60	400.23
453.78	397.89
453.97	454.06
454.15	386.19
454.34	388.53
454.52	393.21
454.70	454.06
454.89	479.81
455.07	475.13
455.26	423.64
455.44	418.96
455.62	430.66
455.81	465.77
455.99	388.53
456.17	376.83
456.36	440.02
456.54	351.08
456.73	395.55
456.91	362.78
457.09	400.23
457.28	447.04
457.46	421.30
457.64	479.81
457.83	449.38
458.01	470.45
458.19	428.32
458.38	383.85
458.56	449.38
458.74	395.55
458.93	479.81
459.11	444.70
459.29	372.15
459.48	475.13
459.66	507.90
459.84	421.30
460.03	486.83
460.21	402.57
460.39	360.44
460.57	465.77
460.76	470.45
460.94	404.91
461.12	440.02
461.31	425.98
461.49	430.66
461.67	428.32
461.85	486.83
462.04	425.98
462.22	830.89
462.40	454.06
462.59	514.92
462.77	407.25
462.95	374.49
463.13	388.53
463.32	407.25
463.50	425.98
463.68	414.27
463.86	362.78
464.05	388.53
464.23	517.26
464.41	456.40
464.59	393.21
464.78	458.74
464.96	428.32
465.14	440.02
465.32	365.12
465.50	451.72
465.69	430.66
465.87	355.76
466.05	395.55
466.23	440.02
466.41	461.09
466.60	454.06
466.78	395.55
466.96	458.74
467.14	418.96
467.32	440.02
467.51	486.83
467.69	477.47
467.87	484.49
468.05	435.34
468.23	451.72
468.41	407.25
468.60	416.62
468.78	407.25
468.96	430.66
469.14	416.62
469.32	292.57
469.50	470.45
469.69	423.64
469.87	425.98
470.05	388.53
470.23	437.68
470.41	367.46
470.59	416.62
470.77	425.98
470.95	447.04
471.14	444.70
471.32	442.36
471.50	374.49
471.68	362.78
471.86	388.53
472.04	425.98
472.22	484.49
472.40	341.72
472.58	444.70
472.77	449.38
472.95	425.98
473.13	447.04
473.31	479.81
473.49	337.04
473.67	404.91
473.85	416.62
474.03	416.62
474.21	393.21
474.39	409.59
474.57	447.04
474.75	374.49
474.93	409.59
475.12	402.57
475.30	447.04
475.48	433.00
475.66	393.21
475.84	414.27
476.02	388.53
476.20	416.62
476.38	390.87
476.56	489.17
476.74	393.21
476.92	416.62
477.10	461.09
477.28	472.79
477.46	404.91
477.64	383.85
477.82	437.68
478.00	407.25
478.18	451.72
478.36	482.15
478.54	411.93
478.72	381.51
478.90	414.27
479.08	383.85
479.26	491.51
479.44	404.91
479.62	381.51
479.80	465.77
479.98	430.66
480.16	351.08
480.34	461.09
480.52	418.96
480.70	404.91
480.88	388.53
481.06	393.21
481.24	423.64
481.41	395.55
481.59	458.74
481.77	451.72
481.95	386.19
482.13	444.70
482.31	400.23
482.49	437.68
482.67	383.85
482.85	468.11
483.03	423.64
483.21	470.45
483.39	372.15
483.57	334.70
483.74	470.45
483.92	360.44
484.10	407.25
484.28	463.43
484.46	463.43
484.64	461.09
484.82	447.04
485.00	353.42
485.18	395.55
485.35	416.62
485.53	404.91
485.71	468.11
485.89	416.62
486.07	386.19
486.25	470.45
486.43	386.19
486.61	397.89
486.78	411.93
486.96	447.04
487.14	528.96
487.32	442.36
487.50	437.68
487.68	407.25
487.85	355.76
488.03	407.25
488.21	498.53
488.39	402.57
488.57	409.59
488.75	421.30
488.92	491.51
489.10	449.38
489.28	451.72
489.46	339.38
489.64	428.32
489.81	393.21
489.99	442.36
490.17	360.44
490.35	477.47
490.53	442.36
490.70	461.09
490.88	397.89
491.06	390.87
491.24	411.93
491.41	496.19
491.59	388.53
491.77	435.34
491.95	418.96
492.13	451.72
492.30	451.72
492.48	433.00
492.66	421.30
492.84	367.46
493.01	414.27
493.19	433.00
493.37	456.40
493.54	416.62
493.72	458.74
493.90	393.21
494.08	395.55
494.25	456.40
494.43	430.66
494.61	463.43
494.79	397.89
494.96	372.15
495.14	468.11
495.32	411.93
495.49	447.04
495.67	414.27
495.85	500.87
496.02	414.27
496.20	400.23
496.38	442.36
496.55	414.27
496.73	440.02
496.91	440.02
497.09	465.77
497.26	416.62
497.44	416.62
497.62	418.96
497.79	393.21
497.97	465.77
498.14	458.74
498.32	442.36
498.50	379.17
498.67	407.25
498.85	388.53
499.03	376.83
499.20	421.30
499.38	407.25
499.56	407.25
499.73	421.30
499.91	454.06
500.08	418.96
500.26	442.36
500.44	409.59
500.61	416.62
500.79	376.83
500.97	416.62
501.14	461.09
501.32	418.96
501.49	411.93
501.67	418.96
501.84	461.09
502.02	449.38
502.20	367.46
502.37	374.49
502.55	400.23
502.72	423.64
502.90	449.38
503.07	400.23
503.25	484.49
503.43	475.13
503.60	367.46
503.78	479.81
503.95	327.68
504.13	409.59
504.30	458.74
504.48	454.06
504.65	437.68
504.83	454.06
505.01	425.98
505.18	390.87
505.36	346.40
505.53	430.66
505.71	320.65
505.88	397.89
506.06	437.68
506.23	390.87
506.41	465.77
506.58	379.17
506.76	440.02
506.93	418.96
507.11	393.21
507.28	435.34
507.46	376.83
507.63	423.64
507.81	379.17
507.98	472.79
508.16	390.87
508.33	404.91
508.50	395.55
508.68	414.27
508.85	440.02
509.03	365.12
509.20	369.80
509.38	423.64
509.55	433.00
509.73	411.93
509.90	465.77
510.08	404.91
510.25	383.85
510.42	425.98
510.60	393.21
510.77	402.57
510.95	402.57
511.12	402.57
511.30	393.21
511.47	447.04
511.64	465.77
511.82	393.21
511.99	383.85
512.17	351.08
512.34	428.32
512.51	418.96
512.69	414.27
512.86	440.02
513.04	388.53
513.21	386.19
513.38	402.57
513.56	428.32
513.73	463.43
513.90	393.21
514.08	414.27
514.25	372.15
514.43	463.43
514.60	411.93
514.77	360.44
514.95	421.30
515.12	386.19
515.29	440.02
515.47	360.44
515.64	388.53
515.81	402.57
515.99	447.04
516.16	451.72
516.33	447.04
516.51	416.62
516.68	418.96
516.85	383.85
517.03	388.53
517.20	423.64
517.37	362.78
517.54	482.15
517.72	376.83
517.89	367.46
518.06	456.40
518.24	374.49
518.41	421.30
518.58	468.11
518.75	379.17
518.93	365.12
519.10	421.30
519.27	428.32
519.45	416.62
519.62	379.17
519.79	425.98
519.96	447.04
520.14	451.72
520.31	475.13
520.48	393.21
520.65	360.44
520.83	402.57
521.00	397.89
521.17	435.34
521.34	414.27
521.52	381.51
521.69	423.64
521.86	388.53
522.03	545.34
522.20	472.79
522.38	374.49
522.55	444.70
522.72	418.96
522.89	444.70
523.07	409.59
523.24	428.32
523.41	393.21
523.58	407.25
523.75	390.87
523.92	367.46
524.10	379.17
524.27	400.23
524.44	458.74
524.61	440.02
524.78	383.85
524.96	463.43
525.13	386.19
525.30	437.68
525.47	444.70
525.64	395.55
525.81	409.59
525.98	411.93
526.16	425.98
526.33	409.59
526.50	393.21
526.67	388.53
526.84	411.93
527.01	318.31
527.18	463.43
527.36	383.85
527.53	386.19
527.70	454.06
527.87	353.42
528.04	437.68
528.21	372.15
528.38	390.87
528.55	484.49
528.72	386.19
528.89	470.45
529.07	404.91
529.24	433.00
529.41	411.93
529.58	458.74
529.75	437.68
529.92	435.34
530.09	409.59
530.26	463.43
530.43	414.27
530.60	421.30
530.77	416.62
530.94	449.38
531.11	400.23
531.28	400.23
531.46	475.13
531.63	425.98
531.80	416.62
531.97	423.64
532.14	477.47
532.31	442.36
532.48	437.68
532.65	365.12
532.82	393.21
532.99	414.27
533.16	393.21
533.33	388.53
533.50	428.32
533.67	433.00
533.84	451.72
534.01	428.32
534.18	381.51
534.35	348.74
534.52	500.87
534.69	369.80
534.86	383.85
535.03	393.21
535.20	400.23
535.37	409.59
535.54	451.72
535.71	428.32
535.88	447.04
536.05	458.74
536.22	456.40
536.38	451.72
536.55	402.57
536.72	425.98
536.89	404.91
537.06	437.68
537.23	477.47
537.40	433.00
537.57	442.36
537.74	479.81
537.91	402.57
538.08	400.23
538.25	465.77
538.42	470.45
538.59	514.92
538.75	444.70
538.92	400.23
539.09	334.70
539.26	407.25
539.43	442.36
539.60	341.72
539.77	428.32
539.94	416.62
540.11	393.21
540.28	430.66
540.44	444.70
540.61	386.19
540.78	454.06
540.95	397.89
541.12	383.85
541.29	418.96
541.46	390.87
541.62	402.57
541.79	388.53
541.96	404.91
542.13	444.70
542.30	400.23
542.47	369.80
542.63	393.21
542.80	423.64
542.97	416.62
543.14	437.68
543.31	360.44
543.48	404.91
543.64	465.77
543.81	397.89
543.98	400.23
544.15	425.98
544.32	351.08
544.48	437.68
544.65	440.02
544.82	423.64
544.99	458.74
545.16	404.91
545.32	400.23
545.49	407.25
545.66	456.40
545.83	372.15
546.00	428.32
546.16	451.72
546.33	428.32
546.50	435.34
546.67	433.00
546.83	423.64
547.00	416.62
547.17	468.11
547.34	486.83
547.50	421.30
547.67	440.02
547.84	421.30
548.00	470.45
548.17	367.46
548.34	463.43
548.51	430.66
548.67	381.51
548.84	397.89
549.01	393.21
549.18	456.40
549.34	395.55
549.51	402.57
549.68	517.26
549.84	491.51
550.01	416.62
550.18	486.83
550.34	510.24
550.51	435.34
550.68	491.51
550.84	421.30
551.01	451.72
551.18	430.66
551.34	383.85
551.51	447.04
551.68	444.70
551.84	416.62
552.01	411.93
552.18	435.34
552.34	374.49
552.51	468.11
552.68	421.30
552.84	404.91
553.01	440.02
553.18	451.72
553.34	437.68
553.51	423.64
553.67	437.68
553.84	416.62
554.01	442.36
554.17	442.36
554.34	348.74
554.51	477.47
554.67	447.04
554.84	444.70
555.00	397.89
555.17	435.34
555.33	411.93
555.50	458.74
555.67	341.72
555.83	397.89
556.00	447.04
556.16	615.56
556.33	393.21
556.50	365.12
556.66	442.36
556.83	458.74
556.99	355.76
557.16	484.49
557.32	418.96
557.49	334.70
557.65	379.17
557.82	393.21
557.98	362.78
558.15	458.74
558.32	430.66
558.48	376.83
558.65	421.30
558.81	433.00
558.98	395.55
559.14	463.43
559.31	437.68
559.47	444.70
559.64	444.70
559.80	390.87
559.97	475.13
560.13	379.17
560.30	428.32
560.46	421.30
560.63	416.62
560.79	388.53
560.96	442.36
561.12	435.34
561.29	503.22
561.45	428.32
561.61	407.25
561.78	428.32
561.94	423.64
562.11	442.36
562.27	435.34
562.44	416.62
562.60	435.34
562.77	465.77
562.93	468.11
563.10	409.59
563.26	369.80
563.42	421.30
563.59	440.02
563.75	379.17
563.92	372.15
564.08	376.83
564.24	435.34
564.41	505.56
564.57	409.59
564.74	379.17
564.90	388.53
565.07	416.62
565.23	423.64
565.39	437.68
565.56	470.45
565.72	358.10
565.88	386.19
566.05	341.72
566.21	367.46
566.38	477.47
566.54	444.70
566.70	428.32
566.87	493.85
567.03	425.98
567.19	425.98
567.36	463.43
567.52	407.25
567.68	418.96
567.85	477.47
568.01	498.53
568.17	374.49
568.34	407.25
568.50	402.57
568.66	416.62
568.83	449.38
568.99	428.32
569.15	475.13
569.32	425.98
569.48	393.21
569.64	393.21
569.81	440.02
569.97	423.64
570.13	369.80
570.30	440.02
570.46	463.43
570.62	369.80
570.78	430.66
570.95	351.08
571.11	388.53
571.27	437.68
571.43	386.19
571.60	381.51
571.76	479.81
571.92	360.44
572.09	421.30
572.25	491.51
572.41	390.87
572.57	407.25
572.74	365.12
572.90	461.09
573.06	475.13
573.22	425.98
573.38	325.33
573.55	411.93
573.71	451.72
573.87	414.27
574.03	386.19
574.20	367.46
574.36	372.15
574.52	449.38
574.68	458.74
574.84	442.36
575.01	376.83
575.17	458.74
575.33	365.12
575.49	430.66
575.65	444.70
575.82	409.59
575.98	425.98
576.14	409.59
576.30	472.79
576.46	447.04
576.62	383.85
576.79	367.46
576.95	425.98
577.11	414.27
577.27	334.70
577.43	437.68
577.59	482.15
577.75	428.32
577.92	430.66
578.08	423.64
578.24	409.59
578.40	456.40
578.56	465.77
578.72	458.74
578.88	458.74
579.04	489.17
579.21	444.70
579.37	325.33
579.53	447.04
579.69	477.47
579.85	472.79
580.01	414.27
580.17	416.62
580.33	381.51
580.49	435.34
580.65	447.04
580.82	416.62
580.98	386.19
581.14	437.68
581.30	423.64
581.46	433.00
581.62	430.66
581.78	365.12
581.94	404.91
582.10	437.68
582.26	411.93
582.42	416.62
582.58	435.34
582.74	320.65
582.90	402.57
583.06	367.46
583.22	482.15
583.38	442.36
583.54	454.06
583.70	447.04
583.86	433.00
584.02	472.79
584.18	421.30
584.34	430.66
584.50	376.83
584.66	433.00
584.82	360.44
584.98	397.89
585.14	372.15
585.30	433.00
585.46	414.27
585.62	379.17
585.78	428.32
585.94	475.13
586.10	383.85
586.26	388.53
586.42	386.19
586.58	489.17
586.74	447.04
586.90	367.46
587.06	407.25
587.22	433.00
587.38	456.40
587.54	395.55
587.70	418.96
587.86	414.27
588.02	402.57
588.18	428.32
588.34	470.45
588.49	404.91
588.65	414.27
588.81	388.53
588.97	362.78
589.13	423.64
589.29	402.57
589.45	472.79
589.61	484.49
589.77	451.72
589.93	409.59
590.08	414.27
590.24	402.57
590.40	393.21
590.56	409.59
590.72	440.02
590.88	369.80
591.04	421.30
591.20	414.27
591.35	437.68
591.51	479.81
591.67	442.36
591.83	400.23
591.99	414.27
592.15	444.70
592.31	482.15
592.46	400.23
592.62	456.40
592.78	461.09
592.94	472.79
593.10	440.02
593.26	395.55
593.41	390.87
593.57	463.43
593.73	444.70
593.89	458.74
594.05	372.15
594.20	388.53
594.36	503.22
594.52	393.21
594.68	395.55
594.84	447.04
594.99	454.06
595.15	362.78
595.31	479.81
595.47	440.02
595.62	428.32
595.78	477.47
595.94	442.36
596.10	409.59
596.25	383.85
596.41	482.15
596.57	435.34
596.73	482.15
596.88	393.21
597.04	414.27
597.20	367.46
597.36	374.49
597.51	390.87
597.67	451.72
597.83	390.87
597.99	433.00
598.14	428.32
598.30	416.62
598.46	416.62
598.61	463.43
598.77	407.25
598.93	447.04
599.09	435.34
599.24	451.72
599.40	402.57
599.56	308.95
599.71	409.59
599.87	379.17
600.03	421.30
600.18	433.00
600.34	435.34
600.50	421.30
600.65	320.65
600.81	428.32
600.97	442.36
601.12	479.81
601.28	390.87
601.44	433.00
601.59	407.25
601.75	465.77
601.91	376.83
602.06	395.55
602.22	496.19
602.37	454.06
602.53	430.66
602.69	367.46
602.84	358.10
603.00	418.96
603.16	423.64
603.31	461.09
603.47	414.27
603.62	374.49
603.78	407.25
603.94	435.34
604.09	409.59
604.25	435.34
604.40	437.68
604.56	390.87
604.71	451.72
604.87	374.49
605.03	346.40
605.18	409.59
605.34	463.43
605.49	416.62
605.65	418.96
605.80	369.80
605.96	334.70
606.12	409.59
606.27	461.09
606.43	435.34
606.58	451.72
606.74	463.43
606.89	390.87
607.05	440.02
607.20	360.44
607.36	479.81
607.51	379.17
607.67	388.53
607.82	322.99
607.98	442.36
608.13	416.62
608.29	437.68
608.44	482.15
608.60	383.85
608.75	428.32
608.91	498.53
609.06	423.64
609.22	404.91
609.37	418.96
609.53	402.57
609.68	411.93
609.84	449.38
609.99	337.04
610.15	418.96
