SpectraSuite Data File
++++++++++++++++++++++++++++++++++++
Date: Fri Oct 25 12:10:30 EDT 2013
User: price-jones
Dark Spectrum Present: No
Reference Spectrum Present: No
Number of Sampled Component Spectra: 1
Spectrometers: USB2+H05261
Integration Time (usec): 100000 (USB2+H05261)
Spectra Averaged: 1 (USB2+H05261)
Boxcar Smoothing: 0 (USB2+H05261)
Correct for Electrical Dark: No (USB2+H05261)
Strobe/Lamp Enabled: No (USB2+H05261)
Correct for Detector Non-linearity: No (USB2+H05261)
Correct for Stray Light: No (USB2+H05261)
Number of Pixels in Processed Spectrum: 2048
>>>>>Begin Processed Spectral Data<<<<<
365.73	341.72
365.92	341.72
366.12	341.72
366.32	304.27
366.52	220.01
366.72	283.20
366.91	212.99
367.11	177.88
367.31	161.50
367.51	248.10
367.70	210.65
367.90	229.37
368.10	294.91
368.30	257.46
368.49	276.18
368.69	287.89
368.89	222.35
369.09	322.99
369.28	264.48
369.48	215.33
369.68	276.18
369.87	292.57
370.07	308.95
370.27	353.42
370.47	264.48
370.66	315.97
370.86	315.97
371.06	360.44
371.25	369.80
371.45	379.17
371.65	390.87
371.84	388.53
372.04	423.64
372.24	423.64
372.44	388.53
372.63	400.23
372.83	379.17
373.03	383.85
373.22	367.46
373.42	390.87
373.62	386.19
373.81	365.12
374.01	383.85
374.21	425.98
374.40	491.51
374.60	435.34
374.79	425.98
374.99	468.11
375.19	374.49
375.38	393.21
375.58	390.87
375.78	404.91
375.97	465.77
376.17	425.98
376.37	447.04
376.56	390.87
376.76	409.59
376.95	423.64
377.15	437.68
377.35	411.93
377.54	421.30
377.74	423.64
377.93	367.46
378.13	390.87
378.33	479.81
378.52	381.51
378.72	402.57
378.91	430.66
379.11	456.40
379.31	430.66
379.50	397.89
379.70	407.25
379.89	447.04
380.09	388.53
380.28	341.72
380.48	428.32
380.68	369.80
380.87	397.89
381.07	400.23
381.26	425.98
381.46	365.12
381.65	402.57
381.85	325.33
382.04	372.15
382.24	479.81
382.43	435.34
382.63	390.87
382.83	339.38
383.02	411.93
383.22	395.55
383.41	433.00
383.61	400.23
383.80	418.96
384.00	379.17
384.19	423.64
384.39	386.19
384.58	421.30
384.78	451.72
384.97	454.06
385.17	435.34
385.36	400.23
385.56	425.98
385.75	423.64
385.95	395.55
386.14	383.85
386.34	440.02
386.53	461.09
386.72	421.30
386.92	397.89
387.11	360.44
387.31	428.32
387.50	374.49
387.70	404.91
387.89	423.64
388.09	479.81
388.28	386.19
388.48	407.25
388.67	435.34
388.86	428.32
389.06	423.64
389.25	390.87
389.45	409.59
389.64	404.91
389.84	402.57
390.03	386.19
390.22	381.51
390.42	414.27
390.61	374.49
390.81	407.25
391.00	409.59
391.19	442.36
391.39	449.38
391.58	428.32
391.78	428.32
391.97	411.93
392.16	421.30
392.36	428.32
392.55	463.43
392.75	444.70
392.94	395.55
393.13	409.59
393.33	344.06
393.52	465.77
393.71	393.21
393.91	428.32
394.10	393.21
394.29	423.64
394.49	362.78
394.68	397.89
394.88	461.09
395.07	346.40
395.26	416.62
395.46	461.09
395.65	404.91
395.84	407.25
396.04	386.19
396.23	346.40
396.42	416.62
396.62	428.32
396.81	444.70
397.00	404.91
397.19	421.30
397.39	374.49
397.58	461.09
397.77	341.72
397.97	435.34
398.16	341.72
398.35	407.25
398.55	433.00
398.74	472.79
398.93	440.02
399.12	386.19
399.32	468.11
399.51	365.12
399.70	421.30
399.90	428.32
400.09	386.19
400.28	463.43
400.47	390.87
400.67	437.68
400.86	414.27
401.05	491.51
401.24	458.74
401.44	447.04
401.63	465.77
401.82	486.83
402.01	351.08
402.21	407.25
402.40	388.53
402.59	362.78
402.78	390.87
402.97	360.44
403.17	367.46
403.36	397.89
403.55	423.64
403.74	440.02
403.93	430.66
404.13	475.13
404.32	379.17
404.51	397.89
404.70	379.17
404.89	393.21
405.09	475.13
405.28	458.74
405.47	435.34
405.66	468.11
405.85	463.43
406.05	395.55
406.24	442.36
406.43	386.19
406.62	400.23
406.81	500.87
407.00	407.25
407.20	409.59
407.39	400.23
407.58	348.74
407.77	379.17
407.96	524.28
408.15	479.81
408.34	440.02
408.54	360.44
408.73	351.08
408.92	351.08
409.11	348.74
409.30	383.85
409.49	299.59
409.68	400.23
409.87	374.49
410.07	414.27
410.26	437.68
410.45	402.57
410.64	449.38
410.83	383.85
411.02	365.12
411.21	411.93
411.40	411.93
411.59	428.32
411.78	390.87
411.98	365.12
412.17	374.49
412.36	383.85
412.55	402.57
412.74	423.64
412.93	430.66
413.12	360.44
413.31	451.72
413.50	461.09
413.69	400.23
413.88	395.55
414.07	376.83
414.26	304.27
414.45	334.70
414.64	423.64
414.83	397.89
415.02	493.85
415.22	437.68
415.41	444.70
415.60	330.02
415.79	409.59
415.98	355.76
416.17	400.23
416.36	470.45
416.55	379.17
416.74	402.57
416.93	425.98
417.12	381.51
417.31	407.25
417.50	374.49
417.69	465.77
417.88	463.43
418.07	383.85
418.26	416.62
418.45	440.02
418.64	505.56
418.83	365.12
419.02	346.40
419.21	437.68
419.39	315.97
419.58	334.70
419.77	400.23
419.96	416.62
420.15	437.68
420.34	411.93
420.53	407.25
420.72	414.27
420.91	365.12
421.10	390.87
421.29	423.64
421.48	442.36
421.67	423.64
421.86	437.68
422.05	369.80
422.24	395.55
422.43	442.36
422.61	397.89
422.80	383.85
422.99	496.19
423.18	444.70
423.37	421.30
423.56	477.47
423.75	397.89
423.94	390.87
424.13	437.68
424.32	400.23
424.50	372.15
424.69	379.17
424.88	484.49
425.07	454.06
425.26	346.40
425.45	376.83
425.64	376.83
425.83	390.87
426.01	416.62
426.20	395.55
426.39	428.32
426.58	365.12
426.77	351.08
426.96	395.55
427.15	451.72
427.33	421.30
427.52	465.77
427.71	433.00
427.90	428.32
428.09	430.66
428.28	374.49
428.46	360.44
428.65	463.43
428.84	402.57
429.03	486.83
429.22	355.76
429.40	344.06
429.59	299.59
429.78	376.83
429.97	369.80
430.16	376.83
430.34	423.64
430.53	433.00
430.72	379.17
430.91	433.00
431.10	437.68
431.28	425.98
431.47	425.98
431.66	428.32
431.85	376.83
432.03	362.78
432.22	456.40
432.41	440.02
432.60	491.51
432.79	458.74
432.97	447.04
433.16	428.32
433.35	404.91
433.54	379.17
433.72	414.27
433.91	355.76
434.10	383.85
434.28	475.13
434.47	414.27
434.66	440.02
434.85	411.93
435.03	423.64
435.22	351.08
435.41	353.42
435.59	442.36
435.78	440.02
435.97	365.12
436.16	411.93
436.34	428.32
436.53	383.85
436.72	440.02
436.90	461.09
437.09	458.74
437.28	442.36
437.46	330.02
437.65	435.34
437.84	430.66
438.02	423.64
438.21	435.34
438.40	367.46
438.58	449.38
438.77	454.06
438.96	393.21
439.14	414.27
439.33	402.57
439.52	360.44
439.70	442.36
439.89	386.19
440.08	409.59
440.26	409.59
440.45	393.21
440.63	482.15
440.82	472.79
441.01	489.17
441.19	463.43
441.38	444.70
441.57	355.76
441.75	479.81
441.94	425.98
442.12	425.98
442.31	353.42
442.50	400.23
442.68	397.89
442.87	425.98
443.05	409.59
443.24	383.85
443.43	433.00
443.61	423.64
443.80	390.87
443.98	393.21
444.17	468.11
444.35	414.27
444.54	425.98
444.73	383.85
444.91	383.85
445.10	428.32
445.28	395.55
445.47	397.89
445.65	346.40
445.84	374.49
446.02	428.32
446.21	418.96
446.39	397.89
446.58	400.23
446.77	411.93
446.95	435.34
447.14	440.02
447.32	454.06
447.51	369.80
447.69	442.36
447.88	428.32
448.06	409.59
448.25	397.89
448.43	351.08
448.62	334.70
448.80	390.87
448.99	414.27
449.17	433.00
449.36	414.27
449.54	400.23
449.73	383.85
449.91	341.72
450.10	379.17
450.28	407.25
450.46	425.98
450.65	407.25
450.83	334.70
451.02	447.04
451.20	428.32
451.39	369.80
451.57	372.15
451.76	360.44
451.94	423.64
452.13	435.34
452.31	440.02
452.49	472.79
452.68	458.74
452.86	454.06
453.05	421.30
453.23	440.02
453.42	369.80
453.60	414.27
453.78	423.64
453.97	386.19
454.15	433.00
454.34	409.59
454.52	351.08
454.70	395.55
454.89	430.66
455.07	451.72
455.26	386.19
455.44	395.55
455.62	372.15
455.81	463.43
455.99	404.91
456.17	451.72
456.36	374.49
456.54	390.87
456.73	409.59
456.91	369.80
457.09	454.06
457.28	404.91
457.46	346.40
457.64	341.72
457.83	458.74
458.01	433.00
458.19	381.51
458.38	383.85
458.56	320.65
458.74	428.32
458.93	407.25
459.11	449.38
459.29	404.91
459.48	428.32
459.66	477.47
459.84	386.19
460.03	456.40
460.21	437.68
460.39	475.13
460.57	379.17
460.76	425.98
460.94	402.57
461.12	484.49
461.31	425.98
461.49	440.02
461.67	470.45
461.85	409.59
462.04	421.30
462.22	753.65
462.40	449.38
462.59	482.15
462.77	468.11
462.95	383.85
463.13	416.62
463.32	411.93
463.50	421.30
463.68	404.91
463.86	400.23
464.05	416.62
464.23	454.06
464.41	447.04
464.59	414.27
464.78	344.06
464.96	358.10
465.14	397.89
465.32	444.70
465.50	437.68
465.69	437.68
465.87	390.87
466.05	379.17
466.23	376.83
466.41	435.34
466.60	400.23
466.78	365.12
466.96	437.68
467.14	421.30
467.32	407.25
467.51	414.27
467.69	386.19
467.87	454.06
468.05	348.74
468.23	477.47
468.41	456.40
468.60	409.59
468.78	498.53
468.96	409.59
469.14	409.59
469.32	404.91
469.50	395.55
469.69	390.87
469.87	409.59
470.05	423.64
470.23	362.78
470.41	381.51
470.59	430.66
470.77	430.66
470.95	416.62
471.14	430.66
471.32	353.42
471.50	425.98
471.68	355.76
471.86	425.98
472.04	369.80
472.22	400.23
472.40	390.87
472.58	435.34
472.77	393.21
472.95	365.12
473.13	425.98
473.31	430.66
473.49	423.64
473.67	351.08
473.85	362.78
474.03	397.89
474.21	437.68
474.39	414.27
474.57	458.74
474.75	428.32
474.93	404.91
475.12	411.93
475.30	376.83
475.48	465.77
475.66	437.68
475.84	372.15
476.02	388.53
476.20	470.45
476.38	416.62
476.56	484.49
476.74	421.30
476.92	402.57
477.10	395.55
477.28	423.64
477.46	416.62
477.64	430.66
477.82	379.17
478.00	416.62
478.18	365.12
478.36	402.57
478.54	421.30
478.72	465.77
478.90	379.17
479.08	379.17
479.26	423.64
479.44	444.70
479.62	351.08
479.80	423.64
479.98	440.02
480.16	330.02
480.34	458.74
480.52	440.02
480.70	421.30
480.88	397.89
481.06	358.10
481.24	402.57
481.41	447.04
481.59	430.66
481.77	463.43
481.95	383.85
482.13	444.70
482.31	390.87
482.49	430.66
482.67	369.80
482.85	456.40
483.03	437.68
483.21	414.27
483.39	514.92
483.57	484.49
483.74	437.68
483.92	421.30
484.10	358.10
484.28	409.59
484.46	475.13
484.64	344.06
484.82	418.96
485.00	402.57
485.18	421.30
485.35	404.91
485.53	383.85
485.71	404.91
485.89	397.89
486.07	409.59
486.25	442.36
486.43	486.83
486.61	386.19
486.78	351.08
486.96	416.62
487.14	353.42
487.32	353.42
487.50	477.47
487.68	402.57
487.85	376.83
488.03	421.30
488.21	489.17
488.39	447.04
488.57	402.57
488.75	447.04
488.92	479.81
489.10	437.68
489.28	437.68
489.46	477.47
489.64	430.66
489.81	386.19
489.99	430.66
490.17	407.25
490.35	418.96
490.53	369.80
490.70	374.49
490.88	461.09
491.06	383.85
491.24	421.30
491.41	421.30
491.59	376.83
491.77	433.00
491.95	421.30
492.13	388.53
492.30	381.51
492.48	465.77
492.66	484.49
492.84	421.30
493.01	437.68
493.19	425.98
493.37	454.06
493.54	475.13
493.72	400.23
493.90	388.53
494.08	440.02
494.25	435.34
494.43	486.83
494.61	358.10
494.79	428.32
494.96	395.55
495.14	435.34
495.32	365.12
495.49	440.02
495.67	390.87
495.85	454.06
496.02	442.36
496.20	339.38
496.38	421.30
496.55	386.19
496.73	458.74
496.91	383.85
497.09	358.10
497.26	435.34
497.44	393.21
497.62	411.93
497.79	475.13
497.97	454.06
498.14	390.87
498.32	360.44
498.50	397.89
498.67	395.55
498.85	416.62
499.03	414.27
499.20	369.80
499.38	407.25
499.56	397.89
499.73	381.51
499.91	411.93
500.08	442.36
500.26	458.74
500.44	390.87
500.61	390.87
500.79	463.43
500.97	486.83
501.14	468.11
501.32	440.02
501.49	409.59
501.67	397.89
501.84	444.70
502.02	395.55
502.20	395.55
502.37	304.27
502.55	344.06
502.72	369.80
502.90	383.85
503.07	395.55
503.25	369.80
503.43	395.55
503.60	397.89
503.78	362.78
503.95	421.30
504.13	383.85
504.30	407.25
504.48	409.59
504.65	454.06
504.83	404.91
505.01	461.09
505.18	428.32
505.36	362.78
505.53	388.53
505.71	414.27
505.88	444.70
506.06	358.10
506.23	418.96
506.41	372.15
506.58	430.66
506.76	407.25
506.93	463.43
507.11	395.55
507.28	369.80
507.46	374.49
507.63	365.12
507.81	423.64
507.98	411.93
508.16	365.12
508.33	400.23
508.50	449.38
508.68	376.83
508.85	381.51
509.03	430.66
509.20	355.76
509.38	383.85
509.55	496.19
509.73	437.68
509.90	461.09
510.08	315.97
510.25	397.89
510.42	374.49
510.60	362.78
510.77	411.93
510.95	491.51
511.12	402.57
511.30	400.23
511.47	461.09
511.64	458.74
511.82	430.66
511.99	423.64
512.17	346.40
512.34	374.49
512.51	351.08
512.69	388.53
512.86	421.30
513.04	416.62
513.21	416.62
513.38	440.02
513.56	395.55
513.73	395.55
513.90	402.57
514.08	388.53
514.25	393.21
514.43	407.25
514.60	402.57
514.77	411.93
514.95	393.21
515.12	381.51
515.29	437.68
515.47	386.19
515.64	486.83
515.81	369.80
515.99	444.70
516.16	461.09
516.33	428.32
516.51	449.38
516.68	430.66
516.85	458.74
517.03	397.89
517.20	390.87
517.37	442.36
517.54	454.06
517.72	390.87
517.89	409.59
518.06	505.56
518.24	489.17
518.41	411.93
518.58	470.45
518.75	379.17
518.93	369.80
519.10	468.11
519.27	383.85
519.45	414.27
519.62	376.83
519.79	433.00
519.96	411.93
520.14	435.34
520.31	468.11
520.48	449.38
520.65	442.36
520.83	433.00
521.00	360.44
521.17	407.25
521.34	444.70
521.52	437.68
521.69	404.91
521.86	486.83
522.03	411.93
522.20	383.85
522.38	442.36
522.55	484.49
522.72	393.21
522.89	477.47
523.07	442.36
523.24	458.74
523.41	360.44
523.58	461.09
523.75	423.64
523.92	468.11
524.10	376.83
524.27	365.12
524.44	376.83
524.61	374.49
524.78	416.62
524.96	447.04
525.13	414.27
525.30	362.78
525.47	374.49
525.64	386.19
525.81	411.93
525.98	414.27
526.16	418.96
526.33	355.76
526.50	386.19
526.67	423.64
526.84	433.00
527.01	393.21
527.18	440.02
527.36	414.27
527.53	416.62
527.70	358.10
527.87	418.96
528.04	423.64
528.21	421.30
528.38	456.40
528.55	360.44
528.72	482.15
528.89	407.25
529.07	388.53
529.24	418.96
529.41	465.77
529.58	505.56
529.75	435.34
529.92	416.62
530.09	430.66
530.26	428.32
530.43	454.06
530.60	411.93
530.77	362.78
530.94	355.76
531.11	381.51
531.28	444.70
531.46	402.57
531.63	447.04
531.80	423.64
531.97	402.57
532.14	355.76
532.31	409.59
532.48	433.00
532.65	404.91
532.82	400.23
532.99	407.25
533.16	423.64
533.33	404.91
533.50	416.62
533.67	339.38
533.84	491.51
534.01	383.85
534.18	402.57
534.35	369.80
534.52	425.98
534.69	430.66
534.86	411.93
535.03	381.51
535.20	409.59
535.37	411.93
535.54	421.30
535.71	400.23
535.88	397.89
536.05	360.44
536.22	397.89
536.38	362.78
536.55	369.80
536.72	393.21
536.89	456.40
537.06	386.19
537.23	423.64
537.40	458.74
537.57	428.32
537.74	503.22
537.91	442.36
538.08	383.85
538.25	425.98
538.42	341.72
538.59	418.96
538.75	369.80
538.92	451.72
539.09	388.53
539.26	437.68
539.43	475.13
539.60	421.30
539.77	402.57
539.94	447.04
540.11	407.25
540.28	425.98
540.44	353.42
540.61	463.43
540.78	425.98
540.95	409.59
541.12	416.62
541.29	386.19
541.46	475.13
541.62	425.98
541.79	367.46
541.96	400.23
542.13	423.64
542.30	421.30
542.47	444.70
542.63	409.59
542.80	465.77
542.97	465.77
543.14	461.09
543.31	365.12
543.48	430.66
543.64	386.19
543.81	355.76
543.98	388.53
544.15	386.19
544.32	498.53
544.48	414.27
544.65	404.91
544.82	470.45
544.99	395.55
545.16	390.87
545.32	369.80
545.49	437.68
545.66	451.72
545.83	402.57
546.00	369.80
546.16	379.17
546.33	428.32
546.50	416.62
546.67	463.43
546.83	451.72
547.00	435.34
547.17	400.23
547.34	442.36
547.50	404.91
547.67	421.30
547.84	390.87
548.00	465.77
548.17	397.89
548.34	383.85
548.51	414.27
548.67	442.36
548.84	482.15
549.01	397.89
549.18	379.17
549.34	402.57
549.51	425.98
549.68	393.21
549.84	444.70
550.01	322.99
550.18	479.81
550.34	493.85
550.51	465.77
550.68	477.47
550.84	423.64
551.01	449.38
551.18	444.70
551.34	395.55
551.51	348.74
551.68	376.83
551.84	489.17
552.01	407.25
552.18	428.32
552.34	353.42
552.51	409.59
552.68	489.17
552.84	496.19
553.01	379.17
553.18	416.62
553.34	449.38
553.51	421.30
553.67	404.91
553.84	418.96
554.01	348.74
554.17	386.19
554.34	414.27
554.51	479.81
554.67	423.64
554.84	456.40
555.00	379.17
555.17	416.62
555.33	454.06
555.50	454.06
555.67	451.72
555.83	416.62
556.00	376.83
556.16	528.96
556.33	505.56
556.50	341.72
556.66	372.15
556.83	362.78
556.99	402.57
557.16	355.76
557.32	400.23
557.49	437.68
557.65	390.87
557.82	416.62
557.98	489.17
558.15	390.87
558.32	376.83
558.48	362.78
558.65	383.85
558.81	374.49
558.98	425.98
559.14	411.93
559.31	381.51
559.47	376.83
559.64	393.21
559.80	369.80
559.97	358.10
560.13	407.25
560.30	414.27
560.46	374.49
560.63	388.53
560.79	407.25
560.96	397.89
561.12	479.81
561.29	393.21
561.45	468.11
561.61	449.38
561.78	500.87
561.94	397.89
562.11	397.89
562.27	451.72
562.44	388.53
562.60	440.02
562.77	435.34
562.93	447.04
563.10	444.70
563.26	423.64
563.42	451.72
563.59	353.42
563.75	416.62
563.92	458.74
564.08	423.64
564.24	425.98
564.41	496.19
564.57	484.49
564.74	372.15
564.90	400.23
565.07	430.66
565.23	437.68
565.39	437.68
565.56	421.30
565.72	351.08
565.88	381.51
566.05	433.00
566.21	433.00
566.38	433.00
566.54	407.25
566.70	346.40
566.87	409.59
567.03	407.25
567.19	362.78
567.36	440.02
567.52	421.30
567.68	461.09
567.85	461.09
568.01	444.70
568.17	430.66
568.34	374.49
568.50	383.85
568.66	458.74
568.83	496.19
568.99	376.83
569.15	451.72
569.32	362.78
569.48	465.77
569.64	444.70
569.81	442.36
569.97	393.21
570.13	456.40
570.30	372.15
570.46	388.53
570.62	470.45
570.78	360.44
570.95	402.57
571.11	475.13
571.27	379.17
571.43	379.17
571.60	414.27
571.76	449.38
571.92	447.04
572.09	395.55
572.25	386.19
572.41	418.96
572.57	425.98
572.74	507.90
572.90	423.64
573.06	407.25
573.22	489.17
573.38	503.22
573.55	402.57
573.71	395.55
573.87	447.04
574.03	386.19
574.20	404.91
574.36	369.80
574.52	404.91
574.68	433.00
574.84	435.34
575.01	400.23
575.17	409.59
575.33	409.59
575.49	458.74
575.65	456.40
575.82	491.51
575.98	407.25
576.14	479.81
576.30	386.19
576.46	397.89
576.62	444.70
576.79	430.66
576.95	393.21
577.11	468.11
577.27	400.23
577.43	465.77
577.59	496.19
577.75	341.72
577.92	435.34
578.08	353.42
578.24	430.66
578.40	437.68
578.56	437.68
578.72	442.36
578.88	374.49
579.04	470.45
579.21	383.85
579.37	388.53
579.53	407.25
579.69	440.02
579.85	407.25
580.01	411.93
580.17	388.53
580.33	362.78
580.49	449.38
580.65	477.47
580.82	372.15
580.98	404.91
581.14	348.74
581.30	397.89
581.46	397.89
581.62	475.13
581.78	430.66
581.94	409.59
582.10	428.32
582.26	395.55
582.42	397.89
582.58	376.83
582.74	409.59
582.90	397.89
583.06	421.30
583.22	299.59
583.38	383.85
583.54	435.34
583.70	498.53
583.86	404.91
584.02	409.59
584.18	435.34
584.34	407.25
584.50	402.57
584.66	479.81
584.82	407.25
584.98	400.23
585.14	393.21
585.30	404.91
585.46	423.64
585.62	430.66
585.78	411.93
585.94	437.68
586.10	430.66
586.26	404.91
586.42	465.77
586.58	402.57
586.74	430.66
586.90	400.23
587.06	379.17
587.22	372.15
587.38	425.98
587.54	353.42
587.70	470.45
587.86	433.00
588.02	386.19
588.18	458.74
588.34	447.04
588.49	395.55
588.65	334.70
588.81	463.43
588.97	433.00
589.13	409.59
589.29	465.77
589.45	442.36
589.61	468.11
589.77	442.36
589.93	458.74
590.08	397.89
590.24	451.72
590.40	416.62
590.56	444.70
590.72	404.91
590.88	418.96
591.04	425.98
591.20	379.17
591.35	409.59
591.51	463.43
591.67	404.91
591.83	437.68
591.99	374.49
592.15	421.30
592.31	470.45
592.46	484.49
592.62	475.13
592.78	346.40
592.94	404.91
593.10	362.78
593.26	365.12
593.41	449.38
593.57	348.74
593.73	386.19
593.89	442.36
594.05	437.68
594.20	425.98
594.36	524.28
594.52	397.89
594.68	423.64
594.84	491.51
594.99	451.72
595.15	465.77
595.31	482.15
595.47	407.25
595.62	407.25
595.78	404.91
595.94	447.04
596.10	414.27
596.25	414.27
596.41	430.66
596.57	430.66
596.73	365.12
596.88	407.25
597.04	416.62
597.20	428.32
597.36	475.13
597.51	428.32
597.67	407.25
597.83	468.11
597.99	440.02
598.14	395.55
598.30	440.02
598.46	421.30
598.61	447.04
598.77	365.12
598.93	400.23
599.09	344.06
599.24	454.06
599.40	421.30
599.56	407.25
599.71	428.32
599.87	362.78
600.03	388.53
600.18	435.34
600.34	367.46
600.50	444.70
600.65	353.42
600.81	479.81
600.97	423.64
601.12	430.66
601.28	358.10
601.44	421.30
601.59	379.17
601.75	390.87
601.91	393.21
602.06	393.21
602.22	475.13
602.37	395.55
602.53	381.51
602.69	383.85
602.84	444.70
603.00	390.87
603.16	433.00
603.31	435.34
603.47	489.17
603.62	402.57
603.78	458.74
603.94	393.21
604.09	416.62
604.25	423.64
604.40	369.80
604.56	444.70
604.71	418.96
604.87	414.27
605.03	416.62
605.18	390.87
605.34	472.79
605.49	367.46
605.65	374.49
605.80	383.85
605.96	491.51
606.12	395.55
606.27	402.57
606.43	404.91
606.58	332.36
606.74	360.44
606.89	425.98
607.05	449.38
607.20	430.66
607.36	381.51
607.51	386.19
607.67	395.55
607.82	400.23
607.98	428.32
608.13	463.43
608.29	414.27
608.44	444.70
608.60	402.57
608.75	430.66
608.91	365.12
609.06	493.85
609.22	397.89
609.37	337.04
609.53	414.27
609.68	397.89
609.84	468.11
609.99	444.70
610.15	337.04
