SpectraSuite Data File
++++++++++++++++++++++++++++++++++++
Date: Fri Oct 25 12:11:38 EDT 2013
User: price-jones
Dark Spectrum Present: No
Reference Spectrum Present: No
Number of Sampled Component Spectra: 1
Spectrometers: USB2+H05261
Integration Time (usec): 100000 (USB2+H05261)
Spectra Averaged: 1 (USB2+H05261)
Boxcar Smoothing: 0 (USB2+H05261)
Correct for Electrical Dark: No (USB2+H05261)
Strobe/Lamp Enabled: No (USB2+H05261)
Correct for Detector Non-linearity: No (USB2+H05261)
Correct for Stray Light: No (USB2+H05261)
Number of Pixels in Processed Spectrum: 2048
>>>>>Begin Processed Spectral Data<<<<<
365.73	334.70
365.92	334.70
366.12	334.70
366.32	339.38
366.52	257.46
366.72	264.48
366.91	196.60
367.11	234.05
367.31	297.25
367.51	217.67
367.70	245.76
367.90	243.42
368.10	187.24
368.30	262.14
368.49	227.03
368.69	264.48
368.89	292.57
369.09	325.33
369.28	276.18
369.48	315.97
369.68	255.12
369.87	264.48
370.07	334.70
370.27	372.15
370.47	372.15
370.66	285.55
370.86	339.38
371.06	372.15
371.25	393.21
371.45	390.87
371.65	447.04
371.84	301.93
372.04	355.76
372.24	332.36
372.44	421.30
372.63	395.55
372.83	503.22
373.03	395.55
373.22	442.36
373.42	418.96
373.62	435.34
373.81	414.27
374.01	449.38
374.21	449.38
374.40	428.32
374.60	425.98
374.79	409.59
374.99	379.17
375.19	379.17
375.38	400.23
375.58	423.64
375.78	411.93
375.97	393.21
376.17	456.40
376.37	482.15
376.56	456.40
376.76	327.68
376.95	500.87
377.15	395.55
377.35	486.83
377.54	414.27
377.74	407.25
377.93	465.77
378.13	414.27
378.33	421.30
378.52	416.62
378.72	451.72
378.91	463.43
379.11	393.21
379.31	447.04
379.50	341.72
379.70	376.83
379.89	393.21
380.09	423.64
380.28	393.21
380.48	435.34
380.68	337.04
380.87	388.53
381.07	402.57
381.26	339.38
381.46	421.30
381.65	442.36
381.85	383.85
382.04	367.46
382.24	388.53
382.43	404.91
382.63	355.76
382.83	416.62
383.02	470.45
383.22	482.15
383.41	386.19
383.61	477.47
383.80	414.27
384.00	346.40
384.19	397.89
384.39	421.30
384.58	407.25
384.78	388.53
384.97	428.32
385.17	486.83
385.36	416.62
385.56	477.47
385.75	390.87
385.95	416.62
386.14	496.19
386.34	416.62
386.53	369.80
386.72	386.19
386.92	416.62
387.11	463.43
387.31	367.46
387.50	360.44
387.70	423.64
387.89	376.83
388.09	442.36
388.28	404.91
388.48	409.59
388.67	505.56
388.86	353.42
389.06	351.08
389.25	297.25
389.45	461.09
389.64	365.12
389.84	414.27
390.03	390.87
390.22	425.98
390.42	393.21
390.61	407.25
390.81	407.25
391.00	442.36
391.19	337.04
391.39	362.78
391.58	397.89
391.78	433.00
391.97	418.96
392.16	414.27
392.36	472.79
392.55	407.25
392.75	458.74
392.94	407.25
393.13	423.64
393.33	458.74
393.52	423.64
393.71	456.40
393.91	369.80
394.10	414.27
394.29	425.98
394.49	367.46
394.68	344.06
394.88	418.96
395.07	463.43
395.26	449.38
395.46	353.42
395.65	397.89
395.84	395.55
396.04	475.13
396.23	440.02
396.42	393.21
396.62	393.21
396.81	285.55
397.00	433.00
397.19	280.86
397.39	435.34
397.58	390.87
397.77	437.68
397.97	395.55
398.16	411.93
398.35	388.53
398.55	388.53
398.74	491.51
398.93	484.49
399.12	379.17
399.32	437.68
399.51	348.74
399.70	484.49
399.90	327.68
400.09	486.83
400.28	433.00
400.47	428.32
400.67	409.59
400.86	411.93
401.05	365.12
401.24	383.85
401.44	486.83
401.63	447.04
401.82	416.62
402.01	374.49
402.21	379.17
402.40	416.62
402.59	383.85
402.78	362.78
402.97	407.25
403.17	505.56
403.36	437.68
403.55	449.38
403.74	416.62
403.93	395.55
404.13	409.59
404.32	400.23
404.51	376.83
404.70	418.96
404.89	470.45
405.09	496.19
405.28	400.23
405.47	470.45
405.66	428.32
405.85	423.64
406.05	372.15
406.24	381.51
406.43	451.72
406.62	421.30
406.81	470.45
407.00	475.13
407.20	407.25
407.39	407.25
407.58	379.17
407.77	388.53
407.96	458.74
408.15	400.23
408.34	423.64
408.54	369.80
408.73	423.64
408.92	472.79
409.11	454.06
409.30	409.59
409.49	402.57
409.68	367.46
409.87	440.02
410.07	475.13
410.26	425.98
410.45	365.12
410.64	383.85
410.83	407.25
411.02	400.23
411.21	521.94
411.40	465.77
411.59	355.76
411.78	423.64
411.98	393.21
412.17	379.17
412.36	423.64
412.55	414.27
412.74	461.09
412.93	433.00
413.12	400.23
413.31	386.19
413.50	458.74
413.69	458.74
413.88	379.17
414.07	395.55
414.26	456.40
414.45	456.40
414.64	442.36
414.83	477.47
415.02	400.23
415.22	348.74
415.41	381.51
415.60	381.51
415.79	337.04
415.98	402.57
416.17	400.23
416.36	365.12
416.55	367.46
416.74	442.36
416.93	437.68
417.12	416.62
417.31	372.15
417.50	421.30
417.69	442.36
417.88	397.89
418.07	367.46
418.26	362.78
418.45	362.78
418.64	470.45
418.83	397.89
419.02	519.60
419.21	418.96
419.39	449.38
419.58	447.04
419.77	395.55
419.96	409.59
420.15	458.74
420.34	355.76
420.53	369.80
420.72	414.27
420.91	402.57
421.10	411.93
421.29	393.21
421.48	404.91
421.67	456.40
421.86	402.57
422.05	390.87
422.24	433.00
422.43	449.38
422.61	416.62
422.80	409.59
422.99	341.72
423.18	376.83
423.37	463.43
423.56	379.17
423.75	409.59
423.94	308.95
424.13	374.49
424.32	402.57
424.50	355.76
424.69	444.70
424.88	402.57
425.07	456.40
425.26	393.21
425.45	451.72
425.64	404.91
425.83	383.85
426.01	428.32
426.20	416.62
426.39	500.87
426.58	428.32
426.77	393.21
426.96	365.12
427.15	433.00
427.33	430.66
427.52	362.78
427.71	442.36
427.90	430.66
428.09	416.62
428.28	365.12
428.46	367.46
428.65	507.90
428.84	376.83
429.03	397.89
429.22	404.91
429.40	407.25
429.59	397.89
429.78	444.70
429.97	423.64
430.16	372.15
430.34	414.27
430.53	407.25
430.72	372.15
430.91	407.25
431.10	320.65
431.28	360.44
431.47	435.34
431.66	428.32
431.85	395.55
432.03	440.02
432.22	498.53
432.41	409.59
432.60	458.74
432.79	341.72
432.97	444.70
433.16	383.85
433.35	376.83
433.54	407.25
433.72	409.59
433.91	442.36
434.10	407.25
434.28	390.87
434.47	395.55
434.66	428.32
434.85	374.49
435.03	386.19
435.22	484.49
435.41	482.15
435.59	418.96
435.78	397.89
435.97	449.38
436.16	449.38
436.34	416.62
436.53	425.98
436.72	433.00
436.90	397.89
437.09	447.04
437.28	428.32
437.46	358.10
437.65	458.74
437.84	390.87
438.02	477.47
438.21	489.17
438.40	442.36
438.58	351.08
438.77	458.74
438.96	479.81
439.14	351.08
439.33	365.12
439.52	390.87
439.70	416.62
439.89	411.93
440.08	416.62
440.26	461.09
440.45	524.28
440.63	397.89
440.82	390.87
441.01	395.55
441.19	430.66
441.38	430.66
441.57	430.66
441.75	414.27
441.94	442.36
442.12	430.66
442.31	447.04
442.50	430.66
442.68	379.17
442.87	454.06
443.05	397.89
443.24	372.15
443.43	477.47
443.61	386.19
443.80	367.46
443.98	388.53
444.17	425.98
444.35	442.36
444.54	400.23
444.73	360.44
444.91	409.59
445.10	409.59
445.28	444.70
445.47	418.96
445.65	482.15
445.84	425.98
446.02	411.93
446.21	400.23
446.39	402.57
446.58	362.78
446.77	395.55
446.95	353.42
447.14	414.27
447.32	397.89
447.51	367.46
447.69	418.96
447.88	433.00
448.06	454.06
448.25	425.98
448.43	442.36
448.62	390.87
448.80	402.57
448.99	369.80
449.17	390.87
449.36	437.68
449.54	402.57
449.73	454.06
449.91	355.76
450.10	430.66
450.28	514.92
450.46	470.45
450.65	477.47
450.83	461.09
451.02	421.30
451.20	327.68
451.39	400.23
451.57	428.32
451.76	433.00
451.94	388.53
452.13	482.15
452.31	440.02
452.49	409.59
452.68	404.91
452.86	440.02
453.05	468.11
453.23	437.68
453.42	447.04
453.60	421.30
453.78	454.06
453.97	440.02
454.15	433.00
454.34	437.68
454.52	393.21
454.70	486.83
454.89	353.42
455.07	463.43
455.26	437.68
455.44	451.72
455.62	379.17
455.81	449.38
455.99	442.36
456.17	524.28
456.36	500.87
456.54	355.76
456.73	379.17
456.91	388.53
457.09	393.21
457.28	489.17
457.46	479.81
457.64	376.83
457.83	395.55
458.01	407.25
458.19	402.57
458.38	348.74
458.56	369.80
458.74	435.34
458.93	383.85
459.11	409.59
459.29	344.06
459.48	407.25
459.66	440.02
459.84	451.72
460.03	437.68
460.21	390.87
460.39	381.51
460.57	472.79
460.76	400.23
460.94	344.06
461.12	397.89
461.31	383.85
461.49	409.59
461.67	461.09
461.85	353.42
462.04	388.53
462.22	779.40
462.40	416.62
462.59	468.11
462.77	372.15
462.95	381.51
463.13	381.51
463.32	416.62
463.50	451.72
463.68	444.70
463.86	496.19
464.05	404.91
464.23	418.96
464.41	409.59
464.59	435.34
464.78	404.91
464.96	440.02
465.14	444.70
465.32	381.51
465.50	397.89
465.69	416.62
465.87	411.93
466.05	493.85
466.23	440.02
466.41	414.27
466.60	390.87
466.78	404.91
466.96	442.36
467.14	404.91
467.32	444.70
467.51	386.19
467.69	444.70
467.87	454.06
468.05	404.91
468.23	510.24
468.41	409.59
468.60	404.91
468.78	418.96
468.96	500.87
469.14	374.49
469.32	461.09
469.50	404.91
469.69	409.59
469.87	430.66
470.05	358.10
470.23	395.55
470.41	390.87
470.59	421.30
470.77	400.23
470.95	407.25
471.14	425.98
471.32	334.70
471.50	404.91
471.68	458.74
471.86	461.09
472.04	374.49
472.22	360.44
472.40	372.15
472.58	360.44
472.77	421.30
472.95	472.79
473.13	442.36
473.31	482.15
473.49	393.21
473.67	442.36
473.85	351.08
474.03	449.38
474.21	458.74
474.39	400.23
474.57	416.62
474.75	449.38
474.93	428.32
475.12	379.17
475.30	362.78
475.48	428.32
475.66	404.91
475.84	379.17
476.02	489.17
476.20	407.25
476.38	433.00
476.56	442.36
476.74	428.32
476.92	430.66
477.10	472.79
477.28	400.23
477.46	383.85
477.64	444.70
477.82	442.36
478.00	470.45
478.18	449.38
478.36	400.23
478.54	320.65
478.72	456.40
478.90	383.85
479.08	414.27
479.26	416.62
479.44	351.08
479.62	433.00
479.80	372.15
479.98	416.62
480.16	468.11
480.34	423.64
480.52	372.15
480.70	409.59
480.88	330.02
481.06	388.53
481.24	365.12
481.41	404.91
481.59	433.00
481.77	463.43
481.95	397.89
482.13	395.55
482.31	463.43
482.49	430.66
482.67	414.27
482.85	437.68
483.03	372.15
483.21	393.21
483.39	386.19
483.57	372.15
483.74	468.11
483.92	416.62
484.10	416.62
484.28	393.21
484.46	493.85
484.64	327.68
484.82	414.27
485.00	411.93
485.18	416.62
485.35	421.30
485.53	332.36
485.71	379.17
485.89	411.93
486.07	348.74
486.25	458.74
486.43	451.72
486.61	430.66
486.78	400.23
486.96	440.02
487.14	386.19
487.32	360.44
487.50	388.53
487.68	416.62
487.85	414.27
488.03	386.19
488.21	517.26
488.39	442.36
488.57	449.38
488.75	416.62
488.92	538.32
489.10	428.32
489.28	395.55
489.46	348.74
489.64	411.93
489.81	400.23
489.99	440.02
490.17	444.70
490.35	451.72
490.53	423.64
490.70	395.55
490.88	390.87
491.06	351.08
491.24	407.25
491.41	404.91
491.59	351.08
491.77	421.30
491.95	374.49
492.13	451.72
492.30	456.40
492.48	390.87
492.66	369.80
492.84	468.11
493.01	463.43
493.19	369.80
493.37	484.49
493.54	444.70
493.72	442.36
493.90	351.08
494.08	425.98
494.25	449.38
494.43	379.17
494.61	456.40
494.79	407.25
494.96	428.32
495.14	418.96
495.32	418.96
495.49	437.68
495.67	451.72
495.85	414.27
496.02	404.91
496.20	435.34
496.38	430.66
496.55	461.09
496.73	414.27
496.91	339.38
497.09	454.06
497.26	428.32
497.44	402.57
497.62	397.89
497.79	407.25
497.97	458.74
498.14	341.72
498.32	402.57
498.50	400.23
498.67	372.15
498.85	421.30
499.03	407.25
499.20	437.68
499.38	440.02
499.56	360.44
499.73	397.89
499.91	428.32
500.08	409.59
500.26	402.57
500.44	344.06
500.61	397.89
500.79	444.70
500.97	409.59
501.14	360.44
501.32	409.59
501.49	489.17
501.67	442.36
501.84	437.68
502.02	416.62
502.20	472.79
502.37	435.34
502.55	421.30
502.72	465.77
502.90	454.06
503.07	440.02
503.25	447.04
503.43	351.08
503.60	372.15
503.78	498.53
503.95	421.30
504.13	402.57
504.30	393.21
504.48	400.23
504.65	456.40
504.83	386.19
505.01	400.23
505.18	444.70
505.36	475.13
505.53	451.72
505.71	435.34
505.88	421.30
506.06	421.30
506.23	400.23
506.41	433.00
506.58	421.30
506.76	477.47
506.93	372.15
507.11	428.32
507.28	435.34
507.46	393.21
507.63	458.74
507.81	355.76
507.98	400.23
508.16	404.91
508.33	514.92
508.50	386.19
508.68	400.23
508.85	461.09
509.03	372.15
509.20	348.74
509.38	440.02
509.55	372.15
509.73	496.19
509.90	461.09
510.08	337.04
510.25	416.62
510.42	433.00
510.60	430.66
510.77	423.64
510.95	435.34
511.12	411.93
511.30	433.00
511.47	395.55
511.64	491.51
511.82	489.17
511.99	451.72
512.17	524.28
512.34	369.80
512.51	411.93
512.69	454.06
512.86	461.09
513.04	374.49
513.21	395.55
513.38	395.55
513.56	421.30
513.73	332.36
513.90	418.96
514.08	423.64
514.25	407.25
514.43	353.42
514.60	416.62
514.77	430.66
514.95	390.87
515.12	386.19
515.29	423.64
515.47	486.83
515.64	421.30
515.81	425.98
515.99	461.09
516.16	437.68
516.33	433.00
516.51	386.19
516.68	395.55
516.85	491.51
517.03	423.64
517.20	416.62
517.37	435.34
517.54	437.68
517.72	337.04
517.89	367.46
518.06	351.08
518.24	411.93
518.41	421.30
518.58	379.17
518.75	442.36
518.93	395.55
519.10	433.00
519.27	435.34
519.45	442.36
519.62	437.68
519.79	444.70
519.96	369.80
520.14	451.72
520.31	437.68
520.48	437.68
520.65	379.17
520.83	433.00
521.00	418.96
521.17	489.17
521.34	456.40
521.52	433.00
521.69	409.59
521.86	344.06
522.03	376.83
522.20	430.66
522.38	435.34
522.55	402.57
522.72	477.47
522.89	456.40
523.07	444.70
523.24	400.23
523.41	379.17
523.58	397.89
523.75	390.87
523.92	376.83
524.10	409.59
524.27	423.64
524.44	407.25
524.61	552.37
524.78	468.11
524.96	442.36
525.13	397.89
525.30	433.00
525.47	449.38
525.64	477.47
525.81	388.53
525.98	465.77
526.16	456.40
526.33	409.59
526.50	386.19
526.67	376.83
526.84	341.72
527.01	425.98
527.18	475.13
527.36	444.70
527.53	397.89
527.70	400.23
527.87	355.76
528.04	479.81
528.21	451.72
528.38	407.25
528.55	444.70
528.72	482.15
528.89	447.04
529.07	425.98
529.24	395.55
529.41	402.57
529.58	456.40
529.75	379.17
529.92	393.21
530.09	386.19
530.26	418.96
530.43	425.98
530.60	369.80
530.77	430.66
530.94	435.34
531.11	437.68
531.28	393.21
531.46	383.85
531.63	423.64
531.80	470.45
531.97	458.74
532.14	414.27
532.31	454.06
532.48	435.34
532.65	463.43
532.82	332.36
532.99	451.72
533.16	369.80
533.33	454.06
533.50	435.34
533.67	423.64
533.84	430.66
534.01	444.70
534.18	428.32
534.35	433.00
534.52	482.15
534.69	465.77
534.86	463.43
535.03	435.34
535.20	433.00
535.37	444.70
535.54	437.68
535.71	500.87
535.88	322.99
536.05	414.27
536.22	456.40
536.38	435.34
536.55	437.68
536.72	456.40
536.89	376.83
537.06	341.72
537.23	390.87
537.40	386.19
537.57	486.83
537.74	470.45
537.91	430.66
538.08	454.06
538.25	444.70
538.42	374.49
538.59	442.36
538.75	402.57
538.92	472.79
539.09	521.94
539.26	421.30
539.43	472.79
539.60	433.00
539.77	404.91
539.94	444.70
540.11	435.34
540.28	451.72
540.44	456.40
540.61	344.06
540.78	353.42
540.95	407.25
541.12	498.53
541.29	433.00
541.46	433.00
541.62	355.76
541.79	407.25
541.96	442.36
542.13	442.36
542.30	407.25
542.47	465.77
542.63	461.09
542.80	386.19
542.97	407.25
543.14	379.17
543.31	418.96
543.48	526.62
543.64	351.08
543.81	440.02
543.98	428.32
544.15	430.66
544.32	416.62
544.48	414.27
544.65	433.00
544.82	351.08
544.99	442.36
545.16	477.47
545.32	449.38
545.49	348.74
545.66	470.45
545.83	430.66
546.00	411.93
546.16	433.00
546.33	440.02
546.50	447.04
546.67	449.38
546.83	430.66
547.00	407.25
547.17	442.36
547.34	346.40
547.50	461.09
547.67	512.58
547.84	421.30
548.00	435.34
548.17	404.91
548.34	400.23
548.51	369.80
548.67	440.02
548.84	369.80
549.01	416.62
549.18	421.30
549.34	449.38
549.51	381.51
549.68	440.02
549.84	411.93
550.01	463.43
550.18	496.19
550.34	496.19
550.51	435.34
550.68	470.45
550.84	433.00
551.01	418.96
551.18	425.98
551.34	414.27
551.51	390.87
551.68	416.62
551.84	423.64
552.01	435.34
552.18	395.55
552.34	416.62
552.51	423.64
552.68	367.46
552.84	477.47
553.01	425.98
553.18	503.22
553.34	372.15
553.51	386.19
553.67	440.02
553.84	421.30
554.01	442.36
554.17	414.27
554.34	393.21
554.51	472.79
554.67	421.30
554.84	428.32
555.00	351.08
555.17	486.83
555.33	444.70
555.50	447.04
555.67	461.09
555.83	437.68
556.00	440.02
556.16	510.24
556.33	442.36
556.50	402.57
556.66	470.45
556.83	320.65
556.99	397.89
557.16	416.62
557.32	351.08
557.49	440.02
557.65	442.36
557.82	372.15
557.98	404.91
558.15	390.87
558.32	425.98
558.48	435.34
558.65	428.32
558.81	430.66
558.98	390.87
559.14	362.78
559.31	414.27
559.47	402.57
559.64	395.55
559.80	411.93
559.97	428.32
560.13	470.45
560.30	367.46
560.46	458.74
560.63	435.34
560.79	451.72
560.96	442.36
561.12	365.12
561.29	425.98
561.45	388.53
561.61	454.06
561.78	421.30
561.94	407.25
562.11	465.77
562.27	386.19
562.44	372.15
562.60	463.43
562.77	425.98
562.93	498.53
563.10	404.91
563.26	418.96
563.42	449.38
563.59	416.62
563.75	365.12
563.92	407.25
564.08	423.64
564.24	428.32
564.41	444.70
564.57	407.25
564.74	355.76
564.90	421.30
565.07	418.96
565.23	482.15
565.39	388.53
565.56	423.64
565.72	402.57
565.88	454.06
566.05	386.19
566.21	388.53
566.38	383.85
566.54	374.49
566.70	437.68
566.87	458.74
567.03	416.62
567.19	430.66
567.36	397.89
567.52	409.59
567.68	404.91
567.85	418.96
568.01	390.87
568.17	418.96
568.34	379.17
568.50	440.02
568.66	367.46
568.83	418.96
568.99	400.23
569.15	418.96
569.32	470.45
569.48	421.30
569.64	409.59
569.81	423.64
569.97	454.06
570.13	381.51
570.30	433.00
570.46	379.17
570.62	475.13
570.78	416.62
570.95	489.17
571.11	472.79
571.27	449.38
571.43	395.55
571.60	423.64
571.76	440.02
571.92	418.96
572.09	433.00
572.25	376.83
572.41	404.91
572.57	383.85
572.74	477.47
572.90	486.83
573.06	444.70
573.22	479.81
573.38	411.93
573.55	447.04
573.71	440.02
573.87	376.83
574.03	404.91
574.20	482.15
574.36	454.06
574.52	472.79
574.68	379.17
574.84	461.09
575.01	355.76
575.17	430.66
575.33	397.89
575.49	423.64
575.65	383.85
575.82	451.72
575.98	393.21
576.14	458.74
576.30	461.09
576.46	344.06
576.62	498.53
576.79	423.64
576.95	435.34
577.11	411.93
577.27	379.17
577.43	435.34
577.59	451.72
577.75	423.64
577.92	428.32
578.08	409.59
578.24	423.64
578.40	393.21
578.56	456.40
578.72	493.85
578.88	367.46
579.04	358.10
579.21	397.89
579.37	407.25
579.53	365.12
579.69	451.72
579.85	355.76
580.01	407.25
580.17	482.15
580.33	381.51
580.49	428.32
580.65	397.89
580.82	411.93
580.98	404.91
581.14	400.23
581.30	498.53
581.46	447.04
581.62	407.25
581.78	390.87
581.94	418.96
582.10	402.57
582.26	458.74
582.42	430.66
582.58	388.53
582.74	491.51
582.90	418.96
583.06	414.27
583.22	402.57
583.38	433.00
583.54	348.74
583.70	397.89
583.86	435.34
584.02	414.27
584.18	402.57
584.34	397.89
584.50	393.21
584.66	383.85
584.82	360.44
584.98	372.15
585.14	416.62
585.30	421.30
585.46	346.40
585.62	332.36
585.78	430.66
585.94	367.46
586.10	360.44
586.26	418.96
586.42	393.21
586.58	493.85
586.74	449.38
586.90	449.38
587.06	435.34
587.22	447.04
587.38	376.83
587.54	430.66
587.70	442.36
587.86	447.04
588.02	454.06
588.18	451.72
588.34	463.43
588.49	440.02
588.65	458.74
588.81	433.00
588.97	383.85
589.13	414.27
589.29	397.89
589.45	463.43
589.61	390.87
589.77	421.30
589.93	428.32
590.08	407.25
590.24	404.91
590.40	435.34
590.56	365.12
590.72	365.12
590.88	423.64
591.04	468.11
591.20	372.15
591.35	416.62
591.51	454.06
591.67	386.19
591.83	454.06
591.99	414.27
592.15	454.06
592.31	409.59
592.46	341.72
592.62	393.21
592.78	372.15
592.94	362.78
593.10	381.51
593.26	341.72
593.41	454.06
593.57	440.02
593.73	365.12
593.89	367.46
594.05	388.53
594.20	465.77
594.36	390.87
594.52	409.59
594.68	437.68
594.84	435.34
594.99	362.78
595.15	418.96
595.31	512.58
595.47	402.57
595.62	496.19
595.78	437.68
595.94	416.62
596.10	423.64
596.25	414.27
596.41	414.27
596.57	395.55
596.73	472.79
596.88	416.62
597.04	346.40
597.20	421.30
597.36	514.92
597.51	395.55
597.67	409.59
597.83	372.15
597.99	444.70
598.14	442.36
598.30	470.45
598.46	440.02
598.61	493.85
598.77	407.25
598.93	407.25
599.09	421.30
599.24	416.62
599.40	454.06
599.56	353.42
599.71	386.19
599.87	447.04
600.03	433.00
600.18	383.85
600.34	444.70
600.50	397.89
600.65	440.02
600.81	486.83
600.97	402.57
601.12	376.83
601.28	442.36
601.44	430.66
601.59	355.76
601.75	440.02
601.91	407.25
602.06	456.40
602.22	472.79
602.37	409.59
602.53	360.44
602.69	372.15
602.84	418.96
603.00	468.11
603.16	390.87
603.31	493.85
603.47	409.59
603.62	404.91
603.78	374.49
603.94	379.17
604.09	400.23
604.25	444.70
604.40	360.44
604.56	440.02
604.71	381.51
604.87	393.21
605.03	421.30
605.18	512.58
605.34	433.00
605.49	390.87
605.65	372.15
605.80	404.91
605.96	435.34
606.12	447.04
606.27	430.66
606.43	365.12
606.58	437.68
606.74	374.49
606.89	416.62
607.05	463.43
607.20	404.91
607.36	388.53
607.51	365.12
607.67	381.51
607.82	414.27
607.98	428.32
608.13	372.15
608.29	470.45
608.44	447.04
608.60	461.09
608.75	425.98
608.91	468.11
609.06	454.06
609.22	411.93
609.37	409.59
609.53	376.83
609.68	400.23
609.84	425.98
609.99	332.36
610.15	449.38
