SpectraSuite Data File
++++++++++++++++++++++++++++++++++++
Date: Fri Oct 25 12:11:17 EDT 2013
User: price-jones
Dark Spectrum Present: No
Reference Spectrum Present: No
Number of Sampled Component Spectra: 1
Spectrometers: USB2+H05261
Integration Time (usec): 100000 (USB2+H05261)
Spectra Averaged: 1 (USB2+H05261)
Boxcar Smoothing: 0 (USB2+H05261)
Correct for Electrical Dark: No (USB2+H05261)
Strobe/Lamp Enabled: No (USB2+H05261)
Correct for Detector Non-linearity: No (USB2+H05261)
Correct for Stray Light: No (USB2+H05261)
Number of Pixels in Processed Spectrum: 2048
>>>>>Begin Processed Spectral Data<<<<<
365.73	341.72
365.92	341.72
366.12	341.72
366.32	290.23
366.52	222.35
366.72	280.86
366.91	220.01
367.11	264.48
367.31	217.67
367.51	269.16
367.70	269.16
367.90	259.80
368.10	210.65
368.30	259.80
368.49	248.10
368.69	306.61
368.89	250.44
369.09	196.60
369.28	280.86
369.48	266.82
369.68	334.70
369.87	332.36
370.07	201.29
370.27	306.61
370.47	313.63
370.66	290.23
370.86	402.57
371.06	348.74
371.25	470.45
371.45	379.17
371.65	397.89
371.84	315.97
372.04	397.89
372.24	381.51
372.44	383.85
372.63	395.55
372.83	416.62
373.03	425.98
373.22	395.55
373.42	367.46
373.62	332.36
373.81	418.96
374.01	482.15
374.21	482.15
374.40	393.21
374.60	533.64
374.79	451.72
374.99	402.57
375.19	360.44
375.38	425.98
375.58	444.70
375.78	456.40
375.97	416.62
376.17	437.68
376.37	369.80
376.56	423.64
376.76	416.62
376.95	315.97
377.15	411.93
377.35	440.02
377.54	421.30
377.74	425.98
377.93	418.96
378.13	456.40
378.33	514.92
378.52	374.49
378.72	383.85
378.91	402.57
379.11	376.83
379.31	425.98
379.50	372.15
379.70	397.89
379.89	393.21
380.09	367.46
380.28	369.80
380.48	463.43
380.68	456.40
380.87	437.68
381.07	447.04
381.26	383.85
381.46	402.57
381.65	344.06
381.85	411.93
382.04	374.49
382.24	416.62
382.43	358.10
382.63	451.72
382.83	395.55
383.02	374.49
383.22	451.72
383.41	425.98
383.61	404.91
383.80	414.27
384.00	393.21
384.19	435.34
384.39	355.76
384.58	339.38
384.78	379.17
384.97	411.93
385.17	358.10
385.36	402.57
385.56	339.38
385.75	369.80
385.95	365.12
386.14	381.51
386.34	470.45
386.53	456.40
386.72	346.40
386.92	379.17
387.11	472.79
387.31	433.00
387.50	362.78
387.70	348.74
387.89	449.38
388.09	498.53
388.28	367.46
388.48	395.55
388.67	449.38
388.86	430.66
389.06	418.96
389.25	379.17
389.45	358.10
389.64	416.62
389.84	402.57
390.03	435.34
390.22	351.08
390.42	376.83
390.61	393.21
390.81	416.62
391.00	463.43
391.19	449.38
391.39	339.38
391.58	404.91
391.78	404.91
391.97	444.70
392.16	355.76
392.36	411.93
392.55	416.62
392.75	393.21
392.94	416.62
393.13	393.21
393.33	337.04
393.52	468.11
393.71	348.74
393.91	449.38
394.10	407.25
394.29	381.51
394.49	388.53
394.68	393.21
394.88	421.30
395.07	351.08
395.26	390.87
395.46	372.15
395.65	418.96
395.84	428.32
396.04	479.81
396.23	421.30
396.42	470.45
396.62	423.64
396.81	397.89
397.00	409.59
397.19	416.62
397.39	418.96
397.58	409.59
397.77	409.59
397.97	456.40
398.16	402.57
398.35	421.30
398.55	362.78
398.74	454.06
398.93	451.72
399.12	369.80
399.32	423.64
399.51	407.25
399.70	379.17
399.90	402.57
400.09	416.62
400.28	444.70
400.47	383.85
400.67	430.66
400.86	353.42
401.05	409.59
401.24	428.32
401.44	425.98
401.63	369.80
401.82	379.17
402.01	421.30
402.21	496.19
402.40	421.30
402.59	444.70
402.78	456.40
402.97	454.06
403.17	358.10
403.36	430.66
403.55	442.36
403.74	367.46
403.93	369.80
404.13	421.30
404.32	369.80
404.51	355.76
404.70	400.23
404.89	482.15
405.09	407.25
405.28	381.51
405.47	346.40
405.66	489.17
405.85	416.62
406.05	425.98
406.24	390.87
406.43	344.06
406.62	470.45
406.81	470.45
407.00	344.06
407.20	388.53
407.39	470.45
407.58	428.32
407.77	411.93
407.96	458.74
408.15	454.06
408.34	386.19
408.54	409.59
408.73	407.25
408.92	433.00
409.11	409.59
409.30	442.36
409.49	402.57
409.68	379.17
409.87	423.64
410.07	397.89
410.26	411.93
410.45	423.64
410.64	379.17
410.83	365.12
411.02	404.91
411.21	386.19
411.40	388.53
411.59	437.68
411.78	451.72
411.98	421.30
412.17	372.15
412.36	428.32
412.55	337.04
412.74	400.23
412.93	435.34
413.12	330.02
413.31	383.85
413.50	428.32
413.69	315.97
413.88	360.44
414.07	397.89
414.26	463.43
414.45	379.17
414.64	393.21
414.83	362.78
415.02	397.89
415.22	423.64
415.41	442.36
415.60	355.76
415.79	430.66
415.98	358.10
416.17	330.02
416.36	423.64
416.55	397.89
416.74	369.80
416.93	465.77
417.12	400.23
417.31	409.59
417.50	430.66
417.69	475.13
417.88	381.51
418.07	339.38
418.26	360.44
418.45	402.57
418.64	369.80
418.83	360.44
419.02	425.98
419.21	444.70
419.39	346.40
419.58	418.96
419.77	418.96
419.96	458.74
420.15	381.51
420.34	442.36
420.53	477.47
420.72	407.25
420.91	369.80
421.10	402.57
421.29	449.38
421.48	430.66
421.67	388.53
421.86	355.76
422.05	440.02
422.24	402.57
422.43	409.59
422.61	411.93
422.80	435.34
422.99	407.25
423.18	374.49
423.37	477.47
423.56	421.30
423.75	440.02
423.94	379.17
424.13	358.10
424.32	479.81
424.50	425.98
424.69	423.64
424.88	418.96
425.07	425.98
425.26	353.42
425.45	447.04
425.64	437.68
425.83	390.87
426.01	435.34
426.20	383.85
426.39	383.85
426.58	428.32
426.77	447.04
426.96	440.02
427.15	418.96
427.33	428.32
427.52	414.27
427.71	447.04
427.90	353.42
428.09	386.19
428.28	437.68
428.46	381.51
428.65	400.23
428.84	447.04
429.03	472.79
429.22	454.06
429.40	395.55
429.59	376.83
429.78	367.46
429.97	416.62
430.16	418.96
430.34	414.27
430.53	374.49
430.72	414.27
430.91	482.15
431.10	390.87
431.28	355.76
431.47	437.68
431.66	435.34
431.85	346.40
432.03	414.27
432.22	461.09
432.41	402.57
432.60	397.89
432.79	390.87
432.97	442.36
433.16	423.64
433.35	344.06
433.54	465.77
433.72	430.66
433.91	376.83
434.10	395.55
434.28	390.87
434.47	449.38
434.66	409.59
434.85	395.55
435.03	353.42
435.22	449.38
435.41	465.77
435.59	430.66
435.78	395.55
435.97	369.80
436.16	428.32
436.34	346.40
436.53	418.96
436.72	470.45
436.90	386.19
437.09	425.98
437.28	360.44
437.46	400.23
437.65	437.68
437.84	376.83
438.02	369.80
438.21	425.98
438.40	414.27
438.58	400.23
438.77	486.83
438.96	397.89
439.14	379.17
439.33	346.40
439.52	346.40
439.70	407.25
439.89	442.36
440.08	458.74
440.26	472.79
440.45	397.89
440.63	353.42
440.82	512.58
441.01	390.87
441.19	437.68
441.38	388.53
441.57	388.53
441.75	451.72
441.94	475.13
442.12	376.83
442.31	425.98
442.50	397.89
442.68	386.19
442.87	430.66
443.05	404.91
443.24	449.38
443.43	425.98
443.61	423.64
443.80	430.66
443.98	477.47
444.17	428.32
444.35	332.36
444.54	374.49
444.73	362.78
444.91	440.02
445.10	397.89
445.28	374.49
445.47	447.04
445.65	440.02
445.84	447.04
446.02	409.59
446.21	376.83
446.39	418.96
446.58	484.49
446.77	458.74
446.95	407.25
447.14	414.27
447.32	482.15
447.51	458.74
447.69	400.23
447.88	393.21
448.06	365.12
448.25	454.06
448.43	393.21
448.62	458.74
448.80	430.66
448.99	433.00
449.17	472.79
449.36	423.64
449.54	372.15
449.73	334.70
449.91	390.87
450.10	414.27
450.28	512.58
450.46	428.32
450.65	442.36
450.83	449.38
451.02	404.91
451.20	430.66
451.39	369.80
451.57	430.66
451.76	496.19
451.94	383.85
452.13	383.85
452.31	388.53
452.49	503.22
452.68	400.23
452.86	395.55
453.05	479.81
453.23	414.27
453.42	393.21
453.60	313.63
453.78	409.59
453.97	388.53
454.15	482.15
454.34	428.32
454.52	416.62
454.70	465.77
454.89	397.89
455.07	433.00
455.26	379.17
455.44	425.98
455.62	414.27
455.81	344.06
455.99	440.02
456.17	449.38
456.36	433.00
456.54	369.80
456.73	461.09
456.91	465.77
457.09	416.62
457.28	404.91
457.46	477.47
457.64	339.38
457.83	463.43
458.01	369.80
458.19	416.62
458.38	304.27
458.56	407.25
458.74	390.87
458.93	437.68
459.11	449.38
459.29	367.46
459.48	353.42
459.66	477.47
459.84	491.51
460.03	491.51
460.21	428.32
460.39	458.74
460.57	404.91
460.76	390.87
460.94	390.87
461.12	468.11
461.31	491.51
461.49	374.49
461.67	346.40
461.85	393.21
462.04	477.47
462.22	695.14
462.40	409.59
462.59	351.08
462.77	444.70
462.95	440.02
463.13	360.44
463.32	407.25
463.50	341.72
463.68	416.62
463.86	388.53
464.05	451.72
464.23	414.27
464.41	430.66
464.59	407.25
464.78	454.06
464.96	486.83
465.14	435.34
465.32	440.02
465.50	428.32
465.69	449.38
465.87	341.72
466.05	411.93
466.23	341.72
466.41	397.89
466.60	416.62
466.78	440.02
466.96	379.17
467.14	486.83
467.32	486.83
467.51	510.24
467.69	447.04
467.87	454.06
468.05	379.17
468.23	479.81
468.41	393.21
468.60	362.78
468.78	463.43
468.96	456.40
469.14	393.21
469.32	440.02
469.50	402.57
469.69	390.87
469.87	477.47
470.05	418.96
470.23	393.21
470.41	430.66
470.59	425.98
470.77	409.59
470.95	437.68
471.14	489.17
471.32	444.70
471.50	500.87
471.68	451.72
471.86	407.25
472.04	379.17
472.22	411.93
472.40	388.53
472.58	435.34
472.77	381.51
472.95	461.09
473.13	418.96
473.31	402.57
473.49	414.27
473.67	381.51
473.85	430.66
474.03	472.79
474.21	451.72
474.39	433.00
474.57	442.36
474.75	463.43
474.93	348.74
475.12	440.02
475.30	442.36
475.48	414.27
475.66	442.36
475.84	395.55
476.02	376.83
476.20	442.36
476.38	468.11
476.56	486.83
476.74	404.91
476.92	374.49
477.10	358.10
477.28	407.25
477.46	437.68
477.64	425.98
477.82	428.32
478.00	390.87
478.18	393.21
478.36	468.11
478.54	355.76
478.72	430.66
478.90	440.02
479.08	425.98
479.26	402.57
479.44	421.30
479.62	369.80
479.80	414.27
479.98	425.98
480.16	428.32
480.34	397.89
480.52	365.12
480.70	416.62
480.88	407.25
481.06	423.64
481.24	421.30
481.41	421.30
481.59	458.74
481.77	351.08
481.95	421.30
482.13	416.62
482.31	437.68
482.49	407.25
482.67	404.91
482.85	425.98
483.03	425.98
483.21	383.85
483.39	400.23
483.57	355.76
483.74	465.77
483.92	470.45
484.10	475.13
484.28	428.32
484.46	454.06
484.64	390.87
484.82	461.09
485.00	362.78
485.18	440.02
485.35	496.19
485.53	404.91
485.71	402.57
485.89	435.34
486.07	435.34
486.25	367.46
486.43	512.58
486.61	456.40
486.78	433.00
486.96	437.68
487.14	493.85
487.32	358.10
487.50	395.55
487.68	435.34
487.85	397.89
488.03	402.57
488.21	433.00
488.39	465.77
488.57	472.79
488.75	444.70
488.92	486.83
489.10	393.21
489.28	355.76
489.46	369.80
489.64	339.38
489.81	484.49
489.99	433.00
490.17	386.19
490.35	475.13
490.53	397.89
490.70	411.93
490.88	411.93
491.06	400.23
491.24	451.72
491.41	437.68
491.59	512.58
491.77	418.96
491.95	414.27
492.13	454.06
492.30	435.34
492.48	416.62
492.66	416.62
492.84	388.53
493.01	435.34
493.19	482.15
493.37	442.36
493.54	486.83
493.72	451.72
493.90	449.38
494.08	369.80
494.25	402.57
494.43	386.19
494.61	393.21
494.79	414.27
494.96	318.31
495.14	416.62
495.32	409.59
495.49	381.51
495.67	374.49
495.85	430.66
496.02	355.76
496.20	407.25
496.38	411.93
496.55	369.80
496.73	362.78
496.91	402.57
497.09	435.34
497.26	486.83
497.44	470.45
497.62	386.19
497.79	433.00
497.97	463.43
498.14	383.85
498.32	388.53
498.50	381.51
498.67	414.27
498.85	402.57
499.03	407.25
499.20	456.40
499.38	358.10
499.56	400.23
499.73	458.74
499.91	374.49
500.08	353.42
500.26	358.10
500.44	411.93
500.61	365.12
500.79	437.68
500.97	496.19
501.14	503.22
501.32	416.62
501.49	437.68
501.67	411.93
501.84	409.59
502.02	418.96
502.20	390.87
502.37	393.21
502.55	423.64
502.72	372.15
502.90	433.00
503.07	428.32
503.25	404.91
503.43	416.62
503.60	409.59
503.78	435.34
503.95	414.27
504.13	423.64
504.30	484.49
504.48	402.57
504.65	449.38
504.83	475.13
505.01	379.17
505.18	447.04
505.36	456.40
505.53	367.46
505.71	395.55
505.88	451.72
506.06	407.25
506.23	372.15
506.41	407.25
506.58	491.51
506.76	395.55
506.93	461.09
507.11	344.06
507.28	337.04
507.46	423.64
507.63	470.45
507.81	468.11
507.98	437.68
508.16	447.04
508.33	390.87
508.50	372.15
508.68	430.66
508.85	430.66
509.03	468.11
509.20	409.59
509.38	388.53
509.55	458.74
509.73	402.57
509.90	411.93
510.08	409.59
510.25	414.27
510.42	428.32
510.60	458.74
510.77	430.66
510.95	458.74
511.12	465.77
511.30	458.74
511.47	456.40
511.64	458.74
511.82	411.93
511.99	409.59
512.17	390.87
512.34	414.27
512.51	418.96
512.69	425.98
512.86	414.27
513.04	344.06
513.21	454.06
513.38	358.10
513.56	362.78
513.73	418.96
513.90	416.62
514.08	421.30
514.25	500.87
514.43	423.64
514.60	435.34
514.77	423.64
514.95	440.02
515.12	379.17
515.29	414.27
515.47	416.62
515.64	456.40
515.81	416.62
515.99	376.83
516.16	437.68
516.33	425.98
516.51	416.62
516.68	388.53
516.85	486.83
517.03	463.43
517.20	395.55
517.37	430.66
517.54	472.79
517.72	376.83
517.89	444.70
518.06	367.46
518.24	383.85
518.41	449.38
518.58	322.99
518.75	437.68
518.93	458.74
519.10	463.43
519.27	430.66
519.45	433.00
519.62	367.46
519.79	442.36
519.96	351.08
520.14	430.66
520.31	430.66
520.48	400.23
520.65	418.96
520.83	447.04
521.00	400.23
521.17	421.30
521.34	421.30
521.52	512.58
521.69	418.96
521.86	388.53
522.03	454.06
522.20	388.53
522.38	374.49
522.55	414.27
522.72	367.46
522.89	442.36
523.07	451.72
523.24	369.80
523.41	353.42
523.58	355.76
523.75	334.70
523.92	428.32
524.10	409.59
524.27	369.80
524.44	367.46
524.61	458.74
524.78	367.46
524.96	447.04
525.13	400.23
525.30	447.04
525.47	437.68
525.64	418.96
525.81	442.36
525.98	425.98
526.16	472.79
526.33	397.89
526.50	414.27
526.67	418.96
526.84	428.32
527.01	418.96
527.18	440.02
527.36	379.17
527.53	388.53
527.70	442.36
527.87	402.57
528.04	407.25
528.21	428.32
528.38	402.57
528.55	425.98
528.72	393.21
528.89	489.17
529.07	463.43
529.24	449.38
529.41	465.77
529.58	416.62
529.75	437.68
529.92	407.25
530.09	346.40
530.26	435.34
530.43	454.06
530.60	383.85
530.77	381.51
530.94	400.23
531.11	360.44
531.28	395.55
531.46	355.76
531.63	400.23
531.80	402.57
531.97	418.96
532.14	411.93
532.31	374.49
532.48	430.66
532.65	456.40
532.82	393.21
532.99	440.02
533.16	440.02
533.33	442.36
533.50	353.42
533.67	404.91
533.84	379.17
534.01	393.21
534.18	465.77
534.35	461.09
534.52	374.49
534.69	470.45
534.86	409.59
535.03	425.98
535.20	423.64
535.37	411.93
535.54	435.34
535.71	395.55
535.88	395.55
536.05	435.34
536.22	458.74
536.38	388.53
536.55	489.17
536.72	486.83
536.89	400.23
537.06	423.64
537.23	379.17
537.40	407.25
537.57	458.74
537.74	449.38
537.91	407.25
538.08	449.38
538.25	400.23
538.42	372.15
538.59	411.93
538.75	358.10
538.92	374.49
539.09	372.15
539.26	409.59
539.43	442.36
539.60	472.79
539.77	428.32
539.94	409.59
540.11	379.17
540.28	390.87
540.44	409.59
540.61	351.08
540.78	442.36
540.95	425.98
541.12	458.74
541.29	397.89
541.46	411.93
541.62	383.85
541.79	418.96
541.96	332.36
542.13	386.19
542.30	383.85
542.47	430.66
542.63	414.27
542.80	416.62
542.97	451.72
543.14	470.45
543.31	414.27
543.48	397.89
543.64	418.96
543.81	390.87
543.98	341.72
544.15	355.76
544.32	479.81
544.48	397.89
544.65	444.70
544.82	414.27
544.99	402.57
545.16	388.53
545.32	362.78
545.49	418.96
545.66	514.92
545.83	430.66
546.00	458.74
546.16	402.57
546.33	411.93
546.50	402.57
546.67	430.66
546.83	409.59
547.00	475.13
547.17	386.19
547.34	414.27
547.50	430.66
547.67	447.04
547.84	388.53
548.00	421.30
548.17	440.02
548.34	327.68
548.51	393.21
548.67	454.06
548.84	414.27
549.01	395.55
549.18	454.06
549.34	444.70
549.51	409.59
549.68	472.79
549.84	390.87
550.01	423.64
550.18	409.59
550.34	468.11
550.51	479.81
550.68	435.34
550.84	428.32
551.01	374.49
551.18	388.53
551.34	449.38
551.51	442.36
551.68	414.27
551.84	409.59
552.01	365.12
552.18	381.51
552.34	395.55
552.51	414.27
552.68	402.57
552.84	414.27
553.01	416.62
553.18	437.68
553.34	416.62
553.51	416.62
553.67	486.83
553.84	456.40
554.01	461.09
554.17	390.87
554.34	372.15
554.51	440.02
554.67	454.06
554.84	468.11
555.00	451.72
555.17	397.89
555.33	423.64
555.50	362.78
555.67	437.68
555.83	287.89
556.00	451.72
556.16	484.49
556.33	475.13
556.50	360.44
556.66	395.55
556.83	484.49
556.99	449.38
557.16	341.72
557.32	372.15
557.49	325.33
557.65	447.04
557.82	423.64
557.98	484.49
558.15	397.89
558.32	388.53
558.48	404.91
558.65	440.02
558.81	414.27
558.98	346.40
559.14	390.87
559.31	395.55
559.47	423.64
559.64	393.21
559.80	318.31
559.97	379.17
560.13	397.89
560.30	416.62
560.46	348.74
560.63	393.21
560.79	365.12
560.96	416.62
561.12	386.19
561.29	425.98
561.45	402.57
561.61	400.23
561.78	407.25
561.94	440.02
562.11	393.21
562.27	454.06
562.44	409.59
562.60	372.15
562.77	456.40
562.93	428.32
563.10	465.77
563.26	454.06
563.42	372.15
563.59	355.76
563.75	440.02
563.92	428.32
564.08	362.78
564.24	454.06
564.41	468.11
564.57	451.72
564.74	449.38
564.90	376.83
565.07	458.74
565.23	503.22
565.39	433.00
565.56	421.30
565.72	393.21
565.88	444.70
566.05	433.00
566.21	397.89
566.38	369.80
566.54	388.53
566.70	341.72
566.87	496.19
567.03	369.80
567.19	437.68
567.36	449.38
567.52	400.23
567.68	374.49
567.85	388.53
568.01	435.34
568.17	353.42
568.34	400.23
568.50	411.93
568.66	362.78
568.83	496.19
568.99	421.30
569.15	428.32
569.32	400.23
569.48	444.70
569.64	320.65
569.81	433.00
569.97	437.68
570.13	468.11
570.30	416.62
570.46	383.85
570.62	407.25
570.78	451.72
570.95	358.10
571.11	479.81
571.27	496.19
571.43	447.04
571.60	388.53
571.76	379.17
571.92	339.38
572.09	463.43
572.25	428.32
572.41	393.21
572.57	369.80
572.74	430.66
572.90	397.89
573.06	411.93
573.22	355.76
573.38	456.40
573.55	463.43
573.71	421.30
573.87	465.77
574.03	388.53
574.20	372.15
574.36	423.64
574.52	353.42
574.68	414.27
574.84	423.64
575.01	376.83
575.17	334.70
575.33	477.47
575.49	447.04
575.65	451.72
575.82	465.77
575.98	416.62
576.14	402.57
576.30	376.83
576.46	418.96
576.62	395.55
576.79	428.32
576.95	482.15
577.11	433.00
577.27	409.59
577.43	397.89
577.59	486.83
577.75	437.68
577.92	425.98
578.08	440.02
578.24	425.98
578.40	444.70
578.56	442.36
578.72	477.47
578.88	407.25
579.04	393.21
579.21	414.27
579.37	418.96
579.53	458.74
579.69	421.30
579.85	433.00
580.01	433.00
580.17	423.64
580.33	395.55
580.49	430.66
580.65	402.57
580.82	430.66
580.98	409.59
581.14	435.34
581.30	409.59
581.46	461.09
581.62	442.36
581.78	428.32
581.94	348.74
582.10	360.44
582.26	393.21
582.42	407.25
582.58	397.89
582.74	383.85
582.90	346.40
583.06	421.30
583.22	365.12
583.38	400.23
583.54	416.62
583.70	482.15
583.86	425.98
584.02	437.68
584.18	409.59
584.34	379.17
584.50	475.13
584.66	411.93
584.82	400.23
584.98	379.17
585.14	386.19
585.30	435.34
585.46	407.25
585.62	327.68
585.78	505.56
585.94	468.11
586.10	428.32
586.26	418.96
586.42	451.72
586.58	437.68
586.74	416.62
586.90	369.80
587.06	449.38
587.22	451.72
587.38	423.64
587.54	421.30
587.70	407.25
587.86	482.15
588.02	458.74
588.18	416.62
588.34	421.30
588.49	411.93
588.65	477.47
588.81	425.98
588.97	435.34
589.13	388.53
589.29	461.09
589.45	447.04
589.61	435.34
589.77	461.09
589.93	423.64
590.08	418.96
590.24	433.00
590.40	449.38
590.56	386.19
590.72	440.02
590.88	376.83
591.04	477.47
591.20	395.55
591.35	404.91
591.51	451.72
591.67	440.02
591.83	374.49
591.99	484.49
592.15	447.04
592.31	423.64
592.46	390.87
592.62	435.34
592.78	337.04
592.94	428.32
593.10	388.53
593.26	470.45
593.41	367.46
593.57	322.99
593.73	334.70
593.89	381.51
594.05	421.30
594.20	440.02
594.36	414.27
594.52	437.68
594.68	423.64
594.84	407.25
594.99	400.23
595.15	376.83
595.31	407.25
595.47	425.98
595.62	404.91
595.78	397.89
595.94	428.32
596.10	472.79
596.25	393.21
596.41	390.87
596.57	430.66
596.73	437.68
596.88	418.96
597.04	390.87
597.20	479.81
597.36	489.17
597.51	440.02
597.67	409.59
597.83	425.98
597.99	433.00
598.14	383.85
598.30	400.23
598.46	454.06
598.61	430.66
598.77	447.04
598.93	346.40
599.09	416.62
599.24	383.85
599.40	425.98
599.56	458.74
599.71	475.13
599.87	447.04
600.03	400.23
600.18	344.06
600.34	400.23
600.50	397.89
600.65	355.76
600.81	416.62
600.97	362.78
601.12	437.68
601.28	346.40
601.44	463.43
601.59	393.21
601.75	425.98
601.91	430.66
602.06	381.51
602.22	498.53
602.37	421.30
602.53	376.83
602.69	433.00
602.84	381.51
603.00	351.08
603.16	346.40
603.31	437.68
603.47	468.11
603.62	367.46
603.78	454.06
603.94	447.04
604.09	456.40
604.25	461.09
604.40	461.09
604.56	451.72
604.71	423.64
604.87	416.62
605.03	447.04
605.18	423.64
605.34	383.85
605.49	386.19
605.65	425.98
605.80	416.62
605.96	461.09
606.12	407.25
606.27	374.49
606.43	395.55
606.58	440.02
606.74	465.77
606.89	348.74
607.05	376.83
607.20	393.21
607.36	358.10
607.51	374.49
607.67	400.23
607.82	407.25
607.98	414.27
608.13	491.51
608.29	404.91
608.44	468.11
608.60	428.32
608.75	421.30
608.91	381.51
609.06	416.62
609.22	454.06
609.37	388.53
609.53	458.74
609.68	376.83
609.84	400.23
609.99	409.59
610.15	411.93
