SpectraSuite Data File
++++++++++++++++++++++++++++++++++++
Date: Fri Oct 25 12:11:13 EDT 2013
User: price-jones
Dark Spectrum Present: No
Reference Spectrum Present: No
Number of Sampled Component Spectra: 1
Spectrometers: USB2+H05261
Integration Time (usec): 100000 (USB2+H05261)
Spectra Averaged: 1 (USB2+H05261)
Boxcar Smoothing: 0 (USB2+H05261)
Correct for Electrical Dark: No (USB2+H05261)
Strobe/Lamp Enabled: No (USB2+H05261)
Correct for Detector Non-linearity: No (USB2+H05261)
Correct for Stray Light: No (USB2+H05261)
Number of Pixels in Processed Spectrum: 2048
>>>>>Begin Processed Spectral Data<<<<<
365.73	301.93
365.92	301.93
366.12	301.93
366.32	255.12
366.52	308.95
366.72	308.95
366.91	257.46
367.11	243.42
367.31	285.55
367.51	184.90
367.70	227.03
367.90	175.54
368.10	276.18
368.30	255.12
368.49	238.73
368.69	264.48
368.89	250.44
369.09	358.10
369.28	294.91
369.48	271.50
369.68	280.86
369.87	308.95
370.07	322.99
370.27	315.97
370.47	353.42
370.66	332.36
370.86	425.98
371.06	341.72
371.25	390.87
371.45	381.51
371.65	393.21
371.84	351.08
372.04	341.72
372.24	301.93
372.44	428.32
372.63	379.17
372.83	409.59
373.03	390.87
373.22	414.27
373.42	404.91
373.62	393.21
373.81	421.30
374.01	407.25
374.21	341.72
374.40	381.51
374.60	425.98
374.79	484.49
374.99	444.70
375.19	411.93
375.38	404.91
375.58	442.36
375.78	437.68
375.97	425.98
376.17	458.74
376.37	383.85
376.56	393.21
376.76	470.45
376.95	327.68
377.15	423.64
377.35	423.64
377.54	386.19
377.74	433.00
377.93	390.87
378.13	379.17
378.33	437.68
378.52	423.64
378.72	465.77
378.91	456.40
379.11	339.38
379.31	402.57
379.50	320.65
379.70	458.74
379.89	397.89
380.09	334.70
380.28	390.87
380.48	435.34
380.68	409.59
380.87	341.72
381.07	402.57
381.26	383.85
381.46	372.15
381.65	393.21
381.85	341.72
382.04	400.23
382.24	433.00
382.43	381.51
382.63	468.11
382.83	416.62
383.02	402.57
383.22	423.64
383.41	397.89
383.61	444.70
383.80	477.47
384.00	379.17
384.19	390.87
384.39	433.00
384.58	416.62
384.78	447.04
384.97	407.25
385.17	425.98
385.36	355.76
385.56	404.91
385.75	369.80
385.95	402.57
386.14	367.46
386.34	463.43
386.53	346.40
386.72	414.27
386.92	411.93
387.11	390.87
387.31	442.36
387.50	358.10
387.70	435.34
387.89	390.87
388.09	390.87
388.28	369.80
388.48	454.06
388.67	388.53
388.86	400.23
389.06	477.47
389.25	425.98
389.45	397.89
389.64	325.33
389.84	433.00
390.03	411.93
390.22	451.72
390.42	437.68
390.61	395.55
390.81	463.43
391.00	379.17
391.19	456.40
391.39	397.89
391.58	425.98
391.78	454.06
391.97	372.15
392.16	409.59
392.36	376.83
392.55	451.72
392.75	449.38
392.94	425.98
393.13	383.85
393.33	330.02
393.52	465.77
393.71	470.45
393.91	458.74
394.10	376.83
394.29	381.51
394.49	433.00
394.68	421.30
394.88	411.93
395.07	390.87
395.26	479.81
395.46	440.02
395.65	484.49
395.84	365.12
396.04	383.85
396.23	374.49
396.42	447.04
396.62	393.21
396.81	416.62
397.00	465.77
397.19	444.70
397.39	400.23
397.58	379.17
397.77	451.72
397.97	463.43
398.16	407.25
398.35	362.78
398.55	386.19
398.74	437.68
398.93	386.19
399.12	414.27
399.32	447.04
399.51	369.80
399.70	482.15
399.90	416.62
400.09	447.04
400.28	442.36
400.47	517.26
400.67	397.89
400.86	355.76
401.05	463.43
401.24	421.30
401.44	351.08
401.63	351.08
401.82	381.51
402.01	444.70
402.21	416.62
402.40	369.80
402.59	430.66
402.78	397.89
402.97	402.57
403.17	423.64
403.36	416.62
403.55	451.72
403.74	404.91
403.93	433.00
404.13	437.68
404.32	514.92
404.51	372.15
404.70	411.93
404.89	369.80
405.09	416.62
405.28	404.91
405.47	437.68
405.66	395.55
405.85	463.43
406.05	341.72
406.24	355.76
406.43	493.85
406.62	433.00
406.81	442.36
407.00	428.32
407.20	440.02
407.39	430.66
407.58	402.57
407.77	416.62
407.96	468.11
408.15	393.21
408.34	435.34
408.54	386.19
408.73	425.98
408.92	423.64
409.11	379.17
409.30	353.42
409.49	395.55
409.68	337.04
409.87	409.59
410.07	428.32
410.26	414.27
410.45	458.74
410.64	435.34
410.83	400.23
411.02	390.87
411.21	383.85
411.40	468.11
411.59	421.30
411.78	444.70
411.98	400.23
412.17	362.78
412.36	402.57
412.55	425.98
412.74	402.57
412.93	463.43
413.12	430.66
413.31	355.76
413.50	421.30
413.69	411.93
413.88	454.06
414.07	376.83
414.26	355.76
414.45	372.15
414.64	409.59
414.83	447.04
415.02	463.43
415.22	447.04
415.41	372.15
415.60	470.45
415.79	374.49
415.98	374.49
416.17	402.57
416.36	449.38
416.55	395.55
416.74	444.70
416.93	411.93
417.12	395.55
417.31	421.30
417.50	355.76
417.69	442.36
417.88	411.93
418.07	395.55
418.26	449.38
418.45	416.62
418.64	461.09
418.83	386.19
419.02	444.70
419.21	465.77
419.39	402.57
419.58	365.12
419.77	411.93
419.96	414.27
420.15	423.64
420.34	456.40
420.53	397.89
420.72	435.34
420.91	418.96
421.10	358.10
421.29	430.66
421.48	461.09
421.67	418.96
421.86	435.34
422.05	425.98
422.24	449.38
422.43	369.80
422.61	440.02
422.80	367.46
422.99	390.87
423.18	402.57
423.37	376.83
423.56	447.04
423.75	346.40
423.94	409.59
424.13	386.19
424.32	358.10
424.50	418.96
424.69	397.89
424.88	425.98
425.07	440.02
425.26	402.57
425.45	433.00
425.64	414.27
425.83	386.19
426.01	421.30
426.20	437.68
426.39	423.64
426.58	416.62
426.77	477.47
426.96	430.66
427.15	374.49
427.33	402.57
427.52	409.59
427.71	425.98
427.90	421.30
428.09	430.66
428.28	341.72
428.46	440.02
428.65	390.87
428.84	374.49
429.03	435.34
429.22	355.76
429.40	383.85
429.59	404.91
429.78	493.85
429.97	383.85
430.16	430.66
430.34	442.36
430.53	418.96
430.72	409.59
430.91	414.27
431.10	416.62
431.28	433.00
431.47	407.25
431.66	407.25
431.85	374.49
432.03	369.80
432.22	433.00
432.41	376.83
432.60	440.02
432.79	402.57
432.97	442.36
433.16	414.27
433.35	430.66
433.54	451.72
433.72	428.32
433.91	423.64
434.10	416.62
434.28	414.27
434.47	402.57
434.66	451.72
434.85	402.57
435.03	325.33
435.22	447.04
435.41	461.09
435.59	456.40
435.78	390.87
435.97	379.17
436.16	393.21
436.34	379.17
436.53	440.02
436.72	437.68
436.90	444.70
437.09	379.17
437.28	411.93
437.46	418.96
437.65	449.38
437.84	440.02
438.02	395.55
438.21	423.64
438.40	463.43
438.58	407.25
438.77	393.21
438.96	425.98
439.14	423.64
439.33	458.74
439.52	386.19
439.70	379.17
439.89	454.06
440.08	503.22
440.26	388.53
440.45	475.13
440.63	425.98
440.82	313.63
441.01	423.64
441.19	435.34
441.38	407.25
441.57	409.59
441.75	454.06
441.94	505.56
442.12	428.32
442.31	482.15
442.50	383.85
442.68	407.25
442.87	351.08
443.05	458.74
443.24	395.55
443.43	409.59
443.61	449.38
443.80	456.40
443.98	397.89
444.17	409.59
444.35	500.87
444.54	425.98
444.73	360.44
444.91	458.74
445.10	423.64
445.28	472.79
445.47	409.59
445.65	414.27
445.84	388.53
446.02	369.80
446.21	407.25
446.39	423.64
446.58	503.22
446.77	381.51
446.95	435.34
447.14	421.30
447.32	402.57
447.51	386.19
447.69	433.00
447.88	383.85
448.06	463.43
448.25	435.34
448.43	294.91
448.62	407.25
448.80	409.59
448.99	423.64
449.17	388.53
449.36	451.72
449.54	416.62
449.73	451.72
449.91	447.04
450.10	393.21
450.28	458.74
450.46	451.72
450.65	397.89
450.83	358.10
451.02	435.34
451.20	411.93
451.39	390.87
451.57	376.83
451.76	463.43
451.94	362.78
452.13	421.30
452.31	423.64
452.49	395.55
452.68	404.91
452.86	404.91
453.05	388.53
453.23	388.53
453.42	402.57
453.60	409.59
453.78	418.96
453.97	430.66
454.15	402.57
454.34	301.93
454.52	418.96
454.70	444.70
454.89	390.87
455.07	447.04
455.26	393.21
455.44	451.72
455.62	442.36
455.81	351.08
455.99	362.78
456.17	428.32
456.36	386.19
456.54	388.53
456.73	409.59
456.91	386.19
457.09	383.85
457.28	386.19
457.46	367.46
457.64	402.57
457.83	425.98
458.01	397.89
458.19	465.77
458.38	423.64
458.56	383.85
458.74	339.38
458.93	365.12
459.11	486.83
459.29	437.68
459.48	430.66
459.66	458.74
459.84	449.38
460.03	510.24
460.21	451.72
460.39	435.34
460.57	444.70
460.76	416.62
460.94	500.87
461.12	491.51
461.31	486.83
461.49	407.25
461.67	402.57
461.85	430.66
462.04	411.93
462.22	767.70
462.40	444.70
462.59	444.70
462.77	383.85
462.95	458.74
463.13	388.53
463.32	435.34
463.50	449.38
463.68	430.66
463.86	358.10
464.05	425.98
464.23	404.91
464.41	395.55
464.59	411.93
464.78	409.59
464.96	360.44
465.14	447.04
465.32	381.51
465.50	425.98
465.69	393.21
465.87	383.85
466.05	395.55
466.23	409.59
466.41	416.62
466.60	386.19
466.78	444.70
466.96	395.55
467.14	416.62
467.32	433.00
467.51	365.12
467.69	470.45
467.87	395.55
468.05	386.19
468.23	393.21
468.41	470.45
468.60	482.15
468.78	404.91
468.96	435.34
469.14	421.30
469.32	454.06
469.50	500.87
469.69	444.70
469.87	386.19
470.05	430.66
470.23	411.93
470.41	428.32
470.59	386.19
470.77	339.38
470.95	444.70
471.14	435.34
471.32	395.55
471.50	458.74
471.68	468.11
471.86	442.36
472.04	400.23
472.22	479.81
472.40	402.57
472.58	463.43
472.77	416.62
472.95	416.62
473.13	418.96
473.31	484.49
473.49	418.96
473.67	444.70
473.85	409.59
474.03	404.91
474.21	414.27
474.39	535.98
474.57	500.87
474.75	442.36
474.93	397.89
475.12	423.64
475.30	388.53
475.48	454.06
475.66	407.25
475.84	369.80
476.02	442.36
476.20	470.45
476.38	486.83
476.56	512.58
476.74	393.21
476.92	433.00
477.10	383.85
477.28	365.12
477.46	421.30
477.64	411.93
477.82	395.55
478.00	461.09
478.18	472.79
478.36	386.19
478.54	477.47
478.72	428.32
478.90	409.59
479.08	423.64
479.26	421.30
479.44	372.15
479.62	433.00
479.80	332.36
479.98	430.66
480.16	456.40
480.34	411.93
480.52	376.83
480.70	425.98
480.88	374.49
481.06	442.36
481.24	351.08
481.41	348.74
481.59	430.66
481.77	418.96
481.95	397.89
482.13	400.23
482.31	451.72
482.49	353.42
482.67	512.58
482.85	416.62
483.03	430.66
483.21	442.36
483.39	367.46
483.57	376.83
483.74	416.62
483.92	468.11
484.10	374.49
484.28	407.25
484.46	440.02
484.64	362.78
484.82	451.72
485.00	348.74
485.18	433.00
485.35	404.91
485.53	348.74
485.71	484.49
485.89	367.46
486.07	416.62
486.25	510.24
486.43	355.76
486.61	510.24
486.78	379.17
486.96	468.11
487.14	393.21
487.32	454.06
487.50	388.53
487.68	468.11
487.85	430.66
488.03	498.53
488.21	390.87
488.39	437.68
488.57	430.66
488.75	425.98
488.92	470.45
489.10	435.34
489.28	421.30
489.46	423.64
489.64	362.78
489.81	421.30
489.99	379.17
490.17	386.19
490.35	451.72
490.53	325.33
490.70	383.85
490.88	418.96
491.06	397.89
491.24	383.85
491.41	423.64
491.59	456.40
491.77	475.13
491.95	444.70
492.13	428.32
492.30	362.78
492.48	404.91
492.66	372.15
492.84	437.68
493.01	458.74
493.19	428.32
493.37	407.25
493.54	447.04
493.72	486.83
493.90	346.40
494.08	355.76
494.25	433.00
494.43	358.10
494.61	395.55
494.79	388.53
494.96	440.02
495.14	376.83
495.32	456.40
495.49	379.17
495.67	430.66
495.85	360.44
496.02	421.30
496.20	416.62
496.38	496.19
496.55	386.19
496.73	430.66
496.91	456.40
497.09	397.89
497.26	442.36
497.44	407.25
497.62	348.74
497.79	374.49
497.97	496.19
498.14	400.23
498.32	353.42
498.50	381.51
498.67	465.77
498.85	416.62
499.03	428.32
499.20	493.85
499.38	407.25
499.56	369.80
499.73	449.38
499.91	372.15
500.08	395.55
500.26	442.36
500.44	447.04
500.61	411.93
500.79	421.30
500.97	404.91
501.14	409.59
501.32	463.43
501.49	407.25
501.67	423.64
501.84	397.89
502.02	430.66
502.20	503.22
502.37	472.79
502.55	376.83
502.72	404.91
502.90	456.40
503.07	376.83
503.25	425.98
503.43	463.43
503.60	386.19
503.78	524.28
503.95	465.77
504.13	411.93
504.30	482.15
504.48	421.30
504.65	482.15
504.83	428.32
505.01	421.30
505.18	416.62
505.36	393.21
505.53	433.00
505.71	400.23
505.88	344.06
506.06	311.29
506.23	367.46
506.41	437.68
506.58	418.96
506.76	435.34
506.93	437.68
507.11	411.93
507.28	404.91
507.46	421.30
507.63	437.68
507.81	428.32
507.98	400.23
508.16	440.02
508.33	461.09
508.50	451.72
508.68	447.04
508.85	430.66
509.03	465.77
509.20	421.30
509.38	362.78
509.55	400.23
509.73	425.98
509.90	423.64
510.08	339.38
510.25	468.11
510.42	416.62
510.60	407.25
510.77	482.15
510.95	437.68
511.12	379.17
511.30	393.21
511.47	425.98
511.64	444.70
511.82	397.89
511.99	472.79
512.17	449.38
512.34	425.98
512.51	344.06
512.69	369.80
512.86	388.53
513.04	433.00
513.21	409.59
513.38	463.43
513.56	428.32
513.73	402.57
513.90	395.55
514.08	393.21
514.25	409.59
514.43	512.58
514.60	353.42
514.77	344.06
514.95	402.57
515.12	430.66
515.29	449.38
515.47	407.25
515.64	451.72
515.81	484.49
515.99	433.00
516.16	397.89
516.33	486.83
516.51	423.64
516.68	346.40
516.85	472.79
517.03	374.49
517.20	491.51
517.37	404.91
517.54	484.49
517.72	409.59
517.89	355.76
518.06	454.06
518.24	482.15
518.41	388.53
518.58	449.38
518.75	409.59
518.93	425.98
519.10	411.93
519.27	409.59
519.45	465.77
519.62	393.21
519.79	437.68
519.96	334.70
520.14	498.53
520.31	423.64
520.48	440.02
520.65	388.53
520.83	337.04
521.00	372.15
521.17	381.51
521.34	421.30
521.52	367.46
521.69	442.36
521.86	402.57
522.03	425.98
522.20	411.93
522.38	409.59
522.55	390.87
522.72	374.49
522.89	423.64
523.07	477.47
523.24	456.40
523.41	409.59
523.58	498.53
523.75	440.02
523.92	395.55
524.10	416.62
524.27	355.76
524.44	404.91
524.61	447.04
524.78	423.64
524.96	386.19
525.13	386.19
525.30	463.43
525.47	442.36
525.64	482.15
525.81	444.70
525.98	500.87
526.16	440.02
526.33	444.70
526.50	362.78
526.67	423.64
526.84	472.79
527.01	531.30
527.18	416.62
527.36	390.87
527.53	358.10
527.70	367.46
527.87	430.66
528.04	425.98
528.21	449.38
528.38	451.72
528.55	482.15
528.72	475.13
528.89	451.72
529.07	409.59
529.24	423.64
529.41	468.11
529.58	440.02
529.75	400.23
529.92	390.87
530.09	442.36
530.26	407.25
530.43	407.25
530.60	423.64
530.77	414.27
530.94	428.32
531.11	374.49
531.28	402.57
531.46	423.64
531.63	407.25
531.80	400.23
531.97	440.02
532.14	442.36
532.31	369.80
532.48	447.04
532.65	437.68
532.82	376.83
532.99	428.32
533.16	330.02
533.33	402.57
533.50	503.22
533.67	526.62
533.84	440.02
534.01	435.34
534.18	409.59
534.35	475.13
534.52	498.53
534.69	496.19
534.86	409.59
535.03	414.27
535.20	388.53
535.37	428.32
535.54	423.64
535.71	425.98
535.88	442.36
536.05	428.32
536.22	425.98
536.38	390.87
536.55	365.12
536.72	376.83
536.89	390.87
537.06	428.32
537.23	402.57
537.40	404.91
537.57	367.46
537.74	479.81
537.91	433.00
538.08	386.19
538.25	409.59
538.42	407.25
538.59	475.13
538.75	416.62
538.92	444.70
539.09	404.91
539.26	395.55
539.43	425.98
539.60	475.13
539.77	482.15
539.94	407.25
540.11	435.34
540.28	454.06
540.44	435.34
540.61	477.47
540.78	411.93
540.95	332.36
541.12	414.27
541.29	428.32
541.46	449.38
541.62	440.02
541.79	369.80
541.96	430.66
542.13	411.93
542.30	355.76
542.47	404.91
542.63	386.19
542.80	362.78
542.97	456.40
543.14	447.04
543.31	418.96
543.48	411.93
543.64	449.38
543.81	461.09
543.98	372.15
544.15	442.36
544.32	400.23
544.48	451.72
544.65	442.36
544.82	444.70
544.99	404.91
545.16	454.06
545.32	404.91
545.49	407.25
545.66	442.36
545.83	313.63
546.00	433.00
546.16	388.53
546.33	437.68
546.50	367.46
546.67	440.02
546.83	442.36
547.00	437.68
547.17	411.93
547.34	332.36
547.50	330.02
547.67	341.72
547.84	397.89
548.00	475.13
548.17	402.57
548.34	411.93
548.51	449.38
548.67	407.25
548.84	353.42
549.01	416.62
549.18	423.64
549.34	416.62
549.51	409.59
549.68	407.25
549.84	423.64
550.01	458.74
550.18	475.13
550.34	493.85
550.51	472.79
550.68	407.25
550.84	447.04
551.01	365.12
551.18	447.04
551.34	463.43
551.51	386.19
551.68	437.68
551.84	442.36
552.01	442.36
552.18	433.00
552.34	418.96
552.51	442.36
552.68	435.34
552.84	458.74
553.01	341.72
553.18	395.55
553.34	442.36
553.51	337.04
553.67	440.02
553.84	418.96
554.01	470.45
554.17	395.55
554.34	383.85
554.51	458.74
554.67	449.38
554.84	397.89
555.00	358.10
555.17	402.57
555.33	395.55
555.50	402.57
555.67	472.79
555.83	390.87
556.00	440.02
556.16	559.39
556.33	484.49
556.50	400.23
556.66	388.53
556.83	369.80
556.99	433.00
557.16	397.89
557.32	428.32
557.49	425.98
557.65	400.23
557.82	334.70
557.98	437.68
558.15	418.96
558.32	482.15
558.48	411.93
558.65	449.38
558.81	362.78
558.98	409.59
559.14	433.00
559.31	461.09
559.47	463.43
559.64	402.57
559.80	411.93
559.97	447.04
560.13	437.68
560.30	376.83
560.46	430.66
560.63	341.72
560.79	442.36
560.96	451.72
561.12	402.57
561.29	411.93
561.45	418.96
561.61	421.30
561.78	477.47
561.94	390.87
562.11	358.10
562.27	461.09
562.44	472.79
562.60	393.21
562.77	472.79
562.93	454.06
563.10	416.62
563.26	505.56
563.42	463.43
563.59	442.36
563.75	299.59
563.92	390.87
564.08	454.06
564.24	348.74
564.41	388.53
564.57	437.68
564.74	435.34
564.90	435.34
565.07	416.62
565.23	435.34
565.39	397.89
565.56	353.42
565.72	465.77
565.88	444.70
566.05	433.00
566.21	444.70
566.38	465.77
566.54	458.74
566.70	414.27
566.87	379.17
567.03	414.27
567.19	388.53
567.36	425.98
567.52	358.10
567.68	430.66
567.85	463.43
568.01	486.83
568.17	395.55
568.34	430.66
568.50	468.11
568.66	414.27
568.83	449.38
568.99	402.57
569.15	484.49
569.32	397.89
569.48	465.77
569.64	372.15
569.81	416.62
569.97	414.27
570.13	416.62
570.30	409.59
570.46	393.21
570.62	475.13
570.78	386.19
570.95	383.85
571.11	461.09
571.27	407.25
571.43	397.89
571.60	451.72
571.76	404.91
571.92	437.68
572.09	416.62
572.25	465.77
572.41	393.21
572.57	440.02
572.74	447.04
572.90	461.09
573.06	440.02
573.22	402.57
573.38	463.43
573.55	414.27
573.71	465.77
573.87	397.89
574.03	383.85
574.20	404.91
574.36	514.92
574.52	390.87
574.68	423.64
574.84	402.57
575.01	348.74
575.17	402.57
575.33	381.51
575.49	397.89
575.65	433.00
575.82	435.34
575.98	451.72
576.14	381.51
576.30	400.23
576.46	407.25
576.62	435.34
576.79	482.15
576.95	444.70
577.11	390.87
577.27	430.66
577.43	425.98
577.59	400.23
577.75	477.47
577.92	418.96
578.08	425.98
578.24	425.98
578.40	465.77
578.56	404.91
578.72	393.21
578.88	421.30
579.04	421.30
579.21	351.08
579.37	402.57
579.53	442.36
579.69	512.58
579.85	390.87
580.01	430.66
580.17	440.02
580.33	444.70
580.49	411.93
580.65	447.04
580.82	423.64
580.98	367.46
581.14	383.85
581.30	465.77
581.46	381.51
581.62	383.85
581.78	407.25
581.94	444.70
582.10	341.72
582.26	395.55
582.42	344.06
582.58	475.13
582.74	374.49
582.90	447.04
583.06	456.40
583.22	369.80
583.38	397.89
583.54	433.00
583.70	428.32
583.86	440.02
584.02	418.96
584.18	470.45
584.34	344.06
584.50	411.93
584.66	447.04
584.82	444.70
584.98	435.34
585.14	482.15
585.30	428.32
585.46	358.10
585.62	327.68
585.78	360.44
585.94	386.19
586.10	479.81
586.26	472.79
586.42	454.06
586.58	444.70
586.74	442.36
586.90	411.93
587.06	411.93
587.22	461.09
587.38	379.17
587.54	416.62
587.70	379.17
587.86	435.34
588.02	461.09
588.18	362.78
588.34	421.30
588.49	425.98
588.65	433.00
588.81	433.00
588.97	383.85
589.13	449.38
589.29	421.30
589.45	418.96
589.61	491.51
589.77	463.43
589.93	379.17
590.08	404.91
590.24	461.09
590.40	425.98
590.56	465.77
590.72	442.36
590.88	425.98
591.04	379.17
591.20	416.62
591.35	449.38
591.51	470.45
591.67	376.83
591.83	472.79
591.99	390.87
592.15	416.62
592.31	416.62
592.46	425.98
592.62	379.17
592.78	407.25
592.94	425.98
593.10	402.57
593.26	409.59
593.41	430.66
593.57	404.91
593.73	390.87
593.89	428.32
594.05	409.59
594.20	374.49
594.36	437.68
594.52	414.27
594.68	423.64
594.84	475.13
594.99	437.68
595.15	454.06
595.31	393.21
595.47	425.98
595.62	425.98
595.78	463.43
595.94	407.25
596.10	470.45
596.25	442.36
596.41	442.36
596.57	404.91
596.73	379.17
596.88	463.43
597.04	395.55
597.20	390.87
597.36	435.34
597.51	383.85
597.67	414.27
597.83	411.93
597.99	353.42
598.14	365.12
598.30	440.02
598.46	454.06
598.61	437.68
598.77	442.36
598.93	402.57
599.09	482.15
599.24	379.17
599.40	418.96
599.56	437.68
599.71	461.09
599.87	437.68
600.03	440.02
600.18	421.30
600.34	423.64
600.50	461.09
600.65	489.17
600.81	454.06
600.97	407.25
601.12	362.78
601.28	407.25
601.44	479.81
601.59	421.30
601.75	437.68
601.91	423.64
602.06	477.47
602.22	517.26
602.37	477.47
602.53	416.62
602.69	463.43
602.84	381.51
603.00	414.27
603.16	416.62
603.31	433.00
603.47	444.70
603.62	433.00
603.78	402.57
603.94	409.59
604.09	409.59
604.25	482.15
604.40	386.19
604.56	351.08
604.71	381.51
604.87	486.83
605.03	416.62
605.18	425.98
605.34	376.83
605.49	418.96
605.65	332.36
605.80	491.51
605.96	418.96
606.12	428.32
606.27	430.66
606.43	454.06
606.58	402.57
606.74	416.62
606.89	358.10
607.05	428.32
607.20	430.66
607.36	421.30
607.51	489.17
607.67	421.30
607.82	393.21
607.98	395.55
608.13	407.25
608.29	451.72
608.44	512.58
608.60	383.85
608.75	470.45
608.91	451.72
609.06	442.36
609.22	390.87
609.37	372.15
609.53	404.91
609.68	437.68
609.84	374.49
609.99	416.62
610.15	402.57
