SpectraSuite Data File
++++++++++++++++++++++++++++++++++++
Date: Fri Oct 25 12:11:04 EDT 2013
User: price-jones
Dark Spectrum Present: No
Reference Spectrum Present: No
Number of Sampled Component Spectra: 1
Spectrometers: USB2+H05261
Integration Time (usec): 100000 (USB2+H05261)
Spectra Averaged: 1 (USB2+H05261)
Boxcar Smoothing: 0 (USB2+H05261)
Correct for Electrical Dark: No (USB2+H05261)
Strobe/Lamp Enabled: No (USB2+H05261)
Correct for Detector Non-linearity: No (USB2+H05261)
Correct for Stray Light: No (USB2+H05261)
Number of Pixels in Processed Spectrum: 2048
>>>>>Begin Processed Spectral Data<<<<<
365.73	353.42
365.92	353.42
366.12	353.42
366.32	236.39
366.52	215.33
366.72	248.10
366.91	184.90
367.11	212.99
367.31	248.10
367.51	259.80
367.70	212.99
367.90	212.99
368.10	166.18
368.30	215.33
368.49	250.44
368.69	248.10
368.89	234.05
369.09	273.84
369.28	283.20
369.48	255.12
369.68	264.48
369.87	259.80
370.07	280.86
370.27	383.85
370.47	330.02
370.66	332.36
370.86	348.74
371.06	332.36
371.25	386.19
371.45	339.38
371.65	418.96
371.84	341.72
372.04	372.15
372.24	390.87
372.44	388.53
372.63	393.21
372.83	376.83
373.03	456.40
373.22	388.53
373.42	430.66
373.62	402.57
373.81	383.85
374.01	468.11
374.21	351.08
374.40	458.74
374.60	442.36
374.79	470.45
374.99	425.98
375.19	447.04
375.38	376.83
375.58	449.38
375.78	472.79
375.97	440.02
376.17	428.32
376.37	449.38
376.56	437.68
376.76	390.87
376.95	353.42
377.15	456.40
377.35	411.93
377.54	447.04
377.74	395.55
377.93	409.59
378.13	421.30
378.33	376.83
378.52	447.04
378.72	407.25
378.91	435.34
379.11	381.51
379.31	404.91
379.50	372.15
379.70	386.19
379.89	369.80
380.09	407.25
380.28	322.99
380.48	341.72
380.68	425.98
380.87	388.53
381.07	416.62
381.26	395.55
381.46	374.49
381.65	390.87
381.85	308.95
382.04	360.44
382.24	381.51
382.43	379.17
382.63	360.44
382.83	442.36
383.02	433.00
383.22	390.87
383.41	444.70
383.61	437.68
383.80	428.32
384.00	381.51
384.19	407.25
384.39	416.62
384.58	381.51
384.78	416.62
384.97	379.17
385.17	458.74
385.36	430.66
385.56	409.59
385.75	372.15
385.95	425.98
386.14	458.74
386.34	353.42
386.53	362.78
386.72	437.68
386.92	456.40
387.11	351.08
387.31	379.17
387.50	379.17
387.70	404.91
387.89	341.72
388.09	390.87
388.28	358.10
388.48	407.25
388.67	411.93
388.86	390.87
389.06	407.25
389.25	428.32
389.45	437.68
389.64	367.46
389.84	379.17
390.03	418.96
390.22	386.19
390.42	491.51
390.61	379.17
390.81	437.68
391.00	388.53
391.19	433.00
391.39	430.66
391.58	500.87
391.78	397.89
391.97	414.27
392.16	346.40
392.36	430.66
392.55	430.66
392.75	444.70
392.94	414.27
393.13	433.00
393.33	379.17
393.52	381.51
393.71	449.38
393.91	376.83
394.10	430.66
394.29	404.91
394.49	411.93
394.68	376.83
394.88	423.64
395.07	451.72
395.26	374.49
395.46	428.32
395.65	393.21
395.84	435.34
396.04	482.15
396.23	386.19
396.42	374.49
396.62	416.62
396.81	496.19
397.00	355.76
397.19	407.25
397.39	395.55
397.58	447.04
397.77	428.32
397.97	404.91
398.16	409.59
398.35	400.23
398.55	411.93
398.74	390.87
398.93	425.98
399.12	428.32
399.32	383.85
399.51	334.70
399.70	421.30
399.90	409.59
400.09	423.64
400.28	409.59
400.47	315.97
400.67	386.19
400.86	351.08
401.05	433.00
401.24	423.64
401.44	411.93
401.63	435.34
401.82	456.40
402.01	358.10
402.21	367.46
402.40	376.83
402.59	393.21
402.78	458.74
402.97	341.72
403.17	362.78
403.36	428.32
403.55	468.11
403.74	433.00
403.93	402.57
404.13	383.85
404.32	449.38
404.51	397.89
404.70	369.80
404.89	421.30
405.09	456.40
405.28	376.83
405.47	344.06
405.66	353.42
405.85	468.11
406.05	475.13
406.24	428.32
406.43	463.43
406.62	496.19
406.81	341.72
407.00	407.25
407.20	365.12
407.39	374.49
407.58	397.89
407.77	409.59
407.96	379.17
408.15	440.02
408.34	425.98
408.54	369.80
408.73	360.44
408.92	386.19
409.11	395.55
409.30	433.00
409.49	458.74
409.68	339.38
409.87	437.68
410.07	428.32
410.26	409.59
410.45	383.85
410.64	383.85
410.83	409.59
411.02	376.83
411.21	433.00
411.40	435.34
411.59	386.19
411.78	348.74
411.98	433.00
412.17	447.04
412.36	376.83
412.55	425.98
412.74	449.38
412.93	390.87
413.12	390.87
413.31	442.36
413.50	404.91
413.69	362.78
413.88	360.44
414.07	390.87
414.26	369.80
414.45	407.25
414.64	383.85
414.83	402.57
415.02	409.59
415.22	404.91
415.41	409.59
415.60	379.17
415.79	468.11
415.98	416.62
416.17	372.15
416.36	411.93
416.55	428.32
416.74	355.76
416.93	482.15
417.12	418.96
417.31	428.32
417.50	372.15
417.69	465.77
417.88	341.72
418.07	407.25
418.26	404.91
418.45	365.12
418.64	414.27
418.83	414.27
419.02	440.02
419.21	407.25
419.39	425.98
419.58	418.96
419.77	437.68
419.96	454.06
420.15	440.02
420.34	395.55
420.53	440.02
420.72	477.47
420.91	411.93
421.10	376.83
421.29	400.23
421.48	414.27
421.67	447.04
421.86	423.64
422.05	383.85
422.24	447.04
422.43	411.93
422.61	365.12
422.80	402.57
422.99	341.72
423.18	315.97
423.37	463.43
423.56	477.47
423.75	510.24
423.94	433.00
424.13	383.85
424.32	360.44
424.50	379.17
424.69	510.24
424.88	435.34
425.07	430.66
425.26	360.44
425.45	440.02
425.64	472.79
425.83	358.10
426.01	444.70
426.20	456.40
426.39	381.51
426.58	388.53
426.77	433.00
426.96	362.78
427.15	374.49
427.33	433.00
427.52	393.21
427.71	409.59
427.90	451.72
428.09	482.15
428.28	386.19
428.46	351.08
428.65	461.09
428.84	414.27
429.03	447.04
429.22	395.55
429.40	383.85
429.59	360.44
429.78	416.62
429.97	341.72
430.16	411.93
430.34	454.06
430.53	379.17
430.72	374.49
430.91	437.68
431.10	423.64
431.28	407.25
431.47	393.21
431.66	430.66
431.85	472.79
432.03	430.66
432.22	425.98
432.41	475.13
432.60	440.02
432.79	447.04
432.97	367.46
433.16	465.77
433.35	463.43
433.54	454.06
433.72	376.83
433.91	440.02
434.10	400.23
434.28	411.93
434.47	383.85
434.66	465.77
434.85	449.38
435.03	472.79
435.22	367.46
435.41	416.62
435.59	374.49
435.78	440.02
435.97	409.59
436.16	411.93
436.34	482.15
436.53	365.12
436.72	444.70
436.90	372.15
437.09	437.68
437.28	388.53
437.46	430.66
437.65	390.87
437.84	404.91
438.02	470.45
438.21	423.64
438.40	433.00
438.58	383.85
438.77	414.27
438.96	353.42
439.14	383.85
439.33	411.93
439.52	447.04
439.70	365.12
439.89	472.79
440.08	397.89
440.26	435.34
440.45	418.96
440.63	386.19
440.82	402.57
441.01	355.76
441.19	353.42
441.38	461.09
441.57	395.55
441.75	355.76
441.94	451.72
442.12	341.72
442.31	360.44
442.50	437.68
442.68	423.64
442.87	482.15
443.05	409.59
443.24	472.79
443.43	395.55
443.61	440.02
443.80	414.27
443.98	435.34
444.17	372.15
444.35	425.98
444.54	433.00
444.73	393.21
444.91	407.25
445.10	442.36
445.28	376.83
445.47	409.59
445.65	468.11
445.84	372.15
446.02	400.23
446.21	388.53
446.39	395.55
446.58	491.51
446.77	301.93
446.95	383.85
447.14	409.59
447.32	407.25
447.51	423.64
447.69	418.96
447.88	383.85
448.06	477.47
448.25	414.27
448.43	372.15
448.62	470.45
448.80	430.66
448.99	381.51
449.17	486.83
449.36	395.55
449.54	395.55
449.73	440.02
449.91	374.49
450.10	381.51
450.28	463.43
450.46	468.11
450.65	475.13
450.83	470.45
451.02	400.23
451.20	423.64
451.39	421.30
451.57	358.10
451.76	339.38
451.94	397.89
452.13	393.21
452.31	444.70
452.49	362.78
452.68	397.89
452.86	369.80
453.05	362.78
453.23	404.91
453.42	437.68
453.60	379.17
453.78	477.47
453.97	400.23
454.15	365.12
454.34	397.89
454.52	407.25
454.70	535.98
454.89	369.80
455.07	421.30
455.26	355.76
455.44	397.89
455.62	339.38
455.81	451.72
455.99	397.89
456.17	388.53
456.36	395.55
456.54	425.98
456.73	435.34
456.91	433.00
457.09	383.85
457.28	418.96
457.46	362.78
457.64	454.06
457.83	451.72
458.01	388.53
458.19	348.74
458.38	339.38
458.56	428.32
458.74	400.23
458.93	430.66
459.11	388.53
459.29	456.40
459.48	454.06
459.66	463.43
459.84	470.45
460.03	463.43
460.21	425.98
460.39	388.53
460.57	409.59
460.76	372.15
460.94	346.40
461.12	470.45
461.31	418.96
461.49	393.21
461.67	395.55
461.85	463.43
462.04	397.89
462.22	826.21
462.40	440.02
462.59	416.62
462.77	414.27
462.95	447.04
463.13	369.80
463.32	449.38
463.50	442.36
463.68	322.99
463.86	411.93
464.05	390.87
464.23	468.11
464.41	435.34
464.59	430.66
464.78	430.66
464.96	411.93
465.14	369.80
465.32	447.04
465.50	388.53
465.69	484.49
465.87	461.09
466.05	437.68
466.23	376.83
466.41	374.49
466.60	383.85
466.78	433.00
466.96	402.57
467.14	360.44
467.32	475.13
467.51	395.55
467.69	421.30
467.87	468.11
468.05	348.74
468.23	407.25
468.41	454.06
468.60	381.51
468.78	395.55
468.96	472.79
469.14	381.51
469.32	458.74
469.50	390.87
469.69	430.66
469.87	458.74
470.05	454.06
470.23	418.96
470.41	372.15
470.59	449.38
470.77	428.32
470.95	404.91
471.14	416.62
471.32	397.89
471.50	414.27
471.68	367.46
471.86	440.02
472.04	484.49
472.22	407.25
472.40	381.51
472.58	395.55
472.77	397.89
472.95	402.57
473.13	479.81
473.31	430.66
473.49	367.46
473.67	390.87
473.85	461.09
474.03	383.85
474.21	402.57
474.39	440.02
474.57	437.68
474.75	482.15
474.93	472.79
475.12	430.66
475.30	369.80
475.48	407.25
475.66	451.72
475.84	447.04
476.02	456.40
476.20	409.59
476.38	355.76
476.56	458.74
476.74	409.59
476.92	365.12
477.10	465.77
477.28	416.62
477.46	416.62
477.64	491.51
477.82	367.46
478.00	353.42
478.18	416.62
478.36	421.30
478.54	440.02
478.72	433.00
478.90	437.68
479.08	402.57
479.26	435.34
479.44	437.68
479.62	393.21
479.80	379.17
479.98	381.51
480.16	383.85
480.34	407.25
480.52	411.93
480.70	435.34
480.88	386.19
481.06	386.19
481.24	390.87
481.41	407.25
481.59	423.64
481.77	512.58
481.95	376.83
482.13	411.93
482.31	461.09
482.49	409.59
482.67	428.32
482.85	472.79
483.03	407.25
483.21	430.66
483.39	337.04
483.57	425.98
483.74	479.81
483.92	367.46
484.10	386.19
484.28	390.87
484.46	444.70
484.64	437.68
484.82	484.49
485.00	463.43
485.18	374.49
485.35	451.72
485.53	407.25
485.71	437.68
485.89	341.72
486.07	421.30
486.25	519.60
486.43	435.34
486.61	454.06
486.78	425.98
486.96	400.23
487.14	388.53
487.32	416.62
487.50	475.13
487.68	421.30
487.85	402.57
488.03	418.96
488.21	433.00
488.39	430.66
488.57	407.25
488.75	465.77
488.92	409.59
489.10	440.02
489.28	421.30
489.46	444.70
489.64	369.80
489.81	388.53
489.99	456.40
490.17	400.23
490.35	463.43
490.53	374.49
490.70	444.70
490.88	477.47
491.06	353.42
491.24	416.62
491.41	463.43
491.59	428.32
491.77	437.68
491.95	365.12
492.13	404.91
492.30	369.80
492.48	325.33
492.66	440.02
492.84	395.55
493.01	425.98
493.19	479.81
493.37	433.00
493.54	465.77
493.72	475.13
493.90	409.59
494.08	381.51
494.25	397.89
494.43	393.21
494.61	397.89
494.79	404.91
494.96	360.44
495.14	442.36
495.32	447.04
495.49	423.64
495.67	358.10
495.85	374.49
496.02	383.85
496.20	461.09
496.38	376.83
496.55	416.62
496.73	447.04
496.91	409.59
497.09	425.98
497.26	430.66
497.44	433.00
497.62	414.27
497.79	451.72
497.97	379.17
498.14	500.87
498.32	454.06
498.50	428.32
498.67	390.87
498.85	465.77
499.03	470.45
499.20	437.68
499.38	414.27
499.56	379.17
499.73	444.70
499.91	362.78
500.08	423.64
500.26	461.09
500.44	404.91
500.61	454.06
500.79	369.80
500.97	409.59
501.14	486.83
501.32	510.24
501.49	444.70
501.67	440.02
501.84	435.34
502.02	400.23
502.20	411.93
502.37	503.22
502.55	437.68
502.72	409.59
502.90	484.49
503.07	379.17
503.25	449.38
503.43	383.85
503.60	393.21
503.78	447.04
503.95	423.64
504.13	353.42
504.30	395.55
504.48	477.47
504.65	470.45
504.83	486.83
505.01	407.25
505.18	454.06
505.36	407.25
505.53	418.96
505.71	409.59
505.88	425.98
506.06	425.98
506.23	390.87
506.41	381.51
506.58	437.68
506.76	395.55
506.93	372.15
507.11	425.98
507.28	404.91
507.46	437.68
507.63	346.40
507.81	430.66
507.98	355.76
508.16	388.53
508.33	383.85
508.50	400.23
508.68	571.09
508.85	444.70
509.03	451.72
509.20	376.83
509.38	477.47
509.55	444.70
509.73	421.30
509.90	423.64
510.08	468.11
510.25	477.47
510.42	421.30
510.60	372.15
510.77	367.46
510.95	381.51
511.12	423.64
511.30	416.62
511.47	388.53
511.64	475.13
511.82	400.23
511.99	362.78
512.17	369.80
512.34	409.59
512.51	367.46
512.69	407.25
512.86	402.57
513.04	421.30
513.21	463.43
513.38	428.32
513.56	468.11
513.73	479.81
513.90	360.44
514.08	451.72
514.25	414.27
514.43	409.59
514.60	440.02
514.77	414.27
514.95	381.51
515.12	421.30
515.29	390.87
515.47	454.06
515.64	393.21
515.81	435.34
515.99	463.43
516.16	388.53
516.33	475.13
516.51	409.59
516.68	435.34
516.85	451.72
517.03	425.98
517.20	428.32
517.37	437.68
517.54	402.57
517.72	414.27
517.89	337.04
518.06	423.64
518.24	449.38
518.41	409.59
518.58	461.09
518.75	365.12
518.93	449.38
519.10	456.40
519.27	451.72
519.45	418.96
519.62	402.57
519.79	444.70
519.96	414.27
520.14	435.34
520.31	449.38
520.48	393.21
520.65	444.70
520.83	402.57
521.00	435.34
521.17	411.93
521.34	390.87
521.52	395.55
521.69	454.06
521.86	365.12
522.03	381.51
522.20	451.72
522.38	395.55
522.55	386.19
522.72	409.59
522.89	409.59
523.07	521.94
523.24	500.87
523.41	414.27
523.58	444.70
523.75	437.68
523.92	484.49
524.10	463.43
524.27	484.49
524.44	390.87
524.61	444.70
524.78	409.59
524.96	444.70
525.13	451.72
525.30	388.53
525.47	395.55
525.64	351.08
525.81	451.72
525.98	376.83
526.16	428.32
526.33	404.91
526.50	404.91
526.67	376.83
526.84	372.15
527.01	444.70
527.18	409.59
527.36	437.68
527.53	430.66
527.70	442.36
527.87	463.43
528.04	409.59
528.21	355.76
528.38	447.04
528.55	433.00
528.72	440.02
528.89	454.06
529.07	390.87
529.24	416.62
529.41	374.49
529.58	470.45
529.75	407.25
529.92	454.06
530.09	411.93
530.26	428.32
530.43	348.74
530.60	435.34
530.77	404.91
530.94	475.13
531.11	461.09
531.28	479.81
531.46	369.80
531.63	423.64
531.80	423.64
531.97	379.17
532.14	383.85
532.31	435.34
532.48	435.34
532.65	383.85
532.82	379.17
532.99	414.27
533.16	444.70
533.33	421.30
533.50	416.62
533.67	423.64
533.84	465.77
534.01	386.19
534.18	468.11
534.35	362.78
534.52	416.62
534.69	360.44
534.86	400.23
535.03	390.87
535.20	407.25
535.37	442.36
535.54	428.32
535.71	337.04
535.88	447.04
536.05	489.17
536.22	451.72
536.38	386.19
536.55	433.00
536.72	411.93
536.89	465.77
537.06	444.70
537.23	458.74
537.40	442.36
537.57	440.02
537.74	468.11
537.91	442.36
538.08	404.91
538.25	409.59
538.42	362.78
538.59	433.00
538.75	484.49
538.92	477.47
539.09	477.47
539.26	411.93
539.43	519.60
539.60	318.31
539.77	425.98
539.94	468.11
540.11	430.66
540.28	400.23
540.44	468.11
540.61	458.74
540.78	437.68
540.95	411.93
541.12	540.66
541.29	442.36
541.46	411.93
541.62	435.34
541.79	341.72
541.96	428.32
542.13	447.04
542.30	416.62
542.47	454.06
542.63	407.25
542.80	461.09
542.97	514.92
543.14	458.74
543.31	404.91
543.48	388.53
543.64	428.32
543.81	416.62
543.98	458.74
544.15	386.19
544.32	477.47
544.48	407.25
544.65	416.62
544.82	451.72
544.99	425.98
545.16	496.19
545.32	435.34
545.49	475.13
545.66	451.72
545.83	440.02
546.00	423.64
546.16	463.43
546.33	449.38
546.50	442.36
546.67	477.47
546.83	351.08
547.00	397.89
547.17	409.59
547.34	414.27
547.50	442.36
547.67	430.66
547.84	458.74
548.00	383.85
548.17	365.12
548.34	341.72
548.51	477.47
548.67	421.30
548.84	397.89
549.01	421.30
549.18	430.66
549.34	440.02
549.51	381.51
549.68	444.70
549.84	418.96
550.01	489.17
550.18	491.51
550.34	468.11
550.51	498.53
550.68	498.53
550.84	465.77
551.01	409.59
551.18	358.10
551.34	409.59
551.51	322.99
551.68	390.87
551.84	423.64
552.01	437.68
552.18	386.19
552.34	463.43
552.51	433.00
552.68	409.59
552.84	390.87
553.01	479.81
553.18	390.87
553.34	454.06
553.51	451.72
553.67	449.38
553.84	442.36
554.01	407.25
554.17	416.62
554.34	360.44
554.51	447.04
554.67	440.02
554.84	418.96
555.00	388.53
555.17	416.62
555.33	465.77
555.50	414.27
555.67	456.40
555.83	369.80
556.00	447.04
556.16	514.92
556.33	451.72
556.50	327.68
556.66	376.83
556.83	496.19
556.99	442.36
557.16	421.30
557.32	416.62
557.49	351.08
557.65	433.00
557.82	402.57
557.98	421.30
558.15	451.72
558.32	517.26
558.48	484.49
558.65	440.02
558.81	468.11
558.98	367.46
559.14	458.74
559.31	498.53
559.47	470.45
559.64	397.89
559.80	421.30
559.97	430.66
560.13	435.34
560.30	416.62
560.46	400.23
560.63	409.59
560.79	454.06
560.96	397.89
561.12	430.66
561.29	482.15
561.45	435.34
561.61	404.91
561.78	505.56
561.94	372.15
562.11	451.72
562.27	416.62
562.44	362.78
562.60	395.55
562.77	388.53
562.93	491.51
563.10	423.64
563.26	397.89
563.42	423.64
563.59	468.11
563.75	447.04
563.92	365.12
564.08	491.51
564.24	440.02
564.41	472.79
564.57	442.36
564.74	365.12
564.90	374.49
565.07	404.91
565.23	461.09
565.39	421.30
565.56	421.30
565.72	351.08
565.88	376.83
566.05	472.79
566.21	381.51
566.38	395.55
566.54	344.06
566.70	486.83
566.87	442.36
567.03	369.80
567.19	423.64
567.36	414.27
567.52	465.77
567.68	416.62
567.85	421.30
568.01	362.78
568.17	390.87
568.34	365.12
568.50	442.36
568.66	367.46
568.83	447.04
568.99	327.68
569.15	425.98
569.32	409.59
569.48	447.04
569.64	423.64
569.81	388.53
569.97	440.02
570.13	458.74
570.30	409.59
570.46	414.27
570.62	475.13
570.78	360.44
570.95	437.68
571.11	461.09
571.27	367.46
571.43	477.47
571.60	442.36
571.76	341.72
571.92	374.49
572.09	433.00
572.25	402.57
572.41	418.96
572.57	400.23
572.74	463.43
572.90	468.11
573.06	390.87
573.22	372.15
573.38	414.27
573.55	362.78
573.71	379.17
573.87	444.70
574.03	442.36
574.20	404.91
574.36	437.68
574.52	404.91
574.68	458.74
574.84	468.11
575.01	428.32
575.17	411.93
575.33	458.74
575.49	430.66
575.65	404.91
575.82	461.09
575.98	444.70
576.14	449.38
576.30	435.34
576.46	425.98
576.62	491.51
576.79	423.64
576.95	379.17
577.11	433.00
577.27	463.43
577.43	463.43
577.59	442.36
577.75	416.62
577.92	416.62
578.08	425.98
578.24	353.42
578.40	447.04
578.56	451.72
578.72	458.74
578.88	400.23
579.04	425.98
579.21	386.19
579.37	423.64
579.53	489.17
579.69	437.68
579.85	393.21
580.01	351.08
580.17	416.62
580.33	397.89
580.49	369.80
580.65	358.10
580.82	362.78
580.98	386.19
581.14	423.64
581.30	388.53
581.46	482.15
581.62	421.30
581.78	472.79
581.94	386.19
582.10	393.21
582.26	404.91
582.42	367.46
582.58	482.15
582.74	437.68
582.90	423.64
583.06	496.19
583.22	493.85
583.38	444.70
583.54	369.80
583.70	440.02
583.86	430.66
584.02	421.30
584.18	386.19
584.34	421.30
584.50	472.79
584.66	425.98
584.82	348.74
584.98	440.02
585.14	400.23
585.30	440.02
585.46	442.36
585.62	386.19
585.78	353.42
585.94	468.11
586.10	372.15
586.26	414.27
586.42	449.38
586.58	475.13
586.74	353.42
586.90	395.55
587.06	407.25
587.22	390.87
587.38	440.02
587.54	449.38
587.70	465.77
587.86	498.53
588.02	486.83
588.18	416.62
588.34	400.23
588.49	428.32
588.65	372.15
588.81	390.87
588.97	416.62
589.13	397.89
589.29	482.15
589.45	479.81
589.61	454.06
589.77	475.13
589.93	409.59
590.08	451.72
590.24	390.87
590.40	463.43
590.56	428.32
590.72	444.70
590.88	433.00
591.04	421.30
591.20	360.44
591.35	456.40
591.51	348.74
591.67	393.21
591.83	447.04
591.99	447.04
592.15	360.44
592.31	402.57
592.46	404.91
592.62	449.38
592.78	456.40
592.94	425.98
593.10	461.09
593.26	393.21
593.41	355.76
593.57	463.43
593.73	395.55
593.89	437.68
594.05	449.38
594.20	428.32
594.36	447.04
594.52	402.57
594.68	409.59
594.84	404.91
594.99	468.11
595.15	475.13
595.31	475.13
595.47	418.96
595.62	383.85
595.78	383.85
595.94	388.53
596.10	472.79
596.25	491.51
596.41	416.62
596.57	409.59
596.73	404.91
596.88	491.51
597.04	433.00
597.20	372.15
597.36	367.46
597.51	409.59
597.67	367.46
597.83	496.19
597.99	418.96
598.14	372.15
598.30	454.06
598.46	409.59
598.61	519.60
598.77	442.36
598.93	365.12
599.09	358.10
599.24	416.62
599.40	472.79
599.56	388.53
599.71	414.27
599.87	411.93
600.03	390.87
600.18	390.87
600.34	435.34
600.50	425.98
600.65	341.72
600.81	402.57
600.97	517.26
601.12	440.02
601.28	374.49
601.44	470.45
601.59	430.66
601.75	463.43
601.91	383.85
602.06	442.36
602.22	538.32
602.37	491.51
602.53	470.45
602.69	383.85
602.84	437.68
603.00	374.49
603.16	369.80
603.31	428.32
603.47	383.85
603.62	388.53
603.78	367.46
603.94	400.23
604.09	414.27
604.25	423.64
604.40	489.17
604.56	472.79
604.71	421.30
604.87	376.83
605.03	440.02
605.18	376.83
605.34	409.59
605.49	423.64
605.65	404.91
605.80	435.34
605.96	395.55
606.12	444.70
606.27	451.72
606.43	346.40
606.58	362.78
606.74	456.40
606.89	393.21
607.05	376.83
607.20	358.10
607.36	435.34
607.51	454.06
607.67	447.04
607.82	374.49
607.98	519.60
608.13	493.85
608.29	362.78
608.44	470.45
608.60	418.96
608.75	444.70
608.91	479.81
609.06	425.98
609.22	395.55
609.37	395.55
609.53	341.72
609.68	451.72
609.84	425.98
609.99	379.17
610.15	414.27
