SpectraSuite Data File
++++++++++++++++++++++++++++++++++++
Date: Fri Oct 25 12:11:12 EDT 2013
User: price-jones
Dark Spectrum Present: No
Reference Spectrum Present: No
Number of Sampled Component Spectra: 1
Spectrometers: USB2+H05261
Integration Time (usec): 100000 (USB2+H05261)
Spectra Averaged: 1 (USB2+H05261)
Boxcar Smoothing: 0 (USB2+H05261)
Correct for Electrical Dark: No (USB2+H05261)
Strobe/Lamp Enabled: No (USB2+H05261)
Correct for Detector Non-linearity: No (USB2+H05261)
Correct for Stray Light: No (USB2+H05261)
Number of Pixels in Processed Spectrum: 2048
>>>>>Begin Processed Spectral Data<<<<<
365.73	287.89
365.92	287.89
366.12	287.89
366.32	198.95
366.52	222.35
366.72	276.18
366.91	285.55
367.11	220.01
367.31	217.67
367.51	231.71
367.70	243.42
367.90	273.84
368.10	180.22
368.30	161.50
368.49	252.78
368.69	257.46
368.89	217.67
369.09	248.10
369.28	283.20
369.48	297.25
369.68	306.61
369.87	304.27
370.07	358.10
370.27	390.87
370.47	318.31
370.66	341.72
370.86	362.78
371.06	458.74
371.25	414.27
371.45	362.78
371.65	397.89
371.84	442.36
372.04	397.89
372.24	407.25
372.44	390.87
372.63	304.27
372.83	418.96
373.03	365.12
373.22	402.57
373.42	423.64
373.62	402.57
373.81	400.23
374.01	421.30
374.21	421.30
374.40	404.91
374.60	514.92
374.79	500.87
374.99	386.19
375.19	372.15
375.38	463.43
375.58	421.30
375.78	503.22
375.97	479.81
376.17	496.19
376.37	440.02
376.56	442.36
376.76	404.91
376.95	449.38
377.15	449.38
377.35	369.80
377.54	425.98
377.74	381.51
377.93	449.38
378.13	430.66
378.33	369.80
378.52	369.80
378.72	402.57
378.91	465.77
379.11	365.12
379.31	414.27
379.50	395.55
379.70	365.12
379.89	433.00
380.09	437.68
380.28	386.19
380.48	353.42
380.68	390.87
380.87	421.30
381.07	393.21
381.26	409.59
381.46	393.21
381.65	397.89
381.85	479.81
382.04	421.30
382.24	404.91
382.43	374.49
382.63	397.89
382.83	414.27
383.02	414.27
383.22	444.70
383.41	383.85
383.61	362.78
383.80	505.56
384.00	491.51
384.19	404.91
384.39	402.57
384.58	433.00
384.78	379.17
384.97	414.27
385.17	416.62
385.36	404.91
385.56	388.53
385.75	379.17
385.95	383.85
386.14	425.98
386.34	369.80
386.53	397.89
386.72	479.81
386.92	475.13
387.11	390.87
387.31	402.57
387.50	320.65
387.70	393.21
387.89	435.34
388.09	320.65
388.28	348.74
388.48	423.64
388.67	411.93
388.86	397.89
389.06	435.34
389.25	379.17
389.45	358.10
389.64	409.59
389.84	437.68
390.03	397.89
390.22	435.34
390.42	414.27
390.61	395.55
390.81	418.96
391.00	390.87
391.19	367.46
391.39	425.98
391.58	383.85
391.78	362.78
391.97	348.74
392.16	315.97
392.36	433.00
392.55	433.00
392.75	458.74
392.94	376.83
393.13	395.55
393.33	362.78
393.52	367.46
393.71	376.83
393.91	418.96
394.10	388.53
394.29	430.66
394.49	433.00
394.68	402.57
394.88	390.87
395.07	442.36
395.26	463.43
395.46	456.40
395.65	440.02
395.84	367.46
396.04	500.87
396.23	440.02
396.42	367.46
396.62	461.09
396.81	454.06
397.00	418.96
397.19	421.30
397.39	414.27
397.58	400.23
397.77	369.80
397.97	486.83
398.16	435.34
398.35	330.02
398.55	379.17
398.74	475.13
398.93	388.53
399.12	367.46
399.32	390.87
399.51	458.74
399.70	390.87
399.90	402.57
400.09	491.51
400.28	409.59
400.47	372.15
400.67	458.74
400.86	409.59
401.05	411.93
401.24	456.40
401.44	383.85
401.63	374.49
401.82	369.80
402.01	479.81
402.21	372.15
402.40	400.23
402.59	404.91
402.78	414.27
402.97	360.44
403.17	430.66
403.36	407.25
403.55	386.19
403.74	353.42
403.93	414.27
404.13	407.25
404.32	390.87
404.51	428.32
404.70	416.62
404.89	444.70
405.09	489.17
405.28	388.53
405.47	374.49
405.66	447.04
405.85	430.66
406.05	421.30
406.24	383.85
406.43	435.34
406.62	411.93
406.81	510.24
407.00	447.04
407.20	407.25
407.39	423.64
407.58	381.51
407.77	428.32
407.96	428.32
408.15	379.17
408.34	440.02
408.54	411.93
408.73	411.93
408.92	404.91
409.11	365.12
409.30	397.89
409.49	388.53
409.68	278.52
409.87	395.55
410.07	428.32
410.26	344.06
410.45	379.17
410.64	390.87
410.83	404.91
411.02	383.85
411.21	379.17
411.40	472.79
411.59	322.99
411.78	423.64
411.98	468.11
412.17	418.96
412.36	484.49
412.55	393.21
412.74	433.00
412.93	472.79
413.12	437.68
413.31	402.57
413.50	376.83
413.69	397.89
413.88	397.89
414.07	397.89
414.26	393.21
414.45	355.76
414.64	402.57
414.83	404.91
415.02	395.55
415.22	444.70
415.41	388.53
415.60	369.80
415.79	397.89
415.98	458.74
416.17	421.30
416.36	404.91
416.55	414.27
416.74	430.66
416.93	447.04
417.12	383.85
417.31	400.23
417.50	400.23
417.69	472.79
417.88	353.42
418.07	390.87
418.26	409.59
418.45	400.23
418.64	482.15
418.83	372.15
419.02	442.36
419.21	482.15
419.39	454.06
419.58	465.77
419.77	351.08
419.96	404.91
420.15	479.81
420.34	421.30
420.53	348.74
420.72	416.62
420.91	440.02
421.10	475.13
421.29	416.62
421.48	437.68
421.67	308.95
421.86	430.66
422.05	414.27
422.24	395.55
422.43	458.74
422.61	456.40
422.80	430.66
422.99	442.36
423.18	351.08
423.37	433.00
423.56	402.57
423.75	344.06
423.94	386.19
424.13	416.62
424.32	409.59
424.50	409.59
424.69	454.06
424.88	418.96
425.07	416.62
425.26	519.60
425.45	376.83
425.64	381.51
425.83	414.27
426.01	358.10
426.20	346.40
426.39	374.49
426.58	409.59
426.77	407.25
426.96	451.72
427.15	442.36
427.33	393.21
427.52	365.12
427.71	428.32
427.90	428.32
428.09	383.85
428.28	376.83
428.46	430.66
428.65	383.85
428.84	416.62
429.03	411.93
429.22	465.77
429.40	386.19
429.59	430.66
429.78	358.10
429.97	430.66
430.16	421.30
430.34	411.93
430.53	416.62
430.72	379.17
430.91	437.68
431.10	433.00
431.28	400.23
431.47	414.27
431.66	418.96
431.85	365.12
432.03	381.51
432.22	430.66
432.41	325.33
432.60	449.38
432.79	383.85
432.97	430.66
433.16	416.62
433.35	451.72
433.54	358.10
433.72	461.09
433.91	428.32
434.10	358.10
434.28	407.25
434.47	416.62
434.66	442.36
434.85	456.40
435.03	425.98
435.22	444.70
435.41	475.13
435.59	463.43
435.78	491.51
435.97	409.59
436.16	414.27
436.34	449.38
436.53	430.66
436.72	407.25
436.90	388.53
437.09	435.34
437.28	383.85
437.46	421.30
437.65	465.77
437.84	379.17
438.02	407.25
438.21	376.83
438.40	383.85
438.58	433.00
438.77	477.47
438.96	418.96
439.14	367.46
439.33	348.74
439.52	379.17
439.70	409.59
439.89	428.32
440.08	379.17
440.26	444.70
440.45	447.04
440.63	428.32
440.82	393.21
441.01	402.57
441.19	390.87
441.38	421.30
441.57	407.25
441.75	376.83
441.94	456.40
442.12	390.87
442.31	381.51
442.50	437.68
442.68	381.51
442.87	397.89
443.05	416.62
443.24	362.78
443.43	411.93
443.61	535.98
443.80	433.00
443.98	383.85
444.17	414.27
444.35	369.80
444.54	435.34
444.73	461.09
444.91	503.22
445.10	493.85
445.28	411.93
445.47	442.36
445.65	409.59
445.84	411.93
446.02	416.62
446.21	395.55
446.39	383.85
446.58	381.51
446.77	456.40
446.95	351.08
447.14	390.87
447.32	447.04
447.51	463.43
447.69	365.12
447.88	365.12
448.06	409.59
448.25	500.87
448.43	407.25
448.62	442.36
448.80	404.91
448.99	397.89
449.17	351.08
449.36	358.10
449.54	458.74
449.73	386.19
449.91	395.55
450.10	386.19
450.28	449.38
450.46	409.59
450.65	437.68
450.83	496.19
451.02	449.38
451.20	367.46
451.39	458.74
451.57	381.51
451.76	386.19
451.94	437.68
452.13	435.34
452.31	407.25
452.49	367.46
452.68	369.80
452.86	407.25
453.05	407.25
453.23	404.91
453.42	442.36
453.60	400.23
453.78	407.25
453.97	379.17
454.15	397.89
454.34	402.57
454.52	388.53
454.70	479.81
454.89	437.68
455.07	374.49
455.26	395.55
455.44	416.62
455.62	414.27
455.81	442.36
455.99	437.68
456.17	346.40
456.36	435.34
456.54	411.93
456.73	367.46
456.91	418.96
457.09	402.57
457.28	393.21
457.46	444.70
457.64	430.66
457.83	425.98
458.01	376.83
458.19	430.66
458.38	383.85
458.56	430.66
458.74	388.53
458.93	393.21
459.11	418.96
459.29	425.98
459.48	383.85
459.66	447.04
459.84	454.06
460.03	447.04
460.21	402.57
460.39	421.30
460.57	421.30
460.76	421.30
460.94	390.87
461.12	435.34
461.31	458.74
461.49	367.46
461.67	444.70
461.85	407.25
462.04	400.23
462.22	777.06
462.40	430.66
462.59	456.40
462.77	407.25
462.95	397.89
463.13	379.17
463.32	428.32
463.50	409.59
463.68	416.62
463.86	421.30
464.05	346.40
464.23	486.83
464.41	402.57
464.59	407.25
464.78	330.02
464.96	404.91
465.14	400.23
465.32	379.17
465.50	386.19
465.69	465.77
465.87	376.83
466.05	435.34
466.23	454.06
466.41	456.40
466.60	376.83
466.78	433.00
466.96	444.70
467.14	386.19
467.32	454.06
467.51	414.27
467.69	395.55
467.87	451.72
468.05	416.62
468.23	454.06
468.41	449.38
468.60	400.23
468.78	360.44
468.96	447.04
469.14	479.81
469.32	388.53
469.50	358.10
469.69	414.27
469.87	362.78
470.05	435.34
470.23	428.32
470.41	407.25
470.59	447.04
470.77	315.97
470.95	351.08
471.14	463.43
471.32	430.66
471.50	409.59
471.68	397.89
471.86	416.62
472.04	383.85
472.22	388.53
472.40	442.36
472.58	458.74
472.77	442.36
472.95	416.62
473.13	444.70
473.31	365.12
473.49	414.27
473.67	374.49
473.85	423.64
474.03	414.27
474.21	402.57
474.39	393.21
474.57	416.62
474.75	479.81
474.93	407.25
475.12	348.74
475.30	435.34
475.48	395.55
475.66	383.85
475.84	409.59
476.02	353.42
476.20	376.83
476.38	355.76
476.56	475.13
476.74	397.89
476.92	447.04
477.10	440.02
477.28	444.70
477.46	458.74
477.64	435.34
477.82	360.44
478.00	411.93
478.18	407.25
478.36	435.34
478.54	435.34
478.72	444.70
478.90	456.40
479.08	411.93
479.26	449.38
479.44	421.30
479.62	395.55
479.80	411.93
479.98	425.98
480.16	456.40
480.34	416.62
480.52	341.72
480.70	411.93
480.88	440.02
481.06	400.23
481.24	397.89
481.41	397.89
481.59	475.13
481.77	425.98
481.95	388.53
482.13	451.72
482.31	369.80
482.49	374.49
482.67	414.27
482.85	376.83
483.03	397.89
483.21	451.72
483.39	395.55
483.57	381.51
483.74	402.57
483.92	433.00
484.10	360.44
484.28	484.49
484.46	484.49
484.64	449.38
484.82	386.19
485.00	416.62
485.18	442.36
485.35	404.91
485.53	421.30
485.71	418.96
485.89	404.91
486.07	435.34
486.25	475.13
486.43	416.62
486.61	416.62
486.78	395.55
486.96	428.32
487.14	381.51
487.32	421.30
487.50	433.00
487.68	451.72
487.85	383.85
488.03	465.77
488.21	433.00
488.39	449.38
488.57	444.70
488.75	425.98
488.92	435.34
489.10	402.57
489.28	435.34
489.46	388.53
489.64	411.93
489.81	447.04
489.99	397.89
490.17	372.15
490.35	477.47
490.53	468.11
490.70	381.51
490.88	386.19
491.06	409.59
491.24	458.74
491.41	433.00
491.59	440.02
491.77	402.57
491.95	425.98
492.13	430.66
492.30	358.10
492.48	440.02
492.66	442.36
492.84	442.36
493.01	355.76
493.19	381.51
493.37	444.70
493.54	407.25
493.72	440.02
493.90	463.43
494.08	379.17
494.25	472.79
494.43	447.04
494.61	442.36
494.79	433.00
494.96	383.85
495.14	472.79
495.32	353.42
495.49	397.89
495.67	390.87
495.85	477.47
496.02	418.96
496.20	468.11
496.38	404.91
496.55	421.30
496.73	449.38
496.91	447.04
497.09	475.13
497.26	407.25
497.44	400.23
497.62	404.91
497.79	388.53
497.97	425.98
498.14	477.47
498.32	369.80
498.50	470.45
498.67	418.96
498.85	437.68
499.03	423.64
499.20	440.02
499.38	442.36
499.56	355.76
499.73	409.59
499.91	465.77
500.08	514.92
500.26	437.68
500.44	404.91
500.61	402.57
500.79	411.93
500.97	409.59
501.14	477.47
501.32	418.96
501.49	454.06
501.67	465.77
501.84	421.30
502.02	369.80
502.20	348.74
502.37	402.57
502.55	465.77
502.72	442.36
502.90	425.98
503.07	418.96
503.25	418.96
503.43	388.53
503.60	437.68
503.78	470.45
503.95	454.06
504.13	339.38
504.30	461.09
504.48	451.72
504.65	447.04
504.83	468.11
505.01	423.64
505.18	428.32
505.36	414.27
505.53	451.72
505.71	404.91
505.88	346.40
506.06	362.78
506.23	397.89
506.41	393.21
506.58	400.23
506.76	449.38
506.93	327.68
507.11	428.32
507.28	411.93
507.46	411.93
507.63	430.66
507.81	404.91
507.98	425.98
508.16	400.23
508.33	482.15
508.50	430.66
508.68	397.89
508.85	374.49
509.03	449.38
509.20	365.12
509.38	404.91
509.55	393.21
509.73	444.70
509.90	414.27
510.08	400.23
510.25	411.93
510.42	386.19
510.60	421.30
510.77	430.66
510.95	437.68
511.12	416.62
511.30	395.55
511.47	409.59
511.64	435.34
511.82	374.49
511.99	454.06
512.17	369.80
512.34	400.23
512.51	447.04
512.69	395.55
512.86	468.11
513.04	433.00
513.21	428.32
513.38	369.80
513.56	379.17
513.73	510.24
513.90	369.80
514.08	383.85
514.25	383.85
514.43	365.12
514.60	397.89
514.77	404.91
514.95	386.19
515.12	369.80
515.29	409.59
515.47	404.91
515.64	379.17
515.81	472.79
515.99	463.43
516.16	510.24
516.33	421.30
516.51	435.34
516.68	367.46
516.85	414.27
517.03	397.89
517.20	379.17
517.37	416.62
517.54	393.21
517.72	381.51
517.89	339.38
518.06	383.85
518.24	454.06
518.41	428.32
518.58	491.51
518.75	472.79
518.93	430.66
519.10	369.80
519.27	397.89
519.45	463.43
519.62	472.79
519.79	425.98
519.96	430.66
520.14	411.93
520.31	365.12
520.48	435.34
520.65	423.64
520.83	472.79
521.00	416.62
521.17	435.34
521.34	484.49
521.52	411.93
521.69	449.38
521.86	458.74
522.03	374.49
522.20	489.17
522.38	337.04
522.55	449.38
522.72	468.11
522.89	435.34
523.07	505.56
523.24	386.19
523.41	374.49
523.58	402.57
523.75	379.17
523.92	379.17
524.10	454.06
524.27	388.53
524.44	449.38
524.61	486.83
524.78	416.62
524.96	397.89
525.13	461.09
525.30	351.08
525.47	365.12
525.64	386.19
525.81	482.15
525.98	388.53
526.16	376.83
526.33	458.74
526.50	428.32
526.67	416.62
526.84	472.79
527.01	390.87
527.18	409.59
527.36	458.74
527.53	393.21
527.70	386.19
527.87	411.93
528.04	482.15
528.21	395.55
528.38	414.27
528.55	456.40
528.72	449.38
528.89	423.64
529.07	395.55
529.24	468.11
529.41	416.62
529.58	421.30
529.75	395.55
529.92	407.25
530.09	365.12
530.26	365.12
530.43	440.02
530.60	461.09
530.77	451.72
530.94	489.17
531.11	379.17
531.28	433.00
531.46	435.34
531.63	369.80
531.80	423.64
531.97	390.87
532.14	472.79
532.31	468.11
532.48	402.57
532.65	388.53
532.82	491.51
532.99	430.66
533.16	425.98
533.33	358.10
533.50	395.55
533.67	411.93
533.84	472.79
534.01	409.59
534.18	386.19
534.35	423.64
534.52	414.27
534.69	458.74
534.86	369.80
535.03	409.59
535.20	400.23
535.37	407.25
535.54	428.32
535.71	437.68
535.88	458.74
536.05	358.10
536.22	451.72
536.38	416.62
536.55	381.51
536.72	444.70
536.89	407.25
537.06	444.70
537.23	383.85
537.40	346.40
537.57	407.25
537.74	477.47
537.91	428.32
538.08	454.06
538.25	456.40
538.42	451.72
538.59	472.79
538.75	428.32
538.92	402.57
539.09	428.32
539.26	444.70
539.43	451.72
539.60	414.27
539.77	416.62
539.94	468.11
540.11	475.13
540.28	479.81
540.44	390.87
540.61	479.81
540.78	404.91
540.95	454.06
541.12	381.51
541.29	409.59
541.46	456.40
541.62	493.85
541.79	416.62
541.96	414.27
542.13	306.61
542.30	393.21
542.47	425.98
542.63	444.70
542.80	437.68
542.97	503.22
543.14	400.23
543.31	440.02
543.48	447.04
543.64	456.40
543.81	421.30
543.98	381.51
544.15	442.36
544.32	388.53
544.48	388.53
544.65	437.68
544.82	433.00
544.99	440.02
545.16	407.25
545.32	433.00
545.49	402.57
545.66	430.66
545.83	402.57
546.00	379.17
546.16	437.68
546.33	454.06
546.50	447.04
546.67	468.11
546.83	442.36
547.00	447.04
547.17	421.30
547.34	461.09
547.50	379.17
547.67	386.19
547.84	393.21
548.00	400.23
548.17	468.11
548.34	449.38
548.51	482.15
548.67	425.98
548.84	404.91
549.01	440.02
549.18	395.55
549.34	533.64
549.51	489.17
549.68	430.66
549.84	400.23
550.01	330.02
550.18	475.13
550.34	414.27
550.51	355.76
550.68	409.59
550.84	435.34
551.01	421.30
551.18	404.91
551.34	416.62
551.51	332.36
551.68	374.49
551.84	397.89
552.01	423.64
552.18	433.00
552.34	402.57
552.51	491.51
552.68	505.56
552.84	388.53
553.01	409.59
553.18	390.87
553.34	414.27
553.51	390.87
553.67	440.02
553.84	414.27
554.01	425.98
554.17	395.55
554.34	365.12
554.51	372.15
554.67	447.04
554.84	496.19
555.00	416.62
555.17	433.00
555.33	449.38
555.50	430.66
555.67	416.62
555.83	463.43
556.00	472.79
556.16	603.86
556.33	449.38
556.50	418.96
556.66	369.80
556.83	442.36
556.99	428.32
557.16	376.83
557.32	414.27
557.49	383.85
557.65	451.72
557.82	402.57
557.98	458.74
558.15	482.15
558.32	404.91
558.48	358.10
558.65	421.30
558.81	444.70
558.98	395.55
559.14	393.21
559.31	418.96
559.47	381.51
559.64	409.59
559.80	383.85
559.97	397.89
560.13	365.12
560.30	360.44
560.46	451.72
560.63	475.13
560.79	442.36
560.96	449.38
561.12	416.62
561.29	503.22
561.45	507.90
561.61	428.32
561.78	552.37
561.94	442.36
562.11	397.89
562.27	451.72
562.44	339.38
562.60	496.19
562.77	393.21
562.93	479.81
563.10	404.91
563.26	376.83
563.42	484.49
563.59	407.25
563.75	423.64
563.92	416.62
564.08	402.57
564.24	400.23
564.41	514.92
564.57	423.64
564.74	437.68
564.90	358.10
565.07	451.72
565.23	411.93
565.39	355.76
565.56	379.17
565.72	442.36
565.88	379.17
566.05	397.89
566.21	409.59
566.38	475.13
566.54	498.53
566.70	381.51
566.87	414.27
567.03	475.13
567.19	428.32
567.36	435.34
567.52	472.79
567.68	409.59
567.85	379.17
568.01	358.10
568.17	360.44
568.34	367.46
568.50	538.32
568.66	390.87
568.83	421.30
568.99	411.93
569.15	470.45
569.32	348.74
569.48	418.96
569.64	416.62
569.81	351.08
569.97	369.80
570.13	407.25
570.30	374.49
570.46	407.25
570.62	514.92
570.78	451.72
570.95	447.04
571.11	468.11
571.27	435.34
571.43	440.02
571.60	491.51
571.76	390.87
571.92	414.27
572.09	379.17
572.25	423.64
572.41	400.23
572.57	472.79
572.74	381.51
572.90	433.00
573.06	423.64
573.22	423.64
573.38	395.55
573.55	433.00
573.71	465.77
573.87	425.98
574.03	395.55
574.20	491.51
574.36	433.00
574.52	479.81
574.68	402.57
574.84	437.68
575.01	390.87
575.17	430.66
575.33	404.91
575.49	496.19
575.65	411.93
575.82	390.87
575.98	411.93
576.14	421.30
576.30	463.43
576.46	409.59
576.62	423.64
576.79	428.32
576.95	440.02
577.11	383.85
577.27	376.83
577.43	517.26
577.59	440.02
577.75	381.51
577.92	454.06
578.08	383.85
578.24	428.32
578.40	470.45
578.56	447.04
578.72	393.21
578.88	421.30
579.04	372.15
579.21	454.06
579.37	383.85
579.53	447.04
579.69	442.36
579.85	454.06
580.01	451.72
580.17	360.44
580.33	414.27
580.49	458.74
580.65	365.12
580.82	442.36
580.98	430.66
581.14	402.57
581.30	379.17
581.46	423.64
581.62	512.58
581.78	475.13
581.94	447.04
582.10	400.23
582.26	402.57
582.42	369.80
582.58	367.46
582.74	421.30
582.90	416.62
583.06	444.70
583.22	365.12
583.38	437.68
583.54	390.87
583.70	435.34
583.86	423.64
584.02	372.15
584.18	383.85
584.34	418.96
584.50	433.00
584.66	416.62
584.82	437.68
584.98	472.79
585.14	477.47
585.30	435.34
585.46	428.32
585.62	376.83
585.78	416.62
585.94	379.17
586.10	332.36
586.26	454.06
586.42	451.72
586.58	430.66
586.74	454.06
586.90	400.23
587.06	440.02
587.22	400.23
587.38	390.87
587.54	367.46
587.70	409.59
587.86	404.91
588.02	409.59
588.18	367.46
588.34	395.55
588.49	386.19
588.65	454.06
588.81	411.93
588.97	348.74
589.13	400.23
589.29	477.47
589.45	388.53
589.61	454.06
589.77	521.94
589.93	346.40
590.08	418.96
590.24	425.98
590.40	449.38
590.56	435.34
590.72	390.87
590.88	433.00
591.04	461.09
591.20	390.87
591.35	435.34
591.51	428.32
591.67	344.06
591.83	383.85
591.99	421.30
592.15	421.30
592.31	388.53
592.46	428.32
592.62	393.21
592.78	411.93
592.94	388.53
593.10	390.87
593.26	425.98
593.41	437.68
593.57	458.74
593.73	416.62
593.89	395.55
594.05	346.40
594.20	402.57
594.36	430.66
594.52	372.15
594.68	374.49
594.84	355.76
594.99	454.06
595.15	468.11
595.31	465.77
595.47	425.98
595.62	393.21
595.78	428.32
595.94	433.00
596.10	418.96
596.25	421.30
596.41	435.34
596.57	430.66
596.73	425.98
596.88	437.68
597.04	425.98
597.20	421.30
597.36	407.25
597.51	351.08
597.67	433.00
597.83	456.40
597.99	484.49
598.14	425.98
598.30	440.02
598.46	386.19
598.61	358.10
598.77	482.15
598.93	416.62
599.09	397.89
599.24	447.04
599.40	465.77
599.56	386.19
599.71	334.70
599.87	421.30
600.03	407.25
600.18	465.77
600.34	458.74
600.50	381.51
600.65	461.09
600.81	470.45
600.97	339.38
601.12	386.19
601.28	395.55
601.44	374.49
601.59	400.23
601.75	470.45
601.91	416.62
602.06	454.06
602.22	505.56
602.37	442.36
602.53	383.85
602.69	447.04
602.84	379.17
603.00	449.38
603.16	416.62
603.31	470.45
603.47	409.59
603.62	402.57
603.78	475.13
603.94	390.87
604.09	425.98
604.25	400.23
604.40	360.44
604.56	421.30
604.71	433.00
604.87	418.96
605.03	404.91
605.18	393.21
605.34	444.70
605.49	416.62
605.65	411.93
605.80	341.72
605.96	454.06
606.12	503.22
606.27	437.68
606.43	444.70
606.58	454.06
606.74	395.55
606.89	451.72
607.05	477.47
607.20	404.91
607.36	383.85
607.51	374.49
607.67	442.36
607.82	388.53
607.98	395.55
608.13	465.77
608.29	430.66
608.44	489.17
608.60	318.31
608.75	404.91
608.91	351.08
609.06	437.68
609.22	435.34
609.37	409.59
609.53	407.25
609.68	416.62
609.84	447.04
609.99	411.93
610.15	397.89
