SpectraSuite Data File
++++++++++++++++++++++++++++++++++++
Date: Fri Oct 25 12:10:16 EDT 2013
User: price-jones
Dark Spectrum Present: No
Reference Spectrum Present: No
Number of Sampled Component Spectra: 1
Spectrometers: USB2+H05261
Integration Time (usec): 100000 (USB2+H05261)
Spectra Averaged: 1 (USB2+H05261)
Boxcar Smoothing: 0 (USB2+H05261)
Correct for Electrical Dark: No (USB2+H05261)
Strobe/Lamp Enabled: No (USB2+H05261)
Correct for Detector Non-linearity: No (USB2+H05261)
Correct for Stray Light: No (USB2+H05261)
Number of Pixels in Processed Spectrum: 2048
>>>>>Begin Processed Spectral Data<<<<<
365.73	362.78
365.92	362.78
366.12	362.78
366.32	264.48
366.52	229.37
366.72	257.46
366.91	276.18
367.11	294.91
367.31	271.50
367.51	229.37
367.70	250.44
367.90	217.67
368.10	229.37
368.30	264.48
368.49	290.23
368.69	205.97
368.89	264.48
369.09	208.31
369.28	297.25
369.48	264.48
369.68	215.33
369.87	315.97
370.07	259.80
370.27	339.38
370.47	243.42
370.66	325.33
370.86	407.25
371.06	388.53
371.25	400.23
371.45	393.21
371.65	332.36
371.84	372.15
372.04	306.61
372.24	449.38
372.44	372.15
372.63	341.72
372.83	451.72
373.03	395.55
373.22	430.66
373.42	444.70
373.62	433.00
373.81	400.23
374.01	425.98
374.21	418.96
374.40	383.85
374.60	414.27
374.79	435.34
374.99	388.53
375.19	486.83
375.38	351.08
375.58	390.87
375.78	388.53
375.97	418.96
376.17	437.68
376.37	437.68
376.56	418.96
376.76	418.96
376.95	386.19
377.15	433.00
377.35	386.19
377.54	484.49
377.74	383.85
377.93	379.17
378.13	327.68
378.33	330.02
378.52	409.59
378.72	393.21
378.91	442.36
379.11	404.91
379.31	414.27
379.50	409.59
379.70	456.40
379.89	386.19
380.09	381.51
380.28	322.99
380.48	390.87
380.68	381.51
380.87	421.30
381.07	425.98
381.26	404.91
381.46	447.04
381.65	379.17
381.85	437.68
382.04	461.09
382.24	404.91
382.43	386.19
382.63	346.40
382.83	367.46
383.02	402.57
383.22	395.55
383.41	330.02
383.61	440.02
383.80	440.02
384.00	456.40
384.19	397.89
384.39	404.91
384.58	390.87
384.78	409.59
384.97	402.57
385.17	407.25
385.36	393.21
385.56	463.43
385.75	470.45
385.95	482.15
386.14	393.21
386.34	393.21
386.53	393.21
386.72	416.62
386.92	372.15
387.11	440.02
387.31	411.93
387.50	416.62
387.70	482.15
387.89	416.62
388.09	311.29
388.28	374.49
388.48	339.38
388.67	397.89
388.86	440.02
389.06	437.68
389.25	442.36
389.45	425.98
389.64	400.23
389.84	379.17
390.03	404.91
390.22	449.38
390.42	341.72
390.61	397.89
390.81	440.02
391.00	379.17
391.19	351.08
391.39	435.34
391.58	404.91
391.78	418.96
391.97	402.57
392.16	372.15
392.36	425.98
392.55	430.66
392.75	416.62
392.94	428.32
393.13	423.64
393.33	433.00
393.52	421.30
393.71	409.59
393.91	376.83
394.10	395.55
394.29	449.38
394.49	393.21
394.68	428.32
394.88	374.49
395.07	374.49
395.26	430.66
395.46	411.93
395.65	430.66
395.84	493.85
396.04	449.38
396.23	402.57
396.42	379.17
396.62	421.30
396.81	411.93
397.00	411.93
397.19	440.02
397.39	360.44
397.58	379.17
397.77	400.23
397.97	461.09
398.16	423.64
398.35	418.96
398.55	376.83
398.74	447.04
398.93	425.98
399.12	369.80
399.32	428.32
399.51	400.23
399.70	433.00
399.90	449.38
400.09	365.12
400.28	407.25
400.47	458.74
400.67	456.40
400.86	442.36
401.05	428.32
401.24	418.96
401.44	491.51
401.63	442.36
401.82	423.64
402.01	416.62
402.21	395.55
402.40	379.17
402.59	407.25
402.78	416.62
402.97	381.51
403.17	414.27
403.36	407.25
403.55	414.27
403.74	397.89
403.93	374.49
404.13	433.00
404.32	421.30
404.51	367.46
404.70	367.46
404.89	414.27
405.09	372.15
405.28	433.00
405.47	447.04
405.66	383.85
405.85	421.30
406.05	360.44
406.24	435.34
406.43	447.04
406.62	402.57
406.81	416.62
407.00	369.80
407.20	411.93
407.39	428.32
407.58	386.19
407.77	337.04
407.96	435.34
408.15	451.72
408.34	407.25
408.54	456.40
408.73	400.23
408.92	341.72
409.11	414.27
409.30	393.21
409.49	393.21
409.68	365.12
409.87	447.04
410.07	362.78
410.26	437.68
410.45	358.10
410.64	411.93
410.83	411.93
411.02	358.10
411.21	456.40
411.40	470.45
411.59	411.93
411.78	463.43
411.98	386.19
412.17	383.85
412.36	376.83
412.55	444.70
412.74	402.57
412.93	435.34
413.12	402.57
413.31	365.12
413.50	407.25
413.69	346.40
413.88	423.64
414.07	449.38
414.26	409.59
414.45	337.04
414.64	388.53
414.83	337.04
415.02	458.74
415.22	451.72
415.41	440.02
415.60	393.21
415.79	381.51
415.98	454.06
416.17	374.49
416.36	379.17
416.55	475.13
416.74	435.34
416.93	407.25
417.12	418.96
417.31	421.30
417.50	456.40
417.69	470.45
417.88	449.38
418.07	395.55
418.26	355.76
418.45	433.00
418.64	447.04
418.83	407.25
419.02	414.27
419.21	454.06
419.39	400.23
419.58	397.89
419.77	444.70
419.96	369.80
420.15	365.12
420.34	372.15
420.53	414.27
420.72	414.27
420.91	360.44
421.10	386.19
421.29	449.38
421.48	449.38
421.67	365.12
421.86	433.00
422.05	388.53
422.24	472.79
422.43	386.19
422.61	414.27
422.80	451.72
422.99	351.08
423.18	365.12
423.37	418.96
423.56	458.74
423.75	451.72
423.94	425.98
424.13	421.30
424.32	381.51
424.50	428.32
424.69	402.57
424.88	428.32
425.07	400.23
425.26	428.32
425.45	407.25
425.64	388.53
425.83	409.59
426.01	498.53
426.20	393.21
426.39	430.66
426.58	440.02
426.77	414.27
426.96	458.74
427.15	374.49
427.33	372.15
427.52	458.74
427.71	400.23
427.90	456.40
428.09	390.87
428.28	496.19
428.46	400.23
428.65	407.25
428.84	376.83
429.03	444.70
429.22	372.15
429.40	437.68
429.59	379.17
429.78	451.72
429.97	407.25
430.16	411.93
430.34	381.51
430.53	327.68
430.72	449.38
430.91	477.47
431.10	348.74
431.28	444.70
431.47	395.55
431.66	486.83
431.85	344.06
432.03	404.91
432.22	418.96
432.41	416.62
432.60	435.34
432.79	369.80
432.97	414.27
433.16	484.49
433.35	381.51
433.54	479.81
433.72	383.85
433.91	440.02
434.10	411.93
434.28	400.23
434.47	395.55
434.66	369.80
434.85	404.91
435.03	376.83
435.22	404.91
435.41	465.77
435.59	498.53
435.78	409.59
435.97	407.25
436.16	428.32
436.34	451.72
436.53	430.66
436.72	393.21
436.90	465.77
437.09	447.04
437.28	433.00
437.46	418.96
437.65	475.13
437.84	454.06
438.02	447.04
438.21	348.74
438.40	421.30
438.58	411.93
438.77	437.68
438.96	451.72
439.14	421.30
439.33	376.83
439.52	393.21
439.70	351.08
439.89	500.87
440.08	440.02
440.26	411.93
440.45	437.68
440.63	447.04
440.82	428.32
441.01	346.40
441.19	414.27
441.38	449.38
441.57	423.64
441.75	428.32
441.94	468.11
442.12	390.87
442.31	379.17
442.50	383.85
442.68	381.51
442.87	430.66
443.05	430.66
443.24	393.21
443.43	428.32
443.61	414.27
443.80	470.45
443.98	374.49
444.17	435.34
444.35	421.30
444.54	451.72
444.73	383.85
444.91	458.74
445.10	444.70
445.28	386.19
445.47	372.15
445.65	479.81
445.84	414.27
446.02	411.93
446.21	547.69
446.39	444.70
446.58	416.62
446.77	390.87
446.95	484.49
447.14	458.74
447.32	493.85
447.51	397.89
447.69	353.42
447.88	442.36
448.06	428.32
448.25	402.57
448.43	339.38
448.62	369.80
448.80	393.21
448.99	477.47
449.17	463.43
449.36	346.40
449.54	447.04
449.73	376.83
449.91	465.77
450.10	365.12
450.28	470.45
450.46	423.64
450.65	414.27
450.83	444.70
451.02	433.00
451.20	414.27
451.39	376.83
451.57	393.21
451.76	442.36
451.94	348.74
452.13	421.30
452.31	402.57
452.49	393.21
452.68	463.43
452.86	372.15
453.05	449.38
453.23	346.40
453.42	386.19
453.60	461.09
453.78	468.11
453.97	461.09
454.15	381.51
454.34	402.57
454.52	447.04
454.70	383.85
454.89	437.68
455.07	433.00
455.26	411.93
455.44	517.26
455.62	344.06
455.81	376.83
455.99	444.70
456.17	404.91
456.36	362.78
456.54	425.98
456.73	404.91
456.91	369.80
457.09	404.91
457.28	447.04
457.46	425.98
457.64	353.42
457.83	411.93
458.01	404.91
458.19	449.38
458.38	395.55
458.56	416.62
458.74	383.85
458.93	407.25
459.11	489.17
459.29	444.70
459.48	461.09
459.66	540.66
459.84	421.30
460.03	468.11
460.21	442.36
460.39	425.98
460.57	461.09
460.76	395.55
460.94	404.91
461.12	458.74
461.31	484.49
461.49	458.74
461.67	379.17
461.85	344.06
462.04	395.55
462.22	772.38
462.40	379.17
462.59	416.62
462.77	409.59
462.95	390.87
463.13	416.62
463.32	395.55
463.50	428.32
463.68	461.09
463.86	442.36
464.05	407.25
464.23	414.27
464.41	435.34
464.59	320.65
464.78	463.43
464.96	463.43
465.14	348.74
465.32	451.72
465.50	407.25
465.69	463.43
465.87	395.55
466.05	425.98
466.23	433.00
466.41	433.00
466.60	423.64
466.78	463.43
466.96	472.79
467.14	388.53
467.32	372.15
467.51	472.79
467.69	435.34
467.87	456.40
468.05	414.27
468.23	512.58
468.41	437.68
468.60	456.40
468.78	437.68
468.96	397.89
469.14	475.13
469.32	414.27
469.50	397.89
469.69	468.11
469.87	416.62
470.05	447.04
470.23	489.17
470.41	449.38
470.59	322.99
470.77	433.00
470.95	388.53
471.14	423.64
471.32	444.70
471.50	472.79
471.68	400.23
471.86	430.66
472.04	411.93
472.22	407.25
472.40	428.32
472.58	299.59
472.77	421.30
472.95	437.68
473.13	430.66
473.31	379.17
473.49	390.87
473.67	428.32
473.85	498.53
474.03	416.62
474.21	372.15
474.39	423.64
474.57	400.23
474.75	411.93
474.93	442.36
475.12	367.46
475.30	381.51
475.48	397.89
475.66	383.85
475.84	400.23
476.02	468.11
476.20	376.83
476.38	411.93
476.56	423.64
476.74	376.83
476.92	404.91
477.10	449.38
477.28	386.19
477.46	393.21
477.64	411.93
477.82	369.80
478.00	402.57
478.18	468.11
478.36	454.06
478.54	416.62
478.72	393.21
478.90	395.55
479.08	440.02
479.26	376.83
479.44	395.55
479.62	395.55
479.80	416.62
479.98	409.59
480.16	404.91
480.34	409.59
480.52	386.19
480.70	458.74
480.88	383.85
481.06	421.30
481.24	447.04
481.41	411.93
481.59	442.36
481.77	421.30
481.95	393.21
482.13	528.96
482.31	395.55
482.49	355.76
482.67	376.83
482.85	458.74
483.03	353.42
483.21	416.62
483.39	444.70
483.57	472.79
483.74	400.23
483.92	372.15
484.10	381.51
484.28	404.91
484.46	416.62
484.64	430.66
484.82	486.83
485.00	404.91
485.18	400.23
485.35	449.38
485.53	369.80
485.71	451.72
485.89	341.72
486.07	435.34
486.25	449.38
486.43	388.53
486.61	411.93
486.78	404.91
486.96	381.51
487.14	472.79
487.32	456.40
487.50	395.55
487.68	421.30
487.85	482.15
488.03	470.45
488.21	395.55
488.39	411.93
488.57	348.74
488.75	440.02
488.92	472.79
489.10	390.87
489.28	386.19
489.46	444.70
489.64	348.74
489.81	365.12
489.99	381.51
490.17	437.68
490.35	374.49
490.53	402.57
490.70	430.66
490.88	353.42
491.06	351.08
491.24	454.06
491.41	458.74
491.59	428.32
491.77	397.89
491.95	351.08
492.13	390.87
492.30	367.46
492.48	367.46
492.66	353.42
492.84	465.77
493.01	449.38
493.19	388.53
493.37	390.87
493.54	444.70
493.72	447.04
493.90	379.17
494.08	468.11
494.25	421.30
494.43	411.93
494.61	437.68
494.79	418.96
494.96	407.25
495.14	388.53
495.32	374.49
495.49	442.36
495.67	430.66
495.85	379.17
496.02	369.80
496.20	435.34
496.38	344.06
496.55	458.74
496.73	383.85
496.91	402.57
497.09	447.04
497.26	425.98
497.44	447.04
497.62	379.17
497.79	379.17
497.97	416.62
498.14	442.36
498.32	376.83
498.50	458.74
498.67	390.87
498.85	433.00
499.03	442.36
499.20	433.00
499.38	369.80
499.56	393.21
499.73	465.77
499.91	423.64
500.08	498.53
500.26	411.93
500.44	358.10
500.61	444.70
500.79	411.93
500.97	402.57
501.14	372.15
501.32	484.49
501.49	447.04
501.67	383.85
501.84	379.17
502.02	402.57
502.20	407.25
502.37	416.62
502.55	447.04
502.72	496.19
502.90	372.15
503.07	468.11
503.25	344.06
503.43	468.11
503.60	421.30
503.78	444.70
503.95	430.66
504.13	393.21
504.30	437.68
504.48	351.08
504.65	409.59
504.83	360.44
505.01	330.02
505.18	381.51
505.36	390.87
505.53	425.98
505.71	365.12
505.88	435.34
506.06	458.74
506.23	433.00
506.41	360.44
506.58	421.30
506.76	468.11
506.93	451.72
507.11	442.36
507.28	386.19
507.46	430.66
507.63	395.55
507.81	395.55
507.98	362.78
508.16	442.36
508.33	386.19
508.50	416.62
508.68	409.59
508.85	449.38
509.03	425.98
509.20	447.04
509.38	397.89
509.55	505.56
509.73	475.13
509.90	381.51
510.08	402.57
510.25	461.09
510.42	411.93
510.60	423.64
510.77	428.32
510.95	428.32
511.12	376.83
511.30	409.59
511.47	458.74
511.64	435.34
511.82	437.68
511.99	362.78
512.17	425.98
512.34	376.83
512.51	430.66
512.69	402.57
512.86	416.62
513.04	418.96
513.21	496.19
513.38	465.77
513.56	358.10
513.73	451.72
513.90	435.34
514.08	470.45
514.25	430.66
514.43	423.64
514.60	367.46
514.77	327.68
514.95	393.21
515.12	477.47
515.29	423.64
515.47	367.46
515.64	447.04
515.81	416.62
515.99	390.87
516.16	444.70
516.33	416.62
516.51	418.96
516.68	416.62
516.85	418.96
517.03	407.25
517.20	447.04
517.37	381.51
517.54	428.32
517.72	383.85
517.89	489.17
518.06	362.78
518.24	433.00
518.41	447.04
518.58	423.64
518.75	414.27
518.93	458.74
519.10	425.98
519.27	409.59
519.45	397.89
519.62	404.91
519.79	423.64
519.96	390.87
520.14	428.32
520.31	512.58
520.48	411.93
520.65	372.15
520.83	421.30
521.00	397.89
521.17	374.49
521.34	390.87
521.52	423.64
521.69	444.70
521.86	383.85
522.03	379.17
522.20	479.81
522.38	430.66
522.55	372.15
522.72	411.93
522.89	433.00
523.07	442.36
523.24	416.62
523.41	433.00
523.58	362.78
523.75	409.59
523.92	449.38
524.10	435.34
524.27	472.79
524.44	430.66
524.61	437.68
524.78	397.89
524.96	393.21
525.13	433.00
525.30	442.36
525.47	416.62
525.64	374.49
525.81	395.55
525.98	425.98
526.16	447.04
526.33	456.40
526.50	393.21
526.67	400.23
526.84	381.51
527.01	341.72
527.18	355.76
527.36	449.38
527.53	400.23
527.70	397.89
527.87	444.70
528.04	411.93
528.21	416.62
528.38	437.68
528.55	477.47
528.72	423.64
528.89	348.74
529.07	311.29
529.24	444.70
529.41	456.40
529.58	407.25
529.75	318.31
529.92	442.36
530.09	372.15
530.26	444.70
530.43	449.38
530.60	442.36
530.77	463.43
530.94	421.30
531.11	433.00
531.28	440.02
531.46	393.21
531.63	411.93
531.80	440.02
531.97	327.68
532.14	388.53
532.31	461.09
532.48	430.66
532.65	442.36
532.82	358.10
532.99	360.44
533.16	463.43
533.33	402.57
533.50	463.43
533.67	449.38
533.84	456.40
534.01	367.46
534.18	418.96
534.35	435.34
534.52	381.51
534.69	402.57
534.86	482.15
535.03	484.49
535.20	421.30
535.37	411.93
535.54	414.27
535.71	400.23
535.88	461.09
536.05	437.68
536.22	365.12
536.38	479.81
536.55	388.53
536.72	358.10
536.89	395.55
537.06	482.15
537.23	353.42
537.40	454.06
537.57	440.02
537.74	456.40
537.91	482.15
538.08	430.66
538.25	397.89
538.42	390.87
538.59	404.91
538.75	463.43
538.92	402.57
539.09	409.59
539.26	402.57
539.43	423.64
539.60	489.17
539.77	425.98
539.94	458.74
540.11	454.06
540.28	423.64
540.44	503.22
540.61	400.23
540.78	435.34
540.95	444.70
541.12	365.12
541.29	411.93
541.46	458.74
541.62	320.65
541.79	355.76
541.96	418.96
542.13	362.78
542.30	404.91
542.47	423.64
542.63	425.98
542.80	372.15
542.97	451.72
543.14	388.53
543.31	430.66
543.48	383.85
543.64	400.23
543.81	402.57
543.98	381.51
544.15	425.98
544.32	369.80
544.48	437.68
544.65	400.23
544.82	430.66
544.99	418.96
545.16	475.13
545.32	447.04
545.49	407.25
545.66	411.93
545.83	386.19
546.00	437.68
546.16	332.36
546.33	421.30
546.50	491.51
546.67	416.62
546.83	451.72
547.00	367.46
547.17	411.93
547.34	414.27
547.50	369.80
547.67	463.43
547.84	458.74
548.00	409.59
548.17	416.62
548.34	341.72
548.51	451.72
548.67	416.62
548.84	379.17
549.01	402.57
549.18	442.36
549.34	461.09
549.51	407.25
549.68	425.98
549.84	414.27
550.01	435.34
550.18	482.15
550.34	514.92
550.51	489.17
550.68	482.15
550.84	409.59
551.01	423.64
551.18	411.93
551.34	372.15
551.51	428.32
551.68	463.43
551.84	400.23
552.01	449.38
552.18	360.44
552.34	423.64
552.51	339.38
552.68	425.98
552.84	477.47
553.01	402.57
553.18	430.66
553.34	491.51
553.51	369.80
553.67	461.09
553.84	472.79
554.01	531.30
554.17	383.85
554.34	393.21
554.51	388.53
554.67	421.30
554.84	444.70
555.00	348.74
555.17	386.19
555.33	444.70
555.50	454.06
555.67	388.53
555.83	444.70
556.00	475.13
556.16	496.19
556.33	489.17
556.50	428.32
556.66	386.19
556.83	430.66
556.99	421.30
557.16	465.77
557.32	400.23
557.49	360.44
557.65	393.21
557.82	409.59
557.98	411.93
558.15	379.17
558.32	400.23
558.48	386.19
558.65	433.00
558.81	449.38
558.98	379.17
559.14	463.43
559.31	376.83
559.47	442.36
559.64	451.72
559.80	386.19
559.97	421.30
560.13	435.34
560.30	433.00
560.46	400.23
560.63	407.25
560.79	360.44
560.96	451.72
561.12	454.06
561.29	507.90
561.45	433.00
561.61	365.12
561.78	430.66
561.94	435.34
562.11	327.68
562.27	416.62
562.44	449.38
562.60	393.21
562.77	411.93
562.93	477.47
563.10	430.66
563.26	451.72
563.42	465.77
563.59	367.46
563.75	381.51
563.92	454.06
564.08	442.36
564.24	425.98
564.41	479.81
564.57	440.02
564.74	416.62
564.90	332.36
565.07	330.02
565.23	414.27
565.39	437.68
565.56	440.02
565.72	484.49
565.88	400.23
566.05	425.98
566.21	400.23
566.38	449.38
566.54	440.02
566.70	461.09
566.87	416.62
567.03	390.87
567.19	477.47
567.36	479.81
567.52	433.00
567.68	416.62
567.85	416.62
568.01	451.72
568.17	456.40
568.34	404.91
568.50	482.15
568.66	341.72
568.83	411.93
568.99	425.98
569.15	447.04
569.32	411.93
569.48	372.15
569.64	402.57
569.81	433.00
569.97	440.02
570.13	444.70
570.30	404.91
570.46	425.98
570.62	388.53
570.78	346.40
570.95	425.98
571.11	428.32
571.27	416.62
571.43	388.53
571.60	512.58
571.76	341.72
571.92	395.55
572.09	351.08
572.25	400.23
572.41	447.04
572.57	435.34
572.74	463.43
572.90	414.27
573.06	510.24
573.22	411.93
573.38	423.64
573.55	433.00
573.71	421.30
573.87	437.68
574.03	416.62
574.20	411.93
574.36	428.32
574.52	376.83
574.68	425.98
574.84	507.90
575.01	418.96
575.17	447.04
575.33	327.68
575.49	383.85
575.65	386.19
575.82	430.66
575.98	404.91
576.14	414.27
576.30	421.30
576.46	330.02
576.62	440.02
576.79	428.32
576.95	465.77
577.11	456.40
577.27	379.17
577.43	416.62
577.59	411.93
577.75	374.49
577.92	390.87
578.08	404.91
578.24	423.64
578.40	411.93
578.56	428.32
578.72	414.27
578.88	393.21
579.04	435.34
579.21	421.30
579.37	421.30
579.53	395.55
579.69	402.57
579.85	395.55
580.01	440.02
580.17	381.51
580.33	416.62
580.49	400.23
580.65	444.70
580.82	444.70
580.98	393.21
581.14	383.85
581.30	374.49
581.46	447.04
581.62	484.49
581.78	393.21
581.94	360.44
582.10	379.17
582.26	435.34
582.42	360.44
582.58	470.45
582.74	358.10
582.90	454.06
583.06	365.12
583.22	411.93
583.38	421.30
583.54	407.25
583.70	486.83
583.86	433.00
584.02	386.19
584.18	393.21
584.34	362.78
584.50	416.62
584.66	400.23
584.82	433.00
584.98	486.83
585.14	475.13
585.30	358.10
585.46	479.81
585.62	414.27
585.78	463.43
585.94	379.17
586.10	454.06
586.26	456.40
586.42	390.87
586.58	423.64
586.74	292.57
586.90	344.06
587.06	386.19
587.22	386.19
587.38	430.66
587.54	430.66
587.70	423.64
587.86	477.47
588.02	428.32
588.18	437.68
588.34	428.32
588.49	449.38
588.65	421.30
588.81	428.32
588.97	360.44
589.13	404.91
589.29	430.66
589.45	528.96
589.61	395.55
589.77	402.57
589.93	407.25
590.08	440.02
590.24	437.68
590.40	404.91
590.56	468.11
590.72	458.74
590.88	433.00
591.04	428.32
591.20	414.27
591.35	440.02
591.51	444.70
591.67	414.27
591.83	418.96
591.99	425.98
592.15	360.44
592.31	437.68
592.46	372.15
592.62	411.93
592.78	493.85
592.94	449.38
593.10	383.85
593.26	414.27
593.41	339.38
593.57	484.49
593.73	437.68
593.89	524.28
594.05	461.09
594.20	423.64
594.36	395.55
594.52	461.09
594.68	372.15
594.84	451.72
594.99	465.77
595.15	390.87
595.31	381.51
595.47	451.72
595.62	486.83
595.78	440.02
595.94	395.55
596.10	437.68
596.25	344.06
596.41	402.57
596.57	383.85
596.73	414.27
596.88	437.68
597.04	449.38
597.20	374.49
597.36	407.25
597.51	379.17
597.67	411.93
597.83	358.10
597.99	409.59
598.14	430.66
598.30	421.30
598.46	444.70
598.61	449.38
598.77	388.53
598.93	400.23
599.09	369.80
599.24	390.87
599.40	437.68
599.56	447.04
599.71	461.09
599.87	470.45
600.03	402.57
600.18	388.53
600.34	423.64
600.50	428.32
600.65	311.29
600.81	475.13
600.97	320.65
601.12	425.98
601.28	538.32
601.44	461.09
601.59	477.47
601.75	404.91
601.91	425.98
602.06	425.98
602.22	454.06
602.37	421.30
602.53	440.02
602.69	388.53
602.84	400.23
603.00	400.23
603.16	423.64
603.31	395.55
603.47	430.66
603.62	440.02
603.78	442.36
603.94	360.44
604.09	444.70
604.25	423.64
604.40	435.34
604.56	365.12
604.71	433.00
604.87	390.87
605.03	362.78
605.18	440.02
605.34	451.72
605.49	404.91
605.65	337.04
605.80	421.30
605.96	423.64
606.12	428.32
606.27	418.96
606.43	472.79
606.58	493.85
606.74	411.93
606.89	447.04
607.05	381.51
607.20	407.25
607.36	379.17
607.51	414.27
607.67	376.83
607.82	454.06
607.98	444.70
608.13	409.59
608.29	395.55
608.44	458.74
608.60	470.45
608.75	444.70
608.91	440.02
609.06	465.77
609.22	442.36
609.37	444.70
609.53	416.62
609.68	411.93
609.84	428.32
609.99	458.74
610.15	447.04
