SpectraSuite Data File
++++++++++++++++++++++++++++++++++++
Date: Fri Oct 25 12:10:50 EDT 2013
User: price-jones
Dark Spectrum Present: No
Reference Spectrum Present: No
Number of Sampled Component Spectra: 1
Spectrometers: USB2+H05261
Integration Time (usec): 100000 (USB2+H05261)
Spectra Averaged: 1 (USB2+H05261)
Boxcar Smoothing: 0 (USB2+H05261)
Correct for Electrical Dark: No (USB2+H05261)
Strobe/Lamp Enabled: No (USB2+H05261)
Correct for Detector Non-linearity: No (USB2+H05261)
Correct for Stray Light: No (USB2+H05261)
Number of Pixels in Processed Spectrum: 2048
>>>>>Begin Processed Spectral Data<<<<<
365.73	346.40
365.92	346.40
366.12	346.40
366.32	227.03
366.52	210.65
366.72	189.58
366.91	252.78
367.11	187.24
367.31	205.97
367.51	175.54
367.70	266.82
367.90	201.29
368.10	196.60
368.30	208.31
368.49	220.01
368.69	215.33
368.89	271.50
369.09	297.25
369.28	325.33
369.48	257.46
369.68	245.76
369.87	280.86
370.07	273.84
370.27	315.97
370.47	395.55
370.66	381.51
370.86	365.12
371.06	409.59
371.25	355.76
371.45	414.27
371.65	414.27
371.84	435.34
372.04	360.44
372.24	262.14
372.44	411.93
372.63	449.38
372.83	327.68
373.03	393.21
373.22	400.23
373.42	369.80
373.62	402.57
373.81	369.80
374.01	414.27
374.21	430.66
374.40	313.63
374.60	411.93
374.79	458.74
374.99	369.80
375.19	425.98
375.38	425.98
375.58	400.23
375.78	449.38
375.97	479.81
376.17	470.45
376.37	411.93
376.56	348.74
376.76	372.15
376.95	383.85
377.15	367.46
377.35	390.87
377.54	388.53
377.74	404.91
377.93	365.12
378.13	365.12
378.33	456.40
378.52	257.46
378.72	416.62
378.91	379.17
379.11	395.55
379.31	416.62
379.50	409.59
379.70	390.87
379.89	365.12
380.09	386.19
380.28	362.78
380.48	395.55
380.68	334.70
380.87	381.51
381.07	435.34
381.26	383.85
381.46	383.85
381.65	376.83
381.85	383.85
382.04	416.62
382.24	414.27
382.43	390.87
382.63	447.04
382.83	421.30
383.02	465.77
383.22	470.45
383.41	465.77
383.61	355.76
383.80	416.62
384.00	400.23
384.19	409.59
384.39	440.02
384.58	372.15
384.78	465.77
384.97	437.68
385.17	421.30
385.36	383.85
385.56	381.51
385.75	341.72
385.95	369.80
386.14	475.13
386.34	411.93
386.53	402.57
386.72	411.93
386.92	376.83
387.11	437.68
387.31	437.68
387.50	355.76
387.70	402.57
387.89	383.85
388.09	440.02
388.28	353.42
388.48	433.00
388.67	395.55
388.86	369.80
389.06	421.30
389.25	372.15
389.45	414.27
389.64	433.00
389.84	393.21
390.03	337.04
390.22	358.10
390.42	397.89
390.61	442.36
390.81	414.27
391.00	400.23
391.19	388.53
391.39	433.00
391.58	397.89
391.78	393.21
391.97	397.89
392.16	430.66
392.36	395.55
392.55	395.55
392.75	430.66
392.94	421.30
393.13	390.87
393.33	346.40
393.52	402.57
393.71	404.91
393.91	379.17
394.10	330.02
394.29	390.87
394.49	430.66
394.68	468.11
394.88	475.13
395.07	440.02
395.26	341.72
395.46	407.25
395.65	395.55
395.84	411.93
396.04	430.66
396.23	397.89
396.42	379.17
396.62	400.23
396.81	437.68
397.00	379.17
397.19	440.02
397.39	451.72
397.58	472.79
397.77	397.89
397.97	411.93
398.16	409.59
398.35	416.62
398.55	358.10
398.74	404.91
398.93	433.00
399.12	334.70
399.32	369.80
399.51	407.25
399.70	372.15
399.90	444.70
400.09	390.87
400.28	411.93
400.47	416.62
400.67	411.93
400.86	479.81
401.05	454.06
401.24	411.93
401.44	449.38
401.63	372.15
401.82	458.74
402.01	325.33
402.21	386.19
402.40	365.12
402.59	390.87
402.78	374.49
402.97	379.17
403.17	440.02
403.36	465.77
403.55	411.93
403.74	409.59
403.93	376.83
404.13	411.93
404.32	372.15
404.51	421.30
404.70	374.49
404.89	421.30
405.09	341.72
405.28	428.32
405.47	404.91
405.66	397.89
405.85	423.64
406.05	376.83
406.24	395.55
406.43	433.00
406.62	414.27
406.81	479.81
407.00	428.32
407.20	428.32
407.39	451.72
407.58	442.36
407.77	353.42
407.96	404.91
408.15	472.79
408.34	407.25
408.54	428.32
408.73	463.43
408.92	411.93
409.11	379.17
409.30	421.30
409.49	393.21
409.68	341.72
409.87	393.21
410.07	425.98
410.26	395.55
410.45	456.40
410.64	402.57
410.83	355.76
411.02	463.43
411.21	369.80
411.40	430.66
411.59	451.72
411.78	404.91
411.98	346.40
412.17	425.98
412.36	395.55
412.55	470.45
412.74	411.93
412.93	390.87
413.12	496.19
413.31	458.74
413.50	332.36
413.69	418.96
413.88	374.49
414.07	409.59
414.26	388.53
414.45	362.78
414.64	418.96
414.83	374.49
415.02	447.04
415.22	433.00
415.41	479.81
415.60	383.85
415.79	379.17
415.98	435.34
416.17	390.87
416.36	463.43
416.55	376.83
416.74	423.64
416.93	430.66
417.12	381.51
417.31	440.02
417.50	444.70
417.69	449.38
417.88	411.93
418.07	332.36
418.26	388.53
418.45	393.21
418.64	421.30
418.83	437.68
419.02	332.36
419.21	358.10
419.39	395.55
419.58	428.32
419.77	407.25
419.96	383.85
420.15	458.74
420.34	339.38
420.53	395.55
420.72	379.17
420.91	430.66
421.10	360.44
421.29	472.79
421.48	411.93
421.67	353.42
421.86	423.64
422.05	322.99
422.24	374.49
422.43	444.70
422.61	400.23
422.80	353.42
422.99	395.55
423.18	428.32
423.37	416.62
423.56	348.74
423.75	479.81
423.94	475.13
424.13	428.32
424.32	381.51
424.50	442.36
424.69	390.87
424.88	435.34
425.07	414.27
425.26	418.96
425.45	458.74
425.64	365.12
425.83	386.19
426.01	374.49
426.20	428.32
426.39	388.53
426.58	409.59
426.77	437.68
426.96	416.62
427.15	348.74
427.33	404.91
427.52	411.93
427.71	435.34
427.90	381.51
428.09	393.21
428.28	390.87
428.46	397.89
428.65	404.91
428.84	451.72
429.03	390.87
429.22	393.21
429.40	383.85
429.59	362.78
429.78	388.53
429.97	379.17
430.16	395.55
430.34	402.57
430.53	437.68
430.72	358.10
430.91	468.11
431.10	458.74
431.28	374.49
431.47	465.77
431.66	440.02
431.85	447.04
432.03	437.68
432.22	484.49
432.41	407.25
432.60	475.13
432.79	379.17
432.97	409.59
433.16	330.02
433.35	423.64
433.54	517.26
433.72	404.91
433.91	414.27
434.10	437.68
434.28	458.74
434.47	346.40
434.66	423.64
434.85	358.10
435.03	395.55
435.22	409.59
435.41	386.19
435.59	402.57
435.78	418.96
435.97	381.51
436.16	414.27
436.34	395.55
436.53	376.83
436.72	402.57
436.90	468.11
437.09	454.06
437.28	414.27
437.46	334.70
437.65	444.70
437.84	456.40
438.02	400.23
438.21	433.00
438.40	414.27
438.58	407.25
438.77	437.68
438.96	388.53
439.14	416.62
439.33	440.02
439.52	400.23
439.70	355.76
439.89	423.64
440.08	407.25
440.26	437.68
440.45	458.74
440.63	442.36
440.82	388.53
441.01	407.25
441.19	414.27
441.38	358.10
441.57	435.34
441.75	404.91
441.94	409.59
442.12	416.62
442.31	360.44
442.50	393.21
442.68	376.83
442.87	341.72
443.05	358.10
443.24	449.38
443.43	517.26
443.61	442.36
443.80	367.46
443.98	451.72
444.17	442.36
444.35	435.34
444.54	407.25
444.73	465.77
444.91	390.87
445.10	447.04
445.28	414.27
445.47	421.30
445.65	421.30
445.84	402.57
446.02	449.38
446.21	379.17
446.39	407.25
446.58	388.53
446.77	379.17
446.95	407.25
447.14	430.66
447.32	428.32
447.51	320.65
447.69	468.11
447.88	461.09
448.06	493.85
448.25	325.33
448.43	402.57
448.62	425.98
448.80	416.62
448.99	430.66
449.17	444.70
449.36	369.80
449.54	367.46
449.73	393.21
449.91	444.70
450.10	397.89
450.28	461.09
450.46	440.02
450.65	409.59
450.83	416.62
451.02	449.38
451.20	414.27
451.39	475.13
451.57	402.57
451.76	402.57
451.94	365.12
452.13	386.19
452.31	386.19
452.49	341.72
452.68	266.82
452.86	374.49
453.05	421.30
453.23	416.62
453.42	435.34
453.60	404.91
453.78	411.93
453.97	425.98
454.15	440.02
454.34	479.81
454.52	388.53
454.70	465.77
454.89	402.57
455.07	367.46
455.26	423.64
455.44	444.70
455.62	437.68
455.81	360.44
455.99	390.87
456.17	407.25
456.36	369.80
456.54	409.59
456.73	379.17
456.91	369.80
457.09	372.15
457.28	400.23
457.46	334.70
457.64	470.45
457.83	409.59
458.01	369.80
458.19	411.93
458.38	379.17
458.56	430.66
458.74	468.11
458.93	353.42
459.11	442.36
459.29	393.21
459.48	414.27
459.66	372.15
459.84	409.59
460.03	503.22
460.21	463.43
460.39	362.78
460.57	479.81
460.76	489.17
460.94	416.62
461.12	402.57
461.31	381.51
461.49	444.70
461.67	447.04
461.85	397.89
462.04	421.30
462.22	674.07
462.40	428.32
462.59	430.66
462.77	402.57
462.95	435.34
463.13	407.25
463.32	468.11
463.50	353.42
463.68	447.04
463.86	444.70
464.05	348.74
464.23	386.19
464.41	500.87
464.59	339.38
464.78	402.57
464.96	365.12
465.14	369.80
465.32	433.00
465.50	386.19
465.69	430.66
465.87	440.02
466.05	404.91
466.23	404.91
466.41	355.76
466.60	360.44
466.78	332.36
466.96	372.15
467.14	423.64
467.32	404.91
467.51	390.87
467.69	397.89
467.87	423.64
468.05	423.64
468.23	451.72
468.41	437.68
468.60	463.43
468.78	423.64
468.96	465.77
469.14	444.70
469.32	425.98
469.50	339.38
469.69	369.80
469.87	400.23
470.05	400.23
470.23	393.21
470.41	400.23
470.59	374.49
470.77	386.19
470.95	440.02
471.14	334.70
471.32	390.87
471.50	411.93
471.68	372.15
471.86	367.46
472.04	390.87
472.22	376.83
472.40	315.97
472.58	433.00
472.77	437.68
472.95	472.79
473.13	545.34
473.31	477.47
473.49	475.13
473.67	390.87
473.85	348.74
474.03	344.06
474.21	369.80
474.39	416.62
474.57	449.38
474.75	484.49
474.93	416.62
475.12	374.49
475.30	409.59
475.48	393.21
475.66	442.36
475.84	348.74
476.02	402.57
476.20	397.89
476.38	383.85
476.56	479.81
476.74	374.49
476.92	390.87
477.10	365.12
477.28	325.33
477.46	414.27
477.64	411.93
477.82	411.93
478.00	416.62
478.18	465.77
478.36	425.98
478.54	379.17
478.72	381.51
478.90	440.02
479.08	397.89
479.26	404.91
479.44	341.72
479.62	423.64
479.80	367.46
479.98	376.83
480.16	423.64
480.34	400.23
480.52	425.98
480.70	379.17
480.88	386.19
481.06	374.49
481.24	407.25
481.41	381.51
481.59	358.10
481.77	379.17
481.95	386.19
482.13	456.40
482.31	470.45
482.49	477.47
482.67	388.53
482.85	414.27
483.03	404.91
483.21	421.30
483.39	353.42
483.57	400.23
483.74	423.64
483.92	404.91
484.10	395.55
484.28	372.15
484.46	430.66
484.64	381.51
484.82	404.91
485.00	414.27
485.18	418.96
485.35	372.15
485.53	449.38
485.71	362.78
485.89	388.53
486.07	395.55
486.25	402.57
486.43	355.76
486.61	418.96
486.78	472.79
486.96	411.93
487.14	433.00
487.32	407.25
487.50	428.32
487.68	409.59
487.85	322.99
488.03	437.68
488.21	433.00
488.39	372.15
488.57	423.64
488.75	365.12
488.92	491.51
489.10	407.25
489.28	435.34
489.46	402.57
489.64	447.04
489.81	468.11
489.99	428.32
490.17	449.38
490.35	491.51
490.53	451.72
490.70	451.72
490.88	381.51
491.06	440.02
491.24	393.21
491.41	421.30
491.59	433.00
491.77	433.00
491.95	367.46
492.13	404.91
492.30	425.98
492.48	447.04
492.66	465.77
492.84	428.32
493.01	479.81
493.19	423.64
493.37	393.21
493.54	393.21
493.72	386.19
493.90	418.96
494.08	454.06
494.25	489.17
494.43	395.55
494.61	386.19
494.79	444.70
494.96	390.87
495.14	472.79
495.32	372.15
495.49	437.68
495.67	379.17
495.85	442.36
496.02	355.76
496.20	360.44
496.38	353.42
496.55	423.64
496.73	458.74
496.91	475.13
497.09	353.42
497.26	421.30
497.44	397.89
497.62	388.53
497.79	421.30
497.97	451.72
498.14	465.77
498.32	463.43
498.50	369.80
498.67	318.31
498.85	388.53
499.03	351.08
499.20	390.87
499.38	376.83
499.56	409.59
499.73	475.13
499.91	507.90
500.08	454.06
500.26	395.55
500.44	468.11
500.61	454.06
500.79	433.00
500.97	458.74
501.14	414.27
501.32	372.15
501.49	435.34
501.67	397.89
501.84	463.43
502.02	353.42
502.20	477.47
502.37	461.09
502.55	449.38
502.72	390.87
502.90	430.66
503.07	461.09
503.25	456.40
503.43	425.98
503.60	376.83
503.78	379.17
503.95	414.27
504.13	414.27
504.30	491.51
504.48	346.40
504.65	369.80
504.83	425.98
505.01	341.72
505.18	388.53
505.36	440.02
505.53	346.40
505.71	358.10
505.88	393.21
506.06	327.68
506.23	470.45
506.41	365.12
506.58	428.32
506.76	379.17
506.93	416.62
507.11	449.38
507.28	404.91
507.46	386.19
507.63	449.38
507.81	421.30
507.98	362.78
508.16	411.93
508.33	418.96
508.50	458.74
508.68	344.06
508.85	414.27
509.03	418.96
509.20	393.21
509.38	517.26
509.55	472.79
509.73	397.89
509.90	479.81
510.08	409.59
510.25	409.59
510.42	428.32
510.60	482.15
510.77	447.04
510.95	454.06
511.12	348.74
511.30	404.91
511.47	348.74
511.64	381.51
511.82	397.89
511.99	407.25
512.17	430.66
512.34	437.68
512.51	341.72
512.69	404.91
512.86	383.85
513.04	414.27
513.21	430.66
513.38	374.49
513.56	418.96
513.73	465.77
513.90	458.74
514.08	400.23
514.25	423.64
514.43	418.96
514.60	381.51
514.77	386.19
514.95	404.91
515.12	428.32
515.29	381.51
515.47	411.93
515.64	374.49
515.81	425.98
515.99	418.96
516.16	407.25
516.33	451.72
516.51	430.66
516.68	379.17
516.85	416.62
517.03	444.70
517.20	428.32
517.37	463.43
517.54	402.57
517.72	400.23
517.89	409.59
518.06	407.25
518.24	472.79
518.41	479.81
518.58	414.27
518.75	477.47
518.93	393.21
519.10	388.53
519.27	376.83
519.45	386.19
519.62	416.62
519.79	437.68
519.96	362.78
520.14	374.49
520.31	435.34
520.48	449.38
520.65	461.09
520.83	498.53
521.00	425.98
521.17	430.66
521.34	435.34
521.52	425.98
521.69	428.32
521.86	404.91
522.03	383.85
522.20	416.62
522.38	379.17
522.55	404.91
522.72	423.64
522.89	461.09
523.07	379.17
523.24	421.30
523.41	346.40
523.58	486.83
523.75	414.27
523.92	390.87
524.10	362.78
524.27	423.64
524.44	379.17
524.61	442.36
524.78	379.17
524.96	374.49
525.13	435.34
525.30	433.00
525.47	400.23
525.64	418.96
525.81	355.76
525.98	447.04
526.16	402.57
526.33	435.34
526.50	397.89
526.67	383.85
526.84	395.55
527.01	332.36
527.18	430.66
527.36	414.27
527.53	444.70
527.70	414.27
527.87	376.83
528.04	463.43
528.21	383.85
528.38	428.32
528.55	489.17
528.72	411.93
528.89	444.70
529.07	390.87
529.24	372.15
529.41	498.53
529.58	458.74
529.75	397.89
529.92	435.34
530.09	362.78
530.26	404.91
530.43	395.55
530.60	334.70
530.77	348.74
530.94	423.64
531.11	447.04
531.28	367.46
531.46	367.46
531.63	390.87
531.80	393.21
531.97	407.25
532.14	458.74
532.31	416.62
532.48	423.64
532.65	447.04
532.82	423.64
532.99	372.15
533.16	360.44
533.33	430.66
533.50	353.42
533.67	414.27
533.84	381.51
534.01	484.49
534.18	402.57
534.35	379.17
534.52	407.25
534.69	468.11
534.86	486.83
535.03	390.87
535.20	423.64
535.37	430.66
535.54	351.08
535.71	348.74
535.88	418.96
536.05	470.45
536.22	395.55
536.38	367.46
536.55	416.62
536.72	421.30
536.89	337.04
537.06	421.30
537.23	468.11
537.40	414.27
537.57	423.64
537.74	468.11
537.91	449.38
538.08	404.91
538.25	440.02
538.42	390.87
538.59	428.32
538.75	437.68
538.92	358.10
539.09	430.66
539.26	449.38
539.43	454.06
539.60	381.51
539.77	428.32
539.94	386.19
540.11	383.85
540.28	449.38
540.44	416.62
540.61	400.23
540.78	393.21
540.95	414.27
541.12	463.43
541.29	397.89
541.46	451.72
541.62	416.62
541.79	374.49
541.96	409.59
542.13	418.96
542.30	447.04
542.47	479.81
542.63	346.40
542.80	435.34
542.97	404.91
543.14	418.96
543.31	409.59
543.48	379.17
543.64	402.57
543.81	458.74
543.98	423.64
544.15	440.02
544.32	444.70
544.48	451.72
544.65	454.06
544.82	402.57
544.99	421.30
545.16	411.93
545.32	430.66
545.49	404.91
545.66	414.27
545.83	400.23
546.00	348.74
546.16	386.19
546.33	514.92
546.50	418.96
546.67	437.68
546.83	519.60
547.00	421.30
547.17	416.62
547.34	454.06
547.50	526.62
547.67	428.32
547.84	442.36
548.00	477.47
548.17	416.62
548.34	395.55
548.51	500.87
548.67	414.27
548.84	334.70
549.01	351.08
549.18	423.64
549.34	442.36
549.51	383.85
549.68	390.87
549.84	400.23
550.01	463.43
550.18	491.51
550.34	444.70
550.51	402.57
550.68	418.96
550.84	425.98
551.01	470.45
551.18	465.77
551.34	489.17
551.51	414.27
551.68	451.72
551.84	449.38
552.01	404.91
552.18	367.46
552.34	400.23
552.51	425.98
552.68	348.74
552.84	442.36
553.01	393.21
553.18	503.22
553.34	402.57
553.51	428.32
553.67	447.04
553.84	409.59
554.01	372.15
554.17	423.64
554.34	402.57
554.51	454.06
554.67	416.62
554.84	402.57
555.00	477.47
555.17	400.23
555.33	395.55
555.50	435.34
555.67	444.70
555.83	442.36
556.00	468.11
556.16	545.34
556.33	400.23
556.50	367.46
556.66	386.19
556.83	435.34
556.99	334.70
557.16	395.55
557.32	344.06
557.49	444.70
557.65	379.17
557.82	433.00
557.98	437.68
558.15	346.40
558.32	447.04
558.48	421.30
558.65	411.93
558.81	451.72
558.98	451.72
559.14	395.55
559.31	362.78
559.47	472.79
559.64	447.04
559.80	465.77
559.97	451.72
560.13	400.23
560.30	444.70
560.46	358.10
560.63	437.68
560.79	402.57
560.96	423.64
561.12	379.17
561.29	423.64
561.45	435.34
561.61	395.55
561.78	479.81
561.94	411.93
562.11	447.04
562.27	463.43
562.44	400.23
562.60	444.70
562.77	442.36
562.93	423.64
563.10	407.25
563.26	437.68
563.42	402.57
563.59	447.04
563.75	435.34
563.92	416.62
564.08	409.59
564.24	458.74
564.41	409.59
564.57	397.89
564.74	421.30
564.90	428.32
565.07	437.68
565.23	465.77
565.39	383.85
565.56	477.47
565.72	393.21
565.88	454.06
566.05	397.89
566.21	416.62
566.38	418.96
566.54	430.66
566.70	423.64
566.87	430.66
567.03	437.68
567.19	397.89
567.36	348.74
567.52	416.62
567.68	461.09
567.85	414.27
568.01	278.52
568.17	411.93
568.34	440.02
568.50	465.77
568.66	395.55
568.83	461.09
568.99	367.46
569.15	397.89
569.32	383.85
569.48	383.85
569.64	428.32
569.81	421.30
569.97	318.31
570.13	358.10
570.30	409.59
570.46	428.32
570.62	388.53
570.78	379.17
570.95	400.23
571.11	404.91
571.27	332.36
571.43	444.70
571.60	423.64
571.76	458.74
571.92	322.99
572.09	355.76
572.25	386.19
572.41	351.08
572.57	449.38
572.74	458.74
572.90	430.66
573.06	458.74
573.22	437.68
573.38	409.59
573.55	482.15
573.71	447.04
573.87	454.06
574.03	369.80
574.20	411.93
574.36	416.62
574.52	470.45
574.68	388.53
574.84	372.15
575.01	341.72
575.17	383.85
575.33	440.02
575.49	456.40
575.65	341.72
575.82	425.98
575.98	404.91
576.14	330.02
576.30	404.91
576.46	428.32
576.62	388.53
576.79	418.96
576.95	428.32
577.11	388.53
577.27	390.87
577.43	402.57
577.59	421.30
577.75	409.59
577.92	369.80
578.08	437.68
578.24	318.31
578.40	433.00
578.56	458.74
578.72	451.72
578.88	421.30
579.04	400.23
579.21	411.93
579.37	425.98
579.53	430.66
579.69	407.25
579.85	437.68
580.01	404.91
580.17	444.70
580.33	458.74
580.49	388.53
580.65	442.36
580.82	414.27
580.98	421.30
581.14	397.89
581.30	470.45
581.46	440.02
581.62	414.27
581.78	409.59
581.94	463.43
582.10	383.85
582.26	374.49
582.42	402.57
582.58	447.04
582.74	390.87
582.90	332.36
583.06	447.04
583.22	411.93
583.38	386.19
583.54	376.83
583.70	425.98
583.86	468.11
584.02	383.85
584.18	409.59
584.34	416.62
584.50	414.27
584.66	390.87
584.82	404.91
584.98	400.23
585.14	423.64
585.30	407.25
585.46	407.25
585.62	423.64
585.78	402.57
585.94	381.51
586.10	491.51
586.26	484.49
586.42	510.24
586.58	423.64
586.74	451.72
586.90	428.32
587.06	400.23
587.22	454.06
587.38	381.51
587.54	423.64
587.70	461.09
587.86	418.96
588.02	449.38
588.18	393.21
588.34	416.62
588.49	379.17
588.65	360.44
588.81	351.08
588.97	472.79
589.13	376.83
589.29	437.68
589.45	482.15
589.61	400.23
589.77	425.98
589.93	496.19
590.08	369.80
590.24	407.25
590.40	451.72
590.56	484.49
590.72	444.70
590.88	456.40
591.04	493.85
591.20	411.93
591.35	437.68
591.51	423.64
591.67	421.30
591.83	416.62
591.99	416.62
592.15	444.70
592.31	388.53
592.46	444.70
592.62	465.77
592.78	444.70
592.94	414.27
593.10	444.70
593.26	407.25
593.41	498.53
593.57	451.72
593.73	334.70
593.89	400.23
594.05	346.40
594.20	435.34
594.36	353.42
594.52	409.59
594.68	360.44
594.84	475.13
594.99	456.40
595.15	360.44
595.31	463.43
595.47	386.19
595.62	351.08
595.78	388.53
595.94	454.06
596.10	388.53
596.25	444.70
596.41	367.46
596.57	365.12
596.73	444.70
596.88	416.62
597.04	381.51
597.20	393.21
597.36	463.43
597.51	428.32
597.67	409.59
597.83	414.27
597.99	458.74
598.14	470.45
598.30	402.57
598.46	397.89
598.61	425.98
598.77	447.04
598.93	433.00
599.09	376.83
599.24	344.06
599.40	414.27
599.56	454.06
599.71	388.53
599.87	402.57
600.03	386.19
600.18	393.21
600.34	390.87
600.50	437.68
600.65	393.21
600.81	493.85
600.97	444.70
601.12	435.34
601.28	458.74
601.44	400.23
601.59	346.40
601.75	482.15
601.91	379.17
602.06	414.27
602.22	468.11
602.37	390.87
602.53	393.21
602.69	425.98
602.84	400.23
603.00	428.32
603.16	500.87
603.31	416.62
603.47	425.98
603.62	414.27
603.78	423.64
603.94	461.09
604.09	397.89
604.25	411.93
604.40	416.62
604.56	362.78
604.71	500.87
604.87	416.62
605.03	421.30
605.18	395.55
605.34	454.06
605.49	376.83
605.65	365.12
605.80	383.85
605.96	388.53
606.12	414.27
606.27	451.72
606.43	440.02
606.58	411.93
606.74	416.62
606.89	423.64
607.05	409.59
607.20	374.49
607.36	367.46
607.51	489.17
607.67	421.30
607.82	369.80
607.98	440.02
608.13	409.59
608.29	442.36
608.44	470.45
608.60	353.42
608.75	379.17
608.91	503.22
609.06	404.91
609.22	435.34
609.37	407.25
609.53	320.65
609.68	444.70
609.84	339.38
609.99	372.15
610.15	524.28
