SpectraSuite Data File
++++++++++++++++++++++++++++++++++++
Date: Fri Oct 25 12:10:13 EDT 2013
User: price-jones
Dark Spectrum Present: No
Reference Spectrum Present: No
Number of Sampled Component Spectra: 1
Spectrometers: USB2+H05261
Integration Time (usec): 100000 (USB2+H05261)
Spectra Averaged: 1 (USB2+H05261)
Boxcar Smoothing: 0 (USB2+H05261)
Correct for Electrical Dark: No (USB2+H05261)
Strobe/Lamp Enabled: No (USB2+H05261)
Correct for Detector Non-linearity: No (USB2+H05261)
Correct for Stray Light: No (USB2+H05261)
Number of Pixels in Processed Spectrum: 2048
>>>>>Begin Processed Spectral Data<<<<<
365.73	367.46
365.92	367.46
366.12	367.46
366.32	290.23
366.52	273.84
366.72	250.44
366.91	220.01
367.11	194.26
367.31	215.33
367.51	292.57
367.70	245.76
367.90	264.48
368.10	259.80
368.30	212.99
368.49	259.80
368.69	285.55
368.89	257.46
369.09	257.46
369.28	264.48
369.48	243.42
369.68	294.91
369.87	271.50
370.07	283.20
370.27	362.78
370.47	344.06
370.66	393.21
370.86	322.99
371.06	386.19
371.25	374.49
371.45	416.62
371.65	407.25
371.84	306.61
372.04	306.61
372.24	332.36
372.44	421.30
372.63	449.38
372.83	451.72
373.03	348.74
373.22	407.25
373.42	339.38
373.62	423.64
373.81	430.66
374.01	491.51
374.21	477.47
374.40	454.06
374.60	484.49
374.79	451.72
374.99	393.21
375.19	454.06
375.38	461.09
375.58	386.19
375.78	475.13
375.97	400.23
376.17	475.13
376.37	376.83
376.56	479.81
376.76	355.76
376.95	386.19
377.15	430.66
377.35	437.68
377.54	362.78
377.74	376.83
377.93	362.78
378.13	463.43
378.33	404.91
378.52	390.87
378.72	477.47
378.91	437.68
379.11	421.30
379.31	425.98
379.50	341.72
379.70	486.83
379.89	397.89
380.09	388.53
380.28	407.25
380.48	369.80
380.68	365.12
380.87	372.15
381.07	388.53
381.26	416.62
381.46	428.32
381.65	451.72
381.85	388.53
382.04	411.93
382.24	423.64
382.43	433.00
382.63	421.30
382.83	344.06
383.02	512.58
383.22	423.64
383.41	383.85
383.61	416.62
383.80	500.87
384.00	444.70
384.19	395.55
384.39	440.02
384.58	407.25
384.78	418.96
384.97	393.21
385.17	376.83
385.36	330.02
385.56	423.64
385.75	376.83
385.95	458.74
386.14	435.34
386.34	407.25
386.53	416.62
386.72	430.66
386.92	447.04
387.11	418.96
387.31	486.83
387.50	369.80
387.70	395.55
387.89	414.27
388.09	416.62
388.28	339.38
388.48	376.83
388.67	423.64
388.86	367.46
389.06	393.21
389.25	449.38
389.45	390.87
389.64	451.72
389.84	388.53
390.03	407.25
390.22	395.55
390.42	362.78
390.61	418.96
390.81	320.65
391.00	376.83
391.19	444.70
391.39	404.91
391.58	383.85
391.78	440.02
391.97	409.59
392.16	428.32
392.36	379.17
392.55	458.74
392.75	390.87
392.94	390.87
393.13	346.40
393.33	327.68
393.52	339.38
393.71	442.36
393.91	411.93
394.10	376.83
394.29	423.64
394.49	376.83
394.68	418.96
394.88	449.38
395.07	402.57
395.26	437.68
395.46	325.33
395.65	400.23
395.84	404.91
396.04	435.34
396.23	341.72
396.42	365.12
396.62	404.91
396.81	437.68
397.00	409.59
397.19	433.00
397.39	376.83
397.58	470.45
397.77	367.46
397.97	470.45
398.16	444.70
398.35	458.74
398.55	407.25
398.74	369.80
398.93	374.49
399.12	390.87
399.32	367.46
399.51	369.80
399.70	402.57
399.90	374.49
400.09	397.89
400.28	465.77
400.47	355.76
400.67	388.53
400.86	409.59
401.05	365.12
401.24	440.02
401.44	465.77
401.63	437.68
401.82	337.04
402.01	418.96
402.21	418.96
402.40	308.95
402.59	358.10
402.78	458.74
402.97	341.72
403.17	414.27
403.36	344.06
403.55	383.85
403.74	421.30
403.93	442.36
404.13	433.00
404.32	411.93
404.51	402.57
404.70	425.98
404.89	390.87
405.09	383.85
405.28	447.04
405.47	332.36
405.66	437.68
405.85	425.98
406.05	386.19
406.24	477.47
406.43	442.36
406.62	418.96
406.81	397.89
407.00	383.85
407.20	411.93
407.39	433.00
407.58	444.70
407.77	433.00
407.96	390.87
408.15	393.21
408.34	421.30
408.54	362.78
408.73	430.66
408.92	390.87
409.11	409.59
409.30	444.70
409.49	442.36
409.68	411.93
409.87	437.68
410.07	381.51
410.26	369.80
410.45	447.04
410.64	444.70
410.83	425.98
411.02	440.02
411.21	477.47
411.40	416.62
411.59	404.91
411.78	393.21
411.98	376.83
412.17	440.02
412.36	397.89
412.55	325.33
412.74	475.13
412.93	423.64
413.12	409.59
413.31	430.66
413.50	397.89
413.69	418.96
413.88	409.59
414.07	308.95
414.26	416.62
414.45	407.25
414.64	388.53
414.83	423.64
415.02	437.68
415.22	428.32
415.41	451.72
415.60	444.70
415.79	351.08
415.98	430.66
416.17	379.17
416.36	404.91
416.55	475.13
416.74	470.45
416.93	449.38
417.12	404.91
417.31	376.83
417.50	395.55
417.69	449.38
417.88	437.68
418.07	365.12
418.26	407.25
418.45	365.12
418.64	397.89
418.83	304.27
419.02	421.30
419.21	374.49
419.39	395.55
419.58	407.25
419.77	477.47
419.96	407.25
420.15	433.00
420.34	348.74
420.53	362.78
420.72	379.17
420.91	351.08
421.10	362.78
421.29	451.72
421.48	451.72
421.67	418.96
421.86	404.91
422.05	351.08
422.24	416.62
422.43	404.91
422.61	404.91
422.80	397.89
422.99	479.81
423.18	348.74
423.37	423.64
423.56	407.25
423.75	393.21
423.94	400.23
424.13	440.02
424.32	468.11
424.50	400.23
424.69	465.77
424.88	425.98
425.07	421.30
425.26	411.93
425.45	386.19
425.64	400.23
425.83	421.30
426.01	451.72
426.20	421.30
426.39	411.93
426.58	379.17
426.77	451.72
426.96	451.72
427.15	362.78
427.33	402.57
427.52	428.32
427.71	425.98
427.90	404.91
428.09	390.87
428.28	421.30
428.46	409.59
428.65	435.34
428.84	435.34
429.03	421.30
429.22	428.32
429.40	442.36
429.59	482.15
429.78	418.96
429.97	351.08
430.16	393.21
430.34	435.34
430.53	358.10
430.72	395.55
430.91	348.74
431.10	386.19
431.28	411.93
431.47	456.40
431.66	393.21
431.85	379.17
432.03	390.87
432.22	407.25
432.41	433.00
432.60	414.27
432.79	355.76
432.97	379.17
433.16	374.49
433.35	444.70
433.54	372.15
433.72	407.25
433.91	418.96
434.10	414.27
434.28	407.25
434.47	465.77
434.66	447.04
434.85	444.70
435.03	402.57
435.22	414.27
435.41	379.17
435.59	416.62
435.78	414.27
435.97	437.68
436.16	451.72
436.34	390.87
436.53	458.74
436.72	470.45
436.90	404.91
437.09	447.04
437.28	461.09
437.46	402.57
437.65	458.74
437.84	433.00
438.02	482.15
438.21	489.17
438.40	358.10
438.58	421.30
438.77	402.57
438.96	372.15
439.14	374.49
439.33	437.68
439.52	423.64
439.70	372.15
439.89	489.17
440.08	425.98
440.26	355.76
440.45	428.32
440.63	463.43
440.82	383.85
441.01	351.08
441.19	435.34
441.38	379.17
441.57	402.57
441.75	510.24
441.94	421.30
442.12	416.62
442.31	414.27
442.50	360.44
442.68	388.53
442.87	435.34
443.05	395.55
443.24	369.80
443.43	428.32
443.61	442.36
443.80	491.51
443.98	461.09
444.17	425.98
444.35	435.34
444.54	411.93
444.73	458.74
444.91	433.00
445.10	388.53
445.28	442.36
445.47	402.57
445.65	397.89
445.84	421.30
446.02	416.62
446.21	411.93
446.39	418.96
446.58	421.30
446.77	383.85
446.95	458.74
447.14	397.89
447.32	468.11
447.51	470.45
447.69	402.57
447.88	428.32
448.06	395.55
448.25	409.59
448.43	402.57
448.62	313.63
448.80	409.59
448.99	388.53
449.17	423.64
449.36	402.57
449.54	383.85
449.73	421.30
449.91	491.51
450.10	407.25
450.28	465.77
450.46	430.66
450.65	444.70
450.83	444.70
451.02	458.74
451.20	388.53
451.39	355.76
451.57	454.06
451.76	491.51
451.94	433.00
452.13	360.44
452.31	440.02
452.49	416.62
452.68	337.04
452.86	437.68
453.05	449.38
453.23	437.68
453.42	435.34
453.60	372.15
453.78	386.19
453.97	430.66
454.15	383.85
454.34	421.30
454.52	367.46
454.70	484.49
454.89	411.93
455.07	339.38
455.26	367.46
455.44	379.17
455.62	397.89
455.81	433.00
455.99	433.00
456.17	402.57
456.36	444.70
456.54	449.38
456.73	451.72
456.91	395.55
457.09	383.85
457.28	454.06
457.46	407.25
457.64	477.47
457.83	447.04
458.01	418.96
458.19	482.15
458.38	421.30
458.56	440.02
458.74	428.32
458.93	423.64
459.11	444.70
459.29	362.78
459.48	367.46
459.66	418.96
459.84	451.72
460.03	449.38
460.21	510.24
460.39	402.57
460.57	458.74
460.76	330.02
460.94	440.02
461.12	440.02
461.31	402.57
461.49	379.17
461.67	498.53
461.85	484.49
462.04	404.91
462.22	734.93
462.40	463.43
462.59	449.38
462.77	421.30
462.95	454.06
463.13	360.44
463.32	418.96
463.50	465.77
463.68	433.00
463.86	369.80
464.05	489.17
464.23	367.46
464.41	440.02
464.59	390.87
464.78	409.59
464.96	400.23
465.14	433.00
465.32	407.25
465.50	472.79
465.69	475.13
465.87	367.46
466.05	442.36
466.23	351.08
466.41	498.53
466.60	461.09
466.78	379.17
466.96	400.23
467.14	447.04
467.32	430.66
467.51	428.32
467.69	440.02
467.87	491.51
468.05	442.36
468.23	407.25
468.41	461.09
468.60	418.96
468.78	383.85
468.96	437.68
469.14	379.17
469.32	402.57
469.50	416.62
469.69	416.62
469.87	423.64
470.05	444.70
470.23	444.70
470.41	411.93
470.59	407.25
470.77	433.00
470.95	416.62
471.14	489.17
471.32	344.06
471.50	425.98
471.68	393.21
471.86	433.00
472.04	315.97
472.22	435.34
472.40	468.11
472.58	376.83
472.77	407.25
472.95	437.68
473.13	425.98
473.31	444.70
473.49	409.59
473.67	437.68
473.85	402.57
474.03	386.19
474.21	421.30
474.39	489.17
474.57	425.98
474.75	425.98
474.93	390.87
475.12	393.21
475.30	411.93
475.48	383.85
475.66	496.19
475.84	374.49
476.02	360.44
476.20	444.70
476.38	430.66
476.56	402.57
476.74	512.58
476.92	372.15
477.10	390.87
477.28	365.12
477.46	397.89
477.64	461.09
477.82	447.04
478.00	411.93
478.18	477.47
478.36	306.61
478.54	428.32
478.72	482.15
478.90	344.06
479.08	435.34
479.26	360.44
479.44	416.62
479.62	475.13
479.80	451.72
479.98	346.40
480.16	365.12
480.34	411.93
480.52	411.93
480.70	407.25
480.88	355.76
481.06	486.83
481.24	351.08
481.41	428.32
481.59	442.36
481.77	404.91
481.95	491.51
482.13	381.51
482.31	423.64
482.49	344.06
482.67	440.02
482.85	447.04
483.03	428.32
483.21	365.12
483.39	416.62
483.57	379.17
483.74	402.57
483.92	367.46
484.10	332.36
484.28	435.34
484.46	430.66
484.64	454.06
484.82	411.93
485.00	397.89
485.18	393.21
485.35	402.57
485.53	332.36
485.71	468.11
485.89	395.55
486.07	416.62
486.25	475.13
486.43	400.23
486.61	379.17
486.78	423.64
486.96	414.27
487.14	402.57
487.32	402.57
487.50	362.78
487.68	372.15
487.85	393.21
488.03	454.06
488.21	430.66
488.39	411.93
488.57	442.36
488.75	423.64
488.92	479.81
489.10	456.40
489.28	390.87
489.46	465.77
489.64	461.09
489.81	416.62
489.99	437.68
490.17	362.78
490.35	414.27
490.53	400.23
490.70	496.19
490.88	407.25
491.06	379.17
491.24	500.87
491.41	489.17
491.59	353.42
491.77	430.66
491.95	393.21
492.13	353.42
492.30	479.81
492.48	465.77
492.66	407.25
492.84	402.57
493.01	402.57
493.19	386.19
493.37	425.98
493.54	470.45
493.72	425.98
493.90	421.30
494.08	414.27
494.25	381.51
494.43	411.93
494.61	360.44
494.79	454.06
494.96	414.27
495.14	414.27
495.32	395.55
495.49	409.59
495.67	418.96
495.85	372.15
496.02	402.57
496.20	351.08
496.38	411.93
496.55	402.57
496.73	440.02
496.91	393.21
497.09	496.19
497.26	365.12
497.44	444.70
497.62	402.57
497.79	372.15
497.97	379.17
498.14	402.57
498.32	444.70
498.50	500.87
498.67	400.23
498.85	416.62
499.03	409.59
499.20	444.70
499.38	404.91
499.56	383.85
499.73	428.32
499.91	521.94
500.08	402.57
500.26	430.66
500.44	440.02
500.61	407.25
500.79	468.11
500.97	484.49
501.14	526.62
501.32	395.55
501.49	489.17
501.67	435.34
501.84	458.74
502.02	376.83
502.20	390.87
502.37	376.83
502.55	393.21
502.72	397.89
502.90	411.93
503.07	414.27
503.25	440.02
503.43	407.25
503.60	409.59
503.78	435.34
503.95	418.96
504.13	440.02
504.30	404.91
504.48	379.17
504.65	414.27
504.83	355.76
505.01	454.06
505.18	437.68
505.36	402.57
505.53	449.38
505.71	444.70
505.88	400.23
506.06	428.32
506.23	440.02
506.41	477.47
506.58	416.62
506.76	362.78
506.93	437.68
507.11	421.30
507.28	383.85
507.46	383.85
507.63	367.46
507.81	416.62
507.98	409.59
508.16	416.62
508.33	451.72
508.50	404.91
508.68	393.21
508.85	337.04
509.03	386.19
509.20	440.02
509.38	367.46
509.55	491.51
509.73	409.59
509.90	435.34
510.08	414.27
510.25	425.98
510.42	456.40
510.60	470.45
510.77	400.23
510.95	430.66
511.12	334.70
511.30	430.66
511.47	353.42
511.64	407.25
511.82	433.00
511.99	353.42
512.17	407.25
512.34	418.96
512.51	388.53
512.69	400.23
512.86	428.32
513.04	407.25
513.21	428.32
513.38	411.93
513.56	404.91
513.73	409.59
513.90	404.91
514.08	472.79
514.25	472.79
514.43	421.30
514.60	421.30
514.77	402.57
514.95	409.59
515.12	404.91
515.29	330.02
515.47	418.96
515.64	444.70
515.81	379.17
515.99	414.27
516.16	414.27
516.33	486.83
516.51	390.87
516.68	475.13
516.85	344.06
517.03	337.04
517.20	372.15
517.37	411.93
517.54	409.59
517.72	416.62
517.89	348.74
518.06	386.19
518.24	486.83
518.41	411.93
518.58	435.34
518.75	409.59
518.93	365.12
519.10	437.68
519.27	423.64
519.45	430.66
519.62	407.25
519.79	433.00
519.96	386.19
520.14	454.06
520.31	411.93
520.48	379.17
520.65	388.53
520.83	383.85
521.00	386.19
521.17	489.17
521.34	442.36
521.52	418.96
521.69	404.91
521.86	456.40
522.03	423.64
522.20	437.68
522.38	442.36
522.55	346.40
522.72	489.17
522.89	482.15
523.07	447.04
523.24	367.46
523.41	524.28
523.58	404.91
523.75	320.65
523.92	402.57
524.10	451.72
524.27	425.98
524.44	418.96
524.61	486.83
524.78	465.77
524.96	449.38
525.13	402.57
525.30	416.62
525.47	388.53
525.64	404.91
525.81	376.83
525.98	414.27
526.16	311.29
526.33	386.19
526.50	468.11
526.67	428.32
526.84	411.93
527.01	397.89
527.18	428.32
527.36	435.34
527.53	365.12
527.70	421.30
527.87	351.08
528.04	482.15
528.21	367.46
528.38	411.93
528.55	425.98
528.72	358.10
528.89	465.77
529.07	456.40
529.24	430.66
529.41	482.15
529.58	423.64
529.75	421.30
529.92	374.49
530.09	362.78
530.26	437.68
530.43	355.76
530.60	393.21
530.77	404.91
530.94	447.04
531.11	430.66
531.28	430.66
531.46	465.77
531.63	416.62
531.80	440.02
531.97	386.19
532.14	461.09
532.31	409.59
532.48	472.79
532.65	433.00
532.82	393.21
532.99	332.36
533.16	444.70
533.33	355.76
533.50	376.83
533.67	355.76
533.84	393.21
534.01	458.74
534.18	505.56
534.35	517.26
534.52	444.70
534.69	479.81
534.86	369.80
535.03	379.17
535.20	472.79
535.37	414.27
535.54	435.34
535.71	365.12
535.88	388.53
536.05	421.30
536.22	461.09
536.38	430.66
536.55	320.65
536.72	477.47
536.89	353.42
537.06	428.32
537.23	393.21
537.40	409.59
537.57	376.83
537.74	454.06
537.91	425.98
538.08	479.81
538.25	428.32
538.42	407.25
538.59	388.53
538.75	472.79
538.92	489.17
539.09	372.15
539.26	571.09
539.43	442.36
539.60	390.87
539.77	393.21
539.94	411.93
540.11	421.30
540.28	491.51
540.44	540.66
540.61	388.53
540.78	414.27
540.95	395.55
541.12	428.32
541.29	400.23
541.46	440.02
541.62	489.17
541.79	402.57
541.96	348.74
542.13	421.30
542.30	482.15
542.47	423.64
542.63	425.98
542.80	482.15
542.97	465.77
543.14	301.93
543.31	383.85
543.48	411.93
543.64	526.62
543.81	414.27
543.98	388.53
544.15	414.27
544.32	339.38
544.48	461.09
544.65	414.27
544.82	372.15
544.99	421.30
545.16	397.89
545.32	386.19
545.49	367.46
545.66	449.38
545.83	414.27
546.00	388.53
546.16	411.93
546.33	386.19
546.50	418.96
546.67	507.90
546.83	425.98
547.00	421.30
547.17	407.25
547.34	390.87
547.50	421.30
547.67	484.49
547.84	374.49
548.00	421.30
548.17	430.66
548.34	374.49
548.51	411.93
548.67	407.25
548.84	418.96
549.01	414.27
549.18	468.11
549.34	416.62
549.51	416.62
549.68	444.70
549.84	362.78
550.01	411.93
550.18	444.70
550.34	503.22
550.51	388.53
550.68	498.53
550.84	390.87
551.01	407.25
551.18	404.91
551.34	421.30
551.51	472.79
551.68	470.45
551.84	418.96
552.01	477.47
552.18	428.32
552.34	430.66
552.51	423.64
552.68	437.68
552.84	496.19
553.01	397.89
553.18	505.56
553.34	465.77
553.51	388.53
553.67	451.72
553.84	414.27
554.01	482.15
554.17	383.85
554.34	353.42
554.51	362.78
554.67	444.70
554.84	402.57
555.00	355.76
555.17	353.42
555.33	416.62
555.50	454.06
555.67	407.25
555.83	435.34
556.00	423.64
556.16	552.37
556.33	395.55
556.50	437.68
556.66	425.98
556.83	428.32
556.99	440.02
557.16	482.15
557.32	388.53
557.49	416.62
557.65	411.93
557.82	395.55
557.98	437.68
558.15	458.74
558.32	442.36
558.48	409.59
558.65	458.74
558.81	454.06
558.98	421.30
559.14	381.51
559.31	475.13
559.47	428.32
559.64	461.09
559.80	393.21
559.97	411.93
560.13	440.02
560.30	402.57
560.46	510.24
560.63	416.62
560.79	437.68
560.96	447.04
561.12	435.34
561.29	376.83
561.45	400.23
561.61	437.68
561.78	437.68
561.94	390.87
562.11	454.06
562.27	451.72
562.44	442.36
562.60	397.89
562.77	456.40
562.93	425.98
563.10	395.55
563.26	428.32
563.42	400.23
563.59	512.58
563.75	388.53
563.92	484.49
564.08	463.43
564.24	437.68
564.41	489.17
564.57	411.93
564.74	383.85
564.90	447.04
565.07	430.66
565.23	430.66
565.39	463.43
565.56	435.34
565.72	475.13
565.88	386.19
566.05	395.55
566.21	355.76
566.38	423.64
566.54	407.25
566.70	414.27
566.87	428.32
567.03	365.12
567.19	402.57
567.36	423.64
567.52	428.32
567.68	425.98
567.85	388.53
568.01	358.10
568.17	407.25
568.34	372.15
568.50	386.19
568.66	423.64
568.83	482.15
568.99	390.87
569.15	425.98
569.32	461.09
569.48	383.85
569.64	440.02
569.81	414.27
569.97	449.38
570.13	418.96
570.30	472.79
570.46	369.80
570.62	376.83
570.78	461.09
570.95	362.78
571.11	435.34
571.27	451.72
571.43	411.93
571.60	365.12
571.76	470.45
571.92	402.57
572.09	390.87
572.25	407.25
572.41	444.70
572.57	428.32
572.74	475.13
572.90	428.32
573.06	372.15
573.22	454.06
573.38	425.98
573.55	428.32
573.71	468.11
573.87	435.34
574.03	346.40
574.20	407.25
574.36	435.34
574.52	440.02
574.68	470.45
574.84	425.98
575.01	418.96
575.17	346.40
575.33	395.55
575.49	414.27
575.65	482.15
575.82	407.25
575.98	463.43
576.14	409.59
576.30	449.38
576.46	388.53
576.62	430.66
576.79	463.43
576.95	449.38
577.11	425.98
577.27	404.91
577.43	393.21
577.59	491.51
577.75	409.59
577.92	463.43
578.08	421.30
578.24	386.19
578.40	512.58
578.56	402.57
578.72	470.45
578.88	475.13
579.04	486.83
579.21	482.15
579.37	444.70
579.53	409.59
579.69	430.66
579.85	482.15
580.01	458.74
580.17	475.13
580.33	386.19
580.49	409.59
580.65	407.25
580.82	416.62
580.98	360.44
581.14	418.96
581.30	409.59
581.46	386.19
581.62	433.00
581.78	358.10
581.94	367.46
582.10	423.64
582.26	423.64
582.42	351.08
582.58	402.57
582.74	407.25
582.90	365.12
583.06	472.79
583.22	435.34
583.38	402.57
583.54	421.30
583.70	397.89
583.86	404.91
584.02	425.98
584.18	393.21
584.34	383.85
584.50	468.11
584.66	393.21
584.82	397.89
584.98	372.15
585.14	409.59
585.30	458.74
585.46	395.55
585.62	423.64
585.78	388.53
585.94	393.21
586.10	440.02
586.26	433.00
586.42	381.51
586.58	411.93
586.74	416.62
586.90	397.89
587.06	440.02
587.22	369.80
587.38	421.30
587.54	407.25
587.70	397.89
587.86	418.96
588.02	390.87
588.18	482.15
588.34	425.98
588.49	379.17
588.65	435.34
588.81	416.62
588.97	404.91
589.13	374.49
589.29	465.77
589.45	407.25
589.61	397.89
589.77	440.02
589.93	458.74
590.08	395.55
590.24	465.77
590.40	491.51
590.56	423.64
590.72	428.32
590.88	386.19
591.04	421.30
591.20	411.93
591.35	505.56
591.51	433.00
591.67	425.98
591.83	353.42
591.99	418.96
592.15	489.17
592.31	353.42
592.46	369.80
592.62	461.09
592.78	463.43
592.94	381.51
593.10	402.57
593.26	344.06
593.41	430.66
593.57	372.15
593.73	451.72
593.89	379.17
594.05	421.30
594.20	351.08
594.36	381.51
594.52	393.21
594.68	414.27
594.84	430.66
594.99	437.68
595.15	456.40
595.31	428.32
595.47	442.36
595.62	437.68
595.78	395.55
595.94	348.74
596.10	486.83
596.25	433.00
596.41	393.21
596.57	433.00
596.73	435.34
596.88	346.40
597.04	454.06
597.20	374.49
597.36	400.23
597.51	465.77
597.67	369.80
597.83	414.27
597.99	503.22
598.14	393.21
598.30	470.45
598.46	388.53
598.61	468.11
598.77	381.51
598.93	395.55
599.09	393.21
599.24	421.30
599.40	449.38
599.56	437.68
599.71	528.96
599.87	468.11
600.03	444.70
600.18	369.80
600.34	465.77
600.50	346.40
600.65	400.23
600.81	416.62
600.97	447.04
601.12	428.32
601.28	447.04
601.44	491.51
601.59	383.85
601.75	465.77
601.91	407.25
602.06	372.15
602.22	461.09
602.37	411.93
602.53	414.27
602.69	402.57
602.84	339.38
603.00	421.30
603.16	496.19
603.31	369.80
603.47	397.89
603.62	421.30
603.78	500.87
603.94	489.17
604.09	379.17
604.25	367.46
604.40	461.09
604.56	475.13
604.71	430.66
604.87	425.98
605.03	397.89
605.18	428.32
605.34	430.66
605.49	444.70
605.65	355.76
605.80	367.46
605.96	461.09
606.12	402.57
606.27	409.59
606.43	416.62
606.58	454.06
606.74	346.40
606.89	458.74
607.05	407.25
607.20	440.02
607.36	421.30
607.51	393.21
607.67	451.72
607.82	386.19
607.98	524.28
608.13	465.77
608.29	414.27
608.44	475.13
608.60	393.21
608.75	411.93
608.91	383.85
609.06	416.62
609.22	421.30
609.37	365.12
609.53	376.83
609.68	383.85
609.84	397.89
609.99	407.25
610.15	404.91
