SpectraSuite Data File
++++++++++++++++++++++++++++++++++++
Date: Fri Oct 25 12:11:27 EDT 2013
User: price-jones
Dark Spectrum Present: No
Reference Spectrum Present: No
Number of Sampled Component Spectra: 1
Spectrometers: USB2+H05261
Integration Time (usec): 100000 (USB2+H05261)
Spectra Averaged: 1 (USB2+H05261)
Boxcar Smoothing: 0 (USB2+H05261)
Correct for Electrical Dark: No (USB2+H05261)
Strobe/Lamp Enabled: No (USB2+H05261)
Correct for Detector Non-linearity: No (USB2+H05261)
Correct for Stray Light: No (USB2+H05261)
Number of Pixels in Processed Spectrum: 2048
>>>>>Begin Processed Spectral Data<<<<<
365.73	285.55
365.92	285.55
366.12	285.55
366.32	241.08
366.52	194.26
366.72	313.63
366.91	271.50
367.11	241.08
367.31	212.99
367.51	187.24
367.70	191.92
367.90	285.55
368.10	250.44
368.30	290.23
368.49	234.05
368.69	257.46
368.89	217.67
369.09	234.05
369.28	318.31
369.48	248.10
369.68	273.84
369.87	327.68
370.07	332.36
370.27	362.78
370.47	397.89
370.66	308.95
370.86	360.44
371.06	334.70
371.25	365.12
371.45	369.80
371.65	308.95
371.84	367.46
372.04	390.87
372.24	451.72
372.44	334.70
372.63	397.89
372.83	447.04
373.03	442.36
373.22	353.42
373.42	444.70
373.62	395.55
373.81	454.06
374.01	479.81
374.21	444.70
374.40	390.87
374.60	472.79
374.79	418.96
374.99	477.47
375.19	433.00
375.38	435.34
375.58	444.70
375.78	444.70
375.97	374.49
376.17	503.22
376.37	402.57
376.56	451.72
376.76	351.08
376.95	421.30
377.15	468.11
377.35	423.64
377.54	484.49
377.74	440.02
377.93	472.79
378.13	433.00
378.33	379.17
378.52	341.72
378.72	393.21
378.91	454.06
379.11	376.83
379.31	433.00
379.50	308.95
379.70	440.02
379.89	344.06
380.09	376.83
380.28	390.87
380.48	404.91
380.68	447.04
380.87	428.32
381.07	442.36
381.26	425.98
381.46	397.89
381.65	500.87
381.85	454.06
382.04	435.34
382.24	365.12
382.43	339.38
382.63	409.59
382.83	435.34
383.02	447.04
383.22	379.17
383.41	404.91
383.61	360.44
383.80	489.17
384.00	409.59
384.19	351.08
384.39	440.02
384.58	400.23
384.78	383.85
384.97	435.34
385.17	423.64
385.36	386.19
385.56	411.93
385.75	360.44
385.95	458.74
386.14	397.89
386.34	454.06
386.53	451.72
386.72	372.15
386.92	416.62
387.11	407.25
387.31	402.57
387.50	468.11
387.70	430.66
387.89	409.59
388.09	430.66
388.28	400.23
388.48	421.30
388.67	393.21
388.86	362.78
389.06	418.96
389.25	381.51
389.45	437.68
389.64	379.17
389.84	414.27
390.03	421.30
390.22	442.36
390.42	418.96
390.61	404.91
390.81	386.19
391.00	390.87
391.19	409.59
391.39	390.87
391.58	479.81
391.78	411.93
391.97	353.42
392.16	440.02
392.36	430.66
392.55	465.77
392.75	367.46
392.94	430.66
393.13	477.47
393.33	454.06
393.52	388.53
393.71	411.93
393.91	402.57
394.10	355.76
394.29	402.57
394.49	442.36
394.68	407.25
394.88	442.36
395.07	360.44
395.26	332.36
395.46	360.44
395.65	362.78
395.84	358.10
396.04	447.04
396.23	353.42
396.42	440.02
396.62	374.49
396.81	433.00
397.00	402.57
397.19	411.93
397.39	358.10
397.58	416.62
397.77	379.17
397.97	447.04
398.16	411.93
398.35	358.10
398.55	372.15
398.74	425.98
398.93	346.40
399.12	320.65
399.32	454.06
399.51	425.98
399.70	491.51
399.90	479.81
400.09	454.06
400.28	430.66
400.47	425.98
400.67	400.23
400.86	372.15
401.05	449.38
401.24	430.66
401.44	400.23
401.63	449.38
401.82	430.66
402.01	397.89
402.21	451.72
402.40	418.96
402.59	360.44
402.78	414.27
402.97	388.53
403.17	395.55
403.36	437.68
403.55	437.68
403.74	332.36
403.93	409.59
404.13	416.62
404.32	376.83
404.51	400.23
404.70	390.87
404.89	421.30
405.09	470.45
405.28	437.68
405.47	433.00
405.66	383.85
405.85	383.85
406.05	442.36
406.24	358.10
406.43	362.78
406.62	397.89
406.81	393.21
407.00	376.83
407.20	379.17
407.39	358.10
407.58	423.64
407.77	433.00
407.96	456.40
408.15	416.62
408.34	411.93
408.54	400.23
408.73	390.87
408.92	482.15
409.11	456.40
409.30	386.19
409.49	395.55
409.68	423.64
409.87	388.53
410.07	421.30
410.26	395.55
410.45	372.15
410.64	390.87
410.83	402.57
411.02	402.57
411.21	362.78
411.40	465.77
411.59	379.17
411.78	435.34
411.98	416.62
412.17	294.91
412.36	393.21
412.55	447.04
412.74	320.65
412.93	388.53
413.12	479.81
413.31	442.36
413.50	409.59
413.69	433.00
413.88	416.62
414.07	430.66
414.26	386.19
414.45	407.25
414.64	409.59
414.83	477.47
415.02	376.83
415.22	409.59
415.41	374.49
415.60	409.59
415.79	454.06
415.98	402.57
416.17	444.70
416.36	388.53
416.55	381.51
416.74	351.08
416.93	437.68
417.12	367.46
417.31	393.21
417.50	531.30
417.69	479.81
417.88	430.66
418.07	313.63
418.26	402.57
418.45	430.66
418.64	440.02
418.83	409.59
419.02	442.36
419.21	407.25
419.39	393.21
419.58	383.85
419.77	381.51
419.96	386.19
420.15	444.70
420.34	402.57
420.53	376.83
420.72	395.55
420.91	407.25
421.10	465.77
421.29	400.23
421.48	416.62
421.67	433.00
421.86	411.93
422.05	379.17
422.24	393.21
422.43	409.59
422.61	376.83
422.80	411.93
422.99	407.25
423.18	397.89
423.37	498.53
423.56	440.02
423.75	400.23
423.94	383.85
424.13	428.32
424.32	454.06
424.50	449.38
424.69	409.59
424.88	400.23
425.07	425.98
425.26	402.57
425.45	456.40
425.64	381.51
425.83	411.93
426.01	449.38
426.20	390.87
426.39	458.74
426.58	465.77
426.77	454.06
426.96	430.66
427.15	454.06
427.33	372.15
427.52	369.80
427.71	395.55
427.90	376.83
428.09	435.34
428.28	362.78
428.46	395.55
428.65	414.27
428.84	414.27
429.03	435.34
429.22	430.66
429.40	444.70
429.59	409.59
429.78	479.81
429.97	414.27
430.16	367.46
430.34	449.38
430.53	409.59
430.72	414.27
430.91	430.66
431.10	402.57
431.28	327.68
431.47	390.87
431.66	465.77
431.85	402.57
432.03	414.27
432.22	397.89
432.41	456.40
432.60	404.91
432.79	479.81
432.97	440.02
433.16	433.00
433.35	411.93
433.54	435.34
433.72	397.89
433.91	458.74
434.10	397.89
434.28	435.34
434.47	351.08
434.66	355.76
434.85	440.02
435.03	362.78
435.22	435.34
435.41	409.59
435.59	414.27
435.78	447.04
435.97	423.64
436.16	430.66
436.34	407.25
436.53	386.19
436.72	428.32
436.90	369.80
437.09	411.93
437.28	374.49
437.46	374.49
437.65	409.59
437.84	365.12
438.02	409.59
438.21	386.19
438.40	449.38
438.58	484.49
438.77	454.06
438.96	428.32
439.14	444.70
439.33	421.30
439.52	477.47
439.70	463.43
439.89	402.57
440.08	400.23
440.26	435.34
440.45	428.32
440.63	393.21
440.82	437.68
441.01	367.46
441.19	353.42
441.38	428.32
441.57	388.53
441.75	468.11
441.94	444.70
442.12	451.72
442.31	411.93
442.50	348.74
442.68	442.36
442.87	402.57
443.05	409.59
443.24	444.70
443.43	407.25
443.61	444.70
443.80	393.21
443.98	437.68
444.17	390.87
444.35	435.34
444.54	428.32
444.73	442.36
444.91	390.87
445.10	407.25
445.28	404.91
445.47	428.32
445.65	470.45
445.84	442.36
446.02	346.40
446.21	409.59
446.39	418.96
446.58	388.53
446.77	383.85
446.95	372.15
447.14	423.64
447.32	421.30
447.51	339.38
447.69	437.68
447.88	470.45
448.06	461.09
448.25	395.55
448.43	444.70
448.62	414.27
448.80	318.31
448.99	470.45
449.17	376.83
449.36	372.15
449.54	428.32
449.73	388.53
449.91	381.51
450.10	339.38
450.28	458.74
450.46	458.74
450.65	397.89
450.83	554.71
451.02	386.19
451.20	463.43
451.39	362.78
451.57	411.93
451.76	388.53
451.94	374.49
452.13	472.79
452.31	433.00
452.49	379.17
452.68	409.59
452.86	442.36
453.05	456.40
453.23	423.64
453.42	404.91
453.60	409.59
453.78	418.96
453.97	404.91
454.15	334.70
454.34	430.66
454.52	416.62
454.70	428.32
454.89	400.23
455.07	472.79
455.26	362.78
455.44	397.89
455.62	463.43
455.81	440.02
455.99	463.43
456.17	402.57
456.36	423.64
456.54	381.51
456.73	348.74
456.91	386.19
457.09	428.32
457.28	395.55
457.46	320.65
457.64	456.40
457.83	407.25
458.01	404.91
458.19	379.17
458.38	418.96
458.56	397.89
458.74	395.55
458.93	414.27
459.11	369.80
459.29	425.98
459.48	397.89
459.66	444.70
459.84	433.00
460.03	470.45
460.21	433.00
460.39	402.57
460.57	421.30
460.76	393.21
460.94	430.66
461.12	454.06
461.31	437.68
461.49	440.02
461.67	374.49
461.85	521.94
462.04	409.59
462.22	755.99
462.40	440.02
462.59	449.38
462.77	383.85
462.95	451.72
463.13	400.23
463.32	472.79
463.50	337.04
463.68	470.45
463.86	451.72
464.05	468.11
464.23	435.34
464.41	428.32
464.59	416.62
464.78	411.93
464.96	454.06
465.14	383.85
465.32	416.62
465.50	407.25
465.69	465.77
465.87	451.72
466.05	425.98
466.23	435.34
466.41	440.02
466.60	402.57
466.78	397.89
466.96	402.57
467.14	435.34
467.32	475.13
467.51	440.02
467.69	414.27
467.87	461.09
468.05	430.66
468.23	379.17
468.41	442.36
468.60	388.53
468.78	341.72
468.96	341.72
469.14	414.27
469.32	341.72
469.50	381.51
469.69	397.89
469.87	447.04
470.05	475.13
470.23	437.68
470.41	465.77
470.59	353.42
470.77	367.46
470.95	454.06
471.14	447.04
471.32	425.98
471.50	388.53
471.68	454.06
471.86	407.25
472.04	416.62
472.22	416.62
472.40	351.08
472.58	374.49
472.77	409.59
472.95	463.43
473.13	454.06
473.31	430.66
473.49	437.68
473.67	386.19
473.85	353.42
474.03	407.25
474.21	425.98
474.39	444.70
474.57	526.62
474.75	454.06
474.93	402.57
475.12	402.57
475.30	395.55
475.48	353.42
475.66	435.34
475.84	421.30
476.02	468.11
476.20	428.32
476.38	430.66
476.56	528.96
476.74	379.17
476.92	414.27
477.10	383.85
477.28	421.30
477.46	430.66
477.64	430.66
477.82	477.47
478.00	393.21
478.18	484.49
478.36	395.55
478.54	355.76
478.72	428.32
478.90	407.25
479.08	435.34
479.26	433.00
479.44	416.62
479.62	418.96
479.80	447.04
479.98	444.70
480.16	339.38
480.34	437.68
480.52	404.91
480.70	358.10
480.88	409.59
481.06	346.40
481.24	402.57
481.41	444.70
481.59	425.98
481.77	472.79
481.95	369.80
482.13	390.87
482.31	430.66
482.49	367.46
482.67	428.32
482.85	393.21
483.03	390.87
483.21	397.89
483.39	341.72
483.57	421.30
483.74	402.57
483.92	454.06
484.10	395.55
484.28	409.59
484.46	472.79
484.64	383.85
484.82	379.17
485.00	442.36
485.18	433.00
485.35	402.57
485.53	425.98
485.71	442.36
485.89	390.87
486.07	376.83
486.25	465.77
486.43	360.44
486.61	456.40
486.78	468.11
486.96	332.36
487.14	367.46
487.32	418.96
487.50	381.51
487.68	397.89
487.85	433.00
488.03	376.83
488.21	472.79
488.39	418.96
488.57	451.72
488.75	393.21
488.92	482.15
489.10	444.70
489.28	425.98
489.46	442.36
489.64	442.36
489.81	442.36
489.99	379.17
490.17	400.23
490.35	461.09
490.53	440.02
490.70	404.91
490.88	447.04
491.06	416.62
491.24	395.55
491.41	433.00
491.59	454.06
491.77	402.57
491.95	475.13
492.13	379.17
492.30	404.91
492.48	421.30
492.66	430.66
492.84	386.19
493.01	416.62
493.19	358.10
493.37	407.25
493.54	461.09
493.72	397.89
493.90	372.15
494.08	461.09
494.25	402.57
494.43	414.27
494.61	407.25
494.79	404.91
494.96	409.59
495.14	425.98
495.32	428.32
495.49	390.87
495.67	477.47
495.85	435.34
496.02	402.57
496.20	365.12
496.38	435.34
496.55	435.34
496.73	423.64
496.91	454.06
497.09	449.38
497.26	454.06
497.44	390.87
497.62	407.25
497.79	444.70
497.97	435.34
498.14	423.64
498.32	407.25
498.50	458.74
498.67	388.53
498.85	496.19
499.03	386.19
499.20	397.89
499.38	346.40
499.56	421.30
499.73	500.87
499.91	447.04
500.08	416.62
500.26	423.64
500.44	379.17
500.61	433.00
500.79	355.76
500.97	433.00
501.14	440.02
501.32	461.09
501.49	379.17
501.67	454.06
501.84	428.32
502.02	374.49
502.20	402.57
502.37	421.30
502.55	355.76
502.72	468.11
502.90	393.21
503.07	425.98
503.25	465.77
503.43	407.25
503.60	437.68
503.78	369.80
503.95	393.21
504.13	475.13
504.30	425.98
504.48	421.30
504.65	411.93
504.83	451.72
505.01	360.44
505.18	386.19
505.36	360.44
505.53	444.70
505.71	416.62
505.88	442.36
506.06	423.64
506.23	421.30
506.41	339.38
506.58	414.27
506.76	470.45
506.93	456.40
507.11	442.36
507.28	428.32
507.46	386.19
507.63	470.45
507.81	444.70
507.98	372.15
508.16	390.87
508.33	411.93
508.50	334.70
508.68	404.91
508.85	486.83
509.03	360.44
509.20	393.21
509.38	463.43
509.55	458.74
509.73	425.98
509.90	404.91
510.08	458.74
510.25	418.96
510.42	409.59
510.60	358.10
510.77	491.51
510.95	440.02
511.12	425.98
511.30	428.32
511.47	500.87
511.64	395.55
511.82	353.42
511.99	407.25
512.17	381.51
512.34	325.33
512.51	472.79
512.69	369.80
512.86	444.70
513.04	397.89
513.21	449.38
513.38	404.91
513.56	409.59
513.73	386.19
513.90	472.79
514.08	414.27
514.25	475.13
514.43	404.91
514.60	337.04
514.77	433.00
514.95	418.96
515.12	409.59
515.29	433.00
515.47	414.27
515.64	407.25
515.81	372.15
515.99	449.38
516.16	463.43
516.33	430.66
516.51	390.87
516.68	402.57
516.85	346.40
517.03	463.43
517.20	400.23
517.37	465.77
517.54	458.74
517.72	435.34
517.89	379.17
518.06	374.49
518.24	524.28
518.41	512.58
518.58	456.40
518.75	428.32
518.93	440.02
519.10	454.06
519.27	425.98
519.45	383.85
519.62	383.85
519.79	416.62
519.96	407.25
520.14	395.55
520.31	407.25
520.48	437.68
520.65	407.25
520.83	454.06
521.00	397.89
521.17	437.68
521.34	393.21
521.52	416.62
521.69	442.36
521.86	395.55
522.03	461.09
522.20	411.93
522.38	449.38
522.55	456.40
522.72	418.96
522.89	416.62
523.07	491.51
523.24	383.85
523.41	395.55
523.58	411.93
523.75	404.91
523.92	477.47
524.10	393.21
524.27	447.04
524.44	428.32
524.61	447.04
524.78	379.17
524.96	421.30
525.13	416.62
525.30	447.04
525.47	440.02
525.64	477.47
525.81	372.15
525.98	421.30
526.16	428.32
526.33	400.23
526.50	425.98
526.67	353.42
526.84	404.91
527.01	416.62
527.18	411.93
527.36	447.04
527.53	461.09
527.70	416.62
527.87	472.79
528.04	414.27
528.21	409.59
528.38	421.30
528.55	390.87
528.72	447.04
528.89	456.40
529.07	393.21
529.24	433.00
529.41	482.15
529.58	444.70
529.75	411.93
529.92	376.83
530.09	381.51
530.26	447.04
530.43	386.19
530.60	435.34
530.77	376.83
530.94	381.51
531.11	402.57
531.28	414.27
531.46	479.81
531.63	444.70
531.80	484.49
531.97	402.57
532.14	421.30
532.31	425.98
532.48	421.30
532.65	409.59
532.82	435.34
532.99	353.42
533.16	418.96
533.33	442.36
533.50	388.53
533.67	390.87
533.84	383.85
534.01	386.19
534.18	360.44
534.35	461.09
534.52	372.15
534.69	397.89
534.86	379.17
535.03	402.57
535.20	407.25
535.37	510.24
535.54	423.64
535.71	449.38
535.88	454.06
536.05	435.34
536.22	507.90
536.38	449.38
536.55	465.77
536.72	393.21
536.89	425.98
537.06	372.15
537.23	411.93
537.40	379.17
537.57	400.23
537.74	418.96
537.91	458.74
538.08	482.15
538.25	470.45
538.42	372.15
538.59	437.68
538.75	442.36
538.92	430.66
539.09	407.25
539.26	435.34
539.43	463.43
539.60	463.43
539.77	519.60
539.94	444.70
540.11	365.12
540.28	390.87
540.44	447.04
540.61	402.57
540.78	440.02
540.95	388.53
541.12	402.57
541.29	397.89
541.46	491.51
541.62	404.91
541.79	444.70
541.96	402.57
542.13	423.64
542.30	369.80
542.47	416.62
542.63	397.89
542.80	454.06
542.97	411.93
543.14	465.77
543.31	353.42
543.48	416.62
543.64	360.44
543.81	383.85
543.98	449.38
544.15	397.89
544.32	393.21
544.48	390.87
544.65	376.83
544.82	365.12
544.99	444.70
545.16	482.15
545.32	386.19
545.49	472.79
545.66	437.68
545.83	393.21
546.00	435.34
546.16	369.80
546.33	409.59
546.50	451.72
546.67	493.85
546.83	437.68
547.00	400.23
547.17	381.51
547.34	418.96
547.50	421.30
547.67	425.98
547.84	477.47
548.00	369.80
548.17	379.17
548.34	372.15
548.51	416.62
548.67	379.17
548.84	465.77
549.01	372.15
549.18	428.32
549.34	400.23
549.51	444.70
549.68	379.17
549.84	386.19
550.01	423.64
550.18	425.98
550.34	416.62
550.51	461.09
550.68	449.38
550.84	437.68
551.01	512.58
551.18	440.02
551.34	423.64
551.51	395.55
551.68	362.78
551.84	383.85
552.01	411.93
552.18	435.34
552.34	472.79
552.51	388.53
552.68	372.15
552.84	395.55
553.01	430.66
553.18	451.72
553.34	440.02
553.51	407.25
553.67	400.23
553.84	472.79
554.01	435.34
554.17	442.36
554.34	418.96
554.51	447.04
554.67	421.30
554.84	503.22
555.00	428.32
555.17	456.40
555.33	465.77
555.50	416.62
555.67	433.00
555.83	465.77
556.00	447.04
556.16	512.58
556.33	423.64
556.50	402.57
556.66	430.66
556.83	374.49
556.99	379.17
557.16	444.70
557.32	369.80
557.49	411.93
557.65	402.57
557.82	465.77
557.98	468.11
558.15	503.22
558.32	440.02
558.48	414.27
558.65	458.74
558.81	423.64
558.98	402.57
559.14	435.34
559.31	456.40
559.47	421.30
559.64	449.38
559.80	379.17
559.97	451.72
560.13	322.99
560.30	470.45
560.46	435.34
560.63	381.51
560.79	433.00
560.96	418.96
561.12	447.04
561.29	430.66
561.45	428.32
561.61	447.04
561.78	465.77
561.94	411.93
562.11	369.80
562.27	463.43
562.44	414.27
562.60	451.72
562.77	414.27
562.93	454.06
563.10	383.85
563.26	430.66
563.42	486.83
563.59	437.68
563.75	444.70
563.92	402.57
564.08	411.93
564.24	421.30
564.41	491.51
564.57	400.23
564.74	411.93
564.90	437.68
565.07	451.72
565.23	416.62
565.39	381.51
565.56	411.93
565.72	435.34
565.88	411.93
566.05	358.10
566.21	428.32
566.38	437.68
566.54	442.36
566.70	461.09
566.87	397.89
567.03	351.08
567.19	402.57
567.36	418.96
567.52	428.32
567.68	360.44
567.85	458.74
568.01	433.00
568.17	418.96
568.34	423.64
568.50	442.36
568.66	369.80
568.83	433.00
568.99	374.49
569.15	505.56
569.32	444.70
569.48	440.02
569.64	372.15
569.81	449.38
569.97	451.72
570.13	402.57
570.30	458.74
570.46	395.55
570.62	449.38
570.78	376.83
570.95	414.27
571.11	397.89
571.27	444.70
571.43	409.59
571.60	449.38
571.76	421.30
571.92	397.89
572.09	451.72
572.25	409.59
572.41	433.00
572.57	395.55
572.74	489.17
572.90	430.66
573.06	444.70
573.22	505.56
573.38	360.44
573.55	430.66
573.71	397.89
573.87	430.66
574.03	344.06
574.20	416.62
574.36	454.06
574.52	451.72
574.68	451.72
574.84	416.62
575.01	437.68
575.17	472.79
575.33	468.11
575.49	496.19
575.65	456.40
575.82	421.30
575.98	449.38
576.14	402.57
576.30	351.08
576.46	407.25
576.62	421.30
576.79	395.55
576.95	423.64
577.11	435.34
577.27	393.21
577.43	437.68
577.59	393.21
577.75	430.66
577.92	425.98
578.08	365.12
578.24	383.85
578.40	416.62
578.56	425.98
578.72	454.06
578.88	447.04
579.04	383.85
579.21	444.70
579.37	491.51
579.53	491.51
579.69	425.98
579.85	388.53
580.01	409.59
580.17	381.51
580.33	404.91
580.49	400.23
580.65	416.62
580.82	411.93
580.98	414.27
581.14	397.89
581.30	463.43
581.46	418.96
581.62	447.04
581.78	437.68
581.94	390.87
582.10	369.80
582.26	358.10
582.42	390.87
582.58	454.06
582.74	355.76
582.90	482.15
583.06	393.21
583.22	423.64
583.38	484.49
583.54	397.89
583.70	437.68
583.86	440.02
584.02	407.25
584.18	402.57
584.34	351.08
584.50	425.98
584.66	447.04
584.82	414.27
584.98	409.59
585.14	447.04
585.30	482.15
585.46	355.76
585.62	376.83
585.78	444.70
585.94	449.38
586.10	430.66
586.26	358.10
586.42	491.51
586.58	330.02
586.74	442.36
586.90	386.19
587.06	372.15
587.22	414.27
587.38	433.00
587.54	390.87
587.70	433.00
587.86	411.93
588.02	451.72
588.18	372.15
588.34	423.64
588.49	411.93
588.65	381.51
588.81	416.62
588.97	365.12
589.13	421.30
589.29	430.66
589.45	465.77
589.61	442.36
589.77	414.27
589.93	414.27
590.08	341.72
590.24	433.00
590.40	470.45
590.56	468.11
590.72	379.17
590.88	355.76
591.04	463.43
591.20	433.00
591.35	437.68
591.51	348.74
591.67	425.98
591.83	372.15
591.99	409.59
592.15	430.66
592.31	379.17
592.46	365.12
592.62	463.43
592.78	362.78
592.94	463.43
593.10	402.57
593.26	381.51
593.41	386.19
593.57	386.19
593.73	454.06
593.89	435.34
594.05	351.08
594.20	411.93
594.36	456.40
594.52	463.43
594.68	369.80
594.84	346.40
594.99	486.83
595.15	500.87
595.31	484.49
595.47	491.51
595.62	458.74
595.78	454.06
595.94	461.09
596.10	447.04
596.25	397.89
596.41	461.09
596.57	447.04
596.73	383.85
596.88	362.78
597.04	430.66
597.20	404.91
597.36	416.62
597.51	402.57
597.67	374.49
597.83	493.85
597.99	444.70
598.14	411.93
598.30	435.34
598.46	498.53
598.61	416.62
598.77	517.26
598.93	414.27
599.09	330.02
599.24	367.46
599.40	402.57
599.56	400.23
599.71	381.51
599.87	355.76
600.03	414.27
600.18	372.15
600.34	449.38
600.50	465.77
600.65	456.40
600.81	456.40
600.97	351.08
601.12	435.34
601.28	414.27
601.44	437.68
601.59	381.51
601.75	468.11
601.91	447.04
602.06	395.55
602.22	372.15
602.37	428.32
602.53	421.30
602.69	461.09
602.84	388.53
603.00	407.25
603.16	458.74
603.31	454.06
603.47	341.72
603.62	315.97
603.78	435.34
603.94	416.62
604.09	367.46
604.25	379.17
604.40	414.27
604.56	318.31
604.71	351.08
604.87	360.44
605.03	397.89
605.18	425.98
605.34	393.21
605.49	393.21
605.65	421.30
605.80	440.02
605.96	404.91
606.12	369.80
606.27	475.13
606.43	449.38
606.58	493.85
606.74	365.12
606.89	440.02
607.05	428.32
607.20	458.74
607.36	440.02
607.51	440.02
607.67	435.34
607.82	458.74
607.98	416.62
608.13	402.57
608.29	395.55
608.44	407.25
608.60	407.25
608.75	451.72
608.91	433.00
609.06	444.70
609.22	444.70
609.37	404.91
609.53	425.98
609.68	353.42
609.84	484.49
609.99	491.51
610.15	451.72
