SpectraSuite Data File
++++++++++++++++++++++++++++++++++++
Date: Fri Oct 25 12:10:11 EDT 2013
User: price-jones
Dark Spectrum Present: No
Reference Spectrum Present: No
Number of Sampled Component Spectra: 1
Spectrometers: USB2+H05261
Integration Time (usec): 100000 (USB2+H05261)
Spectra Averaged: 1 (USB2+H05261)
Boxcar Smoothing: 0 (USB2+H05261)
Correct for Electrical Dark: No (USB2+H05261)
Strobe/Lamp Enabled: No (USB2+H05261)
Correct for Detector Non-linearity: No (USB2+H05261)
Correct for Stray Light: No (USB2+H05261)
Number of Pixels in Processed Spectrum: 2048
>>>>>Begin Processed Spectral Data<<<<<
365.73	257.46
365.92	257.46
366.12	257.46
366.32	264.48
366.52	287.89
366.72	334.70
366.91	294.91
367.11	259.80
367.31	227.03
367.51	215.33
367.70	241.08
367.90	285.55
368.10	280.86
368.30	264.48
368.49	205.97
368.69	292.57
368.89	215.33
369.09	243.42
369.28	231.71
369.48	299.59
369.68	177.88
369.87	285.55
370.07	308.95
370.27	290.23
370.47	339.38
370.66	374.49
370.86	341.72
371.06	297.25
371.25	428.32
371.45	360.44
371.65	362.78
371.84	353.42
372.04	353.42
372.24	379.17
372.44	416.62
372.63	444.70
372.83	421.30
373.03	376.83
373.22	353.42
373.42	442.36
373.62	435.34
373.81	388.53
374.01	395.55
374.21	418.96
374.40	341.72
374.60	428.32
374.79	393.21
374.99	416.62
375.19	390.87
375.38	444.70
375.58	393.21
375.78	510.24
375.97	376.83
376.17	402.57
376.37	416.62
376.56	418.96
376.76	381.51
376.95	395.55
377.15	339.38
377.35	418.96
377.54	346.40
377.74	414.27
377.93	421.30
378.13	369.80
378.33	411.93
378.52	372.15
378.72	468.11
378.91	414.27
379.11	388.53
379.31	425.98
379.50	411.93
379.70	421.30
379.89	440.02
380.09	421.30
380.28	425.98
380.48	351.08
380.68	383.85
380.87	383.85
381.07	411.93
381.26	365.12
381.46	414.27
381.65	425.98
381.85	470.45
382.04	482.15
382.24	395.55
382.43	367.46
382.63	421.30
382.83	421.30
383.02	435.34
383.22	418.96
383.41	334.70
383.61	337.04
383.80	458.74
384.00	407.25
384.19	393.21
384.39	400.23
384.58	379.17
384.78	411.93
384.97	388.53
385.17	444.70
385.36	430.66
385.56	386.19
385.75	376.83
385.95	477.47
386.14	463.43
386.34	449.38
386.53	386.19
386.72	468.11
386.92	407.25
387.11	451.72
387.31	404.91
387.50	353.42
387.70	428.32
387.89	418.96
388.09	386.19
388.28	407.25
388.48	449.38
388.67	379.17
388.86	414.27
389.06	395.55
389.25	374.49
389.45	440.02
389.64	393.21
389.84	393.21
390.03	421.30
390.22	444.70
390.42	404.91
390.61	355.76
390.81	390.87
391.00	496.19
391.19	484.49
391.39	430.66
391.58	337.04
391.78	372.15
391.97	400.23
392.16	395.55
392.36	407.25
392.55	475.13
392.75	437.68
392.94	360.44
393.13	400.23
393.33	381.51
393.52	404.91
393.71	395.55
393.91	358.10
394.10	344.06
394.29	430.66
394.49	465.77
394.68	409.59
394.88	409.59
395.07	425.98
395.26	355.76
395.46	409.59
395.65	383.85
395.84	400.23
396.04	435.34
396.23	425.98
396.42	390.87
396.62	465.77
396.81	407.25
397.00	369.80
397.19	447.04
397.39	475.13
397.58	386.19
397.77	376.83
397.97	404.91
398.16	407.25
398.35	400.23
398.55	409.59
398.74	376.83
398.93	414.27
399.12	409.59
399.32	430.66
399.51	355.76
399.70	449.38
399.90	447.04
400.09	414.27
400.28	393.21
400.47	421.30
400.67	468.11
400.86	369.80
401.05	367.46
401.24	390.87
401.44	440.02
401.63	461.09
401.82	451.72
402.01	374.49
402.21	411.93
402.40	339.38
402.59	461.09
402.78	465.77
402.97	374.49
403.17	423.64
403.36	430.66
403.55	433.00
403.74	400.23
403.93	421.30
404.13	397.89
404.32	346.40
404.51	395.55
404.70	470.45
404.89	397.89
405.09	440.02
405.28	425.98
405.47	383.85
405.66	393.21
405.85	388.53
406.05	449.38
406.24	400.23
406.43	468.11
406.62	402.57
406.81	407.25
407.00	407.25
407.20	433.00
407.39	421.30
407.58	440.02
407.77	365.12
407.96	437.68
408.15	388.53
408.34	477.47
408.54	411.93
408.73	374.49
408.92	418.96
409.11	425.98
409.30	397.89
409.49	374.49
409.68	395.55
409.87	418.96
410.07	374.49
410.26	386.19
410.45	390.87
410.64	463.43
410.83	337.04
411.02	449.38
411.21	379.17
411.40	395.55
411.59	372.15
411.78	376.83
411.98	428.32
412.17	421.30
412.36	339.38
412.55	395.55
412.74	372.15
412.93	493.85
413.12	500.87
413.31	330.02
413.50	411.93
413.69	442.36
413.88	425.98
414.07	461.09
414.26	444.70
414.45	416.62
414.64	383.85
414.83	362.78
415.02	418.96
415.22	421.30
415.41	428.32
415.60	472.79
415.79	395.55
415.98	463.43
416.17	404.91
416.36	449.38
416.55	388.53
416.74	330.02
416.93	437.68
417.12	449.38
417.31	369.80
417.50	409.59
417.69	402.57
417.88	348.74
418.07	411.93
418.26	367.46
418.45	447.04
418.64	400.23
418.83	362.78
419.02	379.17
419.21	404.91
419.39	395.55
419.58	423.64
419.77	381.51
419.96	468.11
420.15	355.76
420.34	437.68
420.53	414.27
420.72	421.30
420.91	454.06
421.10	449.38
421.29	449.38
421.48	414.27
421.67	430.66
421.86	388.53
422.05	404.91
422.24	458.74
422.43	386.19
422.61	365.12
422.80	397.89
422.99	400.23
423.18	468.11
423.37	418.96
423.56	395.55
423.75	397.89
423.94	386.19
424.13	395.55
424.32	454.06
424.50	397.89
424.69	369.80
424.88	458.74
425.07	402.57
425.26	409.59
425.45	475.13
425.64	447.04
425.83	416.62
426.01	341.72
426.20	374.49
426.39	402.57
426.58	372.15
426.77	423.64
426.96	435.34
427.15	341.72
427.33	449.38
427.52	395.55
427.71	390.87
427.90	379.17
428.09	489.17
428.28	351.08
428.46	454.06
428.65	407.25
428.84	397.89
429.03	444.70
429.22	461.09
429.40	404.91
429.59	465.77
429.78	379.17
429.97	374.49
430.16	414.27
430.34	404.91
430.53	390.87
430.72	381.51
430.91	463.43
431.10	418.96
431.28	440.02
431.47	510.24
431.66	390.87
431.85	379.17
432.03	416.62
432.22	489.17
432.41	404.91
432.60	472.79
432.79	433.00
432.97	425.98
433.16	411.93
433.35	400.23
433.54	362.78
433.72	416.62
433.91	386.19
434.10	400.23
434.28	411.93
434.47	365.12
434.66	479.81
434.85	411.93
435.03	472.79
435.22	472.79
435.41	374.49
435.59	397.89
435.78	423.64
435.97	442.36
436.16	372.15
436.34	425.98
436.53	447.04
436.72	477.47
436.90	465.77
437.09	430.66
437.28	435.34
437.46	465.77
437.65	447.04
437.84	463.43
438.02	421.30
438.21	454.06
438.40	444.70
438.58	404.91
438.77	397.89
438.96	402.57
439.14	407.25
439.33	475.13
439.52	390.87
439.70	425.98
439.89	400.23
440.08	334.70
440.26	421.30
440.45	416.62
440.63	479.81
440.82	461.09
441.01	383.85
441.19	425.98
441.38	388.53
441.57	409.59
441.75	468.11
441.94	369.80
442.12	369.80
442.31	372.15
442.50	393.21
442.68	325.33
442.87	374.49
443.05	423.64
443.24	360.44
443.43	404.91
443.61	449.38
443.80	421.30
443.98	379.17
444.17	444.70
444.35	493.85
444.54	479.81
444.73	325.33
444.91	414.27
445.10	409.59
445.28	423.64
445.47	397.89
445.65	428.32
445.84	463.43
446.02	477.47
446.21	444.70
446.39	416.62
446.58	428.32
446.77	428.32
446.95	416.62
447.14	425.98
447.32	465.77
447.51	458.74
447.69	428.32
447.88	400.23
448.06	428.32
448.25	442.36
448.43	428.32
448.62	479.81
448.80	477.47
448.99	433.00
449.17	402.57
449.36	433.00
449.54	379.17
449.73	351.08
449.91	425.98
450.10	416.62
450.28	479.81
450.46	486.83
450.65	409.59
450.83	447.04
451.02	447.04
451.20	475.13
451.39	383.85
451.57	423.64
451.76	425.98
451.94	425.98
452.13	407.25
452.31	484.49
452.49	416.62
452.68	402.57
452.86	397.89
453.05	479.81
453.23	397.89
453.42	397.89
453.60	416.62
453.78	400.23
453.97	400.23
454.15	407.25
454.34	425.98
454.52	423.64
454.70	402.57
454.89	475.13
455.07	383.85
455.26	407.25
455.44	423.64
455.62	365.12
455.81	437.68
455.99	442.36
456.17	383.85
456.36	489.17
456.54	496.19
456.73	435.34
456.91	395.55
457.09	463.43
457.28	423.64
457.46	435.34
457.64	414.27
457.83	407.25
458.01	339.38
458.19	414.27
458.38	374.49
458.56	442.36
458.74	435.34
458.93	407.25
459.11	418.96
459.29	379.17
459.48	414.27
459.66	442.36
459.84	449.38
460.03	491.51
460.21	468.11
460.39	440.02
460.57	341.72
460.76	379.17
460.94	447.04
461.12	407.25
461.31	400.23
461.49	386.19
461.67	425.98
461.85	367.46
462.04	416.62
462.22	772.38
462.40	407.25
462.59	491.51
462.77	418.96
462.95	475.13
463.13	463.43
463.32	409.59
463.50	477.47
463.68	463.43
463.86	390.87
464.05	411.93
464.23	519.60
464.41	454.06
464.59	433.00
464.78	367.46
464.96	330.02
465.14	411.93
465.32	348.74
465.50	423.64
465.69	418.96
465.87	442.36
466.05	372.15
466.23	390.87
466.41	414.27
466.60	395.55
466.78	400.23
466.96	470.45
467.14	423.64
467.32	358.10
467.51	425.98
467.69	451.72
467.87	447.04
468.05	423.64
468.23	449.38
468.41	463.43
468.60	423.64
468.78	411.93
468.96	416.62
469.14	433.00
469.32	334.70
469.50	444.70
469.69	475.13
469.87	358.10
470.05	390.87
470.23	433.00
470.41	407.25
470.59	351.08
470.77	395.55
470.95	341.72
471.14	395.55
471.32	388.53
471.50	421.30
471.68	477.47
471.86	433.00
472.04	367.46
472.22	440.02
472.40	404.91
472.58	346.40
472.77	358.10
472.95	451.72
473.13	423.64
473.31	493.85
473.49	393.21
473.67	470.45
473.85	430.66
474.03	404.91
474.21	390.87
474.39	479.81
474.57	449.38
474.75	421.30
474.93	397.89
475.12	433.00
475.30	395.55
475.48	418.96
475.66	414.27
475.84	451.72
476.02	479.81
476.20	423.64
476.38	376.83
476.56	444.70
476.74	421.30
476.92	407.25
477.10	433.00
477.28	461.09
477.46	416.62
477.64	397.89
477.82	344.06
478.00	486.83
478.18	456.40
478.36	456.40
478.54	400.23
478.72	379.17
478.90	507.90
479.08	428.32
479.26	454.06
479.44	404.91
479.62	397.89
479.80	505.56
479.98	376.83
480.16	390.87
480.34	379.17
480.52	365.12
480.70	360.44
480.88	407.25
481.06	444.70
481.24	440.02
481.41	407.25
481.59	386.19
481.77	411.93
481.95	397.89
482.13	372.15
482.31	383.85
482.49	395.55
482.67	505.56
482.85	425.98
483.03	376.83
483.21	465.77
483.39	463.43
483.57	421.30
483.74	388.53
483.92	433.00
484.10	449.38
484.28	435.34
484.46	440.02
484.64	372.15
484.82	458.74
485.00	451.72
485.18	409.59
485.35	470.45
485.53	449.38
485.71	437.68
485.89	376.83
486.07	451.72
486.25	449.38
486.43	421.30
486.61	437.68
486.78	465.77
486.96	414.27
487.14	428.32
487.32	386.19
487.50	425.98
487.68	430.66
487.85	365.12
488.03	353.42
488.21	423.64
488.39	449.38
488.57	447.04
488.75	393.21
488.92	496.19
489.10	430.66
489.28	425.98
489.46	423.64
489.64	430.66
489.81	458.74
489.99	449.38
490.17	344.06
490.35	428.32
490.53	369.80
490.70	451.72
490.88	379.17
491.06	425.98
491.24	454.06
491.41	470.45
491.59	423.64
491.77	353.42
491.95	440.02
492.13	407.25
492.30	428.32
492.48	421.30
492.66	400.23
492.84	411.93
493.01	428.32
493.19	395.55
493.37	470.45
493.54	372.15
493.72	402.57
493.90	489.17
494.08	369.80
494.25	493.85
494.43	407.25
494.61	444.70
494.79	397.89
494.96	332.36
495.14	402.57
495.32	440.02
495.49	402.57
495.67	330.02
495.85	395.55
496.02	416.62
496.20	418.96
496.38	395.55
496.55	395.55
496.73	355.76
496.91	400.23
497.09	440.02
497.26	362.78
497.44	458.74
497.62	330.02
497.79	404.91
497.97	393.21
498.14	407.25
498.32	393.21
498.50	479.81
498.67	437.68
498.85	423.64
499.03	404.91
499.20	418.96
499.38	397.89
499.56	416.62
499.73	411.93
499.91	411.93
500.08	386.19
500.26	425.98
500.44	444.70
500.61	414.27
500.79	395.55
500.97	444.70
501.14	447.04
501.32	458.74
501.49	425.98
501.67	376.83
501.84	344.06
502.02	383.85
502.20	444.70
502.37	381.51
502.55	477.47
502.72	362.78
502.90	372.15
503.07	454.06
503.25	435.34
503.43	395.55
503.60	451.72
503.78	402.57
503.95	418.96
504.13	421.30
504.30	493.85
504.48	510.24
504.65	437.68
504.83	369.80
505.01	435.34
505.18	327.68
505.36	428.32
505.53	437.68
505.71	416.62
505.88	411.93
506.06	397.89
506.23	451.72
506.41	421.30
506.58	372.15
506.76	416.62
506.93	360.44
507.11	458.74
507.28	367.46
507.46	360.44
507.63	421.30
507.81	397.89
507.98	353.42
508.16	400.23
508.33	390.87
508.50	367.46
508.68	416.62
508.85	404.91
509.03	447.04
509.20	425.98
509.38	465.77
509.55	425.98
509.73	468.11
509.90	442.36
510.08	404.91
510.25	475.13
510.42	425.98
510.60	411.93
510.77	435.34
510.95	379.17
511.12	409.59
511.30	454.06
511.47	425.98
511.64	458.74
511.82	407.25
511.99	346.40
512.17	423.64
512.34	383.85
512.51	442.36
512.69	402.57
512.86	407.25
513.04	390.87
513.21	447.04
513.38	440.02
513.56	379.17
513.73	353.42
513.90	332.36
514.08	447.04
514.25	442.36
514.43	400.23
514.60	372.15
514.77	372.15
514.95	433.00
515.12	447.04
515.29	418.96
515.47	428.32
515.64	388.53
515.81	407.25
515.99	404.91
516.16	500.87
516.33	463.43
516.51	390.87
516.68	430.66
516.85	425.98
517.03	409.59
517.20	437.68
517.37	393.21
517.54	423.64
517.72	402.57
517.89	428.32
518.06	423.64
518.24	449.38
518.41	463.43
518.58	458.74
518.75	348.74
518.93	383.85
519.10	388.53
519.27	461.09
519.45	414.27
519.62	423.64
519.79	475.13
519.96	437.68
520.14	437.68
520.31	451.72
520.48	390.87
520.65	402.57
520.83	435.34
521.00	444.70
521.17	447.04
521.34	402.57
521.52	390.87
521.69	390.87
521.86	315.97
522.03	437.68
522.20	465.77
522.38	383.85
522.55	414.27
522.72	416.62
522.89	418.96
523.07	507.90
523.24	390.87
523.41	465.77
523.58	376.83
523.75	358.10
523.92	400.23
524.10	496.19
524.27	437.68
524.44	348.74
524.61	411.93
524.78	470.45
524.96	404.91
525.13	425.98
525.30	425.98
525.47	388.53
525.64	409.59
525.81	411.93
525.98	388.53
526.16	393.21
526.33	470.45
526.50	449.38
526.67	421.30
526.84	440.02
527.01	381.51
527.18	369.80
527.36	390.87
527.53	383.85
527.70	416.62
527.87	355.76
528.04	407.25
528.21	442.36
528.38	374.49
528.55	395.55
528.72	411.93
528.89	496.19
529.07	407.25
529.24	409.59
529.41	442.36
529.58	386.19
529.75	428.32
529.92	442.36
530.09	440.02
530.26	421.30
530.43	411.93
530.60	409.59
530.77	425.98
530.94	374.49
531.11	416.62
531.28	444.70
531.46	365.12
531.63	381.51
531.80	383.85
531.97	535.98
532.14	475.13
532.31	365.12
532.48	414.27
532.65	416.62
532.82	465.77
532.99	341.72
533.16	414.27
533.33	435.34
533.50	400.23
533.67	440.02
533.84	393.21
534.01	451.72
534.18	402.57
534.35	435.34
534.52	486.83
534.69	477.47
534.86	416.62
535.03	381.51
535.20	372.15
535.37	428.32
535.54	451.72
535.71	404.91
535.88	423.64
536.05	383.85
536.22	344.06
536.38	409.59
536.55	440.02
536.72	362.78
536.89	383.85
537.06	482.15
537.23	416.62
537.40	381.51
537.57	444.70
537.74	486.83
537.91	465.77
538.08	440.02
538.25	430.66
538.42	355.76
538.59	414.27
538.75	416.62
538.92	428.32
539.09	451.72
539.26	444.70
539.43	470.45
539.60	421.30
539.77	430.66
539.94	397.89
540.11	475.13
540.28	496.19
540.44	489.17
540.61	374.49
540.78	433.00
540.95	418.96
541.12	430.66
541.29	409.59
541.46	404.91
541.62	449.38
541.79	447.04
541.96	428.32
542.13	381.51
542.30	407.25
542.47	421.30
542.63	369.80
542.80	418.96
542.97	404.91
543.14	379.17
543.31	404.91
543.48	400.23
543.64	435.34
543.81	451.72
543.98	397.89
544.15	360.44
544.32	414.27
544.48	449.38
544.65	433.00
544.82	383.85
544.99	395.55
545.16	374.49
545.32	395.55
545.49	379.17
545.66	341.72
545.83	416.62
546.00	393.21
546.16	442.36
546.33	397.89
546.50	395.55
546.67	414.27
546.83	348.74
547.00	379.17
547.17	404.91
547.34	404.91
547.50	367.46
547.67	397.89
547.84	416.62
548.00	484.49
548.17	423.64
548.34	428.32
548.51	498.53
548.67	454.06
548.84	369.80
549.01	430.66
549.18	451.72
549.34	442.36
549.51	376.83
549.68	386.19
549.84	411.93
550.01	421.30
550.18	472.79
550.34	493.85
550.51	451.72
550.68	482.15
550.84	491.51
551.01	358.10
551.18	369.80
551.34	418.96
551.51	465.77
551.68	425.98
551.84	379.17
552.01	374.49
552.18	390.87
552.34	404.91
552.51	376.83
552.68	374.49
552.84	479.81
553.01	386.19
553.18	362.78
553.34	437.68
553.51	372.15
553.67	421.30
553.84	482.15
554.01	507.90
554.17	404.91
554.34	451.72
554.51	477.47
554.67	400.23
554.84	449.38
555.00	449.38
555.17	442.36
555.33	423.64
555.50	369.80
555.67	416.62
555.83	353.42
556.00	458.74
556.16	554.71
556.33	414.27
556.50	416.62
556.66	402.57
556.83	400.23
556.99	428.32
557.16	334.70
557.32	372.15
557.49	421.30
557.65	379.17
557.82	416.62
557.98	416.62
558.15	444.70
558.32	411.93
558.48	411.93
558.65	395.55
558.81	407.25
558.98	442.36
559.14	447.04
559.31	484.49
559.47	465.77
559.64	435.34
559.80	386.19
559.97	444.70
560.13	465.77
560.30	428.32
560.46	386.19
560.63	447.04
560.79	418.96
560.96	430.66
561.12	383.85
561.29	409.59
561.45	447.04
561.61	376.83
561.78	423.64
561.94	358.10
562.11	425.98
562.27	388.53
562.44	362.78
562.60	362.78
562.77	416.62
562.93	449.38
563.10	517.26
563.26	397.89
563.42	430.66
563.59	421.30
563.75	388.53
563.92	493.85
564.08	411.93
564.24	496.19
564.41	512.58
564.57	409.59
564.74	437.68
564.90	376.83
565.07	362.78
565.23	451.72
565.39	451.72
565.56	430.66
565.72	362.78
565.88	465.77
566.05	418.96
566.21	472.79
566.38	421.30
566.54	369.80
566.70	353.42
566.87	372.15
567.03	358.10
567.19	442.36
567.36	416.62
567.52	395.55
567.68	416.62
567.85	409.59
568.01	400.23
568.17	430.66
568.34	407.25
568.50	421.30
568.66	440.02
568.83	498.53
568.99	425.98
569.15	430.66
569.32	383.85
569.48	423.64
569.64	346.40
569.81	472.79
569.97	400.23
570.13	440.02
570.30	386.19
570.46	407.25
570.62	383.85
570.78	411.93
570.95	433.00
571.11	423.64
571.27	477.47
571.43	379.17
571.60	337.04
571.76	322.99
571.92	456.40
572.09	423.64
572.25	433.00
572.41	461.09
572.57	421.30
572.74	430.66
572.90	423.64
573.06	444.70
573.22	435.34
573.38	395.55
573.55	470.45
573.71	442.36
573.87	372.15
574.03	407.25
574.20	386.19
574.36	444.70
574.52	334.70
574.68	435.34
574.84	435.34
575.01	514.92
575.17	500.87
575.33	351.08
575.49	479.81
575.65	351.08
575.82	454.06
575.98	411.93
576.14	468.11
576.30	421.30
576.46	351.08
576.62	372.15
576.79	376.83
576.95	421.30
577.11	447.04
577.27	447.04
577.43	428.32
577.59	451.72
577.75	421.30
577.92	407.25
578.08	365.12
578.24	379.17
578.40	414.27
578.56	409.59
578.72	463.43
578.88	463.43
579.04	430.66
579.21	414.27
579.37	430.66
579.53	414.27
579.69	496.19
579.85	482.15
580.01	390.87
580.17	339.38
580.33	430.66
580.49	374.49
580.65	395.55
580.82	388.53
580.98	409.59
581.14	344.06
581.30	514.92
581.46	400.23
581.62	500.87
581.78	437.68
581.94	433.00
582.10	407.25
582.26	421.30
582.42	477.47
582.58	407.25
582.74	393.21
582.90	465.77
583.06	444.70
583.22	411.93
583.38	400.23
583.54	358.10
583.70	447.04
583.86	463.43
584.02	386.19
584.18	472.79
584.34	386.19
584.50	435.34
584.66	451.72
584.82	454.06
584.98	358.10
585.14	376.83
585.30	411.93
585.46	409.59
585.62	367.46
585.78	400.23
585.94	468.11
586.10	475.13
586.26	379.17
586.42	463.43
586.58	475.13
586.74	402.57
586.90	402.57
587.06	430.66
587.22	376.83
587.38	407.25
587.54	437.68
587.70	489.17
587.86	458.74
588.02	418.96
588.18	437.68
588.34	437.68
588.49	395.55
588.65	402.57
588.81	442.36
588.97	440.02
589.13	475.13
589.29	397.89
589.45	463.43
589.61	386.19
589.77	475.13
589.93	416.62
590.08	423.64
590.24	376.83
590.40	428.32
590.56	454.06
590.72	449.38
590.88	409.59
591.04	379.17
591.20	360.44
591.35	465.77
591.51	500.87
591.67	388.53
591.83	414.27
591.99	395.55
592.15	440.02
592.31	393.21
592.46	383.85
592.62	454.06
592.78	461.09
592.94	411.93
593.10	409.59
593.26	379.17
593.41	409.59
593.57	444.70
593.73	379.17
593.89	390.87
594.05	433.00
594.20	369.80
594.36	397.89
594.52	381.51
594.68	489.17
594.84	421.30
594.99	507.90
595.15	428.32
595.31	475.13
595.47	388.53
595.62	388.53
595.78	451.72
595.94	437.68
596.10	442.36
596.25	393.21
596.41	500.87
596.57	397.89
596.73	404.91
596.88	409.59
597.04	369.80
597.20	418.96
597.36	463.43
597.51	430.66
597.67	388.53
597.83	404.91
597.99	437.68
598.14	425.98
598.30	428.32
598.46	430.66
598.61	470.45
598.77	409.59
598.93	397.89
599.09	468.11
599.24	486.83
599.40	390.87
599.56	489.17
599.71	395.55
599.87	433.00
600.03	374.49
600.18	435.34
600.34	414.27
600.50	407.25
600.65	374.49
600.81	397.89
600.97	428.32
601.12	411.93
601.28	418.96
601.44	468.11
601.59	341.72
601.75	465.77
601.91	411.93
602.06	386.19
602.22	379.17
602.37	395.55
602.53	404.91
602.69	440.02
602.84	393.21
603.00	470.45
603.16	423.64
603.31	381.51
603.47	428.32
603.62	383.85
603.78	404.91
603.94	454.06
604.09	414.27
604.25	468.11
604.40	454.06
604.56	395.55
604.71	341.72
604.87	388.53
605.03	465.77
605.18	435.34
605.34	437.68
605.49	433.00
605.65	458.74
605.80	388.53
605.96	435.34
606.12	402.57
606.27	381.51
606.43	386.19
606.58	463.43
606.74	372.15
606.89	423.64
607.05	428.32
607.20	383.85
607.36	379.17
607.51	374.49
607.67	435.34
607.82	447.04
607.98	479.81
608.13	465.77
608.29	479.81
608.44	367.46
608.60	430.66
608.75	369.80
608.91	400.23
609.06	388.53
609.22	376.83
609.37	379.17
609.53	397.89
609.68	449.38
609.84	456.40
609.99	374.49
610.15	454.06
