SpectraSuite Data File
++++++++++++++++++++++++++++++++++++
Date: Fri Oct 25 12:11:19 EDT 2013
User: price-jones
Dark Spectrum Present: No
Reference Spectrum Present: No
Number of Sampled Component Spectra: 1
Spectrometers: USB2+H05261
Integration Time (usec): 100000 (USB2+H05261)
Spectra Averaged: 1 (USB2+H05261)
Boxcar Smoothing: 0 (USB2+H05261)
Correct for Electrical Dark: No (USB2+H05261)
Strobe/Lamp Enabled: No (USB2+H05261)
Correct for Detector Non-linearity: No (USB2+H05261)
Correct for Stray Light: No (USB2+H05261)
Number of Pixels in Processed Spectrum: 2048
>>>>>Begin Processed Spectral Data<<<<<
365.73	449.38
365.92	449.38
366.12	449.38
366.32	177.88
366.52	236.39
366.72	308.95
366.91	271.50
367.11	311.29
367.31	224.69
367.51	161.50
367.70	212.99
367.90	238.73
368.10	248.10
368.30	271.50
368.49	255.12
368.69	264.48
368.89	287.89
369.09	238.73
369.28	234.05
369.48	292.57
369.68	243.42
369.87	287.89
370.07	250.44
370.27	334.70
370.47	266.82
370.66	299.59
370.86	322.99
371.06	306.61
371.25	374.49
371.45	344.06
371.65	367.46
371.84	353.42
372.04	402.57
372.24	402.57
372.44	402.57
372.63	447.04
372.83	416.62
373.03	386.19
373.22	367.46
373.42	404.91
373.62	435.34
373.81	444.70
374.01	388.53
374.21	496.19
374.40	433.00
374.60	451.72
374.79	500.87
374.99	383.85
375.19	482.15
375.38	430.66
375.58	440.02
375.78	425.98
375.97	465.77
376.17	465.77
376.37	465.77
376.56	433.00
376.76	463.43
376.95	390.87
377.15	463.43
377.35	482.15
377.54	425.98
377.74	397.89
377.93	381.51
378.13	414.27
378.33	423.64
378.52	344.06
378.72	430.66
378.91	423.64
379.11	393.21
379.31	374.49
379.50	332.36
379.70	433.00
379.89	379.17
380.09	311.29
380.28	411.93
380.48	402.57
380.68	353.42
380.87	402.57
381.07	367.46
381.26	402.57
381.46	472.79
381.65	379.17
381.85	428.32
382.04	449.38
382.24	383.85
382.43	388.53
382.63	442.36
382.83	442.36
383.02	458.74
383.22	407.25
383.41	397.89
383.61	463.43
383.80	482.15
384.00	449.38
384.19	433.00
384.39	369.80
384.58	351.08
384.78	423.64
384.97	365.12
385.17	433.00
385.36	402.57
385.56	393.21
385.75	421.30
385.95	444.70
386.14	367.46
386.34	393.21
386.53	376.83
386.72	369.80
386.92	444.70
387.11	458.74
387.31	393.21
387.50	423.64
387.70	418.96
387.89	390.87
388.09	451.72
388.28	360.44
388.48	407.25
388.67	465.77
388.86	442.36
389.06	414.27
389.25	456.40
389.45	428.32
389.64	425.98
389.84	428.32
390.03	346.40
390.22	416.62
390.42	409.59
390.61	444.70
390.81	353.42
391.00	395.55
391.19	414.27
391.39	407.25
391.58	409.59
391.78	447.04
391.97	360.44
392.16	402.57
392.36	409.59
392.55	418.96
392.75	369.80
392.94	411.93
393.13	425.98
393.33	346.40
393.52	414.27
393.71	418.96
393.91	423.64
394.10	397.89
394.29	425.98
394.49	433.00
394.68	449.38
394.88	444.70
395.07	475.13
395.26	435.34
395.46	418.96
395.65	416.62
395.84	332.36
396.04	393.21
396.23	442.36
396.42	358.10
396.62	437.68
396.81	397.89
397.00	402.57
397.19	451.72
397.39	416.62
397.58	379.17
397.77	334.70
397.97	376.83
398.16	365.12
398.35	472.79
398.55	393.21
398.74	482.15
398.93	388.53
399.12	383.85
399.32	463.43
399.51	425.98
399.70	400.23
399.90	397.89
400.09	461.09
400.28	423.64
400.47	402.57
400.67	444.70
400.86	451.72
401.05	463.43
401.24	374.49
401.44	414.27
401.63	458.74
401.82	435.34
402.01	372.15
402.21	435.34
402.40	334.70
402.59	330.02
402.78	325.33
402.97	374.49
403.17	456.40
403.36	369.80
403.55	351.08
403.74	447.04
403.93	395.55
404.13	437.68
404.32	367.46
404.51	383.85
404.70	372.15
404.89	388.53
405.09	503.22
405.28	325.33
405.47	374.49
405.66	411.93
405.85	397.89
406.05	444.70
406.24	379.17
406.43	383.85
406.62	423.64
406.81	418.96
407.00	489.17
407.20	423.64
407.39	411.93
407.58	393.21
407.77	418.96
407.96	433.00
408.15	409.59
408.34	440.02
408.54	447.04
408.73	379.17
408.92	433.00
409.11	360.44
409.30	470.45
409.49	428.32
409.68	461.09
409.87	404.91
410.07	442.36
410.26	475.13
410.45	475.13
410.64	411.93
410.83	407.25
411.02	407.25
411.21	386.19
411.40	451.72
411.59	360.44
411.78	383.85
411.98	376.83
412.17	383.85
412.36	358.10
412.55	393.21
412.74	423.64
412.93	409.59
413.12	435.34
413.31	433.00
413.50	369.80
413.69	407.25
413.88	456.40
414.07	372.15
414.26	414.27
414.45	465.77
414.64	416.62
414.83	397.89
415.02	418.96
415.22	491.51
415.41	383.85
415.60	425.98
415.79	468.11
415.98	402.57
416.17	360.44
416.36	416.62
416.55	407.25
416.74	449.38
416.93	388.53
417.12	383.85
417.31	428.32
417.50	402.57
417.69	461.09
417.88	407.25
418.07	425.98
418.26	414.27
418.45	390.87
418.64	374.49
418.83	386.19
419.02	451.72
419.21	393.21
419.39	393.21
419.58	400.23
419.77	428.32
419.96	397.89
420.15	397.89
420.34	376.83
420.53	451.72
420.72	456.40
420.91	433.00
421.10	362.78
421.29	365.12
421.48	397.89
421.67	477.47
421.86	374.49
422.05	383.85
422.24	374.49
422.43	402.57
422.61	402.57
422.80	397.89
422.99	381.51
423.18	447.04
423.37	409.59
423.56	404.91
423.75	421.30
423.94	404.91
424.13	397.89
424.32	344.06
424.50	423.64
424.69	414.27
424.88	414.27
425.07	390.87
425.26	442.36
425.45	421.30
425.64	468.11
425.83	390.87
426.01	440.02
426.20	470.45
426.39	428.32
426.58	468.11
426.77	465.77
426.96	456.40
427.15	400.23
427.33	407.25
427.52	421.30
427.71	437.68
427.90	423.64
428.09	411.93
428.28	433.00
428.46	383.85
428.65	425.98
428.84	423.64
429.03	362.78
429.22	461.09
429.40	400.23
429.59	435.34
429.78	472.79
429.97	383.85
430.16	458.74
430.34	447.04
430.53	393.21
430.72	449.38
430.91	407.25
431.10	407.25
431.28	386.19
431.47	444.70
431.66	454.06
431.85	425.98
432.03	344.06
432.22	379.17
432.41	397.89
432.60	454.06
432.79	397.89
432.97	400.23
433.16	322.99
433.35	423.64
433.54	400.23
433.72	482.15
433.91	449.38
434.10	435.34
434.28	416.62
434.47	404.91
434.66	374.49
434.85	344.06
435.03	472.79
435.22	458.74
435.41	449.38
435.59	428.32
435.78	458.74
435.97	332.36
436.16	397.89
436.34	400.23
436.53	395.55
436.72	423.64
436.90	414.27
437.09	482.15
437.28	418.96
437.46	416.62
437.65	332.36
437.84	407.25
438.02	393.21
438.21	397.89
438.40	437.68
438.58	386.19
438.77	440.02
438.96	383.85
439.14	440.02
439.33	428.32
439.52	493.85
439.70	395.55
439.89	425.98
440.08	416.62
440.26	397.89
440.45	386.19
440.63	411.93
440.82	388.53
441.01	411.93
441.19	454.06
441.38	411.93
441.57	400.23
441.75	369.80
441.94	423.64
442.12	390.87
442.31	404.91
442.50	484.49
442.68	416.62
442.87	374.49
443.05	425.98
443.24	433.00
443.43	397.89
443.61	463.43
443.80	404.91
443.98	395.55
444.17	435.34
444.35	367.46
444.54	468.11
444.73	409.59
444.91	416.62
445.10	421.30
445.28	423.64
445.47	421.30
445.65	404.91
445.84	437.68
446.02	454.06
446.21	397.89
446.39	435.34
446.58	447.04
446.77	374.49
446.95	437.68
447.14	461.09
447.32	489.17
447.51	348.74
447.69	500.87
447.88	433.00
448.06	407.25
448.25	383.85
448.43	348.74
448.62	374.49
448.80	454.06
448.99	444.70
449.17	386.19
449.36	458.74
449.54	425.98
449.73	374.49
449.91	397.89
450.10	449.38
450.28	477.47
450.46	482.15
450.65	447.04
450.83	421.30
451.02	414.27
451.20	374.49
451.39	423.64
451.57	409.59
451.76	353.42
451.94	418.96
452.13	437.68
452.31	491.51
452.49	397.89
452.68	409.59
452.86	430.66
453.05	416.62
453.23	402.57
453.42	463.43
453.60	447.04
453.78	381.51
453.97	421.30
454.15	374.49
454.34	442.36
454.52	393.21
454.70	482.15
454.89	440.02
455.07	299.59
455.26	456.40
455.44	435.34
455.62	430.66
455.81	449.38
455.99	475.13
456.17	383.85
456.36	416.62
456.54	418.96
456.73	407.25
456.91	365.12
457.09	428.32
457.28	416.62
457.46	444.70
457.64	440.02
457.83	451.72
458.01	362.78
458.19	470.45
458.38	381.51
458.56	416.62
458.74	383.85
458.93	416.62
459.11	442.36
459.29	388.53
459.48	367.46
459.66	400.23
459.84	442.36
460.03	547.69
460.21	484.49
460.39	463.43
460.57	418.96
460.76	416.62
460.94	433.00
461.12	437.68
461.31	482.15
461.49	409.59
461.67	437.68
461.85	374.49
462.04	404.91
462.22	816.85
462.40	440.02
462.59	414.27
462.77	393.21
462.95	407.25
463.13	425.98
463.32	414.27
463.50	414.27
463.68	449.38
463.86	383.85
464.05	346.40
464.23	435.34
464.41	402.57
464.59	430.66
464.78	379.17
464.96	437.68
465.14	383.85
465.32	390.87
465.50	404.91
465.69	351.08
465.87	332.36
466.05	468.11
466.23	374.49
466.41	409.59
466.60	397.89
466.78	411.93
466.96	454.06
467.14	470.45
467.32	407.25
467.51	440.02
467.69	416.62
467.87	402.57
468.05	416.62
468.23	402.57
468.41	440.02
468.60	379.17
468.78	428.32
468.96	465.77
469.14	449.38
469.32	360.44
469.50	440.02
469.69	437.68
469.87	358.10
470.05	407.25
470.23	451.72
470.41	458.74
470.59	367.46
470.77	479.81
470.95	482.15
471.14	425.98
471.32	416.62
471.50	463.43
471.68	458.74
471.86	400.23
472.04	411.93
472.22	395.55
472.40	367.46
472.58	449.38
472.77	517.26
472.95	369.80
473.13	468.11
473.31	409.59
473.49	374.49
473.67	397.89
473.85	461.09
474.03	362.78
474.21	440.02
474.39	409.59
474.57	393.21
474.75	390.87
474.93	423.64
475.12	402.57
475.30	372.15
475.48	388.53
475.66	482.15
475.84	360.44
476.02	411.93
476.20	463.43
476.38	414.27
476.56	414.27
476.74	454.06
476.92	421.30
477.10	400.23
477.28	528.96
477.46	456.40
477.64	421.30
477.82	454.06
478.00	428.32
478.18	428.32
478.36	393.21
478.54	414.27
478.72	411.93
478.90	470.45
479.08	435.34
479.26	407.25
479.44	372.15
479.62	397.89
479.80	411.93
479.98	383.85
480.16	400.23
480.34	379.17
480.52	449.38
480.70	393.21
480.88	437.68
481.06	433.00
481.24	402.57
481.41	428.32
481.59	402.57
481.77	372.15
481.95	339.38
482.13	402.57
482.31	404.91
482.49	374.49
482.67	390.87
482.85	463.43
483.03	428.32
483.21	367.46
483.39	435.34
483.57	409.59
483.74	327.68
483.92	367.46
484.10	379.17
484.28	407.25
484.46	479.81
484.64	418.96
484.82	444.70
485.00	400.23
485.18	372.15
485.35	449.38
485.53	425.98
485.71	435.34
485.89	395.55
486.07	379.17
486.25	449.38
486.43	383.85
486.61	468.11
486.78	447.04
486.96	390.87
487.14	482.15
487.32	454.06
487.50	423.64
487.68	435.34
487.85	404.91
488.03	374.49
488.21	407.25
488.39	383.85
488.57	444.70
488.75	337.04
488.92	451.72
489.10	374.49
489.28	512.58
489.46	425.98
489.64	383.85
489.81	416.62
489.99	383.85
490.17	421.30
490.35	463.43
490.53	444.70
490.70	475.13
490.88	437.68
491.06	390.87
491.24	484.49
491.41	528.96
491.59	421.30
491.77	337.04
491.95	379.17
492.13	444.70
492.30	416.62
492.48	367.46
492.66	388.53
492.84	433.00
493.01	435.34
493.19	414.27
493.37	369.80
493.54	416.62
493.72	421.30
493.90	456.40
494.08	489.17
494.25	456.40
494.43	442.36
494.61	407.25
494.79	360.44
494.96	437.68
495.14	416.62
495.32	444.70
495.49	451.72
495.67	407.25
495.85	465.77
496.02	390.87
496.20	423.64
496.38	416.62
496.55	390.87
496.73	386.19
496.91	327.68
497.09	458.74
497.26	444.70
497.44	430.66
497.62	358.10
497.79	414.27
497.97	484.49
498.14	421.30
498.32	369.80
498.50	442.36
498.67	381.51
498.85	409.59
499.03	493.85
499.20	393.21
499.38	430.66
499.56	430.66
499.73	472.79
499.91	416.62
500.08	482.15
500.26	409.59
500.44	402.57
500.61	437.68
500.79	407.25
500.97	454.06
501.14	397.89
501.32	442.36
501.49	454.06
501.67	428.32
501.84	458.74
502.02	390.87
502.20	486.83
502.37	507.90
502.55	433.00
502.72	454.06
502.90	484.49
503.07	447.04
503.25	437.68
503.43	447.04
503.60	409.59
503.78	400.23
503.95	447.04
504.13	435.34
504.30	514.92
504.48	425.98
504.65	456.40
504.83	416.62
505.01	421.30
505.18	430.66
505.36	416.62
505.53	421.30
505.71	479.81
505.88	440.02
506.06	367.46
506.23	393.21
506.41	425.98
506.58	479.81
506.76	402.57
506.93	411.93
507.11	407.25
507.28	440.02
507.46	400.23
507.63	421.30
507.81	402.57
507.98	320.65
508.16	416.62
508.33	365.12
508.50	454.06
508.68	388.53
508.85	402.57
509.03	435.34
509.20	381.51
509.38	397.89
509.55	477.47
509.73	400.23
509.90	484.49
510.08	339.38
510.25	414.27
510.42	400.23
510.60	451.72
510.77	423.64
510.95	456.40
511.12	430.66
511.30	428.32
511.47	435.34
511.64	397.89
511.82	470.45
511.99	372.15
512.17	379.17
512.34	404.91
512.51	435.34
512.69	358.10
512.86	475.13
513.04	376.83
513.21	414.27
513.38	433.00
513.56	433.00
513.73	470.45
513.90	421.30
514.08	411.93
514.25	400.23
514.43	440.02
514.60	402.57
514.77	404.91
514.95	423.64
515.12	411.93
515.29	416.62
515.47	395.55
515.64	468.11
515.81	348.74
515.99	489.17
516.16	374.49
516.33	414.27
516.51	440.02
516.68	468.11
516.85	400.23
517.03	383.85
517.20	358.10
517.37	454.06
517.54	425.98
517.72	500.87
517.89	414.27
518.06	397.89
518.24	418.96
518.41	505.56
518.58	423.64
518.75	353.42
518.93	418.96
519.10	414.27
519.27	421.30
519.45	409.59
519.62	376.83
519.79	369.80
519.96	470.45
520.14	428.32
520.31	376.83
520.48	372.15
520.65	355.76
520.83	449.38
521.00	475.13
521.17	386.19
521.34	423.64
521.52	454.06
521.69	397.89
521.86	440.02
522.03	456.40
522.20	484.49
522.38	383.85
522.55	433.00
522.72	433.00
522.89	374.49
523.07	360.44
523.24	428.32
523.41	435.34
523.58	386.19
523.75	334.70
523.92	440.02
524.10	395.55
524.27	423.64
524.44	388.53
524.61	454.06
524.78	395.55
524.96	395.55
525.13	425.98
525.30	463.43
525.47	433.00
525.64	395.55
525.81	482.15
525.98	449.38
526.16	433.00
526.33	454.06
526.50	425.98
526.67	451.72
526.84	395.55
527.01	482.15
527.18	402.57
527.36	395.55
527.53	379.17
527.70	451.72
527.87	484.49
528.04	447.04
528.21	402.57
528.38	470.45
528.55	430.66
528.72	416.62
528.89	449.38
529.07	442.36
529.24	395.55
529.41	496.19
529.58	470.45
529.75	428.32
529.92	470.45
530.09	423.64
530.26	414.27
530.43	442.36
530.60	442.36
530.77	376.83
530.94	428.32
531.11	386.19
531.28	337.04
531.46	470.45
531.63	470.45
531.80	454.06
531.97	400.23
532.14	435.34
532.31	425.98
532.48	463.43
532.65	379.17
532.82	416.62
532.99	351.08
533.16	447.04
533.33	400.23
533.50	315.97
533.67	421.30
533.84	407.25
534.01	468.11
534.18	369.80
534.35	414.27
534.52	388.53
534.69	421.30
534.86	379.17
535.03	397.89
535.20	367.46
535.37	458.74
535.54	421.30
535.71	423.64
535.88	425.98
536.05	374.49
536.22	395.55
536.38	400.23
536.55	421.30
536.72	435.34
536.89	404.91
537.06	437.68
537.23	461.09
537.40	414.27
537.57	500.87
537.74	407.25
537.91	433.00
538.08	421.30
538.25	428.32
538.42	418.96
538.59	449.38
538.75	510.24
538.92	388.53
539.09	454.06
539.26	381.51
539.43	409.59
539.60	433.00
539.77	461.09
539.94	421.30
540.11	400.23
540.28	475.13
540.44	449.38
540.61	440.02
540.78	440.02
540.95	437.68
541.12	348.74
541.29	376.83
541.46	440.02
541.62	402.57
541.79	444.70
541.96	407.25
542.13	409.59
542.30	468.11
542.47	418.96
542.63	416.62
542.80	411.93
542.97	421.30
543.14	397.89
543.31	425.98
543.48	374.49
543.64	472.79
543.81	390.87
543.98	374.49
544.15	425.98
544.32	411.93
544.48	402.57
544.65	421.30
544.82	365.12
544.99	437.68
545.16	355.76
545.32	489.17
545.49	433.00
545.66	421.30
545.83	451.72
546.00	442.36
546.16	360.44
546.33	409.59
546.50	423.64
546.67	421.30
546.83	395.55
547.00	402.57
547.17	381.51
547.34	449.38
547.50	433.00
547.67	390.87
547.84	381.51
548.00	390.87
548.17	414.27
548.34	468.11
548.51	500.87
548.67	444.70
548.84	425.98
549.01	421.30
549.18	472.79
549.34	379.17
549.51	442.36
549.68	489.17
549.84	456.40
550.01	425.98
550.18	425.98
550.34	449.38
550.51	421.30
550.68	433.00
550.84	418.96
551.01	503.22
551.18	430.66
551.34	435.34
551.51	449.38
551.68	372.15
551.84	472.79
552.01	416.62
552.18	397.89
552.34	418.96
552.51	482.15
552.68	465.77
552.84	428.32
553.01	423.64
553.18	423.64
553.34	421.30
553.51	374.49
553.67	444.70
553.84	489.17
554.01	390.87
554.17	390.87
554.34	456.40
554.51	430.66
554.67	484.49
554.84	442.36
555.00	489.17
555.17	465.77
555.33	421.30
555.50	400.23
555.67	465.77
555.83	454.06
556.00	430.66
556.16	514.92
556.33	484.49
556.50	402.57
556.66	425.98
556.83	423.64
556.99	418.96
557.16	435.34
557.32	386.19
557.49	449.38
557.65	390.87
557.82	325.33
557.98	428.32
558.15	397.89
558.32	449.38
558.48	428.32
558.65	418.96
558.81	402.57
558.98	433.00
559.14	503.22
559.31	454.06
559.47	470.45
559.64	402.57
559.80	468.11
559.97	451.72
560.13	404.91
560.30	470.45
560.46	428.32
560.63	428.32
560.79	409.59
560.96	409.59
561.12	414.27
561.29	458.74
561.45	470.45
561.61	425.98
561.78	493.85
561.94	376.83
562.11	409.59
562.27	505.56
562.44	454.06
562.60	411.93
562.77	383.85
562.93	514.92
563.10	414.27
563.26	461.09
563.42	411.93
563.59	428.32
563.75	407.25
563.92	444.70
564.08	444.70
564.24	409.59
564.41	407.25
564.57	402.57
564.74	344.06
564.90	411.93
565.07	381.51
565.23	433.00
565.39	437.68
565.56	423.64
565.72	395.55
565.88	425.98
566.05	451.72
566.21	388.53
566.38	430.66
566.54	397.89
566.70	430.66
566.87	369.80
567.03	423.64
567.19	418.96
567.36	468.11
567.52	482.15
567.68	496.19
567.85	449.38
568.01	428.32
568.17	456.40
568.34	411.93
568.50	430.66
568.66	463.43
568.83	430.66
568.99	393.21
569.15	479.81
569.32	360.44
569.48	393.21
569.64	367.46
569.81	463.43
569.97	404.91
570.13	442.36
570.30	416.62
570.46	383.85
570.62	435.34
570.78	479.81
570.95	374.49
571.11	463.43
571.27	535.98
571.43	517.26
571.60	463.43
571.76	451.72
571.92	369.80
572.09	458.74
572.25	341.72
572.41	430.66
572.57	409.59
572.74	503.22
572.90	442.36
573.06	454.06
573.22	430.66
573.38	428.32
573.55	372.15
573.71	440.02
573.87	400.23
574.03	451.72
574.20	411.93
574.36	440.02
574.52	425.98
574.68	444.70
574.84	461.09
575.01	437.68
575.17	472.79
575.33	433.00
575.49	456.40
575.65	461.09
575.82	477.47
575.98	390.87
576.14	351.08
576.30	386.19
576.46	454.06
576.62	423.64
576.79	444.70
576.95	404.91
577.11	404.91
577.27	489.17
577.43	409.59
577.59	402.57
577.75	437.68
577.92	423.64
578.08	461.09
578.24	479.81
578.40	404.91
578.56	447.04
578.72	468.11
578.88	374.49
579.04	418.96
579.21	498.53
579.37	416.62
579.53	367.46
579.69	447.04
579.85	425.98
580.01	376.83
580.17	383.85
580.33	393.21
580.49	421.30
580.65	367.46
580.82	425.98
580.98	461.09
581.14	358.10
581.30	447.04
581.46	482.15
581.62	456.40
581.78	379.17
581.94	393.21
582.10	372.15
582.26	451.72
582.42	486.83
582.58	397.89
582.74	442.36
582.90	414.27
583.06	348.74
583.22	440.02
583.38	374.49
583.54	444.70
583.70	447.04
583.86	433.00
584.02	430.66
584.18	414.27
584.34	355.76
584.50	414.27
584.66	388.53
584.82	416.62
584.98	538.32
585.14	407.25
585.30	435.34
585.46	425.98
585.62	414.27
585.78	367.46
585.94	454.06
586.10	390.87
586.26	395.55
586.42	416.62
586.58	402.57
586.74	379.17
586.90	433.00
587.06	428.32
587.22	418.96
587.38	435.34
587.54	388.53
587.70	470.45
587.86	442.36
588.02	372.15
588.18	454.06
588.34	447.04
588.49	416.62
588.65	449.38
588.81	451.72
588.97	437.68
589.13	421.30
589.29	442.36
589.45	369.80
589.61	346.40
589.77	423.64
589.93	348.74
590.08	404.91
590.24	411.93
590.40	428.32
590.56	437.68
590.72	362.78
590.88	369.80
591.04	374.49
591.20	503.22
591.35	465.77
591.51	447.04
591.67	372.15
591.83	367.46
591.99	451.72
592.15	433.00
592.31	393.21
592.46	418.96
592.62	442.36
592.78	395.55
592.94	433.00
593.10	447.04
593.26	348.74
593.41	395.55
593.57	435.34
593.73	416.62
593.89	367.46
594.05	409.59
594.20	367.46
594.36	503.22
594.52	468.11
594.68	442.36
594.84	393.21
594.99	447.04
595.15	372.15
595.31	456.40
595.47	451.72
595.62	397.89
595.78	421.30
595.94	447.04
596.10	482.15
596.25	383.85
596.41	393.21
596.57	425.98
596.73	454.06
596.88	393.21
597.04	372.15
597.20	428.32
597.36	404.91
597.51	468.11
597.67	393.21
597.83	454.06
597.99	470.45
598.14	416.62
598.30	435.34
598.46	449.38
598.61	491.51
598.77	397.89
598.93	437.68
599.09	402.57
599.24	470.45
599.40	409.59
599.56	472.79
599.71	379.17
599.87	409.59
600.03	451.72
600.18	341.72
600.34	470.45
600.50	433.00
600.65	430.66
600.81	484.49
600.97	395.55
601.12	463.43
601.28	437.68
601.44	440.02
601.59	390.87
601.75	365.12
601.91	379.17
602.06	390.87
602.22	435.34
602.37	404.91
602.53	444.70
602.69	454.06
602.84	372.15
603.00	411.93
603.16	510.24
603.31	442.36
603.47	402.57
603.62	353.42
603.78	372.15
603.94	430.66
604.09	407.25
604.25	425.98
604.40	395.55
604.56	437.68
604.71	372.15
604.87	390.87
605.03	472.79
605.18	475.13
605.34	470.45
605.49	358.10
605.65	447.04
605.80	376.83
605.96	397.89
606.12	428.32
606.27	514.92
606.43	421.30
606.58	400.23
606.74	411.93
606.89	428.32
607.05	463.43
607.20	404.91
607.36	402.57
607.51	393.21
607.67	425.98
607.82	442.36
607.98	351.08
608.13	374.49
608.29	414.27
608.44	444.70
608.60	402.57
608.75	433.00
608.91	414.27
609.06	440.02
609.22	421.30
609.37	395.55
609.53	395.55
609.68	407.25
609.84	402.57
609.99	418.96
610.15	428.32
