SpectraSuite Data File
++++++++++++++++++++++++++++++++++++
Date: Fri Oct 25 12:11:22 EDT 2013
User: price-jones
Dark Spectrum Present: No
Reference Spectrum Present: No
Number of Sampled Component Spectra: 1
Spectrometers: USB2+H05261
Integration Time (usec): 100000 (USB2+H05261)
Spectra Averaged: 1 (USB2+H05261)
Boxcar Smoothing: 0 (USB2+H05261)
Correct for Electrical Dark: No (USB2+H05261)
Strobe/Lamp Enabled: No (USB2+H05261)
Correct for Detector Non-linearity: No (USB2+H05261)
Correct for Stray Light: No (USB2+H05261)
Number of Pixels in Processed Spectrum: 2048
>>>>>Begin Processed Spectral Data<<<<<
365.73	304.27
365.92	304.27
366.12	304.27
366.32	262.14
366.52	311.29
366.72	266.82
366.91	231.71
367.11	220.01
367.31	276.18
367.51	234.05
367.70	241.08
367.90	198.95
368.10	285.55
368.30	159.16
368.49	306.61
368.69	304.27
368.89	278.52
369.09	234.05
369.28	325.33
369.48	322.99
369.68	276.18
369.87	278.52
370.07	271.50
370.27	334.70
370.47	351.08
370.66	369.80
370.86	367.46
371.06	400.23
371.25	433.00
371.45	341.72
371.65	327.68
371.84	348.74
372.04	463.43
372.24	374.49
372.44	325.33
372.63	397.89
372.83	428.32
373.03	404.91
373.22	418.96
373.42	465.77
373.62	425.98
373.81	477.47
374.01	414.27
374.21	461.09
374.40	395.55
374.60	418.96
374.79	428.32
374.99	353.42
375.19	409.59
375.38	472.79
375.58	397.89
375.78	416.62
375.97	418.96
376.17	512.58
376.37	444.70
376.56	458.74
376.76	386.19
376.95	376.83
377.15	402.57
377.35	348.74
377.54	393.21
377.74	353.42
377.93	423.64
378.13	414.27
378.33	425.98
378.52	400.23
378.72	428.32
378.91	463.43
379.11	397.89
379.31	414.27
379.50	404.91
379.70	454.06
379.89	404.91
380.09	334.70
380.28	344.06
380.48	348.74
380.68	465.77
380.87	379.17
381.07	386.19
381.26	395.55
381.46	374.49
381.65	360.44
381.85	374.49
382.04	447.04
382.24	430.66
382.43	418.96
382.63	428.32
382.83	444.70
383.02	456.40
383.22	367.46
383.41	416.62
383.61	414.27
383.80	472.79
384.00	353.42
384.19	365.12
384.39	409.59
384.58	400.23
384.78	435.34
384.97	428.32
385.17	400.23
385.36	372.15
385.56	395.55
385.75	409.59
385.95	470.45
386.14	425.98
386.34	397.89
386.53	390.87
386.72	458.74
386.92	428.32
387.11	365.12
387.31	442.36
387.50	402.57
387.70	341.72
387.89	365.12
388.09	276.18
388.28	383.85
388.48	400.23
388.67	395.55
388.86	402.57
389.06	362.78
389.25	425.98
389.45	449.38
389.64	451.72
389.84	418.96
390.03	404.91
390.22	407.25
390.42	500.87
390.61	430.66
390.81	411.93
391.00	400.23
391.19	437.68
391.39	360.44
391.58	414.27
391.78	425.98
391.97	444.70
392.16	414.27
392.36	433.00
392.55	435.34
392.75	339.38
392.94	367.46
393.13	418.96
393.33	376.83
393.52	369.80
393.71	442.36
393.91	407.25
394.10	430.66
394.29	397.89
394.49	465.77
394.68	358.10
394.88	374.49
395.07	428.32
395.26	416.62
395.46	379.17
395.65	433.00
395.84	400.23
396.04	440.02
396.23	421.30
396.42	411.93
396.62	388.53
396.81	376.83
397.00	404.91
397.19	440.02
397.39	423.64
397.58	486.83
397.77	395.55
397.97	435.34
398.16	423.64
398.35	411.93
398.55	376.83
398.74	355.76
398.93	423.64
399.12	444.70
399.32	468.11
399.51	409.59
399.70	465.77
399.90	404.91
400.09	458.74
400.28	442.36
400.47	376.83
400.67	437.68
400.86	416.62
401.05	346.40
401.24	430.66
401.44	447.04
401.63	430.66
401.82	388.53
402.01	472.79
402.21	372.15
402.40	486.83
402.59	355.76
402.78	386.19
402.97	388.53
403.17	402.57
403.36	430.66
403.55	395.55
403.74	409.59
403.93	409.59
404.13	475.13
404.32	416.62
404.51	425.98
404.70	423.64
404.89	353.42
405.09	421.30
405.28	414.27
405.47	409.59
405.66	428.32
405.85	409.59
406.05	447.04
406.24	451.72
406.43	416.62
406.62	362.78
406.81	500.87
407.00	440.02
407.20	388.53
407.39	479.81
407.58	372.15
407.77	358.10
407.96	423.64
408.15	451.72
408.34	477.47
408.54	430.66
408.73	386.19
408.92	402.57
409.11	449.38
409.30	325.33
409.49	397.89
409.68	430.66
409.87	367.46
410.07	416.62
410.26	418.96
410.45	390.87
410.64	400.23
410.83	360.44
411.02	416.62
411.21	416.62
411.40	402.57
411.59	416.62
411.78	416.62
411.98	395.55
412.17	383.85
412.36	402.57
412.55	311.29
412.74	372.15
412.93	461.09
413.12	409.59
413.31	425.98
413.50	519.60
413.69	430.66
413.88	437.68
414.07	472.79
414.26	442.36
414.45	461.09
414.64	435.34
414.83	404.91
415.02	348.74
415.22	447.04
415.41	430.66
415.60	456.40
415.79	449.38
415.98	465.77
416.17	411.93
416.36	402.57
416.55	409.59
416.74	409.59
416.93	381.51
417.12	388.53
417.31	465.77
417.50	454.06
417.69	388.53
417.88	425.98
418.07	435.34
418.26	479.81
418.45	411.93
418.64	479.81
418.83	437.68
419.02	367.46
419.21	479.81
419.39	421.30
419.58	451.72
419.77	369.80
419.96	409.59
420.15	444.70
420.34	404.91
420.53	397.89
420.72	428.32
420.91	416.62
421.10	414.27
421.29	381.51
421.48	421.30
421.67	409.59
421.86	327.68
422.05	416.62
422.24	362.78
422.43	404.91
422.61	416.62
422.80	440.02
422.99	383.85
423.18	433.00
423.37	470.45
423.56	486.83
423.75	339.38
423.94	400.23
424.13	358.10
424.32	334.70
424.50	397.89
424.69	390.87
424.88	486.83
425.07	372.15
425.26	447.04
425.45	468.11
425.64	374.49
425.83	395.55
426.01	458.74
426.20	442.36
426.39	428.32
426.58	437.68
426.77	393.21
426.96	355.76
427.15	360.44
427.33	444.70
427.52	374.49
427.71	411.93
427.90	355.76
428.09	362.78
428.28	395.55
428.46	458.74
428.65	440.02
428.84	423.64
429.03	444.70
429.22	442.36
429.40	449.38
429.59	369.80
429.78	437.68
429.97	421.30
430.16	404.91
430.34	409.59
430.53	437.68
430.72	355.76
430.91	451.72
431.10	423.64
431.28	433.00
431.47	374.49
431.66	428.32
431.85	430.66
432.03	372.15
432.22	482.15
432.41	447.04
432.60	425.98
432.79	402.57
432.97	444.70
433.16	437.68
433.35	430.66
433.54	449.38
433.72	472.79
433.91	388.53
434.10	397.89
434.28	383.85
434.47	449.38
434.66	482.15
434.85	454.06
435.03	402.57
435.22	423.64
435.41	395.55
435.59	463.43
435.78	395.55
435.97	376.83
436.16	428.32
436.34	486.83
436.53	430.66
436.72	447.04
436.90	517.26
437.09	456.40
437.28	423.64
437.46	397.89
437.65	367.46
437.84	482.15
438.02	482.15
438.21	440.02
438.40	414.27
438.58	327.68
438.77	411.93
438.96	397.89
439.14	430.66
439.33	418.96
439.52	386.19
439.70	402.57
439.89	390.87
440.08	402.57
440.26	379.17
440.45	433.00
440.63	444.70
440.82	411.93
441.01	447.04
441.19	440.02
441.38	428.32
441.57	470.45
441.75	472.79
441.94	475.13
442.12	313.63
442.31	414.27
442.50	472.79
442.68	409.59
442.87	454.06
443.05	383.85
443.24	395.55
443.43	353.42
443.61	402.57
443.80	461.09
443.98	421.30
444.17	435.34
444.35	456.40
444.54	390.87
444.73	367.46
444.91	433.00
445.10	379.17
445.28	383.85
445.47	454.06
445.65	383.85
445.84	454.06
446.02	416.62
446.21	425.98
446.39	379.17
446.58	409.59
446.77	358.10
446.95	374.49
447.14	407.25
447.32	397.89
447.51	416.62
447.69	395.55
447.88	425.98
448.06	477.47
448.25	414.27
448.43	416.62
448.62	425.98
448.80	402.57
448.99	411.93
449.17	475.13
449.36	430.66
449.54	489.17
449.73	440.02
449.91	435.34
450.10	346.40
450.28	456.40
450.46	402.57
450.65	348.74
450.83	428.32
451.02	358.10
451.20	388.53
451.39	411.93
451.57	414.27
451.76	425.98
451.94	393.21
452.13	418.96
452.31	411.93
452.49	358.10
452.68	400.23
452.86	472.79
453.05	437.68
453.23	390.87
453.42	435.34
453.60	463.43
453.78	381.51
453.97	425.98
454.15	418.96
454.34	386.19
454.52	337.04
454.70	484.49
454.89	435.34
455.07	348.74
455.26	388.53
455.44	433.00
455.62	435.34
455.81	311.29
455.99	395.55
456.17	353.42
456.36	461.09
456.54	418.96
456.73	346.40
456.91	367.46
457.09	374.49
457.28	414.27
457.46	372.15
457.64	437.68
457.83	470.45
458.01	421.30
458.19	393.21
458.38	414.27
458.56	390.87
458.74	369.80
458.93	362.78
459.11	458.74
459.29	425.98
459.48	454.06
459.66	512.58
459.84	519.60
460.03	489.17
460.21	433.00
460.39	362.78
460.57	395.55
460.76	416.62
460.94	425.98
461.12	428.32
461.31	470.45
461.49	402.57
461.67	395.55
461.85	433.00
462.04	421.30
462.22	786.42
462.40	449.38
462.59	402.57
462.77	475.13
462.95	451.72
463.13	376.83
463.32	411.93
463.50	383.85
463.68	404.91
463.86	376.83
464.05	367.46
464.23	369.80
464.41	383.85
464.59	409.59
464.78	348.74
464.96	390.87
465.14	461.09
465.32	437.68
465.50	379.17
465.69	477.47
465.87	414.27
466.05	489.17
466.23	388.53
466.41	428.32
466.60	315.97
466.78	463.43
466.96	440.02
467.14	472.79
467.32	416.62
467.51	498.53
467.69	437.68
467.87	444.70
468.05	376.83
468.23	447.04
468.41	442.36
468.60	393.21
468.78	447.04
468.96	449.38
469.14	409.59
469.32	423.64
469.50	330.02
469.69	402.57
469.87	421.30
470.05	418.96
470.23	421.30
470.41	470.45
470.59	409.59
470.77	416.62
470.95	423.64
471.14	437.68
471.32	395.55
471.50	365.12
471.68	449.38
471.86	458.74
472.04	421.30
472.22	428.32
472.40	397.89
472.58	400.23
472.77	311.29
472.95	430.66
473.13	379.17
473.31	447.04
473.49	414.27
473.67	386.19
473.85	423.64
474.03	458.74
474.21	393.21
474.39	418.96
474.57	358.10
474.75	367.46
474.93	454.06
475.12	437.68
475.30	477.47
475.48	428.32
475.66	402.57
475.84	374.49
476.02	435.34
476.20	404.91
476.38	425.98
476.56	465.77
476.74	430.66
476.92	423.64
477.10	404.91
477.28	425.98
477.46	435.34
477.64	430.66
477.82	397.89
478.00	425.98
478.18	435.34
478.36	407.25
478.54	362.78
478.72	407.25
478.90	437.68
479.08	470.45
479.26	418.96
479.44	440.02
479.62	383.85
479.80	395.55
479.98	418.96
480.16	430.66
480.34	489.17
480.52	404.91
480.70	433.00
480.88	484.49
481.06	421.30
481.24	475.13
481.41	472.79
481.59	404.91
481.77	440.02
481.95	496.19
482.13	423.64
482.31	444.70
482.49	456.40
482.67	430.66
482.85	421.30
483.03	402.57
483.21	451.72
483.39	433.00
483.57	461.09
483.74	458.74
483.92	463.43
484.10	430.66
484.28	421.30
484.46	482.15
484.64	365.12
484.82	470.45
485.00	428.32
485.18	451.72
485.35	381.51
485.53	428.32
485.71	390.87
485.89	430.66
486.07	435.34
486.25	395.55
486.43	454.06
486.61	393.21
486.78	416.62
486.96	442.36
487.14	440.02
487.32	381.51
487.50	428.32
487.68	404.91
487.85	386.19
488.03	505.56
488.21	465.77
488.39	416.62
488.57	383.85
488.75	472.79
488.92	449.38
489.10	388.53
489.28	440.02
489.46	358.10
489.64	416.62
489.81	451.72
489.99	390.87
490.17	444.70
490.35	447.04
490.53	411.93
490.70	369.80
490.88	435.34
491.06	416.62
491.24	294.91
491.41	433.00
491.59	409.59
491.77	400.23
491.95	337.04
492.13	433.00
492.30	341.72
492.48	379.17
492.66	425.98
492.84	369.80
493.01	332.36
493.19	421.30
493.37	400.23
493.54	337.04
493.72	456.40
493.90	425.98
494.08	390.87
494.25	393.21
494.43	334.70
494.61	468.11
494.79	458.74
494.96	365.12
495.14	463.43
495.32	409.59
495.49	465.77
495.67	376.83
495.85	334.70
496.02	447.04
496.20	407.25
496.38	458.74
496.55	409.59
496.73	454.06
496.91	437.68
497.09	472.79
497.26	437.68
497.44	414.27
497.62	411.93
497.79	404.91
497.97	407.25
498.14	395.55
498.32	390.87
498.50	519.60
498.67	444.70
498.85	351.08
499.03	454.06
499.20	358.10
499.38	351.08
499.56	423.64
499.73	461.09
499.91	442.36
500.08	442.36
500.26	400.23
500.44	414.27
500.61	451.72
500.79	430.66
500.97	421.30
501.14	418.96
501.32	388.53
501.49	447.04
501.67	404.91
501.84	409.59
502.02	421.30
502.20	458.74
502.37	381.51
502.55	390.87
502.72	341.72
502.90	402.57
503.07	388.53
503.25	428.32
503.43	468.11
503.60	433.00
503.78	456.40
503.95	470.45
504.13	456.40
504.30	465.77
504.48	414.27
504.65	449.38
504.83	409.59
505.01	397.89
505.18	381.51
505.36	411.93
505.53	465.77
505.71	388.53
505.88	404.91
506.06	351.08
506.23	430.66
506.41	372.15
506.58	418.96
506.76	437.68
506.93	517.26
507.11	447.04
507.28	451.72
507.46	456.40
507.63	550.03
507.81	372.15
507.98	376.83
508.16	414.27
508.33	388.53
508.50	444.70
508.68	414.27
508.85	369.80
509.03	379.17
509.20	402.57
509.38	388.53
509.55	383.85
509.73	463.43
509.90	428.32
510.08	444.70
510.25	484.49
510.42	461.09
510.60	383.85
510.77	376.83
510.95	407.25
511.12	421.30
511.30	440.02
511.47	414.27
511.64	463.43
511.82	433.00
511.99	409.59
512.17	402.57
512.34	374.49
512.51	404.91
512.69	442.36
512.86	425.98
513.04	428.32
513.21	376.83
513.38	447.04
513.56	395.55
513.73	374.49
513.90	390.87
514.08	449.38
514.25	442.36
514.43	423.64
514.60	390.87
514.77	416.62
514.95	423.64
515.12	468.11
515.29	421.30
515.47	521.94
515.64	470.45
515.81	372.15
515.99	465.77
516.16	327.68
516.33	472.79
516.51	454.06
516.68	449.38
516.85	407.25
517.03	477.47
517.20	381.51
517.37	482.15
517.54	440.02
517.72	435.34
517.89	407.25
518.06	344.06
518.24	451.72
518.41	479.81
518.58	482.15
518.75	372.15
518.93	388.53
519.10	355.76
519.27	393.21
519.45	402.57
519.62	456.40
519.79	409.59
519.96	456.40
520.14	465.77
520.31	421.30
520.48	407.25
520.65	393.21
520.83	437.68
521.00	395.55
521.17	423.64
521.34	393.21
521.52	472.79
521.69	344.06
521.86	461.09
522.03	402.57
522.20	423.64
522.38	477.47
522.55	414.27
522.72	393.21
522.89	440.02
523.07	528.96
523.24	421.30
523.41	346.40
523.58	411.93
523.75	449.38
523.92	444.70
524.10	390.87
524.27	390.87
524.44	376.83
524.61	369.80
524.78	400.23
524.96	402.57
525.13	346.40
525.30	381.51
525.47	444.70
525.64	423.64
525.81	440.02
525.98	442.36
526.16	449.38
526.33	444.70
526.50	402.57
526.67	437.68
526.84	425.98
527.01	407.25
527.18	416.62
527.36	397.89
527.53	388.53
527.70	407.25
527.87	400.23
528.04	353.42
528.21	482.15
528.38	414.27
528.55	395.55
528.72	423.64
528.89	421.30
529.07	416.62
529.24	355.76
529.41	418.96
529.58	400.23
529.75	407.25
529.92	435.34
530.09	461.09
530.26	468.11
530.43	374.49
530.60	313.63
530.77	416.62
530.94	442.36
531.11	393.21
531.28	388.53
531.46	404.91
531.63	458.74
531.80	409.59
531.97	381.51
532.14	381.51
532.31	397.89
532.48	468.11
532.65	402.57
532.82	395.55
532.99	411.93
533.16	358.10
533.33	428.32
533.50	421.30
533.67	404.91
533.84	362.78
534.01	444.70
534.18	451.72
534.35	395.55
534.52	421.30
534.69	418.96
534.86	397.89
535.03	430.66
535.20	437.68
535.37	421.30
535.54	416.62
535.71	472.79
535.88	425.98
536.05	421.30
536.22	395.55
536.38	414.27
536.55	451.72
536.72	428.32
536.89	456.40
537.06	411.93
537.23	440.02
537.40	386.19
537.57	395.55
537.74	454.06
537.91	470.45
538.08	409.59
538.25	437.68
538.42	489.17
538.59	386.19
538.75	402.57
538.92	386.19
539.09	489.17
539.26	409.59
539.43	425.98
539.60	496.19
539.77	421.30
539.94	383.85
540.11	351.08
540.28	463.43
540.44	425.98
540.61	414.27
540.78	428.32
540.95	369.80
541.12	425.98
541.29	381.51
541.46	393.21
541.62	374.49
541.79	425.98
541.96	346.40
542.13	484.49
542.30	416.62
542.47	477.47
542.63	372.15
542.80	404.91
542.97	449.38
543.14	458.74
543.31	421.30
543.48	430.66
543.64	482.15
543.81	390.87
543.98	421.30
544.15	360.44
544.32	404.91
544.48	425.98
544.65	510.24
544.82	458.74
544.99	442.36
545.16	463.43
545.32	416.62
545.49	411.93
545.66	421.30
545.83	418.96
546.00	428.32
546.16	409.59
546.33	407.25
546.50	428.32
546.67	500.87
546.83	402.57
547.00	404.91
547.17	416.62
547.34	367.46
547.50	423.64
547.67	491.51
547.84	390.87
548.00	411.93
548.17	409.59
548.34	369.80
548.51	388.53
548.67	456.40
548.84	400.23
549.01	416.62
549.18	407.25
549.34	437.68
549.51	374.49
549.68	433.00
549.84	428.32
550.01	367.46
550.18	479.81
550.34	465.77
550.51	404.91
550.68	418.96
550.84	400.23
551.01	381.51
551.18	407.25
551.34	430.66
551.51	365.12
551.68	414.27
551.84	379.17
552.01	400.23
552.18	447.04
552.34	468.11
552.51	423.64
552.68	383.85
552.84	440.02
553.01	423.64
553.18	440.02
553.34	372.15
553.51	411.93
553.67	351.08
553.84	423.64
554.01	416.62
554.17	465.77
554.34	449.38
554.51	454.06
554.67	374.49
554.84	475.13
555.00	386.19
555.17	465.77
555.33	407.25
555.50	440.02
555.67	454.06
555.83	407.25
556.00	381.51
556.16	489.17
556.33	433.00
556.50	425.98
556.66	409.59
556.83	423.64
556.99	411.93
557.16	428.32
557.32	397.89
557.49	461.09
557.65	437.68
557.82	423.64
557.98	433.00
558.15	351.08
558.32	402.57
558.48	404.91
558.65	397.89
558.81	468.11
558.98	411.93
559.14	451.72
559.31	400.23
559.47	472.79
559.64	327.68
559.80	400.23
559.97	358.10
560.13	451.72
560.30	437.68
560.46	407.25
560.63	465.77
560.79	409.59
560.96	435.34
561.12	430.66
561.29	407.25
561.45	428.32
561.61	411.93
561.78	550.03
561.94	454.06
562.11	505.56
562.27	404.91
562.44	468.11
562.60	411.93
562.77	386.19
562.93	444.70
563.10	397.89
563.26	435.34
563.42	465.77
563.59	435.34
563.75	393.21
563.92	409.59
564.08	447.04
564.24	437.68
564.41	444.70
564.57	447.04
564.74	454.06
564.90	500.87
565.07	411.93
565.23	456.40
565.39	442.36
565.56	400.23
565.72	437.68
565.88	400.23
566.05	395.55
566.21	376.83
566.38	433.00
566.54	416.62
566.70	454.06
566.87	411.93
567.03	414.27
567.19	416.62
567.36	425.98
567.52	404.91
567.68	468.11
567.85	376.83
568.01	421.30
568.17	374.49
568.34	507.90
568.50	475.13
568.66	369.80
568.83	451.72
568.99	348.74
569.15	498.53
569.32	444.70
569.48	381.51
569.64	358.10
569.81	383.85
569.97	339.38
570.13	397.89
570.30	435.34
570.46	402.57
570.62	456.40
570.78	381.51
570.95	404.91
571.11	454.06
571.27	386.19
571.43	388.53
571.60	390.87
571.76	360.44
571.92	416.62
572.09	379.17
572.25	411.93
572.41	351.08
572.57	400.23
572.74	435.34
572.90	465.77
573.06	402.57
573.22	404.91
573.38	500.87
573.55	440.02
573.71	479.81
573.87	386.19
574.03	435.34
574.20	430.66
574.36	447.04
574.52	386.19
574.68	451.72
574.84	379.17
575.01	433.00
575.17	477.47
575.33	451.72
575.49	409.59
575.65	437.68
575.82	472.79
575.98	409.59
576.14	440.02
576.30	390.87
576.46	407.25
576.62	447.04
576.79	430.66
576.95	472.79
577.11	505.56
577.27	414.27
577.43	425.98
577.59	484.49
577.75	454.06
577.92	379.17
578.08	409.59
578.24	404.91
578.40	489.17
578.56	423.64
578.72	393.21
578.88	393.21
579.04	437.68
579.21	397.89
579.37	444.70
579.53	416.62
579.69	470.45
579.85	454.06
580.01	402.57
580.17	449.38
580.33	397.89
580.49	479.81
580.65	418.96
580.82	430.66
580.98	397.89
581.14	444.70
581.30	397.89
581.46	430.66
581.62	425.98
581.78	433.00
581.94	428.32
582.10	404.91
582.26	414.27
582.42	430.66
582.58	381.51
582.74	360.44
582.90	386.19
583.06	447.04
583.22	468.11
583.38	404.91
583.54	379.17
583.70	475.13
583.86	388.53
584.02	425.98
584.18	435.34
584.34	409.59
584.50	409.59
584.66	386.19
584.82	379.17
584.98	383.85
585.14	395.55
585.30	418.96
585.46	444.70
585.62	348.74
585.78	409.59
585.94	447.04
586.10	362.78
586.26	468.11
586.42	521.94
586.58	447.04
586.74	456.40
586.90	409.59
587.06	463.43
587.22	402.57
587.38	454.06
587.54	411.93
587.70	470.45
587.86	416.62
588.02	451.72
588.18	409.59
588.34	454.06
588.49	388.53
588.65	395.55
588.81	379.17
588.97	407.25
589.13	416.62
589.29	418.96
589.45	465.77
589.61	433.00
589.77	454.06
589.93	428.32
590.08	461.09
590.24	479.81
590.40	437.68
590.56	435.34
590.72	468.11
590.88	425.98
591.04	444.70
591.20	423.64
591.35	416.62
591.51	442.36
591.67	372.15
591.83	390.87
591.99	395.55
592.15	440.02
592.31	416.62
592.46	430.66
592.62	456.40
592.78	397.89
592.94	369.80
593.10	416.62
593.26	365.12
593.41	449.38
593.57	484.49
593.73	397.89
593.89	409.59
594.05	397.89
594.20	393.21
594.36	416.62
594.52	397.89
594.68	425.98
594.84	458.74
594.99	440.02
595.15	390.87
595.31	381.51
595.47	428.32
595.62	468.11
595.78	447.04
595.94	479.81
596.10	458.74
596.25	393.21
596.41	472.79
596.57	423.64
596.73	376.83
596.88	365.12
597.04	386.19
597.20	297.25
597.36	383.85
597.51	400.23
597.67	458.74
597.83	379.17
597.99	388.53
598.14	372.15
598.30	484.49
598.46	418.96
598.61	444.70
598.77	421.30
598.93	465.77
599.09	458.74
599.24	402.57
599.40	416.62
599.56	407.25
599.71	428.32
599.87	428.32
600.03	451.72
600.18	430.66
600.34	381.51
600.50	425.98
600.65	367.46
600.81	414.27
600.97	421.30
601.12	428.32
601.28	418.96
601.44	458.74
601.59	393.21
601.75	362.78
601.91	376.83
602.06	414.27
602.22	512.58
602.37	440.02
602.53	489.17
602.69	411.93
602.84	372.15
603.00	346.40
603.16	440.02
603.31	416.62
603.47	421.30
603.62	416.62
603.78	430.66
603.94	484.49
604.09	425.98
604.25	423.64
604.40	440.02
604.56	449.38
604.71	397.89
604.87	369.80
605.03	400.23
605.18	435.34
605.34	461.09
605.49	404.91
605.65	442.36
605.80	440.02
605.96	334.70
606.12	409.59
606.27	386.19
606.43	407.25
606.58	433.00
606.74	444.70
606.89	346.40
607.05	386.19
607.20	400.23
607.36	416.62
607.51	388.53
607.67	447.04
607.82	484.49
607.98	463.43
608.13	435.34
608.29	369.80
608.44	390.87
608.60	430.66
608.75	437.68
608.91	322.99
609.06	418.96
609.22	456.40
609.37	402.57
609.53	348.74
609.68	381.51
609.84	428.32
609.99	397.89
610.15	390.87
