SpectraSuite Data File
++++++++++++++++++++++++++++++++++++
Date: Fri Oct 25 12:10:30 EDT 2013
User: price-jones
Dark Spectrum Present: No
Reference Spectrum Present: No
Number of Sampled Component Spectra: 1
Spectrometers: USB2+H05261
Integration Time (usec): 100000 (USB2+H05261)
Spectra Averaged: 1 (USB2+H05261)
Boxcar Smoothing: 0 (USB2+H05261)
Correct for Electrical Dark: No (USB2+H05261)
Strobe/Lamp Enabled: No (USB2+H05261)
Correct for Detector Non-linearity: No (USB2+H05261)
Correct for Stray Light: No (USB2+H05261)
Number of Pixels in Processed Spectrum: 2048
>>>>>Begin Processed Spectral Data<<<<<
365.73	341.72
365.92	341.72
366.12	341.72
366.32	322.99
366.52	234.05
366.72	217.67
366.91	229.37
367.11	238.73
367.31	255.12
367.51	269.16
367.70	224.69
367.90	210.65
368.10	184.90
368.30	184.90
368.49	301.93
368.69	278.52
368.89	280.86
369.09	276.18
369.28	276.18
369.48	322.99
369.68	283.20
369.87	290.23
370.07	339.38
370.27	379.17
370.47	341.72
370.66	262.14
370.86	271.50
371.06	287.89
371.25	411.93
371.45	411.93
371.65	423.64
371.84	358.10
372.04	348.74
372.24	327.68
372.44	395.55
372.63	374.49
372.83	381.51
373.03	414.27
373.22	433.00
373.42	407.25
373.62	428.32
373.81	479.81
374.01	397.89
374.21	411.93
374.40	334.70
374.60	491.51
374.79	423.64
374.99	486.83
375.19	425.98
375.38	440.02
375.58	444.70
375.78	395.55
375.97	400.23
376.17	447.04
376.37	421.30
376.56	381.51
376.76	437.68
376.95	341.72
377.15	433.00
377.35	454.06
377.54	409.59
377.74	365.12
377.93	355.76
378.13	416.62
378.33	365.12
378.52	388.53
378.72	433.00
378.91	407.25
379.11	435.34
379.31	372.15
379.50	393.21
379.70	411.93
379.89	409.59
380.09	358.10
380.28	362.78
380.48	421.30
380.68	379.17
380.87	421.30
381.07	435.34
381.26	409.59
381.46	411.93
381.65	435.34
381.85	383.85
382.04	414.27
382.24	390.87
382.43	468.11
382.63	433.00
382.83	383.85
383.02	388.53
383.22	444.70
383.41	365.12
383.61	409.59
383.80	449.38
384.00	346.40
384.19	327.68
384.39	400.23
384.58	341.72
384.78	451.72
384.97	390.87
385.17	381.51
385.36	456.40
385.56	369.80
385.75	355.76
385.95	397.89
386.14	402.57
386.34	367.46
386.53	444.70
386.72	383.85
386.92	433.00
387.11	425.98
387.31	421.30
387.50	374.49
387.70	374.49
387.89	362.78
388.09	388.53
388.28	360.44
388.48	362.78
388.67	402.57
388.86	407.25
389.06	416.62
389.25	433.00
389.45	430.66
389.64	358.10
389.84	447.04
390.03	430.66
390.22	313.63
390.42	348.74
390.61	379.17
390.81	369.80
391.00	423.64
391.19	416.62
391.39	404.91
391.58	332.36
391.78	421.30
391.97	402.57
392.16	383.85
392.36	376.83
392.55	463.43
392.75	416.62
392.94	404.91
393.13	444.70
393.33	341.72
393.52	390.87
393.71	433.00
393.91	472.79
394.10	383.85
394.29	437.68
394.49	390.87
394.68	411.93
394.88	353.42
395.07	430.66
395.26	320.65
395.46	360.44
395.65	444.70
395.84	421.30
396.04	477.47
396.23	482.15
396.42	472.79
396.62	416.62
396.81	365.12
397.00	418.96
397.19	475.13
397.39	456.40
397.58	390.87
397.77	430.66
397.97	461.09
398.16	409.59
398.35	390.87
398.55	428.32
398.74	365.12
398.93	435.34
399.12	430.66
399.32	418.96
399.51	407.25
399.70	355.76
399.90	402.57
400.09	386.19
400.28	433.00
400.47	369.80
400.67	416.62
400.86	353.42
401.05	355.76
401.24	440.02
401.44	379.17
401.63	381.51
401.82	414.27
402.01	395.55
402.21	416.62
402.40	451.72
402.59	358.10
402.78	472.79
402.97	456.40
403.17	390.87
403.36	362.78
403.55	468.11
403.74	404.91
403.93	374.49
404.13	416.62
404.32	437.68
404.51	372.15
404.70	341.72
404.89	386.19
405.09	447.04
405.28	440.02
405.47	411.93
405.66	418.96
405.85	381.51
406.05	437.68
406.24	395.55
406.43	360.44
406.62	437.68
406.81	418.96
407.00	444.70
407.20	400.23
407.39	500.87
407.58	442.36
407.77	332.36
407.96	430.66
408.15	388.53
408.34	358.10
408.54	386.19
408.73	414.27
408.92	435.34
409.11	365.12
409.30	425.98
409.49	376.83
409.68	402.57
409.87	393.21
410.07	411.93
410.26	409.59
410.45	404.91
410.64	372.15
410.83	369.80
411.02	397.89
411.21	428.32
411.40	411.93
411.59	374.49
411.78	416.62
411.98	348.74
412.17	365.12
412.36	418.96
412.55	458.74
412.74	425.98
412.93	388.53
413.12	465.77
413.31	400.23
413.50	435.34
413.69	379.17
413.88	421.30
414.07	496.19
414.26	421.30
414.45	414.27
414.64	372.15
414.83	402.57
415.02	435.34
415.22	409.59
415.41	433.00
415.60	454.06
415.79	400.23
415.98	369.80
416.17	386.19
416.36	407.25
416.55	362.78
416.74	369.80
416.93	407.25
417.12	444.70
417.31	395.55
417.50	454.06
417.69	461.09
417.88	421.30
418.07	327.68
418.26	456.40
418.45	416.62
418.64	444.70
418.83	442.36
419.02	461.09
419.21	435.34
419.39	409.59
419.58	416.62
419.77	386.19
419.96	416.62
420.15	484.49
420.34	369.80
420.53	416.62
420.72	430.66
420.91	348.74
421.10	376.83
421.29	372.15
421.48	388.53
421.67	390.87
421.86	374.49
422.05	402.57
422.24	430.66
422.43	411.93
422.61	425.98
422.80	337.04
422.99	411.93
423.18	402.57
423.37	461.09
423.56	397.89
423.75	379.17
423.94	374.49
424.13	423.64
424.32	393.21
424.50	447.04
424.69	451.72
424.88	451.72
425.07	430.66
425.26	376.83
425.45	393.21
425.64	425.98
425.83	484.49
426.01	435.34
426.20	442.36
426.39	449.38
426.58	409.59
426.77	437.68
426.96	465.77
427.15	346.40
427.33	402.57
427.52	374.49
427.71	372.15
427.90	404.91
428.09	411.93
428.28	353.42
428.46	437.68
428.65	505.56
428.84	442.36
429.03	470.45
429.22	425.98
429.40	360.44
429.59	449.38
429.78	414.27
429.97	376.83
430.16	425.98
430.34	440.02
430.53	463.43
430.72	423.64
430.91	472.79
431.10	376.83
431.28	423.64
431.47	358.10
431.66	407.25
431.85	372.15
432.03	482.15
432.22	500.87
432.41	402.57
432.60	376.83
432.79	414.27
432.97	440.02
433.16	435.34
433.35	416.62
433.54	402.57
433.72	433.00
433.91	468.11
434.10	393.21
434.28	475.13
434.47	374.49
434.66	454.06
434.85	386.19
435.03	393.21
435.22	465.77
435.41	484.49
435.59	447.04
435.78	437.68
435.97	444.70
436.16	477.47
436.34	425.98
436.53	369.80
436.72	376.83
436.90	472.79
437.09	433.00
437.28	397.89
437.46	379.17
437.65	444.70
437.84	411.93
438.02	402.57
438.21	463.43
438.40	475.13
438.58	407.25
438.77	451.72
438.96	479.81
439.14	433.00
439.33	458.74
439.52	397.89
439.70	454.06
439.89	458.74
440.08	435.34
440.26	496.19
440.45	468.11
440.63	418.96
440.82	372.15
441.01	393.21
441.19	400.23
441.38	311.29
441.57	425.98
441.75	458.74
441.94	505.56
442.12	395.55
442.31	397.89
442.50	458.74
442.68	454.06
442.87	409.59
443.05	376.83
443.24	397.89
443.43	381.51
443.61	402.57
443.80	442.36
443.98	411.93
444.17	376.83
444.35	437.68
444.54	451.72
444.73	383.85
444.91	486.83
445.10	433.00
445.28	425.98
445.47	430.66
445.65	435.34
445.84	442.36
446.02	374.49
446.21	430.66
446.39	383.85
446.58	397.89
446.77	402.57
446.95	421.30
447.14	379.17
447.32	416.62
447.51	472.79
447.69	411.93
447.88	449.38
448.06	388.53
448.25	386.19
448.43	421.30
448.62	414.27
448.80	428.32
448.99	433.00
449.17	381.51
449.36	393.21
449.54	369.80
449.73	465.77
449.91	402.57
450.10	447.04
450.28	404.91
450.46	454.06
450.65	400.23
450.83	411.93
451.02	381.51
451.20	484.49
451.39	390.87
451.57	421.30
451.76	430.66
451.94	393.21
452.13	400.23
452.31	428.32
452.49	367.46
452.68	414.27
452.86	425.98
453.05	496.19
453.23	475.13
453.42	367.46
453.60	465.77
453.78	362.78
453.97	397.89
454.15	330.02
454.34	383.85
454.52	355.76
454.70	444.70
454.89	381.51
455.07	437.68
455.26	414.27
455.44	451.72
455.62	325.33
455.81	470.45
455.99	435.34
456.17	430.66
456.36	447.04
456.54	404.91
456.73	376.83
456.91	365.12
457.09	444.70
457.28	421.30
457.46	428.32
457.64	440.02
457.83	416.62
458.01	390.87
458.19	486.83
458.38	447.04
458.56	414.27
458.74	334.70
458.93	416.62
459.11	416.62
459.29	393.21
459.48	430.66
459.66	444.70
459.84	397.89
460.03	512.58
460.21	409.59
460.39	299.59
460.57	458.74
460.76	496.19
460.94	397.89
461.12	475.13
461.31	451.72
461.49	311.29
461.67	376.83
461.85	425.98
462.04	416.62
462.22	798.12
462.40	360.44
462.59	390.87
462.77	379.17
462.95	379.17
463.13	437.68
463.32	442.36
463.50	447.04
463.68	400.23
463.86	334.70
464.05	393.21
464.23	386.19
464.41	500.87
464.59	376.83
464.78	400.23
464.96	388.53
465.14	435.34
465.32	381.51
465.50	479.81
465.69	463.43
465.87	435.34
466.05	442.36
466.23	416.62
466.41	379.17
466.60	404.91
466.78	451.72
466.96	447.04
467.14	423.64
467.32	390.87
467.51	393.21
467.69	484.49
467.87	463.43
468.05	451.72
468.23	435.34
468.41	484.49
468.60	376.83
468.78	435.34
468.96	442.36
469.14	451.72
469.32	346.40
469.50	379.17
469.69	372.15
469.87	430.66
470.05	442.36
470.23	456.40
470.41	423.64
470.59	404.91
470.77	430.66
470.95	393.21
471.14	351.08
471.32	423.64
471.50	440.02
471.68	416.62
471.86	407.25
472.04	376.83
472.22	400.23
472.40	358.10
472.58	383.85
472.77	388.53
472.95	388.53
473.13	444.70
473.31	390.87
473.49	470.45
473.67	402.57
473.85	458.74
474.03	428.32
474.21	376.83
474.39	360.44
474.57	437.68
474.75	421.30
474.93	442.36
475.12	383.85
475.30	463.43
475.48	369.80
475.66	428.32
475.84	388.53
476.02	362.78
476.20	358.10
476.38	397.89
476.56	376.83
476.74	381.51
476.92	440.02
477.10	456.40
477.28	472.79
477.46	353.42
477.64	435.34
477.82	388.53
478.00	477.47
478.18	351.08
478.36	428.32
478.54	423.64
478.72	381.51
478.90	484.49
479.08	468.11
479.26	393.21
479.44	411.93
479.62	365.12
479.80	353.42
479.98	454.06
480.16	437.68
480.34	362.78
480.52	372.15
480.70	390.87
480.88	372.15
481.06	414.27
481.24	449.38
481.41	353.42
481.59	449.38
481.77	402.57
481.95	503.22
482.13	479.81
482.31	388.53
482.49	400.23
482.67	367.46
482.85	454.06
483.03	454.06
483.21	306.61
483.39	423.64
483.57	414.27
483.74	482.15
483.92	423.64
484.10	400.23
484.28	425.98
484.46	416.62
484.64	397.89
484.82	367.46
485.00	374.49
485.18	425.98
485.35	425.98
485.53	304.27
485.71	397.89
485.89	353.42
486.07	435.34
486.25	496.19
486.43	369.80
486.61	430.66
486.78	493.85
486.96	353.42
487.14	376.83
487.32	393.21
487.50	369.80
487.68	454.06
487.85	437.68
488.03	411.93
488.21	390.87
488.39	500.87
488.57	402.57
488.75	393.21
488.92	498.53
489.10	388.53
489.28	404.91
489.46	402.57
489.64	388.53
489.81	430.66
489.99	383.85
490.17	409.59
490.35	512.58
490.53	416.62
490.70	332.36
490.88	465.77
491.06	374.49
491.24	395.55
491.41	447.04
491.59	395.55
491.77	386.19
491.95	416.62
492.13	369.80
492.30	358.10
492.48	416.62
492.66	418.96
492.84	411.93
493.01	449.38
493.19	414.27
493.37	433.00
493.54	425.98
493.72	402.57
493.90	423.64
494.08	383.85
494.25	397.89
494.43	430.66
494.61	379.17
494.79	423.64
494.96	440.02
495.14	444.70
495.32	458.74
495.49	433.00
495.67	458.74
495.85	435.34
496.02	430.66
496.20	479.81
496.38	367.46
496.55	421.30
496.73	442.36
496.91	449.38
497.09	393.21
497.26	454.06
497.44	416.62
497.62	484.49
497.79	421.30
497.97	390.87
498.14	341.72
498.32	440.02
498.50	451.72
498.67	390.87
498.85	416.62
499.03	386.19
499.20	409.59
499.38	428.32
499.56	435.34
499.73	423.64
499.91	423.64
500.08	451.72
500.26	374.49
500.44	365.12
500.61	351.08
500.79	440.02
500.97	447.04
501.14	430.66
501.32	400.23
501.49	407.25
501.67	428.32
501.84	346.40
502.02	383.85
502.20	421.30
502.37	395.55
502.55	411.93
502.72	437.68
502.90	425.98
503.07	348.74
503.25	351.08
503.43	423.64
503.60	409.59
503.78	435.34
503.95	423.64
504.13	416.62
504.30	461.09
504.48	402.57
504.65	414.27
504.83	393.21
505.01	376.83
505.18	395.55
505.36	379.17
505.53	311.29
505.71	416.62
505.88	360.44
506.06	365.12
506.23	374.49
506.41	435.34
506.58	454.06
506.76	440.02
506.93	496.19
507.11	418.96
507.28	369.80
507.46	372.15
507.63	430.66
507.81	465.77
507.98	407.25
508.16	402.57
508.33	416.62
508.50	468.11
508.68	397.89
508.85	348.74
509.03	503.22
509.20	449.38
509.38	433.00
509.55	425.98
509.73	402.57
509.90	475.13
510.08	461.09
510.25	454.06
510.42	416.62
510.60	444.70
510.77	456.40
510.95	407.25
511.12	379.17
511.30	397.89
511.47	397.89
511.64	372.15
511.82	418.96
511.99	358.10
512.17	400.23
512.34	407.25
512.51	458.74
512.69	360.44
512.86	468.11
513.04	425.98
513.21	360.44
513.38	383.85
513.56	458.74
513.73	458.74
513.90	411.93
514.08	437.68
514.25	400.23
514.43	355.76
514.60	400.23
514.77	491.51
514.95	461.09
515.12	393.21
515.29	404.91
515.47	449.38
515.64	477.47
515.81	395.55
515.99	451.72
516.16	414.27
516.33	521.94
516.51	456.40
516.68	440.02
516.85	402.57
517.03	475.13
517.20	425.98
517.37	414.27
517.54	379.17
517.72	393.21
517.89	418.96
518.06	379.17
518.24	425.98
518.41	447.04
518.58	409.59
518.75	449.38
518.93	381.51
519.10	393.21
519.27	402.57
519.45	461.09
519.62	402.57
519.79	397.89
519.96	416.62
520.14	465.77
520.31	451.72
520.48	372.15
520.65	468.11
520.83	425.98
521.00	353.42
521.17	458.74
521.34	407.25
521.52	433.00
521.69	386.19
521.86	418.96
522.03	425.98
522.20	400.23
522.38	433.00
522.55	404.91
522.72	425.98
522.89	372.15
523.07	449.38
523.24	430.66
523.41	404.91
523.58	444.70
523.75	442.36
523.92	404.91
524.10	496.19
524.27	400.23
524.44	388.53
524.61	418.96
524.78	425.98
524.96	425.98
525.13	454.06
525.30	440.02
525.47	395.55
525.64	414.27
525.81	493.85
525.98	390.87
526.16	404.91
526.33	414.27
526.50	411.93
526.67	451.72
526.84	407.25
527.01	451.72
527.18	421.30
527.36	379.17
527.53	440.02
527.70	442.36
527.87	447.04
528.04	414.27
528.21	463.43
528.38	442.36
528.55	458.74
528.72	376.83
528.89	484.49
529.07	449.38
529.24	402.57
529.41	386.19
529.58	444.70
529.75	428.32
529.92	402.57
530.09	404.91
530.26	454.06
530.43	421.30
530.60	433.00
530.77	395.55
530.94	440.02
531.11	442.36
531.28	414.27
531.46	372.15
531.63	430.66
531.80	425.98
531.97	353.42
532.14	355.76
532.31	421.30
532.48	404.91
532.65	379.17
532.82	451.72
532.99	404.91
533.16	376.83
533.33	465.77
533.50	353.42
533.67	402.57
533.84	449.38
534.01	535.98
534.18	465.77
534.35	433.00
534.52	388.53
534.69	397.89
534.86	404.91
535.03	372.15
535.20	411.93
535.37	477.47
535.54	383.85
535.71	475.13
535.88	472.79
536.05	393.21
536.22	383.85
536.38	400.23
536.55	421.30
536.72	425.98
536.89	440.02
537.06	383.85
537.23	447.04
537.40	369.80
537.57	362.78
537.74	512.58
537.91	423.64
538.08	414.27
538.25	397.89
538.42	360.44
538.59	500.87
538.75	402.57
538.92	390.87
539.09	421.30
539.26	489.17
539.43	444.70
539.60	416.62
539.77	402.57
539.94	468.11
540.11	388.53
540.28	416.62
540.44	472.79
540.61	353.42
540.78	442.36
540.95	376.83
541.12	386.19
541.29	425.98
541.46	454.06
541.62	421.30
541.79	416.62
541.96	503.22
542.13	463.43
542.30	416.62
542.47	442.36
542.63	433.00
542.80	369.80
542.97	461.09
543.14	409.59
543.31	470.45
543.48	465.77
543.64	449.38
543.81	372.15
543.98	395.55
544.15	355.76
544.32	390.87
544.48	411.93
544.65	388.53
544.82	381.51
544.99	435.34
545.16	484.49
545.32	425.98
545.49	463.43
545.66	456.40
545.83	381.51
546.00	435.34
546.16	383.85
546.33	423.64
546.50	367.46
546.67	400.23
546.83	411.93
547.00	388.53
547.17	444.70
547.34	461.09
547.50	421.30
547.67	355.76
547.84	425.98
548.00	409.59
548.17	442.36
548.34	425.98
548.51	390.87
548.67	388.53
548.84	416.62
549.01	393.21
549.18	458.74
549.34	472.79
549.51	479.81
549.68	498.53
549.84	372.15
550.01	315.97
550.18	423.64
550.34	465.77
550.51	430.66
550.68	472.79
550.84	444.70
551.01	440.02
551.18	383.85
551.34	411.93
551.51	395.55
551.68	355.76
551.84	379.17
552.01	379.17
552.18	435.34
552.34	440.02
552.51	416.62
552.68	451.72
552.84	416.62
553.01	437.68
553.18	482.15
553.34	444.70
553.51	416.62
553.67	454.06
553.84	423.64
554.01	395.55
554.17	421.30
554.34	425.98
554.51	421.30
554.67	383.85
554.84	458.74
555.00	416.62
555.17	355.76
555.33	433.00
555.50	374.49
555.67	400.23
555.83	376.83
556.00	435.34
556.16	477.47
556.33	440.02
556.50	451.72
556.66	411.93
556.83	402.57
556.99	353.42
557.16	381.51
557.32	395.55
557.49	496.19
557.65	397.89
557.82	407.25
557.98	447.04
558.15	339.38
558.32	423.64
558.48	470.45
558.65	409.59
558.81	447.04
558.98	418.96
559.14	348.74
559.31	454.06
559.47	472.79
559.64	465.77
559.80	444.70
559.97	404.91
560.13	393.21
560.30	435.34
560.46	388.53
560.63	458.74
560.79	482.15
560.96	463.43
561.12	421.30
561.29	411.93
561.45	440.02
561.61	472.79
561.78	566.41
561.94	374.49
562.11	404.91
562.27	374.49
562.44	383.85
562.60	360.44
562.77	386.19
562.93	442.36
563.10	470.45
563.26	447.04
563.42	463.43
563.59	444.70
563.75	414.27
563.92	400.23
564.08	465.77
564.24	449.38
564.41	456.40
564.57	360.44
564.74	454.06
564.90	456.40
565.07	461.09
565.23	454.06
565.39	404.91
565.56	430.66
565.72	402.57
565.88	383.85
566.05	444.70
566.21	409.59
566.38	407.25
566.54	367.46
566.70	437.68
566.87	383.85
567.03	341.72
567.19	435.34
567.36	428.32
567.52	407.25
567.68	411.93
567.85	428.32
568.01	388.53
568.17	411.93
568.34	421.30
568.50	442.36
568.66	369.80
568.83	498.53
568.99	465.77
569.15	472.79
569.32	411.93
569.48	393.21
569.64	486.83
569.81	442.36
569.97	400.23
570.13	449.38
570.30	411.93
570.46	407.25
570.62	376.83
570.78	444.70
570.95	360.44
571.11	465.77
571.27	421.30
571.43	395.55
571.60	421.30
571.76	372.15
571.92	404.91
572.09	425.98
572.25	421.30
572.41	418.96
572.57	379.17
572.74	395.55
572.90	435.34
573.06	447.04
573.22	383.85
573.38	484.49
573.55	402.57
573.71	442.36
573.87	341.72
574.03	402.57
574.20	414.27
574.36	479.81
574.52	397.89
574.68	355.76
574.84	390.87
575.01	451.72
575.17	444.70
575.33	454.06
575.49	477.47
575.65	440.02
575.82	383.85
575.98	458.74
576.14	456.40
576.30	458.74
576.46	418.96
576.62	461.09
576.79	386.19
576.95	409.59
577.11	362.78
577.27	463.43
577.43	416.62
577.59	447.04
577.75	430.66
577.92	451.72
578.08	416.62
578.24	376.83
578.40	397.89
578.56	418.96
578.72	498.53
578.88	447.04
579.04	433.00
579.21	468.11
579.37	447.04
579.53	493.85
579.69	435.34
579.85	367.46
580.01	416.62
580.17	365.12
580.33	393.21
580.49	341.72
580.65	383.85
580.82	397.89
580.98	442.36
581.14	425.98
581.30	404.91
581.46	447.04
581.62	400.23
581.78	468.11
581.94	404.91
582.10	421.30
582.26	409.59
582.42	404.91
582.58	442.36
582.74	423.64
582.90	465.77
583.06	409.59
583.22	383.85
583.38	372.15
583.54	411.93
583.70	451.72
583.86	414.27
584.02	365.12
584.18	463.43
584.34	418.96
584.50	435.34
584.66	433.00
584.82	397.89
584.98	456.40
585.14	463.43
585.30	414.27
585.46	454.06
585.62	454.06
585.78	463.43
585.94	440.02
586.10	449.38
586.26	425.98
586.42	470.45
586.58	348.74
586.74	388.53
586.90	440.02
587.06	475.13
587.22	433.00
587.38	486.83
587.54	472.79
587.70	456.40
587.86	421.30
588.02	390.87
588.18	451.72
588.34	449.38
588.49	428.32
588.65	414.27
588.81	454.06
588.97	346.40
589.13	374.49
589.29	374.49
589.45	458.74
589.61	390.87
589.77	379.17
589.93	402.57
590.08	416.62
590.24	374.49
590.40	428.32
590.56	456.40
590.72	400.23
590.88	388.53
591.04	472.79
591.20	409.59
591.35	423.64
591.51	390.87
591.67	376.83
591.83	435.34
591.99	458.74
592.15	507.90
592.31	330.02
592.46	393.21
592.62	416.62
592.78	395.55
592.94	393.21
593.10	418.96
593.26	325.33
593.41	386.19
593.57	369.80
593.73	465.77
593.89	486.83
594.05	411.93
594.20	447.04
594.36	433.00
594.52	383.85
594.68	449.38
594.84	465.77
594.99	386.19
595.15	482.15
595.31	512.58
595.47	500.87
595.62	423.64
595.78	367.46
595.94	433.00
596.10	449.38
596.25	461.09
596.41	430.66
596.57	355.76
596.73	355.76
596.88	393.21
597.04	390.87
597.20	386.19
597.36	376.83
597.51	451.72
597.67	344.06
597.83	383.85
597.99	470.45
598.14	421.30
598.30	477.47
598.46	358.10
598.61	461.09
598.77	362.78
598.93	390.87
599.09	418.96
599.24	411.93
599.40	346.40
599.56	362.78
599.71	409.59
599.87	379.17
600.03	409.59
600.18	465.77
600.34	444.70
600.50	451.72
600.65	372.15
600.81	440.02
600.97	449.38
601.12	425.98
601.28	514.92
601.44	386.19
601.59	451.72
601.75	425.98
601.91	440.02
602.06	414.27
602.22	496.19
602.37	411.93
602.53	444.70
602.69	472.79
602.84	409.59
603.00	437.68
603.16	407.25
603.31	397.89
603.47	456.40
603.62	390.87
603.78	461.09
603.94	400.23
604.09	372.15
604.25	402.57
604.40	489.17
604.56	372.15
604.71	444.70
604.87	358.10
605.03	449.38
605.18	456.40
605.34	367.46
605.49	332.36
605.65	369.80
605.80	404.91
605.96	416.62
606.12	400.23
606.27	425.98
606.43	418.96
606.58	493.85
606.74	461.09
606.89	367.46
607.05	447.04
607.20	425.98
607.36	416.62
607.51	418.96
607.67	451.72
607.82	423.64
607.98	433.00
608.13	381.51
608.29	360.44
608.44	339.38
608.60	454.06
608.75	507.90
608.91	442.36
609.06	430.66
609.22	437.68
609.37	390.87
609.53	353.42
609.68	383.85
609.84	346.40
609.99	381.51
610.15	393.21
