SpectraSuite Data File
++++++++++++++++++++++++++++++++++++
Date: Fri Oct 25 12:10:27 EDT 2013
User: price-jones
Dark Spectrum Present: No
Reference Spectrum Present: No
Number of Sampled Component Spectra: 1
Spectrometers: USB2+H05261
Integration Time (usec): 100000 (USB2+H05261)
Spectra Averaged: 1 (USB2+H05261)
Boxcar Smoothing: 0 (USB2+H05261)
Correct for Electrical Dark: No (USB2+H05261)
Strobe/Lamp Enabled: No (USB2+H05261)
Correct for Detector Non-linearity: No (USB2+H05261)
Correct for Stray Light: No (USB2+H05261)
Number of Pixels in Processed Spectrum: 2048
>>>>>Begin Processed Spectral Data<<<<<
365.73	362.78
365.92	362.78
366.12	362.78
366.32	259.80
366.52	262.14
366.72	271.50
366.91	262.14
367.11	245.76
367.31	234.05
367.51	266.82
367.70	257.46
367.90	266.82
368.10	180.22
368.30	255.12
368.49	224.69
368.69	166.18
368.89	318.31
369.09	238.73
369.28	231.71
369.48	264.48
369.68	259.80
369.87	292.57
370.07	266.82
370.27	404.91
370.47	351.08
370.66	390.87
370.86	297.25
371.06	383.85
371.25	423.64
371.45	379.17
371.65	379.17
371.84	395.55
372.04	376.83
372.24	442.36
372.44	351.08
372.63	386.19
372.83	428.32
373.03	379.17
373.22	421.30
373.42	423.64
373.62	320.65
373.81	472.79
374.01	444.70
374.21	386.19
374.40	325.33
374.60	374.49
374.79	393.21
374.99	437.68
375.19	423.64
375.38	442.36
375.58	423.64
375.78	407.25
375.97	440.02
376.17	440.02
376.37	421.30
376.56	440.02
376.76	442.36
376.95	444.70
377.15	388.53
377.35	477.47
377.54	365.12
377.74	435.34
377.93	418.96
378.13	414.27
378.33	376.83
378.52	425.98
378.72	447.04
378.91	482.15
379.11	435.34
379.31	358.10
379.50	390.87
379.70	425.98
379.89	472.79
380.09	351.08
380.28	376.83
380.48	449.38
380.68	332.36
380.87	400.23
381.07	379.17
381.26	524.28
381.46	355.76
381.65	435.34
381.85	411.93
382.04	379.17
382.24	351.08
382.43	334.70
382.63	418.96
382.83	383.85
383.02	402.57
383.22	388.53
383.41	369.80
383.61	397.89
383.80	402.57
384.00	372.15
384.19	390.87
384.39	376.83
384.58	390.87
384.78	386.19
384.97	423.64
385.17	421.30
385.36	404.91
385.56	479.81
385.75	355.76
385.95	437.68
386.14	421.30
386.34	470.45
386.53	411.93
386.72	397.89
386.92	395.55
387.11	407.25
387.31	390.87
387.50	386.19
387.70	393.21
387.89	339.38
388.09	463.43
388.28	376.83
388.48	355.76
388.67	409.59
388.86	381.51
389.06	332.36
389.25	463.43
389.45	414.27
389.64	337.04
389.84	388.53
390.03	369.80
390.22	397.89
390.42	330.02
390.61	353.42
390.81	404.91
391.00	372.15
391.19	381.51
391.39	318.31
391.58	400.23
391.78	458.74
391.97	472.79
392.16	393.21
392.36	397.89
392.55	367.46
392.75	482.15
392.94	416.62
393.13	418.96
393.33	374.49
393.52	386.19
393.71	416.62
393.91	440.02
394.10	409.59
394.29	386.19
394.49	376.83
394.68	468.11
394.88	458.74
395.07	376.83
395.26	383.85
395.46	411.93
395.65	376.83
395.84	435.34
396.04	489.17
396.23	423.64
396.42	418.96
396.62	425.98
396.81	404.91
397.00	381.51
397.19	414.27
397.39	400.23
397.58	435.34
397.77	425.98
397.97	442.36
398.16	379.17
398.35	397.89
398.55	409.59
398.74	437.68
398.93	397.89
399.12	381.51
399.32	507.90
399.51	458.74
399.70	393.21
399.90	470.45
400.09	423.64
400.28	409.59
400.47	390.87
400.67	418.96
400.86	465.77
401.05	465.77
401.24	381.51
401.44	409.59
401.63	449.38
401.82	404.91
402.01	404.91
402.21	470.45
402.40	456.40
402.59	376.83
402.78	433.00
402.97	423.64
403.17	486.83
403.36	421.30
403.55	440.02
403.74	372.15
403.93	367.46
404.13	458.74
404.32	416.62
404.51	414.27
404.70	393.21
404.89	346.40
405.09	409.59
405.28	437.68
405.47	381.51
405.66	346.40
405.85	416.62
406.05	437.68
406.24	447.04
406.43	407.25
406.62	348.74
406.81	465.77
407.00	463.43
407.20	320.65
407.39	486.83
407.58	397.89
407.77	407.25
407.96	404.91
408.15	433.00
408.34	428.32
408.54	411.93
408.73	430.66
408.92	418.96
409.11	339.38
409.30	404.91
409.49	393.21
409.68	440.02
409.87	444.70
410.07	367.46
410.26	454.06
410.45	423.64
410.64	344.06
410.83	475.13
411.02	451.72
411.21	390.87
411.40	386.19
411.59	411.93
411.78	397.89
411.98	402.57
412.17	421.30
412.36	430.66
412.55	393.21
412.74	449.38
412.93	374.49
413.12	397.89
413.31	489.17
413.50	414.27
413.69	463.43
413.88	503.22
414.07	381.51
414.26	369.80
414.45	402.57
414.64	437.68
414.83	458.74
415.02	440.02
415.22	423.64
415.41	369.80
415.60	397.89
415.79	402.57
415.98	482.15
416.17	372.15
416.36	416.62
416.55	374.49
416.74	411.93
416.93	423.64
417.12	397.89
417.31	388.53
417.50	360.44
417.69	390.87
417.88	400.23
418.07	407.25
418.26	397.89
418.45	477.47
418.64	437.68
418.83	486.83
419.02	372.15
419.21	360.44
419.39	428.32
419.58	423.64
419.77	440.02
419.96	344.06
420.15	388.53
420.34	456.40
420.53	444.70
420.72	390.87
420.91	358.10
421.10	465.77
421.29	409.59
421.48	369.80
421.67	430.66
421.86	428.32
422.05	386.19
422.24	376.83
422.43	437.68
422.61	449.38
422.80	425.98
422.99	360.44
423.18	423.64
423.37	404.91
423.56	440.02
423.75	454.06
423.94	360.44
424.13	393.21
424.32	376.83
424.50	395.55
424.69	393.21
424.88	397.89
425.07	416.62
425.26	428.32
425.45	442.36
425.64	458.74
425.83	472.79
426.01	414.27
426.20	383.85
426.39	353.42
426.58	463.43
426.77	414.27
426.96	425.98
427.15	383.85
427.33	348.74
427.52	402.57
427.71	393.21
427.90	449.38
428.09	418.96
428.28	395.55
428.46	442.36
428.65	393.21
428.84	409.59
429.03	477.47
429.22	430.66
429.40	404.91
429.59	435.34
429.78	416.62
429.97	421.30
430.16	358.10
430.34	470.45
430.53	355.76
430.72	454.06
430.91	463.43
431.10	355.76
431.28	393.21
431.47	456.40
431.66	428.32
431.85	367.46
432.03	421.30
432.22	479.81
432.41	397.89
432.60	461.09
432.79	409.59
432.97	409.59
433.16	449.38
433.35	465.77
433.54	449.38
433.72	388.53
433.91	425.98
434.10	400.23
434.28	428.32
434.47	414.27
434.66	472.79
434.85	393.21
435.03	379.17
435.22	440.02
435.41	479.81
435.59	435.34
435.78	395.55
435.97	423.64
436.16	451.72
436.34	411.93
436.53	442.36
436.72	407.25
436.90	505.56
437.09	416.62
437.28	449.38
437.46	423.64
437.65	372.15
437.84	397.89
438.02	482.15
438.21	482.15
438.40	411.93
438.58	461.09
438.77	381.51
438.96	451.72
439.14	337.04
439.33	435.34
439.52	400.23
439.70	425.98
439.89	456.40
440.08	376.83
440.26	367.46
440.45	444.70
440.63	437.68
440.82	388.53
441.01	306.61
441.19	369.80
441.38	376.83
441.57	416.62
441.75	374.49
441.94	442.36
442.12	447.04
442.31	437.68
442.50	365.12
442.68	360.44
442.87	402.57
443.05	428.32
443.24	449.38
443.43	454.06
443.61	454.06
443.80	353.42
443.98	411.93
444.17	402.57
444.35	456.40
444.54	369.80
444.73	369.80
444.91	444.70
445.10	388.53
445.28	456.40
445.47	451.72
445.65	437.68
445.84	418.96
446.02	449.38
446.21	327.68
446.39	409.59
446.58	435.34
446.77	362.78
446.95	400.23
447.14	367.46
447.32	479.81
447.51	390.87
447.69	351.08
447.88	402.57
448.06	407.25
448.25	444.70
448.43	440.02
448.62	362.78
448.80	458.74
448.99	374.49
449.17	449.38
449.36	402.57
449.54	442.36
449.73	341.72
449.91	407.25
450.10	397.89
450.28	454.06
450.46	411.93
450.65	428.32
450.83	458.74
451.02	388.53
451.20	472.79
451.39	397.89
451.57	379.17
451.76	346.40
451.94	372.15
452.13	358.10
452.31	435.34
452.49	444.70
452.68	376.83
452.86	411.93
453.05	484.49
453.23	472.79
453.42	470.45
453.60	330.02
453.78	397.89
453.97	360.44
454.15	372.15
454.34	383.85
454.52	447.04
454.70	440.02
454.89	416.62
455.07	369.80
455.26	461.09
455.44	376.83
455.62	468.11
455.81	465.77
455.99	425.98
456.17	334.70
456.36	477.47
456.54	376.83
456.73	465.77
456.91	409.59
457.09	402.57
457.28	400.23
457.46	395.55
457.64	400.23
457.83	395.55
458.01	397.89
458.19	395.55
458.38	416.62
458.56	451.72
458.74	379.17
458.93	430.66
459.11	404.91
459.29	397.89
459.48	402.57
459.66	416.62
459.84	442.36
460.03	425.98
460.21	397.89
460.39	486.83
460.57	456.40
460.76	444.70
460.94	444.70
461.12	411.93
461.31	409.59
461.49	397.89
461.67	519.60
461.85	402.57
462.04	390.87
462.22	744.29
462.40	482.15
462.59	400.23
462.77	416.62
462.95	402.57
463.13	386.19
463.32	444.70
463.50	423.64
463.68	425.98
463.86	407.25
464.05	369.80
464.23	475.13
464.41	437.68
464.59	409.59
464.78	372.15
464.96	400.23
465.14	421.30
465.32	454.06
465.50	472.79
465.69	407.25
465.87	386.19
466.05	437.68
466.23	397.89
466.41	414.27
466.60	353.42
466.78	400.23
466.96	421.30
467.14	390.87
467.32	416.62
467.51	383.85
467.69	369.80
467.87	477.47
468.05	418.96
468.23	402.57
468.41	360.44
468.60	470.45
468.78	449.38
468.96	407.25
469.14	477.47
469.32	367.46
469.50	428.32
469.69	400.23
469.87	435.34
470.05	423.64
470.23	404.91
470.41	493.85
470.59	409.59
470.77	362.78
470.95	383.85
471.14	482.15
471.32	383.85
471.50	425.98
471.68	489.17
471.86	376.83
472.04	376.83
472.22	463.43
472.40	341.72
472.58	365.12
472.77	390.87
472.95	465.77
473.13	428.32
473.31	463.43
473.49	390.87
473.67	425.98
473.85	470.45
474.03	440.02
474.21	500.87
474.39	461.09
474.57	454.06
474.75	456.40
474.93	414.27
475.12	379.17
475.30	390.87
475.48	386.19
475.66	386.19
475.84	463.43
476.02	454.06
476.20	451.72
476.38	393.21
476.56	449.38
476.74	411.93
476.92	458.74
477.10	409.59
477.28	435.34
477.46	465.77
477.64	376.83
477.82	451.72
478.00	440.02
478.18	433.00
478.36	444.70
478.54	451.72
478.72	414.27
478.90	383.85
479.08	402.57
479.26	444.70
479.44	437.68
479.62	411.93
479.80	390.87
479.98	374.49
480.16	332.36
480.34	456.40
480.52	409.59
480.70	463.43
480.88	346.40
481.06	388.53
481.24	451.72
481.41	407.25
481.59	449.38
481.77	418.96
481.95	388.53
482.13	430.66
482.31	433.00
482.49	458.74
482.67	463.43
482.85	468.11
483.03	437.68
483.21	334.70
483.39	365.12
483.57	351.08
483.74	404.91
483.92	393.21
484.10	404.91
484.28	379.17
484.46	409.59
484.64	425.98
484.82	461.09
485.00	407.25
485.18	430.66
485.35	414.27
485.53	465.77
485.71	477.47
485.89	468.11
486.07	353.42
486.25	507.90
486.43	388.53
486.61	395.55
486.78	458.74
486.96	327.68
487.14	390.87
487.32	395.55
487.50	430.66
487.68	416.62
487.85	395.55
488.03	451.72
488.21	505.56
488.39	358.10
488.57	388.53
488.75	383.85
488.92	479.81
489.10	404.91
489.28	503.22
489.46	383.85
489.64	381.51
489.81	447.04
489.99	425.98
490.17	421.30
490.35	418.96
490.53	435.34
490.70	365.12
490.88	430.66
491.06	442.36
491.24	444.70
491.41	435.34
491.59	379.17
491.77	393.21
491.95	337.04
492.13	440.02
492.30	423.64
492.48	372.15
492.66	456.40
492.84	407.25
493.01	386.19
493.19	383.85
493.37	423.64
493.54	400.23
493.72	404.91
493.90	407.25
494.08	353.42
494.25	355.76
494.43	477.47
494.61	409.59
494.79	369.80
494.96	418.96
495.14	390.87
495.32	358.10
495.49	400.23
495.67	390.87
495.85	402.57
496.02	425.98
496.20	437.68
496.38	484.49
496.55	400.23
496.73	454.06
496.91	507.90
497.09	404.91
497.26	402.57
497.44	442.36
497.62	372.15
497.79	475.13
497.97	395.55
498.14	388.53
498.32	409.59
498.50	353.42
498.67	437.68
498.85	423.64
499.03	327.68
499.20	468.11
499.38	409.59
499.56	416.62
499.73	430.66
499.91	433.00
500.08	330.02
500.26	395.55
500.44	409.59
500.61	402.57
500.79	407.25
500.97	393.21
501.14	418.96
501.32	390.87
501.49	444.70
501.67	411.93
501.84	451.72
502.02	395.55
502.20	393.21
502.37	433.00
502.55	360.44
502.72	360.44
502.90	395.55
503.07	320.65
503.25	407.25
503.43	404.91
503.60	374.49
503.78	407.25
503.95	416.62
504.13	376.83
504.30	456.40
504.48	451.72
504.65	386.19
504.83	395.55
505.01	402.57
505.18	376.83
505.36	409.59
505.53	435.34
505.71	482.15
505.88	418.96
506.06	362.78
506.23	421.30
506.41	395.55
506.58	393.21
506.76	369.80
506.93	397.89
507.11	430.66
507.28	411.93
507.46	381.51
507.63	395.55
507.81	456.40
507.98	456.40
508.16	411.93
508.33	472.79
508.50	430.66
508.68	428.32
508.85	416.62
509.03	414.27
509.20	421.30
509.38	435.34
509.55	449.38
509.73	437.68
509.90	458.74
510.08	393.21
510.25	444.70
510.42	386.19
510.60	425.98
510.77	318.31
510.95	489.17
511.12	393.21
511.30	514.92
511.47	461.09
511.64	463.43
511.82	428.32
511.99	355.76
512.17	400.23
512.34	332.36
512.51	465.77
512.69	456.40
512.86	379.17
513.04	355.76
513.21	514.92
513.38	407.25
513.56	416.62
513.73	423.64
513.90	400.23
514.08	374.49
514.25	404.91
514.43	400.23
514.60	367.46
514.77	341.72
514.95	444.70
515.12	360.44
515.29	449.38
515.47	421.30
515.64	390.87
515.81	421.30
515.99	400.23
516.16	418.96
516.33	425.98
516.51	395.55
516.68	367.46
516.85	433.00
517.03	407.25
517.20	386.19
517.37	463.43
517.54	344.06
517.72	442.36
517.89	425.98
518.06	407.25
518.24	468.11
518.41	496.19
518.58	428.32
518.75	393.21
518.93	404.91
519.10	491.51
519.27	456.40
519.45	454.06
519.62	404.91
519.79	388.53
519.96	393.21
520.14	433.00
520.31	500.87
520.48	369.80
520.65	362.78
520.83	437.68
521.00	404.91
521.17	517.26
521.34	430.66
521.52	397.89
521.69	362.78
521.86	411.93
522.03	407.25
522.20	465.77
522.38	440.02
522.55	376.83
522.72	379.17
522.89	482.15
523.07	418.96
523.24	465.77
523.41	442.36
523.58	397.89
523.75	423.64
523.92	402.57
524.10	458.74
524.27	463.43
524.44	456.40
524.61	451.72
524.78	449.38
524.96	400.23
525.13	379.17
525.30	397.89
525.47	374.49
525.64	379.17
525.81	461.09
525.98	372.15
526.16	383.85
526.33	341.72
526.50	376.83
526.67	423.64
526.84	458.74
527.01	418.96
527.18	379.17
527.36	418.96
527.53	470.45
527.70	442.36
527.87	346.40
528.04	493.85
528.21	397.89
528.38	430.66
528.55	493.85
528.72	435.34
528.89	489.17
529.07	400.23
529.24	418.96
529.41	402.57
529.58	365.12
529.75	395.55
529.92	409.59
530.09	451.72
530.26	423.64
530.43	383.85
530.60	423.64
530.77	414.27
530.94	409.59
531.11	416.62
531.28	430.66
531.46	461.09
531.63	437.68
531.80	463.43
531.97	449.38
532.14	400.23
532.31	416.62
532.48	472.79
532.65	456.40
532.82	421.30
532.99	458.74
533.16	397.89
533.33	362.78
533.50	500.87
533.67	418.96
533.84	409.59
534.01	402.57
534.18	362.78
534.35	395.55
534.52	454.06
534.69	376.83
534.86	421.30
535.03	402.57
535.20	402.57
535.37	433.00
535.54	433.00
535.71	369.80
535.88	475.13
536.05	395.55
536.22	435.34
536.38	388.53
536.55	402.57
536.72	372.15
536.89	393.21
537.06	440.02
537.23	451.72
537.40	414.27
537.57	430.66
537.74	400.23
537.91	521.94
538.08	435.34
538.25	416.62
538.42	409.59
538.59	397.89
538.75	423.64
538.92	500.87
539.09	475.13
539.26	353.42
539.43	496.19
539.60	374.49
539.77	411.93
539.94	472.79
540.11	440.02
540.28	418.96
540.44	423.64
540.61	348.74
540.78	440.02
540.95	409.59
541.12	463.43
541.29	409.59
541.46	379.17
541.62	472.79
541.79	397.89
541.96	404.91
542.13	402.57
542.30	416.62
542.47	491.51
542.63	414.27
542.80	435.34
542.97	451.72
543.14	372.15
543.31	456.40
543.48	379.17
543.64	449.38
543.81	456.40
543.98	433.00
544.15	348.74
544.32	416.62
544.48	416.62
544.65	411.93
544.82	461.09
544.99	430.66
545.16	456.40
545.32	390.87
545.49	369.80
545.66	367.46
545.83	404.91
546.00	402.57
546.16	418.96
546.33	465.77
546.50	379.17
546.67	433.00
546.83	449.38
547.00	425.98
547.17	430.66
547.34	435.34
547.50	430.66
547.67	444.70
547.84	416.62
548.00	423.64
548.17	479.81
548.34	341.72
548.51	372.15
548.67	374.49
548.84	407.25
549.01	444.70
549.18	421.30
549.34	500.87
549.51	456.40
549.68	397.89
549.84	418.96
550.01	402.57
550.18	449.38
550.34	442.36
550.51	386.19
550.68	414.27
550.84	381.51
551.01	386.19
551.18	442.36
551.34	416.62
551.51	367.46
551.68	484.49
551.84	421.30
552.01	416.62
552.18	472.79
552.34	458.74
552.51	379.17
552.68	435.34
552.84	351.08
553.01	393.21
553.18	451.72
553.34	383.85
553.51	320.65
553.67	330.02
553.84	484.49
554.01	465.77
554.17	355.76
554.34	402.57
554.51	435.34
554.67	421.30
554.84	423.64
555.00	442.36
555.17	454.06
555.33	456.40
555.50	430.66
555.67	433.00
555.83	433.00
556.00	428.32
556.16	547.69
556.33	430.66
556.50	402.57
556.66	418.96
556.83	393.21
556.99	409.59
557.16	358.10
557.32	395.55
557.49	400.23
557.65	461.09
557.82	393.21
557.98	416.62
558.15	468.11
558.32	449.38
558.48	390.87
558.65	397.89
558.81	411.93
558.98	376.83
559.14	358.10
559.31	456.40
559.47	416.62
559.64	308.95
559.80	447.04
559.97	418.96
560.13	458.74
560.30	437.68
560.46	372.15
560.63	421.30
560.79	367.46
560.96	475.13
561.12	416.62
561.29	440.02
561.45	390.87
561.61	379.17
561.78	486.83
561.94	433.00
562.11	447.04
562.27	430.66
562.44	437.68
562.60	449.38
562.77	395.55
562.93	449.38
563.10	365.12
563.26	404.91
563.42	372.15
563.59	428.32
563.75	477.47
563.92	390.87
564.08	367.46
564.24	404.91
564.41	517.26
564.57	355.76
564.74	437.68
564.90	421.30
565.07	388.53
565.23	428.32
565.39	421.30
565.56	433.00
565.72	411.93
565.88	435.34
566.05	451.72
566.21	383.85
566.38	416.62
566.54	428.32
566.70	362.78
566.87	437.68
567.03	386.19
567.19	418.96
567.36	402.57
567.52	423.64
567.68	411.93
567.85	470.45
568.01	397.89
568.17	407.25
568.34	332.36
568.50	444.70
568.66	404.91
568.83	470.45
568.99	376.83
569.15	449.38
569.32	416.62
569.48	425.98
569.64	397.89
569.81	421.30
569.97	451.72
570.13	440.02
570.30	425.98
570.46	472.79
570.62	372.15
570.78	409.59
570.95	428.32
571.11	418.96
571.27	430.66
571.43	409.59
571.60	400.23
571.76	437.68
571.92	400.23
572.09	409.59
572.25	451.72
572.41	456.40
572.57	458.74
572.74	421.30
572.90	442.36
573.06	456.40
573.22	386.19
573.38	489.17
573.55	423.64
573.71	400.23
573.87	465.77
574.03	475.13
574.20	374.49
574.36	428.32
574.52	423.64
574.68	454.06
574.84	449.38
575.01	407.25
575.17	414.27
575.33	409.59
575.49	440.02
575.65	388.53
575.82	463.43
575.98	451.72
576.14	421.30
576.30	367.46
576.46	388.53
576.62	421.30
576.79	423.64
576.95	458.74
577.11	461.09
577.27	330.02
577.43	444.70
577.59	407.25
577.75	484.49
577.92	479.81
578.08	404.91
578.24	400.23
578.40	425.98
578.56	421.30
578.72	365.12
578.88	465.77
579.04	372.15
579.21	442.36
579.37	430.66
579.53	360.44
579.69	418.96
579.85	372.15
580.01	423.64
580.17	463.43
580.33	468.11
580.49	397.89
580.65	428.32
580.82	433.00
580.98	418.96
581.14	337.04
581.30	449.38
581.46	440.02
581.62	435.34
581.78	503.22
581.94	397.89
582.10	409.59
582.26	346.40
582.42	400.23
582.58	425.98
582.74	390.87
582.90	402.57
583.06	440.02
583.22	444.70
583.38	482.15
583.54	346.40
583.70	411.93
583.86	407.25
584.02	400.23
584.18	421.30
584.34	440.02
584.50	468.11
584.66	407.25
584.82	292.57
584.98	416.62
585.14	447.04
585.30	414.27
585.46	397.89
585.62	425.98
585.78	425.98
585.94	433.00
586.10	468.11
586.26	486.83
586.42	451.72
586.58	444.70
586.74	444.70
586.90	383.85
587.06	447.04
587.22	411.93
587.38	365.12
587.54	440.02
587.70	400.23
587.86	451.72
588.02	414.27
588.18	428.32
588.34	456.40
588.49	390.87
588.65	358.10
588.81	367.46
588.97	341.72
589.13	360.44
589.29	376.83
589.45	465.77
589.61	360.44
589.77	465.77
589.93	435.34
590.08	390.87
590.24	376.83
590.40	313.63
590.56	423.64
590.72	346.40
590.88	407.25
591.04	379.17
591.20	444.70
591.35	428.32
591.51	440.02
591.67	423.64
591.83	393.21
591.99	444.70
592.15	411.93
592.31	400.23
592.46	355.76
592.62	468.11
592.78	418.96
592.94	447.04
593.10	442.36
593.26	318.31
593.41	454.06
593.57	463.43
593.73	341.72
593.89	472.79
594.05	372.15
594.20	376.83
594.36	479.81
594.52	414.27
594.68	393.21
594.84	421.30
594.99	472.79
595.15	414.27
595.31	442.36
595.47	475.13
595.62	477.47
595.78	411.93
595.94	442.36
596.10	425.98
596.25	402.57
596.41	395.55
596.57	381.51
596.73	440.02
596.88	376.83
597.04	362.78
597.20	379.17
597.36	402.57
597.51	365.12
597.67	351.08
597.83	451.72
597.99	372.15
598.14	390.87
598.30	409.59
598.46	383.85
598.61	437.68
598.77	447.04
598.93	409.59
599.09	465.77
599.24	440.02
599.40	430.66
599.56	489.17
599.71	348.74
599.87	425.98
600.03	430.66
600.18	451.72
600.34	386.19
600.50	423.64
600.65	376.83
600.81	442.36
600.97	411.93
601.12	433.00
601.28	444.70
601.44	400.23
601.59	428.32
601.75	358.10
601.91	484.49
602.06	411.93
602.22	538.32
602.37	397.89
602.53	386.19
602.69	367.46
602.84	395.55
603.00	381.51
603.16	463.43
603.31	428.32
603.47	482.15
603.62	447.04
603.78	390.87
603.94	468.11
604.09	468.11
604.25	414.27
604.40	475.13
604.56	367.46
604.71	435.34
604.87	393.21
605.03	351.08
605.18	458.74
605.34	475.13
605.49	351.08
605.65	393.21
605.80	472.79
605.96	344.06
606.12	353.42
606.27	463.43
606.43	397.89
606.58	496.19
606.74	397.89
606.89	376.83
607.05	423.64
607.20	397.89
607.36	433.00
607.51	395.55
607.67	486.83
607.82	468.11
607.98	468.11
608.13	430.66
608.29	456.40
608.44	482.15
608.60	339.38
608.75	454.06
608.91	360.44
609.06	514.92
609.22	514.92
609.37	379.17
609.53	442.36
609.68	449.38
609.84	362.78
609.99	344.06
610.15	423.64
