SpectraSuite Data File
++++++++++++++++++++++++++++++++++++
Date: Fri Oct 25 12:10:32 EDT 2013
User: price-jones
Dark Spectrum Present: No
Reference Spectrum Present: No
Number of Sampled Component Spectra: 1
Spectrometers: USB2+H05261
Integration Time (usec): 100000 (USB2+H05261)
Spectra Averaged: 1 (USB2+H05261)
Boxcar Smoothing: 0 (USB2+H05261)
Correct for Electrical Dark: No (USB2+H05261)
Strobe/Lamp Enabled: No (USB2+H05261)
Correct for Detector Non-linearity: No (USB2+H05261)
Correct for Stray Light: No (USB2+H05261)
Number of Pixels in Processed Spectrum: 2048
>>>>>Begin Processed Spectral Data<<<<<
365.73	388.53
365.92	388.53
366.12	388.53
366.32	259.80
366.52	245.76
366.72	248.10
366.91	184.90
367.11	159.16
367.31	257.46
367.51	280.86
367.70	205.97
367.90	210.65
368.10	222.35
368.30	182.56
368.49	205.97
368.69	180.22
368.89	184.90
369.09	248.10
369.28	285.55
369.48	234.05
369.68	280.86
369.87	271.50
370.07	259.80
370.27	259.80
370.47	353.42
370.66	299.59
370.86	379.17
371.06	407.25
371.25	411.93
371.45	388.53
371.65	400.23
371.84	334.70
372.04	383.85
372.24	440.02
372.44	320.65
372.63	435.34
372.83	402.57
373.03	423.64
373.22	425.98
373.42	360.44
373.62	367.46
373.81	440.02
374.01	463.43
374.21	433.00
374.40	334.70
374.60	430.66
374.79	442.36
374.99	465.77
375.19	367.46
375.38	395.55
375.58	472.79
375.78	437.68
375.97	383.85
376.17	400.23
376.37	447.04
376.56	414.27
376.76	496.19
376.95	414.27
377.15	397.89
377.35	360.44
377.54	390.87
377.74	435.34
377.93	374.49
378.13	435.34
378.33	433.00
378.52	411.93
378.72	360.44
378.91	365.12
379.11	355.76
379.31	444.70
379.50	358.10
379.70	383.85
379.89	470.45
380.09	388.53
380.28	390.87
380.48	334.70
380.68	411.93
380.87	416.62
381.07	397.89
381.26	418.96
381.46	409.59
381.65	374.49
381.85	337.04
382.04	362.78
382.24	346.40
382.43	393.21
382.63	437.68
382.83	365.12
383.02	430.66
383.22	397.89
383.41	444.70
383.61	449.38
383.80	442.36
384.00	360.44
384.19	334.70
384.39	367.46
384.58	435.34
384.78	376.83
384.97	339.38
385.17	425.98
385.36	393.21
385.56	358.10
385.75	386.19
385.95	435.34
386.14	437.68
386.34	346.40
386.53	407.25
386.72	409.59
386.92	355.76
387.11	449.38
387.31	421.30
387.50	435.34
387.70	393.21
387.89	444.70
388.09	430.66
388.28	400.23
388.48	348.74
388.67	362.78
388.86	372.15
389.06	416.62
389.25	451.72
389.45	454.06
389.64	414.27
389.84	463.43
390.03	301.93
390.22	435.34
390.42	430.66
390.61	386.19
390.81	409.59
391.00	440.02
391.19	444.70
391.39	475.13
391.58	421.30
391.78	386.19
391.97	379.17
392.16	407.25
392.36	435.34
392.55	440.02
392.75	383.85
392.94	353.42
393.13	393.21
393.33	503.22
393.52	437.68
393.71	404.91
393.91	337.04
394.10	402.57
394.29	416.62
394.49	383.85
394.68	442.36
394.88	425.98
395.07	390.87
395.26	369.80
395.46	416.62
395.65	390.87
395.84	411.93
396.04	433.00
396.23	381.51
396.42	433.00
396.62	437.68
396.81	435.34
397.00	425.98
397.19	435.34
397.39	423.64
397.58	451.72
397.77	397.89
397.97	372.15
398.16	463.43
398.35	379.17
398.55	372.15
398.74	334.70
398.93	407.25
399.12	383.85
399.32	369.80
399.51	404.91
399.70	428.32
399.90	407.25
400.09	381.51
400.28	404.91
400.47	341.72
400.67	358.10
400.86	416.62
401.05	423.64
401.24	456.40
401.44	376.83
401.63	386.19
401.82	379.17
402.01	433.00
402.21	386.19
402.40	411.93
402.59	402.57
402.78	437.68
402.97	397.89
403.17	423.64
403.36	393.21
403.55	395.55
403.74	437.68
403.93	407.25
404.13	442.36
404.32	388.53
404.51	449.38
404.70	430.66
404.89	381.51
405.09	444.70
405.28	386.19
405.47	348.74
405.66	332.36
405.85	468.11
406.05	430.66
406.24	374.49
406.43	433.00
406.62	418.96
406.81	442.36
407.00	444.70
407.20	383.85
407.39	421.30
407.58	358.10
407.77	409.59
407.96	411.93
408.15	376.83
408.34	442.36
408.54	400.23
408.73	383.85
408.92	409.59
409.11	470.45
409.30	433.00
409.49	395.55
409.68	418.96
409.87	351.08
410.07	433.00
410.26	456.40
410.45	402.57
410.64	365.12
410.83	414.27
411.02	397.89
411.21	430.66
411.40	421.30
411.59	435.34
411.78	395.55
411.98	381.51
412.17	393.21
412.36	386.19
412.55	395.55
412.74	433.00
412.93	423.64
413.12	386.19
413.31	468.11
413.50	358.10
413.69	390.87
413.88	468.11
414.07	355.76
414.26	404.91
414.45	367.46
414.64	376.83
414.83	454.06
415.02	386.19
415.22	383.85
415.41	418.96
415.60	447.04
415.79	414.27
415.98	433.00
416.17	395.55
416.36	479.81
416.55	430.66
416.74	491.51
416.93	379.17
417.12	404.91
417.31	418.96
417.50	435.34
417.69	390.87
417.88	374.49
418.07	388.53
418.26	344.06
418.45	407.25
418.64	482.15
418.83	379.17
419.02	386.19
419.21	433.00
419.39	383.85
419.58	318.31
419.77	449.38
419.96	463.43
420.15	407.25
420.34	362.78
420.53	475.13
420.72	444.70
420.91	428.32
421.10	346.40
421.29	458.74
421.48	437.68
421.67	442.36
421.86	388.53
422.05	433.00
422.24	449.38
422.43	418.96
422.61	416.62
422.80	360.44
422.99	383.85
423.18	390.87
423.37	416.62
423.56	395.55
423.75	463.43
423.94	454.06
424.13	404.91
424.32	428.32
424.50	461.09
424.69	416.62
424.88	390.87
425.07	433.00
425.26	465.77
425.45	433.00
425.64	421.30
425.83	355.76
426.01	369.80
426.20	369.80
426.39	360.44
426.58	414.27
426.77	390.87
426.96	374.49
427.15	390.87
427.33	425.98
427.52	369.80
427.71	383.85
427.90	369.80
428.09	379.17
428.28	421.30
428.46	404.91
428.65	440.02
428.84	315.97
429.03	425.98
429.22	430.66
429.40	388.53
429.59	388.53
429.78	416.62
429.97	454.06
430.16	383.85
430.34	393.21
430.53	435.34
430.72	442.36
430.91	353.42
431.10	416.62
431.28	376.83
431.47	418.96
431.66	360.44
431.85	369.80
432.03	425.98
432.22	442.36
432.41	400.23
432.60	411.93
432.79	400.23
432.97	393.21
433.16	397.89
433.35	428.32
433.54	376.83
433.72	402.57
433.91	472.79
434.10	376.83
434.28	376.83
434.47	353.42
434.66	435.34
434.85	409.59
435.03	404.91
435.22	484.49
435.41	421.30
435.59	386.19
435.78	393.21
435.97	433.00
436.16	407.25
436.34	358.10
436.53	425.98
436.72	435.34
436.90	395.55
437.09	437.68
437.28	379.17
437.46	414.27
437.65	435.34
437.84	344.06
438.02	430.66
438.21	397.89
438.40	386.19
438.58	383.85
438.77	414.27
438.96	376.83
439.14	454.06
439.33	388.53
439.52	383.85
439.70	376.83
439.89	449.38
440.08	433.00
440.26	372.15
440.45	372.15
440.63	381.51
440.82	411.93
441.01	358.10
441.19	451.72
441.38	416.62
441.57	407.25
441.75	449.38
441.94	491.51
442.12	447.04
442.31	442.36
442.50	404.91
442.68	468.11
442.87	454.06
443.05	423.64
443.24	486.83
443.43	468.11
443.61	449.38
443.80	367.46
443.98	390.87
444.17	390.87
444.35	395.55
444.54	428.32
444.73	458.74
444.91	421.30
445.10	327.68
445.28	421.30
445.47	402.57
445.65	463.43
445.84	447.04
446.02	482.15
446.21	353.42
446.39	372.15
446.58	416.62
446.77	442.36
446.95	369.80
447.14	346.40
447.32	468.11
447.51	491.51
447.69	428.32
447.88	458.74
448.06	367.46
448.25	451.72
448.43	433.00
448.62	484.49
448.80	414.27
448.99	447.04
449.17	383.85
449.36	437.68
449.54	440.02
449.73	390.87
449.91	386.19
450.10	407.25
450.28	407.25
450.46	440.02
450.65	369.80
450.83	444.70
451.02	430.66
451.20	435.34
451.39	360.44
451.57	458.74
451.76	444.70
451.94	416.62
452.13	479.81
452.31	386.19
452.49	425.98
452.68	442.36
452.86	423.64
453.05	451.72
453.23	369.80
453.42	297.25
453.60	381.51
453.78	374.49
453.97	423.64
454.15	358.10
454.34	376.83
454.52	444.70
454.70	437.68
454.89	416.62
455.07	425.98
455.26	423.64
455.44	433.00
455.62	355.76
455.81	463.43
455.99	381.51
456.17	425.98
456.36	435.34
456.54	411.93
456.73	395.55
456.91	397.89
457.09	440.02
457.28	404.91
457.46	437.68
457.64	428.32
457.83	449.38
458.01	411.93
458.19	418.96
458.38	482.15
458.56	416.62
458.74	374.49
458.93	411.93
459.11	383.85
459.29	430.66
459.48	449.38
459.66	435.34
459.84	503.22
460.03	512.58
460.21	491.51
460.39	362.78
460.57	484.49
460.76	428.32
460.94	341.72
461.12	451.72
461.31	409.59
461.49	416.62
461.67	440.02
461.85	388.53
462.04	414.27
462.22	833.23
462.40	376.83
462.59	503.22
462.77	456.40
462.95	395.55
463.13	404.91
463.32	486.83
463.50	447.04
463.68	477.47
463.86	430.66
464.05	440.02
464.23	444.70
464.41	390.87
464.59	425.98
464.78	482.15
464.96	390.87
465.14	393.21
465.32	372.15
465.50	468.11
465.69	402.57
465.87	390.87
466.05	390.87
466.23	418.96
466.41	449.38
466.60	451.72
466.78	404.91
466.96	400.23
467.14	465.77
467.32	416.62
467.51	411.93
467.69	463.43
467.87	379.17
468.05	395.55
468.23	409.59
468.41	440.02
468.60	430.66
468.78	390.87
468.96	440.02
469.14	461.09
469.32	365.12
469.50	409.59
469.69	374.49
469.87	407.25
470.05	400.23
470.23	472.79
470.41	390.87
470.59	318.31
470.77	397.89
470.95	440.02
471.14	451.72
471.32	454.06
471.50	402.57
471.68	421.30
471.86	430.66
472.04	358.10
472.22	383.85
472.40	348.74
472.58	409.59
472.77	386.19
472.95	456.40
473.13	442.36
473.31	479.81
473.49	411.93
473.67	386.19
473.85	369.80
474.03	425.98
474.21	325.33
474.39	409.59
474.57	468.11
474.75	470.45
474.93	395.55
475.12	411.93
475.30	458.74
475.48	437.68
475.66	390.87
475.84	404.91
476.02	381.51
476.20	468.11
476.38	423.64
476.56	458.74
476.74	369.80
476.92	397.89
477.10	372.15
477.28	428.32
477.46	353.42
477.64	468.11
477.82	428.32
478.00	482.15
478.18	390.87
478.36	388.53
478.54	390.87
478.72	344.06
478.90	414.27
479.08	430.66
479.26	484.49
479.44	407.25
479.62	411.93
479.80	425.98
479.98	433.00
480.16	404.91
480.34	369.80
480.52	360.44
480.70	430.66
480.88	421.30
481.06	379.17
481.24	372.15
481.41	390.87
481.59	388.53
481.77	437.68
481.95	372.15
482.13	362.78
482.31	416.62
482.49	397.89
482.67	400.23
482.85	440.02
483.03	491.51
483.21	330.02
483.39	435.34
483.57	430.66
483.74	411.93
483.92	318.31
484.10	416.62
484.28	454.06
484.46	500.87
484.64	404.91
484.82	379.17
485.00	362.78
485.18	358.10
485.35	388.53
485.53	395.55
485.71	442.36
485.89	414.27
486.07	444.70
486.25	475.13
486.43	442.36
486.61	404.91
486.78	425.98
486.96	411.93
487.14	421.30
487.32	409.59
487.50	465.77
487.68	404.91
487.85	409.59
488.03	416.62
488.21	421.30
488.39	418.96
488.57	425.98
488.75	365.12
488.92	477.47
489.10	360.44
489.28	386.19
489.46	397.89
489.64	393.21
489.81	351.08
489.99	418.96
490.17	332.36
490.35	470.45
490.53	386.19
490.70	355.76
490.88	440.02
491.06	470.45
491.24	428.32
491.41	442.36
491.59	416.62
491.77	402.57
491.95	468.11
492.13	400.23
492.30	409.59
492.48	397.89
492.66	437.68
492.84	358.10
493.01	418.96
493.19	383.85
493.37	447.04
493.54	458.74
493.72	465.77
493.90	421.30
494.08	379.17
494.25	374.49
494.43	299.59
494.61	393.21
494.79	400.23
494.96	433.00
495.14	404.91
495.32	425.98
495.49	484.49
495.67	360.44
495.85	383.85
496.02	404.91
496.20	416.62
496.38	482.15
496.55	400.23
496.73	379.17
496.91	449.38
497.09	388.53
497.26	425.98
497.44	404.91
497.62	416.62
497.79	409.59
497.97	393.21
498.14	416.62
498.32	465.77
498.50	388.53
498.67	390.87
498.85	454.06
499.03	393.21
499.20	421.30
499.38	421.30
499.56	430.66
499.73	489.17
499.91	418.96
500.08	444.70
500.26	402.57
500.44	388.53
500.61	447.04
500.79	430.66
500.97	348.74
501.14	486.83
501.32	421.30
501.49	409.59
501.67	395.55
501.84	400.23
502.02	395.55
502.20	423.64
502.37	447.04
502.55	374.49
502.72	409.59
502.90	400.23
503.07	425.98
503.25	341.72
503.43	440.02
503.60	388.53
503.78	379.17
503.95	418.96
504.13	430.66
504.30	437.68
504.48	353.42
504.65	479.81
504.83	416.62
505.01	428.32
505.18	430.66
505.36	468.11
505.53	447.04
505.71	383.85
505.88	383.85
506.06	374.49
506.23	400.23
506.41	465.77
506.58	416.62
506.76	451.72
506.93	414.27
507.11	418.96
507.28	456.40
507.46	416.62
507.63	428.32
507.81	463.43
507.98	390.87
508.16	379.17
508.33	360.44
508.50	470.45
508.68	372.15
508.85	538.32
509.03	376.83
509.20	372.15
509.38	376.83
509.55	409.59
509.73	449.38
509.90	465.77
510.08	348.74
510.25	407.25
510.42	491.51
510.60	423.64
510.77	463.43
510.95	416.62
511.12	407.25
511.30	449.38
511.47	381.51
511.64	519.60
511.82	367.46
511.99	374.49
512.17	341.72
512.34	479.81
512.51	402.57
512.69	444.70
512.86	472.79
513.04	435.34
513.21	372.15
513.38	402.57
513.56	440.02
513.73	416.62
513.90	386.19
514.08	372.15
514.25	388.53
514.43	390.87
514.60	407.25
514.77	358.10
514.95	388.53
515.12	449.38
515.29	428.32
515.47	409.59
515.64	456.40
515.81	369.80
515.99	435.34
516.16	465.77
516.33	433.00
516.51	351.08
516.68	346.40
516.85	414.27
517.03	442.36
517.20	388.53
517.37	369.80
517.54	395.55
517.72	390.87
517.89	425.98
518.06	435.34
518.24	489.17
518.41	491.51
518.58	397.89
518.75	388.53
518.93	454.06
519.10	447.04
519.27	521.94
519.45	395.55
519.62	447.04
519.79	454.06
519.96	372.15
520.14	376.83
520.31	379.17
520.48	404.91
520.65	463.43
520.83	449.38
521.00	435.34
521.17	510.24
521.34	362.78
521.52	383.85
521.69	318.31
521.86	383.85
522.03	365.12
522.20	442.36
522.38	348.74
522.55	379.17
522.72	482.15
522.89	468.11
523.07	468.11
523.24	381.51
523.41	393.21
523.58	404.91
523.75	468.11
523.92	304.27
524.10	344.06
524.27	400.23
524.44	449.38
524.61	477.47
524.78	381.51
524.96	458.74
525.13	379.17
525.30	381.51
525.47	397.89
525.64	433.00
525.81	475.13
525.98	386.19
526.16	477.47
526.33	407.25
526.50	400.23
526.67	369.80
526.84	421.30
527.01	416.62
527.18	397.89
527.36	381.51
527.53	397.89
527.70	425.98
527.87	379.17
528.04	414.27
528.21	444.70
528.38	430.66
528.55	440.02
528.72	414.27
528.89	465.77
529.07	430.66
529.24	440.02
529.41	435.34
529.58	454.06
529.75	395.55
529.92	440.02
530.09	416.62
530.26	435.34
530.43	402.57
530.60	465.77
530.77	468.11
530.94	418.96
531.11	383.85
531.28	390.87
531.46	374.49
531.63	365.12
531.80	379.17
531.97	472.79
532.14	437.68
532.31	416.62
532.48	491.51
532.65	433.00
532.82	367.46
532.99	442.36
533.16	451.72
533.33	430.66
533.50	388.53
533.67	395.55
533.84	400.23
534.01	379.17
534.18	351.08
534.35	461.09
534.52	423.64
534.69	393.21
534.86	458.74
535.03	409.59
535.20	447.04
535.37	402.57
535.54	395.55
535.71	414.27
535.88	484.49
536.05	521.94
536.22	472.79
536.38	311.29
536.55	311.29
536.72	402.57
536.89	397.89
537.06	360.44
537.23	416.62
537.40	435.34
537.57	442.36
537.74	428.32
537.91	449.38
538.08	390.87
538.25	437.68
538.42	400.23
538.59	507.90
538.75	433.00
538.92	407.25
539.09	425.98
539.26	421.30
539.43	451.72
539.60	376.83
539.77	433.00
539.94	374.49
540.11	423.64
540.28	442.36
540.44	435.34
540.61	482.15
540.78	442.36
540.95	402.57
541.12	416.62
541.29	418.96
541.46	493.85
541.62	407.25
541.79	430.66
541.96	390.87
542.13	367.46
542.30	411.93
542.47	362.78
542.63	400.23
542.80	458.74
542.97	435.34
543.14	465.77
543.31	402.57
543.48	449.38
543.64	456.40
543.81	442.36
543.98	454.06
544.15	503.22
544.32	383.85
544.48	322.99
544.65	393.21
544.82	435.34
544.99	353.42
545.16	510.24
545.32	416.62
545.49	428.32
545.66	395.55
545.83	402.57
546.00	414.27
546.16	451.72
546.33	493.85
546.50	388.53
546.67	411.93
546.83	421.30
547.00	346.40
547.17	414.27
547.34	423.64
547.50	449.38
547.67	353.42
547.84	360.44
548.00	404.91
548.17	428.32
548.34	437.68
548.51	444.70
548.67	475.13
548.84	437.68
549.01	486.83
549.18	456.40
549.34	414.27
549.51	430.66
549.68	383.85
549.84	411.93
550.01	369.80
550.18	458.74
550.34	484.49
550.51	402.57
550.68	507.90
550.84	444.70
551.01	440.02
551.18	409.59
551.34	393.21
551.51	451.72
551.68	421.30
551.84	433.00
552.01	386.19
552.18	442.36
552.34	393.21
552.51	421.30
552.68	430.66
552.84	330.02
553.01	381.51
553.18	416.62
553.34	437.68
553.51	416.62
553.67	397.89
553.84	411.93
554.01	451.72
554.17	421.30
554.34	402.57
554.51	390.87
554.67	416.62
554.84	379.17
555.00	369.80
555.17	418.96
555.33	468.11
555.50	454.06
555.67	334.70
555.83	365.12
556.00	407.25
556.16	521.94
556.33	423.64
556.50	374.49
556.66	468.11
556.83	433.00
556.99	390.87
557.16	369.80
557.32	435.34
557.49	386.19
557.65	402.57
557.82	421.30
557.98	423.64
558.15	407.25
558.32	379.17
558.48	390.87
558.65	390.87
558.81	411.93
558.98	468.11
559.14	395.55
559.31	388.53
559.47	416.62
559.64	402.57
559.80	428.32
559.97	400.23
560.13	393.21
560.30	367.46
560.46	360.44
560.63	425.98
560.79	430.66
560.96	346.40
561.12	386.19
561.29	430.66
561.45	397.89
561.61	423.64
561.78	465.77
561.94	430.66
562.11	433.00
562.27	491.51
562.44	400.23
562.60	468.11
562.77	463.43
562.93	442.36
563.10	395.55
563.26	372.15
563.42	355.76
563.59	367.46
563.75	423.64
563.92	454.06
564.08	407.25
564.24	418.96
564.41	477.47
564.57	339.38
564.74	397.89
564.90	444.70
565.07	430.66
565.23	407.25
565.39	411.93
565.56	451.72
565.72	477.47
565.88	369.80
566.05	463.43
566.21	374.49
566.38	400.23
566.54	395.55
566.70	451.72
566.87	418.96
567.03	402.57
567.19	433.00
567.36	400.23
567.52	428.32
567.68	365.12
567.85	451.72
568.01	416.62
568.17	325.33
568.34	447.04
568.50	489.17
568.66	411.93
568.83	425.98
568.99	367.46
569.15	381.51
569.32	475.13
569.48	369.80
569.64	379.17
569.81	381.51
569.97	395.55
570.13	404.91
570.30	447.04
570.46	440.02
570.62	538.32
570.78	409.59
570.95	400.23
571.11	418.96
571.27	418.96
571.43	435.34
571.60	521.94
571.76	416.62
571.92	423.64
572.09	372.15
572.25	437.68
572.41	395.55
572.57	416.62
572.74	454.06
572.90	461.09
573.06	435.34
573.22	414.27
573.38	447.04
573.55	404.91
573.71	423.64
573.87	433.00
574.03	435.34
574.20	393.21
574.36	489.17
574.52	411.93
574.68	418.96
574.84	442.36
575.01	430.66
575.17	472.79
575.33	423.64
575.49	444.70
575.65	479.81
575.82	423.64
575.98	360.44
576.14	362.78
576.30	402.57
576.46	425.98
576.62	372.15
576.79	463.43
576.95	458.74
577.11	437.68
577.27	397.89
577.43	397.89
577.59	477.47
577.75	489.17
577.92	418.96
578.08	414.27
578.24	409.59
578.40	425.98
578.56	407.25
578.72	482.15
578.88	390.87
579.04	397.89
579.21	388.53
579.37	451.72
579.53	374.49
579.69	465.77
579.85	430.66
580.01	365.12
580.17	383.85
580.33	447.04
580.49	423.64
580.65	360.44
580.82	369.80
580.98	402.57
581.14	374.49
581.30	503.22
581.46	404.91
581.62	414.27
581.78	442.36
581.94	484.49
582.10	404.91
582.26	442.36
582.42	402.57
582.58	442.36
582.74	334.70
582.90	444.70
583.06	423.64
583.22	409.59
583.38	482.15
583.54	449.38
583.70	423.64
583.86	348.74
584.02	341.72
584.18	461.09
584.34	425.98
584.50	503.22
584.66	416.62
584.82	454.06
584.98	416.62
585.14	489.17
585.30	458.74
585.46	397.89
585.62	390.87
585.78	374.49
585.94	489.17
586.10	390.87
586.26	447.04
586.42	491.51
586.58	395.55
586.74	411.93
586.90	421.30
587.06	381.51
587.22	519.60
587.38	433.00
587.54	423.64
587.70	430.66
587.86	428.32
588.02	421.30
588.18	430.66
588.34	470.45
588.49	386.19
588.65	411.93
588.81	395.55
588.97	411.93
589.13	414.27
589.29	433.00
589.45	442.36
589.61	418.96
589.77	456.40
589.93	472.79
590.08	463.43
590.24	416.62
590.40	358.10
590.56	475.13
590.72	409.59
590.88	430.66
591.04	388.53
591.20	475.13
591.35	510.24
591.51	444.70
591.67	449.38
591.83	395.55
591.99	407.25
592.15	482.15
592.31	430.66
592.46	437.68
592.62	470.45
592.78	411.93
592.94	411.93
593.10	376.83
593.26	505.56
593.41	465.77
593.57	381.51
593.73	393.21
593.89	376.83
594.05	437.68
594.20	496.19
594.36	482.15
594.52	465.77
594.68	411.93
594.84	358.10
594.99	514.92
595.15	379.17
595.31	479.81
595.47	447.04
595.62	395.55
595.78	344.06
595.94	437.68
596.10	428.32
596.25	379.17
596.41	404.91
596.57	383.85
596.73	465.77
596.88	407.25
597.04	423.64
597.20	400.23
597.36	416.62
597.51	484.49
597.67	437.68
597.83	444.70
597.99	514.92
598.14	447.04
598.30	507.90
598.46	496.19
598.61	409.59
598.77	458.74
598.93	341.72
599.09	447.04
599.24	437.68
599.40	449.38
599.56	388.53
599.71	397.89
599.87	458.74
600.03	465.77
600.18	393.21
600.34	416.62
600.50	320.65
600.65	358.10
600.81	437.68
600.97	379.17
601.12	414.27
601.28	425.98
601.44	400.23
601.59	418.96
601.75	360.44
601.91	418.96
602.06	470.45
602.22	517.26
602.37	376.83
602.53	421.30
602.69	423.64
602.84	428.32
603.00	395.55
603.16	411.93
603.31	383.85
603.47	407.25
603.62	395.55
603.78	461.09
603.94	404.91
604.09	465.77
604.25	421.30
604.40	444.70
604.56	468.11
604.71	395.55
604.87	362.78
605.03	421.30
605.18	374.49
605.34	374.49
605.49	386.19
605.65	372.15
605.80	365.12
605.96	447.04
606.12	393.21
606.27	461.09
606.43	425.98
606.58	482.15
606.74	440.02
606.89	437.68
607.05	395.55
607.20	416.62
607.36	489.17
607.51	430.66
607.67	437.68
607.82	475.13
607.98	425.98
608.13	451.72
608.29	390.87
608.44	367.46
608.60	409.59
608.75	386.19
608.91	360.44
609.06	388.53
609.22	447.04
609.37	425.98
609.53	428.32
609.68	437.68
609.84	435.34
609.99	400.23
610.15	425.98
