SpectraSuite Data File
++++++++++++++++++++++++++++++++++++
Date: Fri Oct 25 12:10:30 EDT 2013
User: price-jones
Dark Spectrum Present: No
Reference Spectrum Present: No
Number of Sampled Component Spectra: 1
Spectrometers: USB2+H05261
Integration Time (usec): 100000 (USB2+H05261)
Spectra Averaged: 1 (USB2+H05261)
Boxcar Smoothing: 0 (USB2+H05261)
Correct for Electrical Dark: No (USB2+H05261)
Strobe/Lamp Enabled: No (USB2+H05261)
Correct for Detector Non-linearity: No (USB2+H05261)
Correct for Stray Light: No (USB2+H05261)
Number of Pixels in Processed Spectrum: 2048
>>>>>Begin Processed Spectral Data<<<<<
365.73	358.10
365.92	358.10
366.12	358.10
366.32	257.46
366.52	224.69
366.72	212.99
366.91	217.67
367.11	220.01
367.31	294.91
367.51	243.42
367.70	259.80
367.90	243.42
368.10	212.99
368.30	182.56
368.49	224.69
368.69	229.37
368.89	311.29
369.09	198.95
369.28	238.73
369.48	318.31
369.68	318.31
369.87	313.63
370.07	344.06
370.27	269.16
370.47	334.70
370.66	262.14
370.86	299.59
371.06	304.27
371.25	383.85
371.45	360.44
371.65	353.42
371.84	353.42
372.04	346.40
372.24	358.10
372.44	409.59
372.63	386.19
372.83	444.70
373.03	437.68
373.22	365.12
373.42	339.38
373.62	425.98
373.81	425.98
374.01	433.00
374.21	416.62
374.40	423.64
374.60	444.70
374.79	468.11
374.99	468.11
375.19	386.19
375.38	456.40
375.58	484.49
375.78	402.57
375.97	428.32
376.17	435.34
376.37	416.62
376.56	393.21
376.76	435.34
376.95	400.23
377.15	383.85
377.35	397.89
377.54	404.91
377.74	325.33
377.93	388.53
378.13	388.53
378.33	496.19
378.52	423.64
378.72	482.15
378.91	496.19
379.11	372.15
379.31	407.25
379.50	353.42
379.70	437.68
379.89	425.98
380.09	479.81
380.28	411.93
380.48	404.91
380.68	470.45
380.87	404.91
381.07	472.79
381.26	435.34
381.46	369.80
381.65	411.93
381.85	400.23
382.04	418.96
382.24	421.30
382.43	404.91
382.63	400.23
382.83	395.55
383.02	360.44
383.22	482.15
383.41	400.23
383.61	376.83
383.80	433.00
384.00	416.62
384.19	395.55
384.39	369.80
384.58	353.42
384.78	437.68
384.97	454.06
385.17	409.59
385.36	430.66
385.56	376.83
385.75	407.25
385.95	407.25
386.14	376.83
386.34	397.89
386.53	393.21
386.72	390.87
386.92	395.55
387.11	465.77
387.31	442.36
387.50	386.19
387.70	404.91
387.89	362.78
388.09	346.40
388.28	353.42
388.48	397.89
388.67	407.25
388.86	428.32
389.06	442.36
389.25	341.72
389.45	425.98
389.64	402.57
389.84	430.66
390.03	414.27
390.22	449.38
390.42	397.89
390.61	402.57
390.81	341.72
391.00	423.64
391.19	435.34
391.39	393.21
391.58	346.40
391.78	393.21
391.97	414.27
392.16	414.27
392.36	437.68
392.55	418.96
392.75	444.70
392.94	482.15
393.13	395.55
393.33	416.62
393.52	430.66
393.71	458.74
393.91	388.53
394.10	362.78
394.29	376.83
394.49	440.02
394.68	411.93
394.88	404.91
395.07	421.30
395.26	376.83
395.46	416.62
395.65	430.66
395.84	383.85
396.04	360.44
396.23	482.15
396.42	358.10
396.62	433.00
396.81	404.91
397.00	365.12
397.19	386.19
397.39	428.32
397.58	465.77
397.77	447.04
397.97	418.96
398.16	414.27
398.35	435.34
398.55	379.17
398.74	367.46
398.93	435.34
399.12	437.68
399.32	381.51
399.51	411.93
399.70	369.80
399.90	381.51
400.09	454.06
400.28	456.40
400.47	334.70
400.67	395.55
400.86	395.55
401.05	451.72
401.24	367.46
401.44	421.30
401.63	416.62
401.82	461.09
402.01	383.85
402.21	397.89
402.40	358.10
402.59	383.85
402.78	423.64
402.97	421.30
403.17	423.64
403.36	388.53
403.55	341.72
403.74	404.91
403.93	383.85
404.13	393.21
404.32	416.62
404.51	339.38
404.70	468.11
404.89	369.80
405.09	435.34
405.28	404.91
405.47	351.08
405.66	339.38
405.85	397.89
406.05	414.27
406.24	433.00
406.43	379.17
406.62	376.83
406.81	479.81
407.00	372.15
407.20	425.98
407.39	433.00
407.58	416.62
407.77	386.19
407.96	383.85
408.15	355.76
408.34	444.70
408.54	372.15
408.73	437.68
408.92	404.91
409.11	425.98
409.30	414.27
409.49	383.85
409.68	421.30
409.87	418.96
410.07	386.19
410.26	388.53
410.45	456.40
410.64	397.89
410.83	386.19
411.02	409.59
411.21	402.57
411.40	454.06
411.59	425.98
411.78	440.02
411.98	479.81
412.17	393.21
412.36	388.53
412.55	344.06
412.74	367.46
412.93	458.74
413.12	351.08
413.31	402.57
413.50	402.57
413.69	433.00
413.88	388.53
414.07	383.85
414.26	421.30
414.45	355.76
414.64	386.19
414.83	390.87
415.02	355.76
415.22	428.32
415.41	472.79
415.60	362.78
415.79	430.66
415.98	442.36
416.17	344.06
416.36	369.80
416.55	414.27
416.74	365.12
416.93	411.93
417.12	374.49
417.31	346.40
417.50	407.25
417.69	374.49
417.88	421.30
418.07	381.51
418.26	456.40
418.45	337.04
418.64	423.64
418.83	423.64
419.02	440.02
419.21	449.38
419.39	435.34
419.58	423.64
419.77	388.53
419.96	416.62
420.15	383.85
420.34	372.15
420.53	454.06
420.72	416.62
420.91	435.34
421.10	423.64
421.29	435.34
421.48	425.98
421.67	383.85
421.86	416.62
422.05	430.66
422.24	435.34
422.43	397.89
422.61	414.27
422.80	458.74
422.99	440.02
423.18	369.80
423.37	458.74
423.56	411.93
423.75	390.87
423.94	409.59
424.13	416.62
424.32	444.70
424.50	421.30
424.69	402.57
424.88	386.19
425.07	397.89
425.26	416.62
425.45	451.72
425.64	383.85
425.83	425.98
426.01	423.64
426.20	407.25
426.39	379.17
426.58	367.46
426.77	423.64
426.96	407.25
427.15	418.96
427.33	339.38
427.52	484.49
427.71	428.32
427.90	358.10
428.09	400.23
428.28	411.93
428.46	390.87
428.65	416.62
428.84	477.47
429.03	383.85
429.22	447.04
429.40	353.42
429.59	322.99
429.78	393.21
429.97	411.93
430.16	397.89
430.34	435.34
430.53	351.08
430.72	360.44
430.91	482.15
431.10	383.85
431.28	367.46
431.47	489.17
431.66	383.85
431.85	376.83
432.03	402.57
432.22	468.11
432.41	379.17
432.60	414.27
432.79	489.17
432.97	381.51
433.16	376.83
433.35	315.97
433.54	444.70
433.72	463.43
433.91	381.51
434.10	442.36
434.28	376.83
434.47	397.89
434.66	341.72
434.85	351.08
435.03	404.91
435.22	475.13
435.41	463.43
435.59	404.91
435.78	451.72
435.97	451.72
436.16	409.59
436.34	428.32
436.53	402.57
436.72	369.80
436.90	388.53
437.09	416.62
437.28	400.23
437.46	421.30
437.65	393.21
437.84	428.32
438.02	463.43
438.21	397.89
438.40	393.21
438.58	362.78
438.77	435.34
438.96	477.47
439.14	440.02
439.33	407.25
439.52	367.46
439.70	386.19
439.89	400.23
440.08	472.79
440.26	379.17
440.45	428.32
440.63	416.62
440.82	383.85
441.01	440.02
441.19	437.68
441.38	444.70
441.57	442.36
441.75	388.53
441.94	444.70
442.12	325.33
442.31	430.66
442.50	421.30
442.68	379.17
442.87	442.36
443.05	395.55
443.24	435.34
443.43	393.21
443.61	482.15
443.80	461.09
443.98	393.21
444.17	430.66
444.35	470.45
444.54	395.55
444.73	423.64
444.91	484.49
445.10	395.55
445.28	402.57
445.47	423.64
445.65	425.98
445.84	355.76
446.02	463.43
446.21	400.23
446.39	433.00
446.58	430.66
446.77	477.47
446.95	402.57
447.14	442.36
447.32	468.11
447.51	365.12
447.69	430.66
447.88	381.51
448.06	458.74
448.25	454.06
448.43	397.89
448.62	416.62
448.80	456.40
448.99	468.11
449.17	393.21
449.36	400.23
449.54	425.98
449.73	358.10
449.91	449.38
450.10	393.21
450.28	470.45
450.46	465.77
450.65	381.51
450.83	411.93
451.02	433.00
451.20	414.27
451.39	348.74
451.57	379.17
451.76	425.98
451.94	393.21
452.13	428.32
452.31	386.19
452.49	416.62
452.68	386.19
452.86	421.30
453.05	358.10
453.23	425.98
453.42	353.42
453.60	414.27
453.78	404.91
453.97	381.51
454.15	344.06
454.34	341.72
454.52	409.59
454.70	435.34
454.89	475.13
455.07	381.51
455.26	444.70
455.44	444.70
455.62	362.78
455.81	390.87
455.99	360.44
456.17	458.74
456.36	374.49
456.54	475.13
456.73	381.51
456.91	330.02
457.09	421.30
457.28	402.57
457.46	430.66
457.64	421.30
457.83	404.91
458.01	400.23
458.19	425.98
458.38	395.55
458.56	367.46
458.74	411.93
458.93	374.49
459.11	463.43
459.29	411.93
459.48	456.40
459.66	437.68
459.84	414.27
460.03	507.90
460.21	454.06
460.39	409.59
460.57	444.70
460.76	418.96
460.94	341.72
461.12	407.25
461.31	421.30
461.49	379.17
461.67	437.68
461.85	332.36
462.04	402.57
462.22	788.76
462.40	430.66
462.59	409.59
462.77	337.04
462.95	358.10
463.13	362.78
463.32	510.24
463.50	435.34
463.68	348.74
463.86	421.30
464.05	418.96
464.23	468.11
464.41	416.62
464.59	447.04
464.78	451.72
464.96	381.51
465.14	381.51
465.32	348.74
465.50	402.57
465.69	397.89
465.87	449.38
466.05	421.30
466.23	369.80
466.41	379.17
466.60	421.30
466.78	430.66
466.96	430.66
467.14	397.89
467.32	428.32
467.51	423.64
467.69	493.85
467.87	493.85
468.05	491.51
468.23	390.87
468.41	418.96
468.60	411.93
468.78	355.76
468.96	381.51
469.14	367.46
469.32	463.43
469.50	390.87
469.69	414.27
469.87	381.51
470.05	393.21
470.23	461.09
470.41	421.30
470.59	514.92
470.77	456.40
470.95	327.68
471.14	388.53
471.32	395.55
471.50	470.45
471.68	447.04
471.86	381.51
472.04	433.00
472.22	449.38
472.40	430.66
472.58	447.04
472.77	388.53
472.95	395.55
473.13	493.85
473.31	367.46
473.49	423.64
473.67	393.21
473.85	397.89
474.03	414.27
474.21	407.25
474.39	411.93
474.57	395.55
474.75	402.57
474.93	358.10
475.12	461.09
475.30	418.96
475.48	472.79
475.66	421.30
475.84	449.38
476.02	461.09
476.20	486.83
476.38	414.27
476.56	482.15
476.74	393.21
476.92	365.12
477.10	397.89
477.28	376.83
477.46	428.32
477.64	379.17
477.82	397.89
478.00	414.27
478.18	393.21
478.36	414.27
478.54	379.17
478.72	440.02
478.90	409.59
479.08	386.19
479.26	372.15
479.44	416.62
479.62	372.15
479.80	362.78
479.98	470.45
480.16	367.46
480.34	524.28
480.52	407.25
480.70	465.77
480.88	407.25
481.06	442.36
481.24	433.00
481.41	416.62
481.59	430.66
481.77	358.10
481.95	379.17
482.13	383.85
482.31	369.80
482.49	379.17
482.67	475.13
482.85	430.66
483.03	390.87
483.21	437.68
483.39	400.23
483.57	430.66
483.74	351.08
483.92	400.23
484.10	442.36
484.28	386.19
484.46	444.70
484.64	428.32
484.82	369.80
485.00	433.00
485.18	449.38
485.35	433.00
485.53	484.49
485.71	470.45
485.89	332.36
486.07	390.87
486.25	470.45
486.43	418.96
486.61	355.76
486.78	484.49
486.96	456.40
487.14	395.55
487.32	358.10
487.50	297.25
487.68	430.66
487.85	430.66
488.03	444.70
488.21	381.51
488.39	425.98
488.57	447.04
488.75	362.78
488.92	510.24
489.10	430.66
489.28	418.96
489.46	365.12
489.64	411.93
489.81	416.62
489.99	425.98
490.17	428.32
490.35	454.06
490.53	414.27
490.70	376.83
490.88	428.32
491.06	397.89
491.24	418.96
491.41	463.43
491.59	388.53
491.77	440.02
491.95	395.55
492.13	416.62
492.30	360.44
492.48	409.59
492.66	416.62
492.84	416.62
493.01	437.68
493.19	334.70
493.37	416.62
493.54	425.98
493.72	437.68
493.90	449.38
494.08	404.91
494.25	404.91
494.43	407.25
494.61	330.02
494.79	458.74
494.96	470.45
495.14	381.51
495.32	437.68
495.49	372.15
495.67	337.04
495.85	320.65
496.02	355.76
496.20	484.49
496.38	491.51
496.55	318.31
496.73	351.08
496.91	435.34
497.09	421.30
497.26	372.15
497.44	512.58
497.62	397.89
497.79	423.64
497.97	409.59
498.14	442.36
498.32	360.44
498.50	447.04
498.67	433.00
498.85	407.25
499.03	339.38
499.20	383.85
499.38	442.36
499.56	402.57
499.73	505.56
499.91	421.30
500.08	437.68
500.26	402.57
500.44	435.34
500.61	447.04
500.79	484.49
500.97	390.87
501.14	477.47
501.32	454.06
501.49	468.11
501.67	421.30
501.84	379.17
502.02	425.98
502.20	390.87
502.37	369.80
502.55	428.32
502.72	411.93
502.90	390.87
503.07	461.09
503.25	404.91
503.43	367.46
503.60	449.38
503.78	442.36
503.95	430.66
504.13	437.68
504.30	435.34
504.48	365.12
504.65	484.49
504.83	456.40
505.01	444.70
505.18	496.19
505.36	437.68
505.53	514.92
505.71	372.15
505.88	423.64
506.06	505.56
506.23	414.27
506.41	311.29
506.58	416.62
506.76	409.59
506.93	353.42
507.11	430.66
507.28	362.78
507.46	414.27
507.63	416.62
507.81	388.53
507.98	425.98
508.16	383.85
508.33	416.62
508.50	461.09
508.68	444.70
508.85	395.55
509.03	395.55
509.20	348.74
509.38	454.06
509.55	428.32
509.73	468.11
509.90	449.38
510.08	444.70
510.25	423.64
510.42	444.70
510.60	451.72
510.77	421.30
510.95	393.21
511.12	468.11
511.30	428.32
511.47	433.00
511.64	376.83
511.82	411.93
511.99	425.98
512.17	400.23
512.34	428.32
512.51	428.32
512.69	402.57
512.86	449.38
513.04	383.85
513.21	484.49
513.38	463.43
513.56	430.66
513.73	341.72
513.90	372.15
514.08	430.66
514.25	428.32
514.43	390.87
514.60	461.09
514.77	334.70
514.95	454.06
515.12	311.29
515.29	482.15
515.47	416.62
515.64	351.08
515.81	468.11
515.99	477.47
516.16	430.66
516.33	477.47
516.51	369.80
516.68	383.85
516.85	358.10
517.03	360.44
517.20	404.91
517.37	447.04
517.54	435.34
517.72	402.57
517.89	402.57
518.06	423.64
518.24	472.79
518.41	437.68
518.58	411.93
518.75	442.36
518.93	444.70
519.10	416.62
519.27	372.15
519.45	418.96
519.62	411.93
519.79	472.79
519.96	409.59
520.14	484.49
520.31	402.57
520.48	440.02
520.65	421.30
520.83	428.32
521.00	425.98
521.17	372.15
521.34	477.47
521.52	449.38
521.69	400.23
521.86	393.21
522.03	367.46
522.20	484.49
522.38	400.23
522.55	402.57
522.72	360.44
522.89	402.57
523.07	444.70
523.24	447.04
523.41	425.98
523.58	407.25
523.75	367.46
523.92	386.19
524.10	425.98
524.27	440.02
524.44	414.27
524.61	409.59
524.78	447.04
524.96	454.06
525.13	449.38
525.30	526.62
525.47	416.62
525.64	386.19
525.81	388.53
525.98	423.64
526.16	400.23
526.33	388.53
526.50	447.04
526.67	458.74
526.84	440.02
527.01	409.59
527.18	493.85
527.36	325.33
527.53	407.25
527.70	418.96
527.87	390.87
528.04	404.91
528.21	442.36
528.38	449.38
528.55	456.40
528.72	418.96
528.89	507.90
529.07	397.89
529.24	498.53
529.41	505.56
529.58	519.60
529.75	393.21
529.92	388.53
530.09	486.83
530.26	374.49
530.43	374.49
530.60	479.81
530.77	411.93
530.94	372.15
531.11	524.28
531.28	395.55
531.46	395.55
531.63	430.66
531.80	376.83
531.97	365.12
532.14	383.85
532.31	397.89
532.48	404.91
532.65	414.27
532.82	355.76
532.99	433.00
533.16	393.21
533.33	409.59
533.50	421.30
533.67	390.87
533.84	414.27
534.01	440.02
534.18	402.57
534.35	418.96
534.52	355.76
534.69	472.79
534.86	411.93
535.03	404.91
535.20	451.72
535.37	477.47
535.54	409.59
535.71	369.80
535.88	479.81
536.05	470.45
536.22	374.49
536.38	484.49
536.55	386.19
536.72	407.25
536.89	393.21
537.06	444.70
537.23	435.34
537.40	421.30
537.57	386.19
537.74	482.15
537.91	468.11
538.08	400.23
538.25	428.32
538.42	447.04
538.59	407.25
538.75	397.89
538.92	430.66
539.09	484.49
539.26	418.96
539.43	376.83
539.60	381.51
539.77	463.43
539.94	421.30
540.11	519.60
540.28	454.06
540.44	437.68
540.61	402.57
540.78	381.51
540.95	327.68
541.12	409.59
541.29	360.44
541.46	468.11
541.62	337.04
541.79	456.40
541.96	458.74
542.13	379.17
542.30	337.04
542.47	479.81
542.63	456.40
542.80	414.27
542.97	414.27
543.14	397.89
543.31	390.87
543.48	411.93
543.64	437.68
543.81	327.68
543.98	304.27
544.15	358.10
544.32	416.62
544.48	442.36
544.65	402.57
544.82	404.91
544.99	404.91
545.16	442.36
545.32	383.85
545.49	479.81
545.66	437.68
545.83	358.10
546.00	486.83
546.16	416.62
546.33	327.68
546.50	402.57
546.67	433.00
546.83	468.11
547.00	411.93
547.17	372.15
547.34	311.29
547.50	435.34
547.67	393.21
547.84	383.85
548.00	449.38
548.17	451.72
548.34	404.91
548.51	486.83
548.67	447.04
548.84	421.30
549.01	414.27
549.18	428.32
549.34	498.53
549.51	409.59
549.68	456.40
549.84	496.19
550.01	449.38
550.18	500.87
550.34	454.06
550.51	428.32
550.68	433.00
550.84	339.38
551.01	390.87
551.18	402.57
551.34	484.49
551.51	395.55
551.68	444.70
551.84	414.27
552.01	372.15
552.18	435.34
552.34	465.77
552.51	461.09
552.68	519.60
552.84	400.23
553.01	437.68
553.18	386.19
553.34	461.09
553.51	400.23
553.67	435.34
553.84	430.66
554.01	386.19
554.17	458.74
554.34	386.19
554.51	407.25
554.67	447.04
554.84	449.38
555.00	465.77
555.17	344.06
555.33	416.62
555.50	472.79
555.67	390.87
555.83	379.17
556.00	414.27
556.16	557.05
556.33	442.36
556.50	437.68
556.66	440.02
556.83	400.23
556.99	442.36
557.16	465.77
557.32	449.38
557.49	433.00
557.65	404.91
557.82	444.70
557.98	463.43
558.15	330.02
558.32	440.02
558.48	372.15
558.65	477.47
558.81	428.32
558.98	418.96
559.14	379.17
559.31	393.21
559.47	451.72
559.64	393.21
559.80	479.81
559.97	325.33
560.13	407.25
560.30	416.62
560.46	451.72
560.63	383.85
560.79	444.70
560.96	386.19
561.12	395.55
561.29	404.91
561.45	404.91
561.61	447.04
561.78	498.53
561.94	407.25
562.11	397.89
562.27	458.74
562.44	365.12
562.60	322.99
562.77	409.59
562.93	430.66
563.10	503.22
563.26	402.57
563.42	437.68
563.59	418.96
563.75	407.25
563.92	503.22
564.08	498.53
564.24	449.38
564.41	414.27
564.57	447.04
564.74	388.53
564.90	407.25
565.07	421.30
565.23	507.90
565.39	367.46
565.56	454.06
565.72	430.66
565.88	472.79
566.05	468.11
566.21	496.19
566.38	400.23
566.54	440.02
566.70	395.55
566.87	376.83
567.03	362.78
567.19	437.68
567.36	390.87
567.52	416.62
567.68	472.79
567.85	468.11
568.01	395.55
568.17	458.74
568.34	465.77
568.50	484.49
568.66	404.91
568.83	461.09
568.99	437.68
569.15	470.45
569.32	454.06
569.48	383.85
569.64	435.34
569.81	402.57
569.97	411.93
570.13	463.43
570.30	376.83
570.46	400.23
570.62	440.02
570.78	456.40
570.95	400.23
571.11	404.91
571.27	458.74
571.43	313.63
571.60	458.74
571.76	386.19
571.92	458.74
572.09	416.62
572.25	428.32
572.41	430.66
572.57	411.93
572.74	425.98
572.90	423.64
573.06	395.55
573.22	430.66
573.38	444.70
573.55	418.96
573.71	444.70
573.87	411.93
574.03	435.34
574.20	435.34
574.36	400.23
574.52	402.57
574.68	447.04
574.84	461.09
575.01	479.81
575.17	430.66
575.33	423.64
575.49	442.36
575.65	388.53
575.82	423.64
575.98	437.68
576.14	414.27
576.30	376.83
576.46	451.72
576.62	435.34
576.79	315.97
576.95	484.49
577.11	304.27
577.27	428.32
577.43	479.81
577.59	411.93
577.75	421.30
577.92	447.04
578.08	395.55
578.24	444.70
578.40	428.32
578.56	388.53
578.72	400.23
578.88	500.87
579.04	458.74
579.21	449.38
579.37	489.17
579.53	351.08
579.69	493.85
579.85	437.68
580.01	411.93
580.17	376.83
580.33	348.74
580.49	437.68
580.65	428.32
580.82	400.23
580.98	411.93
581.14	407.25
581.30	437.68
581.46	388.53
581.62	395.55
581.78	444.70
581.94	418.96
582.10	365.12
582.26	440.02
582.42	372.15
582.58	479.81
582.74	383.85
582.90	479.81
583.06	449.38
583.22	416.62
583.38	369.80
583.54	440.02
583.70	444.70
583.86	402.57
584.02	458.74
584.18	428.32
584.34	381.51
584.50	484.49
584.66	428.32
584.82	456.40
584.98	402.57
585.14	369.80
585.30	451.72
585.46	400.23
585.62	425.98
585.78	407.25
585.94	409.59
586.10	365.12
586.26	402.57
586.42	418.96
586.58	435.34
586.74	390.87
586.90	425.98
587.06	376.83
587.22	421.30
587.38	479.81
587.54	461.09
587.70	393.21
587.86	360.44
588.02	381.51
588.18	411.93
588.34	383.85
588.49	332.36
588.65	388.53
588.81	433.00
588.97	388.53
589.13	339.38
589.29	402.57
589.45	463.43
589.61	411.93
589.77	383.85
589.93	519.60
590.08	374.49
590.24	407.25
590.40	435.34
590.56	409.59
590.72	435.34
590.88	470.45
591.04	404.91
591.20	456.40
591.35	496.19
591.51	442.36
591.67	376.83
591.83	425.98
591.99	470.45
592.15	404.91
592.31	418.96
592.46	440.02
592.62	465.77
592.78	465.77
592.94	374.49
593.10	465.77
593.26	344.06
593.41	402.57
593.57	407.25
593.73	458.74
593.89	428.32
594.05	472.79
594.20	388.53
594.36	493.85
594.52	484.49
594.68	407.25
594.84	461.09
594.99	416.62
595.15	379.17
595.31	418.96
595.47	482.15
595.62	451.72
595.78	351.08
595.94	428.32
596.10	397.89
596.25	386.19
596.41	409.59
596.57	372.15
596.73	442.36
596.88	409.59
597.04	411.93
597.20	379.17
597.36	390.87
597.51	418.96
597.67	418.96
597.83	390.87
597.99	524.28
598.14	379.17
598.30	395.55
598.46	465.77
598.61	435.34
598.77	416.62
598.93	496.19
599.09	416.62
599.24	433.00
599.40	435.34
599.56	346.40
599.71	421.30
599.87	390.87
600.03	402.57
600.18	386.19
600.34	428.32
600.50	425.98
600.65	440.02
600.81	416.62
600.97	475.13
601.12	407.25
601.28	423.64
601.44	444.70
601.59	421.30
601.75	456.40
601.91	360.44
602.06	435.34
602.22	468.11
602.37	395.55
602.53	423.64
602.69	428.32
602.84	442.36
603.00	390.87
603.16	437.68
603.31	407.25
603.47	404.91
603.62	346.40
603.78	402.57
603.94	458.74
604.09	395.55
604.25	423.64
604.40	390.87
604.56	435.34
604.71	390.87
604.87	454.06
605.03	421.30
605.18	468.11
605.34	449.38
605.49	409.59
605.65	447.04
605.80	400.23
605.96	381.51
606.12	503.22
606.27	454.06
606.43	379.17
606.58	395.55
606.74	484.49
606.89	407.25
607.05	512.58
607.20	411.93
607.36	454.06
607.51	416.62
607.67	402.57
607.82	397.89
607.98	447.04
608.13	470.45
608.29	388.53
608.44	444.70
608.60	393.21
608.75	423.64
608.91	388.53
609.06	397.89
609.22	423.64
609.37	379.17
609.53	395.55
609.68	428.32
609.84	400.23
609.99	414.27
610.15	463.43
