SpectraSuite Data File
++++++++++++++++++++++++++++++++++++
Date: Fri Oct 25 12:10:37 EDT 2013
User: price-jones
Dark Spectrum Present: No
Reference Spectrum Present: No
Number of Sampled Component Spectra: 1
Spectrometers: USB2+H05261
Integration Time (usec): 100000 (USB2+H05261)
Spectra Averaged: 1 (USB2+H05261)
Boxcar Smoothing: 0 (USB2+H05261)
Correct for Electrical Dark: No (USB2+H05261)
Strobe/Lamp Enabled: No (USB2+H05261)
Correct for Detector Non-linearity: No (USB2+H05261)
Correct for Stray Light: No (USB2+H05261)
Number of Pixels in Processed Spectrum: 2048
>>>>>Begin Processed Spectral Data<<<<<
365.73	320.65
365.92	320.65
366.12	320.65
366.32	283.20
366.52	234.05
366.72	255.12
366.91	180.22
367.11	276.18
367.31	222.35
367.51	231.71
367.70	257.46
367.90	229.37
368.10	236.39
368.30	201.29
368.49	210.65
368.69	224.69
368.89	299.59
369.09	250.44
369.28	224.69
369.48	311.29
369.68	252.78
369.87	301.93
370.07	285.55
370.27	306.61
370.47	308.95
370.66	322.99
370.86	367.46
371.06	411.93
371.25	411.93
371.45	388.53
371.65	409.59
371.84	416.62
372.04	365.12
372.24	409.59
372.44	390.87
372.63	367.46
372.83	454.06
373.03	365.12
373.22	383.85
373.42	355.76
373.62	362.78
373.81	444.70
374.01	454.06
374.21	458.74
374.40	404.91
374.60	461.09
374.79	339.38
374.99	447.04
375.19	390.87
375.38	372.15
375.58	379.17
375.78	423.64
375.97	362.78
376.17	383.85
376.37	416.62
376.56	397.89
376.76	440.02
376.95	390.87
377.15	407.25
377.35	409.59
377.54	440.02
377.74	444.70
377.93	409.59
378.13	395.55
378.33	411.93
378.52	440.02
378.72	468.11
378.91	379.17
379.11	416.62
379.31	407.25
379.50	320.65
379.70	304.27
379.89	367.46
380.09	395.55
380.28	411.93
380.48	440.02
380.68	381.51
380.87	411.93
381.07	362.78
381.26	428.32
381.46	348.74
381.65	381.51
381.85	411.93
382.04	337.04
382.24	456.40
382.43	407.25
382.63	322.99
382.83	365.12
383.02	423.64
383.22	493.85
383.41	430.66
383.61	362.78
383.80	454.06
384.00	372.15
384.19	418.96
384.39	435.34
384.58	407.25
384.78	472.79
384.97	400.23
385.17	355.76
385.36	407.25
385.56	397.89
385.75	327.68
385.95	383.85
386.14	418.96
386.34	388.53
386.53	404.91
386.72	449.38
386.92	449.38
387.11	388.53
387.31	404.91
387.50	353.42
387.70	390.87
387.89	372.15
388.09	360.44
388.28	374.49
388.48	322.99
388.67	416.62
388.86	379.17
389.06	449.38
389.25	407.25
389.45	407.25
389.64	433.00
389.84	388.53
390.03	451.72
390.22	442.36
390.42	402.57
390.61	458.74
390.81	341.72
391.00	416.62
391.19	425.98
391.39	388.53
391.58	407.25
391.78	425.98
391.97	465.77
392.16	430.66
392.36	428.32
392.55	442.36
392.75	447.04
392.94	423.64
393.13	362.78
393.33	334.70
393.52	470.45
393.71	447.04
393.91	486.83
394.10	409.59
394.29	290.23
394.49	402.57
394.68	428.32
394.88	472.79
395.07	440.02
395.26	376.83
395.46	423.64
395.65	458.74
395.84	386.19
396.04	463.43
396.23	386.19
396.42	386.19
396.62	428.32
396.81	428.32
397.00	390.87
397.19	397.89
397.39	447.04
397.58	386.19
397.77	369.80
397.97	435.34
398.16	414.27
398.35	414.27
398.55	477.47
398.74	465.77
398.93	477.47
399.12	421.30
399.32	447.04
399.51	386.19
399.70	393.21
399.90	348.74
400.09	393.21
400.28	402.57
400.47	414.27
400.67	402.57
400.86	376.83
401.05	421.30
401.24	435.34
401.44	381.51
401.63	409.59
401.82	351.08
402.01	393.21
402.21	437.68
402.40	440.02
402.59	402.57
402.78	477.47
402.97	407.25
403.17	447.04
403.36	454.06
403.55	400.23
403.74	404.91
403.93	400.23
404.13	440.02
404.32	381.51
404.51	362.78
404.70	505.56
404.89	376.83
405.09	411.93
405.28	374.49
405.47	458.74
405.66	379.17
405.85	379.17
406.05	397.89
406.24	402.57
406.43	458.74
406.62	388.53
406.81	402.57
407.00	458.74
407.20	353.42
407.39	344.06
407.58	402.57
407.77	435.34
407.96	407.25
408.15	486.83
408.34	444.70
408.54	381.51
408.73	390.87
408.92	449.38
409.11	423.64
409.30	479.81
409.49	400.23
409.68	423.64
409.87	409.59
410.07	437.68
410.26	379.17
410.45	461.09
410.64	447.04
410.83	400.23
411.02	369.80
411.21	416.62
411.40	428.32
411.59	344.06
411.78	430.66
411.98	374.49
412.17	332.36
412.36	397.89
412.55	440.02
412.74	465.77
412.93	414.27
413.12	360.44
413.31	477.47
413.50	402.57
413.69	374.49
413.88	353.42
414.07	372.15
414.26	383.85
414.45	444.70
414.64	362.78
414.83	414.27
415.02	390.87
415.22	444.70
415.41	442.36
415.60	451.72
415.79	383.85
415.98	411.93
416.17	334.70
416.36	325.33
416.55	393.21
416.74	395.55
416.93	425.98
417.12	409.59
417.31	397.89
417.50	393.21
417.69	414.27
417.88	425.98
418.07	409.59
418.26	416.62
418.45	369.80
418.64	421.30
418.83	414.27
419.02	423.64
419.21	447.04
419.39	379.17
419.58	372.15
419.77	402.57
419.96	451.72
420.15	463.43
420.34	355.76
420.53	444.70
420.72	418.96
420.91	435.34
421.10	418.96
421.29	376.83
421.48	365.12
421.67	465.77
421.86	414.27
422.05	449.38
422.24	418.96
422.43	339.38
422.61	337.04
422.80	400.23
422.99	374.49
423.18	437.68
423.37	442.36
423.56	374.49
423.75	400.23
423.94	482.15
424.13	435.34
424.32	444.70
424.50	514.92
424.69	376.83
424.88	407.25
425.07	421.30
425.26	322.99
425.45	442.36
425.64	386.19
425.83	402.57
426.01	388.53
426.20	395.55
426.39	472.79
426.58	430.66
426.77	376.83
426.96	418.96
427.15	358.10
427.33	393.21
427.52	442.36
427.71	414.27
427.90	435.34
428.09	395.55
428.28	451.72
428.46	397.89
428.65	470.45
428.84	442.36
429.03	395.55
429.22	367.46
429.40	327.68
429.59	337.04
429.78	369.80
429.97	348.74
430.16	400.23
430.34	423.64
430.53	461.09
430.72	475.13
430.91	414.27
431.10	351.08
431.28	351.08
431.47	414.27
431.66	372.15
431.85	400.23
432.03	433.00
432.22	437.68
432.41	393.21
432.60	409.59
432.79	435.34
432.97	447.04
433.16	365.12
433.35	463.43
433.54	388.53
433.72	425.98
433.91	498.53
434.10	433.00
434.28	423.64
434.47	425.98
434.66	430.66
434.85	386.19
435.03	437.68
435.22	482.15
435.41	449.38
435.59	463.43
435.78	463.43
435.97	433.00
436.16	402.57
436.34	421.30
436.53	404.91
436.72	456.40
436.90	381.51
437.09	421.30
437.28	369.80
437.46	360.44
437.65	545.34
437.84	421.30
438.02	407.25
438.21	379.17
438.40	458.74
438.58	411.93
438.77	339.38
438.96	374.49
439.14	423.64
439.33	379.17
439.52	360.44
439.70	411.93
439.89	514.92
440.08	414.27
440.26	418.96
440.45	433.00
440.63	421.30
440.82	442.36
441.01	435.34
441.19	447.04
441.38	472.79
441.57	475.13
441.75	423.64
441.94	395.55
442.12	332.36
442.31	411.93
442.50	348.74
442.68	472.79
442.87	409.59
443.05	353.42
443.24	425.98
443.43	330.02
443.61	397.89
443.80	416.62
443.98	404.91
444.17	414.27
444.35	444.70
444.54	374.49
444.73	379.17
444.91	470.45
445.10	409.59
445.28	397.89
445.47	463.43
445.65	430.66
445.84	435.34
446.02	365.12
446.21	418.96
446.39	433.00
446.58	416.62
446.77	418.96
446.95	475.13
447.14	360.44
447.32	423.64
447.51	433.00
447.69	411.93
447.88	344.06
448.06	468.11
448.25	411.93
448.43	416.62
448.62	484.49
448.80	484.49
448.99	409.59
449.17	348.74
449.36	454.06
449.54	402.57
449.73	348.74
449.91	400.23
450.10	407.25
450.28	423.64
450.46	409.59
450.65	416.62
450.83	433.00
451.02	435.34
451.20	381.51
451.39	433.00
451.57	411.93
451.76	442.36
451.94	425.98
452.13	418.96
452.31	362.78
452.49	433.00
452.68	388.53
452.86	397.89
453.05	454.06
453.23	414.27
453.42	395.55
453.60	395.55
453.78	456.40
453.97	454.06
454.15	397.89
454.34	409.59
454.52	360.44
454.70	425.98
454.89	449.38
455.07	360.44
455.26	379.17
455.44	376.83
455.62	355.76
455.81	402.57
455.99	433.00
456.17	468.11
456.36	400.23
456.54	341.72
456.73	442.36
456.91	416.62
457.09	414.27
457.28	318.31
457.46	381.51
457.64	425.98
457.83	372.15
458.01	351.08
458.19	433.00
458.38	421.30
458.56	433.00
458.74	393.21
458.93	418.96
459.11	400.23
459.29	379.17
459.48	489.17
459.66	393.21
459.84	397.89
460.03	397.89
460.21	355.76
460.39	379.17
460.57	470.45
460.76	461.09
460.94	367.46
461.12	414.27
461.31	440.02
461.49	491.51
461.67	376.83
461.85	411.93
462.04	428.32
462.22	842.59
462.40	395.55
462.59	409.59
462.77	430.66
462.95	393.21
463.13	332.36
463.32	393.21
463.50	381.51
463.68	430.66
463.86	337.04
464.05	435.34
464.23	449.38
464.41	365.12
464.59	477.47
464.78	402.57
464.96	428.32
465.14	425.98
465.32	400.23
465.50	437.68
465.69	442.36
465.87	421.30
466.05	315.97
466.23	414.27
466.41	407.25
466.60	456.40
466.78	447.04
466.96	491.51
467.14	404.91
467.32	428.32
467.51	456.40
467.69	442.36
467.87	411.93
468.05	414.27
468.23	484.49
468.41	404.91
468.60	447.04
468.78	503.22
468.96	348.74
469.14	390.87
469.32	433.00
469.50	388.53
469.69	404.91
469.87	379.17
470.05	372.15
470.23	442.36
470.41	409.59
470.59	395.55
470.77	425.98
470.95	479.81
471.14	423.64
471.32	386.19
471.50	416.62
471.68	416.62
471.86	367.46
472.04	379.17
472.22	491.51
472.40	442.36
472.58	470.45
472.77	351.08
472.95	461.09
473.13	435.34
473.31	447.04
473.49	407.25
473.67	383.85
473.85	433.00
474.03	442.36
474.21	409.59
474.39	451.72
474.57	463.43
474.75	409.59
474.93	390.87
475.12	402.57
475.30	456.40
475.48	379.17
475.66	411.93
475.84	390.87
476.02	407.25
476.20	393.21
476.38	411.93
476.56	503.22
476.74	334.70
476.92	388.53
477.10	416.62
477.28	346.40
477.46	433.00
477.64	421.30
477.82	355.76
478.00	465.77
478.18	430.66
478.36	383.85
478.54	346.40
478.72	395.55
478.90	393.21
479.08	372.15
479.26	407.25
479.44	449.38
479.62	442.36
479.80	411.93
479.98	365.12
480.16	353.42
480.34	475.13
480.52	475.13
480.70	444.70
480.88	397.89
481.06	416.62
481.24	418.96
481.41	456.40
481.59	435.34
481.77	437.68
481.95	386.19
482.13	449.38
482.31	390.87
482.49	440.02
482.67	355.76
482.85	395.55
483.03	463.43
483.21	421.30
483.39	404.91
483.57	423.64
483.74	454.06
483.92	386.19
484.10	390.87
484.28	386.19
484.46	440.02
484.64	437.68
484.82	416.62
485.00	409.59
485.18	458.74
485.35	416.62
485.53	416.62
485.71	379.17
485.89	475.13
486.07	386.19
486.25	416.62
486.43	425.98
486.61	397.89
486.78	367.46
486.96	332.36
487.14	390.87
487.32	353.42
487.50	386.19
487.68	449.38
487.85	381.51
488.03	351.08
488.21	465.77
488.39	503.22
488.57	454.06
488.75	369.80
488.92	585.13
489.10	395.55
489.28	465.77
489.46	386.19
489.64	397.89
489.81	355.76
489.99	388.53
490.17	454.06
490.35	465.77
490.53	397.89
490.70	423.64
490.88	416.62
491.06	409.59
491.24	386.19
491.41	456.40
491.59	496.19
491.77	358.10
491.95	404.91
492.13	355.76
492.30	425.98
492.48	451.72
492.66	397.89
492.84	414.27
493.01	402.57
493.19	421.30
493.37	416.62
493.54	444.70
493.72	365.12
493.90	402.57
494.08	411.93
494.25	414.27
494.43	379.17
494.61	337.04
494.79	433.00
494.96	379.17
495.14	400.23
495.32	440.02
495.49	379.17
495.67	421.30
495.85	444.70
496.02	353.42
496.20	423.64
496.38	353.42
496.55	388.53
496.73	376.83
496.91	376.83
497.09	367.46
497.26	369.80
497.44	402.57
497.62	451.72
497.79	362.78
497.97	397.89
498.14	414.27
498.32	454.06
498.50	397.89
498.67	351.08
498.85	418.96
499.03	332.36
499.20	416.62
499.38	491.51
499.56	421.30
499.73	451.72
499.91	362.78
500.08	367.46
500.26	332.36
500.44	376.83
500.61	418.96
500.79	383.85
500.97	449.38
501.14	454.06
501.32	381.51
501.49	440.02
501.67	444.70
501.84	376.83
502.02	376.83
502.20	388.53
502.37	482.15
502.55	435.34
502.72	393.21
502.90	411.93
503.07	369.80
503.25	418.96
503.43	390.87
503.60	458.74
503.78	409.59
503.95	341.72
504.13	376.83
504.30	437.68
504.48	400.23
504.65	355.76
504.83	428.32
505.01	491.51
505.18	437.68
505.36	379.17
505.53	388.53
505.71	470.45
505.88	486.83
506.06	425.98
506.23	423.64
506.41	374.49
506.58	409.59
506.76	425.98
506.93	393.21
507.11	369.80
507.28	397.89
507.46	461.09
507.63	402.57
507.81	393.21
507.98	451.72
508.16	409.59
508.33	421.30
508.50	369.80
508.68	468.11
508.85	421.30
509.03	332.36
509.20	409.59
509.38	390.87
509.55	477.47
509.73	414.27
509.90	355.76
510.08	365.12
510.25	411.93
510.42	294.91
510.60	409.59
510.77	482.15
510.95	479.81
511.12	360.44
511.30	367.46
511.47	486.83
511.64	479.81
511.82	376.83
511.99	416.62
512.17	402.57
512.34	477.47
512.51	376.83
512.69	482.15
512.86	393.21
513.04	358.10
513.21	437.68
513.38	376.83
513.56	383.85
513.73	353.42
513.90	386.19
514.08	454.06
514.25	421.30
514.43	409.59
514.60	355.76
514.77	400.23
514.95	414.27
515.12	435.34
515.29	491.51
515.47	470.45
515.64	440.02
515.81	404.91
515.99	421.30
516.16	425.98
516.33	409.59
516.51	372.15
516.68	367.46
516.85	407.25
517.03	379.17
517.20	407.25
517.37	332.36
517.54	428.32
517.72	341.72
517.89	390.87
518.06	407.25
518.24	442.36
518.41	407.25
518.58	388.53
518.75	397.89
518.93	505.56
519.10	390.87
519.27	414.27
519.45	400.23
519.62	388.53
519.79	414.27
519.96	454.06
520.14	393.21
520.31	440.02
520.48	468.11
520.65	360.44
520.83	442.36
521.00	447.04
521.17	425.98
521.34	430.66
521.52	463.43
521.69	409.59
521.86	416.62
522.03	423.64
522.20	411.93
522.38	400.23
522.55	430.66
522.72	334.70
522.89	435.34
523.07	503.22
523.24	444.70
523.41	416.62
523.58	404.91
523.75	376.83
523.92	409.59
524.10	355.76
524.27	388.53
524.44	423.64
524.61	500.87
524.78	423.64
524.96	489.17
525.13	411.93
525.30	517.26
525.47	493.85
525.64	390.87
525.81	458.74
525.98	496.19
526.16	421.30
526.33	362.78
526.50	423.64
526.67	374.49
526.84	423.64
527.01	400.23
527.18	411.93
527.36	388.53
527.53	388.53
527.70	383.85
527.87	444.70
528.04	414.27
528.21	388.53
528.38	461.09
528.55	489.17
528.72	475.13
528.89	433.00
529.07	400.23
529.24	414.27
529.41	423.64
529.58	388.53
529.75	484.49
529.92	411.93
530.09	346.40
530.26	430.66
530.43	433.00
530.60	388.53
530.77	458.74
530.94	369.80
531.11	486.83
531.28	411.93
531.46	404.91
531.63	486.83
531.80	472.79
531.97	447.04
532.14	390.87
532.31	442.36
532.48	470.45
532.65	442.36
532.82	430.66
532.99	386.19
533.16	418.96
533.33	400.23
533.50	477.47
533.67	390.87
533.84	414.27
534.01	454.06
534.18	449.38
534.35	421.30
534.52	404.91
534.69	449.38
534.86	416.62
535.03	402.57
535.20	411.93
535.37	402.57
535.54	437.68
535.71	454.06
535.88	454.06
536.05	381.51
536.22	369.80
536.38	365.12
536.55	355.76
536.72	416.62
536.89	425.98
537.06	416.62
537.23	355.76
537.40	341.72
537.57	430.66
537.74	454.06
537.91	421.30
538.08	475.13
538.25	472.79
538.42	409.59
538.59	418.96
538.75	411.93
538.92	444.70
539.09	355.76
539.26	411.93
539.43	407.25
539.60	390.87
539.77	400.23
539.94	491.51
540.11	388.53
540.28	435.34
540.44	475.13
540.61	430.66
540.78	437.68
540.95	425.98
541.12	407.25
541.29	339.38
541.46	463.43
541.62	461.09
541.79	379.17
541.96	376.83
542.13	327.68
542.30	362.78
542.47	402.57
542.63	416.62
542.80	414.27
542.97	402.57
543.14	374.49
543.31	390.87
543.48	376.83
543.64	489.17
543.81	463.43
543.98	404.91
544.15	404.91
544.32	430.66
544.48	383.85
544.65	435.34
544.82	374.49
544.99	428.32
545.16	463.43
545.32	472.79
545.49	482.15
545.66	409.59
545.83	411.93
546.00	369.80
546.16	400.23
546.33	465.77
546.50	416.62
546.67	423.64
546.83	376.83
547.00	411.93
547.17	407.25
547.34	388.53
547.50	390.87
547.67	425.98
547.84	351.08
548.00	395.55
548.17	388.53
548.34	430.66
548.51	402.57
548.67	390.87
548.84	402.57
549.01	367.46
549.18	454.06
549.34	400.23
549.51	367.46
549.68	428.32
549.84	477.47
550.01	423.64
550.18	479.81
550.34	440.02
550.51	461.09
550.68	486.83
550.84	416.62
551.01	383.85
551.18	411.93
551.34	454.06
551.51	491.51
551.68	442.36
551.84	400.23
552.01	362.78
552.18	381.51
552.34	484.49
552.51	341.72
552.68	390.87
552.84	423.64
553.01	418.96
553.18	442.36
553.34	461.09
553.51	416.62
553.67	395.55
553.84	400.23
554.01	372.15
554.17	470.45
554.34	430.66
554.51	447.04
554.67	454.06
554.84	468.11
555.00	433.00
555.17	416.62
555.33	337.04
555.50	418.96
555.67	489.17
555.83	433.00
556.00	423.64
556.16	543.00
556.33	374.49
556.50	411.93
556.66	430.66
556.83	468.11
556.99	388.53
557.16	442.36
557.32	388.53
557.49	447.04
557.65	402.57
557.82	442.36
557.98	437.68
558.15	454.06
558.32	430.66
558.48	395.55
558.65	449.38
558.81	449.38
558.98	397.89
559.14	379.17
559.31	376.83
559.47	430.66
559.64	404.91
559.80	374.49
559.97	367.46
560.13	381.51
560.30	411.93
560.46	344.06
560.63	433.00
560.79	362.78
560.96	400.23
561.12	388.53
561.29	423.64
561.45	458.74
561.61	411.93
561.78	428.32
561.94	402.57
562.11	442.36
562.27	351.08
562.44	442.36
562.60	388.53
562.77	351.08
562.93	482.15
563.10	416.62
563.26	435.34
563.42	484.49
563.59	409.59
563.75	360.44
563.92	395.55
564.08	390.87
564.24	430.66
564.41	425.98
564.57	372.15
564.74	433.00
564.90	372.15
565.07	493.85
565.23	456.40
565.39	407.25
565.56	442.36
565.72	379.17
565.88	376.83
566.05	379.17
566.21	404.91
566.38	369.80
566.54	414.27
566.70	421.30
566.87	402.57
567.03	358.10
567.19	341.72
567.36	447.04
567.52	393.21
567.68	442.36
567.85	418.96
568.01	451.72
568.17	330.02
568.34	367.46
568.50	407.25
568.66	386.19
568.83	510.24
568.99	383.85
569.15	442.36
569.32	390.87
569.48	334.70
569.64	383.85
569.81	351.08
569.97	393.21
570.13	418.96
570.30	416.62
570.46	421.30
570.62	461.09
570.78	379.17
570.95	313.63
571.11	383.85
571.27	496.19
571.43	472.79
571.60	489.17
571.76	397.89
571.92	440.02
572.09	369.80
572.25	374.49
572.41	411.93
572.57	472.79
572.74	404.91
572.90	437.68
573.06	465.77
573.22	454.06
573.38	407.25
573.55	416.62
573.71	449.38
573.87	454.06
574.03	465.77
574.20	437.68
574.36	493.85
574.52	428.32
574.68	379.17
574.84	421.30
575.01	489.17
575.17	503.22
575.33	449.38
575.49	372.15
575.65	404.91
575.82	390.87
575.98	379.17
576.14	383.85
576.30	383.85
576.46	393.21
576.62	514.92
576.79	376.83
576.95	475.13
577.11	332.36
577.27	440.02
577.43	418.96
577.59	451.72
577.75	458.74
577.92	451.72
578.08	414.27
578.24	447.04
578.40	358.10
578.56	372.15
578.72	433.00
578.88	402.57
579.04	442.36
579.21	500.87
579.37	374.49
579.53	355.76
579.69	479.81
579.85	369.80
580.01	372.15
580.17	402.57
580.33	470.45
580.49	456.40
580.65	376.83
580.82	395.55
580.98	489.17
581.14	468.11
581.30	414.27
581.46	393.21
581.62	418.96
581.78	447.04
581.94	428.32
582.10	414.27
582.26	454.06
582.42	414.27
582.58	416.62
582.74	435.34
582.90	374.49
583.06	418.96
583.22	435.34
583.38	414.27
583.54	339.38
583.70	428.32
583.86	440.02
584.02	393.21
584.18	372.15
584.34	470.45
584.50	330.02
584.66	358.10
584.82	372.15
584.98	383.85
585.14	421.30
585.30	454.06
585.46	442.36
585.62	362.78
585.78	430.66
585.94	383.85
586.10	365.12
586.26	400.23
586.42	463.43
586.58	411.93
586.74	411.93
586.90	454.06
587.06	458.74
587.22	421.30
587.38	458.74
587.54	456.40
587.70	456.40
587.86	390.87
588.02	402.57
588.18	383.85
588.34	423.64
588.49	376.83
588.65	421.30
588.81	447.04
588.97	327.68
589.13	397.89
589.29	409.59
589.45	425.98
589.61	491.51
589.77	500.87
589.93	437.68
590.08	400.23
590.24	383.85
590.40	388.53
590.56	451.72
590.72	365.12
590.88	435.34
591.04	386.19
591.20	433.00
591.35	440.02
591.51	404.91
591.67	383.85
591.83	358.10
591.99	393.21
592.15	421.30
592.31	482.15
592.46	444.70
592.62	386.19
592.78	369.80
592.94	383.85
593.10	404.91
593.26	449.38
593.41	456.40
593.57	425.98
593.73	425.98
593.89	393.21
594.05	369.80
594.20	435.34
594.36	507.90
594.52	383.85
594.68	386.19
594.84	465.77
594.99	477.47
595.15	421.30
595.31	440.02
595.47	484.49
595.62	416.62
595.78	440.02
595.94	447.04
596.10	435.34
596.25	489.17
596.41	407.25
596.57	407.25
596.73	379.17
596.88	444.70
597.04	472.79
597.20	421.30
597.36	397.89
597.51	355.76
597.67	411.93
597.83	451.72
597.99	430.66
598.14	402.57
598.30	493.85
598.46	421.30
598.61	425.98
598.77	449.38
598.93	430.66
599.09	411.93
599.24	447.04
599.40	433.00
599.56	416.62
599.71	341.72
599.87	437.68
600.03	421.30
600.18	383.85
600.34	435.34
600.50	369.80
600.65	334.70
600.81	482.15
600.97	388.53
601.12	444.70
601.28	444.70
601.44	440.02
601.59	393.21
601.75	472.79
601.91	470.45
602.06	414.27
602.22	430.66
602.37	414.27
602.53	435.34
602.69	418.96
602.84	433.00
603.00	397.89
603.16	458.74
603.31	444.70
603.47	418.96
603.62	369.80
603.78	395.55
603.94	437.68
604.09	353.42
604.25	414.27
604.40	376.83
604.56	465.77
604.71	353.42
604.87	372.15
605.03	395.55
605.18	404.91
605.34	435.34
605.49	390.87
605.65	388.53
605.80	407.25
605.96	444.70
606.12	475.13
606.27	428.32
606.43	395.55
606.58	397.89
606.74	461.09
606.89	414.27
607.05	479.81
607.20	458.74
607.36	409.59
607.51	428.32
607.67	402.57
607.82	491.51
607.98	409.59
608.13	475.13
608.29	395.55
608.44	416.62
608.60	397.89
608.75	500.87
608.91	444.70
609.06	428.32
609.22	454.06
609.37	397.89
609.53	386.19
609.68	423.64
609.84	423.64
609.99	456.40
610.15	470.45
