SpectraSuite Data File
++++++++++++++++++++++++++++++++++++
Date: Fri Oct 25 12:11:43 EDT 2013
User: price-jones
Dark Spectrum Present: No
Reference Spectrum Present: No
Number of Sampled Component Spectra: 1
Spectrometers: USB2+H05261
Integration Time (usec): 100000 (USB2+H05261)
Spectra Averaged: 1 (USB2+H05261)
Boxcar Smoothing: 0 (USB2+H05261)
Correct for Electrical Dark: No (USB2+H05261)
Strobe/Lamp Enabled: No (USB2+H05261)
Correct for Detector Non-linearity: No (USB2+H05261)
Correct for Stray Light: No (USB2+H05261)
Number of Pixels in Processed Spectrum: 2048
>>>>>Begin Processed Spectral Data<<<<<
365.73	376.83
365.92	376.83
366.12	376.83
366.32	290.23
366.52	320.65
366.72	283.20
366.91	184.90
367.11	201.29
367.31	245.76
367.51	271.50
367.70	184.90
367.90	322.99
368.10	229.37
368.30	290.23
368.49	229.37
368.69	236.39
368.89	238.73
369.09	313.63
369.28	220.01
369.48	266.82
369.68	250.44
369.87	330.02
370.07	304.27
370.27	301.93
370.47	313.63
370.66	325.33
370.86	386.19
371.06	346.40
371.25	414.27
371.45	435.34
371.65	332.36
371.84	372.15
372.04	383.85
372.24	348.74
372.44	428.32
372.63	498.53
372.83	395.55
373.03	418.96
373.22	346.40
373.42	491.51
373.62	449.38
373.81	447.04
374.01	454.06
374.21	428.32
374.40	444.70
374.60	482.15
374.79	451.72
374.99	353.42
375.19	409.59
375.38	479.81
375.58	358.10
375.78	440.02
375.97	451.72
376.17	458.74
376.37	332.36
376.56	456.40
376.76	348.74
376.95	337.04
377.15	414.27
377.35	376.83
377.54	407.25
377.74	414.27
377.93	372.15
378.13	407.25
378.33	393.21
378.52	390.87
378.72	470.45
378.91	447.04
379.11	418.96
379.31	451.72
379.50	383.85
379.70	451.72
379.89	393.21
380.09	400.23
380.28	355.76
380.48	397.89
380.68	411.93
380.87	400.23
381.07	416.62
381.26	407.25
381.46	428.32
381.65	418.96
381.85	355.76
382.04	322.99
382.24	402.57
382.43	423.64
382.63	451.72
382.83	397.89
383.02	486.83
383.22	444.70
383.41	393.21
383.61	341.72
383.80	461.09
384.00	414.27
384.19	390.87
384.39	372.15
384.58	404.91
384.78	456.40
384.97	327.68
385.17	440.02
385.36	353.42
385.56	484.49
385.75	381.51
385.95	409.59
386.14	409.59
386.34	390.87
386.53	411.93
386.72	409.59
386.92	383.85
387.11	472.79
387.31	365.12
387.50	400.23
387.70	442.36
387.89	383.85
388.09	393.21
388.28	400.23
388.48	414.27
388.67	395.55
388.86	388.53
389.06	475.13
389.25	444.70
389.45	440.02
389.64	458.74
389.84	440.02
390.03	374.49
390.22	400.23
390.42	416.62
390.61	454.06
390.81	383.85
391.00	423.64
391.19	461.09
391.39	437.68
391.58	468.11
391.78	383.85
391.97	418.96
392.16	397.89
392.36	428.32
392.55	514.92
392.75	374.49
392.94	433.00
393.13	395.55
393.33	381.51
393.52	425.98
393.71	456.40
393.91	353.42
394.10	416.62
394.29	442.36
394.49	484.49
394.68	400.23
394.88	409.59
395.07	444.70
395.26	444.70
395.46	383.85
395.65	390.87
395.84	447.04
396.04	463.43
396.23	407.25
396.42	425.98
396.62	402.57
396.81	414.27
397.00	353.42
397.19	402.57
397.39	477.47
397.58	409.59
397.77	383.85
397.97	407.25
398.16	379.17
398.35	386.19
398.55	421.30
398.74	407.25
398.93	421.30
399.12	425.98
399.32	381.51
399.51	369.80
399.70	428.32
399.90	451.72
400.09	353.42
400.28	444.70
400.47	442.36
400.67	442.36
400.86	393.21
401.05	379.17
401.24	451.72
401.44	428.32
401.63	402.57
401.82	418.96
402.01	376.83
402.21	374.49
402.40	404.91
402.59	400.23
402.78	388.53
402.97	454.06
403.17	444.70
403.36	344.06
403.55	475.13
403.74	367.46
403.93	482.15
404.13	482.15
404.32	449.38
404.51	418.96
404.70	397.89
404.89	386.19
405.09	437.68
405.28	402.57
405.47	376.83
405.66	404.91
405.85	346.40
406.05	409.59
406.24	444.70
406.43	369.80
406.62	437.68
406.81	440.02
407.00	402.57
407.20	390.87
407.39	414.27
407.58	418.96
407.77	463.43
407.96	393.21
408.15	409.59
408.34	388.53
408.54	418.96
408.73	425.98
408.92	472.79
409.11	379.17
409.30	454.06
409.49	397.89
409.68	402.57
409.87	482.15
410.07	367.46
410.26	348.74
410.45	390.87
410.64	365.12
410.83	456.40
411.02	414.27
411.21	395.55
411.40	397.89
411.59	409.59
411.78	444.70
411.98	381.51
412.17	472.79
412.36	484.49
412.55	421.30
412.74	395.55
412.93	505.56
413.12	423.64
413.31	444.70
413.50	423.64
413.69	456.40
413.88	435.34
414.07	402.57
414.26	367.46
414.45	444.70
414.64	409.59
414.83	374.49
415.02	397.89
415.22	407.25
415.41	414.27
415.60	421.30
415.79	425.98
415.98	454.06
416.17	451.72
416.36	414.27
416.55	430.66
416.74	451.72
416.93	390.87
417.12	369.80
417.31	404.91
417.50	353.42
417.69	407.25
417.88	430.66
418.07	468.11
418.26	423.64
418.45	433.00
418.64	489.17
418.83	348.74
419.02	472.79
419.21	351.08
419.39	468.11
419.58	397.89
419.77	400.23
419.96	379.17
420.15	425.98
420.34	470.45
420.53	433.00
420.72	414.27
420.91	362.78
421.10	339.38
421.29	400.23
421.48	400.23
421.67	430.66
421.86	334.70
422.05	395.55
422.24	416.62
422.43	421.30
422.61	397.89
422.80	418.96
422.99	369.80
423.18	390.87
423.37	416.62
423.56	381.51
423.75	341.72
423.94	425.98
424.13	383.85
424.32	386.19
424.50	400.23
424.69	444.70
424.88	454.06
425.07	404.91
425.26	386.19
425.45	397.89
425.64	404.91
425.83	365.12
426.01	433.00
426.20	440.02
426.39	407.25
426.58	458.74
426.77	409.59
426.96	470.45
427.15	376.83
427.33	454.06
427.52	472.79
427.71	411.93
427.90	416.62
428.09	395.55
428.28	355.76
428.46	395.55
428.65	435.34
428.84	346.40
429.03	468.11
429.22	458.74
429.40	393.21
429.59	369.80
429.78	409.59
429.97	425.98
430.16	409.59
430.34	437.68
430.53	479.81
430.72	414.27
430.91	440.02
431.10	390.87
431.28	353.42
431.47	454.06
431.66	358.10
431.85	351.08
432.03	400.23
432.22	379.17
432.41	388.53
432.60	449.38
432.79	376.83
432.97	425.98
433.16	479.81
433.35	386.19
433.54	430.66
433.72	407.25
433.91	400.23
434.10	353.42
434.28	428.32
434.47	435.34
434.66	437.68
434.85	400.23
435.03	358.10
435.22	489.17
435.41	454.06
435.59	454.06
435.78	461.09
435.97	421.30
436.16	421.30
436.34	421.30
436.53	402.57
436.72	367.46
436.90	489.17
437.09	400.23
437.28	311.29
437.46	444.70
437.65	454.06
437.84	393.21
438.02	411.93
438.21	425.98
438.40	367.46
438.58	362.78
438.77	395.55
438.96	440.02
439.14	411.93
439.33	388.53
439.52	393.21
439.70	440.02
439.89	395.55
440.08	507.90
440.26	425.98
440.45	404.91
440.63	395.55
440.82	400.23
441.01	404.91
441.19	442.36
441.38	409.59
441.57	393.21
441.75	489.17
441.94	458.74
442.12	379.17
442.31	421.30
442.50	402.57
442.68	458.74
442.87	341.72
443.05	372.15
443.24	397.89
443.43	397.89
443.61	482.15
443.80	409.59
443.98	355.76
444.17	407.25
444.35	409.59
444.54	421.30
444.73	386.19
444.91	521.94
445.10	365.12
445.28	407.25
445.47	395.55
445.65	496.19
445.84	402.57
446.02	369.80
446.21	390.87
446.39	390.87
446.58	346.40
446.77	383.85
446.95	367.46
447.14	376.83
447.32	428.32
447.51	376.83
447.69	369.80
447.88	365.12
448.06	435.34
448.25	428.32
448.43	423.64
448.62	388.53
448.80	409.59
448.99	402.57
449.17	465.77
449.36	444.70
449.54	393.21
449.73	479.81
449.91	418.96
450.10	407.25
450.28	442.36
450.46	458.74
450.65	369.80
450.83	421.30
451.02	458.74
451.20	409.59
451.39	376.83
451.57	409.59
451.76	421.30
451.94	388.53
452.13	430.66
452.31	489.17
452.49	430.66
452.68	388.53
452.86	362.78
453.05	390.87
453.23	409.59
453.42	433.00
453.60	430.66
453.78	374.49
453.97	397.89
454.15	437.68
454.34	397.89
454.52	423.64
454.70	451.72
454.89	472.79
455.07	381.51
455.26	411.93
455.44	451.72
455.62	351.08
455.81	465.77
455.99	437.68
456.17	449.38
456.36	433.00
456.54	444.70
456.73	346.40
456.91	440.02
457.09	409.59
457.28	479.81
457.46	400.23
457.64	442.36
457.83	416.62
458.01	454.06
458.19	402.57
458.38	430.66
458.56	381.51
458.74	393.21
458.93	470.45
459.11	379.17
459.29	365.12
459.48	395.55
459.66	449.38
459.84	435.34
460.03	437.68
460.21	447.04
460.39	365.12
460.57	444.70
460.76	397.89
460.94	330.02
461.12	454.06
461.31	425.98
461.49	465.77
461.67	465.77
461.85	451.72
462.04	409.59
462.22	746.63
462.40	428.32
462.59	416.62
462.77	430.66
462.95	447.04
463.13	386.19
463.32	430.66
463.50	386.19
463.68	442.36
463.86	353.42
464.05	402.57
464.23	376.83
464.41	428.32
464.59	421.30
464.78	437.68
464.96	404.91
465.14	421.30
465.32	386.19
465.50	367.46
465.69	465.77
465.87	414.27
466.05	418.96
466.23	390.87
466.41	404.91
466.60	397.89
466.78	428.32
466.96	435.34
467.14	409.59
467.32	416.62
467.51	433.00
467.69	383.85
467.87	451.72
468.05	404.91
468.23	496.19
468.41	346.40
468.60	404.91
468.78	470.45
468.96	430.66
469.14	470.45
469.32	388.53
469.50	383.85
469.69	395.55
469.87	411.93
470.05	449.38
470.23	496.19
470.41	421.30
470.59	416.62
470.77	458.74
470.95	442.36
471.14	461.09
471.32	313.63
471.50	442.36
471.68	353.42
471.86	475.13
472.04	475.13
472.22	409.59
472.40	409.59
472.58	404.91
472.77	444.70
472.95	437.68
473.13	404.91
473.31	449.38
473.49	444.70
473.67	449.38
473.85	388.53
474.03	407.25
474.21	472.79
474.39	428.32
474.57	447.04
474.75	381.51
474.93	454.06
475.12	440.02
475.30	421.30
475.48	428.32
475.66	388.53
475.84	367.46
476.02	365.12
476.20	402.57
476.38	444.70
476.56	449.38
476.74	444.70
476.92	456.40
477.10	454.06
477.28	463.43
477.46	425.98
477.64	484.49
477.82	470.45
478.00	407.25
478.18	461.09
478.36	468.11
478.54	362.78
478.72	437.68
478.90	421.30
479.08	479.81
479.26	430.66
479.44	402.57
479.62	386.19
479.80	477.47
479.98	395.55
480.16	477.47
480.34	454.06
480.52	449.38
480.70	456.40
480.88	451.72
481.06	411.93
481.24	358.10
481.41	339.38
481.59	365.12
481.77	381.51
481.95	390.87
482.13	381.51
482.31	409.59
482.49	388.53
482.67	407.25
482.85	390.87
483.03	421.30
483.21	414.27
483.39	421.30
483.57	404.91
483.74	379.17
483.92	358.10
484.10	372.15
484.28	477.47
484.46	437.68
484.64	341.72
484.82	447.04
485.00	388.53
485.18	414.27
485.35	397.89
485.53	421.30
485.71	435.34
485.89	383.85
486.07	493.85
486.25	423.64
486.43	376.83
486.61	472.79
486.78	421.30
486.96	433.00
487.14	423.64
487.32	355.76
487.50	351.08
487.68	381.51
487.85	374.49
488.03	407.25
488.21	418.96
488.39	430.66
488.57	400.23
488.75	330.02
488.92	470.45
489.10	428.32
489.28	442.36
489.46	362.78
489.64	355.76
489.81	416.62
489.99	444.70
490.17	416.62
490.35	409.59
490.53	425.98
490.70	447.04
490.88	407.25
491.06	376.83
491.24	491.51
491.41	395.55
491.59	437.68
491.77	402.57
491.95	397.89
492.13	372.15
492.30	411.93
492.48	421.30
492.66	372.15
492.84	428.32
493.01	428.32
493.19	404.91
493.37	447.04
493.54	402.57
493.72	451.72
493.90	367.46
494.08	428.32
494.25	416.62
494.43	414.27
494.61	397.89
494.79	395.55
494.96	390.87
495.14	390.87
495.32	428.32
495.49	423.64
495.67	538.32
495.85	386.19
496.02	444.70
496.20	404.91
496.38	461.09
496.55	376.83
496.73	383.85
496.91	416.62
497.09	468.11
497.26	374.49
497.44	386.19
497.62	423.64
497.79	411.93
497.97	402.57
498.14	416.62
498.32	430.66
498.50	409.59
498.67	409.59
498.85	430.66
499.03	374.49
499.20	365.12
499.38	461.09
499.56	456.40
499.73	379.17
499.91	397.89
500.08	444.70
500.26	383.85
500.44	454.06
500.61	479.81
500.79	383.85
500.97	362.78
501.14	383.85
501.32	440.02
501.49	484.49
501.67	411.93
501.84	416.62
502.02	411.93
502.20	402.57
502.37	440.02
502.55	411.93
502.72	402.57
502.90	414.27
503.07	442.36
503.25	449.38
503.43	360.44
503.60	360.44
503.78	463.43
503.95	374.49
504.13	498.53
504.30	440.02
504.48	510.24
504.65	397.89
504.83	472.79
505.01	430.66
505.18	393.21
505.36	442.36
505.53	440.02
505.71	423.64
505.88	449.38
506.06	407.25
506.23	407.25
506.41	388.53
506.58	372.15
506.76	388.53
506.93	367.46
507.11	411.93
507.28	442.36
507.46	395.55
507.63	411.93
507.81	493.85
507.98	379.17
508.16	393.21
508.33	421.30
508.50	440.02
508.68	388.53
508.85	423.64
509.03	428.32
509.20	433.00
509.38	458.74
509.55	388.53
509.73	404.91
509.90	468.11
510.08	461.09
510.25	444.70
510.42	348.74
510.60	393.21
510.77	449.38
510.95	407.25
511.12	430.66
511.30	421.30
511.47	454.06
511.64	418.96
511.82	444.70
511.99	433.00
512.17	418.96
512.34	374.49
512.51	428.32
512.69	365.12
512.86	435.34
513.04	407.25
513.21	433.00
513.38	491.51
513.56	365.12
513.73	348.74
513.90	442.36
514.08	477.47
514.25	409.59
514.43	463.43
514.60	393.21
514.77	458.74
514.95	456.40
515.12	407.25
515.29	402.57
515.47	468.11
515.64	346.40
515.81	379.17
515.99	360.44
516.16	404.91
516.33	440.02
516.51	425.98
516.68	351.08
516.85	348.74
517.03	416.62
517.20	458.74
517.37	470.45
517.54	440.02
517.72	425.98
517.89	379.17
518.06	421.30
518.24	381.51
518.41	407.25
518.58	400.23
518.75	449.38
518.93	435.34
519.10	411.93
519.27	397.89
519.45	400.23
519.62	447.04
519.79	407.25
519.96	402.57
520.14	491.51
520.31	440.02
520.48	433.00
520.65	374.49
520.83	425.98
521.00	458.74
521.17	489.17
521.34	388.53
521.52	381.51
521.69	428.32
521.86	414.27
522.03	449.38
522.20	444.70
522.38	407.25
522.55	393.21
522.72	428.32
522.89	402.57
523.07	491.51
523.24	433.00
523.41	372.15
523.58	451.72
523.75	358.10
523.92	355.76
524.10	425.98
524.27	437.68
524.44	416.62
524.61	440.02
524.78	414.27
524.96	390.87
525.13	433.00
525.30	430.66
525.47	463.43
525.64	472.79
525.81	400.23
525.98	435.34
526.16	404.91
526.33	397.89
526.50	358.10
526.67	440.02
526.84	381.51
527.01	409.59
527.18	482.15
527.36	395.55
527.53	395.55
527.70	437.68
527.87	493.85
528.04	468.11
528.21	395.55
528.38	409.59
528.55	411.93
528.72	447.04
528.89	496.19
529.07	425.98
529.24	437.68
529.41	409.59
529.58	372.15
529.75	451.72
529.92	362.78
530.09	409.59
530.26	472.79
530.43	365.12
530.60	414.27
530.77	339.38
530.94	456.40
531.11	421.30
531.28	376.83
531.46	383.85
531.63	430.66
531.80	472.79
531.97	397.89
532.14	425.98
532.31	409.59
532.48	430.66
532.65	393.21
532.82	362.78
532.99	393.21
533.16	330.02
533.33	454.06
533.50	369.80
533.67	386.19
533.84	423.64
534.01	437.68
534.18	386.19
534.35	416.62
534.52	458.74
534.69	386.19
534.86	407.25
535.03	414.27
535.20	442.36
535.37	447.04
535.54	416.62
535.71	447.04
535.88	421.30
536.05	346.40
536.22	510.24
536.38	425.98
536.55	451.72
536.72	444.70
536.89	383.85
537.06	517.26
537.23	440.02
537.40	407.25
537.57	435.34
537.74	470.45
537.91	414.27
538.08	367.46
538.25	409.59
538.42	397.89
538.59	404.91
538.75	442.36
538.92	365.12
539.09	447.04
539.26	395.55
539.43	484.49
539.60	348.74
539.77	411.93
539.94	351.08
540.11	393.21
540.28	414.27
540.44	440.02
540.61	425.98
540.78	402.57
540.95	376.83
541.12	437.68
541.29	437.68
541.46	493.85
541.62	470.45
541.79	449.38
541.96	416.62
542.13	447.04
542.30	404.91
542.47	479.81
542.63	390.87
542.80	414.27
542.97	341.72
543.14	414.27
543.31	379.17
543.48	365.12
543.64	390.87
543.81	414.27
543.98	393.21
544.15	433.00
544.32	395.55
544.48	428.32
544.65	400.23
544.82	433.00
544.99	386.19
545.16	447.04
545.32	402.57
545.49	393.21
545.66	388.53
545.83	355.76
546.00	407.25
546.16	447.04
546.33	430.66
546.50	369.80
546.67	465.77
546.83	358.10
547.00	362.78
547.17	411.93
547.34	369.80
547.50	372.15
547.67	383.85
547.84	402.57
548.00	440.02
548.17	376.83
548.34	423.64
548.51	416.62
548.67	416.62
548.84	416.62
549.01	390.87
549.18	435.34
549.34	372.15
549.51	393.21
549.68	376.83
549.84	416.62
550.01	393.21
550.18	500.87
550.34	416.62
550.51	456.40
550.68	444.70
550.84	393.21
551.01	386.19
551.18	437.68
551.34	404.91
551.51	430.66
551.68	404.91
551.84	458.74
552.01	355.76
552.18	477.47
552.34	341.72
552.51	468.11
552.68	409.59
552.84	374.49
553.01	437.68
553.18	433.00
553.34	433.00
553.51	395.55
553.67	456.40
553.84	500.87
554.01	425.98
554.17	425.98
554.34	428.32
554.51	486.83
554.67	451.72
554.84	369.80
555.00	379.17
555.17	369.80
555.33	442.36
555.50	461.09
555.67	367.46
555.83	407.25
556.00	381.51
556.16	507.90
556.33	456.40
556.50	421.30
556.66	430.66
556.83	433.00
556.99	414.27
557.16	395.55
557.32	447.04
557.49	402.57
557.65	369.80
557.82	404.91
557.98	477.47
558.15	369.80
558.32	416.62
558.48	376.83
558.65	381.51
558.81	479.81
558.98	390.87
559.14	421.30
559.31	447.04
559.47	433.00
559.64	400.23
559.80	496.19
559.97	449.38
560.13	477.47
560.30	374.49
560.46	416.62
560.63	430.66
560.79	346.40
560.96	503.22
561.12	425.98
561.29	468.11
561.45	416.62
561.61	409.59
561.78	498.53
561.94	395.55
562.11	449.38
562.27	475.13
562.44	369.80
562.60	374.49
562.77	428.32
562.93	517.26
563.10	468.11
563.26	397.89
563.42	388.53
563.59	414.27
563.75	348.74
563.92	470.45
564.08	386.19
564.24	444.70
564.41	414.27
564.57	388.53
564.74	430.66
564.90	393.21
565.07	402.57
565.23	461.09
565.39	414.27
565.56	423.64
565.72	411.93
565.88	423.64
566.05	442.36
566.21	454.06
566.38	479.81
566.54	491.51
566.70	395.55
566.87	353.42
567.03	355.76
567.19	390.87
567.36	526.62
567.52	425.98
567.68	374.49
567.85	416.62
568.01	400.23
568.17	444.70
568.34	421.30
568.50	402.57
568.66	393.21
568.83	477.47
568.99	463.43
569.15	416.62
569.32	435.34
569.48	433.00
569.64	435.34
569.81	418.96
569.97	395.55
570.13	435.34
570.30	379.17
570.46	423.64
570.62	447.04
570.78	430.66
570.95	344.06
571.11	425.98
571.27	505.56
571.43	409.59
571.60	397.89
571.76	475.13
571.92	449.38
572.09	440.02
572.25	442.36
572.41	407.25
572.57	411.93
572.74	411.93
572.90	381.51
573.06	367.46
573.22	418.96
573.38	440.02
573.55	430.66
573.71	430.66
573.87	360.44
574.03	397.89
574.20	437.68
574.36	433.00
574.52	416.62
574.68	407.25
574.84	416.62
575.01	442.36
575.17	383.85
575.33	421.30
575.49	449.38
575.65	470.45
575.82	566.41
575.98	383.85
576.14	444.70
576.30	414.27
576.46	383.85
576.62	400.23
576.79	416.62
576.95	454.06
577.11	475.13
577.27	351.08
577.43	514.92
577.59	397.89
577.75	479.81
577.92	465.77
578.08	454.06
578.24	498.53
578.40	454.06
578.56	456.40
578.72	447.04
578.88	416.62
579.04	404.91
579.21	402.57
579.37	456.40
579.53	407.25
579.69	463.43
579.85	451.72
580.01	463.43
580.17	454.06
580.33	500.87
580.49	372.15
580.65	430.66
580.82	444.70
580.98	339.38
581.14	444.70
581.30	411.93
581.46	372.15
581.62	514.92
581.78	414.27
581.94	493.85
582.10	479.81
582.26	447.04
582.42	470.45
582.58	381.51
582.74	395.55
582.90	428.32
583.06	428.32
583.22	456.40
583.38	409.59
583.54	447.04
583.70	442.36
583.86	465.77
584.02	470.45
584.18	491.51
584.34	390.87
584.50	411.93
584.66	393.21
584.82	318.31
584.98	461.09
585.14	437.68
585.30	400.23
585.46	346.40
585.62	442.36
585.78	451.72
585.94	423.64
586.10	409.59
586.26	444.70
586.42	421.30
586.58	390.87
586.74	379.17
586.90	433.00
587.06	442.36
587.22	400.23
587.38	388.53
587.54	376.83
587.70	369.80
587.86	440.02
588.02	416.62
588.18	470.45
588.34	437.68
588.49	332.36
588.65	355.76
588.81	461.09
588.97	461.09
589.13	411.93
589.29	433.00
589.45	411.93
589.61	395.55
589.77	444.70
589.93	374.49
590.08	346.40
590.24	437.68
590.40	411.93
590.56	418.96
590.72	416.62
590.88	383.85
591.04	402.57
591.20	367.46
591.35	458.74
591.51	423.64
591.67	322.99
591.83	423.64
591.99	475.13
592.15	458.74
592.31	437.68
592.46	463.43
592.62	484.49
592.78	458.74
592.94	454.06
593.10	353.42
593.26	470.45
593.41	430.66
593.57	428.32
593.73	425.98
593.89	463.43
594.05	444.70
594.20	395.55
594.36	414.27
594.52	404.91
594.68	376.83
594.84	435.34
594.99	484.49
595.15	479.81
595.31	353.42
595.47	440.02
595.62	404.91
595.78	388.53
595.94	437.68
596.10	437.68
596.25	407.25
596.41	437.68
596.57	437.68
596.73	381.51
596.88	379.17
597.04	430.66
597.20	369.80
597.36	421.30
597.51	437.68
597.67	437.68
597.83	421.30
597.99	381.51
598.14	402.57
598.30	435.34
598.46	397.89
598.61	449.38
598.77	423.64
598.93	393.21
599.09	451.72
599.24	468.11
599.40	423.64
599.56	447.04
599.71	402.57
599.87	421.30
600.03	365.12
600.18	372.15
600.34	402.57
600.50	355.76
600.65	369.80
600.81	454.06
600.97	353.42
601.12	451.72
601.28	372.15
601.44	447.04
601.59	414.27
601.75	425.98
601.91	379.17
602.06	428.32
602.22	491.51
602.37	381.51
602.53	449.38
602.69	435.34
602.84	386.19
603.00	430.66
603.16	430.66
603.31	493.85
603.47	418.96
603.62	365.12
603.78	425.98
603.94	463.43
604.09	400.23
604.25	437.68
604.40	404.91
604.56	409.59
604.71	414.27
604.87	418.96
605.03	341.72
605.18	386.19
605.34	390.87
605.49	444.70
605.65	461.09
605.80	379.17
605.96	318.31
606.12	386.19
606.27	355.76
606.43	360.44
606.58	475.13
606.74	393.21
606.89	430.66
607.05	402.57
607.20	353.42
607.36	428.32
607.51	383.85
607.67	458.74
607.82	521.94
607.98	451.72
608.13	353.42
608.29	393.21
608.44	449.38
608.60	348.74
608.75	465.77
608.91	390.87
609.06	458.74
609.22	430.66
609.37	369.80
609.53	360.44
609.68	447.04
609.84	458.74
609.99	444.70
610.15	440.02
