SpectraSuite Data File
++++++++++++++++++++++++++++++++++++
Date: Fri Oct 25 12:11:20 EDT 2013
User: price-jones
Dark Spectrum Present: No
Reference Spectrum Present: No
Number of Sampled Component Spectra: 1
Spectrometers: USB2+H05261
Integration Time (usec): 100000 (USB2+H05261)
Spectra Averaged: 1 (USB2+H05261)
Boxcar Smoothing: 0 (USB2+H05261)
Correct for Electrical Dark: No (USB2+H05261)
Strobe/Lamp Enabled: No (USB2+H05261)
Correct for Detector Non-linearity: No (USB2+H05261)
Correct for Stray Light: No (USB2+H05261)
Number of Pixels in Processed Spectrum: 2048
>>>>>Begin Processed Spectral Data<<<<<
365.73	360.44
365.92	360.44
366.12	360.44
366.32	248.10
366.52	201.29
366.72	283.20
366.91	234.05
367.11	205.97
367.31	257.46
367.51	248.10
367.70	245.76
367.90	222.35
368.10	236.39
368.30	330.02
368.49	231.71
368.69	257.46
368.89	313.63
369.09	332.36
369.28	330.02
369.48	332.36
369.68	280.86
369.87	341.72
370.07	306.61
370.27	320.65
370.47	313.63
370.66	360.44
370.86	330.02
371.06	360.44
371.25	402.57
371.45	311.29
371.65	397.89
371.84	339.38
372.04	337.04
372.24	393.21
372.44	447.04
372.63	414.27
372.83	425.98
373.03	423.64
373.22	358.10
373.42	451.72
373.62	440.02
373.81	390.87
374.01	484.49
374.21	430.66
374.40	416.62
374.60	461.09
374.79	404.91
374.99	334.70
375.19	374.49
375.38	521.94
375.58	404.91
375.78	372.15
375.97	383.85
376.17	421.30
376.37	358.10
376.56	400.23
376.76	418.96
376.95	421.30
377.15	402.57
377.35	369.80
377.54	456.40
377.74	411.93
377.93	470.45
378.13	397.89
378.33	421.30
378.52	372.15
378.72	355.76
378.91	454.06
379.11	456.40
379.31	421.30
379.50	409.59
379.70	425.98
379.89	400.23
380.09	390.87
380.28	379.17
380.48	461.09
380.68	381.51
380.87	351.08
381.07	454.06
381.26	390.87
381.46	351.08
381.65	379.17
381.85	397.89
382.04	442.36
382.24	437.68
382.43	421.30
382.63	400.23
382.83	421.30
383.02	400.23
383.22	451.72
383.41	409.59
383.61	397.89
383.80	507.90
384.00	367.46
384.19	390.87
384.39	374.49
384.58	353.42
384.78	500.87
384.97	414.27
385.17	379.17
385.36	444.70
385.56	451.72
385.75	442.36
385.95	372.15
386.14	461.09
386.34	416.62
386.53	339.38
386.72	369.80
386.92	428.32
387.11	461.09
387.31	390.87
387.50	397.89
387.70	397.89
387.89	435.34
388.09	409.59
388.28	409.59
388.48	409.59
388.67	414.27
388.86	393.21
389.06	362.78
389.25	454.06
389.45	418.96
389.64	393.21
389.84	458.74
390.03	430.66
390.22	454.06
390.42	472.79
390.61	409.59
390.81	322.99
391.00	362.78
391.19	411.93
391.39	444.70
391.58	458.74
391.78	463.43
391.97	440.02
392.16	407.25
392.36	425.98
392.55	423.64
392.75	397.89
392.94	376.83
393.13	416.62
393.33	379.17
393.52	390.87
393.71	418.96
393.91	423.64
394.10	341.72
394.29	395.55
394.49	444.70
394.68	411.93
394.88	348.74
395.07	411.93
395.26	407.25
395.46	376.83
395.65	458.74
395.84	421.30
396.04	486.83
396.23	470.45
396.42	451.72
396.62	433.00
396.81	442.36
397.00	444.70
397.19	376.83
397.39	369.80
397.58	400.23
397.77	416.62
397.97	416.62
398.16	409.59
398.35	449.38
398.55	407.25
398.74	381.51
398.93	393.21
399.12	346.40
399.32	400.23
399.51	397.89
399.70	472.79
399.90	348.74
400.09	456.40
400.28	493.85
400.47	395.55
400.67	341.72
400.86	458.74
401.05	447.04
401.24	440.02
401.44	472.79
401.63	465.77
401.82	425.98
402.01	400.23
402.21	362.78
402.40	458.74
402.59	470.45
402.78	404.91
402.97	456.40
403.17	500.87
403.36	404.91
403.55	433.00
403.74	489.17
403.93	430.66
404.13	486.83
404.32	430.66
404.51	337.04
404.70	339.38
404.89	365.12
405.09	416.62
405.28	376.83
405.47	379.17
405.66	322.99
405.85	444.70
406.05	414.27
406.24	388.53
406.43	414.27
406.62	390.87
406.81	545.34
407.00	437.68
407.20	404.91
407.39	383.85
407.58	393.21
407.77	496.19
407.96	355.76
408.15	395.55
408.34	435.34
408.54	421.30
408.73	395.55
408.92	379.17
409.11	379.17
409.30	437.68
409.49	430.66
409.68	447.04
409.87	435.34
410.07	421.30
410.26	397.89
410.45	386.19
410.64	376.83
410.83	423.64
411.02	451.72
411.21	416.62
411.40	442.36
411.59	421.30
411.78	414.27
411.98	330.02
412.17	388.53
412.36	397.89
412.55	388.53
412.74	348.74
412.93	489.17
413.12	404.91
413.31	444.70
413.50	442.36
413.69	458.74
413.88	449.38
414.07	395.55
414.26	407.25
414.45	449.38
414.64	416.62
414.83	390.87
415.02	383.85
415.22	407.25
415.41	447.04
415.60	444.70
415.79	418.96
415.98	440.02
416.17	421.30
416.36	393.21
416.55	407.25
416.74	437.68
416.93	374.49
417.12	425.98
417.31	414.27
417.50	425.98
417.69	447.04
417.88	423.64
418.07	423.64
418.26	430.66
418.45	433.00
418.64	379.17
418.83	390.87
419.02	402.57
419.21	433.00
419.39	428.32
419.58	372.15
419.77	407.25
419.96	440.02
420.15	468.11
420.34	376.83
420.53	383.85
420.72	477.47
420.91	390.87
421.10	395.55
421.29	409.59
421.48	411.93
421.67	444.70
421.86	404.91
422.05	468.11
422.24	395.55
422.43	449.38
422.61	318.31
422.80	395.55
422.99	425.98
423.18	433.00
423.37	430.66
423.56	435.34
423.75	458.74
423.94	362.78
424.13	435.34
424.32	444.70
424.50	428.32
424.69	369.80
424.88	351.08
425.07	421.30
425.26	444.70
425.45	416.62
425.64	447.04
425.83	393.21
426.01	430.66
426.20	339.38
426.39	447.04
426.58	369.80
426.77	425.98
426.96	339.38
427.15	414.27
427.33	402.57
427.52	379.17
427.71	400.23
427.90	442.36
428.09	416.62
428.28	362.78
428.46	425.98
428.65	393.21
428.84	454.06
429.03	456.40
429.22	430.66
429.40	433.00
429.59	409.59
429.78	383.85
429.97	414.27
430.16	416.62
430.34	358.10
430.53	475.13
430.72	437.68
430.91	440.02
431.10	458.74
431.28	428.32
431.47	414.27
431.66	411.93
431.85	447.04
432.03	411.93
432.22	395.55
432.41	428.32
432.60	404.91
432.79	374.49
432.97	418.96
433.16	404.91
433.35	421.30
433.54	416.62
433.72	454.06
433.91	355.76
434.10	463.43
434.28	454.06
434.47	423.64
434.66	428.32
434.85	451.72
435.03	428.32
435.22	421.30
435.41	470.45
435.59	435.34
435.78	339.38
435.97	372.15
436.16	475.13
436.34	442.36
436.53	423.64
436.72	386.19
436.90	383.85
437.09	358.10
437.28	397.89
437.46	449.38
437.65	470.45
437.84	409.59
438.02	407.25
438.21	416.62
438.40	400.23
438.58	407.25
438.77	421.30
438.96	395.55
439.14	421.30
439.33	437.68
439.52	348.74
439.70	404.91
439.89	449.38
440.08	437.68
440.26	425.98
440.45	393.21
440.63	376.83
440.82	397.89
441.01	440.02
441.19	395.55
441.38	409.59
441.57	407.25
441.75	407.25
441.94	409.59
442.12	444.70
442.31	372.15
442.50	468.11
442.68	430.66
442.87	407.25
443.05	414.27
443.24	444.70
443.43	437.68
443.61	390.87
443.80	425.98
443.98	362.78
444.17	430.66
444.35	416.62
444.54	346.40
444.73	414.27
444.91	451.72
445.10	416.62
445.28	428.32
445.47	479.81
445.65	425.98
445.84	369.80
446.02	470.45
446.21	477.47
446.39	341.72
446.58	397.89
446.77	472.79
446.95	428.32
447.14	472.79
447.32	458.74
447.51	376.83
447.69	451.72
447.88	514.92
448.06	498.53
448.25	435.34
448.43	355.76
448.62	397.89
448.80	418.96
448.99	421.30
449.17	456.40
449.36	433.00
449.54	496.19
449.73	447.04
449.91	437.68
450.10	355.76
450.28	468.11
450.46	468.11
450.65	381.51
450.83	367.46
451.02	376.83
451.20	381.51
451.39	395.55
451.57	414.27
451.76	428.32
451.94	416.62
452.13	449.38
452.31	409.59
452.49	437.68
452.68	421.30
452.86	402.57
453.05	423.64
453.23	397.89
453.42	423.64
453.60	456.40
453.78	421.30
453.97	409.59
454.15	409.59
454.34	386.19
454.52	395.55
454.70	461.09
454.89	404.91
455.07	421.30
455.26	418.96
455.44	386.19
455.62	411.93
455.81	379.17
455.99	430.66
456.17	395.55
456.36	442.36
456.54	423.64
456.73	416.62
456.91	444.70
457.09	451.72
457.28	444.70
457.46	411.93
457.64	442.36
457.83	400.23
458.01	489.17
458.19	428.32
458.38	414.27
458.56	397.89
458.74	383.85
458.93	458.74
459.11	351.08
459.29	376.83
459.48	409.59
459.66	437.68
459.84	416.62
460.03	454.06
460.21	470.45
460.39	367.46
460.57	463.43
460.76	447.04
460.94	442.36
461.12	367.46
461.31	388.53
461.49	447.04
461.67	346.40
461.85	423.64
462.04	355.76
462.22	779.40
462.40	365.12
462.59	433.00
462.77	395.55
462.95	395.55
463.13	433.00
463.32	404.91
463.50	458.74
463.68	472.79
463.86	400.23
464.05	475.13
464.23	458.74
464.41	493.85
464.59	463.43
464.78	407.25
464.96	442.36
465.14	400.23
465.32	353.42
465.50	344.06
465.69	440.02
465.87	376.83
466.05	388.53
466.23	440.02
466.41	381.51
466.60	456.40
466.78	444.70
466.96	358.10
467.14	477.47
467.32	416.62
467.51	402.57
467.69	519.60
467.87	472.79
468.05	404.91
468.23	449.38
468.41	411.93
468.60	440.02
468.78	395.55
468.96	428.32
469.14	465.77
469.32	402.57
469.50	404.91
469.69	444.70
469.87	381.51
470.05	402.57
470.23	418.96
470.41	390.87
470.59	465.77
470.77	421.30
470.95	397.89
471.14	433.00
471.32	367.46
471.50	411.93
471.68	367.46
471.86	390.87
472.04	425.98
472.22	435.34
472.40	381.51
472.58	388.53
472.77	393.21
472.95	435.34
473.13	454.06
473.31	440.02
473.49	395.55
473.67	393.21
473.85	468.11
474.03	407.25
474.21	388.53
474.39	414.27
474.57	421.30
474.75	402.57
474.93	430.66
475.12	353.42
475.30	416.62
475.48	449.38
475.66	458.74
475.84	470.45
476.02	383.85
476.20	475.13
476.38	421.30
476.56	484.49
476.74	416.62
476.92	449.38
477.10	372.15
477.28	400.23
477.46	486.83
477.64	334.70
477.82	421.30
478.00	435.34
478.18	383.85
478.36	425.98
478.54	437.68
478.72	362.78
478.90	341.72
479.08	402.57
479.26	435.34
479.44	451.72
479.62	496.19
479.80	491.51
479.98	409.59
480.16	454.06
480.34	465.77
480.52	362.78
480.70	379.17
480.88	400.23
481.06	493.85
481.24	421.30
481.41	433.00
481.59	430.66
481.77	407.25
481.95	421.30
482.13	393.21
482.31	416.62
482.49	470.45
482.67	437.68
482.85	308.95
483.03	418.96
483.21	425.98
483.39	404.91
483.57	477.47
483.74	517.26
483.92	433.00
484.10	444.70
484.28	411.93
484.46	444.70
484.64	421.30
484.82	376.83
485.00	456.40
485.18	353.42
485.35	372.15
485.53	428.32
485.71	456.40
485.89	411.93
486.07	458.74
486.25	484.49
486.43	421.30
486.61	407.25
486.78	449.38
486.96	402.57
487.14	351.08
487.32	421.30
487.50	393.21
487.68	428.32
487.85	386.19
488.03	451.72
488.21	430.66
488.39	404.91
488.57	425.98
488.75	444.70
488.92	510.24
489.10	411.93
489.28	454.06
489.46	472.79
489.64	484.49
489.81	475.13
489.99	435.34
490.17	379.17
490.35	407.25
490.53	444.70
490.70	372.15
490.88	390.87
491.06	365.12
491.24	337.04
491.41	411.93
491.59	458.74
491.77	393.21
491.95	400.23
492.13	395.55
492.30	411.93
492.48	409.59
492.66	440.02
492.84	400.23
493.01	386.19
493.19	442.36
493.37	482.15
493.54	395.55
493.72	402.57
493.90	418.96
494.08	390.87
494.25	327.68
494.43	407.25
494.61	414.27
494.79	411.93
494.96	372.15
495.14	428.32
495.32	379.17
495.49	416.62
495.67	423.64
495.85	430.66
496.02	409.59
496.20	414.27
496.38	482.15
496.55	362.78
496.73	383.85
496.91	397.89
497.09	458.74
497.26	351.08
497.44	416.62
497.62	379.17
497.79	437.68
497.97	442.36
498.14	433.00
498.32	353.42
498.50	440.02
498.67	433.00
498.85	369.80
499.03	379.17
499.20	442.36
499.38	430.66
499.56	411.93
499.73	461.09
499.91	402.57
500.08	491.51
500.26	299.59
500.44	418.96
500.61	376.83
500.79	430.66
500.97	414.27
501.14	482.15
501.32	388.53
501.49	435.34
501.67	449.38
501.84	409.59
502.02	402.57
502.20	409.59
502.37	454.06
502.55	351.08
502.72	325.33
502.90	454.06
503.07	442.36
503.25	400.23
503.43	346.40
503.60	397.89
503.78	430.66
503.95	435.34
504.13	440.02
504.30	463.43
504.48	400.23
504.65	456.40
504.83	407.25
505.01	386.19
505.18	472.79
505.36	418.96
505.53	423.64
505.71	341.72
505.88	454.06
506.06	447.04
506.23	379.17
506.41	475.13
506.58	435.34
506.76	421.30
506.93	423.64
507.11	430.66
507.28	437.68
507.46	376.83
507.63	421.30
507.81	442.36
507.98	475.13
508.16	388.53
508.33	418.96
508.50	353.42
508.68	416.62
508.85	372.15
509.03	461.09
509.20	418.96
509.38	388.53
509.55	369.80
509.73	416.62
509.90	416.62
510.08	418.96
510.25	498.53
510.42	444.70
510.60	402.57
510.77	451.72
510.95	440.02
511.12	397.89
511.30	454.06
511.47	425.98
511.64	458.74
511.82	472.79
511.99	397.89
512.17	393.21
512.34	407.25
512.51	458.74
512.69	444.70
512.86	461.09
513.04	383.85
513.21	374.49
513.38	404.91
513.56	372.15
513.73	313.63
513.90	400.23
514.08	407.25
514.25	491.51
514.43	447.04
514.60	397.89
514.77	397.89
514.95	397.89
515.12	416.62
515.29	402.57
515.47	447.04
515.64	402.57
515.81	440.02
515.99	425.98
516.16	365.12
516.33	414.27
516.51	400.23
516.68	493.85
516.85	397.89
517.03	397.89
517.20	463.43
517.37	418.96
517.54	393.21
517.72	379.17
517.89	379.17
518.06	390.87
518.24	503.22
518.41	395.55
518.58	442.36
518.75	409.59
518.93	444.70
519.10	407.25
519.27	404.91
519.45	421.30
519.62	425.98
519.79	454.06
519.96	442.36
520.14	437.68
520.31	517.26
520.48	421.30
520.65	425.98
520.83	407.25
521.00	411.93
521.17	461.09
521.34	362.78
521.52	402.57
521.69	379.17
521.86	440.02
522.03	449.38
522.20	470.45
522.38	423.64
522.55	465.77
522.72	360.44
522.89	447.04
523.07	437.68
523.24	470.45
523.41	454.06
523.58	414.27
523.75	407.25
523.92	433.00
524.10	423.64
524.27	425.98
524.44	435.34
524.61	449.38
524.78	418.96
524.96	451.72
525.13	437.68
525.30	451.72
525.47	444.70
525.64	435.34
525.81	383.85
525.98	423.64
526.16	395.55
526.33	388.53
526.50	379.17
526.67	423.64
526.84	461.09
527.01	451.72
527.18	428.32
527.36	400.23
527.53	411.93
527.70	444.70
527.87	414.27
528.04	388.53
528.21	404.91
528.38	428.32
528.55	395.55
528.72	390.87
528.89	341.72
529.07	416.62
529.24	341.72
529.41	491.51
529.58	339.38
529.75	411.93
529.92	444.70
530.09	433.00
530.26	315.97
530.43	383.85
530.60	433.00
530.77	400.23
530.94	423.64
531.11	433.00
531.28	472.79
531.46	442.36
531.63	465.77
531.80	472.79
531.97	367.46
532.14	458.74
532.31	447.04
532.48	470.45
532.65	327.68
532.82	470.45
532.99	374.49
533.16	381.51
533.33	493.85
533.50	409.59
533.67	362.78
533.84	395.55
534.01	472.79
534.18	372.15
534.35	444.70
534.52	503.22
534.69	414.27
534.86	404.91
535.03	470.45
535.20	444.70
535.37	444.70
535.54	444.70
535.71	400.23
535.88	430.66
536.05	430.66
536.22	425.98
536.38	409.59
536.55	468.11
536.72	383.85
536.89	423.64
537.06	395.55
537.23	454.06
537.40	383.85
537.57	397.89
537.74	381.51
537.91	447.04
538.08	358.10
538.25	414.27
538.42	402.57
538.59	381.51
538.75	451.72
538.92	444.70
539.09	449.38
539.26	402.57
539.43	425.98
539.60	414.27
539.77	409.59
539.94	397.89
540.11	428.32
540.28	440.02
540.44	381.51
540.61	425.98
540.78	374.49
540.95	400.23
541.12	526.62
541.29	362.78
541.46	454.06
541.62	479.81
541.79	383.85
541.96	416.62
542.13	433.00
542.30	437.68
542.47	409.59
542.63	386.19
542.80	327.68
542.97	482.15
543.14	418.96
543.31	355.76
543.48	411.93
543.64	418.96
543.81	456.40
543.98	386.19
544.15	400.23
544.32	425.98
544.48	428.32
544.65	425.98
544.82	386.19
544.99	376.83
545.16	386.19
545.32	444.70
545.49	468.11
545.66	407.25
545.83	360.44
546.00	449.38
546.16	454.06
546.33	418.96
546.50	388.53
546.67	458.74
546.83	477.47
547.00	477.47
547.17	379.17
547.34	411.93
547.50	430.66
547.67	472.79
547.84	367.46
548.00	430.66
548.17	458.74
548.34	381.51
548.51	407.25
548.67	409.59
548.84	435.34
549.01	372.15
549.18	360.44
549.34	440.02
549.51	411.93
549.68	489.17
549.84	388.53
550.01	369.80
550.18	440.02
550.34	524.28
550.51	444.70
550.68	454.06
550.84	421.30
551.01	477.47
551.18	463.43
551.34	454.06
551.51	421.30
551.68	341.72
551.84	437.68
552.01	351.08
552.18	423.64
552.34	425.98
552.51	381.51
552.68	447.04
552.84	421.30
553.01	442.36
553.18	421.30
553.34	411.93
553.51	369.80
553.67	456.40
553.84	472.79
554.01	348.74
554.17	409.59
554.34	365.12
554.51	454.06
554.67	437.68
554.84	421.30
555.00	400.23
555.17	393.21
555.33	472.79
555.50	421.30
555.67	428.32
555.83	388.53
556.00	428.32
556.16	514.92
556.33	411.93
556.50	388.53
556.66	376.83
556.83	404.91
556.99	397.89
557.16	456.40
557.32	393.21
557.49	484.49
557.65	479.81
557.82	449.38
557.98	416.62
558.15	444.70
558.32	390.87
558.48	402.57
558.65	463.43
558.81	472.79
558.98	402.57
559.14	461.09
559.31	395.55
559.47	362.78
559.64	425.98
559.80	482.15
559.97	402.57
560.13	416.62
560.30	369.80
560.46	435.34
560.63	388.53
560.79	421.30
560.96	498.53
561.12	390.87
561.29	425.98
561.45	433.00
561.61	440.02
561.78	470.45
561.94	409.59
562.11	470.45
562.27	369.80
562.44	444.70
562.60	493.85
562.77	421.30
562.93	524.28
563.10	404.91
563.26	444.70
563.42	465.77
563.59	458.74
563.75	414.27
563.92	449.38
564.08	428.32
564.24	470.45
564.41	447.04
564.57	395.55
564.74	461.09
564.90	440.02
565.07	393.21
565.23	442.36
565.39	430.66
565.56	397.89
565.72	348.74
565.88	404.91
566.05	383.85
566.21	430.66
566.38	479.81
566.54	442.36
566.70	440.02
566.87	463.43
567.03	315.97
567.19	330.02
567.36	330.02
567.52	325.33
567.68	369.80
567.85	447.04
568.01	437.68
568.17	400.23
568.34	372.15
568.50	393.21
568.66	444.70
568.83	533.64
568.99	418.96
569.15	372.15
569.32	425.98
569.48	418.96
569.64	388.53
569.81	418.96
569.97	407.25
570.13	489.17
570.30	409.59
570.46	374.49
570.62	430.66
570.78	463.43
570.95	461.09
571.11	390.87
571.27	451.72
571.43	390.87
571.60	388.53
571.76	400.23
571.92	425.98
572.09	447.04
572.25	386.19
572.41	362.78
572.57	428.32
572.74	524.28
572.90	482.15
573.06	416.62
573.22	423.64
573.38	461.09
573.55	435.34
573.71	409.59
573.87	449.38
574.03	346.40
574.20	393.21
574.36	430.66
574.52	456.40
574.68	381.51
574.84	486.83
575.01	491.51
575.17	428.32
575.33	407.25
575.49	472.79
575.65	430.66
575.82	372.15
575.98	409.59
576.14	484.49
576.30	421.30
576.46	362.78
576.62	472.79
576.79	512.58
576.95	388.53
577.11	433.00
577.27	463.43
577.43	458.74
577.59	456.40
577.75	482.15
577.92	428.32
578.08	414.27
578.24	353.42
578.40	505.56
578.56	510.24
578.72	463.43
578.88	376.83
579.04	360.44
579.21	400.23
579.37	472.79
579.53	337.04
579.69	388.53
579.85	416.62
580.01	418.96
580.17	402.57
580.33	444.70
580.49	477.47
580.65	409.59
580.82	423.64
580.98	388.53
581.14	351.08
581.30	479.81
581.46	447.04
581.62	397.89
581.78	477.47
581.94	449.38
582.10	430.66
582.26	414.27
582.42	376.83
582.58	383.85
582.74	325.33
582.90	430.66
583.06	433.00
583.22	458.74
583.38	390.87
583.54	472.79
583.70	430.66
583.86	386.19
584.02	461.09
584.18	393.21
584.34	414.27
584.50	449.38
584.66	367.46
584.82	397.89
584.98	449.38
585.14	440.02
585.30	437.68
585.46	414.27
585.62	470.45
585.78	444.70
585.94	409.59
586.10	365.12
586.26	416.62
586.42	498.53
586.58	423.64
586.74	435.34
586.90	437.68
587.06	404.91
587.22	400.23
587.38	440.02
587.54	416.62
587.70	414.27
587.86	393.21
588.02	491.51
588.18	369.80
588.34	442.36
588.49	334.70
588.65	404.91
588.81	447.04
588.97	402.57
589.13	418.96
589.29	444.70
589.45	430.66
589.61	428.32
589.77	428.32
589.93	404.91
590.08	400.23
590.24	507.90
590.40	386.19
590.56	482.15
590.72	353.42
590.88	433.00
591.04	409.59
591.20	390.87
591.35	451.72
591.51	458.74
591.67	372.15
591.83	330.02
591.99	379.17
592.15	376.83
592.31	402.57
592.46	437.68
592.62	418.96
592.78	421.30
592.94	442.36
593.10	360.44
593.26	418.96
593.41	461.09
593.57	454.06
593.73	440.02
593.89	407.25
594.05	472.79
594.20	425.98
594.36	447.04
594.52	449.38
594.68	510.24
594.84	468.11
594.99	449.38
595.15	402.57
595.31	465.77
595.47	468.11
595.62	433.00
595.78	397.89
595.94	395.55
596.10	449.38
596.25	463.43
596.41	442.36
596.57	505.56
596.73	435.34
596.88	433.00
597.04	444.70
597.20	407.25
597.36	440.02
597.51	383.85
597.67	360.44
597.83	440.02
597.99	451.72
598.14	447.04
598.30	463.43
598.46	404.91
598.61	414.27
598.77	393.21
598.93	318.31
599.09	461.09
599.24	517.26
599.40	454.06
599.56	404.91
599.71	454.06
599.87	440.02
600.03	442.36
600.18	360.44
600.34	372.15
600.50	447.04
600.65	428.32
600.81	402.57
600.97	390.87
601.12	411.93
601.28	510.24
601.44	430.66
601.59	358.10
601.75	381.51
601.91	425.98
602.06	447.04
602.22	477.47
602.37	498.53
602.53	334.70
602.69	423.64
602.84	360.44
603.00	458.74
603.16	379.17
603.31	447.04
603.47	402.57
603.62	486.83
603.78	442.36
603.94	402.57
604.09	447.04
604.25	437.68
604.40	433.00
604.56	395.55
604.71	390.87
604.87	470.45
605.03	383.85
605.18	409.59
605.34	365.12
605.49	362.78
605.65	379.17
605.80	381.51
605.96	390.87
606.12	404.91
606.27	407.25
606.43	411.93
606.58	463.43
606.74	454.06
606.89	381.51
607.05	381.51
607.20	435.34
607.36	423.64
607.51	386.19
607.67	475.13
607.82	465.77
607.98	428.32
608.13	390.87
608.29	411.93
608.44	397.89
608.60	402.57
608.75	526.62
608.91	409.59
609.06	451.72
609.22	440.02
609.37	362.78
609.53	414.27
609.68	451.72
609.84	447.04
609.99	433.00
610.15	404.91
