SpectraSuite Data File
++++++++++++++++++++++++++++++++++++
Date: Fri Oct 25 12:11:12 EDT 2013
User: price-jones
Dark Spectrum Present: No
Reference Spectrum Present: No
Number of Sampled Component Spectra: 1
Spectrometers: USB2+H05261
Integration Time (usec): 100000 (USB2+H05261)
Spectra Averaged: 1 (USB2+H05261)
Boxcar Smoothing: 0 (USB2+H05261)
Correct for Electrical Dark: No (USB2+H05261)
Strobe/Lamp Enabled: No (USB2+H05261)
Correct for Detector Non-linearity: No (USB2+H05261)
Correct for Stray Light: No (USB2+H05261)
Number of Pixels in Processed Spectrum: 2048
>>>>>Begin Processed Spectral Data<<<<<
365.73	322.99
365.92	322.99
366.12	322.99
366.32	227.03
366.52	220.01
366.72	278.52
366.91	208.31
367.11	259.80
367.31	264.48
367.51	198.95
367.70	271.50
367.90	248.10
368.10	276.18
368.30	208.31
368.49	255.12
368.69	236.39
368.89	271.50
369.09	257.46
369.28	259.80
369.48	367.46
369.68	346.40
369.87	287.89
370.07	271.50
370.27	372.15
370.47	320.65
370.66	308.95
370.86	397.89
371.06	346.40
371.25	369.80
371.45	358.10
371.65	360.44
371.84	390.87
372.04	355.76
372.24	416.62
372.44	353.42
372.63	463.43
372.83	386.19
373.03	423.64
373.22	390.87
373.42	393.21
373.62	411.93
373.81	425.98
374.01	402.57
374.21	470.45
374.40	437.68
374.60	397.89
374.79	423.64
374.99	454.06
375.19	465.77
375.38	383.85
375.58	414.27
375.78	404.91
375.97	447.04
376.17	512.58
376.37	376.83
376.56	402.57
376.76	393.21
376.95	402.57
377.15	393.21
377.35	395.55
377.54	404.91
377.74	404.91
377.93	353.42
378.13	418.96
378.33	397.89
378.52	407.25
378.72	433.00
378.91	456.40
379.11	369.80
379.31	437.68
379.50	383.85
379.70	418.96
379.89	381.51
380.09	351.08
380.28	451.72
380.48	348.74
380.68	411.93
380.87	365.12
381.07	404.91
381.26	440.02
381.46	390.87
381.65	418.96
381.85	355.76
382.04	365.12
382.24	507.90
382.43	440.02
382.63	397.89
382.83	402.57
383.02	440.02
383.22	369.80
383.41	390.87
383.61	512.58
383.80	449.38
384.00	383.85
384.19	414.27
384.39	376.83
384.58	409.59
384.78	433.00
384.97	365.12
385.17	386.19
385.36	407.25
385.56	456.40
385.75	374.49
385.95	421.30
386.14	386.19
386.34	402.57
386.53	379.17
386.72	458.74
386.92	456.40
387.11	416.62
387.31	404.91
387.50	421.30
387.70	402.57
387.89	440.02
388.09	365.12
388.28	409.59
388.48	388.53
388.67	414.27
388.86	425.98
389.06	390.87
389.25	470.45
389.45	369.80
389.64	355.76
389.84	451.72
390.03	451.72
390.22	418.96
390.42	447.04
390.61	437.68
390.81	442.36
391.00	395.55
391.19	442.36
391.39	390.87
391.58	421.30
391.78	330.02
391.97	374.49
392.16	451.72
392.36	421.30
392.55	503.22
392.75	484.49
392.94	369.80
393.13	416.62
393.33	435.34
393.52	393.21
393.71	369.80
393.91	470.45
394.10	397.89
394.29	339.38
394.49	442.36
394.68	367.46
394.88	404.91
395.07	433.00
395.26	433.00
395.46	381.51
395.65	414.27
395.84	407.25
396.04	468.11
396.23	444.70
396.42	409.59
396.62	379.17
396.81	362.78
397.00	402.57
397.19	369.80
397.39	390.87
397.58	451.72
397.77	433.00
397.97	348.74
398.16	383.85
398.35	421.30
398.55	400.23
398.74	365.12
398.93	493.85
399.12	418.96
399.32	416.62
399.51	388.53
399.70	454.06
399.90	407.25
400.09	456.40
400.28	395.55
400.47	386.19
400.67	400.23
400.86	407.25
401.05	386.19
401.24	414.27
401.44	425.98
401.63	393.21
401.82	393.21
402.01	414.27
402.21	465.77
402.40	470.45
402.59	383.85
402.78	414.27
402.97	407.25
403.17	374.49
403.36	407.25
403.55	411.93
403.74	402.57
403.93	472.79
404.13	451.72
404.32	416.62
404.51	451.72
404.70	393.21
404.89	372.15
405.09	475.13
405.28	402.57
405.47	402.57
405.66	428.32
405.85	447.04
406.05	440.02
406.24	451.72
406.43	447.04
406.62	337.04
406.81	388.53
407.00	334.70
407.20	411.93
407.39	400.23
407.58	397.89
407.77	440.02
407.96	472.79
408.15	386.19
408.34	454.06
408.54	372.15
408.73	409.59
408.92	393.21
409.11	407.25
409.30	374.49
409.49	418.96
409.68	379.17
409.87	393.21
410.07	421.30
410.26	411.93
410.45	435.34
410.64	440.02
410.83	376.83
411.02	430.66
411.21	482.15
411.40	421.30
411.59	461.09
411.78	383.85
411.98	430.66
412.17	404.91
412.36	442.36
412.55	428.32
412.74	435.34
412.93	524.28
413.12	442.36
413.31	400.23
413.50	332.36
413.69	379.17
413.88	454.06
414.07	449.38
414.26	388.53
414.45	383.85
414.64	475.13
414.83	414.27
415.02	383.85
415.22	447.04
415.41	423.64
415.60	444.70
415.79	435.34
415.98	435.34
416.17	393.21
416.36	428.32
416.55	454.06
416.74	402.57
416.93	493.85
417.12	440.02
417.31	456.40
417.50	402.57
417.69	407.25
417.88	407.25
418.07	383.85
418.26	381.51
418.45	423.64
418.64	500.87
418.83	479.81
419.02	505.56
419.21	407.25
419.39	461.09
419.58	414.27
419.77	414.27
419.96	407.25
420.15	461.09
420.34	440.02
420.53	395.55
420.72	470.45
420.91	376.83
421.10	440.02
421.29	355.76
421.48	428.32
421.67	440.02
421.86	409.59
422.05	400.23
422.24	451.72
422.43	421.30
422.61	409.59
422.80	428.32
422.99	360.44
423.18	358.10
423.37	449.38
423.56	327.68
423.75	503.22
423.94	475.13
424.13	381.51
424.32	372.15
424.50	390.87
424.69	416.62
424.88	395.55
425.07	397.89
425.26	493.85
425.45	379.17
425.64	430.66
425.83	418.96
426.01	437.68
426.20	372.15
426.39	447.04
426.58	456.40
426.77	430.66
426.96	430.66
427.15	404.91
427.33	444.70
427.52	423.64
427.71	386.19
427.90	463.43
428.09	418.96
428.28	465.77
428.46	444.70
428.65	388.53
428.84	425.98
429.03	379.17
429.22	500.87
429.40	383.85
429.59	470.45
429.78	428.32
429.97	418.96
430.16	465.77
430.34	414.27
430.53	379.17
430.72	393.21
430.91	461.09
431.10	411.93
431.28	475.13
431.47	444.70
431.66	386.19
431.85	327.68
432.03	393.21
432.22	477.47
432.41	344.06
432.60	393.21
432.79	416.62
432.97	418.96
433.16	423.64
433.35	393.21
433.54	433.00
433.72	468.11
433.91	472.79
434.10	400.23
434.28	414.27
434.47	421.30
434.66	456.40
434.85	386.19
435.03	393.21
435.22	393.21
435.41	397.89
435.59	435.34
435.78	372.15
435.97	365.12
436.16	449.38
436.34	418.96
436.53	447.04
436.72	425.98
436.90	421.30
437.09	442.36
437.28	376.83
437.46	369.80
437.65	491.51
437.84	390.87
438.02	390.87
438.21	442.36
438.40	414.27
438.58	411.93
438.77	463.43
438.96	381.51
439.14	397.89
439.33	430.66
439.52	428.32
439.70	397.89
439.89	421.30
440.08	461.09
440.26	468.11
440.45	463.43
440.63	442.36
440.82	390.87
441.01	454.06
441.19	337.04
441.38	383.85
441.57	449.38
441.75	397.89
441.94	423.64
442.12	425.98
442.31	400.23
442.50	400.23
442.68	374.49
442.87	442.36
443.05	332.36
443.24	416.62
443.43	470.45
443.61	379.17
443.80	404.91
443.98	386.19
444.17	411.93
444.35	379.17
444.54	421.30
444.73	381.51
444.91	484.49
445.10	386.19
445.28	397.89
445.47	388.53
445.65	369.80
445.84	404.91
446.02	404.91
446.21	344.06
446.39	409.59
446.58	442.36
446.77	372.15
446.95	444.70
447.14	435.34
447.32	407.25
447.51	414.27
447.69	379.17
447.88	367.46
448.06	472.79
448.25	442.36
448.43	458.74
448.62	395.55
448.80	416.62
448.99	418.96
449.17	369.80
449.36	386.19
449.54	430.66
449.73	341.72
449.91	437.68
450.10	334.70
450.28	500.87
450.46	383.85
450.65	451.72
450.83	393.21
451.02	437.68
451.20	330.02
451.39	381.51
451.57	425.98
451.76	402.57
451.94	322.99
452.13	358.10
452.31	423.64
452.49	449.38
452.68	388.53
452.86	465.77
453.05	454.06
453.23	463.43
453.42	374.49
453.60	435.34
453.78	397.89
453.97	421.30
454.15	430.66
454.34	388.53
454.52	322.99
454.70	500.87
454.89	472.79
455.07	451.72
455.26	404.91
455.44	416.62
455.62	402.57
455.81	407.25
455.99	407.25
456.17	423.64
456.36	411.93
456.54	407.25
456.73	299.59
456.91	440.02
457.09	362.78
457.28	437.68
457.46	498.53
457.64	416.62
457.83	374.49
458.01	449.38
458.19	421.30
458.38	388.53
458.56	461.09
458.74	463.43
458.93	376.83
459.11	421.30
459.29	367.46
459.48	400.23
459.66	433.00
459.84	489.17
460.03	416.62
460.21	423.64
460.39	372.15
460.57	458.74
460.76	465.77
460.94	390.87
461.12	383.85
461.31	414.27
461.49	421.30
461.67	440.02
461.85	442.36
462.04	442.36
462.22	685.78
462.40	409.59
462.59	451.72
462.77	477.47
462.95	425.98
463.13	402.57
463.32	411.93
463.50	411.93
463.68	425.98
463.86	433.00
464.05	369.80
464.23	433.00
464.41	376.83
464.59	470.45
464.78	400.23
464.96	381.51
465.14	404.91
465.32	388.53
465.50	407.25
465.69	454.06
465.87	423.64
466.05	425.98
466.23	400.23
466.41	416.62
466.60	404.91
466.78	440.02
466.96	421.30
467.14	353.42
467.32	463.43
467.51	418.96
467.69	454.06
467.87	475.13
468.05	393.21
468.23	400.23
468.41	407.25
468.60	397.89
468.78	355.76
468.96	437.68
469.14	425.98
469.32	365.12
469.50	447.04
469.69	447.04
469.87	360.44
470.05	393.21
470.23	451.72
470.41	423.64
470.59	468.11
470.77	425.98
470.95	383.85
471.14	421.30
471.32	351.08
471.50	360.44
471.68	381.51
471.86	458.74
472.04	418.96
472.22	440.02
472.40	390.87
472.58	376.83
472.77	416.62
472.95	404.91
473.13	444.70
473.31	484.49
473.49	393.21
473.67	386.19
473.85	444.70
474.03	381.51
474.21	440.02
474.39	393.21
474.57	442.36
474.75	505.56
474.93	402.57
475.12	447.04
475.30	421.30
475.48	449.38
475.66	386.19
475.84	421.30
476.02	440.02
476.20	425.98
476.38	372.15
476.56	479.81
476.74	418.96
476.92	411.93
477.10	383.85
477.28	416.62
477.46	330.02
477.64	433.00
477.82	484.49
478.00	444.70
478.18	421.30
478.36	433.00
478.54	421.30
478.72	451.72
478.90	365.12
479.08	383.85
479.26	395.55
479.44	423.64
479.62	365.12
479.80	397.89
479.98	353.42
480.16	409.59
480.34	421.30
480.52	374.49
480.70	362.78
480.88	344.06
481.06	365.12
481.24	414.27
481.41	465.77
481.59	416.62
481.77	418.96
481.95	418.96
482.13	463.43
482.31	444.70
482.49	320.65
482.67	477.47
482.85	393.21
483.03	435.34
483.21	395.55
483.39	418.96
483.57	458.74
483.74	475.13
483.92	430.66
484.10	470.45
484.28	390.87
484.46	414.27
484.64	395.55
484.82	362.78
485.00	409.59
485.18	458.74
485.35	423.64
485.53	330.02
485.71	442.36
485.89	404.91
486.07	351.08
486.25	475.13
486.43	477.47
486.61	440.02
486.78	486.83
486.96	423.64
487.14	440.02
487.32	423.64
487.50	397.89
487.68	456.40
487.85	409.59
488.03	390.87
488.21	402.57
488.39	388.53
488.57	353.42
488.75	376.83
488.92	552.37
489.10	402.57
489.28	477.47
489.46	404.91
489.64	381.51
489.81	365.12
489.99	374.49
490.17	381.51
490.35	500.87
490.53	390.87
490.70	390.87
490.88	411.93
491.06	454.06
491.24	447.04
491.41	486.83
491.59	414.27
491.77	376.83
491.95	397.89
492.13	390.87
492.30	428.32
492.48	390.87
492.66	362.78
492.84	397.89
493.01	465.77
493.19	433.00
493.37	414.27
493.54	397.89
493.72	390.87
493.90	409.59
494.08	418.96
494.25	447.04
494.43	376.83
494.61	418.96
494.79	486.83
494.96	374.49
495.14	397.89
495.32	423.64
495.49	449.38
495.67	407.25
495.85	362.78
496.02	437.68
496.20	353.42
496.38	468.11
496.55	477.47
496.73	395.55
496.91	440.02
497.09	428.32
497.26	425.98
497.44	402.57
497.62	444.70
497.79	395.55
497.97	351.08
498.14	486.83
498.32	437.68
498.50	449.38
498.67	407.25
498.85	472.79
499.03	369.80
499.20	374.49
499.38	414.27
499.56	456.40
499.73	498.53
499.91	421.30
500.08	407.25
500.26	500.87
500.44	379.17
500.61	447.04
500.79	456.40
500.97	397.89
501.14	447.04
501.32	444.70
501.49	369.80
501.67	386.19
501.84	447.04
502.02	367.46
502.20	418.96
502.37	395.55
502.55	372.15
502.72	407.25
502.90	395.55
503.07	402.57
503.25	411.93
503.43	402.57
503.60	362.78
503.78	402.57
503.95	393.21
504.13	423.64
504.30	449.38
504.48	404.91
504.65	414.27
504.83	390.87
505.01	423.64
505.18	374.49
505.36	409.59
505.53	437.68
505.71	437.68
505.88	449.38
506.06	397.89
506.23	442.36
506.41	425.98
506.58	381.51
506.76	454.06
506.93	451.72
507.11	376.83
507.28	369.80
507.46	447.04
507.63	393.21
507.81	397.89
507.98	400.23
508.16	379.17
508.33	440.02
508.50	416.62
508.68	369.80
508.85	362.78
509.03	397.89
509.20	372.15
509.38	437.68
509.55	435.34
509.73	454.06
509.90	435.34
510.08	418.96
510.25	376.83
510.42	388.53
510.60	409.59
510.77	365.12
510.95	430.66
511.12	381.51
511.30	416.62
511.47	451.72
511.64	407.25
511.82	409.59
511.99	444.70
512.17	327.68
512.34	383.85
512.51	433.00
512.69	372.15
512.86	503.22
513.04	416.62
513.21	444.70
513.38	456.40
513.56	430.66
513.73	390.87
513.90	416.62
514.08	440.02
514.25	374.49
514.43	425.98
514.60	386.19
514.77	379.17
514.95	407.25
515.12	402.57
515.29	416.62
515.47	407.25
515.64	374.49
515.81	367.46
515.99	475.13
516.16	449.38
516.33	395.55
516.51	428.32
516.68	388.53
516.85	416.62
517.03	332.36
517.20	442.36
517.37	414.27
517.54	418.96
517.72	503.22
517.89	423.64
518.06	358.10
518.24	489.17
518.41	397.89
518.58	425.98
518.75	355.76
518.93	402.57
519.10	430.66
519.27	437.68
519.45	444.70
519.62	496.19
519.79	433.00
519.96	447.04
520.14	404.91
520.31	468.11
520.48	421.30
520.65	454.06
520.83	484.49
521.00	374.49
521.17	400.23
521.34	433.00
521.52	372.15
521.69	444.70
521.86	447.04
522.03	433.00
522.20	414.27
522.38	395.55
522.55	482.15
522.72	395.55
522.89	327.68
523.07	454.06
523.24	358.10
523.41	423.64
523.58	409.59
523.75	404.91
523.92	383.85
524.10	479.81
524.27	379.17
524.44	437.68
524.61	425.98
524.78	386.19
524.96	393.21
525.13	421.30
525.30	308.95
525.47	458.74
525.64	433.00
525.81	442.36
525.98	404.91
526.16	437.68
526.33	496.19
526.50	400.23
526.67	433.00
526.84	400.23
527.01	400.23
527.18	395.55
527.36	491.51
527.53	390.87
527.70	395.55
527.87	388.53
528.04	468.11
528.21	449.38
528.38	472.79
528.55	414.27
528.72	437.68
528.89	442.36
529.07	390.87
529.24	435.34
529.41	425.98
529.58	451.72
529.75	472.79
529.92	423.64
530.09	358.10
530.26	482.15
530.43	393.21
530.60	397.89
530.77	428.32
530.94	418.96
531.11	433.00
531.28	374.49
531.46	463.43
531.63	395.55
531.80	388.53
531.97	416.62
532.14	409.59
532.31	379.17
532.48	397.89
532.65	503.22
532.82	404.91
532.99	386.19
533.16	449.38
533.33	475.13
533.50	482.15
533.67	418.96
533.84	369.80
534.01	451.72
534.18	414.27
534.35	407.25
534.52	451.72
534.69	372.15
534.86	451.72
535.03	442.36
535.20	404.91
535.37	411.93
535.54	386.19
535.71	411.93
535.88	470.45
536.05	414.27
536.22	416.62
536.38	421.30
536.55	442.36
536.72	489.17
536.89	381.51
537.06	381.51
537.23	365.12
537.40	458.74
537.57	344.06
537.74	456.40
537.91	421.30
538.08	379.17
538.25	449.38
538.42	376.83
538.59	379.17
538.75	423.64
538.92	369.80
539.09	456.40
539.26	414.27
539.43	521.94
539.60	404.91
539.77	369.80
539.94	421.30
540.11	437.68
540.28	428.32
540.44	425.98
540.61	351.08
540.78	407.25
540.95	430.66
541.12	409.59
541.29	414.27
541.46	402.57
541.62	517.26
541.79	416.62
541.96	397.89
542.13	447.04
542.30	440.02
542.47	423.64
542.63	430.66
542.80	468.11
542.97	479.81
543.14	374.49
543.31	458.74
543.48	416.62
543.64	440.02
543.81	440.02
543.98	456.40
544.15	437.68
544.32	388.53
544.48	395.55
544.65	409.59
544.82	458.74
544.99	386.19
545.16	379.17
545.32	390.87
545.49	372.15
545.66	393.21
545.83	404.91
546.00	397.89
546.16	447.04
546.33	381.51
546.50	379.17
546.67	498.53
546.83	409.59
547.00	433.00
547.17	346.40
547.34	344.06
547.50	425.98
547.67	383.85
547.84	411.93
548.00	409.59
548.17	395.55
548.34	484.49
548.51	435.34
548.67	402.57
548.84	374.49
549.01	472.79
549.18	365.12
549.34	461.09
549.51	416.62
549.68	470.45
549.84	477.47
550.01	372.15
550.18	463.43
550.34	407.25
550.51	444.70
550.68	440.02
550.84	351.08
551.01	402.57
551.18	386.19
551.34	425.98
551.51	486.83
551.68	430.66
551.84	451.72
552.01	383.85
552.18	512.58
552.34	472.79
552.51	468.11
552.68	477.47
552.84	416.62
553.01	463.43
553.18	456.40
553.34	440.02
553.51	470.45
553.67	416.62
553.84	397.89
554.01	423.64
554.17	393.21
554.34	374.49
554.51	386.19
554.67	463.43
554.84	463.43
555.00	482.15
555.17	463.43
555.33	414.27
555.50	444.70
555.67	395.55
555.83	318.31
556.00	388.53
556.16	503.22
556.33	500.87
556.50	393.21
556.66	393.21
556.83	376.83
556.99	440.02
557.16	475.13
557.32	353.42
557.49	458.74
557.65	428.32
557.82	493.85
557.98	395.55
558.15	456.40
558.32	379.17
558.48	362.78
558.65	381.51
558.81	395.55
558.98	376.83
559.14	416.62
559.31	472.79
559.47	381.51
559.64	418.96
559.80	376.83
559.97	428.32
560.13	491.51
560.30	397.89
560.46	498.53
560.63	379.17
560.79	409.59
560.96	379.17
561.12	404.91
561.29	344.06
561.45	407.25
561.61	388.53
561.78	491.51
561.94	498.53
562.11	440.02
562.27	400.23
562.44	414.27
562.60	411.93
562.77	505.56
562.93	428.32
563.10	428.32
563.26	383.85
563.42	428.32
563.59	433.00
563.75	362.78
563.92	369.80
564.08	423.64
564.24	456.40
564.41	381.51
564.57	486.83
564.74	397.89
564.90	344.06
565.07	425.98
565.23	421.30
565.39	430.66
565.56	440.02
565.72	397.89
565.88	454.06
566.05	416.62
566.21	425.98
566.38	358.10
566.54	524.28
566.70	435.34
566.87	418.96
567.03	440.02
567.19	383.85
567.36	400.23
567.52	407.25
567.68	414.27
567.85	379.17
568.01	388.53
568.17	376.83
568.34	383.85
568.50	550.03
568.66	440.02
568.83	461.09
568.99	465.77
569.15	447.04
569.32	397.89
569.48	475.13
569.64	369.80
569.81	465.77
569.97	461.09
570.13	433.00
570.30	465.77
570.46	372.15
570.62	397.89
570.78	400.23
570.95	416.62
571.11	390.87
571.27	430.66
571.43	402.57
571.60	395.55
571.76	369.80
571.92	428.32
572.09	440.02
572.25	484.49
572.41	437.68
572.57	367.46
572.74	435.34
572.90	472.79
573.06	447.04
573.22	372.15
573.38	358.10
573.55	374.49
573.71	463.43
573.87	430.66
574.03	433.00
574.20	430.66
574.36	437.68
574.52	447.04
574.68	402.57
574.84	447.04
575.01	411.93
575.17	440.02
575.33	411.93
575.49	353.42
575.65	353.42
575.82	407.25
575.98	470.45
576.14	421.30
576.30	351.08
576.46	418.96
576.62	388.53
576.79	498.53
576.95	472.79
577.11	435.34
577.27	388.53
577.43	458.74
577.59	472.79
577.75	365.12
577.92	351.08
578.08	395.55
578.24	411.93
578.40	454.06
578.56	484.49
578.72	383.85
578.88	507.90
579.04	468.11
579.21	421.30
579.37	381.51
579.53	411.93
579.69	402.57
579.85	418.96
580.01	362.78
580.17	400.23
580.33	360.44
580.49	404.91
580.65	451.72
580.82	472.79
580.98	451.72
581.14	486.83
581.30	451.72
581.46	362.78
581.62	416.62
581.78	470.45
581.94	454.06
582.10	376.83
582.26	512.58
582.42	430.66
582.58	484.49
582.74	440.02
582.90	461.09
583.06	482.15
583.22	409.59
583.38	383.85
583.54	435.34
583.70	482.15
583.86	400.23
584.02	416.62
584.18	449.38
584.34	383.85
584.50	353.42
584.66	456.40
584.82	428.32
584.98	351.08
585.14	395.55
585.30	449.38
585.46	440.02
585.62	447.04
585.78	423.64
585.94	444.70
586.10	423.64
586.26	409.59
586.42	538.32
586.58	397.89
586.74	388.53
586.90	386.19
587.06	402.57
587.22	404.91
587.38	425.98
587.54	425.98
587.70	491.51
587.86	475.13
588.02	454.06
588.18	425.98
588.34	388.53
588.49	395.55
588.65	400.23
588.81	440.02
588.97	409.59
589.13	386.19
589.29	344.06
589.45	437.68
589.61	491.51
589.77	475.13
589.93	468.11
590.08	393.21
590.24	400.23
590.40	388.53
590.56	390.87
590.72	395.55
590.88	379.17
591.04	430.66
591.20	379.17
591.35	500.87
591.51	383.85
591.67	358.10
591.83	402.57
591.99	407.25
592.15	540.66
592.31	388.53
592.46	411.93
592.62	433.00
592.78	447.04
592.94	386.19
593.10	418.96
593.26	456.40
593.41	418.96
593.57	369.80
593.73	425.98
593.89	433.00
594.05	437.68
594.20	421.30
594.36	407.25
594.52	374.49
594.68	402.57
594.84	444.70
594.99	465.77
595.15	369.80
595.31	430.66
595.47	472.79
595.62	442.36
595.78	425.98
595.94	451.72
596.10	465.77
596.25	381.51
596.41	435.34
596.57	440.02
596.73	449.38
596.88	381.51
597.04	386.19
597.20	411.93
597.36	477.47
597.51	348.74
597.67	404.91
597.83	379.17
597.99	435.34
598.14	470.45
598.30	418.96
598.46	416.62
598.61	418.96
598.77	414.27
598.93	386.19
599.09	463.43
599.24	414.27
599.40	411.93
599.56	430.66
599.71	517.26
599.87	379.17
600.03	475.13
600.18	393.21
600.34	486.83
600.50	348.74
600.65	461.09
600.81	463.43
600.97	440.02
601.12	463.43
601.28	465.77
601.44	358.10
601.59	407.25
601.75	404.91
601.91	388.53
602.06	407.25
602.22	503.22
602.37	411.93
602.53	423.64
602.69	451.72
602.84	297.25
603.00	376.83
603.16	470.45
603.31	421.30
603.47	390.87
603.62	390.87
603.78	465.77
603.94	379.17
604.09	421.30
604.25	500.87
604.40	437.68
604.56	402.57
604.71	468.11
604.87	407.25
605.03	465.77
605.18	449.38
605.34	369.80
605.49	397.89
605.65	397.89
605.80	344.06
605.96	451.72
606.12	416.62
606.27	411.93
606.43	433.00
606.58	447.04
606.74	414.27
606.89	400.23
607.05	451.72
607.20	468.11
607.36	386.19
607.51	325.33
607.67	461.09
607.82	440.02
607.98	428.32
608.13	447.04
608.29	428.32
608.44	414.27
608.60	421.30
608.75	482.15
608.91	444.70
609.06	416.62
609.22	404.91
609.37	395.55
609.53	435.34
609.68	425.98
609.84	400.23
609.99	386.19
610.15	440.02
