SpectraSuite Data File
++++++++++++++++++++++++++++++++++++
Date: Fri Oct 25 12:11:47 EDT 2013
User: price-jones
Dark Spectrum Present: No
Reference Spectrum Present: No
Number of Sampled Component Spectra: 1
Spectrometers: USB2+H05261
Integration Time (usec): 100000 (USB2+H05261)
Spectra Averaged: 1 (USB2+H05261)
Boxcar Smoothing: 0 (USB2+H05261)
Correct for Electrical Dark: No (USB2+H05261)
Strobe/Lamp Enabled: No (USB2+H05261)
Correct for Detector Non-linearity: No (USB2+H05261)
Correct for Stray Light: No (USB2+H05261)
Number of Pixels in Processed Spectrum: 2048
>>>>>Begin Processed Spectral Data<<<<<
365.73	337.04
365.92	337.04
366.12	337.04
366.32	271.50
366.52	318.31
366.72	243.42
366.91	238.73
367.11	271.50
367.31	201.29
367.51	241.08
367.70	224.69
367.90	236.39
368.10	297.25
368.30	229.37
368.49	294.91
368.69	280.86
368.89	229.37
369.09	215.33
369.28	301.93
369.48	198.95
369.68	264.48
369.87	287.89
370.07	276.18
370.27	290.23
370.47	301.93
370.66	430.66
370.86	318.31
371.06	348.74
371.25	402.57
371.45	367.46
371.65	477.47
371.84	306.61
372.04	374.49
372.24	435.34
372.44	337.04
372.63	477.47
372.83	461.09
373.03	493.85
373.22	416.62
373.42	414.27
373.62	421.30
373.81	435.34
374.01	411.93
374.21	472.79
374.40	440.02
374.60	465.77
374.79	425.98
374.99	351.08
375.19	437.68
375.38	418.96
375.58	327.68
375.78	449.38
375.97	470.45
376.17	482.15
376.37	341.72
376.56	479.81
376.76	320.65
376.95	360.44
377.15	472.79
377.35	423.64
377.54	376.83
377.74	407.25
377.93	416.62
378.13	369.80
378.33	461.09
378.52	360.44
378.72	496.19
378.91	318.31
379.11	365.12
379.31	283.20
379.50	376.83
379.70	416.62
379.89	463.43
380.09	418.96
380.28	423.64
380.48	388.53
380.68	435.34
380.87	386.19
381.07	461.09
381.26	428.32
381.46	428.32
381.65	390.87
381.85	327.68
382.04	358.10
382.24	369.80
382.43	416.62
382.63	404.91
382.83	404.91
383.02	376.83
383.22	376.83
383.41	346.40
383.61	411.93
383.80	351.08
384.00	444.70
384.19	388.53
384.39	470.45
384.58	390.87
384.78	418.96
384.97	411.93
385.17	400.23
385.36	395.55
385.56	475.13
385.75	430.66
385.95	367.46
386.14	360.44
386.34	353.42
386.53	468.11
386.72	376.83
386.92	386.19
387.11	425.98
387.31	390.87
387.50	379.17
387.70	390.87
387.89	418.96
388.09	400.23
388.28	372.15
388.48	390.87
388.67	388.53
388.86	395.55
389.06	383.85
389.25	444.70
389.45	365.12
389.64	407.25
389.84	465.77
390.03	390.87
390.22	437.68
390.42	369.80
390.61	390.87
390.81	451.72
391.00	362.78
391.19	437.68
391.39	440.02
391.58	423.64
391.78	395.55
391.97	353.42
392.16	386.19
392.36	383.85
392.55	416.62
392.75	447.04
392.94	369.80
393.13	458.74
393.33	416.62
393.52	365.12
393.71	388.53
393.91	409.59
394.10	360.44
394.29	416.62
394.49	409.59
394.68	437.68
394.88	418.96
395.07	414.27
395.26	430.66
395.46	409.59
395.65	435.34
395.84	465.77
396.04	465.77
396.23	454.06
396.42	435.34
396.62	397.89
396.81	428.32
397.00	402.57
397.19	482.15
397.39	416.62
397.58	421.30
397.77	372.15
397.97	386.19
398.16	456.40
398.35	428.32
398.55	430.66
398.74	383.85
398.93	400.23
399.12	411.93
399.32	411.93
399.51	416.62
399.70	407.25
399.90	379.17
400.09	409.59
400.28	355.76
400.47	362.78
400.67	451.72
400.86	365.12
401.05	440.02
401.24	337.04
401.44	388.53
401.63	362.78
401.82	362.78
402.01	411.93
402.21	433.00
402.40	355.76
402.59	383.85
402.78	472.79
402.97	360.44
403.17	397.89
403.36	388.53
403.55	395.55
403.74	365.12
403.93	425.98
404.13	409.59
404.32	404.91
404.51	461.09
404.70	409.59
404.89	428.32
405.09	503.22
405.28	397.89
405.47	428.32
405.66	379.17
405.85	461.09
406.05	402.57
406.24	418.96
406.43	395.55
406.62	475.13
406.81	425.98
407.00	376.83
407.20	425.98
407.39	428.32
407.58	393.21
407.77	421.30
407.96	379.17
408.15	425.98
408.34	440.02
408.54	409.59
408.73	425.98
408.92	447.04
409.11	491.51
409.30	397.89
409.49	430.66
409.68	358.10
409.87	447.04
410.07	397.89
410.26	353.42
410.45	435.34
410.64	365.12
410.83	461.09
411.02	421.30
411.21	428.32
411.40	390.87
411.59	454.06
411.78	437.68
411.98	402.57
412.17	353.42
412.36	381.51
412.55	393.21
412.74	402.57
412.93	442.36
413.12	456.40
413.31	428.32
413.50	435.34
413.69	465.77
413.88	479.81
414.07	447.04
414.26	346.40
414.45	447.04
414.64	421.30
414.83	449.38
415.02	416.62
415.22	433.00
415.41	482.15
415.60	404.91
415.79	435.34
415.98	430.66
416.17	365.12
416.36	397.89
416.55	402.57
416.74	418.96
416.93	414.27
417.12	440.02
417.31	428.32
417.50	395.55
417.69	517.26
417.88	423.64
418.07	407.25
418.26	372.15
418.45	376.83
418.64	482.15
418.83	355.76
419.02	411.93
419.21	400.23
419.39	430.66
419.58	470.45
419.77	407.25
419.96	428.32
420.15	379.17
420.34	442.36
420.53	463.43
420.72	430.66
420.91	407.25
421.10	393.21
421.29	486.83
421.48	416.62
421.67	468.11
421.86	379.17
422.05	416.62
422.24	334.70
422.43	465.77
422.61	393.21
422.80	418.96
422.99	435.34
423.18	425.98
423.37	463.43
423.56	407.25
423.75	449.38
423.94	379.17
424.13	421.30
424.32	383.85
424.50	454.06
424.69	393.21
424.88	400.23
425.07	402.57
425.26	451.72
425.45	386.19
425.64	430.66
425.83	430.66
426.01	421.30
426.20	468.11
426.39	332.36
426.58	390.87
426.77	344.06
426.96	449.38
427.15	388.53
427.33	440.02
427.52	416.62
427.71	435.34
427.90	428.32
428.09	367.46
428.28	388.53
428.46	360.44
428.65	418.96
428.84	447.04
429.03	390.87
429.22	425.98
429.40	383.85
429.59	414.27
429.78	454.06
429.97	449.38
430.16	435.34
430.34	433.00
430.53	390.87
430.72	379.17
430.91	451.72
431.10	404.91
431.28	409.59
431.47	320.65
431.66	386.19
431.85	386.19
432.03	372.15
432.22	449.38
432.41	379.17
432.60	416.62
432.79	421.30
432.97	407.25
433.16	423.64
433.35	388.53
433.54	414.27
433.72	402.57
433.91	482.15
434.10	454.06
434.28	393.21
434.47	362.78
434.66	430.66
434.85	510.24
435.03	472.79
435.22	416.62
435.41	482.15
435.59	454.06
435.78	416.62
435.97	468.11
436.16	454.06
436.34	379.17
436.53	365.12
436.72	461.09
436.90	461.09
437.09	360.44
437.28	449.38
437.46	388.53
437.65	395.55
437.84	430.66
438.02	493.85
438.21	411.93
438.40	437.68
438.58	440.02
438.77	423.64
438.96	442.36
439.14	360.44
439.33	416.62
439.52	400.23
439.70	442.36
439.89	451.72
440.08	376.83
440.26	400.23
440.45	449.38
440.63	381.51
440.82	355.76
441.01	381.51
441.19	456.40
441.38	414.27
441.57	423.64
441.75	461.09
441.94	423.64
442.12	397.89
442.31	407.25
442.50	397.89
442.68	437.68
442.87	365.12
443.05	351.08
443.24	456.40
443.43	437.68
443.61	433.00
443.80	330.02
443.98	367.46
444.17	456.40
444.35	477.47
444.54	341.72
444.73	330.02
444.91	440.02
445.10	402.57
445.28	407.25
445.47	425.98
445.65	395.55
445.84	395.55
446.02	444.70
446.21	397.89
446.39	461.09
446.58	376.83
446.77	400.23
446.95	454.06
447.14	425.98
447.32	400.23
447.51	430.66
447.69	456.40
447.88	362.78
448.06	409.59
448.25	456.40
448.43	327.68
448.62	311.29
448.80	472.79
448.99	430.66
449.17	451.72
449.36	407.25
449.54	404.91
449.73	461.09
449.91	454.06
450.10	404.91
450.28	486.83
450.46	421.30
450.65	435.34
450.83	407.25
451.02	369.80
451.20	381.51
451.39	390.87
451.57	360.44
451.76	444.70
451.94	358.10
452.13	449.38
452.31	425.98
452.49	402.57
452.68	409.59
452.86	430.66
453.05	447.04
453.23	402.57
453.42	418.96
453.60	402.57
453.78	430.66
453.97	407.25
454.15	383.85
454.34	407.25
454.52	486.83
454.70	470.45
454.89	423.64
455.07	440.02
455.26	409.59
455.44	402.57
455.62	358.10
455.81	418.96
455.99	458.74
456.17	484.49
456.36	444.70
456.54	425.98
456.73	449.38
456.91	500.87
457.09	421.30
457.28	440.02
457.46	395.55
457.64	376.83
457.83	400.23
458.01	404.91
458.19	463.43
458.38	468.11
458.56	416.62
458.74	407.25
458.93	355.76
459.11	411.93
459.29	425.98
459.48	400.23
459.66	470.45
459.84	461.09
460.03	454.06
460.21	423.64
460.39	409.59
460.57	425.98
460.76	496.19
460.94	425.98
461.12	447.04
461.31	510.24
461.49	475.13
461.67	430.66
461.85	414.27
462.04	355.76
462.22	751.31
462.40	421.30
462.59	388.53
462.77	437.68
462.95	503.22
463.13	430.66
463.32	468.11
463.50	428.32
463.68	379.17
463.86	390.87
464.05	479.81
464.23	500.87
464.41	486.83
464.59	372.15
464.78	465.77
464.96	386.19
465.14	425.98
465.32	407.25
465.50	374.49
465.69	500.87
465.87	428.32
466.05	409.59
466.23	388.53
466.41	440.02
466.60	393.21
466.78	428.32
466.96	444.70
467.14	433.00
467.32	407.25
467.51	444.70
467.69	428.32
467.87	444.70
468.05	397.89
468.23	472.79
468.41	393.21
468.60	379.17
468.78	367.46
468.96	348.74
469.14	376.83
469.32	372.15
469.50	472.79
469.69	468.11
469.87	458.74
470.05	404.91
470.23	411.93
470.41	437.68
470.59	402.57
470.77	421.30
470.95	411.93
471.14	390.87
471.32	402.57
471.50	489.17
471.68	388.53
471.86	346.40
472.04	461.09
472.22	428.32
472.40	306.61
472.58	404.91
472.77	407.25
472.95	423.64
473.13	425.98
473.31	510.24
473.49	365.12
473.67	383.85
473.85	451.72
474.03	489.17
474.21	395.55
474.39	449.38
474.57	451.72
474.75	425.98
474.93	421.30
475.12	416.62
475.30	365.12
475.48	395.55
475.66	409.59
475.84	421.30
476.02	397.89
476.20	458.74
476.38	416.62
476.56	454.06
476.74	381.51
476.92	451.72
477.10	418.96
477.28	409.59
477.46	362.78
477.64	491.51
477.82	433.00
478.00	440.02
478.18	411.93
478.36	411.93
478.54	383.85
478.72	451.72
478.90	435.34
479.08	496.19
479.26	437.68
479.44	409.59
479.62	381.51
479.80	395.55
479.98	372.15
480.16	454.06
480.34	428.32
480.52	451.72
480.70	372.15
480.88	503.22
481.06	435.34
481.24	423.64
481.41	425.98
481.59	409.59
481.77	423.64
481.95	400.23
482.13	423.64
482.31	416.62
482.49	381.51
482.67	428.32
482.85	470.45
483.03	390.87
483.21	421.30
483.39	416.62
483.57	376.83
483.74	458.74
483.92	449.38
484.10	346.40
484.28	402.57
484.46	470.45
484.64	414.27
484.82	381.51
485.00	367.46
485.18	400.23
485.35	442.36
485.53	433.00
485.71	430.66
485.89	423.64
486.07	472.79
486.25	517.26
486.43	435.34
486.61	428.32
486.78	379.17
486.96	404.91
487.14	414.27
487.32	435.34
487.50	554.71
487.68	367.46
487.85	449.38
488.03	388.53
488.21	447.04
488.39	362.78
488.57	353.42
488.75	327.68
488.92	486.83
489.10	447.04
489.28	477.47
489.46	402.57
489.64	491.51
489.81	479.81
489.99	388.53
490.17	435.34
490.35	461.09
490.53	449.38
490.70	351.08
490.88	451.72
491.06	430.66
491.24	388.53
491.41	369.80
491.59	430.66
491.77	447.04
491.95	360.44
492.13	379.17
492.30	428.32
492.48	451.72
492.66	344.06
492.84	395.55
493.01	346.40
493.19	390.87
493.37	470.45
493.54	451.72
493.72	395.55
493.90	447.04
494.08	393.21
494.25	402.57
494.43	482.15
494.61	407.25
494.79	365.12
494.96	411.93
495.14	521.94
495.32	414.27
495.49	468.11
495.67	442.36
495.85	376.83
496.02	374.49
496.20	468.11
496.38	390.87
496.55	404.91
496.73	449.38
496.91	430.66
497.09	374.49
497.26	325.33
497.44	433.00
497.62	430.66
497.79	423.64
497.97	444.70
498.14	437.68
498.32	519.60
498.50	454.06
498.67	423.64
498.85	400.23
499.03	428.32
499.20	482.15
499.38	407.25
499.56	458.74
499.73	416.62
499.91	472.79
500.08	397.89
500.26	379.17
500.44	400.23
500.61	444.70
500.79	449.38
500.97	409.59
501.14	395.55
501.32	414.27
501.49	477.47
501.67	390.87
501.84	411.93
502.02	407.25
502.20	435.34
502.37	437.68
502.55	444.70
502.72	433.00
502.90	440.02
503.07	365.12
503.25	411.93
503.43	397.89
503.60	433.00
503.78	346.40
503.95	409.59
504.13	376.83
504.30	484.49
504.48	482.15
504.65	444.70
504.83	409.59
505.01	362.78
505.18	463.43
505.36	332.36
505.53	468.11
505.71	315.97
505.88	379.17
506.06	463.43
506.23	484.49
506.41	425.98
506.58	367.46
506.76	409.59
506.93	407.25
507.11	435.34
507.28	409.59
507.46	395.55
507.63	486.83
507.81	500.87
507.98	402.57
508.16	454.06
508.33	454.06
508.50	454.06
508.68	414.27
508.85	416.62
509.03	397.89
509.20	367.46
509.38	449.38
509.55	482.15
509.73	416.62
509.90	430.66
510.08	416.62
510.25	451.72
510.42	407.25
510.60	449.38
510.77	489.17
510.95	383.85
511.12	379.17
511.30	367.46
511.47	437.68
511.64	428.32
511.82	472.79
511.99	519.60
512.17	393.21
512.34	416.62
512.51	465.77
512.69	374.49
512.86	470.45
513.04	428.32
513.21	519.60
513.38	430.66
513.56	386.19
513.73	374.49
513.90	421.30
514.08	428.32
514.25	470.45
514.43	383.85
514.60	376.83
514.77	430.66
514.95	404.91
515.12	437.68
515.29	484.49
515.47	402.57
515.64	463.43
515.81	477.47
515.99	442.36
516.16	489.17
516.33	470.45
516.51	346.40
516.68	404.91
516.85	390.87
517.03	470.45
517.20	339.38
517.37	358.10
517.54	358.10
517.72	440.02
517.89	355.76
518.06	402.57
518.24	428.32
518.41	491.51
518.58	428.32
518.75	397.89
518.93	454.06
519.10	521.94
519.27	388.53
519.45	461.09
519.62	416.62
519.79	491.51
519.96	393.21
520.14	409.59
520.31	456.40
520.48	449.38
520.65	505.56
520.83	390.87
521.00	418.96
521.17	484.49
521.34	442.36
521.52	395.55
521.69	409.59
521.86	416.62
522.03	416.62
522.20	447.04
522.38	456.40
522.55	379.17
522.72	374.49
522.89	425.98
523.07	442.36
523.24	440.02
523.41	456.40
523.58	479.81
523.75	461.09
523.92	351.08
524.10	381.51
524.27	433.00
524.44	433.00
524.61	444.70
524.78	418.96
524.96	383.85
525.13	418.96
525.30	433.00
525.47	437.68
525.64	493.85
525.81	451.72
525.98	407.25
526.16	367.46
526.33	414.27
526.50	433.00
526.67	327.68
526.84	404.91
527.01	418.96
527.18	411.93
527.36	430.66
527.53	355.76
527.70	454.06
527.87	461.09
528.04	479.81
528.21	381.51
528.38	454.06
528.55	402.57
528.72	409.59
528.89	454.06
529.07	365.12
529.24	355.76
529.41	456.40
529.58	425.98
529.75	402.57
529.92	430.66
530.09	465.77
530.26	440.02
530.43	428.32
530.60	433.00
530.77	411.93
530.94	416.62
531.11	388.53
531.28	388.53
531.46	404.91
531.63	400.23
531.80	477.47
531.97	421.30
532.14	367.46
532.31	449.38
532.48	472.79
532.65	442.36
532.82	423.64
532.99	416.62
533.16	423.64
533.33	390.87
533.50	435.34
533.67	393.21
533.84	416.62
534.01	442.36
534.18	374.49
534.35	458.74
534.52	397.89
534.69	423.64
534.86	456.40
535.03	414.27
535.20	482.15
535.37	507.90
535.54	414.27
535.71	407.25
535.88	444.70
536.05	395.55
536.22	390.87
536.38	372.15
536.55	433.00
536.72	528.96
536.89	362.78
537.06	355.76
537.23	341.72
537.40	482.15
537.57	463.43
537.74	489.17
537.91	435.34
538.08	400.23
538.25	407.25
538.42	400.23
538.59	451.72
538.75	421.30
538.92	409.59
539.09	435.34
539.26	449.38
539.43	470.45
539.60	486.83
539.77	358.10
539.94	407.25
540.11	395.55
540.28	449.38
540.44	393.21
540.61	493.85
540.78	437.68
540.95	402.57
541.12	404.91
541.29	362.78
541.46	472.79
541.62	440.02
541.79	367.46
541.96	484.49
542.13	423.64
542.30	414.27
542.47	447.04
542.63	386.19
542.80	416.62
542.97	463.43
543.14	472.79
543.31	407.25
543.48	386.19
543.64	414.27
543.81	390.87
543.98	376.83
544.15	383.85
544.32	425.98
544.48	351.08
544.65	400.23
544.82	416.62
544.99	435.34
545.16	390.87
545.32	402.57
545.49	418.96
545.66	397.89
545.83	421.30
546.00	425.98
546.16	428.32
546.33	461.09
546.50	414.27
546.67	510.24
546.83	397.89
547.00	402.57
547.17	376.83
547.34	425.98
547.50	454.06
547.67	407.25
547.84	409.59
548.00	456.40
548.17	454.06
548.34	414.27
548.51	461.09
548.67	451.72
548.84	344.06
549.01	477.47
549.18	409.59
549.34	435.34
549.51	435.34
549.68	454.06
549.84	400.23
550.01	372.15
550.18	538.32
550.34	496.19
550.51	400.23
550.68	397.89
550.84	404.91
551.01	367.46
551.18	447.04
551.34	397.89
551.51	433.00
551.68	425.98
551.84	437.68
552.01	437.68
552.18	425.98
552.34	402.57
552.51	402.57
552.68	456.40
552.84	456.40
553.01	374.49
553.18	411.93
553.34	442.36
553.51	442.36
553.67	435.34
553.84	498.53
554.01	407.25
554.17	428.32
554.34	475.13
554.51	423.64
554.67	503.22
554.84	418.96
555.00	390.87
555.17	397.89
555.33	425.98
555.50	353.42
555.67	433.00
555.83	468.11
556.00	477.47
556.16	517.26
556.33	425.98
556.50	416.62
556.66	414.27
556.83	404.91
556.99	402.57
557.16	440.02
557.32	411.93
557.49	409.59
557.65	339.38
557.82	407.25
557.98	414.27
558.15	423.64
558.32	442.36
558.48	451.72
558.65	404.91
558.81	362.78
558.98	411.93
559.14	433.00
559.31	411.93
559.47	386.19
559.64	433.00
559.80	463.43
559.97	393.21
560.13	414.27
560.30	414.27
560.46	402.57
560.63	493.85
560.79	437.68
560.96	397.89
561.12	411.93
561.29	468.11
561.45	449.38
561.61	433.00
561.78	496.19
561.94	468.11
562.11	409.59
562.27	416.62
562.44	360.44
562.60	374.49
562.77	475.13
562.93	444.70
563.10	402.57
563.26	402.57
563.42	461.09
563.59	491.51
563.75	397.89
563.92	451.72
564.08	444.70
564.24	397.89
564.41	493.85
564.57	411.93
564.74	437.68
564.90	414.27
565.07	395.55
565.23	388.53
565.39	390.87
565.56	489.17
565.72	463.43
565.88	390.87
566.05	409.59
566.21	418.96
566.38	411.93
566.54	418.96
566.70	397.89
566.87	395.55
567.03	407.25
567.19	414.27
567.36	449.38
567.52	372.15
567.68	444.70
567.85	353.42
568.01	372.15
568.17	425.98
568.34	376.83
568.50	449.38
568.66	353.42
568.83	498.53
568.99	379.17
569.15	475.13
569.32	437.68
569.48	447.04
569.64	407.25
569.81	444.70
569.97	433.00
570.13	428.32
570.30	404.91
570.46	386.19
570.62	430.66
570.78	423.64
570.95	428.32
571.11	395.55
571.27	486.83
571.43	437.68
571.60	428.32
571.76	397.89
571.92	428.32
572.09	477.47
572.25	407.25
572.41	437.68
572.57	444.70
572.74	475.13
572.90	442.36
573.06	451.72
573.22	400.23
573.38	397.89
573.55	369.80
573.71	393.21
573.87	500.87
574.03	454.06
574.20	428.32
574.36	503.22
574.52	454.06
574.68	390.87
574.84	461.09
575.01	388.53
575.17	418.96
575.33	472.79
575.49	468.11
575.65	440.02
575.82	372.15
575.98	470.45
576.14	320.65
576.30	440.02
576.46	463.43
576.62	397.89
576.79	430.66
576.95	433.00
577.11	360.44
577.27	484.49
577.43	407.25
577.59	440.02
577.75	435.34
577.92	379.17
578.08	449.38
578.24	395.55
578.40	461.09
578.56	430.66
578.72	444.70
578.88	449.38
579.04	430.66
579.21	400.23
579.37	395.55
579.53	393.21
579.69	440.02
579.85	416.62
580.01	423.64
580.17	351.08
580.33	386.19
580.49	379.17
580.65	381.51
580.82	444.70
580.98	409.59
581.14	449.38
581.30	414.27
581.46	442.36
581.62	374.49
581.78	430.66
581.94	430.66
582.10	437.68
582.26	463.43
582.42	409.59
582.58	423.64
582.74	409.59
582.90	423.64
583.06	447.04
583.22	379.17
583.38	411.93
583.54	395.55
583.70	435.34
583.86	451.72
584.02	447.04
584.18	486.83
584.34	383.85
584.50	444.70
584.66	423.64
584.82	425.98
584.98	421.30
585.14	449.38
585.30	472.79
585.46	390.87
585.62	369.80
585.78	418.96
585.94	435.34
586.10	327.68
586.26	383.85
586.42	395.55
586.58	503.22
586.74	416.62
586.90	369.80
587.06	411.93
587.22	461.09
587.38	447.04
587.54	442.36
587.70	440.02
587.86	472.79
588.02	496.19
588.18	388.53
588.34	433.00
588.49	379.17
588.65	433.00
588.81	458.74
588.97	421.30
589.13	402.57
589.29	475.13
589.45	425.98
589.61	442.36
589.77	482.15
589.93	472.79
590.08	433.00
590.24	390.87
590.40	404.91
590.56	482.15
590.72	397.89
590.88	404.91
591.04	393.21
591.20	372.15
591.35	444.70
591.51	437.68
591.67	451.72
591.83	423.64
591.99	395.55
592.15	472.79
592.31	463.43
592.46	486.83
592.62	477.47
592.78	404.91
592.94	400.23
593.10	454.06
593.26	507.90
593.41	416.62
593.57	409.59
593.73	421.30
593.89	472.79
594.05	409.59
594.20	423.64
594.36	444.70
594.52	386.19
594.68	379.17
594.84	409.59
594.99	428.32
595.15	365.12
595.31	493.85
595.47	489.17
595.62	430.66
595.78	365.12
595.94	433.00
596.10	442.36
596.25	435.34
596.41	456.40
596.57	383.85
596.73	388.53
596.88	465.77
597.04	496.19
597.20	341.72
597.36	421.30
597.51	447.04
597.67	458.74
597.83	416.62
597.99	400.23
598.14	491.51
598.30	456.40
598.46	409.59
598.61	500.87
598.77	479.81
598.93	433.00
599.09	383.85
599.24	454.06
599.40	414.27
599.56	416.62
599.71	477.47
599.87	425.98
600.03	365.12
600.18	447.04
600.34	447.04
600.50	383.85
600.65	402.57
600.81	353.42
600.97	409.59
601.12	355.76
601.28	454.06
601.44	437.68
601.59	425.98
601.75	409.59
601.91	451.72
602.06	454.06
602.22	435.34
602.37	395.55
602.53	411.93
602.69	479.81
602.84	433.00
603.00	367.46
603.16	447.04
603.31	348.74
603.47	454.06
603.62	496.19
603.78	404.91
603.94	404.91
604.09	409.59
604.25	468.11
604.40	414.27
604.56	428.32
604.71	421.30
604.87	411.93
605.03	409.59
605.18	442.36
605.34	376.83
605.49	444.70
605.65	449.38
605.80	397.89
605.96	433.00
606.12	444.70
606.27	423.64
606.43	437.68
606.58	519.60
606.74	496.19
606.89	339.38
607.05	463.43
607.20	440.02
607.36	435.34
607.51	388.53
607.67	425.98
607.82	416.62
607.98	454.06
608.13	386.19
608.29	318.31
608.44	433.00
608.60	449.38
608.75	449.38
608.91	402.57
609.06	411.93
609.22	376.83
609.37	365.12
609.53	341.72
609.68	428.32
609.84	458.74
609.99	421.30
610.15	472.79
