SpectraSuite Data File
++++++++++++++++++++++++++++++++++++
Date: Fri Oct 25 12:11:25 EDT 2013
User: price-jones
Dark Spectrum Present: No
Reference Spectrum Present: No
Number of Sampled Component Spectra: 1
Spectrometers: USB2+H05261
Integration Time (usec): 100000 (USB2+H05261)
Spectra Averaged: 1 (USB2+H05261)
Boxcar Smoothing: 0 (USB2+H05261)
Correct for Electrical Dark: No (USB2+H05261)
Strobe/Lamp Enabled: No (USB2+H05261)
Correct for Detector Non-linearity: No (USB2+H05261)
Correct for Stray Light: No (USB2+H05261)
Number of Pixels in Processed Spectrum: 2048
>>>>>Begin Processed Spectral Data<<<<<
365.73	337.04
365.92	337.04
366.12	337.04
366.32	250.44
366.52	236.39
366.72	280.86
366.91	264.48
367.11	271.50
367.31	227.03
367.51	250.44
367.70	285.55
367.90	248.10
368.10	229.37
368.30	168.52
368.49	224.69
368.69	238.73
368.89	241.08
369.09	276.18
369.28	248.10
369.48	283.20
369.68	304.27
369.87	269.16
370.07	306.61
370.27	297.25
370.47	369.80
370.66	339.38
370.86	320.65
371.06	456.40
371.25	402.57
371.45	369.80
371.65	442.36
371.84	355.76
372.04	360.44
372.24	334.70
372.44	374.49
372.63	374.49
372.83	381.51
373.03	425.98
373.22	365.12
373.42	353.42
373.62	362.78
373.81	433.00
374.01	524.28
374.21	414.27
374.40	379.17
374.60	430.66
374.79	409.59
374.99	486.83
375.19	451.72
375.38	456.40
375.58	470.45
375.78	409.59
375.97	379.17
376.17	477.47
376.37	416.62
376.56	470.45
376.76	393.21
376.95	425.98
377.15	440.02
377.35	404.91
377.54	383.85
377.74	386.19
377.93	381.51
378.13	454.06
378.33	411.93
378.52	400.23
378.72	423.64
378.91	440.02
379.11	325.33
379.31	318.31
379.50	322.99
379.70	428.32
379.89	435.34
380.09	407.25
380.28	454.06
380.48	353.42
380.68	407.25
380.87	407.25
381.07	395.55
381.26	456.40
381.46	468.11
381.65	397.89
381.85	337.04
382.04	365.12
382.24	430.66
382.43	409.59
382.63	348.74
382.83	430.66
383.02	407.25
383.22	435.34
383.41	379.17
383.61	351.08
383.80	409.59
384.00	393.21
384.19	465.77
384.39	456.40
384.58	433.00
384.78	400.23
384.97	381.51
385.17	440.02
385.36	402.57
385.56	416.62
385.75	381.51
385.95	409.59
386.14	383.85
386.34	390.87
386.53	468.11
386.72	407.25
386.92	458.74
387.11	409.59
387.31	465.77
387.50	444.70
387.70	365.12
387.89	449.38
388.09	402.57
388.28	400.23
388.48	411.93
388.67	468.11
388.86	409.59
389.06	407.25
389.25	421.30
389.45	414.27
389.64	407.25
389.84	477.47
390.03	479.81
390.22	414.27
390.42	482.15
390.61	414.27
390.81	449.38
391.00	400.23
391.19	475.13
391.39	440.02
391.58	500.87
391.78	374.49
391.97	409.59
392.16	430.66
392.36	418.96
392.55	433.00
392.75	451.72
392.94	449.38
393.13	409.59
393.33	402.57
393.52	475.13
393.71	421.30
393.91	437.68
394.10	400.23
394.29	400.23
394.49	365.12
394.68	428.32
394.88	472.79
395.07	383.85
395.26	418.96
395.46	372.15
395.65	402.57
395.84	404.91
396.04	440.02
396.23	409.59
396.42	334.70
396.62	365.12
396.81	400.23
397.00	416.62
397.19	322.99
397.39	390.87
397.58	334.70
397.77	381.51
397.97	423.64
398.16	301.93
398.35	421.30
398.55	376.83
398.74	334.70
398.93	437.68
399.12	437.68
399.32	454.06
399.51	362.78
399.70	402.57
399.90	360.44
400.09	374.49
400.28	390.87
400.47	428.32
400.67	383.85
400.86	374.49
401.05	430.66
401.24	421.30
401.44	538.32
401.63	409.59
401.82	365.12
402.01	383.85
402.21	388.53
402.40	346.40
402.59	395.55
402.78	433.00
402.97	411.93
403.17	468.11
403.36	404.91
403.55	440.02
403.74	444.70
403.93	294.91
404.13	402.57
404.32	437.68
404.51	454.06
404.70	409.59
404.89	362.78
405.09	425.98
405.28	437.68
405.47	433.00
405.66	456.40
405.85	407.25
406.05	416.62
406.24	409.59
406.43	374.49
406.62	381.51
406.81	475.13
407.00	367.46
407.20	400.23
407.39	475.13
407.58	393.21
407.77	395.55
407.96	400.23
408.15	409.59
408.34	423.64
408.54	397.89
408.73	379.17
408.92	414.27
409.11	376.83
409.30	407.25
409.49	381.51
409.68	433.00
409.87	454.06
410.07	376.83
410.26	374.49
410.45	390.87
410.64	411.93
410.83	351.08
411.02	365.12
411.21	395.55
411.40	447.04
411.59	472.79
411.78	381.51
411.98	327.68
412.17	379.17
412.36	444.70
412.55	351.08
412.74	470.45
412.93	421.30
413.12	395.55
413.31	500.87
413.50	454.06
413.69	407.25
413.88	397.89
414.07	435.34
414.26	435.34
414.45	430.66
414.64	390.87
414.83	400.23
415.02	479.81
415.22	456.40
415.41	404.91
415.60	337.04
415.79	402.57
415.98	411.93
416.17	383.85
416.36	381.51
416.55	400.23
416.74	383.85
416.93	461.09
417.12	447.04
417.31	388.53
417.50	390.87
417.69	454.06
417.88	374.49
418.07	461.09
418.26	369.80
418.45	449.38
418.64	465.77
418.83	334.70
419.02	433.00
419.21	416.62
419.39	395.55
419.58	341.72
419.77	418.96
419.96	390.87
420.15	414.27
420.34	386.19
420.53	376.83
420.72	414.27
420.91	418.96
421.10	390.87
421.29	402.57
421.48	444.70
421.67	369.80
421.86	341.72
422.05	421.30
422.24	461.09
422.43	444.70
422.61	414.27
422.80	390.87
422.99	386.19
423.18	395.55
423.37	379.17
423.56	348.74
423.75	418.96
423.94	393.21
424.13	463.43
424.32	425.98
424.50	416.62
424.69	313.63
424.88	416.62
425.07	463.43
425.26	402.57
425.45	451.72
425.64	433.00
425.83	393.21
426.01	484.49
426.20	425.98
426.39	423.64
426.58	369.80
426.77	360.44
426.96	409.59
427.15	463.43
427.33	348.74
427.52	449.38
427.71	437.68
427.90	397.89
428.09	409.59
428.28	409.59
428.46	386.19
428.65	337.04
428.84	322.99
429.03	465.77
429.22	337.04
429.40	358.10
429.59	402.57
429.78	430.66
429.97	369.80
430.16	404.91
430.34	358.10
430.53	390.87
430.72	409.59
430.91	409.59
431.10	440.02
431.28	407.25
431.47	425.98
431.66	423.64
431.85	486.83
432.03	428.32
432.22	433.00
432.41	381.51
432.60	442.36
432.79	374.49
432.97	372.15
433.16	409.59
433.35	353.42
433.54	386.19
433.72	430.66
433.91	369.80
434.10	414.27
434.28	465.77
434.47	379.17
434.66	383.85
434.85	421.30
435.03	421.30
435.22	442.36
435.41	379.17
435.59	421.30
435.78	433.00
435.97	404.91
436.16	435.34
436.34	358.10
436.53	411.93
436.72	409.59
436.90	409.59
437.09	440.02
437.28	404.91
437.46	369.80
437.65	388.53
437.84	444.70
438.02	470.45
438.21	435.34
438.40	393.21
438.58	325.33
438.77	463.43
438.96	376.83
439.14	397.89
439.33	463.43
439.52	416.62
439.70	369.80
439.89	444.70
440.08	407.25
440.26	358.10
440.45	442.36
440.63	425.98
440.82	416.62
441.01	353.42
441.19	374.49
441.38	330.02
441.57	458.74
441.75	388.53
441.94	463.43
442.12	390.87
442.31	428.32
442.50	383.85
442.68	444.70
442.87	372.15
443.05	379.17
443.24	386.19
443.43	433.00
443.61	358.10
443.80	383.85
443.98	395.55
444.17	428.32
444.35	461.09
444.54	376.83
444.73	395.55
444.91	397.89
445.10	449.38
445.28	414.27
445.47	379.17
445.65	414.27
445.84	496.19
446.02	397.89
446.21	362.78
446.39	369.80
446.58	489.17
446.77	437.68
446.95	348.74
447.14	454.06
447.32	454.06
447.51	430.66
447.69	454.06
447.88	421.30
448.06	465.77
448.25	472.79
448.43	376.83
448.62	360.44
448.80	379.17
448.99	465.77
449.17	421.30
449.36	463.43
449.54	449.38
449.73	400.23
449.91	472.79
450.10	362.78
450.28	447.04
450.46	433.00
450.65	386.19
450.83	416.62
451.02	404.91
451.20	442.36
451.39	353.42
451.57	411.93
451.76	411.93
451.94	416.62
452.13	395.55
452.31	447.04
452.49	395.55
452.68	383.85
452.86	365.12
453.05	390.87
453.23	404.91
453.42	360.44
453.60	376.83
453.78	393.21
453.97	397.89
454.15	365.12
454.34	411.93
454.52	428.32
454.70	409.59
454.89	451.72
455.07	411.93
455.26	400.23
455.44	365.12
455.62	461.09
455.81	358.10
455.99	433.00
456.17	465.77
456.36	402.57
456.54	386.19
456.73	390.87
456.91	379.17
457.09	388.53
457.28	472.79
457.46	372.15
457.64	503.22
457.83	437.68
458.01	374.49
458.19	442.36
458.38	362.78
458.56	421.30
458.74	353.42
458.93	456.40
459.11	374.49
459.29	393.21
459.48	447.04
459.66	337.04
459.84	381.51
460.03	514.92
460.21	472.79
460.39	428.32
460.57	404.91
460.76	425.98
460.94	437.68
461.12	512.58
461.31	440.02
461.49	444.70
461.67	386.19
461.85	376.83
462.04	423.64
462.22	791.10
462.40	461.09
462.59	395.55
462.77	397.89
462.95	465.77
463.13	416.62
463.32	484.49
463.50	444.70
463.68	458.74
463.86	379.17
464.05	421.30
464.23	454.06
464.41	428.32
464.59	393.21
464.78	430.66
464.96	409.59
465.14	395.55
465.32	477.47
465.50	444.70
465.69	479.81
465.87	407.25
466.05	416.62
466.23	367.46
466.41	430.66
466.60	435.34
466.78	348.74
466.96	468.11
467.14	390.87
467.32	404.91
467.51	458.74
467.69	472.79
467.87	454.06
468.05	393.21
468.23	519.60
468.41	395.55
468.60	421.30
468.78	454.06
468.96	435.34
469.14	393.21
469.32	484.49
469.50	428.32
469.69	418.96
469.87	428.32
470.05	418.96
470.23	400.23
470.41	393.21
470.59	400.23
470.77	442.36
470.95	369.80
471.14	470.45
471.32	414.27
471.50	435.34
471.68	360.44
471.86	430.66
472.04	381.51
472.22	451.72
472.40	418.96
472.58	437.68
472.77	484.49
472.95	449.38
473.13	428.32
473.31	402.57
473.49	418.96
473.67	409.59
473.85	393.21
474.03	423.64
474.21	404.91
474.39	451.72
474.57	510.24
474.75	362.78
474.93	367.46
475.12	435.34
475.30	447.04
475.48	440.02
475.66	393.21
475.84	367.46
476.02	418.96
476.20	435.34
476.38	435.34
476.56	414.27
476.74	444.70
476.92	369.80
477.10	395.55
477.28	397.89
477.46	407.25
477.64	442.36
477.82	388.53
478.00	416.62
478.18	528.96
478.36	397.89
478.54	440.02
478.72	393.21
478.90	397.89
479.08	430.66
479.26	414.27
479.44	428.32
479.62	414.27
479.80	369.80
479.98	376.83
480.16	383.85
480.34	479.81
480.52	447.04
480.70	416.62
480.88	414.27
481.06	330.02
481.24	365.12
481.41	418.96
481.59	484.49
481.77	463.43
481.95	454.06
482.13	404.91
482.31	418.96
482.49	435.34
482.67	468.11
482.85	421.30
483.03	404.91
483.21	425.98
483.39	421.30
483.57	388.53
483.74	409.59
483.92	461.09
484.10	444.70
484.28	407.25
484.46	428.32
484.64	374.49
484.82	395.55
485.00	458.74
485.18	325.33
485.35	381.51
485.53	362.78
485.71	379.17
485.89	442.36
486.07	402.57
486.25	430.66
486.43	463.43
486.61	425.98
486.78	409.59
486.96	425.98
487.14	393.21
487.32	390.87
487.50	407.25
487.68	451.72
487.85	442.36
488.03	372.15
488.21	477.47
488.39	463.43
488.57	407.25
488.75	416.62
488.92	531.30
489.10	463.43
489.28	444.70
489.46	435.34
489.64	402.57
489.81	435.34
489.99	458.74
490.17	409.59
490.35	496.19
490.53	369.80
490.70	407.25
490.88	423.64
491.06	433.00
491.24	421.30
491.41	486.83
491.59	397.89
491.77	472.79
491.95	433.00
492.13	402.57
492.30	418.96
492.48	472.79
492.66	428.32
492.84	489.17
493.01	362.78
493.19	470.45
493.37	449.38
493.54	395.55
493.72	379.17
493.90	390.87
494.08	461.09
494.25	425.98
494.43	409.59
494.61	407.25
494.79	440.02
494.96	395.55
495.14	381.51
495.32	411.93
495.49	447.04
495.67	409.59
495.85	486.83
496.02	273.84
496.20	435.34
496.38	386.19
496.55	433.00
496.73	437.68
496.91	393.21
497.09	458.74
497.26	381.51
497.44	376.83
497.62	409.59
497.79	395.55
497.97	397.89
498.14	365.12
498.32	388.53
498.50	386.19
498.67	479.81
498.85	430.66
499.03	449.38
499.20	395.55
499.38	425.98
499.56	454.06
499.73	440.02
499.91	491.51
500.08	451.72
500.26	390.87
500.44	418.96
500.61	386.19
500.79	444.70
500.97	437.68
501.14	458.74
501.32	362.78
501.49	416.62
501.67	418.96
501.84	409.59
502.02	423.64
502.20	386.19
502.37	472.79
502.55	433.00
502.72	461.09
502.90	369.80
503.07	381.51
503.25	367.46
503.43	402.57
503.60	451.72
503.78	341.72
503.95	416.62
504.13	348.74
504.30	400.23
504.48	465.77
504.65	430.66
504.83	404.91
505.01	379.17
505.18	386.19
505.36	407.25
505.53	379.17
505.71	430.66
505.88	376.83
506.06	468.11
506.23	437.68
506.41	376.83
506.58	418.96
506.76	416.62
506.93	383.85
507.11	475.13
507.28	397.89
507.46	409.59
507.63	400.23
507.81	414.27
507.98	334.70
508.16	402.57
508.33	369.80
508.50	390.87
508.68	393.21
508.85	418.96
509.03	416.62
509.20	435.34
509.38	503.22
509.55	418.96
509.73	484.49
509.90	465.77
510.08	447.04
510.25	475.13
510.42	475.13
510.60	433.00
510.77	421.30
510.95	468.11
511.12	484.49
511.30	493.85
511.47	465.77
511.64	451.72
511.82	442.36
511.99	428.32
512.17	400.23
512.34	416.62
512.51	470.45
512.69	332.36
512.86	372.15
513.04	395.55
513.21	414.27
513.38	454.06
513.56	442.36
513.73	423.64
513.90	418.96
514.08	418.96
514.25	463.43
514.43	402.57
514.60	365.12
514.77	440.02
514.95	388.53
515.12	428.32
515.29	482.15
515.47	351.08
515.64	442.36
515.81	402.57
515.99	430.66
516.16	400.23
516.33	440.02
516.51	418.96
516.68	496.19
516.85	402.57
517.03	421.30
517.20	386.19
517.37	416.62
517.54	425.98
517.72	374.49
517.89	360.44
518.06	447.04
518.24	465.77
518.41	465.77
518.58	414.27
518.75	402.57
518.93	383.85
519.10	383.85
519.27	425.98
519.45	388.53
519.62	423.64
519.79	390.87
519.96	351.08
520.14	428.32
520.31	479.81
520.48	365.12
520.65	435.34
520.83	444.70
521.00	458.74
521.17	444.70
521.34	409.59
521.52	447.04
521.69	365.12
521.86	372.15
522.03	341.72
522.20	470.45
522.38	463.43
522.55	482.15
522.72	402.57
522.89	444.70
523.07	456.40
523.24	411.93
523.41	397.89
523.58	444.70
523.75	447.04
523.92	463.43
524.10	416.62
524.27	444.70
524.44	435.34
524.61	489.17
524.78	409.59
524.96	400.23
525.13	454.06
525.30	430.66
525.47	397.89
525.64	383.85
525.81	388.53
525.98	348.74
526.16	414.27
526.33	433.00
526.50	421.30
526.67	430.66
526.84	386.19
527.01	447.04
527.18	376.83
527.36	414.27
527.53	365.12
527.70	461.09
527.87	447.04
528.04	456.40
528.21	390.87
528.38	397.89
528.55	451.72
528.72	484.49
528.89	449.38
529.07	402.57
529.24	423.64
529.41	454.06
529.58	367.46
529.75	433.00
529.92	416.62
530.09	468.11
530.26	465.77
530.43	362.78
530.60	411.93
530.77	451.72
530.94	374.49
531.11	407.25
531.28	411.93
531.46	386.19
531.63	374.49
531.80	414.27
531.97	418.96
532.14	390.87
532.31	477.47
532.48	437.68
532.65	374.49
532.82	339.38
532.99	360.44
533.16	430.66
533.33	411.93
533.50	330.02
533.67	454.06
533.84	468.11
534.01	458.74
534.18	360.44
534.35	421.30
534.52	444.70
534.69	372.15
534.86	428.32
535.03	409.59
535.20	390.87
535.37	479.81
535.54	400.23
535.71	362.78
535.88	416.62
536.05	386.19
536.22	418.96
536.38	376.83
536.55	456.40
536.72	489.17
536.89	451.72
537.06	428.32
537.23	365.12
537.40	440.02
537.57	332.36
537.74	507.90
537.91	393.21
538.08	351.08
538.25	482.15
538.42	346.40
538.59	510.24
538.75	430.66
538.92	463.43
539.09	411.93
539.26	383.85
539.43	435.34
539.60	430.66
539.77	404.91
539.94	388.53
540.11	479.81
540.28	454.06
540.44	486.83
540.61	409.59
540.78	444.70
540.95	358.10
541.12	461.09
541.29	411.93
541.46	491.51
541.62	411.93
541.79	435.34
541.96	418.96
542.13	402.57
542.30	402.57
542.47	423.64
542.63	386.19
542.80	423.64
542.97	496.19
543.14	428.32
543.31	442.36
543.48	463.43
543.64	454.06
543.81	447.04
543.98	430.66
544.15	362.78
544.32	442.36
544.48	465.77
544.65	395.55
544.82	376.83
544.99	379.17
545.16	498.53
545.32	437.68
545.49	503.22
545.66	395.55
545.83	390.87
546.00	400.23
546.16	362.78
546.33	433.00
546.50	463.43
546.67	388.53
546.83	449.38
547.00	407.25
547.17	367.46
547.34	430.66
547.50	411.93
547.67	400.23
547.84	440.02
548.00	475.13
548.17	423.64
548.34	346.40
548.51	437.68
548.67	395.55
548.84	444.70
549.01	365.12
549.18	468.11
549.34	425.98
549.51	442.36
549.68	315.97
549.84	416.62
550.01	402.57
550.18	491.51
550.34	484.49
550.51	437.68
550.68	390.87
550.84	299.59
551.01	458.74
551.18	444.70
551.34	440.02
551.51	388.53
551.68	465.77
551.84	433.00
552.01	418.96
552.18	425.98
552.34	433.00
552.51	397.89
552.68	503.22
552.84	395.55
553.01	451.72
553.18	418.96
553.34	367.46
553.51	374.49
553.67	386.19
553.84	465.77
554.01	433.00
554.17	421.30
554.34	381.51
554.51	442.36
554.67	409.59
554.84	456.40
555.00	498.53
555.17	433.00
555.33	407.25
555.50	451.72
555.67	388.53
555.83	393.21
556.00	444.70
556.16	496.19
556.33	442.36
556.50	489.17
556.66	379.17
556.83	348.74
556.99	386.19
557.16	418.96
557.32	362.78
557.49	423.64
557.65	421.30
557.82	496.19
557.98	416.62
558.15	402.57
558.32	414.27
558.48	353.42
558.65	428.32
558.81	383.85
558.98	376.83
559.14	409.59
559.31	447.04
559.47	407.25
559.64	421.30
559.80	362.78
559.97	393.21
560.13	425.98
560.30	437.68
560.46	430.66
560.63	407.25
560.79	402.57
560.96	414.27
561.12	388.53
561.29	451.72
561.45	430.66
561.61	381.51
561.78	458.74
561.94	433.00
562.11	451.72
562.27	388.53
562.44	428.32
562.60	433.00
562.77	430.66
562.93	470.45
563.10	449.38
563.26	404.91
563.42	393.21
563.59	421.30
563.75	468.11
563.92	442.36
564.08	416.62
564.24	409.59
564.41	496.19
564.57	411.93
564.74	428.32
564.90	428.32
565.07	430.66
565.23	449.38
565.39	407.25
565.56	470.45
565.72	383.85
565.88	376.83
566.05	447.04
566.21	379.17
566.38	421.30
566.54	362.78
566.70	379.17
566.87	381.51
567.03	358.10
567.19	430.66
567.36	444.70
567.52	383.85
567.68	440.02
567.85	465.77
568.01	479.81
568.17	468.11
568.34	428.32
568.50	409.59
568.66	381.51
568.83	507.90
568.99	428.32
569.15	451.72
569.32	479.81
569.48	402.57
569.64	369.80
569.81	472.79
569.97	435.34
570.13	390.87
570.30	454.06
570.46	484.49
570.62	428.32
570.78	414.27
570.95	386.19
571.11	514.92
571.27	444.70
571.43	379.17
571.60	407.25
571.76	362.78
571.92	425.98
572.09	472.79
572.25	388.53
572.41	369.80
572.57	353.42
572.74	465.77
572.90	449.38
573.06	442.36
573.22	414.27
573.38	456.40
573.55	386.19
573.71	507.90
573.87	435.34
574.03	449.38
574.20	409.59
574.36	500.87
574.52	475.13
574.68	461.09
574.84	475.13
575.01	435.34
575.17	463.43
575.33	421.30
575.49	425.98
575.65	397.89
575.82	365.12
575.98	454.06
576.14	500.87
576.30	416.62
576.46	367.46
576.62	456.40
576.79	393.21
576.95	461.09
577.11	409.59
577.27	404.91
577.43	437.68
577.59	465.77
577.75	386.19
577.92	365.12
578.08	433.00
578.24	423.64
578.40	423.64
578.56	414.27
578.72	388.53
578.88	400.23
579.04	435.34
579.21	362.78
579.37	447.04
579.53	458.74
579.69	456.40
579.85	425.98
580.01	454.06
580.17	374.49
580.33	447.04
580.49	402.57
580.65	383.85
580.82	435.34
580.98	409.59
581.14	383.85
581.30	465.77
581.46	425.98
581.62	456.40
581.78	463.43
581.94	447.04
582.10	440.02
582.26	425.98
582.42	437.68
582.58	404.91
582.74	418.96
582.90	444.70
583.06	407.25
583.22	362.78
583.38	423.64
583.54	407.25
583.70	376.83
583.86	341.72
584.02	404.91
584.18	421.30
584.34	390.87
584.50	484.49
584.66	433.00
584.82	397.89
584.98	393.21
585.14	425.98
585.30	468.11
585.46	421.30
585.62	409.59
585.78	421.30
585.94	418.96
586.10	397.89
586.26	435.34
586.42	477.47
586.58	376.83
586.74	360.44
586.90	425.98
587.06	423.64
587.22	479.81
587.38	381.51
587.54	486.83
587.70	526.62
587.86	425.98
588.02	411.93
588.18	390.87
588.34	418.96
588.49	451.72
588.65	404.91
588.81	440.02
588.97	416.62
589.13	507.90
589.29	433.00
589.45	397.89
589.61	353.42
589.77	425.98
589.93	430.66
590.08	362.78
590.24	369.80
590.40	402.57
590.56	505.56
590.72	409.59
590.88	465.77
591.04	437.68
591.20	437.68
591.35	437.68
591.51	351.08
591.67	397.89
591.83	498.53
591.99	472.79
592.15	400.23
592.31	442.36
592.46	498.53
592.62	458.74
592.78	491.51
592.94	430.66
593.10	397.89
593.26	374.49
593.41	388.53
593.57	376.83
593.73	435.34
593.89	435.34
594.05	421.30
594.20	425.98
594.36	414.27
594.52	397.89
594.68	423.64
594.84	386.19
594.99	404.91
595.15	435.34
595.31	433.00
595.47	479.81
595.62	407.25
595.78	489.17
595.94	353.42
596.10	433.00
596.25	407.25
596.41	486.83
596.57	421.30
596.73	407.25
596.88	475.13
597.04	367.46
597.20	390.87
597.36	454.06
597.51	353.42
597.67	409.59
597.83	369.80
597.99	428.32
598.14	465.77
598.30	367.46
598.46	376.83
598.61	388.53
598.77	447.04
598.93	400.23
599.09	358.10
599.24	461.09
599.40	449.38
599.56	416.62
599.71	461.09
599.87	390.87
600.03	461.09
600.18	386.19
600.34	458.74
600.50	374.49
600.65	423.64
600.81	449.38
600.97	390.87
601.12	489.17
601.28	463.43
601.44	437.68
601.59	423.64
601.75	444.70
601.91	437.68
602.06	322.99
602.22	463.43
602.37	421.30
602.53	404.91
602.69	484.49
602.84	374.49
603.00	369.80
603.16	416.62
603.31	390.87
603.47	423.64
603.62	388.53
603.78	418.96
603.94	484.49
604.09	400.23
604.25	468.11
604.40	444.70
604.56	454.06
604.71	374.49
604.87	421.30
605.03	379.17
605.18	500.87
605.34	510.24
605.49	458.74
605.65	433.00
605.80	414.27
605.96	456.40
606.12	493.85
606.27	402.57
606.43	447.04
606.58	442.36
606.74	421.30
606.89	372.15
607.05	454.06
607.20	379.17
607.36	440.02
607.51	397.89
607.67	428.32
607.82	367.46
607.98	496.19
608.13	477.47
608.29	409.59
608.44	365.12
608.60	468.11
608.75	498.53
608.91	362.78
609.06	477.47
609.22	411.93
609.37	475.13
609.53	421.30
609.68	451.72
609.84	416.62
609.99	358.10
610.15	430.66
