SpectraSuite Data File
++++++++++++++++++++++++++++++++++++
Date: Fri Oct 25 12:11:23 EDT 2013
User: price-jones
Dark Spectrum Present: No
Reference Spectrum Present: No
Number of Sampled Component Spectra: 1
Spectrometers: USB2+H05261
Integration Time (usec): 100000 (USB2+H05261)
Spectra Averaged: 1 (USB2+H05261)
Boxcar Smoothing: 0 (USB2+H05261)
Correct for Electrical Dark: No (USB2+H05261)
Strobe/Lamp Enabled: No (USB2+H05261)
Correct for Detector Non-linearity: No (USB2+H05261)
Correct for Stray Light: No (USB2+H05261)
Number of Pixels in Processed Spectrum: 2048
>>>>>Begin Processed Spectral Data<<<<<
365.73	325.33
365.92	325.33
366.12	325.33
366.32	276.18
366.52	201.29
366.72	262.14
366.91	229.37
367.11	264.48
367.31	196.60
367.51	159.16
367.70	231.71
367.90	301.93
368.10	280.86
368.30	234.05
368.49	161.50
368.69	234.05
368.89	294.91
369.09	217.67
369.28	280.86
369.48	210.65
369.68	234.05
369.87	248.10
370.07	301.93
370.27	306.61
370.47	245.76
370.66	360.44
370.86	416.62
371.06	355.76
371.25	451.72
371.45	330.02
371.65	381.51
371.84	327.68
372.04	430.66
372.24	337.04
372.44	353.42
372.63	376.83
372.83	468.11
373.03	463.43
373.22	442.36
373.42	397.89
373.62	418.96
373.81	433.00
374.01	456.40
374.21	437.68
374.40	402.57
374.60	489.17
374.79	423.64
374.99	418.96
375.19	477.47
375.38	404.91
375.58	484.49
375.78	433.00
375.97	390.87
376.17	472.79
376.37	353.42
376.56	395.55
376.76	388.53
376.95	428.32
377.15	451.72
377.35	456.40
377.54	379.17
377.74	390.87
377.93	362.78
378.13	402.57
378.33	411.93
378.52	416.62
378.72	507.90
378.91	442.36
379.11	376.83
379.31	397.89
379.50	428.32
379.70	376.83
379.89	369.80
380.09	400.23
380.28	374.49
380.48	367.46
380.68	388.53
380.87	423.64
381.07	418.96
381.26	425.98
381.46	365.12
381.65	376.83
381.85	402.57
382.04	442.36
382.24	444.70
382.43	409.59
382.63	367.46
382.83	444.70
383.02	416.62
383.22	468.11
383.41	430.66
383.61	421.30
383.80	379.17
384.00	383.85
384.19	369.80
384.39	362.78
384.58	409.59
384.78	411.93
384.97	440.02
385.17	407.25
385.36	496.19
385.56	486.83
385.75	348.74
385.95	360.44
386.14	470.45
386.34	463.43
386.53	383.85
386.72	360.44
386.92	447.04
387.11	437.68
387.31	482.15
387.50	458.74
387.70	456.40
387.89	381.51
388.09	365.12
388.28	369.80
388.48	339.38
388.67	430.66
388.86	414.27
389.06	423.64
389.25	395.55
389.45	383.85
389.64	388.53
389.84	463.43
390.03	454.06
390.22	395.55
390.42	416.62
390.61	411.93
390.81	435.34
391.00	435.34
391.19	381.51
391.39	383.85
391.58	440.02
391.78	440.02
391.97	297.25
392.16	372.15
392.36	430.66
392.55	465.77
392.75	386.19
392.94	423.64
393.13	390.87
393.33	355.76
393.52	351.08
393.71	423.64
393.91	402.57
394.10	425.98
394.29	327.68
394.49	435.34
394.68	447.04
394.88	358.10
395.07	463.43
395.26	311.29
395.46	334.70
395.65	423.64
395.84	393.21
396.04	440.02
396.23	369.80
396.42	346.40
396.62	390.87
396.81	423.64
397.00	386.19
397.19	430.66
397.39	395.55
397.58	416.62
397.77	390.87
397.97	423.64
398.16	402.57
398.35	472.79
398.55	418.96
398.74	369.80
398.93	388.53
399.12	416.62
399.32	381.51
399.51	379.17
399.70	444.70
399.90	397.89
400.09	376.83
400.28	461.09
400.47	461.09
400.67	440.02
400.86	416.62
401.05	414.27
401.24	404.91
401.44	395.55
401.63	425.98
401.82	454.06
402.01	440.02
402.21	407.25
402.40	440.02
402.59	404.91
402.78	400.23
402.97	404.91
403.17	402.57
403.36	437.68
403.55	390.87
403.74	369.80
403.93	421.30
404.13	482.15
404.32	435.34
404.51	341.72
404.70	496.19
404.89	437.68
405.09	451.72
405.28	404.91
405.47	414.27
405.66	423.64
405.85	337.04
406.05	365.12
406.24	383.85
406.43	395.55
406.62	440.02
406.81	393.21
407.00	379.17
407.20	393.21
407.39	402.57
407.58	393.21
407.77	505.56
407.96	444.70
408.15	444.70
408.34	390.87
408.54	447.04
408.73	435.34
408.92	428.32
409.11	400.23
409.30	369.80
409.49	351.08
409.68	503.22
409.87	447.04
410.07	379.17
410.26	353.42
410.45	416.62
410.64	351.08
410.83	372.15
411.02	421.30
411.21	435.34
411.40	341.72
411.59	414.27
411.78	397.89
411.98	442.36
412.17	411.93
412.36	393.21
412.55	358.10
412.74	437.68
412.93	470.45
413.12	444.70
413.31	407.25
413.50	423.64
413.69	468.11
413.88	411.93
414.07	404.91
414.26	465.77
414.45	416.62
414.64	433.00
414.83	470.45
415.02	390.87
415.22	421.30
415.41	397.89
415.60	486.83
415.79	365.12
415.98	451.72
416.17	402.57
416.36	433.00
416.55	463.43
416.74	414.27
416.93	430.66
417.12	491.51
417.31	463.43
417.50	418.96
417.69	367.46
417.88	407.25
418.07	433.00
418.26	365.12
418.45	433.00
418.64	440.02
418.83	379.17
419.02	367.46
419.21	348.74
419.39	418.96
419.58	404.91
419.77	421.30
419.96	430.66
420.15	372.15
420.34	397.89
420.53	435.34
420.72	418.96
420.91	360.44
421.10	346.40
421.29	388.53
421.48	451.72
421.67	421.30
421.86	339.38
422.05	379.17
422.24	433.00
422.43	411.93
422.61	444.70
422.80	362.78
422.99	383.85
423.18	421.30
423.37	423.64
423.56	498.53
423.75	437.68
423.94	402.57
424.13	411.93
424.32	360.44
424.50	428.32
424.69	379.17
424.88	425.98
425.07	346.40
425.26	411.93
425.45	470.45
425.64	435.34
425.83	386.19
426.01	425.98
426.20	435.34
426.39	416.62
426.58	458.74
426.77	381.51
426.96	454.06
427.15	430.66
427.33	367.46
427.52	402.57
427.71	397.89
427.90	388.53
428.09	327.68
428.28	383.85
428.46	407.25
428.65	440.02
428.84	369.80
429.03	407.25
429.22	351.08
429.40	353.42
429.59	369.80
429.78	381.51
429.97	414.27
430.16	367.46
430.34	400.23
430.53	428.32
430.72	458.74
430.91	411.93
431.10	437.68
431.28	456.40
431.47	425.98
431.66	407.25
431.85	407.25
432.03	442.36
432.22	489.17
432.41	397.89
432.60	430.66
432.79	383.85
432.97	437.68
433.16	416.62
433.35	402.57
433.54	449.38
433.72	442.36
433.91	423.64
434.10	470.45
434.28	463.43
434.47	386.19
434.66	503.22
434.85	383.85
435.03	444.70
435.22	454.06
435.41	425.98
435.59	489.17
435.78	411.93
435.97	402.57
436.16	468.11
436.34	521.94
436.53	372.15
436.72	442.36
436.90	433.00
437.09	456.40
437.28	393.21
437.46	437.68
437.65	414.27
437.84	407.25
438.02	418.96
438.21	414.27
438.40	407.25
438.58	409.59
438.77	397.89
438.96	435.34
439.14	526.62
439.33	451.72
439.52	416.62
439.70	346.40
439.89	503.22
440.08	465.77
440.26	425.98
440.45	505.56
440.63	402.57
440.82	414.27
441.01	388.53
441.19	411.93
441.38	386.19
441.57	444.70
441.75	475.13
441.94	444.70
442.12	416.62
442.31	435.34
442.50	402.57
442.68	400.23
442.87	360.44
443.05	400.23
443.24	372.15
443.43	470.45
443.61	435.34
443.80	395.55
443.98	374.49
444.17	407.25
444.35	397.89
444.54	414.27
444.73	374.49
444.91	437.68
445.10	407.25
445.28	395.55
445.47	407.25
445.65	447.04
445.84	369.80
446.02	409.59
446.21	411.93
446.39	400.23
446.58	346.40
446.77	430.66
446.95	379.17
447.14	388.53
447.32	437.68
447.51	395.55
447.69	367.46
447.88	386.19
448.06	397.89
448.25	463.43
448.43	411.93
448.62	437.68
448.80	390.87
448.99	360.44
449.17	442.36
449.36	456.40
449.54	449.38
449.73	404.91
449.91	379.17
450.10	369.80
450.28	489.17
450.46	496.19
450.65	454.06
450.83	388.53
451.02	390.87
451.20	355.76
451.39	449.38
451.57	451.72
451.76	390.87
451.94	407.25
452.13	461.09
452.31	390.87
452.49	505.56
452.68	409.59
452.86	428.32
453.05	444.70
453.23	475.13
453.42	367.46
453.60	402.57
453.78	463.43
453.97	390.87
454.15	458.74
454.34	421.30
454.52	402.57
454.70	465.77
454.89	433.00
455.07	418.96
455.26	440.02
455.44	456.40
455.62	383.85
455.81	404.91
455.99	444.70
456.17	353.42
456.36	362.78
456.54	435.34
456.73	332.36
456.91	421.30
457.09	442.36
457.28	454.06
457.46	414.27
457.64	496.19
457.83	383.85
458.01	372.15
458.19	454.06
458.38	428.32
458.56	414.27
458.74	463.43
458.93	479.81
459.11	456.40
459.29	404.91
459.48	355.76
459.66	475.13
459.84	395.55
460.03	482.15
460.21	428.32
460.39	409.59
460.57	435.34
460.76	430.66
460.94	461.09
461.12	411.93
461.31	526.62
461.49	381.51
461.67	383.85
461.85	418.96
462.04	355.76
462.22	795.78
462.40	416.62
462.59	416.62
462.77	433.00
462.95	395.55
463.13	351.08
463.32	444.70
463.50	421.30
463.68	409.59
463.86	376.83
464.05	442.36
464.23	425.98
464.41	442.36
464.59	433.00
464.78	484.49
464.96	383.85
465.14	435.34
465.32	411.93
465.50	369.80
465.69	477.47
465.87	449.38
466.05	374.49
466.23	402.57
466.41	341.72
466.60	447.04
466.78	458.74
466.96	404.91
467.14	444.70
467.32	456.40
467.51	395.55
467.69	409.59
467.87	421.30
468.05	409.59
468.23	512.58
468.41	437.68
468.60	421.30
468.78	416.62
468.96	444.70
469.14	428.32
469.32	365.12
469.50	360.44
469.69	428.32
469.87	362.78
470.05	327.68
470.23	444.70
470.41	451.72
470.59	390.87
470.77	411.93
470.95	442.36
471.14	372.15
471.32	388.53
471.50	355.76
471.68	411.93
471.86	390.87
472.04	358.10
472.22	449.38
472.40	423.64
472.58	423.64
472.77	465.77
472.95	444.70
473.13	496.19
473.31	468.11
473.49	421.30
473.67	407.25
473.85	463.43
474.03	437.68
474.21	472.79
474.39	498.53
474.57	416.62
474.75	425.98
474.93	339.38
475.12	348.74
475.30	414.27
475.48	416.62
475.66	402.57
475.84	390.87
476.02	381.51
476.20	437.68
476.38	402.57
476.56	409.59
476.74	458.74
476.92	423.64
477.10	421.30
477.28	430.66
477.46	437.68
477.64	444.70
477.82	435.34
478.00	430.66
478.18	421.30
478.36	346.40
478.54	423.64
478.72	491.51
478.90	430.66
479.08	440.02
479.26	411.93
479.44	372.15
479.62	437.68
479.80	334.70
479.98	355.76
480.16	404.91
480.34	344.06
480.52	402.57
480.70	477.47
480.88	465.77
481.06	367.46
481.24	409.59
481.41	425.98
481.59	458.74
481.77	458.74
481.95	463.43
482.13	409.59
482.31	365.12
482.49	390.87
482.67	465.77
482.85	440.02
483.03	437.68
483.21	402.57
483.39	395.55
483.57	477.47
483.74	425.98
483.92	433.00
484.10	435.34
484.28	379.17
484.46	451.72
484.64	374.49
484.82	447.04
485.00	411.93
485.18	416.62
485.35	425.98
485.53	404.91
485.71	540.66
485.89	444.70
486.07	386.19
486.25	477.47
486.43	397.89
486.61	388.53
486.78	425.98
486.96	360.44
487.14	449.38
487.32	416.62
487.50	386.19
487.68	442.36
487.85	386.19
488.03	393.21
488.21	489.17
488.39	390.87
488.57	447.04
488.75	421.30
488.92	440.02
489.10	479.81
489.28	433.00
489.46	376.83
489.64	409.59
489.81	386.19
489.99	447.04
490.17	423.64
490.35	381.51
490.53	416.62
490.70	449.38
490.88	456.40
491.06	400.23
491.24	458.74
491.41	416.62
491.59	442.36
491.77	451.72
491.95	409.59
492.13	388.53
492.30	397.89
492.48	472.79
492.66	430.66
492.84	337.04
493.01	456.40
493.19	458.74
493.37	456.40
493.54	404.91
493.72	442.36
493.90	416.62
494.08	416.62
494.25	449.38
494.43	418.96
494.61	456.40
494.79	386.19
494.96	386.19
495.14	395.55
495.32	418.96
495.49	390.87
495.67	367.46
495.85	358.10
496.02	409.59
496.20	411.93
496.38	475.13
496.55	465.77
496.73	360.44
496.91	372.15
497.09	397.89
497.26	381.51
497.44	437.68
497.62	440.02
497.79	428.32
497.97	479.81
498.14	477.47
498.32	395.55
498.50	386.19
498.67	400.23
498.85	376.83
499.03	421.30
499.20	404.91
499.38	404.91
499.56	421.30
499.73	418.96
499.91	449.38
500.08	393.21
500.26	416.62
500.44	475.13
500.61	484.49
500.79	421.30
500.97	430.66
501.14	447.04
501.32	355.76
501.49	402.57
501.67	470.45
501.84	409.59
502.02	407.25
502.20	470.45
502.37	433.00
502.55	454.06
502.72	430.66
502.90	386.19
503.07	404.91
503.25	425.98
503.43	409.59
503.60	411.93
503.78	402.57
503.95	379.17
504.13	430.66
504.30	411.93
504.48	374.49
504.65	423.64
504.83	470.45
505.01	393.21
505.18	376.83
505.36	400.23
505.53	411.93
505.71	367.46
505.88	456.40
506.06	388.53
506.23	440.02
506.41	397.89
506.58	355.76
506.76	344.06
506.93	407.25
507.11	416.62
507.28	348.74
507.46	428.32
507.63	421.30
507.81	416.62
507.98	428.32
508.16	367.46
508.33	423.64
508.50	416.62
508.68	454.06
508.85	376.83
509.03	402.57
509.20	425.98
509.38	479.81
509.55	397.89
509.73	472.79
509.90	442.36
510.08	369.80
510.25	505.56
510.42	346.40
510.60	414.27
510.77	451.72
510.95	475.13
511.12	362.78
511.30	425.98
511.47	301.93
511.64	517.26
511.82	367.46
511.99	400.23
512.17	362.78
512.34	477.47
512.51	458.74
512.69	458.74
512.86	395.55
513.04	379.17
513.21	395.55
513.38	400.23
513.56	482.15
513.73	383.85
513.90	337.04
514.08	358.10
514.25	477.47
514.43	409.59
514.60	425.98
514.77	402.57
514.95	440.02
515.12	447.04
515.29	409.59
515.47	449.38
515.64	449.38
515.81	386.19
515.99	318.31
516.16	433.00
516.33	463.43
516.51	449.38
516.68	447.04
516.85	388.53
517.03	425.98
517.20	437.68
517.37	411.93
517.54	416.62
517.72	409.59
517.89	409.59
518.06	423.64
518.24	472.79
518.41	486.83
518.58	428.32
518.75	400.23
518.93	463.43
519.10	470.45
519.27	407.25
519.45	365.12
519.62	372.15
519.79	444.70
519.96	388.53
520.14	416.62
520.31	440.02
520.48	428.32
520.65	425.98
520.83	440.02
521.00	367.46
521.17	395.55
521.34	402.57
521.52	477.47
521.69	454.06
521.86	379.17
522.03	416.62
522.20	449.38
522.38	386.19
522.55	381.51
522.72	440.02
522.89	416.62
523.07	479.81
523.24	390.87
523.41	362.78
523.58	393.21
523.75	402.57
523.92	397.89
524.10	418.96
524.27	388.53
524.44	379.17
524.61	414.27
524.78	423.64
524.96	381.51
525.13	437.68
525.30	458.74
525.47	407.25
525.64	355.76
525.81	390.87
525.98	390.87
526.16	440.02
526.33	388.53
526.50	395.55
526.67	454.06
526.84	437.68
527.01	435.34
527.18	421.30
527.36	440.02
527.53	416.62
527.70	421.30
527.87	390.87
528.04	463.43
528.21	486.83
528.38	362.78
528.55	454.06
528.72	451.72
528.89	493.85
529.07	498.53
529.24	425.98
529.41	433.00
529.58	489.17
529.75	409.59
529.92	372.15
530.09	482.15
530.26	454.06
530.43	425.98
530.60	447.04
530.77	416.62
530.94	454.06
531.11	430.66
531.28	390.87
531.46	395.55
531.63	416.62
531.80	402.57
531.97	411.93
532.14	376.83
532.31	418.96
532.48	395.55
532.65	442.36
532.82	379.17
532.99	386.19
533.16	440.02
533.33	416.62
533.50	498.53
533.67	421.30
533.84	404.91
534.01	463.43
534.18	472.79
534.35	465.77
534.52	365.12
534.69	393.21
534.86	472.79
535.03	388.53
535.20	449.38
535.37	430.66
535.54	421.30
535.71	463.43
535.88	454.06
536.05	416.62
536.22	386.19
536.38	397.89
536.55	423.64
536.72	458.74
536.89	355.76
537.06	437.68
537.23	449.38
537.40	397.89
537.57	397.89
537.74	444.70
537.91	454.06
538.08	421.30
538.25	461.09
538.42	402.57
538.59	379.17
538.75	458.74
538.92	458.74
539.09	437.68
539.26	404.91
539.43	425.98
539.60	421.30
539.77	423.64
539.94	376.83
540.11	428.32
540.28	402.57
540.44	514.92
540.61	425.98
540.78	421.30
540.95	442.36
541.12	444.70
541.29	414.27
541.46	421.30
541.62	395.55
541.79	411.93
541.96	447.04
542.13	421.30
542.30	365.12
542.47	404.91
542.63	414.27
542.80	379.17
542.97	468.11
543.14	358.10
543.31	442.36
543.48	409.59
543.64	365.12
543.81	416.62
543.98	407.25
544.15	433.00
544.32	402.57
544.48	402.57
544.65	428.32
544.82	416.62
544.99	428.32
545.16	376.83
545.32	383.85
545.49	374.49
545.66	444.70
545.83	381.51
546.00	395.55
546.16	472.79
546.33	510.24
546.50	435.34
546.67	538.32
546.83	388.53
547.00	414.27
547.17	355.76
547.34	433.00
547.50	423.64
547.67	360.44
547.84	372.15
548.00	433.00
548.17	379.17
548.34	421.30
548.51	407.25
548.67	435.34
548.84	379.17
549.01	379.17
549.18	414.27
549.34	386.19
549.51	456.40
549.68	393.21
549.84	444.70
550.01	428.32
550.18	475.13
550.34	442.36
550.51	440.02
550.68	433.00
550.84	367.46
551.01	416.62
551.18	447.04
551.34	458.74
551.51	451.72
551.68	404.91
551.84	465.77
552.01	458.74
552.18	425.98
552.34	379.17
552.51	358.10
552.68	425.98
552.84	416.62
553.01	348.74
553.18	390.87
553.34	430.66
553.51	409.59
553.67	379.17
553.84	425.98
554.01	428.32
554.17	468.11
554.34	416.62
554.51	468.11
554.67	535.98
554.84	416.62
555.00	447.04
555.17	362.78
555.33	381.51
555.50	402.57
555.67	374.49
555.83	358.10
556.00	379.17
556.16	603.86
556.33	447.04
556.50	390.87
556.66	390.87
556.83	414.27
556.99	528.96
557.16	416.62
557.32	451.72
557.49	402.57
557.65	444.70
557.82	383.85
557.98	433.00
558.15	468.11
558.32	376.83
558.48	449.38
558.65	456.40
558.81	390.87
558.98	423.64
559.14	407.25
559.31	409.59
559.47	479.81
559.64	397.89
559.80	430.66
559.97	332.36
560.13	353.42
560.30	376.83
560.46	416.62
560.63	496.19
560.79	383.85
560.96	386.19
561.12	477.47
561.29	425.98
561.45	440.02
561.61	491.51
561.78	500.87
561.94	402.57
562.11	341.72
562.27	374.49
562.44	397.89
562.60	451.72
562.77	418.96
562.93	437.68
563.10	388.53
563.26	341.72
563.42	430.66
563.59	456.40
563.75	437.68
563.92	411.93
564.08	423.64
564.24	475.13
564.41	451.72
564.57	360.44
564.74	458.74
564.90	395.55
565.07	470.45
565.23	440.02
565.39	470.45
565.56	433.00
565.72	365.12
565.88	388.53
566.05	444.70
566.21	351.08
566.38	369.80
566.54	383.85
566.70	381.51
566.87	423.64
567.03	433.00
567.19	393.21
567.36	430.66
567.52	337.04
567.68	379.17
567.85	418.96
568.01	423.64
568.17	440.02
568.34	451.72
568.50	444.70
568.66	400.23
568.83	468.11
568.99	425.98
569.15	503.22
569.32	381.51
569.48	442.36
569.64	381.51
569.81	407.25
569.97	397.89
570.13	423.64
570.30	440.02
570.46	507.90
570.62	393.21
570.78	358.10
570.95	388.53
571.11	428.32
571.27	421.30
571.43	468.11
571.60	414.27
571.76	397.89
571.92	386.19
572.09	327.68
572.25	458.74
572.41	447.04
572.57	367.46
572.74	444.70
572.90	470.45
573.06	414.27
573.22	444.70
573.38	451.72
573.55	449.38
573.71	421.30
573.87	449.38
574.03	421.30
574.20	360.44
574.36	376.83
574.52	461.09
574.68	468.11
574.84	409.59
575.01	470.45
575.17	482.15
575.33	418.96
575.49	421.30
575.65	437.68
575.82	379.17
575.98	397.89
576.14	379.17
576.30	423.64
576.46	461.09
576.62	465.77
576.79	411.93
576.95	376.83
577.11	386.19
577.27	402.57
577.43	479.81
577.59	409.59
577.75	465.77
577.92	423.64
578.08	454.06
578.24	407.25
578.40	411.93
578.56	451.72
578.72	498.53
578.88	447.04
579.04	442.36
579.21	407.25
579.37	468.11
579.53	456.40
579.69	435.34
579.85	437.68
580.01	430.66
580.17	374.49
580.33	461.09
580.49	428.32
580.65	404.91
580.82	449.38
580.98	461.09
581.14	418.96
581.30	416.62
581.46	409.59
581.62	451.72
581.78	428.32
581.94	484.49
582.10	409.59
582.26	447.04
582.42	447.04
582.58	409.59
582.74	409.59
582.90	411.93
583.06	395.55
583.22	425.98
583.38	447.04
583.54	381.51
583.70	411.93
583.86	367.46
584.02	425.98
584.18	440.02
584.34	428.32
584.50	423.64
584.66	449.38
584.82	402.57
584.98	433.00
585.14	428.32
585.30	423.64
585.46	423.64
585.62	386.19
585.78	409.59
585.94	390.87
586.10	425.98
586.26	362.78
586.42	430.66
586.58	395.55
586.74	358.10
586.90	386.19
587.06	407.25
587.22	444.70
587.38	416.62
587.54	372.15
587.70	517.26
587.86	461.09
588.02	346.40
588.18	393.21
588.34	407.25
588.49	423.64
588.65	414.27
588.81	433.00
588.97	435.34
589.13	458.74
589.29	435.34
589.45	477.47
589.61	416.62
589.77	475.13
589.93	451.72
590.08	421.30
590.24	411.93
590.40	447.04
590.56	458.74
590.72	397.89
590.88	407.25
591.04	435.34
591.20	479.81
591.35	400.23
591.51	379.17
591.67	395.55
591.83	388.53
591.99	428.32
592.15	442.36
592.31	390.87
592.46	414.27
592.62	470.45
592.78	393.21
592.94	433.00
593.10	440.02
593.26	395.55
593.41	409.59
593.57	440.02
593.73	395.55
593.89	425.98
594.05	369.80
594.20	346.40
594.36	416.62
594.52	442.36
594.68	421.30
594.84	444.70
594.99	428.32
595.15	320.65
595.31	430.66
595.47	447.04
595.62	374.49
595.78	351.08
595.94	407.25
596.10	400.23
596.25	440.02
596.41	383.85
596.57	416.62
596.73	411.93
596.88	433.00
597.04	402.57
597.20	444.70
597.36	395.55
597.51	409.59
597.67	411.93
597.83	376.83
597.99	447.04
598.14	379.17
598.30	404.91
598.46	383.85
598.61	486.83
598.77	449.38
598.93	451.72
599.09	454.06
599.24	437.68
599.40	468.11
599.56	430.66
599.71	461.09
599.87	397.89
600.03	442.36
600.18	449.38
600.34	376.83
600.50	437.68
600.65	360.44
600.81	367.46
600.97	351.08
601.12	447.04
601.28	463.43
601.44	444.70
601.59	454.06
601.75	430.66
601.91	390.87
602.06	395.55
602.22	475.13
602.37	451.72
602.53	428.32
602.69	362.78
602.84	376.83
603.00	458.74
603.16	482.15
603.31	379.17
603.47	510.24
603.62	472.79
603.78	407.25
603.94	440.02
604.09	461.09
604.25	491.51
604.40	468.11
604.56	444.70
604.71	433.00
604.87	430.66
605.03	451.72
605.18	411.93
605.34	510.24
605.49	458.74
605.65	400.23
605.80	435.34
605.96	411.93
606.12	491.51
606.27	547.69
606.43	489.17
606.58	411.93
606.74	496.19
606.89	444.70
607.05	458.74
607.20	376.83
607.36	503.22
607.51	423.64
607.67	418.96
607.82	411.93
607.98	433.00
608.13	386.19
608.29	430.66
608.44	526.62
608.60	447.04
608.75	456.40
608.91	402.57
609.06	458.74
609.22	402.57
609.37	390.87
609.53	433.00
609.68	423.64
609.84	320.65
609.99	358.10
610.15	402.57
