SpectraSuite Data File
++++++++++++++++++++++++++++++++++++
Date: Fri Oct 25 12:10:10 EDT 2013
User: price-jones
Dark Spectrum Present: No
Reference Spectrum Present: No
Number of Sampled Component Spectra: 1
Spectrometers: USB2+H05261
Integration Time (usec): 100000 (USB2+H05261)
Spectra Averaged: 1 (USB2+H05261)
Boxcar Smoothing: 0 (USB2+H05261)
Correct for Electrical Dark: No (USB2+H05261)
Strobe/Lamp Enabled: No (USB2+H05261)
Correct for Detector Non-linearity: No (USB2+H05261)
Correct for Stray Light: No (USB2+H05261)
Number of Pixels in Processed Spectrum: 2048
>>>>>Begin Processed Spectral Data<<<<<
365.73	367.46
365.92	367.46
366.12	367.46
366.32	287.89
366.52	187.24
366.72	285.55
366.91	259.80
367.11	290.23
367.31	229.37
367.51	234.05
367.70	273.84
367.90	351.08
368.10	238.73
368.30	262.14
368.49	187.24
368.69	283.20
368.89	285.55
369.09	229.37
369.28	222.35
369.48	266.82
369.68	315.97
369.87	273.84
370.07	337.04
370.27	379.17
370.47	337.04
370.66	337.04
370.86	365.12
371.06	339.38
371.25	395.55
371.45	362.78
371.65	334.70
371.84	332.36
372.04	334.70
372.24	348.74
372.44	311.29
372.63	437.68
372.83	409.59
373.03	360.44
373.22	367.46
373.42	404.91
373.62	397.89
373.81	423.64
374.01	470.45
374.21	400.23
374.40	390.87
374.60	447.04
374.79	472.79
374.99	454.06
375.19	449.38
375.38	425.98
375.58	416.62
375.78	416.62
375.97	395.55
376.17	421.30
376.37	421.30
376.56	437.68
376.76	404.91
376.95	304.27
377.15	416.62
377.35	411.93
377.54	447.04
377.74	390.87
377.93	390.87
378.13	482.15
378.33	472.79
378.52	339.38
378.72	421.30
378.91	414.27
379.11	411.93
379.31	470.45
379.50	376.83
379.70	404.91
379.89	374.49
380.09	416.62
380.28	383.85
380.48	512.58
380.68	353.42
380.87	306.61
381.07	407.25
381.26	435.34
381.46	411.93
381.65	386.19
381.85	353.42
382.04	374.49
382.24	397.89
382.43	400.23
382.63	400.23
382.83	388.53
383.02	404.91
383.22	442.36
383.41	418.96
383.61	458.74
383.80	416.62
384.00	381.51
384.19	414.27
384.39	379.17
384.58	451.72
384.78	430.66
384.97	365.12
385.17	414.27
385.36	351.08
385.56	425.98
385.75	451.72
385.95	454.06
386.14	470.45
386.34	411.93
386.53	463.43
386.72	367.46
386.92	491.51
387.11	402.57
387.31	407.25
387.50	362.78
387.70	351.08
387.89	407.25
388.09	475.13
388.28	397.89
388.48	351.08
388.67	393.21
388.86	461.09
389.06	433.00
389.25	475.13
389.45	479.81
389.64	416.62
389.84	372.15
390.03	395.55
390.22	388.53
390.42	353.42
390.61	421.30
390.81	397.89
391.00	355.76
391.19	475.13
391.39	381.51
391.58	428.32
391.78	369.80
391.97	372.15
392.16	402.57
392.36	425.98
392.55	416.62
392.75	503.22
392.94	416.62
393.13	367.46
393.33	386.19
393.52	411.93
393.71	444.70
393.91	402.57
394.10	428.32
394.29	397.89
394.49	334.70
394.68	435.34
394.88	374.49
395.07	425.98
395.26	355.76
395.46	414.27
395.65	397.89
395.84	409.59
396.04	489.17
396.23	390.87
396.42	444.70
396.62	496.19
396.81	444.70
397.00	421.30
397.19	393.21
397.39	433.00
397.58	421.30
397.77	433.00
397.97	383.85
398.16	440.02
398.35	437.68
398.55	411.93
398.74	472.79
398.93	421.30
399.12	400.23
399.32	358.10
399.51	365.12
399.70	400.23
399.90	393.21
400.09	407.25
400.28	344.06
400.47	437.68
400.67	353.42
400.86	379.17
401.05	369.80
401.24	423.64
401.44	425.98
401.63	409.59
401.82	360.44
402.01	407.25
402.21	383.85
402.40	463.43
402.59	423.64
402.78	344.06
402.97	374.49
403.17	442.36
403.36	449.38
403.55	442.36
403.74	397.89
403.93	414.27
404.13	463.43
404.32	383.85
404.51	409.59
404.70	458.74
404.89	404.91
405.09	425.98
405.28	418.96
405.47	381.51
405.66	433.00
405.85	409.59
406.05	423.64
406.24	390.87
406.43	395.55
406.62	404.91
406.81	498.53
407.00	442.36
407.20	416.62
407.39	393.21
407.58	430.66
407.77	383.85
407.96	477.47
408.15	435.34
408.34	334.70
408.54	404.91
408.73	442.36
408.92	411.93
409.11	374.49
409.30	376.83
409.49	374.49
409.68	369.80
409.87	407.25
410.07	379.17
410.26	407.25
410.45	369.80
410.64	418.96
410.83	463.43
411.02	418.96
411.21	433.00
411.40	386.19
411.59	402.57
411.78	440.02
411.98	414.27
412.17	400.23
412.36	397.89
412.55	383.85
412.74	402.57
412.93	475.13
413.12	428.32
413.31	407.25
413.50	444.70
413.69	454.06
413.88	372.15
414.07	437.68
414.26	449.38
414.45	362.78
414.64	430.66
414.83	388.53
415.02	449.38
415.22	374.49
415.41	456.40
415.60	458.74
415.79	407.25
415.98	407.25
416.17	461.09
416.36	411.93
416.55	442.36
416.74	468.11
416.93	407.25
417.12	444.70
417.31	423.64
417.50	402.57
417.69	440.02
417.88	430.66
418.07	407.25
418.26	404.91
418.45	425.98
418.64	421.30
418.83	454.06
419.02	458.74
419.21	400.23
419.39	393.21
419.58	400.23
419.77	372.15
419.96	430.66
420.15	454.06
420.34	433.00
420.53	409.59
420.72	400.23
420.91	397.89
421.10	397.89
421.29	451.72
421.48	365.12
421.67	407.25
421.86	435.34
422.05	379.17
422.24	362.78
422.43	423.64
422.61	414.27
422.80	351.08
422.99	430.66
423.18	447.04
423.37	486.83
423.56	418.96
423.75	451.72
423.94	409.59
424.13	332.36
424.32	379.17
424.50	407.25
424.69	369.80
424.88	395.55
425.07	433.00
425.26	395.55
425.45	381.51
425.64	402.57
425.83	442.36
426.01	472.79
426.20	475.13
426.39	411.93
426.58	437.68
426.77	440.02
426.96	416.62
427.15	477.47
427.33	365.12
427.52	393.21
427.71	390.87
427.90	358.10
428.09	414.27
428.28	484.49
428.46	451.72
428.65	404.91
428.84	318.31
429.03	449.38
429.22	416.62
429.40	322.99
429.59	475.13
429.78	437.68
429.97	421.30
430.16	440.02
430.34	418.96
430.53	402.57
430.72	383.85
430.91	397.89
431.10	416.62
431.28	416.62
431.47	404.91
431.66	397.89
431.85	416.62
432.03	449.38
432.22	472.79
432.41	440.02
432.60	428.32
432.79	428.32
432.97	400.23
433.16	437.68
433.35	374.49
433.54	433.00
433.72	442.36
433.91	465.77
434.10	409.59
434.28	374.49
434.47	367.46
434.66	428.32
434.85	374.49
435.03	369.80
435.22	449.38
435.41	451.72
435.59	442.36
435.78	414.27
435.97	402.57
436.16	440.02
436.34	369.80
436.53	372.15
436.72	400.23
436.90	414.27
437.09	379.17
437.28	367.46
437.46	409.59
437.65	416.62
437.84	479.81
438.02	423.64
438.21	397.89
438.40	372.15
438.58	416.62
438.77	409.59
438.96	381.51
439.14	383.85
439.33	444.70
439.52	379.17
439.70	393.21
439.89	435.34
440.08	463.43
440.26	379.17
440.45	339.38
440.63	433.00
440.82	435.34
441.01	355.76
441.19	456.40
441.38	402.57
441.57	433.00
441.75	421.30
441.94	421.30
442.12	416.62
442.31	407.25
442.50	383.85
442.68	456.40
442.87	456.40
443.05	386.19
443.24	383.85
443.43	393.21
443.61	416.62
443.80	393.21
443.98	418.96
444.17	404.91
444.35	404.91
444.54	393.21
444.73	327.68
444.91	428.32
445.10	416.62
445.28	372.15
445.47	416.62
445.65	376.83
445.84	365.12
446.02	386.19
446.21	379.17
446.39	395.55
446.58	444.70
446.77	372.15
446.95	404.91
447.14	433.00
447.32	353.42
447.51	386.19
447.69	369.80
447.88	444.70
448.06	414.27
448.25	388.53
448.43	383.85
448.62	409.59
448.80	451.72
448.99	479.81
449.17	379.17
449.36	372.15
449.54	444.70
449.73	454.06
449.91	484.49
450.10	348.74
450.28	437.68
450.46	472.79
450.65	475.13
450.83	402.57
451.02	440.02
451.20	395.55
451.39	407.25
451.57	458.74
451.76	362.78
451.94	440.02
452.13	411.93
452.31	395.55
452.49	440.02
452.68	402.57
452.86	400.23
453.05	470.45
453.23	414.27
453.42	351.08
453.60	369.80
453.78	374.49
453.97	353.42
454.15	386.19
454.34	383.85
454.52	437.68
454.70	444.70
454.89	369.80
455.07	358.10
455.26	433.00
455.44	468.11
455.62	376.83
455.81	409.59
455.99	437.68
456.17	451.72
456.36	369.80
456.54	390.87
456.73	374.49
456.91	395.55
457.09	421.30
457.28	435.34
457.46	461.09
457.64	444.70
457.83	383.85
458.01	332.36
458.19	444.70
458.38	454.06
458.56	400.23
458.74	400.23
458.93	393.21
459.11	395.55
459.29	414.27
459.48	386.19
459.66	458.74
459.84	388.53
460.03	451.72
460.21	498.53
460.39	433.00
460.57	437.68
460.76	409.59
460.94	454.06
461.12	463.43
461.31	456.40
461.49	475.13
461.67	390.87
461.85	414.27
462.04	418.96
462.22	784.08
462.40	468.11
462.59	454.06
462.77	444.70
462.95	411.93
463.13	437.68
463.32	411.93
463.50	393.21
463.68	451.72
463.86	414.27
464.05	418.96
464.23	381.51
464.41	423.64
464.59	440.02
464.78	395.55
464.96	454.06
465.14	416.62
465.32	374.49
465.50	444.70
465.69	402.57
465.87	400.23
466.05	437.68
466.23	414.27
466.41	348.74
466.60	372.15
466.78	437.68
466.96	456.40
467.14	447.04
467.32	433.00
467.51	447.04
467.69	425.98
467.87	421.30
468.05	388.53
468.23	484.49
468.41	395.55
468.60	404.91
468.78	430.66
468.96	379.17
469.14	416.62
469.32	425.98
469.50	425.98
469.69	435.34
469.87	355.76
470.05	475.13
470.23	479.81
470.41	418.96
470.59	411.93
470.77	416.62
470.95	461.09
471.14	428.32
471.32	390.87
471.50	407.25
471.68	397.89
471.86	428.32
472.04	379.17
472.22	379.17
472.40	372.15
472.58	393.21
472.77	397.89
472.95	442.36
473.13	395.55
473.31	407.25
473.49	451.72
473.67	411.93
473.85	381.51
474.03	482.15
474.21	348.74
474.39	383.85
474.57	407.25
474.75	433.00
474.93	348.74
475.12	346.40
475.30	383.85
475.48	461.09
475.66	404.91
475.84	341.72
476.02	435.34
476.20	425.98
476.38	491.51
476.56	514.92
476.74	475.13
476.92	404.91
477.10	374.49
477.28	402.57
477.46	416.62
477.64	435.34
477.82	414.27
478.00	395.55
478.18	404.91
478.36	433.00
478.54	407.25
478.72	430.66
478.90	397.89
479.08	388.53
479.26	393.21
479.44	437.68
479.62	416.62
479.80	402.57
479.98	447.04
480.16	402.57
480.34	440.02
480.52	411.93
480.70	409.59
480.88	376.83
481.06	348.74
481.24	414.27
481.41	456.40
481.59	437.68
481.77	416.62
481.95	484.49
482.13	411.93
482.31	407.25
482.49	397.89
482.67	454.06
482.85	423.64
483.03	390.87
483.21	395.55
483.39	341.72
483.57	435.34
483.74	444.70
483.92	458.74
484.10	423.64
484.28	463.43
484.46	404.91
484.64	430.66
484.82	407.25
485.00	393.21
485.18	395.55
485.35	416.62
485.53	400.23
485.71	479.81
485.89	421.30
486.07	409.59
486.25	440.02
486.43	344.06
486.61	468.11
486.78	374.49
486.96	428.32
487.14	461.09
487.32	346.40
487.50	498.53
487.68	440.02
487.85	449.38
488.03	449.38
488.21	465.77
488.39	407.25
488.57	428.32
488.75	425.98
488.92	414.27
489.10	337.04
489.28	435.34
489.46	339.38
489.64	402.57
489.81	353.42
489.99	468.11
490.17	397.89
490.35	451.72
490.53	442.36
490.70	430.66
490.88	397.89
491.06	402.57
491.24	386.19
491.41	461.09
491.59	400.23
491.77	440.02
491.95	372.15
492.13	416.62
492.30	411.93
492.48	393.21
492.66	440.02
492.84	414.27
493.01	374.49
493.19	358.10
493.37	449.38
493.54	390.87
493.72	433.00
493.90	388.53
494.08	416.62
494.25	411.93
494.43	440.02
494.61	358.10
494.79	337.04
494.96	421.30
495.14	435.34
495.32	484.49
495.49	447.04
495.67	477.47
495.85	454.06
496.02	414.27
496.20	444.70
496.38	456.40
496.55	416.62
496.73	381.51
496.91	407.25
497.09	435.34
497.26	418.96
497.44	409.59
497.62	411.93
497.79	451.72
497.97	458.74
498.14	468.11
498.32	395.55
498.50	351.08
498.67	386.19
498.85	369.80
499.03	423.64
499.20	344.06
499.38	447.04
499.56	400.23
499.73	353.42
499.91	472.79
500.08	416.62
500.26	423.64
500.44	418.96
500.61	425.98
500.79	308.95
500.97	468.11
501.14	442.36
501.32	430.66
501.49	444.70
501.67	372.15
501.84	407.25
502.02	430.66
502.20	472.79
502.37	512.58
502.55	449.38
502.72	409.59
502.90	416.62
503.07	465.77
503.25	395.55
503.43	404.91
503.60	346.40
503.78	423.64
503.95	430.66
504.13	393.21
504.30	423.64
504.48	475.13
504.65	449.38
504.83	430.66
505.01	334.70
505.18	386.19
505.36	447.04
505.53	428.32
505.71	383.85
505.88	402.57
506.06	320.65
506.23	407.25
506.41	458.74
506.58	449.38
506.76	482.15
506.93	395.55
507.11	409.59
507.28	411.93
507.46	362.78
507.63	379.17
507.81	360.44
507.98	322.99
508.16	414.27
508.33	500.87
508.50	372.15
508.68	421.30
508.85	440.02
509.03	407.25
509.20	393.21
509.38	437.68
509.55	440.02
509.73	433.00
509.90	379.17
510.08	437.68
510.25	463.43
510.42	425.98
510.60	449.38
510.77	390.87
510.95	458.74
511.12	339.38
511.30	411.93
511.47	423.64
511.64	449.38
511.82	437.68
511.99	440.02
512.17	388.53
512.34	421.30
512.51	358.10
512.69	379.17
512.86	444.70
513.04	463.43
513.21	367.46
513.38	402.57
513.56	425.98
513.73	372.15
513.90	362.78
514.08	386.19
514.25	440.02
514.43	358.10
514.60	372.15
514.77	425.98
514.95	491.51
515.12	402.57
515.29	369.80
515.47	428.32
515.64	358.10
515.81	430.66
515.99	425.98
516.16	444.70
516.33	383.85
516.51	397.89
516.68	397.89
516.85	535.98
517.03	367.46
517.20	383.85
517.37	486.83
517.54	421.30
517.72	409.59
517.89	390.87
518.06	393.21
518.24	381.51
518.41	463.43
518.58	322.99
518.75	348.74
518.93	409.59
519.10	437.68
519.27	458.74
519.45	416.62
519.62	442.36
519.79	416.62
519.96	355.76
520.14	442.36
520.31	425.98
520.48	386.19
520.65	400.23
520.83	437.68
521.00	456.40
521.17	388.53
521.34	369.80
521.52	390.87
521.69	421.30
521.86	362.78
522.03	440.02
522.20	461.09
522.38	409.59
522.55	414.27
522.72	456.40
522.89	496.19
523.07	418.96
523.24	430.66
523.41	430.66
523.58	381.51
523.75	475.13
523.92	402.57
524.10	402.57
524.27	425.98
524.44	388.53
524.61	430.66
524.78	449.38
524.96	369.80
525.13	430.66
525.30	456.40
525.47	451.72
525.64	397.89
525.81	409.59
525.98	416.62
526.16	411.93
526.33	411.93
526.50	334.70
526.67	388.53
526.84	395.55
527.01	416.62
527.18	397.89
527.36	444.70
527.53	407.25
527.70	379.17
527.87	355.76
528.04	411.93
528.21	491.51
528.38	475.13
528.55	489.17
528.72	442.36
528.89	451.72
529.07	365.12
529.24	442.36
529.41	482.15
529.58	500.87
529.75	390.87
529.92	461.09
530.09	395.55
530.26	411.93
530.43	386.19
530.60	337.04
530.77	430.66
530.94	430.66
531.11	425.98
531.28	414.27
531.46	489.17
531.63	383.85
531.80	454.06
531.97	489.17
532.14	425.98
532.31	447.04
532.48	507.90
532.65	458.74
532.82	411.93
532.99	362.78
533.16	486.83
533.33	397.89
533.50	404.91
533.67	440.02
533.84	395.55
534.01	449.38
534.18	372.15
534.35	440.02
534.52	449.38
534.69	435.34
534.86	456.40
535.03	397.89
535.20	437.68
535.37	465.77
535.54	407.25
535.71	386.19
535.88	442.36
536.05	472.79
536.22	358.10
536.38	442.36
536.55	435.34
536.72	430.66
536.89	395.55
537.06	346.40
537.23	346.40
537.40	470.45
537.57	437.68
537.74	493.85
537.91	416.62
538.08	369.80
538.25	440.02
538.42	374.49
538.59	416.62
538.75	411.93
538.92	386.19
539.09	351.08
539.26	365.12
539.43	374.49
539.60	383.85
539.77	409.59
539.94	393.21
540.11	416.62
540.28	498.53
540.44	475.13
540.61	386.19
540.78	414.27
540.95	369.80
541.12	484.49
541.29	379.17
541.46	449.38
541.62	440.02
541.79	430.66
541.96	360.44
542.13	416.62
542.30	425.98
542.47	486.83
542.63	344.06
542.80	390.87
542.97	386.19
543.14	397.89
543.31	437.68
543.48	372.15
543.64	360.44
543.81	437.68
543.98	379.17
544.15	372.15
544.32	395.55
544.48	423.64
544.65	423.64
544.82	411.93
544.99	430.66
545.16	362.78
545.32	358.10
545.49	428.32
545.66	421.30
545.83	425.98
546.00	390.87
546.16	360.44
546.33	379.17
546.50	395.55
546.67	433.00
546.83	428.32
547.00	423.64
547.17	404.91
547.34	376.83
547.50	386.19
547.67	346.40
547.84	411.93
548.00	440.02
548.17	388.53
548.34	339.38
548.51	423.64
548.67	411.93
548.84	383.85
549.01	463.43
549.18	428.32
549.34	472.79
549.51	386.19
549.68	416.62
549.84	414.27
550.01	458.74
550.18	531.30
550.34	435.34
550.51	425.98
550.68	414.27
550.84	435.34
551.01	421.30
551.18	367.46
551.34	433.00
551.51	463.43
551.68	379.17
551.84	393.21
552.01	507.90
552.18	411.93
552.34	390.87
552.51	402.57
552.68	465.77
552.84	407.25
553.01	447.04
553.18	330.02
553.34	447.04
553.51	414.27
553.67	435.34
553.84	407.25
554.01	430.66
554.17	414.27
554.34	428.32
554.51	479.81
554.67	411.93
554.84	489.17
555.00	479.81
555.17	407.25
555.33	498.53
555.50	358.10
555.67	479.81
555.83	348.74
556.00	470.45
556.16	517.26
556.33	379.17
556.50	390.87
556.66	416.62
556.83	332.36
556.99	433.00
557.16	477.47
557.32	337.04
557.49	400.23
557.65	442.36
557.82	437.68
557.98	423.64
558.15	540.66
558.32	402.57
558.48	383.85
558.65	425.98
558.81	440.02
558.98	444.70
559.14	454.06
559.31	456.40
559.47	454.06
559.64	442.36
559.80	425.98
559.97	397.89
560.13	449.38
560.30	404.91
560.46	379.17
560.63	397.89
560.79	416.62
560.96	379.17
561.12	451.72
561.29	404.91
561.45	435.34
561.61	421.30
561.78	484.49
561.94	411.93
562.11	477.47
562.27	451.72
562.44	479.81
562.60	414.27
562.77	498.53
562.93	477.47
563.10	414.27
563.26	484.49
563.42	433.00
563.59	411.93
563.75	486.83
563.92	449.38
564.08	425.98
564.24	430.66
564.41	454.06
564.57	447.04
564.74	430.66
564.90	435.34
565.07	463.43
565.23	477.47
565.39	447.04
565.56	470.45
565.72	465.77
565.88	369.80
566.05	472.79
566.21	383.85
566.38	489.17
566.54	430.66
566.70	425.98
566.87	456.40
567.03	430.66
567.19	433.00
567.36	440.02
567.52	465.77
567.68	402.57
567.85	465.77
568.01	493.85
568.17	374.49
568.34	358.10
568.50	447.04
568.66	376.83
568.83	437.68
568.99	346.40
569.15	400.23
569.32	416.62
569.48	451.72
569.64	393.21
569.81	407.25
569.97	411.93
570.13	430.66
570.30	411.93
570.46	414.27
570.62	416.62
570.78	437.68
570.95	383.85
571.11	510.24
571.27	395.55
571.43	414.27
571.60	355.76
571.76	388.53
571.92	369.80
572.09	423.64
572.25	351.08
572.41	433.00
572.57	397.89
572.74	418.96
572.90	447.04
573.06	379.17
573.22	376.83
573.38	428.32
573.55	449.38
573.71	425.98
573.87	402.57
574.03	362.78
574.20	362.78
574.36	414.27
574.52	440.02
574.68	447.04
574.84	355.76
575.01	456.40
575.17	393.21
575.33	440.02
575.49	372.15
575.65	440.02
575.82	451.72
575.98	440.02
576.14	409.59
576.30	447.04
576.46	388.53
576.62	381.51
576.79	461.09
576.95	414.27
577.11	468.11
577.27	383.85
577.43	472.79
577.59	447.04
577.75	430.66
577.92	428.32
578.08	402.57
578.24	365.12
578.40	477.47
578.56	381.51
578.72	425.98
578.88	393.21
579.04	374.49
579.21	421.30
579.37	404.91
579.53	372.15
579.69	407.25
579.85	442.36
580.01	430.66
580.17	456.40
580.33	503.22
580.49	468.11
580.65	435.34
580.82	447.04
580.98	400.23
581.14	409.59
581.30	428.32
581.46	458.74
581.62	472.79
581.78	402.57
581.94	365.12
582.10	404.91
582.26	505.56
582.42	454.06
582.58	423.64
582.74	386.19
582.90	440.02
583.06	362.78
583.22	428.32
583.38	327.68
583.54	351.08
583.70	479.81
583.86	484.49
584.02	418.96
584.18	503.22
584.34	390.87
584.50	304.27
584.66	489.17
584.82	433.00
584.98	463.43
585.14	456.40
585.30	444.70
585.46	428.32
585.62	442.36
585.78	433.00
585.94	425.98
586.10	470.45
586.26	416.62
586.42	449.38
586.58	470.45
586.74	433.00
586.90	465.77
587.06	489.17
587.22	411.93
587.38	365.12
587.54	353.42
587.70	423.64
587.86	456.40
588.02	465.77
588.18	395.55
588.34	447.04
588.49	430.66
588.65	454.06
588.81	341.72
588.97	423.64
589.13	395.55
589.29	404.91
589.45	472.79
589.61	444.70
589.77	411.93
589.93	407.25
590.08	444.70
590.24	397.89
590.40	374.49
590.56	484.49
590.72	491.51
590.88	400.23
591.04	397.89
591.20	407.25
591.35	414.27
591.51	393.21
591.67	416.62
591.83	348.74
591.99	341.72
592.15	468.11
592.31	496.19
592.46	388.53
592.62	435.34
592.78	334.70
592.94	395.55
593.10	386.19
593.26	437.68
593.41	430.66
593.57	411.93
593.73	402.57
593.89	461.09
594.05	416.62
594.20	346.40
594.36	409.59
594.52	339.38
594.68	449.38
594.84	482.15
594.99	444.70
595.15	463.43
595.31	458.74
595.47	470.45
595.62	402.57
595.78	409.59
595.94	376.83
596.10	365.12
596.25	355.76
596.41	477.47
596.57	362.78
596.73	362.78
596.88	348.74
597.04	386.19
597.20	388.53
597.36	440.02
597.51	395.55
597.67	416.62
597.83	468.11
597.99	442.36
598.14	409.59
598.30	416.62
598.46	383.85
598.61	379.17
598.77	414.27
598.93	400.23
599.09	416.62
599.24	418.96
599.40	510.24
599.56	411.93
599.71	449.38
599.87	407.25
600.03	435.34
600.18	416.62
600.34	379.17
600.50	430.66
600.65	369.80
600.81	416.62
600.97	472.79
601.12	308.95
601.28	435.34
601.44	461.09
601.59	428.32
601.75	362.78
601.91	344.06
602.06	407.25
602.22	486.83
602.37	353.42
602.53	365.12
602.69	367.46
602.84	404.91
603.00	421.30
603.16	437.68
603.31	482.15
603.47	451.72
603.62	355.76
603.78	388.53
603.94	435.34
604.09	369.80
604.25	430.66
604.40	393.21
604.56	379.17
604.71	411.93
604.87	369.80
605.03	433.00
605.18	397.89
605.34	339.38
605.49	376.83
605.65	365.12
605.80	390.87
605.96	407.25
606.12	404.91
606.27	376.83
606.43	423.64
606.58	379.17
606.74	416.62
606.89	390.87
607.05	465.77
607.20	430.66
607.36	400.23
607.51	341.72
607.67	397.89
607.82	400.23
607.98	430.66
608.13	442.36
608.29	414.27
608.44	423.64
608.60	430.66
608.75	454.06
608.91	451.72
609.06	423.64
609.22	451.72
609.37	365.12
609.53	402.57
609.68	390.87
609.84	425.98
609.99	428.32
610.15	404.91
