SpectraSuite Data File
++++++++++++++++++++++++++++++++++++
Date: Fri Oct 25 12:11:41 EDT 2013
User: price-jones
Dark Spectrum Present: No
Reference Spectrum Present: No
Number of Sampled Component Spectra: 1
Spectrometers: USB2+H05261
Integration Time (usec): 100000 (USB2+H05261)
Spectra Averaged: 1 (USB2+H05261)
Boxcar Smoothing: 0 (USB2+H05261)
Correct for Electrical Dark: No (USB2+H05261)
Strobe/Lamp Enabled: No (USB2+H05261)
Correct for Detector Non-linearity: No (USB2+H05261)
Correct for Stray Light: No (USB2+H05261)
Number of Pixels in Processed Spectrum: 2048
>>>>>Begin Processed Spectral Data<<<<<
365.73	355.76
365.92	355.76
366.12	355.76
366.32	252.78
366.52	210.65
366.72	184.90
366.91	301.93
367.11	294.91
367.31	248.10
367.51	173.20
367.70	276.18
367.90	191.92
368.10	189.58
368.30	210.65
368.49	269.16
368.69	287.89
368.89	182.56
369.09	234.05
369.28	311.29
369.48	236.39
369.68	215.33
369.87	322.99
370.07	283.20
370.27	322.99
370.47	283.20
370.66	301.93
370.86	383.85
371.06	407.25
371.25	430.66
371.45	278.52
371.65	386.19
371.84	402.57
372.04	449.38
372.24	425.98
372.44	348.74
372.63	411.93
372.83	404.91
373.03	447.04
373.22	358.10
373.42	489.17
373.62	451.72
373.81	390.87
374.01	404.91
374.21	390.87
374.40	503.22
374.60	451.72
374.79	386.19
374.99	395.55
375.19	397.89
375.38	433.00
375.58	449.38
375.78	344.06
375.97	404.91
376.17	409.59
376.37	397.89
376.56	407.25
376.76	428.32
376.95	442.36
377.15	461.09
377.35	479.81
377.54	428.32
377.74	442.36
377.93	346.40
378.13	423.64
378.33	414.27
378.52	404.91
378.72	463.43
378.91	425.98
379.11	376.83
379.31	383.85
379.50	400.23
379.70	451.72
379.89	381.51
380.09	425.98
380.28	414.27
380.48	414.27
380.68	383.85
380.87	440.02
381.07	395.55
381.26	444.70
381.46	421.30
381.65	456.40
381.85	358.10
382.04	404.91
382.24	376.83
382.43	355.76
382.63	369.80
382.83	447.04
383.02	475.13
383.22	463.43
383.41	365.12
383.61	423.64
383.80	475.13
384.00	383.85
384.19	358.10
384.39	407.25
384.58	369.80
384.78	484.49
384.97	425.98
385.17	390.87
385.36	369.80
385.56	414.27
385.75	407.25
385.95	416.62
386.14	416.62
386.34	358.10
386.53	418.96
386.72	393.21
386.92	447.04
387.11	348.74
387.31	400.23
387.50	430.66
387.70	325.33
387.89	355.76
388.09	374.49
388.28	365.12
388.48	397.89
388.67	414.27
388.86	344.06
389.06	379.17
389.25	447.04
389.45	463.43
389.64	376.83
389.84	435.34
390.03	404.91
390.22	437.68
390.42	449.38
390.61	397.89
390.81	369.80
391.00	421.30
391.19	402.57
391.39	421.30
391.58	379.17
391.78	404.91
391.97	369.80
392.16	425.98
392.36	442.36
392.55	435.34
392.75	407.25
392.94	365.12
393.13	416.62
393.33	358.10
393.52	395.55
393.71	353.42
393.91	510.24
394.10	327.68
394.29	451.72
394.49	315.97
394.68	407.25
394.88	400.23
395.07	416.62
395.26	386.19
395.46	451.72
395.65	463.43
395.84	425.98
396.04	491.51
396.23	374.49
396.42	416.62
396.62	358.10
396.81	449.38
397.00	379.17
397.19	454.06
397.39	440.02
397.58	379.17
397.77	346.40
397.97	397.89
398.16	381.51
398.35	482.15
398.55	489.17
398.74	425.98
398.93	409.59
399.12	465.77
399.32	411.93
399.51	386.19
399.70	444.70
399.90	374.49
400.09	433.00
400.28	425.98
400.47	423.64
400.67	388.53
400.86	444.70
401.05	451.72
401.24	458.74
401.44	409.59
401.63	435.34
401.82	402.57
402.01	393.21
402.21	348.74
402.40	451.72
402.59	442.36
402.78	465.77
402.97	416.62
403.17	390.87
403.36	416.62
403.55	489.17
403.74	341.72
403.93	444.70
404.13	365.12
404.32	330.02
404.51	388.53
404.70	402.57
404.89	367.46
405.09	463.43
405.28	390.87
405.47	416.62
405.66	482.15
405.85	430.66
406.05	482.15
406.24	400.23
406.43	402.57
406.62	379.17
406.81	489.17
407.00	444.70
407.20	381.51
407.39	369.80
407.58	372.15
407.77	386.19
407.96	482.15
408.15	477.47
408.34	435.34
408.54	449.38
408.73	442.36
408.92	435.34
409.11	393.21
409.30	425.98
409.49	458.74
409.68	423.64
409.87	411.93
410.07	395.55
410.26	444.70
410.45	372.15
410.64	437.68
410.83	447.04
411.02	435.34
411.21	404.91
411.40	491.51
411.59	400.23
411.78	475.13
411.98	409.59
412.17	418.96
412.36	386.19
412.55	433.00
412.74	456.40
412.93	493.85
413.12	400.23
413.31	418.96
413.50	425.98
413.69	430.66
413.88	414.27
414.07	381.51
414.26	395.55
414.45	397.89
414.64	475.13
414.83	372.15
415.02	400.23
415.22	423.64
415.41	388.53
415.60	386.19
415.79	404.91
415.98	416.62
416.17	388.53
416.36	414.27
416.55	388.53
416.74	409.59
416.93	461.09
417.12	414.27
417.31	416.62
417.50	437.68
417.69	482.15
417.88	421.30
418.07	367.46
418.26	430.66
418.45	472.79
418.64	461.09
418.83	418.96
419.02	400.23
419.21	470.45
419.39	397.89
419.58	348.74
419.77	360.44
419.96	458.74
420.15	435.34
420.34	358.10
420.53	521.94
420.72	463.43
420.91	409.59
421.10	404.91
421.29	355.76
421.48	414.27
421.67	437.68
421.86	414.27
422.05	470.45
422.24	423.64
422.43	344.06
422.61	353.42
422.80	440.02
422.99	444.70
423.18	362.78
423.37	397.89
423.56	428.32
423.75	376.83
423.94	395.55
424.13	447.04
424.32	362.78
424.50	433.00
424.69	341.72
424.88	430.66
425.07	416.62
425.26	393.21
425.45	395.55
425.64	416.62
425.83	393.21
426.01	433.00
426.20	468.11
426.39	358.10
426.58	430.66
426.77	425.98
426.96	402.57
427.15	416.62
427.33	465.77
427.52	397.89
427.71	458.74
427.90	463.43
428.09	383.85
428.28	423.64
428.46	369.80
428.65	421.30
428.84	437.68
429.03	465.77
429.22	416.62
429.40	397.89
429.59	451.72
429.78	449.38
429.97	416.62
430.16	404.91
430.34	409.59
430.53	435.34
430.72	425.98
430.91	390.87
431.10	397.89
431.28	418.96
431.47	421.30
431.66	409.59
431.85	491.51
432.03	376.83
432.22	430.66
432.41	383.85
432.60	411.93
432.79	404.91
432.97	404.91
433.16	393.21
433.35	337.04
433.54	381.51
433.72	407.25
433.91	435.34
434.10	358.10
434.28	411.93
434.47	416.62
434.66	461.09
434.85	442.36
435.03	433.00
435.22	463.43
435.41	458.74
435.59	414.27
435.78	496.19
435.97	465.77
436.16	442.36
436.34	423.64
436.53	449.38
436.72	458.74
436.90	447.04
437.09	376.83
437.28	479.81
437.46	418.96
437.65	489.17
437.84	404.91
438.02	442.36
438.21	416.62
438.40	409.59
438.58	433.00
438.77	440.02
438.96	402.57
439.14	308.95
439.33	414.27
439.52	393.21
439.70	402.57
439.89	407.25
440.08	442.36
440.26	411.93
440.45	435.34
440.63	388.53
440.82	454.06
441.01	388.53
441.19	421.30
441.38	383.85
441.57	393.21
441.75	447.04
441.94	376.83
442.12	465.77
442.31	381.51
442.50	404.91
442.68	442.36
442.87	355.76
443.05	402.57
443.24	374.49
443.43	428.32
443.61	461.09
443.80	353.42
443.98	379.17
444.17	458.74
444.35	456.40
444.54	425.98
444.73	397.89
444.91	437.68
445.10	418.96
445.28	400.23
445.47	423.64
445.65	414.27
445.84	440.02
446.02	454.06
446.21	369.80
446.39	407.25
446.58	465.77
446.77	458.74
446.95	393.21
447.14	440.02
447.32	461.09
447.51	411.93
447.69	423.64
447.88	503.22
448.06	435.34
448.25	456.40
448.43	489.17
448.62	376.83
448.80	404.91
448.99	397.89
449.17	376.83
449.36	388.53
449.54	423.64
449.73	367.46
449.91	409.59
450.10	489.17
450.28	454.06
450.46	423.64
450.65	444.70
450.83	341.72
451.02	381.51
451.20	383.85
451.39	386.19
451.57	358.10
451.76	400.23
451.94	411.93
452.13	430.66
452.31	458.74
452.49	454.06
452.68	416.62
452.86	383.85
453.05	456.40
453.23	465.77
453.42	390.87
453.60	404.91
453.78	418.96
453.97	353.42
454.15	407.25
454.34	407.25
454.52	390.87
454.70	409.59
454.89	421.30
455.07	475.13
455.26	468.11
455.44	425.98
455.62	386.19
455.81	465.77
455.99	393.21
456.17	528.96
456.36	369.80
456.54	365.12
456.73	521.94
456.91	402.57
457.09	416.62
457.28	383.85
457.46	428.32
457.64	482.15
457.83	404.91
458.01	428.32
458.19	414.27
458.38	411.93
458.56	376.83
458.74	435.34
458.93	428.32
459.11	395.55
459.29	409.59
459.48	472.79
459.66	571.09
459.84	458.74
460.03	456.40
460.21	421.30
460.39	433.00
460.57	484.49
460.76	486.83
460.94	337.04
461.12	458.74
461.31	442.36
461.49	383.85
461.67	393.21
461.85	442.36
462.04	428.32
462.22	784.08
462.40	407.25
462.59	393.21
462.77	372.15
462.95	435.34
463.13	369.80
463.32	444.70
463.50	416.62
463.68	386.19
463.86	456.40
464.05	414.27
464.23	386.19
464.41	414.27
464.59	362.78
464.78	386.19
464.96	449.38
465.14	437.68
465.32	379.17
465.50	418.96
465.69	444.70
465.87	397.89
466.05	461.09
466.23	447.04
466.41	425.98
466.60	435.34
466.78	390.87
466.96	458.74
467.14	390.87
467.32	421.30
467.51	475.13
467.69	381.51
467.87	454.06
468.05	465.77
468.23	510.24
468.41	358.10
468.60	407.25
468.78	433.00
468.96	449.38
469.14	351.08
469.32	367.46
469.50	404.91
469.69	435.34
469.87	430.66
470.05	374.49
470.23	435.34
470.41	435.34
470.59	362.78
470.77	411.93
470.95	409.59
471.14	451.72
471.32	393.21
471.50	486.83
471.68	362.78
471.86	435.34
472.04	430.66
472.22	388.53
472.40	421.30
472.58	369.80
472.77	390.87
472.95	381.51
473.13	411.93
473.31	456.40
473.49	465.77
473.67	348.74
473.85	411.93
474.03	444.70
474.21	416.62
474.39	458.74
474.57	428.32
474.75	409.59
474.93	454.06
475.12	409.59
475.30	390.87
475.48	407.25
475.66	386.19
475.84	423.64
476.02	414.27
476.20	402.57
476.38	435.34
476.56	461.09
476.74	451.72
476.92	376.83
477.10	425.98
477.28	437.68
477.46	456.40
477.64	496.19
477.82	381.51
478.00	381.51
478.18	369.80
478.36	472.79
478.54	379.17
478.72	393.21
478.90	435.34
479.08	437.68
479.26	433.00
479.44	369.80
479.62	447.04
479.80	346.40
479.98	418.96
480.16	409.59
480.34	402.57
480.52	402.57
480.70	423.64
480.88	430.66
481.06	393.21
481.24	367.46
481.41	437.68
481.59	416.62
481.77	428.32
481.95	379.17
482.13	430.66
482.31	311.29
482.49	393.21
482.67	411.93
482.85	437.68
483.03	428.32
483.21	418.96
483.39	421.30
483.57	454.06
483.74	440.02
483.92	414.27
484.10	423.64
484.28	458.74
484.46	458.74
484.64	411.93
484.82	407.25
485.00	411.93
485.18	498.53
485.35	425.98
485.53	369.80
485.71	386.19
485.89	362.78
486.07	379.17
486.25	376.83
486.43	475.13
486.61	433.00
486.78	393.21
486.96	393.21
487.14	440.02
487.32	428.32
487.50	353.42
487.68	437.68
487.85	416.62
488.03	449.38
488.21	472.79
488.39	421.30
488.57	423.64
488.75	456.40
488.92	510.24
489.10	489.17
489.28	489.17
489.46	353.42
489.64	442.36
489.81	472.79
489.99	360.44
490.17	393.21
490.35	470.45
490.53	463.43
490.70	428.32
490.88	423.64
491.06	374.49
491.24	411.93
491.41	418.96
491.59	397.89
491.77	451.72
491.95	486.83
492.13	353.42
492.30	393.21
492.48	311.29
492.66	383.85
492.84	369.80
493.01	397.89
493.19	383.85
493.37	484.49
493.54	451.72
493.72	440.02
493.90	369.80
494.08	433.00
494.25	472.79
494.43	402.57
494.61	400.23
494.79	505.56
494.96	348.74
495.14	430.66
495.32	397.89
495.49	402.57
495.67	425.98
495.85	430.66
496.02	388.53
496.20	397.89
496.38	447.04
496.55	397.89
496.73	440.02
496.91	360.44
497.09	454.06
497.26	360.44
497.44	437.68
497.62	400.23
497.79	470.45
497.97	402.57
498.14	482.15
498.32	367.46
498.50	475.13
498.67	416.62
498.85	379.17
499.03	372.15
499.20	435.34
499.38	379.17
499.56	470.45
499.73	564.07
499.91	407.25
500.08	379.17
500.26	430.66
500.44	433.00
500.61	414.27
500.79	468.11
500.97	454.06
501.14	451.72
501.32	461.09
501.49	423.64
501.67	386.19
501.84	400.23
502.02	367.46
502.20	468.11
502.37	416.62
502.55	430.66
502.72	320.65
502.90	386.19
503.07	383.85
503.25	393.21
503.43	372.15
503.60	358.10
503.78	409.59
503.95	407.25
504.13	498.53
504.30	428.32
504.48	435.34
504.65	482.15
504.83	388.53
505.01	421.30
505.18	447.04
505.36	425.98
505.53	351.08
505.71	435.34
505.88	423.64
506.06	416.62
506.23	348.74
506.41	283.20
506.58	425.98
506.76	421.30
506.93	409.59
507.11	416.62
507.28	353.42
507.46	433.00
507.63	418.96
507.81	344.06
507.98	407.25
508.16	428.32
508.33	435.34
508.50	442.36
508.68	416.62
508.85	400.23
509.03	404.91
509.20	423.64
509.38	416.62
509.55	348.74
509.73	362.78
509.90	435.34
510.08	294.91
510.25	435.34
510.42	435.34
510.60	442.36
510.77	454.06
510.95	442.36
511.12	374.49
511.30	472.79
511.47	402.57
511.64	503.22
511.82	447.04
511.99	425.98
512.17	458.74
512.34	386.19
512.51	430.66
512.69	433.00
512.86	465.77
513.04	400.23
513.21	369.80
513.38	409.59
513.56	433.00
513.73	421.30
513.90	404.91
514.08	470.45
514.25	374.49
514.43	451.72
514.60	411.93
514.77	402.57
514.95	379.17
515.12	428.32
515.29	423.64
515.47	418.96
515.64	421.30
515.81	416.62
515.99	425.98
516.16	407.25
516.33	444.70
516.51	397.89
516.68	365.12
516.85	379.17
517.03	428.32
517.20	409.59
517.37	393.21
517.54	456.40
517.72	437.68
517.89	358.10
518.06	449.38
518.24	435.34
518.41	472.79
518.58	444.70
518.75	376.83
518.93	402.57
519.10	482.15
519.27	423.64
519.45	381.51
519.62	437.68
519.79	477.47
519.96	433.00
520.14	440.02
520.31	447.04
520.48	477.47
520.65	477.47
520.83	475.13
521.00	402.57
521.17	451.72
521.34	404.91
521.52	468.11
521.69	393.21
521.86	425.98
522.03	397.89
522.20	447.04
522.38	442.36
522.55	369.80
522.72	332.36
522.89	503.22
523.07	463.43
523.24	367.46
523.41	365.12
523.58	414.27
523.75	470.45
523.92	418.96
524.10	437.68
524.27	425.98
524.44	381.51
524.61	395.55
524.78	390.87
524.96	458.74
525.13	475.13
525.30	463.43
525.47	512.58
525.64	414.27
525.81	437.68
525.98	346.40
526.16	430.66
526.33	456.40
526.50	423.64
526.67	435.34
526.84	472.79
527.01	351.08
527.18	430.66
527.36	407.25
527.53	383.85
527.70	458.74
527.87	458.74
528.04	472.79
528.21	397.89
528.38	388.53
528.55	444.70
528.72	463.43
528.89	503.22
529.07	428.32
529.24	367.46
529.41	416.62
529.58	381.51
529.75	421.30
529.92	409.59
530.09	461.09
530.26	435.34
530.43	454.06
530.60	430.66
530.77	451.72
530.94	435.34
531.11	409.59
531.28	369.80
531.46	442.36
531.63	421.30
531.80	489.17
531.97	348.74
532.14	425.98
532.31	369.80
532.48	442.36
532.65	383.85
532.82	409.59
532.99	372.15
533.16	423.64
533.33	433.00
533.50	358.10
533.67	472.79
533.84	451.72
534.01	458.74
534.18	423.64
534.35	451.72
534.52	379.17
534.69	472.79
534.86	442.36
535.03	430.66
535.20	454.06
535.37	414.27
535.54	374.49
535.71	416.62
535.88	386.19
536.05	437.68
536.22	458.74
536.38	454.06
536.55	470.45
536.72	461.09
536.89	381.51
537.06	433.00
537.23	341.72
537.40	409.59
537.57	440.02
537.74	425.98
537.91	451.72
538.08	376.83
538.25	440.02
538.42	418.96
538.59	372.15
538.75	440.02
538.92	381.51
539.09	365.12
539.26	325.33
539.43	383.85
539.60	397.89
539.77	442.36
539.94	440.02
540.11	451.72
540.28	425.98
540.44	465.77
540.61	421.30
540.78	440.02
540.95	421.30
541.12	521.94
541.29	369.80
541.46	486.83
541.62	421.30
541.79	425.98
541.96	486.83
542.13	367.46
542.30	360.44
542.47	386.19
542.63	383.85
542.80	430.66
542.97	451.72
543.14	397.89
543.31	365.12
543.48	437.68
543.64	461.09
543.81	416.62
543.98	393.21
544.15	421.30
544.32	367.46
544.48	341.72
544.65	407.25
544.82	386.19
544.99	330.02
545.16	435.34
545.32	414.27
545.49	458.74
545.66	454.06
545.83	428.32
546.00	407.25
546.16	421.30
546.33	461.09
546.50	435.34
546.67	425.98
546.83	386.19
547.00	362.78
547.17	407.25
547.34	386.19
547.50	449.38
547.67	454.06
547.84	395.55
548.00	465.77
548.17	367.46
548.34	339.38
548.51	440.02
548.67	362.78
548.84	400.23
549.01	402.57
549.18	397.89
549.34	383.85
549.51	461.09
549.68	409.59
549.84	437.68
550.01	409.59
550.18	449.38
550.34	376.83
550.51	458.74
550.68	465.77
550.84	383.85
551.01	383.85
551.18	454.06
551.34	416.62
551.51	388.53
551.68	365.12
551.84	421.30
552.01	393.21
552.18	386.19
552.34	477.47
552.51	397.89
552.68	372.15
552.84	337.04
553.01	472.79
553.18	463.43
553.34	416.62
553.51	451.72
553.67	442.36
553.84	465.77
554.01	442.36
554.17	470.45
554.34	381.51
554.51	379.17
554.67	414.27
554.84	468.11
555.00	465.77
555.17	442.36
555.33	400.23
555.50	395.55
555.67	472.79
555.83	325.33
556.00	381.51
556.16	533.64
556.33	458.74
556.50	334.70
556.66	414.27
556.83	390.87
556.99	449.38
557.16	425.98
557.32	367.46
557.49	425.98
557.65	418.96
557.82	337.04
557.98	355.76
558.15	374.49
558.32	437.68
558.48	454.06
558.65	397.89
558.81	449.38
558.98	379.17
559.14	470.45
559.31	388.53
559.47	465.77
559.64	409.59
559.80	449.38
559.97	388.53
560.13	423.64
560.30	390.87
560.46	360.44
560.63	409.59
560.79	381.51
560.96	479.81
561.12	388.53
561.29	465.77
561.45	423.64
561.61	418.96
561.78	447.04
561.94	435.34
562.11	435.34
562.27	475.13
562.44	360.44
562.60	327.68
562.77	428.32
562.93	421.30
563.10	416.62
563.26	430.66
563.42	411.93
563.59	404.91
563.75	360.44
563.92	470.45
564.08	425.98
564.24	451.72
564.41	510.24
564.57	404.91
564.74	447.04
564.90	388.53
565.07	451.72
565.23	395.55
565.39	383.85
565.56	407.25
565.72	409.59
565.88	428.32
566.05	414.27
566.21	404.91
566.38	376.83
566.54	402.57
566.70	458.74
566.87	407.25
567.03	414.27
567.19	414.27
567.36	440.02
567.52	442.36
567.68	463.43
567.85	472.79
568.01	428.32
568.17	351.08
568.34	374.49
568.50	418.96
568.66	407.25
568.83	437.68
568.99	451.72
569.15	433.00
569.32	381.51
569.48	395.55
569.64	423.64
569.81	430.66
569.97	421.30
570.13	468.11
570.30	444.70
570.46	456.40
570.62	402.57
570.78	367.46
570.95	449.38
571.11	456.40
571.27	535.98
571.43	376.83
571.60	456.40
571.76	407.25
571.92	435.34
572.09	386.19
572.25	374.49
572.41	458.74
572.57	397.89
572.74	386.19
572.90	400.23
573.06	442.36
573.22	393.21
573.38	421.30
573.55	479.81
573.71	365.12
573.87	475.13
574.03	409.59
574.20	388.53
574.36	337.04
574.52	458.74
574.68	393.21
574.84	351.08
575.01	444.70
575.17	374.49
575.33	360.44
575.49	454.06
575.65	456.40
575.82	451.72
575.98	425.98
576.14	362.78
576.30	404.91
576.46	428.32
576.62	440.02
576.79	428.32
576.95	517.26
577.11	428.32
577.27	400.23
577.43	381.51
577.59	463.43
577.75	465.77
577.92	435.34
578.08	379.17
578.24	348.74
578.40	472.79
578.56	458.74
578.72	456.40
578.88	358.10
579.04	440.02
579.21	402.57
579.37	430.66
579.53	379.17
579.69	484.49
579.85	414.27
580.01	365.12
580.17	414.27
580.33	376.83
580.49	379.17
580.65	435.34
580.82	409.59
580.98	372.15
581.14	379.17
581.30	454.06
581.46	484.49
581.62	407.25
581.78	407.25
581.94	440.02
582.10	414.27
582.26	442.36
582.42	400.23
582.58	414.27
582.74	376.83
582.90	430.66
583.06	475.13
583.22	444.70
583.38	454.06
583.54	400.23
583.70	482.15
583.86	447.04
584.02	402.57
584.18	458.74
584.34	383.85
584.50	475.13
584.66	430.66
584.82	421.30
584.98	451.72
585.14	386.19
585.30	397.89
585.46	346.40
585.62	395.55
585.78	416.62
585.94	517.26
586.10	383.85
586.26	388.53
586.42	358.10
586.58	477.47
586.74	430.66
586.90	393.21
587.06	458.74
587.22	404.91
587.38	397.89
587.54	397.89
587.70	444.70
587.86	421.30
588.02	461.09
588.18	411.93
588.34	470.45
588.49	421.30
588.65	383.85
588.81	383.85
588.97	381.51
589.13	456.40
589.29	379.17
589.45	454.06
589.61	475.13
589.77	437.68
589.93	435.34
590.08	482.15
590.24	496.19
590.40	414.27
590.56	545.34
590.72	360.44
590.88	383.85
591.04	463.43
591.20	390.87
591.35	472.79
591.51	402.57
591.67	416.62
591.83	458.74
591.99	372.15
592.15	447.04
592.31	458.74
592.46	423.64
592.62	409.59
592.78	468.11
592.94	416.62
593.10	425.98
593.26	348.74
593.41	456.40
593.57	458.74
593.73	428.32
593.89	428.32
594.05	353.42
594.20	383.85
594.36	465.77
594.52	379.17
594.68	386.19
594.84	409.59
594.99	414.27
595.15	421.30
595.31	425.98
595.47	423.64
595.62	407.25
595.78	365.12
595.94	442.36
596.10	423.64
596.25	388.53
596.41	414.27
596.57	351.08
596.73	376.83
596.88	444.70
597.04	465.77
597.20	409.59
597.36	383.85
597.51	428.32
597.67	344.06
597.83	400.23
597.99	346.40
598.14	386.19
598.30	425.98
598.46	496.19
598.61	465.77
598.77	430.66
598.93	416.62
599.09	430.66
599.24	468.11
599.40	425.98
599.56	372.15
599.71	341.72
599.87	411.93
600.03	397.89
600.18	414.27
600.34	433.00
600.50	404.91
600.65	393.21
600.81	449.38
600.97	421.30
601.12	358.10
601.28	449.38
601.44	400.23
601.59	442.36
601.75	442.36
601.91	430.66
602.06	430.66
602.22	442.36
602.37	458.74
602.53	393.21
602.69	400.23
602.84	435.34
603.00	433.00
603.16	440.02
603.31	479.81
603.47	397.89
603.62	379.17
603.78	454.06
603.94	547.69
604.09	395.55
604.25	461.09
604.40	393.21
604.56	414.27
604.71	440.02
604.87	322.99
605.03	418.96
605.18	435.34
605.34	381.51
605.49	465.77
605.65	414.27
605.80	456.40
605.96	402.57
606.12	496.19
606.27	463.43
606.43	437.68
606.58	519.60
606.74	447.04
606.89	451.72
607.05	482.15
607.20	425.98
607.36	496.19
607.51	465.77
607.67	372.15
607.82	468.11
607.98	503.22
608.13	416.62
608.29	411.93
608.44	348.74
608.60	430.66
608.75	409.59
608.91	402.57
609.06	372.15
609.22	442.36
609.37	407.25
609.53	379.17
609.68	400.23
609.84	418.96
609.99	393.21
610.15	416.62
