SpectraSuite Data File
++++++++++++++++++++++++++++++++++++
Date: Fri Oct 25 12:11:02 EDT 2013
User: price-jones
Dark Spectrum Present: No
Reference Spectrum Present: No
Number of Sampled Component Spectra: 1
Spectrometers: USB2+H05261
Integration Time (usec): 100000 (USB2+H05261)
Spectra Averaged: 1 (USB2+H05261)
Boxcar Smoothing: 0 (USB2+H05261)
Correct for Electrical Dark: No (USB2+H05261)
Strobe/Lamp Enabled: No (USB2+H05261)
Correct for Detector Non-linearity: No (USB2+H05261)
Correct for Stray Light: No (USB2+H05261)
Number of Pixels in Processed Spectrum: 2048
>>>>>Begin Processed Spectral Data<<<<<
365.73	337.04
365.92	337.04
366.12	337.04
366.32	234.05
366.52	257.46
366.72	262.14
366.91	241.08
367.11	210.65
367.31	248.10
367.51	297.25
367.70	231.71
367.90	196.60
368.10	187.24
368.30	224.69
368.49	203.63
368.69	229.37
368.89	227.03
369.09	273.84
369.28	187.24
369.48	299.59
369.68	287.89
369.87	297.25
370.07	332.36
370.27	327.68
370.47	351.08
370.66	372.15
370.86	304.27
371.06	386.19
371.25	337.04
371.45	411.93
371.65	397.89
371.84	346.40
372.04	337.04
372.24	353.42
372.44	376.83
372.63	395.55
372.83	379.17
373.03	376.83
373.22	447.04
373.42	416.62
373.62	447.04
373.81	486.83
374.01	472.79
374.21	477.47
374.40	407.25
374.60	491.51
374.79	376.83
374.99	397.89
375.19	437.68
375.38	407.25
375.58	395.55
375.78	440.02
375.97	367.46
376.17	463.43
376.37	395.55
376.56	496.19
376.76	388.53
376.95	393.21
377.15	376.83
377.35	407.25
377.54	470.45
377.74	388.53
377.93	332.36
378.13	395.55
378.33	442.36
378.52	486.83
378.72	479.81
378.91	388.53
379.11	362.78
379.31	472.79
379.50	404.91
379.70	437.68
379.89	407.25
380.09	402.57
380.28	386.19
380.48	294.91
380.68	386.19
380.87	348.74
381.07	437.68
381.26	468.11
381.46	404.91
381.65	416.62
381.85	470.45
382.04	421.30
382.24	456.40
382.43	374.49
382.63	337.04
382.83	409.59
383.02	400.23
383.22	388.53
383.41	395.55
383.61	365.12
383.80	404.91
384.00	456.40
384.19	301.93
384.39	383.85
384.58	440.02
384.78	421.30
384.97	362.78
385.17	407.25
385.36	418.96
385.56	381.51
385.75	318.31
385.95	388.53
386.14	423.64
386.34	386.19
386.53	435.34
386.72	414.27
386.92	447.04
387.11	465.77
387.31	402.57
387.50	320.65
387.70	386.19
387.89	388.53
388.09	423.64
388.28	386.19
388.48	449.38
388.67	421.30
388.86	479.81
389.06	358.10
389.25	496.19
389.45	421.30
389.64	374.49
389.84	418.96
390.03	418.96
390.22	322.99
390.42	435.34
390.61	409.59
390.81	421.30
391.00	402.57
391.19	428.32
391.39	402.57
391.58	362.78
391.78	409.59
391.97	360.44
392.16	442.36
392.36	397.89
392.55	447.04
392.75	414.27
392.94	386.19
393.13	411.93
393.33	348.74
393.52	383.85
393.71	414.27
393.91	433.00
394.10	353.42
394.29	330.02
394.49	416.62
394.68	393.21
394.88	362.78
395.07	383.85
395.26	409.59
395.46	395.55
395.65	376.83
395.84	435.34
396.04	381.51
396.23	327.68
396.42	505.56
396.62	421.30
396.81	374.49
397.00	360.44
397.19	461.09
397.39	435.34
397.58	461.09
397.77	362.78
397.97	369.80
398.16	428.32
398.35	468.11
398.55	409.59
398.74	456.40
398.93	430.66
399.12	397.89
399.32	444.70
399.51	423.64
399.70	407.25
399.90	388.53
400.09	454.06
400.28	437.68
400.47	402.57
400.67	456.40
400.86	454.06
401.05	407.25
401.24	479.81
401.44	393.21
401.63	372.15
401.82	367.46
402.01	479.81
402.21	397.89
402.40	365.12
402.59	423.64
402.78	367.46
402.97	447.04
403.17	383.85
403.36	386.19
403.55	390.87
403.74	418.96
403.93	421.30
404.13	428.32
404.32	456.40
404.51	372.15
404.70	402.57
404.89	344.06
405.09	369.80
405.28	400.23
405.47	372.15
405.66	395.55
405.85	404.91
406.05	435.34
406.24	402.57
406.43	430.66
406.62	365.12
406.81	418.96
407.00	397.89
407.20	374.49
407.39	351.08
407.58	418.96
407.77	404.91
407.96	482.15
408.15	433.00
408.34	395.55
408.54	437.68
408.73	414.27
408.92	376.83
409.11	416.62
409.30	388.53
409.49	449.38
409.68	393.21
409.87	482.15
410.07	400.23
410.26	381.51
410.45	346.40
410.64	379.17
410.83	393.21
411.02	411.93
411.21	397.89
411.40	400.23
411.59	379.17
411.78	430.66
411.98	411.93
412.17	381.51
412.36	397.89
412.55	365.12
412.74	353.42
412.93	458.74
413.12	393.21
413.31	423.64
413.50	449.38
413.69	435.34
413.88	416.62
414.07	397.89
414.26	409.59
414.45	365.12
414.64	409.59
414.83	360.44
415.02	442.36
415.22	414.27
415.41	402.57
415.60	386.19
415.79	337.04
415.98	369.80
416.17	344.06
416.36	404.91
416.55	348.74
416.74	449.38
416.93	484.49
417.12	414.27
417.31	435.34
417.50	386.19
417.69	395.55
417.88	376.83
418.07	433.00
418.26	444.70
418.45	311.29
418.64	493.85
418.83	332.36
419.02	442.36
419.21	414.27
419.39	519.60
419.58	400.23
419.77	369.80
419.96	482.15
420.15	430.66
420.34	433.00
420.53	425.98
420.72	433.00
420.91	376.83
421.10	437.68
421.29	475.13
421.48	416.62
421.67	402.57
421.86	411.93
422.05	388.53
422.24	397.89
422.43	444.70
422.61	421.30
422.80	402.57
422.99	449.38
423.18	404.91
423.37	402.57
423.56	409.59
423.75	418.96
423.94	425.98
424.13	381.51
424.32	404.91
424.50	423.64
424.69	423.64
424.88	402.57
425.07	390.87
425.26	447.04
425.45	418.96
425.64	351.08
425.83	388.53
426.01	442.36
426.20	404.91
426.39	433.00
426.58	411.93
426.77	400.23
426.96	442.36
427.15	376.83
427.33	451.72
427.52	381.51
427.71	365.12
427.90	381.51
428.09	404.91
428.28	421.30
428.46	430.66
428.65	402.57
428.84	376.83
429.03	491.51
429.22	404.91
429.40	447.04
429.59	285.55
429.78	444.70
429.97	388.53
430.16	468.11
430.34	461.09
430.53	407.25
430.72	388.53
430.91	411.93
431.10	435.34
431.28	435.34
431.47	442.36
431.66	428.32
431.85	397.89
432.03	433.00
432.22	524.28
432.41	400.23
432.60	454.06
432.79	470.45
432.97	414.27
433.16	404.91
433.35	402.57
433.54	407.25
433.72	414.27
433.91	360.44
434.10	440.02
434.28	388.53
434.47	418.96
434.66	442.36
434.85	379.17
435.03	409.59
435.22	454.06
435.41	472.79
435.59	475.13
435.78	402.57
435.97	397.89
436.16	379.17
436.34	447.04
436.53	456.40
436.72	451.72
436.90	367.46
437.09	379.17
437.28	383.85
437.46	442.36
437.65	433.00
437.84	395.55
438.02	416.62
438.21	379.17
438.40	395.55
438.58	341.72
438.77	402.57
438.96	411.93
439.14	367.46
439.33	395.55
439.52	433.00
439.70	421.30
439.89	404.91
440.08	379.17
440.26	351.08
440.45	435.34
440.63	421.30
440.82	318.31
441.01	362.78
441.19	451.72
441.38	379.17
441.57	395.55
441.75	407.25
441.94	428.32
442.12	416.62
442.31	449.38
442.50	411.93
442.68	468.11
442.87	456.40
443.05	437.68
443.24	414.27
443.43	423.64
443.61	404.91
443.80	404.91
443.98	332.36
444.17	362.78
444.35	400.23
444.54	447.04
444.73	489.17
444.91	428.32
445.10	386.19
445.28	423.64
445.47	388.53
445.65	379.17
445.84	337.04
446.02	416.62
446.21	365.12
446.39	358.10
446.58	411.93
446.77	444.70
446.95	376.83
447.14	374.49
447.32	451.72
447.51	421.30
447.69	393.21
447.88	433.00
448.06	496.19
448.25	402.57
448.43	482.15
448.62	470.45
448.80	388.53
448.99	372.15
449.17	374.49
449.36	388.53
449.54	423.64
449.73	358.10
449.91	472.79
450.10	437.68
450.28	458.74
450.46	397.89
450.65	442.36
450.83	463.43
451.02	386.19
451.20	409.59
451.39	416.62
451.57	407.25
451.76	425.98
451.94	407.25
452.13	409.59
452.31	451.72
452.49	414.27
452.68	365.12
452.86	365.12
453.05	475.13
453.23	381.51
453.42	393.21
453.60	458.74
453.78	416.62
453.97	416.62
454.15	435.34
454.34	447.04
454.52	458.74
454.70	472.79
454.89	409.59
455.07	430.66
455.26	369.80
455.44	421.30
455.62	425.98
455.81	437.68
455.99	418.96
456.17	430.66
456.36	416.62
456.54	393.21
456.73	447.04
456.91	423.64
457.09	521.94
457.28	486.83
457.46	414.27
457.64	451.72
457.83	400.23
458.01	407.25
458.19	402.57
458.38	454.06
458.56	416.62
458.74	374.49
458.93	407.25
459.11	369.80
459.29	400.23
459.48	383.85
459.66	442.36
459.84	489.17
460.03	552.37
460.21	435.34
460.39	358.10
460.57	449.38
460.76	400.23
460.94	381.51
461.12	418.96
461.31	433.00
461.49	414.27
461.67	400.23
461.85	437.68
462.04	416.62
462.22	816.85
462.40	386.19
462.59	397.89
462.77	393.21
462.95	383.85
463.13	400.23
463.32	442.36
463.50	428.32
463.68	489.17
463.86	393.21
464.05	425.98
464.23	468.11
464.41	468.11
464.59	374.49
464.78	447.04
464.96	414.27
465.14	416.62
465.32	379.17
465.50	383.85
465.69	388.53
465.87	425.98
466.05	411.93
466.23	404.91
466.41	397.89
466.60	461.09
466.78	376.83
466.96	479.81
467.14	477.47
467.32	369.80
467.51	402.57
467.69	400.23
467.87	437.68
468.05	444.70
468.23	468.11
468.41	404.91
468.60	362.78
468.78	416.62
468.96	395.55
469.14	437.68
469.32	421.30
469.50	383.85
469.69	421.30
469.87	337.04
470.05	458.74
470.23	411.93
470.41	458.74
470.59	418.96
470.77	374.49
470.95	383.85
471.14	397.89
471.32	461.09
471.50	374.49
471.68	402.57
471.86	428.32
472.04	388.53
472.22	435.34
472.40	407.25
472.58	386.19
472.77	372.15
472.95	404.91
473.13	442.36
473.31	454.06
473.49	355.76
473.67	393.21
473.85	421.30
474.03	390.87
474.21	433.00
474.39	404.91
474.57	381.51
474.75	390.87
474.93	360.44
475.12	409.59
475.30	379.17
475.48	402.57
475.66	425.98
475.84	386.19
476.02	442.36
476.20	355.76
476.38	402.57
476.56	395.55
476.74	430.66
476.92	461.09
477.10	390.87
477.28	451.72
477.46	374.49
477.64	351.08
477.82	461.09
478.00	402.57
478.18	454.06
478.36	372.15
478.54	397.89
478.72	435.34
478.90	442.36
479.08	404.91
479.26	451.72
479.44	379.17
479.62	386.19
479.80	407.25
479.98	447.04
480.16	376.83
480.34	458.74
480.52	393.21
480.70	435.34
480.88	393.21
481.06	435.34
481.24	416.62
481.41	451.72
481.59	454.06
481.77	433.00
481.95	400.23
482.13	402.57
482.31	388.53
482.49	409.59
482.67	461.09
482.85	505.56
483.03	348.74
483.21	341.72
483.39	395.55
483.57	402.57
483.74	421.30
483.92	416.62
484.10	433.00
484.28	369.80
484.46	390.87
484.64	479.81
484.82	418.96
485.00	301.93
485.18	386.19
485.35	400.23
485.53	428.32
485.71	425.98
485.89	397.89
486.07	418.96
486.25	456.40
486.43	447.04
486.61	435.34
486.78	374.49
486.96	395.55
487.14	369.80
487.32	404.91
487.50	360.44
487.68	400.23
487.85	428.32
488.03	463.43
488.21	451.72
488.39	365.12
488.57	423.64
488.75	330.02
488.92	561.73
489.10	416.62
489.28	454.06
489.46	414.27
489.64	400.23
489.81	402.57
489.99	428.32
490.17	444.70
490.35	477.47
490.53	393.21
490.70	407.25
490.88	468.11
491.06	397.89
491.24	416.62
491.41	416.62
491.59	388.53
491.77	409.59
491.95	397.89
492.13	411.93
492.30	348.74
492.48	358.10
492.66	334.70
492.84	444.70
493.01	423.64
493.19	337.04
493.37	475.13
493.54	395.55
493.72	428.32
493.90	423.64
494.08	315.97
494.25	416.62
494.43	425.98
494.61	383.85
494.79	402.57
494.96	334.70
495.14	435.34
495.32	367.46
495.49	416.62
495.67	416.62
495.85	365.12
496.02	322.99
496.20	400.23
496.38	407.25
496.55	461.09
496.73	418.96
496.91	388.53
497.09	402.57
497.26	330.02
497.44	423.64
497.62	416.62
497.79	442.36
497.97	397.89
498.14	437.68
498.32	425.98
498.50	449.38
498.67	442.36
498.85	465.77
499.03	470.45
499.20	397.89
499.38	395.55
499.56	435.34
499.73	475.13
499.91	430.66
500.08	470.45
500.26	383.85
500.44	404.91
500.61	433.00
500.79	404.91
500.97	449.38
501.14	409.59
501.32	421.30
501.49	395.55
501.67	383.85
501.84	414.27
502.02	390.87
502.20	451.72
502.37	397.89
502.55	418.96
502.72	435.34
502.90	416.62
503.07	379.17
503.25	505.56
503.43	458.74
503.60	465.77
503.78	400.23
503.95	411.93
504.13	381.51
504.30	353.42
504.48	449.38
504.65	390.87
504.83	505.56
505.01	297.25
505.18	440.02
505.36	423.64
505.53	451.72
505.71	409.59
505.88	425.98
506.06	447.04
506.23	374.49
506.41	390.87
506.58	404.91
506.76	472.79
506.93	477.47
507.11	430.66
507.28	411.93
507.46	425.98
507.63	395.55
507.81	470.45
507.98	479.81
508.16	493.85
508.33	367.46
508.50	433.00
508.68	461.09
508.85	435.34
509.03	404.91
509.20	411.93
509.38	414.27
509.55	430.66
509.73	503.22
509.90	447.04
510.08	322.99
510.25	414.27
510.42	372.15
510.60	402.57
510.77	458.74
510.95	505.56
511.12	409.59
511.30	447.04
511.47	477.47
511.64	454.06
511.82	458.74
511.99	421.30
512.17	376.83
512.34	425.98
512.51	400.23
512.69	458.74
512.86	454.06
513.04	393.21
513.21	425.98
513.38	407.25
513.56	388.53
513.73	393.21
513.90	421.30
514.08	360.44
514.25	369.80
514.43	365.12
514.60	351.08
514.77	411.93
514.95	390.87
515.12	416.62
515.29	376.83
515.47	390.87
515.64	369.80
515.81	393.21
515.99	379.17
516.16	472.79
516.33	423.64
516.51	407.25
516.68	400.23
516.85	407.25
517.03	418.96
517.20	454.06
517.37	456.40
517.54	425.98
517.72	381.51
517.89	386.19
518.06	414.27
518.24	503.22
518.41	435.34
518.58	360.44
518.75	414.27
518.93	411.93
519.10	442.36
519.27	458.74
519.45	381.51
519.62	425.98
519.79	404.91
519.96	447.04
520.14	454.06
520.31	400.23
520.48	353.42
520.65	414.27
520.83	379.17
521.00	430.66
521.17	390.87
521.34	397.89
521.52	444.70
521.69	362.78
521.86	397.89
522.03	437.68
522.20	461.09
522.38	421.30
522.55	489.17
522.72	402.57
522.89	463.43
523.07	456.40
523.24	365.12
523.41	451.72
523.58	327.68
523.75	346.40
523.92	428.32
524.10	395.55
524.27	409.59
524.44	423.64
524.61	461.09
524.78	409.59
524.96	468.11
525.13	400.23
525.30	482.15
525.47	414.27
525.64	423.64
525.81	409.59
525.98	411.93
526.16	381.51
526.33	395.55
526.50	477.47
526.67	458.74
526.84	397.89
527.01	404.91
527.18	376.83
527.36	367.46
527.53	358.10
527.70	447.04
527.87	430.66
528.04	400.23
528.21	397.89
528.38	421.30
528.55	505.56
528.72	437.68
528.89	442.36
529.07	404.91
529.24	454.06
529.41	463.43
529.58	491.51
529.75	402.57
529.92	379.17
530.09	433.00
530.26	447.04
530.43	440.02
530.60	433.00
530.77	440.02
530.94	437.68
531.11	435.34
531.28	414.27
531.46	440.02
531.63	407.25
531.80	404.91
531.97	360.44
532.14	454.06
532.31	393.21
532.48	407.25
532.65	376.83
532.82	395.55
532.99	425.98
533.16	470.45
533.33	451.72
533.50	440.02
533.67	393.21
533.84	409.59
534.01	383.85
534.18	421.30
534.35	341.72
534.52	430.66
534.69	484.49
534.86	435.34
535.03	418.96
535.20	454.06
535.37	449.38
535.54	397.89
535.71	376.83
535.88	437.68
536.05	374.49
536.22	423.64
536.38	421.30
536.55	411.93
536.72	524.28
536.89	423.64
537.06	372.15
537.23	402.57
537.40	418.96
537.57	379.17
537.74	472.79
537.91	409.59
538.08	400.23
538.25	440.02
538.42	449.38
538.59	437.68
538.75	388.53
538.92	407.25
539.09	423.64
539.26	418.96
539.43	465.77
539.60	414.27
539.77	477.47
539.94	482.15
540.11	421.30
540.28	418.96
540.44	346.40
540.61	425.98
540.78	393.21
540.95	393.21
541.12	514.92
541.29	526.62
541.46	461.09
541.62	421.30
541.79	416.62
541.96	381.51
542.13	369.80
542.30	451.72
542.47	374.49
542.63	454.06
542.80	475.13
542.97	437.68
543.14	447.04
543.31	383.85
543.48	470.45
543.64	440.02
543.81	407.25
543.98	372.15
544.15	461.09
544.32	383.85
544.48	372.15
544.65	367.46
544.82	381.51
544.99	451.72
545.16	400.23
545.32	430.66
545.49	416.62
545.66	339.38
545.83	440.02
546.00	369.80
546.16	372.15
546.33	346.40
546.50	407.25
546.67	395.55
546.83	374.49
547.00	430.66
547.17	484.49
547.34	374.49
547.50	372.15
547.67	388.53
547.84	374.49
548.00	461.09
548.17	425.98
548.34	404.91
548.51	484.49
548.67	416.62
548.84	444.70
549.01	407.25
549.18	421.30
549.34	437.68
549.51	468.11
549.68	491.51
549.84	414.27
550.01	411.93
550.18	404.91
550.34	407.25
550.51	435.34
550.68	559.39
550.84	372.15
551.01	421.30
551.18	500.87
551.34	381.51
551.51	416.62
551.68	442.36
551.84	440.02
552.01	409.59
552.18	411.93
552.34	388.53
552.51	402.57
552.68	416.62
552.84	451.72
553.01	376.83
553.18	496.19
553.34	362.78
553.51	351.08
553.67	423.64
553.84	423.64
554.01	353.42
554.17	421.30
554.34	395.55
554.51	454.06
554.67	402.57
554.84	444.70
555.00	339.38
555.17	411.93
555.33	414.27
555.50	435.34
555.67	479.81
555.83	397.89
556.00	402.57
556.16	510.24
556.33	400.23
556.50	414.27
556.66	425.98
556.83	447.04
556.99	423.64
557.16	414.27
557.32	433.00
557.49	365.12
557.65	383.85
557.82	407.25
557.98	341.72
558.15	414.27
558.32	444.70
558.48	411.93
558.65	475.13
558.81	489.17
558.98	456.40
559.14	386.19
559.31	433.00
559.47	430.66
559.64	454.06
559.80	458.74
559.97	400.23
560.13	454.06
560.30	374.49
560.46	395.55
560.63	374.49
560.79	514.92
560.96	475.13
561.12	444.70
561.29	454.06
561.45	449.38
561.61	386.19
561.78	528.96
561.94	325.33
562.11	407.25
562.27	386.19
562.44	386.19
562.60	414.27
562.77	447.04
562.93	472.79
563.10	400.23
563.26	447.04
563.42	418.96
563.59	409.59
563.75	376.83
563.92	390.87
564.08	411.93
564.24	470.45
564.41	449.38
564.57	390.87
564.74	463.43
564.90	376.83
565.07	435.34
565.23	475.13
565.39	430.66
565.56	456.40
565.72	353.42
565.88	423.64
566.05	344.06
566.21	379.17
566.38	421.30
566.54	409.59
566.70	400.23
566.87	442.36
567.03	407.25
567.19	397.89
567.36	451.72
567.52	468.11
567.68	421.30
567.85	433.00
568.01	416.62
568.17	379.17
568.34	358.10
568.50	416.62
568.66	430.66
568.83	423.64
568.99	435.34
569.15	397.89
569.32	400.23
569.48	505.56
569.64	404.91
569.81	395.55
569.97	376.83
570.13	411.93
570.30	379.17
570.46	484.49
570.62	411.93
570.78	404.91
570.95	411.93
571.11	430.66
571.27	425.98
571.43	315.97
571.60	367.46
571.76	379.17
571.92	390.87
572.09	425.98
572.25	416.62
572.41	430.66
572.57	395.55
572.74	430.66
572.90	477.47
573.06	381.51
573.22	507.90
573.38	425.98
573.55	365.12
573.71	472.79
573.87	449.38
574.03	402.57
574.20	402.57
574.36	463.43
574.52	395.55
574.68	390.87
574.84	444.70
575.01	360.44
575.17	437.68
575.33	493.85
575.49	428.32
575.65	414.27
575.82	402.57
575.98	489.17
576.14	430.66
576.30	402.57
576.46	442.36
576.62	418.96
576.79	381.51
576.95	430.66
577.11	507.90
577.27	409.59
577.43	454.06
577.59	482.15
577.75	461.09
577.92	306.61
578.08	386.19
578.24	451.72
578.40	468.11
578.56	402.57
578.72	355.76
578.88	367.46
579.04	414.27
579.21	421.30
579.37	397.89
579.53	393.21
579.69	458.74
579.85	395.55
580.01	390.87
580.17	407.25
580.33	503.22
580.49	381.51
580.65	381.51
580.82	365.12
580.98	500.87
581.14	400.23
581.30	451.72
581.46	416.62
581.62	498.53
581.78	411.93
581.94	437.68
582.10	435.34
582.26	400.23
582.42	372.15
582.58	372.15
582.74	421.30
582.90	407.25
583.06	383.85
583.22	411.93
583.38	383.85
583.54	381.51
583.70	470.45
583.86	362.78
584.02	456.40
584.18	465.77
584.34	376.83
584.50	383.85
584.66	437.68
584.82	360.44
584.98	418.96
585.14	491.51
585.30	430.66
585.46	376.83
585.62	435.34
585.78	456.40
585.94	346.40
586.10	479.81
586.26	430.66
586.42	409.59
586.58	395.55
586.74	468.11
586.90	388.53
587.06	475.13
587.22	461.09
587.38	428.32
587.54	451.72
587.70	463.43
587.86	475.13
588.02	386.19
588.18	430.66
588.34	383.85
588.49	404.91
588.65	418.96
588.81	428.32
588.97	430.66
589.13	395.55
589.29	430.66
589.45	444.70
589.61	402.57
589.77	418.96
589.93	397.89
590.08	404.91
590.24	344.06
590.40	433.00
590.56	428.32
590.72	400.23
590.88	353.42
591.04	409.59
591.20	365.12
591.35	440.02
591.51	470.45
591.67	360.44
591.83	407.25
591.99	409.59
592.15	437.68
592.31	482.15
592.46	395.55
592.62	425.98
592.78	437.68
592.94	358.10
593.10	376.83
593.26	411.93
593.41	425.98
593.57	428.32
593.73	404.91
593.89	348.74
594.05	463.43
594.20	475.13
594.36	461.09
594.52	470.45
594.68	390.87
594.84	472.79
594.99	479.81
595.15	468.11
595.31	416.62
595.47	433.00
595.62	402.57
595.78	416.62
595.94	372.15
596.10	418.96
596.25	421.30
596.41	521.94
596.57	397.89
596.73	444.70
596.88	395.55
597.04	330.02
597.20	400.23
597.36	421.30
597.51	376.83
597.67	404.91
597.83	369.80
597.99	440.02
598.14	468.11
598.30	393.21
598.46	423.64
598.61	463.43
598.77	451.72
598.93	440.02
599.09	437.68
599.24	386.19
599.40	395.55
599.56	425.98
599.71	477.47
599.87	416.62
600.03	444.70
600.18	428.32
600.34	388.53
600.50	379.17
600.65	430.66
600.81	458.74
600.97	479.81
601.12	379.17
601.28	470.45
601.44	461.09
601.59	411.93
601.75	390.87
601.91	465.77
602.06	404.91
602.22	444.70
602.37	454.06
602.53	440.02
602.69	470.45
602.84	456.40
603.00	358.10
603.16	407.25
603.31	444.70
603.47	437.68
603.62	407.25
603.78	463.43
603.94	449.38
604.09	463.43
604.25	390.87
604.40	397.89
604.56	468.11
604.71	437.68
604.87	402.57
605.03	463.43
605.18	355.76
605.34	451.72
605.49	383.85
605.65	411.93
605.80	351.08
605.96	428.32
606.12	400.23
606.27	482.15
606.43	435.34
606.58	388.53
606.74	386.19
606.89	404.91
607.05	388.53
607.20	444.70
607.36	430.66
607.51	435.34
607.67	376.83
607.82	463.43
607.98	486.83
608.13	451.72
608.29	456.40
608.44	430.66
608.60	433.00
608.75	449.38
608.91	435.34
609.06	409.59
609.22	444.70
609.37	404.91
609.53	447.04
609.68	477.47
609.84	400.23
609.99	414.27
610.15	416.62
