SpectraSuite Data File
++++++++++++++++++++++++++++++++++++
Date: Fri Oct 25 12:10:39 EDT 2013
User: price-jones
Dark Spectrum Present: No
Reference Spectrum Present: No
Number of Sampled Component Spectra: 1
Spectrometers: USB2+H05261
Integration Time (usec): 100000 (USB2+H05261)
Spectra Averaged: 1 (USB2+H05261)
Boxcar Smoothing: 0 (USB2+H05261)
Correct for Electrical Dark: No (USB2+H05261)
Strobe/Lamp Enabled: No (USB2+H05261)
Correct for Detector Non-linearity: No (USB2+H05261)
Correct for Stray Light: No (USB2+H05261)
Number of Pixels in Processed Spectrum: 2048
>>>>>Begin Processed Spectral Data<<<<<
365.73	255.12
365.92	255.12
366.12	255.12
366.32	262.14
366.52	231.71
366.72	255.12
366.91	257.46
367.11	243.42
367.31	220.01
367.51	238.73
367.70	229.37
367.90	273.84
368.10	257.46
368.30	203.63
368.49	257.46
368.69	175.54
368.89	250.44
369.09	315.97
369.28	269.16
369.48	266.82
369.68	351.08
369.87	311.29
370.07	255.12
370.27	346.40
370.47	348.74
370.66	330.02
370.86	353.42
371.06	411.93
371.25	365.12
371.45	320.65
371.65	365.12
371.84	400.23
372.04	402.57
372.24	479.81
372.44	458.74
372.63	404.91
372.83	407.25
373.03	365.12
373.22	418.96
373.42	381.51
373.62	376.83
373.81	390.87
374.01	355.76
374.21	409.59
374.40	407.25
374.60	421.30
374.79	418.96
374.99	414.27
375.19	397.89
375.38	454.06
375.58	360.44
375.78	519.60
375.97	440.02
376.17	477.47
376.37	369.80
376.56	437.68
376.76	367.46
376.95	425.98
377.15	372.15
377.35	418.96
377.54	388.53
377.74	353.42
377.93	437.68
378.13	397.89
378.33	421.30
378.52	376.83
378.72	418.96
378.91	456.40
379.11	404.91
379.31	358.10
379.50	447.04
379.70	423.64
379.89	444.70
380.09	390.87
380.28	369.80
380.48	400.23
380.68	362.78
380.87	411.93
381.07	386.19
381.26	334.70
381.46	465.77
381.65	341.72
381.85	379.17
382.04	482.15
382.24	414.27
382.43	437.68
382.63	365.12
382.83	325.33
383.02	379.17
383.22	463.43
383.41	397.89
383.61	395.55
383.80	444.70
384.00	404.91
384.19	451.72
384.39	337.04
384.58	330.02
384.78	327.68
384.97	369.80
385.17	355.76
385.36	346.40
385.56	447.04
385.75	416.62
385.95	414.27
386.14	393.21
386.34	395.55
386.53	489.17
386.72	430.66
386.92	414.27
387.11	456.40
387.31	374.49
387.50	404.91
387.70	414.27
387.89	409.59
388.09	402.57
388.28	383.85
388.48	353.42
388.67	400.23
388.86	414.27
389.06	416.62
389.25	423.64
389.45	379.17
389.64	360.44
389.84	374.49
390.03	451.72
390.22	337.04
390.42	414.27
390.61	414.27
390.81	362.78
391.00	393.21
391.19	348.74
391.39	440.02
391.58	437.68
391.78	437.68
391.97	430.66
392.16	390.87
392.36	454.06
392.55	365.12
392.75	418.96
392.94	369.80
393.13	440.02
393.33	393.21
393.52	437.68
393.71	414.27
393.91	444.70
394.10	421.30
394.29	437.68
394.49	428.32
394.68	351.08
394.88	444.70
395.07	402.57
395.26	433.00
395.46	400.23
395.65	428.32
395.84	437.68
396.04	435.34
396.23	383.85
396.42	360.44
396.62	425.98
396.81	390.87
397.00	358.10
397.19	400.23
397.39	379.17
397.58	411.93
397.77	507.90
397.97	430.66
398.16	386.19
398.35	479.81
398.55	379.17
398.74	386.19
398.93	388.53
399.12	451.72
399.32	428.32
399.51	407.25
399.70	400.23
399.90	416.62
400.09	397.89
400.28	355.76
400.47	376.83
400.67	386.19
400.86	442.36
401.05	397.89
401.24	348.74
401.44	365.12
401.63	437.68
401.82	393.21
402.01	381.51
402.21	423.64
402.40	395.55
402.59	442.36
402.78	437.68
402.97	334.70
403.17	388.53
403.36	407.25
403.55	393.21
403.74	400.23
403.93	353.42
404.13	348.74
404.32	409.59
404.51	383.85
404.70	402.57
404.89	414.27
405.09	489.17
405.28	430.66
405.47	367.46
405.66	454.06
405.85	395.55
406.05	393.21
406.24	430.66
406.43	444.70
406.62	425.98
406.81	451.72
407.00	456.40
407.20	433.00
407.39	435.34
407.58	360.44
407.77	367.46
407.96	414.27
408.15	411.93
408.34	447.04
408.54	393.21
408.73	451.72
408.92	437.68
409.11	444.70
409.30	374.49
409.49	360.44
409.68	388.53
409.87	372.15
410.07	362.78
410.26	397.89
410.45	411.93
410.64	379.17
410.83	383.85
411.02	360.44
411.21	318.31
411.40	423.64
411.59	362.78
411.78	414.27
411.98	442.36
412.17	367.46
412.36	376.83
412.55	421.30
412.74	421.30
412.93	409.59
413.12	411.93
413.31	442.36
413.50	428.32
413.69	393.21
413.88	484.49
414.07	390.87
414.26	341.72
414.45	407.25
414.64	449.38
414.83	395.55
415.02	365.12
415.22	414.27
415.41	383.85
415.60	369.80
415.79	486.83
415.98	355.76
416.17	374.49
416.36	449.38
416.55	358.10
416.74	440.02
416.93	383.85
417.12	428.32
417.31	344.06
417.50	411.93
417.69	397.89
417.88	489.17
418.07	395.55
418.26	454.06
418.45	374.49
418.64	404.91
418.83	440.02
419.02	425.98
419.21	416.62
419.39	409.59
419.58	395.55
419.77	402.57
419.96	365.12
420.15	465.77
420.34	479.81
420.53	437.68
420.72	465.77
420.91	404.91
421.10	416.62
421.29	493.85
421.48	461.09
421.67	421.30
421.86	386.19
422.05	428.32
422.24	374.49
422.43	477.47
422.61	411.93
422.80	348.74
422.99	322.99
423.18	416.62
423.37	447.04
423.56	465.77
423.75	383.85
423.94	428.32
424.13	418.96
424.32	379.17
424.50	393.21
424.69	346.40
424.88	486.83
425.07	425.98
425.26	477.47
425.45	449.38
425.64	402.57
425.83	346.40
426.01	461.09
426.20	369.80
426.39	388.53
426.58	416.62
426.77	428.32
426.96	433.00
427.15	348.74
427.33	402.57
427.52	409.59
427.71	327.68
427.90	430.66
428.09	390.87
428.28	339.38
428.46	479.81
428.65	334.70
428.84	416.62
429.03	393.21
429.22	344.06
429.40	421.30
429.59	454.06
429.78	411.93
429.97	383.85
430.16	477.47
430.34	386.19
430.53	397.89
430.72	411.93
430.91	390.87
431.10	458.74
431.28	404.91
431.47	444.70
431.66	458.74
431.85	425.98
432.03	447.04
432.22	484.49
432.41	435.34
432.60	496.19
432.79	360.44
432.97	440.02
433.16	449.38
433.35	409.59
433.54	411.93
433.72	428.32
433.91	395.55
434.10	362.78
434.28	411.93
434.47	386.19
434.66	402.57
434.85	395.55
435.03	341.72
435.22	470.45
435.41	355.76
435.59	390.87
435.78	379.17
435.97	449.38
436.16	465.77
436.34	407.25
436.53	379.17
436.72	400.23
436.90	395.55
437.09	421.30
437.28	425.98
437.46	381.51
437.65	484.49
437.84	411.93
438.02	449.38
438.21	416.62
438.40	411.93
438.58	428.32
438.77	444.70
438.96	414.27
439.14	400.23
439.33	435.34
439.52	388.53
439.70	362.78
439.89	416.62
440.08	407.25
440.26	374.49
440.45	463.43
440.63	395.55
440.82	397.89
441.01	477.47
441.19	442.36
441.38	433.00
441.57	330.02
441.75	468.11
441.94	423.64
442.12	479.81
442.31	365.12
442.50	344.06
442.68	400.23
442.87	409.59
443.05	376.83
443.24	355.76
443.43	428.32
443.61	388.53
443.80	423.64
443.98	449.38
444.17	454.06
444.35	423.64
444.54	386.19
444.73	376.83
444.91	428.32
445.10	407.25
445.28	351.08
445.47	388.53
445.65	411.93
445.84	430.66
446.02	386.19
446.21	433.00
446.39	423.64
446.58	355.76
446.77	421.30
446.95	397.89
447.14	365.12
447.32	332.36
447.51	456.40
447.69	440.02
447.88	451.72
448.06	395.55
448.25	458.74
448.43	372.15
448.62	428.32
448.80	365.12
448.99	414.27
449.17	411.93
449.36	393.21
449.54	386.19
449.73	416.62
449.91	425.98
450.10	437.68
450.28	470.45
450.46	472.79
450.65	465.77
450.83	454.06
451.02	430.66
451.20	383.85
451.39	496.19
451.57	369.80
451.76	388.53
451.94	449.38
452.13	456.40
452.31	454.06
452.49	425.98
452.68	362.78
452.86	280.86
453.05	407.25
453.23	451.72
453.42	400.23
453.60	383.85
453.78	369.80
453.97	381.51
454.15	442.36
454.34	393.21
454.52	451.72
454.70	425.98
454.89	423.64
455.07	440.02
455.26	414.27
455.44	365.12
455.62	369.80
455.81	404.91
455.99	510.24
456.17	416.62
456.36	486.83
456.54	414.27
456.73	407.25
456.91	393.21
457.09	355.76
457.28	444.70
457.46	447.04
457.64	393.21
457.83	381.51
458.01	374.49
458.19	510.24
458.38	322.99
458.56	425.98
458.74	390.87
458.93	351.08
459.11	393.21
459.29	404.91
459.48	451.72
459.66	433.00
459.84	451.72
460.03	447.04
460.21	390.87
460.39	393.21
460.57	383.85
460.76	376.83
460.94	397.89
461.12	416.62
461.31	428.32
461.49	372.15
461.67	423.64
461.85	381.51
462.04	388.53
462.22	777.06
462.40	425.98
462.59	430.66
462.77	390.87
462.95	444.70
463.13	318.31
463.32	407.25
463.50	395.55
463.68	341.72
463.86	435.34
464.05	440.02
464.23	414.27
464.41	447.04
464.59	383.85
464.78	369.80
464.96	456.40
465.14	425.98
465.32	402.57
465.50	433.00
465.69	444.70
465.87	437.68
466.05	393.21
466.23	470.45
466.41	430.66
466.60	390.87
466.78	435.34
466.96	367.46
467.14	393.21
467.32	416.62
467.51	400.23
467.69	404.91
467.87	358.10
468.05	430.66
468.23	444.70
468.41	444.70
468.60	437.68
468.78	440.02
468.96	430.66
469.14	433.00
469.32	393.21
469.50	402.57
469.69	430.66
469.87	390.87
470.05	362.78
470.23	376.83
470.41	442.36
470.59	325.33
470.77	397.89
470.95	491.51
471.14	386.19
471.32	367.46
471.50	416.62
471.68	486.83
471.86	451.72
472.04	416.62
472.22	376.83
472.40	369.80
472.58	435.34
472.77	395.55
472.95	451.72
473.13	386.19
473.31	486.83
473.49	451.72
473.67	397.89
473.85	416.62
474.03	428.32
474.21	393.21
474.39	463.43
474.57	437.68
474.75	475.13
474.93	388.53
475.12	428.32
475.30	442.36
475.48	418.96
475.66	390.87
475.84	421.30
476.02	437.68
476.20	440.02
476.38	428.32
476.56	503.22
476.74	449.38
476.92	374.49
477.10	411.93
477.28	423.64
477.46	463.43
477.64	484.49
477.82	304.27
478.00	369.80
478.18	341.72
478.36	367.46
478.54	411.93
478.72	433.00
478.90	400.23
479.08	414.27
479.26	500.87
479.44	397.89
479.62	428.32
479.80	411.93
479.98	425.98
480.16	395.55
480.34	423.64
480.52	447.04
480.70	444.70
480.88	376.83
481.06	437.68
481.24	423.64
481.41	423.64
481.59	461.09
481.77	463.43
481.95	404.91
482.13	414.27
482.31	442.36
482.49	430.66
482.67	400.23
482.85	449.38
483.03	395.55
483.21	327.68
483.39	388.53
483.57	351.08
483.74	388.53
483.92	423.64
484.10	393.21
484.28	482.15
484.46	491.51
484.64	404.91
484.82	390.87
485.00	461.09
485.18	369.80
485.35	428.32
485.53	503.22
485.71	465.77
485.89	327.68
486.07	477.47
486.25	397.89
486.43	404.91
486.61	437.68
486.78	425.98
486.96	348.74
487.14	386.19
487.32	402.57
487.50	491.51
487.68	456.40
487.85	369.80
488.03	416.62
488.21	383.85
488.39	400.23
488.57	442.36
488.75	454.06
488.92	505.56
489.10	435.34
489.28	444.70
489.46	428.32
489.64	444.70
489.81	407.25
489.99	430.66
490.17	393.21
490.35	437.68
490.53	447.04
490.70	348.74
490.88	369.80
491.06	393.21
491.24	428.32
491.41	409.59
491.59	376.83
491.77	374.49
491.95	468.11
492.13	390.87
492.30	376.83
492.48	421.30
492.66	381.51
492.84	376.83
493.01	456.40
493.19	395.55
493.37	444.70
493.54	545.34
493.72	404.91
493.90	397.89
494.08	421.30
494.25	395.55
494.43	496.19
494.61	440.02
494.79	418.96
494.96	397.89
495.14	421.30
495.32	442.36
495.49	428.32
495.67	404.91
495.85	404.91
496.02	351.08
496.20	379.17
496.38	339.38
496.55	418.96
496.73	409.59
496.91	376.83
497.09	395.55
497.26	479.81
497.44	404.91
497.62	367.46
497.79	390.87
497.97	411.93
498.14	428.32
498.32	388.53
498.50	402.57
498.67	400.23
498.85	360.44
499.03	489.17
499.20	435.34
499.38	472.79
499.56	486.83
499.73	489.17
499.91	383.85
500.08	447.04
500.26	425.98
500.44	379.17
500.61	369.80
500.79	390.87
500.97	414.27
501.14	437.68
501.32	440.02
501.49	411.93
501.67	430.66
501.84	362.78
502.02	407.25
502.20	404.91
502.37	463.43
502.55	330.02
502.72	440.02
502.90	496.19
503.07	442.36
503.25	409.59
503.43	437.68
503.60	407.25
503.78	428.32
503.95	402.57
504.13	414.27
504.30	454.06
504.48	283.20
504.65	435.34
504.83	393.21
505.01	409.59
505.18	325.33
505.36	390.87
505.53	381.51
505.71	402.57
505.88	428.32
506.06	325.33
506.23	404.91
506.41	379.17
506.58	463.43
506.76	411.93
506.93	416.62
507.11	395.55
507.28	465.77
507.46	308.95
507.63	383.85
507.81	390.87
507.98	397.89
508.16	388.53
508.33	430.66
508.50	369.80
508.68	367.46
508.85	379.17
509.03	416.62
509.20	454.06
509.38	435.34
509.55	465.77
509.73	388.53
509.90	404.91
510.08	397.89
510.25	400.23
510.42	407.25
510.60	400.23
510.77	433.00
510.95	418.96
511.12	402.57
511.30	442.36
511.47	447.04
511.64	402.57
511.82	416.62
511.99	344.06
512.17	351.08
512.34	437.68
512.51	351.08
512.69	355.76
512.86	444.70
513.04	430.66
513.21	374.49
513.38	390.87
513.56	421.30
513.73	416.62
513.90	409.59
514.08	353.42
514.25	491.51
514.43	421.30
514.60	353.42
514.77	449.38
514.95	447.04
515.12	400.23
515.29	376.83
515.47	346.40
515.64	409.59
515.81	437.68
515.99	437.68
516.16	447.04
516.33	416.62
516.51	393.21
516.68	418.96
516.85	442.36
517.03	482.15
517.20	369.80
517.37	386.19
517.54	430.66
517.72	393.21
517.89	320.65
518.06	435.34
518.24	428.32
518.41	437.68
518.58	365.12
518.75	362.78
518.93	395.55
519.10	400.23
519.27	404.91
519.45	383.85
519.62	393.21
519.79	374.49
519.96	451.72
520.14	402.57
520.31	477.47
520.48	409.59
520.65	313.63
520.83	421.30
521.00	409.59
521.17	372.15
521.34	423.64
521.52	442.36
521.69	421.30
521.86	454.06
522.03	416.62
522.20	479.81
522.38	430.66
522.55	386.19
522.72	423.64
522.89	442.36
523.07	521.94
523.24	372.15
523.41	472.79
523.58	402.57
523.75	367.46
523.92	421.30
524.10	362.78
524.27	423.64
524.44	381.51
524.61	437.68
524.78	344.06
524.96	447.04
525.13	374.49
525.30	407.25
525.47	418.96
525.64	416.62
525.81	449.38
525.98	470.45
526.16	355.76
526.33	430.66
526.50	346.40
526.67	374.49
526.84	374.49
527.01	381.51
527.18	423.64
527.36	421.30
527.53	456.40
527.70	379.17
527.87	411.93
528.04	381.51
528.21	409.59
528.38	353.42
528.55	407.25
528.72	351.08
528.89	425.98
529.07	390.87
529.24	383.85
529.41	372.15
529.58	402.57
529.75	407.25
529.92	388.53
530.09	444.70
530.26	360.44
530.43	416.62
530.60	409.59
530.77	393.21
530.94	327.68
531.11	393.21
531.28	425.98
531.46	407.25
531.63	428.32
531.80	463.43
531.97	393.21
532.14	339.38
532.31	437.68
532.48	470.45
532.65	451.72
532.82	449.38
532.99	390.87
533.16	390.87
533.33	416.62
533.50	400.23
533.67	407.25
533.84	395.55
534.01	409.59
534.18	433.00
534.35	407.25
534.52	379.17
534.69	425.98
534.86	521.94
535.03	386.19
535.20	395.55
535.37	482.15
535.54	461.09
535.71	421.30
535.88	472.79
536.05	365.12
536.22	425.98
536.38	362.78
536.55	430.66
536.72	348.74
536.89	461.09
537.06	491.51
537.23	390.87
537.40	416.62
537.57	379.17
537.74	463.43
537.91	454.06
538.08	409.59
538.25	458.74
538.42	444.70
538.59	379.17
538.75	367.46
538.92	400.23
539.09	409.59
539.26	365.12
539.43	442.36
539.60	433.00
539.77	397.89
539.94	425.98
540.11	397.89
540.28	451.72
540.44	433.00
540.61	411.93
540.78	402.57
540.95	421.30
541.12	423.64
541.29	388.53
541.46	510.24
541.62	447.04
541.79	393.21
541.96	418.96
542.13	355.76
542.30	397.89
542.47	383.85
542.63	437.68
542.80	444.70
542.97	451.72
543.14	400.23
543.31	418.96
543.48	477.47
543.64	409.59
543.81	407.25
543.98	374.49
544.15	454.06
544.32	477.47
544.48	435.34
544.65	362.78
544.82	400.23
544.99	461.09
545.16	472.79
545.32	404.91
545.49	409.59
545.66	355.76
545.83	465.77
546.00	339.38
546.16	418.96
546.33	414.27
546.50	433.00
546.67	362.78
546.83	374.49
547.00	383.85
547.17	393.21
547.34	388.53
547.50	433.00
547.67	414.27
547.84	395.55
548.00	456.40
548.17	372.15
548.34	458.74
548.51	451.72
548.67	418.96
548.84	444.70
549.01	442.36
549.18	411.93
549.34	451.72
549.51	372.15
549.68	482.15
549.84	407.25
550.01	428.32
550.18	470.45
550.34	449.38
550.51	407.25
550.68	421.30
550.84	386.19
551.01	416.62
551.18	496.19
551.34	472.79
551.51	433.00
551.68	351.08
551.84	465.77
552.01	393.21
552.18	423.64
552.34	330.02
552.51	454.06
552.68	393.21
552.84	416.62
553.01	416.62
553.18	421.30
553.34	423.64
553.51	400.23
553.67	430.66
553.84	390.87
554.01	425.98
554.17	386.19
554.34	383.85
554.51	393.21
554.67	491.51
554.84	484.49
555.00	486.83
555.17	425.98
555.33	395.55
555.50	428.32
555.67	475.13
555.83	477.47
556.00	454.06
556.16	519.60
556.33	503.22
556.50	400.23
556.66	449.38
556.83	447.04
556.99	451.72
557.16	442.36
557.32	383.85
557.49	355.76
557.65	414.27
557.82	496.19
557.98	409.59
558.15	355.76
558.32	409.59
558.48	411.93
558.65	430.66
558.81	404.91
558.98	390.87
559.14	393.21
559.31	437.68
559.47	416.62
559.64	477.47
559.80	418.96
559.97	388.53
560.13	444.70
560.30	383.85
560.46	421.30
560.63	458.74
560.79	372.15
560.96	421.30
561.12	447.04
561.29	468.11
561.45	468.11
561.61	433.00
561.78	484.49
561.94	358.10
562.11	451.72
562.27	397.89
562.44	430.66
562.60	393.21
562.77	369.80
562.93	503.22
563.10	400.23
563.26	369.80
563.42	365.12
563.59	444.70
563.75	428.32
563.92	374.49
564.08	484.49
564.24	411.93
564.41	500.87
564.57	456.40
564.74	411.93
564.90	491.51
565.07	468.11
565.23	428.32
565.39	407.25
565.56	430.66
565.72	390.87
565.88	390.87
566.05	414.27
566.21	423.64
566.38	376.83
566.54	386.19
566.70	472.79
566.87	475.13
567.03	395.55
567.19	381.51
567.36	369.80
567.52	416.62
567.68	421.30
567.85	456.40
568.01	407.25
568.17	421.30
568.34	339.38
568.50	383.85
568.66	393.21
568.83	393.21
568.99	421.30
569.15	435.34
569.32	472.79
569.48	454.06
569.64	421.30
569.81	395.55
569.97	379.17
570.13	353.42
570.30	407.25
570.46	402.57
570.62	407.25
570.78	428.32
570.95	435.34
571.11	493.85
571.27	386.19
571.43	397.89
571.60	433.00
571.76	449.38
571.92	465.77
572.09	414.27
572.25	386.19
572.41	372.15
572.57	430.66
572.74	440.02
572.90	479.81
573.06	423.64
573.22	440.02
573.38	442.36
573.55	442.36
573.71	421.30
573.87	395.55
574.03	433.00
574.20	395.55
574.36	414.27
574.52	414.27
574.68	435.34
574.84	421.30
575.01	383.85
575.17	383.85
575.33	421.30
575.49	425.98
575.65	428.32
575.82	365.12
575.98	390.87
576.14	374.49
576.30	365.12
576.46	414.27
576.62	381.51
576.79	449.38
576.95	468.11
577.11	435.34
577.27	461.09
577.43	442.36
577.59	456.40
577.75	414.27
577.92	423.64
578.08	358.10
578.24	409.59
578.40	463.43
578.56	461.09
578.72	531.30
578.88	451.72
579.04	402.57
579.21	440.02
579.37	411.93
579.53	402.57
579.69	437.68
579.85	379.17
580.01	416.62
580.17	470.45
580.33	461.09
580.49	444.70
580.65	423.64
580.82	374.49
580.98	397.89
581.14	400.23
581.30	423.64
581.46	435.34
581.62	416.62
581.78	440.02
581.94	376.83
582.10	369.80
582.26	383.85
582.42	409.59
582.58	383.85
582.74	543.00
582.90	461.09
583.06	381.51
583.22	416.62
583.38	468.11
583.54	397.89
583.70	454.06
583.86	430.66
584.02	423.64
584.18	451.72
584.34	374.49
584.50	433.00
584.66	386.19
584.82	344.06
584.98	348.74
585.14	402.57
585.30	451.72
585.46	416.62
585.62	421.30
585.78	496.19
585.94	486.83
586.10	451.72
586.26	442.36
586.42	447.04
586.58	407.25
586.74	386.19
586.90	374.49
587.06	388.53
587.22	379.17
587.38	402.57
587.54	421.30
587.70	421.30
587.86	409.59
588.02	379.17
588.18	402.57
588.34	463.43
588.49	390.87
588.65	472.79
588.81	456.40
588.97	367.46
589.13	461.09
589.29	379.17
589.45	404.91
589.61	465.77
589.77	362.78
589.93	484.49
590.08	425.98
590.24	383.85
590.40	423.64
590.56	477.47
590.72	423.64
590.88	414.27
591.04	440.02
591.20	362.78
591.35	440.02
591.51	411.93
591.67	386.19
591.83	465.77
591.99	433.00
592.15	489.17
592.31	381.51
592.46	423.64
592.62	430.66
592.78	430.66
592.94	454.06
593.10	393.21
593.26	428.32
593.41	451.72
593.57	468.11
593.73	428.32
593.89	402.57
594.05	435.34
594.20	365.12
594.36	418.96
594.52	428.32
594.68	440.02
594.84	449.38
594.99	435.34
595.15	468.11
595.31	409.59
595.47	369.80
595.62	416.62
595.78	418.96
595.94	428.32
596.10	411.93
596.25	430.66
596.41	425.98
596.57	341.72
596.73	433.00
596.88	400.23
597.04	411.93
597.20	402.57
597.36	456.40
597.51	393.21
597.67	425.98
597.83	393.21
597.99	414.27
598.14	386.19
598.30	454.06
598.46	393.21
598.61	454.06
598.77	381.51
598.93	451.72
599.09	367.46
599.24	416.62
599.40	409.59
599.56	388.53
599.71	358.10
599.87	430.66
600.03	379.17
600.18	404.91
600.34	449.38
600.50	414.27
600.65	454.06
600.81	418.96
600.97	374.49
601.12	435.34
601.28	381.51
601.44	381.51
601.59	330.02
601.75	402.57
601.91	381.51
602.06	430.66
602.22	418.96
602.37	386.19
602.53	407.25
602.69	376.83
602.84	355.76
603.00	404.91
603.16	444.70
603.31	411.93
603.47	386.19
603.62	442.36
603.78	475.13
603.94	353.42
604.09	369.80
604.25	418.96
604.40	414.27
604.56	447.04
604.71	395.55
604.87	456.40
605.03	472.79
605.18	411.93
605.34	421.30
605.49	411.93
605.65	409.59
605.80	421.30
605.96	397.89
606.12	458.74
606.27	442.36
606.43	449.38
606.58	444.70
606.74	381.51
606.89	421.30
607.05	496.19
607.20	355.76
607.36	393.21
607.51	393.21
607.67	421.30
607.82	547.69
607.98	388.53
608.13	454.06
608.29	451.72
608.44	475.13
608.60	344.06
608.75	491.51
608.91	461.09
609.06	444.70
609.22	475.13
609.37	395.55
609.53	418.96
609.68	418.96
609.84	386.19
609.99	355.76
610.15	456.40
