SpectraSuite Data File
++++++++++++++++++++++++++++++++++++
Date: Fri Oct 25 12:10:52 EDT 2013
User: price-jones
Dark Spectrum Present: No
Reference Spectrum Present: No
Number of Sampled Component Spectra: 1
Spectrometers: USB2+H05261
Integration Time (usec): 100000 (USB2+H05261)
Spectra Averaged: 1 (USB2+H05261)
Boxcar Smoothing: 0 (USB2+H05261)
Correct for Electrical Dark: No (USB2+H05261)
Strobe/Lamp Enabled: No (USB2+H05261)
Correct for Detector Non-linearity: No (USB2+H05261)
Correct for Stray Light: No (USB2+H05261)
Number of Pixels in Processed Spectrum: 2048
>>>>>Begin Processed Spectral Data<<<<<
365.73	315.97
365.92	315.97
366.12	315.97
366.32	248.10
366.52	278.52
366.72	264.48
366.91	217.67
367.11	198.95
367.31	231.71
367.51	248.10
367.70	287.89
367.90	222.35
368.10	170.86
368.30	245.76
368.49	245.76
368.69	227.03
368.89	245.76
369.09	180.22
369.28	273.84
369.48	245.76
369.68	287.89
369.87	255.12
370.07	283.20
370.27	306.61
370.47	301.93
370.66	311.29
370.86	353.42
371.06	407.25
371.25	442.36
371.45	388.53
371.65	430.66
371.84	344.06
372.04	348.74
372.24	390.87
372.44	404.91
372.63	362.78
372.83	395.55
373.03	423.64
373.22	430.66
373.42	404.91
373.62	367.46
373.81	318.31
374.01	477.47
374.21	498.53
374.40	369.80
374.60	468.11
374.79	360.44
374.99	397.89
375.19	348.74
375.38	430.66
375.58	400.23
375.78	447.04
375.97	409.59
376.17	461.09
376.37	465.77
376.56	341.72
376.76	383.85
376.95	334.70
377.15	390.87
377.35	388.53
377.54	388.53
377.74	393.21
377.93	430.66
378.13	463.43
378.33	402.57
378.52	409.59
378.72	404.91
378.91	477.47
379.11	397.89
379.31	334.70
379.50	355.76
379.70	393.21
379.89	388.53
380.09	416.62
380.28	308.95
380.48	400.23
380.68	435.34
380.87	362.78
381.07	362.78
381.26	404.91
381.46	358.10
381.65	411.93
381.85	383.85
382.04	355.76
382.24	465.77
382.43	428.32
382.63	414.27
382.83	395.55
383.02	397.89
383.22	440.02
383.41	435.34
383.61	465.77
383.80	362.78
384.00	428.32
384.19	421.30
384.39	386.19
384.58	365.12
384.78	437.68
384.97	390.87
385.17	395.55
385.36	416.62
385.56	414.27
385.75	351.08
385.95	421.30
386.14	332.36
386.34	442.36
386.53	416.62
386.72	400.23
386.92	390.87
387.11	383.85
387.31	407.25
387.50	388.53
387.70	409.59
387.89	428.32
388.09	402.57
388.28	435.34
388.48	407.25
388.67	463.43
388.86	400.23
389.06	411.93
389.25	379.17
389.45	435.34
389.64	362.78
389.84	381.51
390.03	407.25
390.22	379.17
390.42	379.17
390.61	407.25
390.81	372.15
391.00	400.23
391.19	407.25
391.39	409.59
391.58	397.89
391.78	435.34
391.97	362.78
392.16	409.59
392.36	390.87
392.55	425.98
392.75	423.64
392.94	346.40
393.13	369.80
393.33	435.34
393.52	351.08
393.71	465.77
393.91	456.40
394.10	402.57
394.29	437.68
394.49	379.17
394.68	388.53
394.88	482.15
395.07	395.55
395.26	369.80
395.46	339.38
395.65	390.87
395.84	369.80
396.04	444.70
396.23	444.70
396.42	353.42
396.62	433.00
396.81	442.36
397.00	379.17
397.19	449.38
397.39	472.79
397.58	416.62
397.77	362.78
397.97	454.06
398.16	390.87
398.35	397.89
398.55	454.06
398.74	404.91
398.93	409.59
399.12	348.74
399.32	442.36
399.51	421.30
399.70	475.13
399.90	365.12
400.09	355.76
400.28	411.93
400.47	280.86
400.67	397.89
400.86	355.76
401.05	430.66
401.24	388.53
401.44	447.04
401.63	442.36
401.82	416.62
402.01	327.68
402.21	423.64
402.40	442.36
402.59	468.11
402.78	416.62
402.97	428.32
403.17	360.44
403.36	353.42
403.55	313.63
403.74	308.95
403.93	458.74
404.13	435.34
404.32	409.59
404.51	390.87
404.70	423.64
404.89	402.57
405.09	402.57
405.28	388.53
405.47	425.98
405.66	402.57
405.85	376.83
406.05	409.59
406.24	440.02
406.43	454.06
406.62	397.89
406.81	468.11
407.00	435.34
407.20	379.17
407.39	423.64
407.58	353.42
407.77	383.85
407.96	388.53
408.15	454.06
408.34	381.51
408.54	374.49
408.73	381.51
408.92	393.21
409.11	430.66
409.30	379.17
409.49	390.87
409.68	411.93
409.87	430.66
410.07	418.96
410.26	393.21
410.45	372.15
410.64	358.10
410.83	369.80
411.02	362.78
411.21	418.96
411.40	404.91
411.59	411.93
411.78	407.25
411.98	447.04
412.17	369.80
412.36	374.49
412.55	498.53
412.74	428.32
412.93	435.34
413.12	430.66
413.31	435.34
413.50	475.13
413.69	423.64
413.88	423.64
414.07	404.91
414.26	435.34
414.45	379.17
414.64	421.30
414.83	425.98
415.02	381.51
415.22	428.32
415.41	393.21
415.60	379.17
415.79	409.59
415.98	430.66
416.17	393.21
416.36	376.83
416.55	461.09
416.74	418.96
416.93	400.23
417.12	383.85
417.31	447.04
417.50	479.81
417.69	393.21
417.88	386.19
418.07	449.38
418.26	393.21
418.45	402.57
418.64	430.66
418.83	411.93
419.02	489.17
419.21	407.25
419.39	346.40
419.58	416.62
419.77	397.89
419.96	402.57
420.15	470.45
420.34	409.59
420.53	489.17
420.72	440.02
420.91	458.74
421.10	388.53
421.29	425.98
421.48	388.53
421.67	407.25
421.86	376.83
422.05	383.85
422.24	454.06
422.43	437.68
422.61	386.19
422.80	372.15
422.99	409.59
423.18	451.72
423.37	479.81
423.56	411.93
423.75	409.59
423.94	383.85
424.13	390.87
424.32	379.17
424.50	414.27
424.69	362.78
424.88	376.83
425.07	423.64
425.26	397.89
425.45	463.43
425.64	367.46
425.83	381.51
426.01	451.72
426.20	360.44
426.39	425.98
426.58	351.08
426.77	386.19
426.96	418.96
427.15	369.80
427.33	339.38
427.52	435.34
427.71	416.62
427.90	425.98
428.09	428.32
428.28	374.49
428.46	390.87
428.65	411.93
428.84	428.32
429.03	496.19
429.22	376.83
429.40	465.77
429.59	402.57
429.78	372.15
429.97	407.25
430.16	379.17
430.34	449.38
430.53	437.68
430.72	428.32
430.91	465.77
431.10	353.42
431.28	400.23
431.47	374.49
431.66	395.55
431.85	425.98
432.03	393.21
432.22	414.27
432.41	365.12
432.60	414.27
432.79	367.46
432.97	463.43
433.16	428.32
433.35	409.59
433.54	362.78
433.72	388.53
433.91	409.59
434.10	442.36
434.28	461.09
434.47	402.57
434.66	423.64
434.85	402.57
435.03	465.77
435.22	444.70
435.41	428.32
435.59	442.36
435.78	430.66
435.97	348.74
436.16	414.27
436.34	379.17
436.53	451.72
436.72	379.17
436.90	362.78
437.09	421.30
437.28	390.87
437.46	416.62
437.65	414.27
437.84	430.66
438.02	433.00
438.21	430.66
438.40	376.83
438.58	388.53
438.77	367.46
438.96	388.53
439.14	414.27
439.33	437.68
439.52	421.30
439.70	421.30
439.89	442.36
440.08	400.23
440.26	388.53
440.45	442.36
440.63	421.30
440.82	388.53
441.01	344.06
441.19	332.36
441.38	358.10
441.57	421.30
441.75	379.17
441.94	315.97
442.12	433.00
442.31	465.77
442.50	451.72
442.68	369.80
442.87	423.64
443.05	383.85
443.24	400.23
443.43	444.70
443.61	440.02
443.80	404.91
443.98	428.32
444.17	475.13
444.35	421.30
444.54	353.42
444.73	379.17
444.91	430.66
445.10	447.04
445.28	421.30
445.47	433.00
445.65	390.87
445.84	386.19
446.02	503.22
446.21	374.49
446.39	367.46
446.58	395.55
446.77	416.62
446.95	454.06
447.14	435.34
447.32	421.30
447.51	489.17
447.69	458.74
447.88	444.70
448.06	428.32
448.25	435.34
448.43	442.36
448.62	330.02
448.80	468.11
448.99	379.17
449.17	425.98
449.36	411.93
449.54	411.93
449.73	433.00
449.91	358.10
450.10	414.27
450.28	498.53
450.46	393.21
450.65	395.55
450.83	393.21
451.02	383.85
451.20	411.93
451.39	376.83
451.57	393.21
451.76	433.00
451.94	442.36
452.13	440.02
452.31	369.80
452.49	428.32
452.68	451.72
452.86	421.30
453.05	479.81
453.23	416.62
453.42	440.02
453.60	423.64
453.78	454.06
453.97	444.70
454.15	430.66
454.34	449.38
454.52	400.23
454.70	402.57
454.89	447.04
455.07	444.70
455.26	461.09
455.44	505.56
455.62	404.91
455.81	435.34
455.99	433.00
456.17	430.66
456.36	400.23
456.54	414.27
456.73	433.00
456.91	421.30
457.09	472.79
457.28	383.85
457.46	430.66
457.64	449.38
457.83	451.72
458.01	416.62
458.19	409.59
458.38	400.23
458.56	409.59
458.74	318.31
458.93	449.38
459.11	458.74
459.29	454.06
459.48	423.64
459.66	390.87
459.84	470.45
460.03	510.24
460.21	482.15
460.39	416.62
460.57	379.17
460.76	414.27
460.94	393.21
461.12	479.81
461.31	421.30
461.49	433.00
461.67	454.06
461.85	416.62
462.04	404.91
462.22	779.40
462.40	395.55
462.59	376.83
462.77	411.93
462.95	421.30
463.13	388.53
463.32	414.27
463.50	414.27
463.68	416.62
463.86	418.96
464.05	430.66
464.23	388.53
464.41	440.02
464.59	337.04
464.78	430.66
464.96	386.19
465.14	418.96
465.32	381.51
465.50	411.93
465.69	402.57
465.87	388.53
466.05	454.06
466.23	458.74
466.41	407.25
466.60	437.68
466.78	456.40
466.96	428.32
467.14	402.57
467.32	440.02
467.51	376.83
467.69	355.76
467.87	414.27
468.05	407.25
468.23	437.68
468.41	416.62
468.60	458.74
468.78	407.25
468.96	388.53
469.14	447.04
469.32	381.51
469.50	428.32
469.69	451.72
469.87	416.62
470.05	390.87
470.23	454.06
470.41	472.79
470.59	409.59
470.77	346.40
470.95	388.53
471.14	435.34
471.32	414.27
471.50	454.06
471.68	407.25
471.86	400.23
472.04	402.57
472.22	430.66
472.40	369.80
472.58	397.89
472.77	383.85
472.95	407.25
473.13	477.47
473.31	498.53
473.49	421.30
473.67	411.93
473.85	442.36
474.03	367.46
474.21	440.02
474.39	397.89
474.57	442.36
474.75	393.21
474.93	440.02
475.12	486.83
475.30	397.89
475.48	341.72
475.66	355.76
475.84	393.21
476.02	458.74
476.20	517.26
476.38	433.00
476.56	444.70
476.74	421.30
476.92	472.79
477.10	421.30
477.28	421.30
477.46	355.76
477.64	475.13
477.82	390.87
478.00	381.51
478.18	428.32
478.36	486.83
478.54	407.25
478.72	454.06
478.90	428.32
479.08	409.59
479.26	400.23
479.44	425.98
479.62	416.62
479.80	400.23
479.98	411.93
480.16	390.87
480.34	421.30
480.52	397.89
480.70	465.77
480.88	330.02
481.06	379.17
481.24	428.32
481.41	423.64
481.59	407.25
481.77	348.74
481.95	461.09
482.13	418.96
482.31	404.91
482.49	332.36
482.67	402.57
482.85	379.17
483.03	458.74
483.21	451.72
483.39	416.62
483.57	381.51
483.74	505.56
483.92	402.57
484.10	393.21
484.28	451.72
484.46	451.72
484.64	435.34
484.82	465.77
485.00	414.27
485.18	346.40
485.35	397.89
485.53	444.70
485.71	397.89
485.89	294.91
486.07	421.30
486.25	374.49
486.43	437.68
486.61	355.76
486.78	461.09
486.96	365.12
487.14	397.89
487.32	365.12
487.50	425.98
487.68	472.79
487.85	465.77
488.03	390.87
488.21	486.83
488.39	411.93
488.57	470.45
488.75	458.74
488.92	458.74
489.10	425.98
489.28	421.30
489.46	402.57
489.64	430.66
489.81	437.68
489.99	489.17
490.17	383.85
490.35	496.19
490.53	379.17
490.70	395.55
490.88	367.46
491.06	362.78
491.24	367.46
491.41	463.43
491.59	414.27
491.77	402.57
491.95	433.00
492.13	381.51
492.30	285.55
492.48	440.02
492.66	425.98
492.84	468.11
493.01	423.64
493.19	451.72
493.37	451.72
493.54	379.17
493.72	404.91
493.90	468.11
494.08	437.68
494.25	409.59
494.43	484.49
494.61	430.66
494.79	425.98
494.96	414.27
495.14	496.19
495.32	461.09
495.49	348.74
495.67	409.59
495.85	358.10
496.02	456.40
496.20	428.32
496.38	407.25
496.55	430.66
496.73	374.49
496.91	461.09
497.09	477.47
497.26	451.72
497.44	461.09
497.62	397.89
497.79	381.51
497.97	348.74
498.14	376.83
498.32	416.62
498.50	404.91
498.67	386.19
498.85	400.23
499.03	351.08
499.20	407.25
499.38	484.49
499.56	425.98
499.73	479.81
499.91	423.64
500.08	468.11
500.26	430.66
500.44	409.59
500.61	341.72
500.79	379.17
500.97	472.79
501.14	365.12
501.32	447.04
501.49	475.13
501.67	407.25
501.84	416.62
502.02	442.36
502.20	425.98
502.37	449.38
502.55	428.32
502.72	362.78
502.90	465.77
503.07	435.34
503.25	428.32
503.43	369.80
503.60	404.91
503.78	381.51
503.95	395.55
504.13	416.62
504.30	393.21
504.48	472.79
504.65	435.34
504.83	461.09
505.01	449.38
505.18	369.80
505.36	358.10
505.53	353.42
505.71	425.98
505.88	456.40
506.06	477.47
506.23	393.21
506.41	386.19
506.58	461.09
506.76	421.30
506.93	425.98
507.11	386.19
507.28	451.72
507.46	463.43
507.63	458.74
507.81	400.23
507.98	440.02
508.16	449.38
508.33	423.64
508.50	447.04
508.68	428.32
508.85	433.00
509.03	416.62
509.20	388.53
509.38	372.15
509.55	463.43
509.73	425.98
509.90	402.57
510.08	437.68
510.25	454.06
510.42	447.04
510.60	388.53
510.77	433.00
510.95	407.25
511.12	362.78
511.30	414.27
511.47	447.04
511.64	447.04
511.82	463.43
511.99	442.36
512.17	400.23
512.34	418.96
512.51	440.02
512.69	334.70
512.86	358.10
513.04	442.36
513.21	379.17
513.38	479.81
513.56	418.96
513.73	390.87
513.90	458.74
514.08	442.36
514.25	482.15
514.43	461.09
514.60	409.59
514.77	447.04
514.95	355.76
515.12	379.17
515.29	440.02
515.47	458.74
515.64	397.89
515.81	388.53
515.99	489.17
516.16	397.89
516.33	458.74
516.51	421.30
516.68	421.30
516.85	374.49
517.03	411.93
517.20	458.74
517.37	430.66
517.54	433.00
517.72	444.70
517.89	444.70
518.06	362.78
518.24	454.06
518.41	435.34
518.58	463.43
518.75	430.66
518.93	433.00
519.10	337.04
519.27	390.87
519.45	411.93
519.62	437.68
519.79	407.25
519.96	414.27
520.14	409.59
520.31	409.59
520.48	365.12
520.65	442.36
520.83	416.62
521.00	390.87
521.17	372.15
521.34	355.76
521.52	458.74
521.69	402.57
521.86	362.78
522.03	395.55
522.20	463.43
522.38	428.32
522.55	411.93
522.72	395.55
522.89	454.06
523.07	470.45
523.24	425.98
523.41	358.10
523.58	409.59
523.75	479.81
523.92	404.91
524.10	383.85
524.27	393.21
524.44	482.15
524.61	470.45
524.78	383.85
524.96	393.21
525.13	425.98
525.30	435.34
525.47	404.91
525.64	430.66
525.81	458.74
525.98	449.38
526.16	470.45
526.33	376.83
526.50	404.91
526.67	374.49
526.84	440.02
527.01	400.23
527.18	332.36
527.36	404.91
527.53	381.51
527.70	379.17
527.87	451.72
528.04	449.38
528.21	447.04
528.38	418.96
528.55	463.43
528.72	470.45
528.89	456.40
529.07	400.23
529.24	414.27
529.41	489.17
529.58	313.63
529.75	458.74
529.92	449.38
530.09	411.93
530.26	421.30
530.43	442.36
530.60	425.98
530.77	430.66
530.94	437.68
531.11	472.79
531.28	358.10
531.46	433.00
531.63	414.27
531.80	451.72
531.97	491.51
532.14	386.19
532.31	334.70
532.48	409.59
532.65	365.12
532.82	407.25
532.99	395.55
533.16	397.89
533.33	411.93
533.50	411.93
533.67	451.72
533.84	404.91
534.01	390.87
534.18	390.87
534.35	397.89
534.52	414.27
534.69	435.34
534.86	440.02
535.03	440.02
535.20	449.38
535.37	430.66
535.54	400.23
535.71	414.27
535.88	440.02
536.05	461.09
536.22	369.80
536.38	433.00
536.55	414.27
536.72	428.32
536.89	383.85
537.06	475.13
537.23	381.51
537.40	437.68
537.57	381.51
537.74	444.70
537.91	428.32
538.08	411.93
538.25	360.44
538.42	402.57
538.59	301.93
538.75	447.04
538.92	428.32
539.09	449.38
539.26	402.57
539.43	421.30
539.60	449.38
539.77	461.09
539.94	470.45
540.11	421.30
540.28	421.30
540.44	463.43
540.61	472.79
540.78	528.96
540.95	428.32
541.12	440.02
541.29	447.04
541.46	423.64
541.62	376.83
541.79	451.72
541.96	332.36
542.13	423.64
542.30	388.53
542.47	479.81
542.63	456.40
542.80	440.02
542.97	433.00
543.14	416.62
543.31	362.78
543.48	365.12
543.64	454.06
543.81	383.85
543.98	358.10
544.15	442.36
544.32	395.55
544.48	411.93
544.65	400.23
544.82	402.57
544.99	430.66
545.16	390.87
545.32	390.87
545.49	451.72
545.66	414.27
545.83	390.87
546.00	407.25
546.16	400.23
546.33	322.99
546.50	451.72
546.67	379.17
546.83	472.79
547.00	451.72
547.17	376.83
547.34	346.40
547.50	435.34
547.67	433.00
547.84	395.55
548.00	353.42
548.17	381.51
548.34	442.36
548.51	416.62
548.67	428.32
548.84	489.17
549.01	470.45
549.18	416.62
549.34	411.93
549.51	400.23
549.68	383.85
549.84	409.59
550.01	360.44
550.18	463.43
550.34	498.53
550.51	395.55
550.68	404.91
550.84	367.46
551.01	393.21
551.18	386.19
551.34	360.44
551.51	358.10
551.68	475.13
551.84	433.00
552.01	395.55
552.18	407.25
552.34	493.85
552.51	369.80
552.68	463.43
552.84	447.04
553.01	451.72
553.18	402.57
553.34	404.91
553.51	421.30
553.67	421.30
553.84	407.25
554.01	411.93
554.17	421.30
554.34	463.43
554.51	423.64
554.67	458.74
554.84	423.64
555.00	381.51
555.17	379.17
555.33	400.23
555.50	442.36
555.67	458.74
555.83	409.59
556.00	402.57
556.16	552.37
556.33	447.04
556.50	369.80
556.66	395.55
556.83	411.93
556.99	404.91
557.16	465.77
557.32	440.02
557.49	379.17
557.65	393.21
557.82	402.57
557.98	390.87
558.15	376.83
558.32	395.55
558.48	409.59
558.65	369.80
558.81	393.21
558.98	383.85
559.14	374.49
559.31	435.34
559.47	449.38
559.64	475.13
559.80	409.59
559.97	449.38
560.13	482.15
560.30	407.25
560.46	376.83
560.63	358.10
560.79	395.55
560.96	376.83
561.12	339.38
561.29	458.74
561.45	409.59
561.61	437.68
561.78	465.77
561.94	477.47
562.11	430.66
562.27	402.57
562.44	454.06
562.60	390.87
562.77	393.21
562.93	489.17
563.10	456.40
563.26	397.89
563.42	376.83
563.59	416.62
563.75	430.66
563.92	465.77
564.08	423.64
564.24	468.11
564.41	425.98
564.57	416.62
564.74	444.70
564.90	425.98
565.07	423.64
565.23	470.45
565.39	376.83
565.56	442.36
565.72	388.53
565.88	451.72
566.05	458.74
566.21	411.93
566.38	418.96
566.54	369.80
566.70	411.93
566.87	437.68
567.03	374.49
567.19	418.96
567.36	451.72
567.52	374.49
567.68	416.62
567.85	472.79
568.01	428.32
568.17	290.23
568.34	379.17
568.50	472.79
568.66	374.49
568.83	461.09
568.99	376.83
569.15	437.68
569.32	430.66
569.48	379.17
569.64	477.47
569.81	400.23
569.97	395.55
570.13	360.44
570.30	397.89
570.46	390.87
570.62	451.72
570.78	435.34
570.95	435.34
571.11	442.36
571.27	454.06
571.43	372.15
571.60	411.93
571.76	376.83
571.92	351.08
572.09	393.21
572.25	348.74
572.41	381.51
572.57	379.17
572.74	428.32
572.90	414.27
573.06	325.33
573.22	444.70
573.38	425.98
573.55	447.04
573.71	491.51
573.87	344.06
574.03	421.30
574.20	433.00
574.36	521.94
574.52	456.40
574.68	353.42
574.84	449.38
575.01	390.87
575.17	440.02
575.33	447.04
575.49	428.32
575.65	388.53
575.82	477.47
575.98	447.04
576.14	468.11
576.30	402.57
576.46	407.25
576.62	388.53
576.79	383.85
576.95	440.02
577.11	407.25
577.27	425.98
577.43	447.04
577.59	477.47
577.75	400.23
577.92	397.89
578.08	416.62
578.24	454.06
578.40	409.59
578.56	402.57
578.72	411.93
578.88	395.55
579.04	442.36
579.21	416.62
579.37	416.62
579.53	362.78
579.69	414.27
579.85	402.57
580.01	374.49
580.17	423.64
580.33	433.00
580.49	388.53
580.65	360.44
580.82	397.89
580.98	425.98
581.14	407.25
581.30	475.13
581.46	423.64
581.62	365.12
581.78	454.06
581.94	430.66
582.10	372.15
582.26	402.57
582.42	418.96
582.58	454.06
582.74	416.62
582.90	411.93
583.06	442.36
583.22	367.46
583.38	365.12
583.54	400.23
583.70	440.02
583.86	461.09
584.02	423.64
584.18	416.62
584.34	397.89
584.50	411.93
584.66	454.06
584.82	369.80
584.98	458.74
585.14	400.23
585.30	449.38
585.46	390.87
585.62	379.17
585.78	423.64
585.94	411.93
586.10	365.12
586.26	404.91
586.42	428.32
586.58	369.80
586.74	407.25
586.90	421.30
587.06	458.74
587.22	456.40
587.38	376.83
587.54	491.51
587.70	454.06
587.86	369.80
588.02	428.32
588.18	428.32
588.34	435.34
588.49	407.25
588.65	456.40
588.81	437.68
588.97	388.53
589.13	362.78
589.29	430.66
589.45	437.68
589.61	418.96
589.77	442.36
589.93	428.32
590.08	505.56
590.24	414.27
590.40	416.62
590.56	374.49
590.72	383.85
590.88	390.87
591.04	409.59
591.20	454.06
591.35	442.36
591.51	468.11
591.67	414.27
591.83	402.57
591.99	365.12
592.15	381.51
592.31	435.34
592.46	355.76
592.62	421.30
592.78	484.49
592.94	472.79
593.10	407.25
593.26	414.27
593.41	386.19
593.57	409.59
593.73	376.83
593.89	421.30
594.05	397.89
594.20	390.87
594.36	500.87
594.52	425.98
594.68	353.42
594.84	444.70
594.99	433.00
595.15	442.36
595.31	362.78
595.47	390.87
595.62	498.53
595.78	376.83
595.94	449.38
596.10	465.77
596.25	416.62
596.41	442.36
596.57	418.96
596.73	402.57
596.88	440.02
597.04	440.02
597.20	444.70
597.36	472.79
597.51	433.00
597.67	404.91
597.83	376.83
597.99	425.98
598.14	475.13
598.30	407.25
598.46	381.51
598.61	479.81
598.77	465.77
598.93	465.77
599.09	409.59
599.24	447.04
599.40	451.72
599.56	395.55
599.71	393.21
599.87	379.17
600.03	454.06
600.18	297.25
600.34	437.68
600.50	390.87
600.65	386.19
600.81	465.77
600.97	404.91
601.12	430.66
601.28	449.38
601.44	421.30
601.59	400.23
601.75	383.85
601.91	458.74
602.06	348.74
602.22	477.47
602.37	393.21
602.53	414.27
602.69	409.59
602.84	421.30
603.00	421.30
603.16	470.45
603.31	402.57
603.47	383.85
603.62	383.85
603.78	428.32
603.94	395.55
604.09	407.25
604.25	449.38
604.40	449.38
604.56	400.23
604.71	411.93
604.87	372.15
605.03	367.46
605.18	390.87
605.34	407.25
605.49	458.74
605.65	402.57
605.80	388.53
605.96	425.98
606.12	468.11
606.27	433.00
606.43	458.74
606.58	402.57
606.74	402.57
606.89	435.34
607.05	430.66
607.20	404.91
607.36	447.04
607.51	447.04
607.67	360.44
607.82	442.36
607.98	421.30
608.13	388.53
608.29	411.93
608.44	367.46
608.60	404.91
608.75	477.47
608.91	451.72
609.06	461.09
609.22	454.06
609.37	381.51
609.53	414.27
609.68	435.34
609.84	468.11
609.99	383.85
610.15	463.43
