SpectraSuite Data File
++++++++++++++++++++++++++++++++++++
Date: Fri Oct 25 12:10:34 EDT 2013
User: price-jones
Dark Spectrum Present: No
Reference Spectrum Present: No
Number of Sampled Component Spectra: 1
Spectrometers: USB2+H05261
Integration Time (usec): 100000 (USB2+H05261)
Spectra Averaged: 1 (USB2+H05261)
Boxcar Smoothing: 0 (USB2+H05261)
Correct for Electrical Dark: No (USB2+H05261)
Strobe/Lamp Enabled: No (USB2+H05261)
Correct for Detector Non-linearity: No (USB2+H05261)
Correct for Stray Light: No (USB2+H05261)
Number of Pixels in Processed Spectrum: 2048
>>>>>Begin Processed Spectral Data<<<<<
365.73	346.40
365.92	346.40
366.12	346.40
366.32	269.16
366.52	290.23
366.72	264.48
366.91	224.69
367.11	259.80
367.31	217.67
367.51	194.26
367.70	210.65
367.90	245.76
368.10	259.80
368.30	173.20
368.49	194.26
368.69	273.84
368.89	269.16
369.09	238.73
369.28	259.80
369.48	299.59
369.68	238.73
369.87	308.95
370.07	264.48
370.27	362.78
370.47	311.29
370.66	327.68
370.86	344.06
371.06	383.85
371.25	315.97
371.45	313.63
371.65	341.72
371.84	381.51
372.04	334.70
372.24	442.36
372.44	367.46
372.63	440.02
372.83	376.83
373.03	400.23
373.22	362.78
373.42	418.96
373.62	388.53
373.81	444.70
374.01	381.51
374.21	468.11
374.40	395.55
374.60	409.59
374.79	451.72
374.99	390.87
375.19	339.38
375.38	430.66
375.58	390.87
375.78	430.66
375.97	442.36
376.17	491.51
376.37	393.21
376.56	416.62
376.76	411.93
376.95	372.15
377.15	433.00
377.35	411.93
377.54	381.51
377.74	414.27
377.93	386.19
378.13	346.40
378.33	458.74
378.52	376.83
378.72	409.59
378.91	339.38
379.11	395.55
379.31	358.10
379.50	390.87
379.70	423.64
379.89	416.62
380.09	400.23
380.28	400.23
380.48	386.19
380.68	397.89
380.87	362.78
381.07	442.36
381.26	332.36
381.46	332.36
381.65	390.87
381.85	330.02
382.04	390.87
382.24	379.17
382.43	416.62
382.63	383.85
382.83	442.36
383.02	458.74
383.22	442.36
383.41	416.62
383.61	388.53
383.80	402.57
384.00	430.66
384.19	475.13
384.39	449.38
384.58	409.59
384.78	388.53
384.97	411.93
385.17	400.23
385.36	414.27
385.56	437.68
385.75	402.57
385.95	451.72
386.14	372.15
386.34	388.53
386.53	407.25
386.72	465.77
386.92	393.21
387.11	372.15
387.31	390.87
387.50	365.12
387.70	395.55
387.89	393.21
388.09	360.44
388.28	346.40
388.48	327.68
388.67	428.32
388.86	400.23
389.06	372.15
389.25	379.17
389.45	341.72
389.64	372.15
389.84	454.06
390.03	393.21
390.22	351.08
390.42	409.59
390.61	397.89
390.81	372.15
391.00	421.30
391.19	365.12
391.39	360.44
391.58	395.55
391.78	407.25
391.97	376.83
392.16	425.98
392.36	395.55
392.55	472.79
392.75	358.10
392.94	493.85
393.13	428.32
393.33	376.83
393.52	386.19
393.71	447.04
393.91	407.25
394.10	344.06
394.29	379.17
394.49	393.21
394.68	362.78
394.88	390.87
395.07	444.70
395.26	400.23
395.46	365.12
395.65	423.64
395.84	397.89
396.04	437.68
396.23	465.77
396.42	390.87
396.62	449.38
396.81	360.44
397.00	376.83
397.19	440.02
397.39	383.85
397.58	449.38
397.77	374.49
397.97	395.55
398.16	386.19
398.35	379.17
398.55	376.83
398.74	379.17
398.93	440.02
399.12	388.53
399.32	334.70
399.51	411.93
399.70	430.66
399.90	407.25
400.09	372.15
400.28	477.47
400.47	388.53
400.67	442.36
400.86	400.23
401.05	433.00
401.24	430.66
401.44	381.51
401.63	341.72
401.82	388.53
402.01	346.40
402.21	355.76
402.40	458.74
402.59	362.78
402.78	409.59
402.97	416.62
403.17	358.10
403.36	421.30
403.55	386.19
403.74	414.27
403.93	332.36
404.13	435.34
404.32	383.85
404.51	411.93
404.70	360.44
404.89	449.38
405.09	409.59
405.28	468.11
405.47	486.83
405.66	400.23
405.85	407.25
406.05	388.53
406.24	386.19
406.43	320.65
406.62	407.25
406.81	437.68
407.00	381.51
407.20	407.25
407.39	449.38
407.58	421.30
407.77	402.57
407.96	442.36
408.15	449.38
408.34	397.89
408.54	381.51
408.73	416.62
408.92	372.15
409.11	388.53
409.30	435.34
409.49	383.85
409.68	418.96
409.87	360.44
410.07	325.33
410.26	428.32
410.45	369.80
410.64	416.62
410.83	372.15
411.02	355.76
411.21	381.51
411.40	341.72
411.59	341.72
411.78	390.87
411.98	451.72
412.17	388.53
412.36	400.23
412.55	339.38
412.74	458.74
412.93	482.15
413.12	437.68
413.31	465.77
413.50	353.42
413.69	369.80
413.88	381.51
414.07	433.00
414.26	472.79
414.45	388.53
414.64	447.04
414.83	418.96
415.02	433.00
415.22	465.77
415.41	437.68
415.60	418.96
415.79	470.45
415.98	475.13
416.17	414.27
416.36	428.32
416.55	353.42
416.74	449.38
416.93	477.47
417.12	489.17
417.31	421.30
417.50	400.23
417.69	397.89
417.88	451.72
418.07	388.53
418.26	390.87
418.45	416.62
418.64	535.98
418.83	442.36
419.02	395.55
419.21	472.79
419.39	383.85
419.58	322.99
419.77	454.06
419.96	472.79
420.15	472.79
420.34	421.30
420.53	425.98
420.72	465.77
420.91	355.76
421.10	390.87
421.29	425.98
421.48	465.77
421.67	400.23
421.86	379.17
422.05	442.36
422.24	372.15
422.43	456.40
422.61	355.76
422.80	435.34
422.99	397.89
423.18	381.51
423.37	440.02
423.56	444.70
423.75	414.27
423.94	397.89
424.13	447.04
424.32	449.38
424.50	390.87
424.69	383.85
424.88	444.70
425.07	414.27
425.26	381.51
425.45	418.96
425.64	404.91
425.83	348.74
426.01	463.43
426.20	388.53
426.39	411.93
426.58	451.72
426.77	358.10
426.96	470.45
427.15	369.80
427.33	407.25
427.52	404.91
427.71	437.68
427.90	414.27
428.09	423.64
428.28	341.72
428.46	374.49
428.65	395.55
428.84	430.66
429.03	444.70
429.22	423.64
429.40	334.70
429.59	402.57
429.78	395.55
429.97	362.78
430.16	376.83
430.34	397.89
430.53	456.40
430.72	400.23
430.91	489.17
431.10	404.91
431.28	397.89
431.47	411.93
431.66	409.59
431.85	379.17
432.03	440.02
432.22	456.40
432.41	383.85
432.60	400.23
432.79	360.44
432.97	428.32
433.16	444.70
433.35	397.89
433.54	451.72
433.72	461.09
433.91	362.78
434.10	322.99
434.28	383.85
434.47	339.38
434.66	428.32
434.85	372.15
435.03	334.70
435.22	397.89
435.41	416.62
435.59	421.30
435.78	404.91
435.97	423.64
436.16	376.83
436.34	451.72
436.53	337.04
436.72	447.04
436.90	454.06
437.09	388.53
437.28	409.59
437.46	425.98
437.65	444.70
437.84	442.36
438.02	418.96
438.21	430.66
438.40	379.17
438.58	528.96
438.77	428.32
438.96	360.44
439.14	435.34
439.33	437.68
439.52	390.87
439.70	374.49
439.89	465.77
440.08	444.70
440.26	381.51
440.45	447.04
440.63	397.89
440.82	437.68
441.01	454.06
441.19	451.72
441.38	477.47
441.57	402.57
441.75	400.23
441.94	440.02
442.12	411.93
442.31	409.59
442.50	472.79
442.68	444.70
442.87	430.66
443.05	402.57
443.24	381.51
443.43	449.38
443.61	416.62
443.80	425.98
443.98	383.85
444.17	395.55
444.35	411.93
444.54	421.30
444.73	369.80
444.91	430.66
445.10	444.70
445.28	360.44
445.47	468.11
445.65	388.53
445.84	402.57
446.02	379.17
446.21	397.89
446.39	374.49
446.58	435.34
446.77	362.78
446.95	414.27
447.14	379.17
447.32	472.79
447.51	435.34
447.69	423.64
447.88	437.68
448.06	411.93
448.25	367.46
448.43	407.25
448.62	428.32
448.80	421.30
448.99	489.17
449.17	435.34
449.36	409.59
449.54	465.77
449.73	386.19
449.91	414.27
450.10	348.74
450.28	425.98
450.46	479.81
450.65	365.12
450.83	414.27
451.02	440.02
451.20	465.77
451.39	372.15
451.57	428.32
451.76	454.06
451.94	500.87
452.13	468.11
452.31	430.66
452.49	402.57
452.68	376.83
452.86	425.98
453.05	416.62
453.23	423.64
453.42	433.00
453.60	440.02
453.78	430.66
453.97	397.89
454.15	397.89
454.34	362.78
454.52	402.57
454.70	472.79
454.89	395.55
455.07	381.51
455.26	435.34
455.44	428.32
455.62	449.38
455.81	425.98
455.99	423.64
456.17	390.87
456.36	430.66
456.54	433.00
456.73	358.10
456.91	369.80
457.09	449.38
457.28	440.02
457.46	390.87
457.64	465.77
457.83	440.02
458.01	395.55
458.19	425.98
458.38	386.19
458.56	369.80
458.74	348.74
458.93	418.96
459.11	435.34
459.29	468.11
459.48	428.32
459.66	404.91
459.84	404.91
460.03	475.13
460.21	425.98
460.39	442.36
460.57	440.02
460.76	425.98
460.94	386.19
461.12	402.57
461.31	458.74
461.49	433.00
461.67	414.27
461.85	461.09
462.04	416.62
462.22	784.08
462.40	451.72
462.59	451.72
462.77	400.23
462.95	468.11
463.13	360.44
463.32	402.57
463.50	372.15
463.68	369.80
463.86	461.09
464.05	461.09
464.23	433.00
464.41	362.78
464.59	407.25
464.78	447.04
464.96	430.66
465.14	435.34
465.32	428.32
465.50	395.55
465.69	390.87
465.87	425.98
466.05	423.64
466.23	322.99
466.41	461.09
466.60	449.38
466.78	404.91
466.96	421.30
467.14	552.37
467.32	404.91
467.51	362.78
467.69	393.21
467.87	409.59
468.05	414.27
468.23	416.62
468.41	402.57
468.60	433.00
468.78	381.51
468.96	447.04
469.14	430.66
469.32	418.96
469.50	404.91
469.69	351.08
469.87	486.83
470.05	388.53
470.23	430.66
470.41	449.38
470.59	369.80
470.77	400.23
470.95	372.15
471.14	498.53
471.32	407.25
471.50	456.40
471.68	379.17
471.86	397.89
472.04	386.19
472.22	369.80
472.40	407.25
472.58	400.23
472.77	379.17
472.95	372.15
473.13	456.40
473.31	395.55
473.49	334.70
473.67	440.02
473.85	400.23
474.03	521.94
474.21	430.66
474.39	433.00
474.57	416.62
474.75	484.49
474.93	468.11
475.12	379.17
475.30	348.74
475.48	383.85
475.66	383.85
475.84	372.15
476.02	442.36
476.20	404.91
476.38	397.89
476.56	470.45
476.74	402.57
476.92	463.43
477.10	402.57
477.28	388.53
477.46	433.00
477.64	454.06
477.82	404.91
478.00	418.96
478.18	411.93
478.36	341.72
478.54	381.51
478.72	322.99
478.90	486.83
479.08	390.87
479.26	442.36
479.44	409.59
479.62	393.21
479.80	411.93
479.98	397.89
480.16	416.62
480.34	390.87
480.52	367.46
480.70	400.23
480.88	414.27
481.06	390.87
481.24	381.51
481.41	397.89
481.59	477.47
481.77	428.32
481.95	358.10
482.13	423.64
482.31	416.62
482.49	447.04
482.67	418.96
482.85	456.40
483.03	437.68
483.21	395.55
483.39	400.23
483.57	428.32
483.74	440.02
483.92	489.17
484.10	425.98
484.28	430.66
484.46	451.72
484.64	440.02
484.82	402.57
485.00	465.77
485.18	414.27
485.35	461.09
485.53	421.30
485.71	397.89
485.89	365.12
486.07	355.76
486.25	521.94
486.43	372.15
486.61	486.83
486.78	461.09
486.96	416.62
487.14	402.57
487.32	315.97
487.50	409.59
487.68	402.57
487.85	404.91
488.03	423.64
488.21	428.32
488.39	433.00
488.57	421.30
488.75	435.34
488.92	475.13
489.10	369.80
489.28	393.21
489.46	411.93
489.64	461.09
489.81	435.34
489.99	425.98
490.17	402.57
490.35	451.72
490.53	449.38
490.70	344.06
490.88	395.55
491.06	423.64
491.24	388.53
491.41	440.02
491.59	489.17
491.77	365.12
491.95	447.04
492.13	440.02
492.30	374.49
492.48	428.32
492.66	430.66
492.84	430.66
493.01	388.53
493.19	430.66
493.37	428.32
493.54	447.04
493.72	444.70
493.90	465.77
494.08	437.68
494.25	414.27
494.43	390.87
494.61	400.23
494.79	437.68
494.96	381.51
495.14	393.21
495.32	482.15
495.49	496.19
495.67	425.98
495.85	369.80
496.02	430.66
496.20	388.53
496.38	425.98
496.55	458.74
496.73	414.27
496.91	428.32
497.09	425.98
497.26	379.17
497.44	461.09
497.62	367.46
497.79	414.27
497.97	365.12
498.14	397.89
498.32	390.87
498.50	444.70
498.67	418.96
498.85	425.98
499.03	379.17
499.20	449.38
499.38	496.19
499.56	360.44
499.73	479.81
499.91	430.66
500.08	425.98
500.26	421.30
500.44	447.04
500.61	390.87
500.79	299.59
500.97	449.38
501.14	407.25
501.32	416.62
501.49	437.68
501.67	374.49
501.84	414.27
502.02	360.44
502.20	444.70
502.37	433.00
502.55	447.04
502.72	414.27
502.90	477.47
503.07	484.49
503.25	505.56
503.43	395.55
503.60	365.12
503.78	449.38
503.95	475.13
504.13	489.17
504.30	418.96
504.48	402.57
504.65	433.00
504.83	512.58
505.01	435.34
505.18	477.47
505.36	428.32
505.53	402.57
505.71	348.74
505.88	435.34
506.06	397.89
506.23	400.23
506.41	461.09
506.58	411.93
506.76	400.23
506.93	388.53
507.11	442.36
507.28	407.25
507.46	362.78
507.63	465.77
507.81	334.70
507.98	372.15
508.16	442.36
508.33	428.32
508.50	423.64
508.68	489.17
508.85	355.76
509.03	404.91
509.20	463.43
509.38	418.96
509.55	418.96
509.73	421.30
509.90	383.85
510.08	404.91
510.25	388.53
510.42	386.19
510.60	383.85
510.77	433.00
510.95	440.02
511.12	430.66
511.30	428.32
511.47	430.66
511.64	435.34
511.82	414.27
511.99	372.15
512.17	386.19
512.34	400.23
512.51	435.34
512.69	409.59
512.86	479.81
513.04	442.36
513.21	435.34
513.38	458.74
513.56	397.89
513.73	381.51
513.90	372.15
514.08	447.04
514.25	430.66
514.43	402.57
514.60	404.91
514.77	407.25
514.95	400.23
515.12	381.51
515.29	376.83
515.47	348.74
515.64	341.72
515.81	479.81
515.99	425.98
516.16	444.70
516.33	475.13
516.51	425.98
516.68	404.91
516.85	383.85
517.03	416.62
517.20	344.06
517.37	376.83
517.54	458.74
517.72	402.57
517.89	332.36
518.06	414.27
518.24	484.49
518.41	470.45
518.58	428.32
518.75	428.32
518.93	414.27
519.10	407.25
519.27	393.21
519.45	393.21
519.62	409.59
519.79	411.93
519.96	472.79
520.14	365.12
520.31	435.34
520.48	449.38
520.65	416.62
520.83	418.96
521.00	517.26
521.17	365.12
521.34	386.19
521.52	402.57
521.69	381.51
521.86	393.21
522.03	472.79
522.20	397.89
522.38	341.72
522.55	414.27
522.72	430.66
522.89	421.30
523.07	491.51
523.24	440.02
523.41	395.55
523.58	372.15
523.75	367.46
523.92	444.70
524.10	407.25
524.27	353.42
524.44	404.91
524.61	433.00
524.78	402.57
524.96	416.62
525.13	425.98
525.30	456.40
525.47	458.74
525.64	367.46
525.81	411.93
525.98	447.04
526.16	402.57
526.33	414.27
526.50	400.23
526.67	461.09
526.84	414.27
527.01	514.92
527.18	444.70
527.36	381.51
527.53	400.23
527.70	465.77
527.87	400.23
528.04	451.72
528.21	416.62
528.38	430.66
528.55	458.74
528.72	461.09
528.89	465.77
529.07	472.79
529.24	390.87
529.41	444.70
529.58	456.40
529.75	337.04
529.92	430.66
530.09	404.91
530.26	416.62
530.43	411.93
530.60	360.44
530.77	402.57
530.94	407.25
531.11	447.04
531.28	547.69
531.46	493.85
531.63	444.70
531.80	428.32
531.97	486.83
532.14	444.70
532.31	423.64
532.48	435.34
532.65	437.68
532.82	458.74
532.99	421.30
533.16	433.00
533.33	381.51
533.50	395.55
533.67	425.98
533.84	397.89
534.01	491.51
534.18	339.38
534.35	383.85
534.52	472.79
534.69	440.02
534.86	381.51
535.03	369.80
535.20	404.91
535.37	397.89
535.54	433.00
535.71	348.74
535.88	407.25
536.05	409.59
536.22	440.02
536.38	397.89
536.55	409.59
536.72	425.98
536.89	430.66
537.06	360.44
537.23	409.59
537.40	423.64
537.57	435.34
537.74	449.38
537.91	503.22
538.08	430.66
538.25	416.62
538.42	400.23
538.59	435.34
538.75	397.89
538.92	418.96
539.09	411.93
539.26	468.11
539.43	428.32
539.60	428.32
539.77	393.21
539.94	437.68
540.11	421.30
540.28	386.19
540.44	437.68
540.61	428.32
540.78	390.87
540.95	421.30
541.12	407.25
541.29	425.98
541.46	498.53
541.62	374.49
541.79	491.51
541.96	463.43
542.13	409.59
542.30	449.38
542.47	421.30
542.63	376.83
542.80	421.30
542.97	395.55
543.14	397.89
543.31	442.36
543.48	468.11
543.64	482.15
543.81	442.36
543.98	393.21
544.15	433.00
544.32	390.87
544.48	449.38
544.65	383.85
544.82	444.70
544.99	456.40
545.16	430.66
545.32	468.11
545.49	437.68
545.66	447.04
545.83	313.63
546.00	390.87
546.16	409.59
546.33	407.25
546.50	425.98
546.67	437.68
546.83	423.64
547.00	430.66
547.17	421.30
547.34	449.38
547.50	472.79
547.67	421.30
547.84	390.87
548.00	414.27
548.17	369.80
548.34	423.64
548.51	447.04
548.67	379.17
548.84	400.23
549.01	461.09
549.18	428.32
549.34	397.89
549.51	414.27
549.68	425.98
549.84	400.23
550.01	400.23
550.18	479.81
550.34	440.02
550.51	470.45
550.68	444.70
550.84	430.66
551.01	344.06
551.18	390.87
551.34	381.51
551.51	430.66
551.68	353.42
551.84	400.23
552.01	411.93
552.18	451.72
552.34	430.66
552.51	414.27
552.68	395.55
552.84	444.70
553.01	447.04
553.18	362.78
553.34	444.70
553.51	386.19
553.67	418.96
553.84	514.92
554.01	425.98
554.17	454.06
554.34	402.57
554.51	379.17
554.67	425.98
554.84	369.80
555.00	451.72
555.17	372.15
555.33	397.89
555.50	444.70
555.67	428.32
555.83	388.53
556.00	444.70
556.16	528.96
556.33	468.11
556.50	404.91
556.66	418.96
556.83	390.87
556.99	479.81
557.16	404.91
557.32	388.53
557.49	383.85
557.65	402.57
557.82	407.25
557.98	463.43
558.15	334.70
558.32	458.74
558.48	449.38
558.65	423.64
558.81	503.22
558.98	470.45
559.14	461.09
559.31	386.19
559.47	465.77
559.64	414.27
559.80	372.15
559.97	407.25
560.13	463.43
560.30	416.62
560.46	437.68
560.63	402.57
560.79	344.06
560.96	451.72
561.12	451.72
561.29	449.38
561.45	442.36
561.61	421.30
561.78	507.90
561.94	421.30
562.11	332.36
562.27	451.72
562.44	425.98
562.60	388.53
562.77	416.62
562.93	484.49
563.10	409.59
563.26	470.45
563.42	463.43
563.59	423.64
563.75	437.68
563.92	423.64
564.08	421.30
564.24	456.40
564.41	475.13
564.57	433.00
564.74	416.62
564.90	444.70
565.07	472.79
565.23	404.91
565.39	407.25
565.56	372.15
565.72	428.32
565.88	447.04
566.05	433.00
566.21	416.62
566.38	454.06
566.54	430.66
566.70	479.81
566.87	362.78
567.03	381.51
567.19	472.79
567.36	451.72
567.52	433.00
567.68	430.66
567.85	430.66
568.01	358.10
568.17	388.53
568.34	433.00
568.50	423.64
568.66	358.10
568.83	489.17
568.99	472.79
569.15	456.40
569.32	386.19
569.48	451.72
569.64	386.19
569.81	442.36
569.97	397.89
570.13	444.70
570.30	409.59
570.46	397.89
570.62	425.98
570.78	395.55
570.95	365.12
571.11	407.25
571.27	407.25
571.43	449.38
571.60	440.02
571.76	449.38
571.92	461.09
572.09	348.74
572.25	344.06
572.41	461.09
572.57	465.77
572.74	433.00
572.90	409.59
573.06	470.45
573.22	444.70
573.38	514.92
573.55	425.98
573.71	461.09
573.87	418.96
574.03	372.15
574.20	425.98
574.36	430.66
574.52	388.53
574.68	367.46
574.84	421.30
575.01	444.70
575.17	404.91
575.33	395.55
575.49	407.25
575.65	496.19
575.82	400.23
575.98	451.72
576.14	381.51
576.30	402.57
576.46	407.25
576.62	442.36
576.79	372.15
576.95	411.93
577.11	489.17
577.27	407.25
577.43	465.77
577.59	449.38
577.75	447.04
577.92	393.21
578.08	451.72
578.24	407.25
578.40	367.46
578.56	407.25
578.72	397.89
578.88	386.19
579.04	425.98
579.21	402.57
579.37	475.13
579.53	334.70
579.69	409.59
579.85	397.89
580.01	402.57
580.17	447.04
580.33	390.87
580.49	386.19
580.65	404.91
580.82	437.68
580.98	425.98
581.14	465.77
581.30	449.38
581.46	386.19
581.62	348.74
581.78	416.62
581.94	458.74
582.10	400.23
582.26	407.25
582.42	428.32
582.58	367.46
582.74	433.00
582.90	393.21
583.06	395.55
583.22	425.98
583.38	388.53
583.54	369.80
583.70	517.26
583.86	451.72
584.02	423.64
584.18	437.68
584.34	414.27
584.50	458.74
584.66	421.30
584.82	430.66
584.98	416.62
585.14	444.70
585.30	435.34
585.46	437.68
585.62	433.00
585.78	440.02
585.94	423.64
586.10	404.91
586.26	395.55
586.42	470.45
586.58	440.02
586.74	348.74
586.90	440.02
587.06	372.15
587.22	470.45
587.38	468.11
587.54	374.49
587.70	484.49
587.86	461.09
588.02	390.87
588.18	397.89
588.34	454.06
588.49	381.51
588.65	383.85
588.81	475.13
588.97	367.46
589.13	425.98
589.29	348.74
589.45	437.68
589.61	376.83
589.77	418.96
589.93	430.66
590.08	430.66
590.24	444.70
590.40	461.09
590.56	418.96
590.72	379.17
590.88	369.80
591.04	383.85
591.20	379.17
591.35	449.38
591.51	442.36
591.67	454.06
591.83	390.87
591.99	346.40
592.15	447.04
592.31	421.30
592.46	461.09
592.62	435.34
592.78	421.30
592.94	383.85
593.10	369.80
593.26	437.68
593.41	433.00
593.57	418.96
593.73	369.80
593.89	468.11
594.05	351.08
594.20	444.70
594.36	496.19
594.52	442.36
594.68	411.93
594.84	435.34
594.99	472.79
595.15	409.59
595.31	447.04
595.47	437.68
595.62	379.17
595.78	449.38
595.94	404.91
596.10	484.49
596.25	486.83
596.41	393.21
596.57	418.96
596.73	376.83
596.88	430.66
597.04	430.66
597.20	437.68
597.36	362.78
597.51	477.47
597.67	367.46
597.83	414.27
597.99	444.70
598.14	465.77
598.30	386.19
598.46	400.23
598.61	491.51
598.77	330.02
598.93	468.11
599.09	414.27
599.24	393.21
599.40	440.02
599.56	376.83
599.71	372.15
599.87	503.22
600.03	400.23
600.18	400.23
600.34	369.80
600.50	369.80
600.65	435.34
600.81	404.91
600.97	479.81
601.12	386.19
601.28	454.06
601.44	423.64
601.59	425.98
601.75	458.74
601.91	395.55
602.06	463.43
602.22	475.13
602.37	418.96
602.53	437.68
602.69	379.17
602.84	423.64
603.00	346.40
603.16	402.57
603.31	437.68
603.47	468.11
603.62	353.42
603.78	360.44
603.94	416.62
604.09	428.32
604.25	440.02
604.40	491.51
604.56	440.02
604.71	479.81
604.87	433.00
605.03	393.21
605.18	486.83
605.34	468.11
605.49	454.06
605.65	393.21
605.80	348.74
605.96	468.11
606.12	458.74
606.27	428.32
606.43	360.44
606.58	421.30
606.74	409.59
606.89	379.17
607.05	400.23
607.20	388.53
607.36	407.25
607.51	393.21
607.67	381.51
607.82	423.64
607.98	451.72
608.13	416.62
608.29	395.55
608.44	451.72
608.60	388.53
608.75	465.77
608.91	374.49
609.06	376.83
609.22	486.83
609.37	407.25
609.53	409.59
609.68	418.96
609.84	353.42
609.99	458.74
610.15	367.46
