SpectraSuite Data File
++++++++++++++++++++++++++++++++++++
Date: Fri Oct 25 12:10:56 EDT 2013
User: price-jones
Dark Spectrum Present: No
Reference Spectrum Present: No
Number of Sampled Component Spectra: 1
Spectrometers: USB2+H05261
Integration Time (usec): 100000 (USB2+H05261)
Spectra Averaged: 1 (USB2+H05261)
Boxcar Smoothing: 0 (USB2+H05261)
Correct for Electrical Dark: No (USB2+H05261)
Strobe/Lamp Enabled: No (USB2+H05261)
Correct for Detector Non-linearity: No (USB2+H05261)
Correct for Stray Light: No (USB2+H05261)
Number of Pixels in Processed Spectrum: 2048
>>>>>Begin Processed Spectral Data<<<<<
365.73	327.68
365.92	327.68
366.12	327.68
366.32	315.97
366.52	234.05
366.72	257.46
366.91	220.01
367.11	212.99
367.31	205.97
367.51	248.10
367.70	259.80
367.90	231.71
368.10	252.78
368.30	248.10
368.49	252.78
368.69	292.57
368.89	278.52
369.09	287.89
369.28	271.50
369.48	334.70
369.68	250.44
369.87	318.31
370.07	252.78
370.27	271.50
370.47	395.55
370.66	383.85
370.86	266.82
371.06	355.76
371.25	346.40
371.45	346.40
371.65	402.57
371.84	395.55
372.04	355.76
372.24	346.40
372.44	374.49
372.63	376.83
372.83	421.30
373.03	421.30
373.22	477.47
373.42	409.59
373.62	374.49
373.81	425.98
374.01	428.32
374.21	383.85
374.40	402.57
374.60	489.17
374.79	423.64
374.99	416.62
375.19	376.83
375.38	489.17
375.58	395.55
375.78	397.89
375.97	390.87
376.17	423.64
376.37	435.34
376.56	383.85
376.76	416.62
376.95	397.89
377.15	374.49
377.35	416.62
377.54	433.00
377.74	423.64
377.93	402.57
378.13	430.66
378.33	409.59
378.52	458.74
378.72	451.72
378.91	402.57
379.11	430.66
379.31	437.68
379.50	414.27
379.70	425.98
379.89	442.36
380.09	358.10
380.28	437.68
380.48	456.40
380.68	346.40
380.87	397.89
381.07	414.27
381.26	456.40
381.46	449.38
381.65	379.17
381.85	360.44
382.04	353.42
382.24	393.21
382.43	372.15
382.63	418.96
382.83	325.33
383.02	369.80
383.22	407.25
383.41	400.23
383.61	428.32
383.80	353.42
384.00	440.02
384.19	381.51
384.39	365.12
384.58	388.53
384.78	416.62
384.97	386.19
385.17	433.00
385.36	381.51
385.56	395.55
385.75	458.74
385.95	325.33
386.14	397.89
386.34	393.21
386.53	482.15
386.72	411.93
386.92	395.55
387.11	433.00
387.31	479.81
387.50	381.51
387.70	456.40
387.89	498.53
388.09	358.10
388.28	388.53
388.48	397.89
388.67	503.22
388.86	404.91
389.06	404.91
389.25	360.44
389.45	365.12
389.64	433.00
389.84	465.77
390.03	486.83
390.22	390.87
390.42	444.70
390.61	341.72
390.81	393.21
391.00	388.53
391.19	425.98
391.39	353.42
391.58	407.25
391.78	407.25
391.97	386.19
392.16	435.34
392.36	416.62
392.55	477.47
392.75	472.79
392.94	383.85
393.13	393.21
393.33	451.72
393.52	425.98
393.71	479.81
393.91	393.21
394.10	365.12
394.29	484.49
394.49	409.59
394.68	381.51
394.88	407.25
395.07	444.70
395.26	411.93
395.46	351.08
395.65	437.68
395.84	397.89
396.04	468.11
396.23	409.59
396.42	341.72
396.62	407.25
396.81	421.30
397.00	322.99
397.19	411.93
397.39	388.53
397.58	475.13
397.77	383.85
397.97	404.91
398.16	435.34
398.35	383.85
398.55	461.09
398.74	390.87
398.93	475.13
399.12	400.23
399.32	418.96
399.51	435.34
399.70	411.93
399.90	402.57
400.09	442.36
400.28	379.17
400.47	411.93
400.67	470.45
400.86	442.36
401.05	479.81
401.24	451.72
401.44	402.57
401.63	447.04
401.82	404.91
402.01	379.17
402.21	397.89
402.40	393.21
402.59	418.96
402.78	322.99
402.97	416.62
403.17	400.23
403.36	437.68
403.55	407.25
403.74	337.04
403.93	379.17
404.13	416.62
404.32	423.64
404.51	402.57
404.70	372.15
404.89	362.78
405.09	458.74
405.28	421.30
405.47	386.19
405.66	416.62
405.85	437.68
406.05	433.00
406.24	423.64
406.43	414.27
406.62	372.15
406.81	407.25
407.00	425.98
407.20	379.17
407.39	395.55
407.58	367.46
407.77	447.04
407.96	425.98
408.15	393.21
408.34	372.15
408.54	383.85
408.73	440.02
408.92	440.02
409.11	442.36
409.30	395.55
409.49	360.44
409.68	353.42
409.87	470.45
410.07	386.19
410.26	346.40
410.45	437.68
410.64	386.19
410.83	388.53
411.02	360.44
411.21	423.64
411.40	404.91
411.59	470.45
411.78	395.55
411.98	440.02
412.17	411.93
412.36	390.87
412.55	409.59
412.74	411.93
412.93	521.94
413.12	388.53
413.31	421.30
413.50	353.42
413.69	491.51
413.88	409.59
414.07	444.70
414.26	388.53
414.45	367.46
414.64	433.00
414.83	372.15
415.02	447.04
415.22	454.06
415.41	433.00
415.60	421.30
415.79	393.21
415.98	411.93
416.17	423.64
416.36	465.77
416.55	449.38
416.74	409.59
416.93	402.57
417.12	447.04
417.31	468.11
417.50	451.72
417.69	484.49
417.88	435.34
418.07	372.15
418.26	411.93
418.45	468.11
418.64	510.24
418.83	322.99
419.02	418.96
419.21	376.83
419.39	351.08
419.58	397.89
419.77	458.74
419.96	423.64
420.15	454.06
420.34	369.80
420.53	418.96
420.72	475.13
420.91	395.55
421.10	421.30
421.29	486.83
421.48	369.80
421.67	369.80
421.86	411.93
422.05	369.80
422.24	386.19
422.43	379.17
422.61	433.00
422.80	386.19
422.99	379.17
423.18	367.46
423.37	409.59
423.56	367.46
423.75	365.12
423.94	409.59
424.13	454.06
424.32	435.34
424.50	395.55
424.69	418.96
424.88	421.30
425.07	374.49
425.26	402.57
425.45	456.40
425.64	407.25
425.83	379.17
426.01	351.08
426.20	402.57
426.39	440.02
426.58	407.25
426.77	435.34
426.96	430.66
427.15	442.36
427.33	402.57
427.52	400.23
427.71	299.59
427.90	416.62
428.09	367.46
428.28	447.04
428.46	388.53
428.65	435.34
428.84	362.78
429.03	440.02
429.22	383.85
429.40	369.80
429.59	390.87
429.78	496.19
429.97	437.68
430.16	334.70
430.34	374.49
430.53	418.96
430.72	365.12
430.91	435.34
431.10	360.44
431.28	489.17
431.47	381.51
431.66	374.49
431.85	390.87
432.03	353.42
432.22	475.13
432.41	430.66
432.60	470.45
432.79	416.62
432.97	423.64
433.16	386.19
433.35	442.36
433.54	454.06
433.72	409.59
433.91	442.36
434.10	400.23
434.28	407.25
434.47	372.15
434.66	348.74
434.85	376.83
435.03	407.25
435.22	425.98
435.41	372.15
435.59	440.02
435.78	491.51
435.97	468.11
436.16	468.11
436.34	425.98
436.53	365.12
436.72	451.72
436.90	454.06
437.09	416.62
437.28	322.99
437.46	386.19
437.65	332.36
437.84	463.43
438.02	435.34
438.21	440.02
438.40	337.04
438.58	421.30
438.77	400.23
438.96	442.36
439.14	416.62
439.33	421.30
439.52	435.34
439.70	355.76
439.89	409.59
440.08	404.91
440.26	449.38
440.45	369.80
440.63	416.62
440.82	440.02
441.01	379.17
441.19	407.25
441.38	376.83
441.57	458.74
441.75	372.15
441.94	444.70
442.12	472.79
442.31	423.64
442.50	486.83
442.68	454.06
442.87	397.89
443.05	374.49
443.24	463.43
443.43	367.46
443.61	407.25
443.80	418.96
443.98	369.80
444.17	416.62
444.35	395.55
444.54	379.17
444.73	393.21
444.91	442.36
445.10	372.15
445.28	365.12
445.47	388.53
445.65	404.91
445.84	393.21
446.02	447.04
446.21	397.89
446.39	393.21
446.58	414.27
446.77	442.36
446.95	379.17
447.14	484.49
447.32	447.04
447.51	430.66
447.69	322.99
447.88	416.62
448.06	407.25
448.25	435.34
448.43	435.34
448.62	400.23
448.80	402.57
448.99	386.19
449.17	421.30
449.36	454.06
449.54	444.70
449.73	425.98
449.91	381.51
450.10	416.62
450.28	493.85
450.46	435.34
450.65	458.74
450.83	500.87
451.02	404.91
451.20	372.15
451.39	390.87
451.57	327.68
451.76	308.95
451.94	449.38
452.13	383.85
452.31	447.04
452.49	423.64
452.68	468.11
452.86	355.76
453.05	468.11
453.23	393.21
453.42	294.91
453.60	437.68
453.78	442.36
453.97	395.55
454.15	425.98
454.34	435.34
454.52	430.66
454.70	449.38
454.89	388.53
455.07	437.68
455.26	386.19
455.44	388.53
455.62	428.32
455.81	416.62
455.99	402.57
456.17	444.70
456.36	372.15
456.54	479.81
456.73	390.87
456.91	428.32
457.09	489.17
457.28	451.72
457.46	440.02
457.64	404.91
457.83	411.93
458.01	411.93
458.19	411.93
458.38	369.80
458.56	430.66
458.74	475.13
458.93	397.89
459.11	411.93
459.29	482.15
459.48	447.04
459.66	435.34
459.84	411.93
460.03	477.47
460.21	484.49
460.39	367.46
460.57	416.62
460.76	416.62
460.94	425.98
461.12	421.30
461.31	505.56
461.49	418.96
461.67	421.30
461.85	374.49
462.04	447.04
462.22	716.20
462.40	435.34
462.59	468.11
462.77	442.36
462.95	395.55
463.13	383.85
463.32	425.98
463.50	400.23
463.68	397.89
463.86	451.72
464.05	414.27
464.23	404.91
464.41	442.36
464.59	393.21
464.78	355.76
464.96	404.91
465.14	421.30
465.32	395.55
465.50	414.27
465.69	409.59
465.87	390.87
466.05	433.00
466.23	451.72
466.41	386.19
466.60	428.32
466.78	444.70
466.96	428.32
467.14	433.00
467.32	463.43
467.51	437.68
467.69	411.93
467.87	397.89
468.05	428.32
468.23	456.40
468.41	360.44
468.60	470.45
468.78	393.21
468.96	400.23
469.14	407.25
469.32	407.25
469.50	365.12
469.69	456.40
469.87	430.66
470.05	404.91
470.23	433.00
470.41	425.98
470.59	402.57
470.77	456.40
470.95	447.04
471.14	421.30
471.32	409.59
471.50	505.56
471.68	414.27
471.86	418.96
472.04	421.30
472.22	447.04
472.40	421.30
472.58	390.87
472.77	456.40
472.95	372.15
473.13	449.38
473.31	400.23
473.49	484.49
473.67	402.57
473.85	428.32
474.03	493.85
474.21	425.98
474.39	351.08
474.57	484.49
474.75	447.04
474.93	470.45
475.12	393.21
475.30	447.04
475.48	411.93
475.66	334.70
475.84	404.91
476.02	440.02
476.20	444.70
476.38	386.19
476.56	545.34
476.74	374.49
476.92	346.40
477.10	393.21
477.28	444.70
477.46	407.25
477.64	491.51
477.82	456.40
478.00	355.76
478.18	414.27
478.36	381.51
478.54	411.93
478.72	388.53
478.90	425.98
479.08	486.83
479.26	416.62
479.44	337.04
479.62	421.30
479.80	374.49
479.98	458.74
480.16	386.19
480.34	365.12
480.52	416.62
480.70	458.74
480.88	346.40
481.06	390.87
481.24	351.08
481.41	416.62
481.59	512.58
481.77	395.55
481.95	402.57
482.13	383.85
482.31	477.47
482.49	451.72
482.67	451.72
482.85	454.06
483.03	397.89
483.21	416.62
483.39	421.30
483.57	404.91
483.74	423.64
483.92	334.70
484.10	407.25
484.28	418.96
484.46	416.62
484.64	358.10
484.82	479.81
485.00	341.72
485.18	421.30
485.35	355.76
485.53	397.89
485.71	486.83
485.89	416.62
486.07	411.93
486.25	418.96
486.43	381.51
486.61	409.59
486.78	428.32
486.96	393.21
487.14	435.34
487.32	386.19
487.50	411.93
487.68	395.55
487.85	400.23
488.03	407.25
488.21	414.27
488.39	339.38
488.57	397.89
488.75	423.64
488.92	486.83
489.10	376.83
489.28	470.45
489.46	430.66
489.64	442.36
489.81	353.42
489.99	404.91
490.17	367.46
490.35	479.81
490.53	500.87
490.70	379.17
490.88	451.72
491.06	374.49
491.24	428.32
491.41	449.38
491.59	437.68
491.77	418.96
491.95	400.23
492.13	376.83
492.30	404.91
492.48	409.59
492.66	470.45
492.84	372.15
493.01	456.40
493.19	411.93
493.37	440.02
493.54	433.00
493.72	423.64
493.90	416.62
494.08	407.25
494.25	451.72
494.43	442.36
494.61	341.72
494.79	447.04
494.96	416.62
495.14	440.02
495.32	461.09
495.49	383.85
495.67	416.62
495.85	374.49
496.02	353.42
496.20	383.85
496.38	409.59
496.55	444.70
496.73	433.00
496.91	428.32
497.09	458.74
497.26	332.36
497.44	353.42
497.62	463.43
497.79	402.57
497.97	388.53
498.14	472.79
498.32	444.70
498.50	451.72
498.67	381.51
498.85	383.85
499.03	407.25
499.20	418.96
499.38	355.76
499.56	397.89
499.73	451.72
499.91	447.04
500.08	428.32
500.26	447.04
500.44	444.70
500.61	456.40
500.79	519.60
500.97	437.68
501.14	449.38
501.32	353.42
501.49	372.15
501.67	428.32
501.84	423.64
502.02	402.57
502.20	411.93
502.37	498.53
502.55	404.91
502.72	435.34
502.90	381.51
503.07	440.02
503.25	454.06
503.43	315.97
503.60	425.98
503.78	456.40
503.95	456.40
504.13	367.46
504.30	425.98
504.48	447.04
504.65	444.70
504.83	409.59
505.01	447.04
505.18	383.85
505.36	425.98
505.53	423.64
505.71	393.21
505.88	472.79
506.06	433.00
506.23	362.78
506.41	369.80
506.58	491.51
506.76	486.83
506.93	397.89
507.11	437.68
507.28	369.80
507.46	442.36
507.63	341.72
507.81	381.51
507.98	458.74
508.16	395.55
508.33	362.78
508.50	430.66
508.68	404.91
508.85	433.00
509.03	358.10
509.20	411.93
509.38	458.74
509.55	463.43
509.73	444.70
509.90	418.96
510.08	348.74
510.25	428.32
510.42	376.83
510.60	433.00
510.77	435.34
510.95	421.30
511.12	477.47
511.30	397.89
511.47	454.06
511.64	479.81
511.82	411.93
511.99	482.15
512.17	365.12
512.34	416.62
512.51	425.98
512.69	390.87
512.86	386.19
513.04	435.34
513.21	425.98
513.38	421.30
513.56	409.59
513.73	414.27
513.90	404.91
514.08	362.78
514.25	435.34
514.43	402.57
514.60	374.49
514.77	386.19
514.95	472.79
515.12	411.93
515.29	369.80
515.47	440.02
515.64	414.27
515.81	376.83
515.99	475.13
516.16	468.11
516.33	414.27
516.51	395.55
516.68	454.06
516.85	404.91
517.03	386.19
517.20	393.21
517.37	463.43
517.54	416.62
517.72	472.79
517.89	437.68
518.06	489.17
518.24	381.51
518.41	341.72
518.58	423.64
518.75	369.80
518.93	379.17
519.10	341.72
519.27	416.62
519.45	425.98
519.62	353.42
519.79	409.59
519.96	327.68
520.14	383.85
520.31	423.64
520.48	425.98
520.65	369.80
520.83	463.43
521.00	437.68
521.17	442.36
521.34	421.30
521.52	411.93
521.69	318.31
521.86	407.25
522.03	411.93
522.20	449.38
522.38	376.83
522.55	454.06
522.72	428.32
522.89	444.70
523.07	510.24
523.24	411.93
523.41	397.89
523.58	414.27
523.75	433.00
523.92	355.76
524.10	414.27
524.27	418.96
524.44	362.78
524.61	407.25
524.78	440.02
524.96	411.93
525.13	510.24
525.30	388.53
525.47	491.51
525.64	477.47
525.81	416.62
525.98	372.15
526.16	301.93
526.33	376.83
526.50	421.30
526.67	435.34
526.84	505.56
527.01	461.09
527.18	493.85
527.36	442.36
527.53	449.38
527.70	451.72
527.87	362.78
528.04	421.30
528.21	463.43
528.38	489.17
528.55	465.77
528.72	379.17
528.89	433.00
529.07	407.25
529.24	409.59
529.41	402.57
529.58	425.98
529.75	421.30
529.92	376.83
530.09	355.76
530.26	442.36
530.43	383.85
530.60	433.00
530.77	402.57
530.94	311.29
531.11	465.77
531.28	360.44
531.46	379.17
531.63	416.62
531.80	397.89
531.97	344.06
532.14	451.72
532.31	423.64
532.48	355.76
532.65	458.74
532.82	390.87
532.99	353.42
533.16	425.98
533.33	465.77
533.50	358.10
533.67	390.87
533.84	388.53
534.01	362.78
534.18	456.40
534.35	416.62
534.52	456.40
534.69	425.98
534.86	437.68
535.03	386.19
535.20	404.91
535.37	458.74
535.54	423.64
535.71	372.15
535.88	425.98
536.05	430.66
536.22	360.44
536.38	337.04
536.55	461.09
536.72	388.53
536.89	383.85
537.06	409.59
537.23	388.53
537.40	360.44
537.57	393.21
537.74	444.70
537.91	418.96
538.08	395.55
538.25	374.49
538.42	367.46
538.59	414.27
538.75	355.76
538.92	407.25
539.09	465.77
539.26	414.27
539.43	414.27
539.60	322.99
539.77	407.25
539.94	435.34
540.11	458.74
540.28	465.77
540.44	479.81
540.61	430.66
540.78	348.74
540.95	430.66
541.12	482.15
541.29	418.96
541.46	458.74
541.62	358.10
541.79	409.59
541.96	416.62
542.13	355.76
542.30	348.74
542.47	451.72
542.63	458.74
542.80	486.83
542.97	372.15
543.14	468.11
543.31	472.79
543.48	386.19
543.64	437.68
543.81	409.59
543.98	416.62
544.15	372.15
544.32	372.15
544.48	475.13
544.65	374.49
544.82	411.93
544.99	475.13
545.16	423.64
545.32	451.72
545.49	367.46
545.66	430.66
545.83	404.91
546.00	407.25
546.16	440.02
546.33	369.80
546.50	416.62
546.67	388.53
546.83	428.32
547.00	444.70
547.17	381.51
547.34	416.62
547.50	416.62
547.67	433.00
547.84	461.09
548.00	421.30
548.17	430.66
548.34	397.89
548.51	465.77
548.67	435.34
548.84	423.64
549.01	416.62
549.18	395.55
549.34	423.64
549.51	425.98
549.68	444.70
549.84	475.13
550.01	400.23
550.18	404.91
550.34	491.51
550.51	491.51
550.68	475.13
550.84	482.15
551.01	390.87
551.18	430.66
551.34	493.85
551.51	383.85
551.68	411.93
551.84	421.30
552.01	423.64
552.18	404.91
552.34	456.40
552.51	397.89
552.68	505.56
552.84	482.15
553.01	393.21
553.18	423.64
553.34	421.30
553.51	374.49
553.67	414.27
553.84	454.06
554.01	449.38
554.17	479.81
554.34	365.12
554.51	463.43
554.67	444.70
554.84	393.21
555.00	407.25
555.17	451.72
555.33	430.66
555.50	393.21
555.67	430.66
555.83	397.89
556.00	440.02
556.16	615.56
556.33	463.43
556.50	369.80
556.66	437.68
556.83	390.87
556.99	444.70
557.16	425.98
557.32	454.06
557.49	477.47
557.65	430.66
557.82	447.04
557.98	442.36
558.15	388.53
558.32	430.66
558.48	388.53
558.65	437.68
558.81	397.89
558.98	458.74
559.14	409.59
559.31	395.55
559.47	411.93
559.64	465.77
559.80	435.34
559.97	369.80
560.13	376.83
560.30	465.77
560.46	360.44
560.63	433.00
560.79	414.27
560.96	461.09
561.12	416.62
561.29	433.00
561.45	374.49
561.61	491.51
561.78	470.45
561.94	425.98
562.11	404.91
562.27	411.93
562.44	414.27
562.60	409.59
562.77	442.36
562.93	493.85
563.10	433.00
563.26	395.55
563.42	416.62
563.59	402.57
563.75	404.91
563.92	531.30
564.08	433.00
564.24	367.46
564.41	388.53
564.57	409.59
564.74	386.19
564.90	386.19
565.07	400.23
565.23	484.49
565.39	463.43
565.56	449.38
565.72	348.74
565.88	379.17
566.05	337.04
566.21	395.55
566.38	393.21
566.54	372.15
566.70	409.59
566.87	383.85
567.03	400.23
567.19	468.11
567.36	437.68
567.52	519.60
567.68	390.87
567.85	484.49
568.01	407.25
568.17	395.55
568.34	407.25
568.50	458.74
568.66	395.55
568.83	433.00
568.99	383.85
569.15	372.15
569.32	458.74
569.48	449.38
569.64	341.72
569.81	397.89
569.97	362.78
570.13	449.38
570.30	440.02
570.46	407.25
570.62	418.96
570.78	407.25
570.95	407.25
571.11	468.11
571.27	472.79
571.43	496.19
571.60	428.32
571.76	402.57
571.92	400.23
572.09	428.32
572.25	418.96
572.41	353.42
572.57	393.21
572.74	458.74
572.90	393.21
573.06	456.40
573.22	409.59
573.38	477.47
573.55	402.57
573.71	468.11
573.87	475.13
574.03	376.83
574.20	489.17
574.36	442.36
574.52	386.19
574.68	454.06
574.84	449.38
575.01	463.43
575.17	449.38
575.33	437.68
575.49	456.40
575.65	400.23
575.82	390.87
575.98	395.55
576.14	386.19
576.30	409.59
576.46	369.80
576.62	423.64
576.79	407.25
576.95	447.04
577.11	388.53
577.27	402.57
577.43	475.13
577.59	411.93
577.75	449.38
577.92	418.96
578.08	390.87
578.24	456.40
578.40	423.64
578.56	458.74
578.72	470.45
578.88	353.42
579.04	442.36
579.21	421.30
579.37	386.19
579.53	346.40
579.69	458.74
579.85	433.00
580.01	461.09
580.17	421.30
580.33	395.55
580.49	395.55
580.65	360.44
580.82	393.21
580.98	444.70
581.14	440.02
581.30	411.93
581.46	341.72
581.62	416.62
581.78	472.79
581.94	416.62
582.10	400.23
582.26	507.90
582.42	449.38
582.58	435.34
582.74	386.19
582.90	437.68
583.06	491.51
583.22	440.02
583.38	470.45
583.54	444.70
583.70	421.30
583.86	411.93
584.02	475.13
584.18	430.66
584.34	369.80
584.50	386.19
584.66	414.27
584.82	341.72
584.98	437.68
585.14	402.57
585.30	447.04
585.46	440.02
585.62	388.53
585.78	348.74
585.94	416.62
586.10	400.23
586.26	435.34
586.42	444.70
586.58	407.25
586.74	367.46
586.90	353.42
587.06	397.89
587.22	383.85
587.38	395.55
587.54	393.21
587.70	411.93
587.86	451.72
588.02	423.64
588.18	407.25
588.34	435.34
588.49	416.62
588.65	395.55
588.81	468.11
588.97	447.04
589.13	428.32
589.29	433.00
589.45	362.78
589.61	423.64
589.77	521.94
589.93	440.02
590.08	404.91
590.24	404.91
590.40	400.23
590.56	425.98
590.72	390.87
590.88	414.27
591.04	447.04
591.20	416.62
591.35	421.30
591.51	381.51
591.67	400.23
591.83	351.08
591.99	470.45
592.15	451.72
592.31	437.68
592.46	440.02
592.62	423.64
592.78	358.10
592.94	397.89
593.10	332.36
593.26	390.87
593.41	409.59
593.57	411.93
593.73	402.57
593.89	451.72
594.05	414.27
594.20	344.06
594.36	416.62
594.52	433.00
594.68	440.02
594.84	461.09
594.99	447.04
595.15	442.36
595.31	449.38
595.47	409.59
595.62	407.25
595.78	414.27
595.94	337.04
596.10	383.85
596.25	447.04
596.41	447.04
596.57	353.42
596.73	414.27
596.88	510.24
597.04	430.66
597.20	435.34
597.36	440.02
597.51	390.87
597.67	402.57
597.83	418.96
597.99	437.68
598.14	435.34
598.30	435.34
598.46	404.91
598.61	442.36
598.77	353.42
598.93	416.62
599.09	475.13
599.24	425.98
599.40	367.46
599.56	428.32
599.71	414.27
599.87	411.93
600.03	402.57
600.18	416.62
600.34	442.36
600.50	360.44
600.65	421.30
600.81	404.91
600.97	428.32
601.12	400.23
601.28	416.62
601.44	451.72
601.59	362.78
601.75	337.04
601.91	423.64
602.06	472.79
602.22	433.00
602.37	372.15
602.53	430.66
602.69	421.30
602.84	475.13
603.00	433.00
603.16	425.98
603.31	456.40
603.47	451.72
603.62	411.93
603.78	386.19
603.94	397.89
604.09	411.93
604.25	428.32
604.40	416.62
604.56	442.36
604.71	447.04
604.87	376.83
605.03	423.64
605.18	376.83
605.34	430.66
605.49	463.43
605.65	416.62
605.80	407.25
605.96	440.02
606.12	416.62
606.27	444.70
606.43	397.89
606.58	400.23
606.74	472.79
606.89	493.85
607.05	479.81
607.20	428.32
607.36	393.21
607.51	414.27
607.67	388.53
607.82	383.85
607.98	437.68
608.13	383.85
608.29	315.97
608.44	404.91
608.60	414.27
608.75	395.55
608.91	477.47
609.06	369.80
609.22	456.40
609.37	362.78
609.53	353.42
609.68	444.70
609.84	416.62
609.99	404.91
610.15	423.64
