SpectraSuite Data File
++++++++++++++++++++++++++++++++++++
Date: Fri Oct 25 12:10:23 EDT 2013
User: price-jones
Dark Spectrum Present: No
Reference Spectrum Present: No
Number of Sampled Component Spectra: 1
Spectrometers: USB2+H05261
Integration Time (usec): 100000 (USB2+H05261)
Spectra Averaged: 1 (USB2+H05261)
Boxcar Smoothing: 0 (USB2+H05261)
Correct for Electrical Dark: No (USB2+H05261)
Strobe/Lamp Enabled: No (USB2+H05261)
Correct for Detector Non-linearity: No (USB2+H05261)
Correct for Stray Light: No (USB2+H05261)
Number of Pixels in Processed Spectrum: 2048
>>>>>Begin Processed Spectral Data<<<<<
365.73	334.70
365.92	334.70
366.12	334.70
366.32	248.10
366.52	255.12
366.72	285.55
366.91	231.71
367.11	145.11
367.31	231.71
367.51	210.65
367.70	198.95
367.90	245.76
368.10	231.71
368.30	250.44
368.49	215.33
368.69	297.25
368.89	238.73
369.09	224.69
369.28	241.08
369.48	180.22
369.68	285.55
369.87	360.44
370.07	313.63
370.27	290.23
370.47	320.65
370.66	351.08
370.86	325.33
371.06	393.21
371.25	447.04
371.45	414.27
371.65	444.70
371.84	397.89
372.04	344.06
372.24	393.21
372.44	440.02
372.63	339.38
372.83	461.09
373.03	416.62
373.22	390.87
373.42	458.74
373.62	407.25
373.81	454.06
374.01	414.27
374.21	435.34
374.40	458.74
374.60	423.64
374.79	451.72
374.99	444.70
375.19	428.32
375.38	440.02
375.58	409.59
375.78	404.91
375.97	360.44
376.17	482.15
376.37	379.17
376.56	355.76
376.76	351.08
376.95	437.68
377.15	383.85
377.35	334.70
377.54	428.32
377.74	411.93
377.93	381.51
378.13	337.04
378.33	414.27
378.52	404.91
378.72	475.13
378.91	393.21
379.11	379.17
379.31	414.27
379.50	320.65
379.70	393.21
379.89	397.89
380.09	444.70
380.28	393.21
380.48	425.98
380.68	463.43
380.87	344.06
381.07	395.55
381.26	404.91
381.46	395.55
381.65	468.11
381.85	400.23
382.04	376.83
382.24	421.30
382.43	362.78
382.63	407.25
382.83	444.70
383.02	402.57
383.22	449.38
383.41	409.59
383.61	348.74
383.80	451.72
384.00	404.91
384.19	379.17
384.39	386.19
384.58	388.53
384.78	402.57
384.97	442.36
385.17	376.83
385.36	447.04
385.56	447.04
385.75	454.06
385.95	475.13
386.14	451.72
386.34	409.59
386.53	437.68
386.72	397.89
386.92	344.06
387.11	374.49
387.31	430.66
387.50	414.27
387.70	376.83
387.89	327.68
388.09	430.66
388.28	318.31
388.48	390.87
388.67	362.78
388.86	447.04
389.06	397.89
389.25	451.72
389.45	423.64
389.64	418.96
389.84	463.43
390.03	409.59
390.22	472.79
390.42	388.53
390.61	437.68
390.81	346.40
391.00	468.11
391.19	486.83
391.39	360.44
391.58	414.27
391.78	409.59
391.97	353.42
392.16	339.38
392.36	458.74
392.55	395.55
392.75	435.34
392.94	461.09
393.13	477.47
393.33	339.38
393.52	435.34
393.71	451.72
393.91	388.53
394.10	341.72
394.29	421.30
394.49	468.11
394.68	365.12
394.88	500.87
395.07	465.77
395.26	365.12
395.46	416.62
395.65	449.38
395.84	435.34
396.04	514.92
396.23	435.34
396.42	409.59
396.62	400.23
396.81	379.17
397.00	444.70
397.19	346.40
397.39	447.04
397.58	425.98
397.77	390.87
397.97	423.64
398.16	425.98
398.35	442.36
398.55	423.64
398.74	468.11
398.93	428.32
399.12	397.89
399.32	433.00
399.51	362.78
399.70	416.62
399.90	435.34
400.09	433.00
400.28	411.93
400.47	458.74
400.67	407.25
400.86	369.80
401.05	423.64
401.24	400.23
401.44	463.43
401.63	421.30
401.82	390.87
402.01	486.83
402.21	440.02
402.40	390.87
402.59	369.80
402.78	390.87
402.97	388.53
403.17	351.08
403.36	404.91
403.55	383.85
403.74	418.96
403.93	381.51
404.13	451.72
404.32	404.91
404.51	444.70
404.70	454.06
404.89	423.64
405.09	409.59
405.28	430.66
405.47	390.87
405.66	425.98
405.85	421.30
406.05	383.85
406.24	386.19
406.43	414.27
406.62	496.19
406.81	367.46
407.00	421.30
407.20	402.57
407.39	386.19
407.58	365.12
407.77	454.06
407.96	442.36
408.15	418.96
408.34	428.32
408.54	503.22
408.73	372.15
408.92	437.68
409.11	404.91
409.30	404.91
409.49	400.23
409.68	362.78
409.87	447.04
410.07	407.25
410.26	379.17
410.45	402.57
410.64	423.64
410.83	433.00
411.02	341.72
411.21	461.09
411.40	418.96
411.59	395.55
411.78	407.25
411.98	425.98
412.17	411.93
412.36	337.04
412.55	407.25
412.74	444.70
412.93	442.36
413.12	430.66
413.31	397.89
413.50	423.64
413.69	369.80
413.88	409.59
414.07	362.78
414.26	407.25
414.45	440.02
414.64	402.57
414.83	365.12
415.02	369.80
415.22	402.57
415.41	470.45
415.60	400.23
415.79	372.15
415.98	369.80
416.17	444.70
416.36	482.15
416.55	454.06
416.74	456.40
416.93	421.30
417.12	510.24
417.31	388.53
417.50	362.78
417.69	414.27
417.88	397.89
418.07	351.08
418.26	447.04
418.45	409.59
418.64	428.32
418.83	425.98
419.02	379.17
419.21	383.85
419.39	435.34
419.58	414.27
419.77	374.49
419.96	416.62
420.15	414.27
420.34	362.78
420.53	430.66
420.72	456.40
420.91	421.30
421.10	444.70
421.29	395.55
421.48	402.57
421.67	421.30
421.86	346.40
422.05	376.83
422.24	416.62
422.43	416.62
422.61	379.17
422.80	430.66
422.99	383.85
423.18	407.25
423.37	386.19
423.56	402.57
423.75	447.04
423.94	400.23
424.13	416.62
424.32	402.57
424.50	360.44
424.69	414.27
424.88	484.49
425.07	351.08
425.26	372.15
425.45	390.87
425.64	423.64
425.83	339.38
426.01	468.11
426.20	362.78
426.39	416.62
426.58	358.10
426.77	440.02
426.96	404.91
427.15	400.23
427.33	397.89
427.52	435.34
427.71	411.93
427.90	360.44
428.09	360.44
428.28	397.89
428.46	372.15
428.65	411.93
428.84	444.70
429.03	430.66
429.22	430.66
429.40	376.83
429.59	355.76
429.78	402.57
429.97	435.34
430.16	407.25
430.34	367.46
430.53	458.74
430.72	379.17
430.91	393.21
431.10	409.59
431.28	372.15
431.47	418.96
431.66	376.83
431.85	437.68
432.03	421.30
432.22	479.81
432.41	468.11
432.60	484.49
432.79	407.25
432.97	418.96
433.16	315.97
433.35	470.45
433.54	381.51
433.72	421.30
433.91	365.12
434.10	456.40
434.28	369.80
434.47	353.42
434.66	428.32
434.85	351.08
435.03	372.15
435.22	416.62
435.41	465.77
435.59	362.78
435.78	437.68
435.97	365.12
436.16	407.25
436.34	447.04
436.53	414.27
436.72	491.51
436.90	423.64
437.09	365.12
437.28	418.96
437.46	355.76
437.65	484.49
437.84	322.99
438.02	423.64
438.21	433.00
438.40	344.06
438.58	407.25
438.77	395.55
438.96	397.89
439.14	355.76
439.33	430.66
439.52	435.34
439.70	395.55
439.89	440.02
440.08	407.25
440.26	433.00
440.45	409.59
440.63	465.77
440.82	395.55
441.01	351.08
441.19	454.06
441.38	423.64
441.57	386.19
441.75	482.15
441.94	428.32
442.12	425.98
442.31	379.17
442.50	330.02
442.68	407.25
442.87	369.80
443.05	465.77
443.24	379.17
443.43	433.00
443.61	465.77
443.80	456.40
443.98	409.59
444.17	433.00
444.35	397.89
444.54	376.83
444.73	393.21
444.91	404.91
445.10	407.25
445.28	409.59
445.47	404.91
445.65	423.64
445.84	379.17
446.02	454.06
446.21	400.23
446.39	430.66
446.58	414.27
446.77	400.23
446.95	416.62
447.14	395.55
447.32	376.83
447.51	367.46
447.69	395.55
447.88	386.19
448.06	447.04
448.25	395.55
448.43	372.15
448.62	358.10
448.80	444.70
448.99	404.91
449.17	320.65
449.36	379.17
449.54	346.40
449.73	358.10
449.91	451.72
450.10	381.51
450.28	411.93
450.46	421.30
450.65	421.30
450.83	440.02
451.02	456.40
451.20	454.06
451.39	374.49
451.57	388.53
451.76	365.12
451.94	454.06
452.13	351.08
452.31	505.56
452.49	458.74
452.68	428.32
452.86	444.70
453.05	400.23
453.23	367.46
453.42	414.27
453.60	418.96
453.78	388.53
453.97	404.91
454.15	393.21
454.34	430.66
454.52	322.99
454.70	402.57
454.89	463.43
455.07	435.34
455.26	315.97
455.44	388.53
455.62	444.70
455.81	409.59
455.99	411.93
456.17	388.53
456.36	444.70
456.54	400.23
456.73	404.91
456.91	362.78
457.09	407.25
457.28	393.21
457.46	461.09
457.64	325.33
457.83	437.68
458.01	440.02
458.19	411.93
458.38	315.97
458.56	388.53
458.74	425.98
458.93	393.21
459.11	442.36
459.29	409.59
459.48	451.72
459.66	479.81
459.84	395.55
460.03	430.66
460.21	456.40
460.39	376.83
460.57	486.83
460.76	407.25
460.94	411.93
461.12	456.40
461.31	372.15
461.49	451.72
461.67	400.23
461.85	388.53
462.04	390.87
462.22	793.44
462.40	456.40
462.59	428.32
462.77	425.98
462.95	393.21
463.13	428.32
463.32	416.62
463.50	433.00
463.68	421.30
463.86	386.19
464.05	395.55
464.23	449.38
464.41	409.59
464.59	362.78
464.78	400.23
464.96	337.04
465.14	456.40
465.32	465.77
465.50	451.72
465.69	409.59
465.87	449.38
466.05	397.89
466.23	395.55
466.41	470.45
466.60	430.66
466.78	444.70
466.96	414.27
467.14	442.36
467.32	433.00
467.51	442.36
467.69	428.32
467.87	435.34
468.05	393.21
468.23	442.36
468.41	381.51
468.60	379.17
468.78	404.91
468.96	390.87
469.14	421.30
469.32	451.72
469.50	411.93
469.69	414.27
469.87	458.74
470.05	451.72
470.23	444.70
470.41	393.21
470.59	400.23
470.77	444.70
470.95	444.70
471.14	402.57
471.32	447.04
471.50	425.98
471.68	451.72
471.86	451.72
472.04	409.59
472.22	348.74
472.40	362.78
472.58	470.45
472.77	367.46
472.95	360.44
473.13	425.98
473.31	381.51
473.49	360.44
473.67	355.76
473.85	376.83
474.03	444.70
474.21	440.02
474.39	447.04
474.57	463.43
474.75	395.55
474.93	367.46
475.12	404.91
475.30	372.15
475.48	395.55
475.66	421.30
475.84	348.74
476.02	430.66
476.20	440.02
476.38	444.70
476.56	486.83
476.74	360.44
476.92	428.32
477.10	472.79
477.28	383.85
477.46	465.77
477.64	437.68
477.82	404.91
478.00	409.59
478.18	365.12
478.36	344.06
478.54	388.53
478.72	409.59
478.90	465.77
479.08	468.11
479.26	390.87
479.44	404.91
479.62	313.63
479.80	407.25
479.98	468.11
480.16	379.17
480.34	372.15
480.52	353.42
480.70	454.06
480.88	362.78
481.06	393.21
481.24	372.15
481.41	386.19
481.59	428.32
481.77	430.66
481.95	414.27
482.13	423.64
482.31	404.91
482.49	418.96
482.67	390.87
482.85	386.19
483.03	456.40
483.21	383.85
483.39	374.49
483.57	376.83
483.74	383.85
483.92	348.74
484.10	344.06
484.28	395.55
484.46	444.70
484.64	416.62
484.82	390.87
485.00	454.06
485.18	470.45
485.35	421.30
485.53	421.30
485.71	435.34
485.89	433.00
486.07	404.91
486.25	437.68
486.43	414.27
486.61	463.43
486.78	472.79
486.96	458.74
487.14	393.21
487.32	388.53
487.50	451.72
487.68	472.79
487.85	416.62
488.03	358.10
488.21	475.13
488.39	421.30
488.57	428.32
488.75	383.85
488.92	447.04
489.10	400.23
489.28	550.03
489.46	374.49
489.64	409.59
489.81	414.27
489.99	440.02
490.17	440.02
490.35	479.81
490.53	451.72
490.70	444.70
490.88	433.00
491.06	475.13
491.24	407.25
491.41	491.51
491.59	381.51
491.77	388.53
491.95	411.93
492.13	416.62
492.30	454.06
492.48	390.87
492.66	390.87
492.84	416.62
493.01	332.36
493.19	376.83
493.37	402.57
493.54	486.83
493.72	440.02
493.90	353.42
494.08	470.45
494.25	400.23
494.43	458.74
494.61	444.70
494.79	418.96
494.96	383.85
495.14	393.21
495.32	393.21
495.49	461.09
495.67	444.70
495.85	416.62
496.02	435.34
496.20	472.79
496.38	463.43
496.55	374.49
496.73	409.59
496.91	379.17
497.09	369.80
497.26	358.10
497.44	381.51
497.62	397.89
497.79	461.09
497.97	463.43
498.14	388.53
498.32	388.53
498.50	414.27
498.67	355.76
498.85	360.44
499.03	423.64
499.20	390.87
499.38	390.87
499.56	315.97
499.73	428.32
499.91	390.87
500.08	376.83
500.26	381.51
500.44	421.30
500.61	374.49
500.79	374.49
500.97	435.34
501.14	416.62
501.32	449.38
501.49	409.59
501.67	372.15
501.84	421.30
502.02	425.98
502.20	442.36
502.37	376.83
502.55	418.96
502.72	444.70
502.90	409.59
503.07	442.36
503.25	374.49
503.43	402.57
503.60	404.91
503.78	454.06
503.95	390.87
504.13	348.74
504.30	461.09
504.48	454.06
504.65	430.66
504.83	407.25
505.01	468.11
505.18	444.70
505.36	428.32
505.53	458.74
505.71	395.55
505.88	442.36
506.06	383.85
506.23	402.57
506.41	315.97
506.58	386.19
506.76	355.76
506.93	397.89
507.11	388.53
507.28	411.93
507.46	425.98
507.63	353.42
507.81	421.30
507.98	421.30
508.16	362.78
508.33	397.89
508.50	463.43
508.68	416.62
508.85	416.62
509.03	444.70
509.20	449.38
509.38	418.96
509.55	461.09
509.73	369.80
509.90	444.70
510.08	390.87
510.25	451.72
510.42	416.62
510.60	395.55
510.77	379.17
510.95	327.68
511.12	339.38
511.30	468.11
511.47	386.19
511.64	442.36
511.82	418.96
511.99	381.51
512.17	386.19
512.34	374.49
512.51	451.72
512.69	381.51
512.86	418.96
513.04	348.74
513.21	416.62
513.38	456.40
513.56	400.23
513.73	362.78
513.90	451.72
514.08	388.53
514.25	421.30
514.43	425.98
514.60	404.91
514.77	437.68
514.95	454.06
515.12	386.19
515.29	498.53
515.47	393.21
515.64	407.25
515.81	458.74
515.99	400.23
516.16	365.12
516.33	463.43
516.51	381.51
516.68	404.91
516.85	475.13
517.03	418.96
517.20	421.30
517.37	430.66
517.54	402.57
517.72	468.11
517.89	400.23
518.06	411.93
518.24	440.02
518.41	414.27
518.58	395.55
518.75	430.66
518.93	404.91
519.10	358.10
519.27	337.04
519.45	379.17
519.62	339.38
519.79	491.51
519.96	421.30
520.14	402.57
520.31	454.06
520.48	362.78
520.65	383.85
520.83	411.93
521.00	421.30
521.17	430.66
521.34	409.59
521.52	486.83
521.69	383.85
521.86	400.23
522.03	444.70
522.20	468.11
522.38	503.22
522.55	486.83
522.72	358.10
522.89	538.32
523.07	437.68
523.24	351.08
523.41	393.21
523.58	381.51
523.75	414.27
523.92	418.96
524.10	442.36
524.27	458.74
524.44	402.57
524.61	435.34
524.78	355.76
524.96	397.89
525.13	402.57
525.30	437.68
525.47	416.62
525.64	454.06
525.81	400.23
525.98	421.30
526.16	411.93
526.33	381.51
526.50	402.57
526.67	472.79
526.84	404.91
527.01	358.10
527.18	442.36
527.36	423.64
527.53	353.42
527.70	468.11
527.87	360.44
528.04	416.62
528.21	367.46
528.38	390.87
528.55	442.36
528.72	442.36
528.89	440.02
529.07	369.80
529.24	395.55
529.41	430.66
529.58	393.21
529.75	456.40
529.92	433.00
530.09	404.91
530.26	435.34
530.43	444.70
530.60	463.43
530.77	416.62
530.94	475.13
531.11	433.00
531.28	428.32
531.46	376.83
531.63	407.25
531.80	470.45
531.97	500.87
532.14	447.04
532.31	407.25
532.48	386.19
532.65	475.13
532.82	407.25
532.99	423.64
533.16	400.23
533.33	437.68
533.50	383.85
533.67	423.64
533.84	393.21
534.01	475.13
534.18	442.36
534.35	435.34
534.52	414.27
534.69	374.49
534.86	430.66
535.03	428.32
535.20	411.93
535.37	433.00
535.54	369.80
535.71	442.36
535.88	468.11
536.05	477.47
536.22	456.40
536.38	437.68
536.55	491.51
536.72	351.08
536.89	360.44
537.06	369.80
537.23	418.96
537.40	430.66
537.57	393.21
537.74	425.98
537.91	430.66
538.08	358.10
538.25	435.34
538.42	369.80
538.59	442.36
538.75	477.47
538.92	416.62
539.09	463.43
539.26	437.68
539.43	428.32
539.60	390.87
539.77	433.00
539.94	433.00
540.11	409.59
540.28	430.66
540.44	456.40
540.61	442.36
540.78	442.36
540.95	334.70
541.12	423.64
541.29	402.57
541.46	451.72
541.62	390.87
541.79	374.49
541.96	369.80
542.13	418.96
542.30	404.91
542.47	407.25
542.63	407.25
542.80	463.43
542.97	418.96
543.14	442.36
543.31	449.38
543.48	400.23
543.64	393.21
543.81	472.79
543.98	372.15
544.15	369.80
544.32	388.53
544.48	362.78
544.65	435.34
544.82	407.25
544.99	414.27
545.16	404.91
545.32	423.64
545.49	393.21
545.66	421.30
545.83	393.21
546.00	442.36
546.16	475.13
546.33	414.27
546.50	425.98
546.67	442.36
546.83	421.30
547.00	440.02
547.17	332.36
547.34	433.00
547.50	428.32
547.67	437.68
547.84	430.66
548.00	388.53
548.17	433.00
548.34	386.19
548.51	428.32
548.67	418.96
548.84	447.04
549.01	402.57
549.18	463.43
549.34	411.93
549.51	397.89
549.68	414.27
549.84	430.66
550.01	414.27
550.18	449.38
550.34	456.40
550.51	416.62
550.68	519.60
550.84	435.34
551.01	360.44
551.18	418.96
551.34	355.76
551.51	400.23
551.68	381.51
551.84	475.13
552.01	458.74
552.18	454.06
552.34	496.19
552.51	402.57
552.68	388.53
552.84	404.91
553.01	423.64
553.18	428.32
553.34	428.32
553.51	435.34
553.67	482.15
553.84	449.38
554.01	404.91
554.17	383.85
554.34	393.21
554.51	440.02
554.67	421.30
554.84	510.24
555.00	411.93
555.17	442.36
555.33	416.62
555.50	416.62
555.67	418.96
555.83	425.98
556.00	416.62
556.16	475.13
556.33	479.81
556.50	418.96
556.66	486.83
556.83	430.66
556.99	423.64
557.16	395.55
557.32	388.53
557.49	404.91
557.65	411.93
557.82	433.00
557.98	407.25
558.15	456.40
558.32	465.77
558.48	395.55
558.65	414.27
558.81	447.04
558.98	454.06
559.14	402.57
559.31	435.34
559.47	500.87
559.64	379.17
559.80	418.96
559.97	407.25
560.13	444.70
560.30	484.49
560.46	388.53
560.63	383.85
560.79	449.38
560.96	442.36
561.12	416.62
561.29	425.98
561.45	433.00
561.61	404.91
561.78	449.38
561.94	407.25
562.11	395.55
562.27	411.93
562.44	407.25
562.60	374.49
562.77	346.40
562.93	486.83
563.10	468.11
563.26	425.98
563.42	425.98
563.59	358.10
563.75	414.27
563.92	390.87
564.08	383.85
564.24	418.96
564.41	402.57
564.57	374.49
564.74	425.98
564.90	447.04
565.07	407.25
565.23	447.04
565.39	479.81
565.56	390.87
565.72	531.30
565.88	451.72
566.05	404.91
566.21	475.13
566.38	463.43
566.54	456.40
566.70	386.19
566.87	393.21
567.03	458.74
567.19	397.89
567.36	421.30
567.52	386.19
567.68	428.32
567.85	430.66
568.01	409.59
568.17	428.32
568.34	425.98
568.50	468.11
568.66	411.93
568.83	500.87
568.99	421.30
569.15	475.13
569.32	376.83
569.48	433.00
569.64	454.06
569.81	456.40
569.97	444.70
570.13	428.32
570.30	351.08
570.46	435.34
570.62	418.96
570.78	435.34
570.95	353.42
571.11	454.06
571.27	388.53
571.43	360.44
571.60	372.15
571.76	369.80
571.92	425.98
572.09	447.04
572.25	425.98
572.41	451.72
572.57	468.11
572.74	484.49
572.90	449.38
573.06	461.09
573.22	484.49
573.38	430.66
573.55	395.55
573.71	418.96
573.87	421.30
574.03	344.06
574.20	437.68
574.36	444.70
574.52	442.36
574.68	421.30
574.84	470.45
575.01	503.22
575.17	425.98
575.33	402.57
575.49	376.83
575.65	449.38
575.82	367.46
575.98	404.91
576.14	353.42
576.30	437.68
576.46	386.19
576.62	414.27
576.79	421.30
576.95	414.27
577.11	433.00
577.27	369.80
577.43	447.04
577.59	444.70
577.75	388.53
577.92	388.53
578.08	437.68
578.24	362.78
578.40	484.49
578.56	458.74
578.72	383.85
578.88	463.43
579.04	416.62
579.21	477.47
579.37	437.68
579.53	400.23
579.69	416.62
579.85	365.12
580.01	425.98
580.17	447.04
580.33	433.00
580.49	430.66
580.65	470.45
580.82	351.08
580.98	418.96
581.14	393.21
581.30	451.72
581.46	407.25
581.62	435.34
581.78	379.17
581.94	503.22
582.10	341.72
582.26	351.08
582.42	332.36
582.58	433.00
582.74	397.89
582.90	444.70
583.06	421.30
583.22	393.21
583.38	395.55
583.54	433.00
583.70	428.32
583.86	433.00
584.02	472.79
584.18	454.06
584.34	447.04
584.50	475.13
584.66	397.89
584.82	437.68
584.98	367.46
585.14	421.30
585.30	470.45
585.46	463.43
585.62	433.00
585.78	376.83
585.94	425.98
586.10	440.02
586.26	468.11
586.42	461.09
586.58	451.72
586.74	346.40
586.90	425.98
587.06	400.23
587.22	360.44
587.38	346.40
587.54	437.68
587.70	416.62
587.86	479.81
588.02	428.32
588.18	458.74
588.34	362.78
588.49	395.55
588.65	407.25
588.81	372.15
588.97	458.74
589.13	454.06
589.29	425.98
589.45	475.13
589.61	369.80
589.77	496.19
589.93	400.23
590.08	458.74
590.24	484.49
590.40	381.51
590.56	423.64
590.72	500.87
590.88	414.27
591.04	407.25
591.20	402.57
591.35	500.87
591.51	416.62
591.67	353.42
591.83	409.59
591.99	479.81
592.15	440.02
592.31	437.68
592.46	395.55
592.62	440.02
592.78	353.42
592.94	409.59
593.10	395.55
593.26	381.51
593.41	395.55
593.57	395.55
593.73	386.19
593.89	383.85
594.05	451.72
594.20	376.83
594.36	400.23
594.52	383.85
594.68	393.21
594.84	435.34
594.99	465.77
595.15	475.13
595.31	433.00
595.47	430.66
595.62	428.32
595.78	435.34
595.94	372.15
596.10	437.68
596.25	463.43
596.41	444.70
596.57	374.49
596.73	386.19
596.88	416.62
597.04	374.49
597.20	362.78
597.36	379.17
597.51	397.89
597.67	393.21
597.83	456.40
597.99	479.81
598.14	430.66
598.30	447.04
598.46	423.64
598.61	381.51
598.77	376.83
598.93	397.89
599.09	353.42
599.24	404.91
599.40	400.23
599.56	404.91
599.71	484.49
599.87	402.57
600.03	437.68
600.18	423.64
600.34	400.23
600.50	416.62
600.65	362.78
600.81	449.38
600.97	407.25
601.12	496.19
601.28	465.77
601.44	425.98
601.59	425.98
601.75	421.30
601.91	400.23
602.06	425.98
602.22	472.79
602.37	315.97
602.53	400.23
602.69	409.59
602.84	423.64
603.00	421.30
603.16	320.65
603.31	381.51
603.47	351.08
603.62	444.70
603.78	372.15
603.94	428.32
604.09	465.77
604.25	423.64
604.40	388.53
604.56	397.89
604.71	409.59
604.87	358.10
605.03	456.40
605.18	414.27
605.34	489.17
605.49	428.32
605.65	416.62
605.80	416.62
605.96	383.85
606.12	428.32
606.27	430.66
606.43	442.36
606.58	423.64
606.74	369.80
606.89	461.09
607.05	411.93
607.20	402.57
607.36	397.89
607.51	367.46
607.67	449.38
607.82	465.77
607.98	440.02
608.13	451.72
608.29	395.55
608.44	416.62
608.60	458.74
608.75	458.74
608.91	440.02
609.06	458.74
609.22	486.83
609.37	451.72
609.53	393.21
609.68	407.25
609.84	425.98
609.99	386.19
610.15	456.40
