SpectraSuite Data File
++++++++++++++++++++++++++++++++++++
Date: Fri Oct 25 12:11:18 EDT 2013
User: price-jones
Dark Spectrum Present: No
Reference Spectrum Present: No
Number of Sampled Component Spectra: 1
Spectrometers: USB2+H05261
Integration Time (usec): 100000 (USB2+H05261)
Spectra Averaged: 1 (USB2+H05261)
Boxcar Smoothing: 0 (USB2+H05261)
Correct for Electrical Dark: No (USB2+H05261)
Strobe/Lamp Enabled: No (USB2+H05261)
Correct for Detector Non-linearity: No (USB2+H05261)
Correct for Stray Light: No (USB2+H05261)
Number of Pixels in Processed Spectrum: 2048
>>>>>Begin Processed Spectral Data<<<<<
365.73	360.44
365.92	360.44
366.12	360.44
366.32	276.18
366.52	318.31
366.72	278.52
366.91	245.76
367.11	248.10
367.31	194.26
367.51	271.50
367.70	252.78
367.90	264.48
368.10	238.73
368.30	285.55
368.49	238.73
368.69	234.05
368.89	292.57
369.09	283.20
369.28	248.10
369.48	241.08
369.68	271.50
369.87	327.68
370.07	322.99
370.27	351.08
370.47	386.19
370.66	362.78
370.86	341.72
371.06	428.32
371.25	348.74
371.45	330.02
371.65	379.17
371.84	299.59
372.04	369.80
372.24	393.21
372.44	379.17
372.63	442.36
372.83	397.89
373.03	404.91
373.22	430.66
373.42	409.59
373.62	395.55
373.81	437.68
374.01	486.83
374.21	409.59
374.40	428.32
374.60	451.72
374.79	477.47
374.99	383.85
375.19	461.09
375.38	395.55
375.58	369.80
375.78	374.49
375.97	418.96
376.17	381.51
376.37	430.66
376.56	411.93
376.76	381.51
376.95	416.62
377.15	376.83
377.35	411.93
377.54	409.59
377.74	465.77
377.93	423.64
378.13	421.30
378.33	444.70
378.52	393.21
378.72	421.30
378.91	484.49
379.11	463.43
379.31	407.25
379.50	376.83
379.70	491.51
379.89	395.55
380.09	442.36
380.28	390.87
380.48	358.10
380.68	386.19
380.87	355.76
381.07	449.38
381.26	430.66
381.46	433.00
381.65	440.02
381.85	463.43
382.04	397.89
382.24	407.25
382.43	395.55
382.63	418.96
382.83	435.34
383.02	461.09
383.22	491.51
383.41	365.12
383.61	411.93
383.80	454.06
384.00	386.19
384.19	414.27
384.39	447.04
384.58	430.66
384.78	428.32
384.97	430.66
385.17	388.53
385.36	393.21
385.56	388.53
385.75	414.27
385.95	339.38
386.14	365.12
386.34	383.85
386.53	428.32
386.72	433.00
386.92	477.47
387.11	482.15
387.31	407.25
387.50	407.25
387.70	451.72
387.89	416.62
388.09	367.46
388.28	381.51
388.48	362.78
388.67	421.30
388.86	402.57
389.06	423.64
389.25	390.87
389.45	365.12
389.64	430.66
389.84	414.27
390.03	395.55
390.22	365.12
390.42	458.74
390.61	414.27
390.81	428.32
391.00	418.96
391.19	416.62
391.39	447.04
391.58	418.96
391.78	442.36
391.97	435.34
392.16	425.98
392.36	414.27
392.55	397.89
392.75	372.15
392.94	369.80
393.13	475.13
393.33	409.59
393.52	388.53
393.71	388.53
393.91	425.98
394.10	407.25
394.29	435.34
394.49	337.04
394.68	390.87
394.88	416.62
395.07	397.89
395.26	416.62
395.46	454.06
395.65	386.19
395.84	411.93
396.04	486.83
396.23	433.00
396.42	444.70
396.62	409.59
396.81	372.15
397.00	418.96
397.19	402.57
397.39	395.55
397.58	376.83
397.77	430.66
397.97	383.85
398.16	423.64
398.35	442.36
398.55	353.42
398.74	390.87
398.93	470.45
399.12	433.00
399.32	423.64
399.51	484.49
399.70	390.87
399.90	468.11
400.09	379.17
400.28	454.06
400.47	430.66
400.67	440.02
400.86	339.38
401.05	425.98
401.24	379.17
401.44	360.44
401.63	472.79
401.82	437.68
402.01	409.59
402.21	465.77
402.40	418.96
402.59	425.98
402.78	433.00
402.97	404.91
403.17	489.17
403.36	381.51
403.55	376.83
403.74	360.44
403.93	348.74
404.13	421.30
404.32	325.33
404.51	402.57
404.70	414.27
404.89	362.78
405.09	425.98
405.28	447.04
405.47	411.93
405.66	386.19
405.85	472.79
406.05	433.00
406.24	416.62
406.43	381.51
406.62	414.27
406.81	442.36
407.00	372.15
407.20	325.33
407.39	454.06
407.58	414.27
407.77	461.09
407.96	421.30
408.15	386.19
408.34	430.66
408.54	456.40
408.73	400.23
408.92	418.96
409.11	433.00
409.30	367.46
409.49	376.83
409.68	348.74
409.87	379.17
410.07	458.74
410.26	440.02
410.45	353.42
410.64	461.09
410.83	348.74
411.02	489.17
411.21	465.77
411.40	395.55
411.59	400.23
411.78	402.57
411.98	360.44
412.17	397.89
412.36	374.49
412.55	409.59
412.74	449.38
412.93	435.34
413.12	402.57
413.31	393.21
413.50	470.45
413.69	416.62
413.88	414.27
414.07	374.49
414.26	400.23
414.45	437.68
414.64	367.46
414.83	428.32
415.02	414.27
415.22	409.59
415.41	437.68
415.60	351.08
415.79	390.87
415.98	374.49
416.17	360.44
416.36	339.38
416.55	430.66
416.74	425.98
416.93	437.68
417.12	367.46
417.31	407.25
417.50	421.30
417.69	400.23
417.88	353.42
418.07	372.15
418.26	341.72
418.45	393.21
418.64	425.98
418.83	393.21
419.02	393.21
419.21	376.83
419.39	442.36
419.58	400.23
419.77	374.49
419.96	442.36
420.15	425.98
420.34	360.44
420.53	374.49
420.72	404.91
420.91	381.51
421.10	451.72
421.29	388.53
421.48	388.53
421.67	404.91
421.86	388.53
422.05	447.04
422.24	306.61
422.43	383.85
422.61	475.13
422.80	449.38
422.99	379.17
423.18	449.38
423.37	428.32
423.56	428.32
423.75	463.43
423.94	416.62
424.13	435.34
424.32	454.06
424.50	430.66
424.69	390.87
424.88	538.32
425.07	463.43
425.26	442.36
425.45	411.93
425.64	449.38
425.83	414.27
426.01	442.36
426.20	383.85
426.39	379.17
426.58	358.10
426.77	386.19
426.96	409.59
427.15	374.49
427.33	397.89
427.52	507.90
427.71	358.10
427.90	400.23
428.09	404.91
428.28	440.02
428.46	425.98
428.65	430.66
428.84	353.42
429.03	428.32
429.22	449.38
429.40	374.49
429.59	325.33
429.78	402.57
429.97	362.78
430.16	376.83
430.34	433.00
430.53	351.08
430.72	393.21
430.91	376.83
431.10	365.12
431.28	379.17
431.47	421.30
431.66	386.19
431.85	395.55
432.03	465.77
432.22	449.38
432.41	397.89
432.60	437.68
432.79	418.96
432.97	440.02
433.16	498.53
433.35	376.83
433.54	386.19
433.72	416.62
433.91	421.30
434.10	409.59
434.28	395.55
434.47	463.43
434.66	449.38
434.85	386.19
435.03	409.59
435.22	486.83
435.41	465.77
435.59	463.43
435.78	416.62
435.97	339.38
436.16	440.02
436.34	383.85
436.53	402.57
436.72	418.96
436.90	447.04
437.09	451.72
437.28	435.34
437.46	418.96
437.65	381.51
437.84	400.23
438.02	421.30
438.21	327.68
438.40	351.08
438.58	402.57
438.77	414.27
438.96	388.53
439.14	334.70
439.33	440.02
439.52	404.91
439.70	393.21
439.89	425.98
440.08	383.85
440.26	435.34
440.45	407.25
440.63	461.09
440.82	421.30
441.01	397.89
441.19	332.36
441.38	360.44
441.57	404.91
441.75	454.06
441.94	468.11
442.12	341.72
442.31	332.36
442.50	395.55
442.68	463.43
442.87	421.30
443.05	425.98
443.24	393.21
443.43	418.96
443.61	465.77
443.80	416.62
443.98	355.76
444.17	442.36
444.35	461.09
444.54	461.09
444.73	456.40
444.91	425.98
445.10	425.98
445.28	411.93
445.47	444.70
445.65	397.89
445.84	379.17
446.02	414.27
446.21	383.85
446.39	442.36
446.58	458.74
446.77	454.06
446.95	411.93
447.14	379.17
447.32	454.06
447.51	444.70
447.69	449.38
447.88	477.47
448.06	493.85
448.25	397.89
448.43	362.78
448.62	386.19
448.80	456.40
448.99	386.19
449.17	381.51
449.36	358.10
449.54	437.68
449.73	379.17
449.91	423.64
450.10	344.06
450.28	465.77
450.46	430.66
450.65	484.49
450.83	442.36
451.02	376.83
451.20	404.91
451.39	383.85
451.57	437.68
451.76	390.87
451.94	379.17
452.13	418.96
452.31	418.96
452.49	418.96
452.68	362.78
452.86	444.70
453.05	407.25
453.23	346.40
453.42	393.21
453.60	428.32
453.78	458.74
453.97	418.96
454.15	386.19
454.34	411.93
454.52	383.85
454.70	482.15
454.89	397.89
455.07	437.68
455.26	402.57
455.44	379.17
455.62	454.06
455.81	486.83
455.99	444.70
456.17	376.83
456.36	425.98
456.54	348.74
456.73	409.59
456.91	381.51
457.09	402.57
457.28	449.38
457.46	479.81
457.64	484.49
457.83	430.66
458.01	407.25
458.19	390.87
458.38	444.70
458.56	348.74
458.74	425.98
458.93	411.93
459.11	442.36
459.29	390.87
459.48	489.17
459.66	444.70
459.84	444.70
460.03	470.45
460.21	404.91
460.39	414.27
460.57	500.87
460.76	383.85
460.94	416.62
461.12	463.43
461.31	547.69
461.49	407.25
461.67	458.74
461.85	425.98
462.04	365.12
462.22	788.76
462.40	442.36
462.59	442.36
462.77	454.06
462.95	444.70
463.13	397.89
463.32	472.79
463.50	404.91
463.68	528.96
463.86	411.93
464.05	442.36
464.23	437.68
464.41	393.21
464.59	486.83
464.78	409.59
464.96	353.42
465.14	451.72
465.32	442.36
465.50	458.74
465.69	411.93
465.87	400.23
466.05	409.59
466.23	367.46
466.41	414.27
466.60	402.57
466.78	400.23
466.96	468.11
467.14	451.72
467.32	416.62
467.51	393.21
467.69	341.72
467.87	451.72
468.05	374.49
468.23	442.36
468.41	414.27
468.60	414.27
468.78	379.17
468.96	428.32
469.14	550.03
469.32	430.66
469.50	402.57
469.69	409.59
469.87	395.55
470.05	395.55
470.23	416.62
470.41	418.96
470.59	444.70
470.77	447.04
470.95	397.89
471.14	404.91
471.32	353.42
471.50	402.57
471.68	325.33
471.86	395.55
472.04	388.53
472.22	482.15
472.40	346.40
472.58	376.83
472.77	355.76
472.95	505.56
473.13	395.55
473.31	388.53
473.49	372.15
473.67	425.98
473.85	395.55
474.03	470.45
474.21	428.32
474.39	416.62
474.57	421.30
474.75	428.32
474.93	397.89
475.12	414.27
475.30	390.87
475.48	428.32
475.66	397.89
475.84	390.87
476.02	444.70
476.20	411.93
476.38	381.51
476.56	456.40
476.74	454.06
476.92	454.06
477.10	430.66
477.28	409.59
477.46	402.57
477.64	334.70
477.82	409.59
478.00	327.68
478.18	444.70
478.36	416.62
478.54	411.93
478.72	465.77
478.90	409.59
479.08	388.53
479.26	442.36
479.44	451.72
479.62	402.57
479.80	402.57
479.98	451.72
480.16	383.85
480.34	428.32
480.52	458.74
480.70	456.40
480.88	421.30
481.06	442.36
481.24	430.66
481.41	421.30
481.59	383.85
481.77	444.70
481.95	449.38
482.13	383.85
482.31	425.98
482.49	404.91
482.67	472.79
482.85	447.04
483.03	465.77
483.21	395.55
483.39	360.44
483.57	402.57
483.74	411.93
483.92	430.66
484.10	372.15
484.28	369.80
484.46	465.77
484.64	369.80
484.82	409.59
485.00	290.23
485.18	407.25
485.35	447.04
485.53	425.98
485.71	430.66
485.89	372.15
486.07	479.81
486.25	425.98
486.43	395.55
486.61	451.72
486.78	407.25
486.96	437.68
487.14	428.32
487.32	397.89
487.50	472.79
487.68	456.40
487.85	341.72
488.03	430.66
488.21	451.72
488.39	395.55
488.57	442.36
488.75	365.12
488.92	545.34
489.10	421.30
489.28	440.02
489.46	365.12
489.64	390.87
489.81	381.51
489.99	409.59
490.17	409.59
490.35	421.30
490.53	393.21
490.70	433.00
490.88	475.13
491.06	430.66
491.24	444.70
491.41	475.13
491.59	374.49
491.77	360.44
491.95	416.62
492.13	404.91
492.30	475.13
492.48	463.43
492.66	337.04
492.84	433.00
493.01	456.40
493.19	346.40
493.37	472.79
493.54	437.68
493.72	433.00
493.90	358.10
494.08	358.10
494.25	451.72
494.43	416.62
494.61	421.30
494.79	325.33
494.96	404.91
495.14	442.36
495.32	447.04
495.49	379.17
495.67	369.80
495.85	444.70
496.02	437.68
496.20	360.44
496.38	444.70
496.55	404.91
496.73	458.74
496.91	437.68
497.09	468.11
497.26	444.70
497.44	456.40
497.62	393.21
497.79	355.76
497.97	395.55
498.14	381.51
498.32	402.57
498.50	418.96
498.67	454.06
498.85	458.74
499.03	411.93
499.20	383.85
499.38	376.83
499.56	430.66
499.73	388.53
499.91	449.38
500.08	433.00
500.26	409.59
500.44	355.76
500.61	411.93
500.79	435.34
500.97	416.62
501.14	423.64
501.32	451.72
501.49	465.77
501.67	437.68
501.84	468.11
502.02	365.12
502.20	397.89
502.37	423.64
502.55	449.38
502.72	400.23
502.90	376.83
503.07	421.30
503.25	404.91
503.43	407.25
503.60	472.79
503.78	407.25
503.95	447.04
504.13	402.57
504.30	451.72
504.48	472.79
504.65	393.21
504.83	397.89
505.01	381.51
505.18	456.40
505.36	379.17
505.53	362.78
505.71	461.09
505.88	454.06
506.06	475.13
506.23	444.70
506.41	463.43
506.58	365.12
506.76	404.91
506.93	383.85
507.11	372.15
507.28	416.62
507.46	409.59
507.63	484.49
507.81	423.64
507.98	344.06
508.16	451.72
508.33	411.93
508.50	393.21
508.68	416.62
508.85	430.66
509.03	421.30
509.20	393.21
509.38	407.25
509.55	442.36
509.73	393.21
509.90	423.64
510.08	381.51
510.25	409.59
510.42	435.34
510.60	435.34
510.77	397.89
510.95	435.34
511.12	430.66
511.30	465.77
511.47	468.11
511.64	409.59
511.82	430.66
511.99	346.40
512.17	425.98
512.34	451.72
512.51	393.21
512.69	463.43
512.86	400.23
513.04	311.29
513.21	414.27
513.38	397.89
513.56	411.93
513.73	447.04
513.90	414.27
514.08	416.62
514.25	437.68
514.43	421.30
514.60	320.65
514.77	425.98
514.95	456.40
515.12	376.83
515.29	521.94
515.47	381.51
515.64	435.34
515.81	435.34
515.99	440.02
516.16	416.62
516.33	475.13
516.51	372.15
516.68	402.57
516.85	416.62
517.03	465.77
517.20	388.53
517.37	374.49
517.54	409.59
517.72	390.87
517.89	379.17
518.06	428.32
518.24	444.70
518.41	449.38
518.58	451.72
518.75	458.74
518.93	440.02
519.10	437.68
519.27	407.25
519.45	411.93
519.62	414.27
519.79	395.55
519.96	344.06
520.14	404.91
520.31	463.43
520.48	486.83
520.65	430.66
520.83	400.23
521.00	386.19
521.17	437.68
521.34	409.59
521.52	440.02
521.69	461.09
521.86	440.02
522.03	395.55
522.20	395.55
522.38	418.96
522.55	428.32
522.72	393.21
522.89	402.57
523.07	423.64
523.24	402.57
523.41	383.85
523.58	433.00
523.75	423.64
523.92	390.87
524.10	411.93
524.27	444.70
524.44	461.09
524.61	442.36
524.78	397.89
524.96	430.66
525.13	430.66
525.30	428.32
525.47	533.64
525.64	447.04
525.81	461.09
525.98	353.42
526.16	428.32
526.33	386.19
526.50	444.70
526.67	388.53
526.84	409.59
527.01	449.38
527.18	416.62
527.36	444.70
527.53	383.85
527.70	423.64
527.87	402.57
528.04	510.24
528.21	386.19
528.38	472.79
528.55	418.96
528.72	381.51
528.89	411.93
529.07	416.62
529.24	418.96
529.41	447.04
529.58	486.83
529.75	451.72
529.92	554.71
530.09	500.87
530.26	416.62
530.43	397.89
530.60	435.34
530.77	425.98
530.94	409.59
531.11	477.47
531.28	451.72
531.46	360.44
531.63	435.34
531.80	430.66
531.97	402.57
532.14	374.49
532.31	435.34
532.48	430.66
532.65	456.40
532.82	421.30
532.99	407.25
533.16	423.64
533.33	423.64
533.50	376.83
533.67	418.96
533.84	421.30
534.01	421.30
534.18	341.72
534.35	451.72
534.52	348.74
534.69	407.25
534.86	362.78
535.03	414.27
535.20	425.98
535.37	444.70
535.54	449.38
535.71	374.49
535.88	407.25
536.05	449.38
536.22	458.74
536.38	421.30
536.55	409.59
536.72	400.23
536.89	360.44
537.06	337.04
537.23	346.40
537.40	381.51
537.57	421.30
537.74	442.36
537.91	461.09
538.08	433.00
538.25	454.06
538.42	430.66
538.59	400.23
538.75	433.00
538.92	400.23
539.09	456.40
539.26	451.72
539.43	503.22
539.60	451.72
539.77	444.70
539.94	421.30
540.11	414.27
540.28	433.00
540.44	411.93
540.61	390.87
540.78	449.38
540.95	456.40
541.12	500.87
541.29	416.62
541.46	456.40
541.62	449.38
541.79	369.80
541.96	433.00
542.13	381.51
542.30	337.04
542.47	402.57
542.63	409.59
542.80	416.62
542.97	468.11
543.14	470.45
543.31	456.40
543.48	468.11
543.64	444.70
543.81	430.66
543.98	379.17
544.15	411.93
544.32	344.06
544.48	428.32
544.65	463.43
544.82	393.21
544.99	346.40
545.16	463.43
545.32	465.77
545.49	409.59
545.66	367.46
545.83	379.17
546.00	386.19
546.16	414.27
546.33	428.32
546.50	435.34
546.67	468.11
546.83	430.66
547.00	468.11
547.17	421.30
547.34	461.09
547.50	435.34
547.67	411.93
547.84	395.55
548.00	465.77
548.17	400.23
548.34	409.59
548.51	397.89
548.67	383.85
548.84	421.30
549.01	367.46
549.18	454.06
549.34	428.32
549.51	449.38
549.68	369.80
549.84	465.77
550.01	435.34
550.18	433.00
550.34	437.68
550.51	374.49
550.68	477.47
550.84	416.62
551.01	454.06
551.18	418.96
551.34	409.59
551.51	437.68
551.68	411.93
551.84	442.36
552.01	362.78
552.18	414.27
552.34	407.25
552.51	409.59
552.68	472.79
552.84	486.83
553.01	444.70
553.18	395.55
553.34	386.19
553.51	360.44
553.67	444.70
553.84	475.13
554.01	430.66
554.17	400.23
554.34	386.19
554.51	428.32
554.67	416.62
554.84	433.00
555.00	423.64
555.17	397.89
555.33	355.76
555.50	461.09
555.67	461.09
555.83	442.36
556.00	346.40
556.16	631.94
556.33	360.44
556.50	430.66
556.66	421.30
556.83	418.96
556.99	430.66
557.16	404.91
557.32	369.80
557.49	437.68
557.65	379.17
557.82	449.38
557.98	397.89
558.15	409.59
558.32	430.66
558.48	433.00
558.65	484.49
558.81	421.30
558.98	376.83
559.14	440.02
559.31	430.66
559.47	456.40
559.64	411.93
559.80	386.19
559.97	447.04
560.13	510.24
560.30	397.89
560.46	440.02
560.63	407.25
560.79	362.78
560.96	425.98
561.12	463.43
561.29	430.66
561.45	397.89
561.61	421.30
561.78	444.70
561.94	444.70
562.11	400.23
562.27	409.59
562.44	418.96
562.60	411.93
562.77	447.04
562.93	442.36
563.10	400.23
563.26	383.85
563.42	461.09
563.59	428.32
563.75	418.96
563.92	397.89
564.08	475.13
564.24	486.83
564.41	430.66
564.57	418.96
564.74	423.64
564.90	374.49
565.07	454.06
565.23	421.30
565.39	465.77
565.56	411.93
565.72	465.77
565.88	433.00
566.05	463.43
566.21	407.25
566.38	463.43
566.54	418.96
566.70	397.89
566.87	418.96
567.03	404.91
567.19	404.91
567.36	451.72
567.52	421.30
567.68	430.66
567.85	411.93
568.01	430.66
568.17	444.70
568.34	444.70
568.50	367.46
568.66	489.17
568.83	470.45
568.99	388.53
569.15	449.38
569.32	456.40
569.48	407.25
569.64	456.40
569.81	414.27
569.97	472.79
570.13	482.15
570.30	402.57
570.46	442.36
570.62	362.78
570.78	444.70
570.95	425.98
571.11	510.24
571.27	463.43
571.43	404.91
571.60	407.25
571.76	355.76
571.92	395.55
572.09	447.04
572.25	440.02
572.41	433.00
572.57	381.51
572.74	451.72
572.90	425.98
573.06	463.43
573.22	484.49
573.38	468.11
573.55	444.70
573.71	381.51
573.87	458.74
574.03	397.89
574.20	332.36
574.36	447.04
574.52	425.98
574.68	433.00
574.84	433.00
575.01	360.44
575.17	472.79
575.33	449.38
575.49	334.70
575.65	411.93
575.82	463.43
575.98	369.80
576.14	395.55
576.30	416.62
576.46	435.34
576.62	421.30
576.79	447.04
576.95	475.13
577.11	416.62
577.27	393.21
577.43	421.30
577.59	526.62
577.75	458.74
577.92	381.51
578.08	395.55
578.24	381.51
578.40	472.79
578.56	425.98
578.72	470.45
578.88	456.40
579.04	400.23
579.21	320.65
579.37	390.87
579.53	388.53
579.69	407.25
579.85	390.87
580.01	451.72
580.17	416.62
580.33	425.98
580.49	414.27
580.65	414.27
580.82	423.64
580.98	390.87
581.14	362.78
581.30	489.17
581.46	404.91
581.62	463.43
581.78	407.25
581.94	496.19
582.10	437.68
582.26	376.83
582.42	395.55
582.58	451.72
582.74	397.89
582.90	367.46
583.06	379.17
583.22	437.68
583.38	428.32
583.54	358.10
583.70	414.27
583.86	390.87
584.02	369.80
584.18	472.79
584.34	379.17
584.50	400.23
584.66	381.51
584.82	416.62
584.98	411.93
585.14	358.10
585.30	449.38
585.46	416.62
585.62	390.87
585.78	447.04
585.94	454.06
586.10	407.25
586.26	365.12
586.42	411.93
586.58	395.55
586.74	444.70
586.90	355.76
587.06	472.79
587.22	463.43
587.38	444.70
587.54	372.15
587.70	381.51
587.86	425.98
588.02	386.19
588.18	472.79
588.34	484.49
588.49	367.46
588.65	409.59
588.81	418.96
588.97	374.49
589.13	409.59
589.29	435.34
589.45	451.72
589.61	428.32
589.77	449.38
589.93	388.53
590.08	407.25
590.24	477.47
590.40	355.76
590.56	449.38
590.72	395.55
590.88	379.17
591.04	421.30
591.20	367.46
591.35	461.09
591.51	458.74
591.67	341.72
591.83	447.04
591.99	414.27
592.15	435.34
592.31	379.17
592.46	388.53
592.62	332.36
592.78	435.34
592.94	486.83
593.10	388.53
593.26	341.72
593.41	465.77
593.57	435.34
593.73	435.34
593.89	400.23
594.05	458.74
594.20	407.25
594.36	491.51
594.52	444.70
594.68	414.27
594.84	454.06
594.99	465.77
595.15	482.15
595.31	472.79
595.47	514.92
595.62	388.53
595.78	465.77
595.94	402.57
596.10	472.79
596.25	514.92
596.41	416.62
596.57	400.23
596.73	425.98
596.88	365.12
597.04	348.74
597.20	404.91
597.36	383.85
597.51	430.66
597.67	416.62
597.83	463.43
597.99	400.23
598.14	458.74
598.30	475.13
598.46	393.21
598.61	381.51
598.77	388.53
598.93	465.77
599.09	411.93
599.24	383.85
599.40	418.96
599.56	433.00
599.71	390.87
599.87	390.87
600.03	423.64
600.18	442.36
600.34	482.15
600.50	433.00
600.65	437.68
600.81	409.59
600.97	358.10
601.12	479.81
601.28	442.36
601.44	444.70
601.59	404.91
601.75	428.32
601.91	383.85
602.06	386.19
602.22	491.51
602.37	435.34
602.53	475.13
602.69	454.06
602.84	393.21
603.00	353.42
603.16	423.64
603.31	440.02
603.47	416.62
603.62	440.02
603.78	418.96
603.94	454.06
604.09	435.34
604.25	414.27
604.40	393.21
604.56	510.24
604.71	449.38
604.87	390.87
605.03	423.64
605.18	409.59
605.34	423.64
605.49	402.57
605.65	479.81
605.80	407.25
605.96	430.66
606.12	386.19
606.27	409.59
606.43	402.57
606.58	423.64
606.74	416.62
606.89	383.85
607.05	409.59
607.20	496.19
607.36	332.36
607.51	374.49
607.67	486.83
607.82	414.27
607.98	465.77
608.13	365.12
608.29	496.19
608.44	365.12
608.60	437.68
608.75	477.47
608.91	468.11
609.06	521.94
609.22	482.15
609.37	435.34
609.53	325.33
609.68	393.21
609.84	421.30
609.99	388.53
610.15	414.27
