SpectraSuite Data File
++++++++++++++++++++++++++++++++++++
Date: Fri Oct 25 12:11:46 EDT 2013
User: price-jones
Dark Spectrum Present: No
Reference Spectrum Present: No
Number of Sampled Component Spectra: 1
Spectrometers: USB2+H05261
Integration Time (usec): 100000 (USB2+H05261)
Spectra Averaged: 1 (USB2+H05261)
Boxcar Smoothing: 0 (USB2+H05261)
Correct for Electrical Dark: No (USB2+H05261)
Strobe/Lamp Enabled: No (USB2+H05261)
Correct for Detector Non-linearity: No (USB2+H05261)
Correct for Stray Light: No (USB2+H05261)
Number of Pixels in Processed Spectrum: 2048
>>>>>Begin Processed Spectral Data<<<<<
365.73	266.82
365.92	266.82
366.12	266.82
366.32	297.25
366.52	250.44
366.72	304.27
366.91	252.78
367.11	168.52
367.31	283.20
367.51	257.46
367.70	273.84
367.90	212.99
368.10	203.63
368.30	259.80
368.49	280.86
368.69	262.14
368.89	231.71
369.09	266.82
369.28	290.23
369.48	353.42
369.68	252.78
369.87	330.02
370.07	334.70
370.27	341.72
370.47	322.99
370.66	416.62
370.86	311.29
371.06	325.33
371.25	425.98
371.45	346.40
371.65	318.31
371.84	334.70
372.04	355.76
372.24	353.42
372.44	306.61
372.63	393.21
372.83	409.59
373.03	404.91
373.22	355.76
373.42	414.27
373.62	395.55
373.81	390.87
374.01	454.06
374.21	498.53
374.40	454.06
374.60	440.02
374.79	414.27
374.99	376.83
375.19	423.64
375.38	521.94
375.58	407.25
375.78	397.89
375.97	463.43
376.17	435.34
376.37	435.34
376.56	369.80
376.76	365.12
376.95	393.21
377.15	383.85
377.35	411.93
377.54	447.04
377.74	397.89
377.93	402.57
378.13	379.17
378.33	449.38
378.52	430.66
378.72	411.93
378.91	444.70
379.11	465.77
379.31	411.93
379.50	433.00
379.70	482.15
379.89	414.27
380.09	395.55
380.28	440.02
380.48	409.59
380.68	414.27
380.87	386.19
381.07	416.62
381.26	442.36
381.46	454.06
381.65	365.12
381.85	409.59
382.04	435.34
382.24	437.68
382.43	346.40
382.63	386.19
382.83	428.32
383.02	430.66
383.22	442.36
383.41	393.21
383.61	372.15
383.80	428.32
384.00	395.55
384.19	339.38
384.39	402.57
384.58	393.21
384.78	447.04
384.97	428.32
385.17	325.33
385.36	306.61
385.56	386.19
385.75	400.23
385.95	397.89
386.14	386.19
386.34	440.02
386.53	433.00
386.72	397.89
386.92	372.15
387.11	374.49
387.31	388.53
387.50	393.21
387.70	362.78
387.89	425.98
388.09	414.27
388.28	404.91
388.48	423.64
388.67	414.27
388.86	330.02
389.06	407.25
389.25	465.77
389.45	456.40
389.64	407.25
389.84	409.59
390.03	503.22
390.22	397.89
390.42	416.62
390.61	409.59
390.81	390.87
391.00	468.11
391.19	465.77
391.39	393.21
391.58	372.15
391.78	383.85
391.97	369.80
392.16	421.30
392.36	393.21
392.55	407.25
392.75	400.23
392.94	376.83
393.13	362.78
393.33	318.31
393.52	444.70
393.71	411.93
393.91	491.51
394.10	393.21
394.29	358.10
394.49	386.19
394.68	397.89
394.88	402.57
395.07	407.25
395.26	463.43
395.46	409.59
395.65	367.46
395.84	360.44
396.04	400.23
396.23	388.53
396.42	395.55
396.62	367.46
396.81	416.62
397.00	393.21
397.19	482.15
397.39	304.27
397.58	425.98
397.77	425.98
397.97	395.55
398.16	379.17
398.35	444.70
398.55	421.30
398.74	395.55
398.93	491.51
399.12	388.53
399.32	447.04
399.51	472.79
399.70	404.91
399.90	435.34
400.09	440.02
400.28	479.81
400.47	456.40
400.67	451.72
400.86	479.81
401.05	454.06
401.24	395.55
401.44	440.02
401.63	372.15
401.82	397.89
402.01	381.51
402.21	402.57
402.40	454.06
402.59	418.96
402.78	416.62
402.97	451.72
403.17	367.46
403.36	351.08
403.55	444.70
403.74	390.87
403.93	379.17
404.13	430.66
404.32	414.27
404.51	355.76
404.70	447.04
404.89	404.91
405.09	447.04
405.28	414.27
405.47	374.49
405.66	418.96
405.85	428.32
406.05	461.09
406.24	465.77
406.43	449.38
406.62	505.56
406.81	339.38
407.00	458.74
407.20	400.23
407.39	308.95
407.58	397.89
407.77	348.74
407.96	362.78
408.15	440.02
408.34	402.57
408.54	433.00
408.73	423.64
408.92	355.76
409.11	475.13
409.30	425.98
409.49	358.10
409.68	388.53
409.87	390.87
410.07	465.77
410.26	461.09
410.45	372.15
410.64	428.32
410.83	428.32
411.02	449.38
411.21	404.91
411.40	395.55
411.59	468.11
411.78	367.46
411.98	423.64
412.17	379.17
412.36	386.19
412.55	416.62
412.74	458.74
412.93	440.02
413.12	470.45
413.31	428.32
413.50	402.57
413.69	351.08
413.88	458.74
414.07	395.55
414.26	383.85
414.45	465.77
414.64	372.15
414.83	365.12
415.02	433.00
415.22	400.23
415.41	454.06
415.60	454.06
415.79	437.68
415.98	442.36
416.17	388.53
416.36	433.00
416.55	365.12
416.74	400.23
416.93	388.53
417.12	376.83
417.31	449.38
417.50	407.25
417.69	411.93
417.88	379.17
418.07	416.62
418.26	428.32
418.45	388.53
418.64	421.30
418.83	404.91
419.02	407.25
419.21	365.12
419.39	388.53
419.58	397.89
419.77	374.49
419.96	472.79
420.15	344.06
420.34	353.42
420.53	348.74
420.72	407.25
420.91	484.49
421.10	482.15
421.29	444.70
421.48	458.74
421.67	421.30
421.86	482.15
422.05	428.32
422.24	402.57
422.43	358.10
422.61	325.33
422.80	409.59
422.99	428.32
423.18	500.87
423.37	454.06
423.56	421.30
423.75	421.30
423.94	411.93
424.13	416.62
424.32	322.99
424.50	437.68
424.69	414.27
424.88	486.83
425.07	369.80
425.26	411.93
425.45	430.66
425.64	379.17
425.83	395.55
426.01	402.57
426.20	418.96
426.39	402.57
426.58	463.43
426.77	477.47
426.96	456.40
427.15	451.72
427.33	414.27
427.52	365.12
427.71	430.66
427.90	390.87
428.09	341.72
428.28	358.10
428.46	386.19
428.65	404.91
428.84	390.87
429.03	407.25
429.22	365.12
429.40	437.68
429.59	433.00
429.78	388.53
429.97	428.32
430.16	421.30
430.34	409.59
430.53	383.85
430.72	416.62
430.91	463.43
431.10	376.83
431.28	395.55
431.47	454.06
431.66	383.85
431.85	416.62
432.03	322.99
432.22	444.70
432.41	386.19
432.60	435.34
432.79	440.02
432.97	435.34
433.16	472.79
433.35	458.74
433.54	421.30
433.72	390.87
433.91	435.34
434.10	447.04
434.28	496.19
434.47	428.32
434.66	444.70
434.85	390.87
435.03	444.70
435.22	463.43
435.41	418.96
435.59	358.10
435.78	470.45
435.97	437.68
436.16	482.15
436.34	379.17
436.53	425.98
436.72	437.68
436.90	409.59
437.09	400.23
437.28	407.25
437.46	381.51
437.65	418.96
437.84	397.89
438.02	409.59
438.21	400.23
438.40	425.98
438.58	442.36
438.77	414.27
438.96	416.62
439.14	411.93
439.33	416.62
439.52	372.15
439.70	451.72
439.89	409.59
440.08	496.19
440.26	472.79
440.45	454.06
440.63	418.96
440.82	418.96
441.01	379.17
441.19	463.43
441.38	416.62
441.57	414.27
441.75	489.17
441.94	449.38
442.12	358.10
442.31	409.59
442.50	374.49
442.68	517.26
442.87	465.77
443.05	397.89
443.24	440.02
443.43	402.57
443.61	498.53
443.80	411.93
443.98	404.91
444.17	400.23
444.35	425.98
444.54	400.23
444.73	472.79
444.91	442.36
445.10	423.64
445.28	393.21
445.47	433.00
445.65	526.62
445.84	404.91
446.02	430.66
446.21	355.76
446.39	407.25
446.58	386.19
446.77	395.55
446.95	482.15
447.14	425.98
447.32	475.13
447.51	390.87
447.69	409.59
447.88	477.47
448.06	482.15
448.25	374.49
448.43	416.62
448.62	386.19
448.80	402.57
448.99	447.04
449.17	404.91
449.36	449.38
449.54	470.45
449.73	433.00
449.91	465.77
450.10	416.62
450.28	456.40
450.46	449.38
450.65	402.57
450.83	447.04
451.02	400.23
451.20	440.02
451.39	404.91
451.57	430.66
451.76	315.97
451.94	327.68
452.13	440.02
452.31	395.55
452.49	365.12
452.68	407.25
452.86	421.30
453.05	468.11
453.23	437.68
453.42	442.36
453.60	365.12
453.78	351.08
453.97	435.34
454.15	409.59
454.34	421.30
454.52	393.21
454.70	440.02
454.89	374.49
455.07	425.98
455.26	503.22
455.44	472.79
455.62	362.78
455.81	393.21
455.99	416.62
456.17	505.56
456.36	362.78
456.54	444.70
456.73	425.98
456.91	404.91
457.09	428.32
457.28	447.04
457.46	330.02
457.64	402.57
457.83	395.55
458.01	344.06
458.19	477.47
458.38	444.70
458.56	482.15
458.74	475.13
458.93	395.55
459.11	411.93
459.29	451.72
459.48	468.11
459.66	447.04
459.84	397.89
460.03	491.51
460.21	479.81
460.39	416.62
460.57	435.34
460.76	409.59
460.94	437.68
461.12	360.44
461.31	369.80
461.49	390.87
461.67	416.62
461.85	456.40
462.04	388.53
462.22	760.67
462.40	440.02
462.59	437.68
462.77	451.72
462.95	425.98
463.13	428.32
463.32	423.64
463.50	447.04
463.68	435.34
463.86	440.02
464.05	397.89
464.23	461.09
464.41	461.09
464.59	374.49
464.78	451.72
464.96	402.57
465.14	468.11
465.32	390.87
465.50	400.23
465.69	454.06
465.87	393.21
466.05	461.09
466.23	376.83
466.41	433.00
466.60	435.34
466.78	402.57
466.96	418.96
467.14	458.74
467.32	362.78
467.51	433.00
467.69	383.85
467.87	447.04
468.05	390.87
468.23	409.59
468.41	411.93
468.60	486.83
468.78	425.98
468.96	461.09
469.14	362.78
469.32	447.04
469.50	430.66
469.69	489.17
469.87	365.12
470.05	351.08
470.23	461.09
470.41	351.08
470.59	440.02
470.77	407.25
470.95	411.93
471.14	425.98
471.32	418.96
471.50	449.38
471.68	456.40
471.86	421.30
472.04	397.89
472.22	461.09
472.40	395.55
472.58	376.83
472.77	402.57
472.95	386.19
473.13	414.27
473.31	493.85
473.49	330.02
473.67	425.98
473.85	367.46
474.03	409.59
474.21	421.30
474.39	376.83
474.57	458.74
474.75	423.64
474.93	433.00
475.12	407.25
475.30	425.98
475.48	437.68
475.66	416.62
475.84	421.30
476.02	372.15
476.20	447.04
476.38	425.98
476.56	449.38
476.74	416.62
476.92	437.68
477.10	416.62
477.28	404.91
477.46	463.43
477.64	449.38
477.82	402.57
478.00	470.45
478.18	442.36
478.36	383.85
478.54	369.80
478.72	447.04
478.90	374.49
479.08	425.98
479.26	416.62
479.44	414.27
479.62	407.25
479.80	395.55
479.98	414.27
480.16	372.15
480.34	421.30
480.52	433.00
480.70	393.21
480.88	409.59
481.06	397.89
481.24	486.83
481.41	442.36
481.59	479.81
481.77	482.15
481.95	390.87
482.13	425.98
482.31	423.64
482.49	358.10
482.67	386.19
482.85	456.40
483.03	411.93
483.21	430.66
483.39	411.93
483.57	423.64
483.74	404.91
483.92	418.96
484.10	430.66
484.28	423.64
484.46	447.04
484.64	433.00
484.82	395.55
485.00	407.25
485.18	411.93
485.35	425.98
485.53	402.57
485.71	418.96
485.89	423.64
486.07	482.15
486.25	449.38
486.43	418.96
486.61	400.23
486.78	503.22
486.96	402.57
487.14	414.27
487.32	411.93
487.50	421.30
487.68	461.09
487.85	475.13
488.03	358.10
488.21	388.53
488.39	339.38
488.57	456.40
488.75	500.87
488.92	458.74
489.10	479.81
489.28	444.70
489.46	393.21
489.64	407.25
489.81	372.15
489.99	430.66
490.17	362.78
490.35	507.90
490.53	430.66
490.70	458.74
490.88	376.83
491.06	425.98
491.24	400.23
491.41	428.32
491.59	416.62
491.77	433.00
491.95	407.25
492.13	425.98
492.30	449.38
492.48	414.27
492.66	395.55
492.84	402.57
493.01	435.34
493.19	400.23
493.37	500.87
493.54	372.15
493.72	376.83
493.90	411.93
494.08	369.80
494.25	362.78
494.43	491.51
494.61	451.72
494.79	484.49
494.96	369.80
495.14	440.02
495.32	407.25
495.49	390.87
495.67	433.00
495.85	390.87
496.02	390.87
496.20	451.72
496.38	404.91
496.55	362.78
496.73	358.10
496.91	484.49
497.09	447.04
497.26	381.51
497.44	369.80
497.62	435.34
497.79	449.38
497.97	402.57
498.14	449.38
498.32	400.23
498.50	435.34
498.67	500.87
498.85	400.23
499.03	365.12
499.20	374.49
499.38	435.34
499.56	425.98
499.73	449.38
499.91	409.59
500.08	407.25
500.26	451.72
500.44	433.00
500.61	397.89
500.79	330.02
500.97	447.04
501.14	444.70
501.32	437.68
501.49	411.93
501.67	402.57
501.84	362.78
502.02	444.70
502.20	479.81
502.37	435.34
502.55	404.91
502.72	353.42
502.90	397.89
503.07	437.68
503.25	362.78
503.43	341.72
503.60	442.36
503.78	411.93
503.95	468.11
504.13	437.68
504.30	465.77
504.48	423.64
504.65	409.59
504.83	407.25
505.01	411.93
505.18	489.17
505.36	425.98
505.53	353.42
505.71	435.34
505.88	397.89
506.06	421.30
506.23	411.93
506.41	428.32
506.58	470.45
506.76	470.45
506.93	379.17
507.11	421.30
507.28	400.23
507.46	402.57
507.63	463.43
507.81	404.91
507.98	430.66
508.16	402.57
508.33	407.25
508.50	425.98
508.68	379.17
508.85	416.62
509.03	475.13
509.20	400.23
509.38	430.66
509.55	437.68
509.73	400.23
509.90	433.00
510.08	463.43
510.25	388.53
510.42	425.98
510.60	393.21
510.77	465.77
510.95	428.32
511.12	409.59
511.30	416.62
511.47	449.38
511.64	538.32
511.82	416.62
511.99	411.93
512.17	423.64
512.34	458.74
512.51	355.76
512.69	365.12
512.86	372.15
513.04	381.51
513.21	374.49
513.38	372.15
513.56	346.40
513.73	437.68
513.90	386.19
514.08	433.00
514.25	475.13
514.43	388.53
514.60	414.27
514.77	484.49
514.95	444.70
515.12	449.38
515.29	425.98
515.47	458.74
515.64	428.32
515.81	376.83
515.99	444.70
516.16	386.19
516.33	428.32
516.51	358.10
516.68	383.85
516.85	402.57
517.03	468.11
517.20	456.40
517.37	444.70
517.54	404.91
517.72	360.44
517.89	393.21
518.06	421.30
518.24	414.27
518.41	465.77
518.58	423.64
518.75	393.21
518.93	423.64
519.10	418.96
519.27	425.98
519.45	416.62
519.62	442.36
519.79	484.49
519.96	372.15
520.14	386.19
520.31	444.70
520.48	437.68
520.65	425.98
520.83	477.47
521.00	440.02
521.17	395.55
521.34	400.23
521.52	374.49
521.69	386.19
521.86	428.32
522.03	489.17
522.20	381.51
522.38	442.36
522.55	437.68
522.72	376.83
522.89	416.62
523.07	470.45
523.24	433.00
523.41	430.66
523.58	376.83
523.75	404.91
523.92	428.32
524.10	421.30
524.27	360.44
524.44	379.17
524.61	531.30
524.78	458.74
524.96	421.30
525.13	332.36
525.30	440.02
525.47	444.70
525.64	458.74
525.81	458.74
525.98	433.00
526.16	423.64
526.33	435.34
526.50	360.44
526.67	369.80
526.84	416.62
527.01	409.59
527.18	425.98
527.36	440.02
527.53	400.23
527.70	442.36
527.87	374.49
528.04	442.36
528.21	379.17
528.38	409.59
528.55	470.45
528.72	435.34
528.89	433.00
529.07	442.36
529.24	397.89
529.41	411.93
529.58	407.25
529.75	440.02
529.92	404.91
530.09	337.04
530.26	454.06
530.43	430.66
530.60	376.83
530.77	409.59
530.94	468.11
531.11	433.00
531.28	393.21
531.46	402.57
531.63	442.36
531.80	372.15
531.97	404.91
532.14	425.98
532.31	489.17
532.48	376.83
532.65	442.36
532.82	367.46
532.99	414.27
533.16	435.34
533.33	393.21
533.50	390.87
533.67	404.91
533.84	496.19
534.01	404.91
534.18	369.80
534.35	418.96
534.52	423.64
534.69	428.32
534.86	400.23
535.03	397.89
535.20	404.91
535.37	451.72
535.54	423.64
535.71	425.98
535.88	430.66
536.05	421.30
536.22	461.09
536.38	430.66
536.55	411.93
536.72	372.15
536.89	351.08
537.06	435.34
537.23	327.68
537.40	409.59
537.57	402.57
537.74	470.45
537.91	418.96
538.08	484.49
538.25	433.00
538.42	435.34
538.59	437.68
538.75	395.55
538.92	465.77
539.09	402.57
539.26	367.46
539.43	489.17
539.60	386.19
539.77	386.19
539.94	423.64
540.11	418.96
540.28	505.56
540.44	470.45
540.61	367.46
540.78	381.51
540.95	428.32
541.12	433.00
541.29	404.91
541.46	414.27
541.62	395.55
541.79	428.32
541.96	400.23
542.13	400.23
542.30	435.34
542.47	400.23
542.63	421.30
542.80	353.42
542.97	472.79
543.14	402.57
543.31	454.06
543.48	435.34
543.64	437.68
543.81	442.36
543.98	411.93
544.15	395.55
544.32	421.30
544.48	418.96
544.65	444.70
544.82	449.38
544.99	376.83
545.16	498.53
545.32	421.30
545.49	437.68
545.66	411.93
545.83	465.77
546.00	344.06
546.16	447.04
546.33	449.38
546.50	418.96
546.67	404.91
546.83	379.17
547.00	465.77
547.17	327.68
547.34	388.53
547.50	456.40
547.67	428.32
547.84	362.78
548.00	440.02
548.17	423.64
548.34	435.34
548.51	496.19
548.67	390.87
548.84	449.38
549.01	477.47
549.18	411.93
549.34	477.47
549.51	360.44
549.68	425.98
549.84	404.91
550.01	393.21
550.18	437.68
550.34	510.24
550.51	416.62
550.68	458.74
550.84	402.57
551.01	411.93
551.18	411.93
551.34	442.36
551.51	407.25
551.68	442.36
551.84	376.83
552.01	442.36
552.18	435.34
552.34	355.76
552.51	451.72
552.68	388.53
552.84	433.00
553.01	456.40
553.18	425.98
553.34	440.02
553.51	435.34
553.67	461.09
553.84	433.00
554.01	458.74
554.17	449.38
554.34	411.93
554.51	456.40
554.67	409.59
554.84	461.09
555.00	416.62
555.17	372.15
555.33	470.45
555.50	449.38
555.67	393.21
555.83	407.25
556.00	400.23
556.16	596.84
556.33	454.06
556.50	362.78
556.66	365.12
556.83	463.43
556.99	397.89
557.16	454.06
557.32	433.00
557.49	376.83
557.65	440.02
557.82	526.62
557.98	407.25
558.15	379.17
558.32	454.06
558.48	379.17
558.65	454.06
558.81	477.47
558.98	397.89
559.14	428.32
559.31	451.72
559.47	435.34
559.64	421.30
559.80	421.30
559.97	414.27
560.13	418.96
560.30	414.27
560.46	465.77
560.63	416.62
560.79	414.27
560.96	430.66
561.12	458.74
561.29	444.70
561.45	430.66
561.61	440.02
561.78	456.40
561.94	379.17
562.11	339.38
562.27	507.90
562.44	416.62
562.60	433.00
562.77	404.91
562.93	514.92
563.10	407.25
563.26	416.62
563.42	388.53
563.59	423.64
563.75	418.96
563.92	533.64
564.08	365.12
564.24	433.00
564.41	465.77
564.57	353.42
564.74	397.89
564.90	475.13
565.07	470.45
565.23	454.06
565.39	514.92
565.56	381.51
565.72	367.46
565.88	386.19
566.05	397.89
566.21	442.36
566.38	400.23
566.54	414.27
566.70	416.62
566.87	440.02
567.03	418.96
567.19	454.06
567.36	447.04
567.52	355.76
567.68	362.78
567.85	425.98
568.01	346.40
568.17	362.78
568.34	470.45
568.50	430.66
568.66	346.40
568.83	451.72
568.99	381.51
569.15	458.74
569.32	465.77
569.48	376.83
569.64	451.72
569.81	491.51
569.97	423.64
570.13	463.43
570.30	416.62
570.46	456.40
570.62	402.57
570.78	479.81
570.95	423.64
571.11	444.70
571.27	416.62
571.43	395.55
571.60	465.77
571.76	421.30
571.92	451.72
572.09	407.25
572.25	376.83
572.41	533.64
572.57	430.66
572.74	425.98
572.90	400.23
573.06	404.91
573.22	416.62
573.38	470.45
573.55	465.77
573.71	395.55
573.87	475.13
574.03	479.81
574.20	348.74
574.36	372.15
574.52	414.27
574.68	451.72
574.84	428.32
575.01	320.65
575.17	400.23
575.33	454.06
575.49	451.72
575.65	435.34
575.82	404.91
575.98	346.40
576.14	475.13
576.30	358.10
576.46	458.74
576.62	449.38
576.79	449.38
576.95	449.38
577.11	418.96
577.27	407.25
577.43	435.34
577.59	400.23
577.75	475.13
577.92	390.87
578.08	430.66
578.24	395.55
578.40	451.72
578.56	458.74
578.72	461.09
578.88	409.59
579.04	433.00
579.21	437.68
579.37	397.89
579.53	383.85
579.69	428.32
579.85	451.72
580.01	491.51
580.17	479.81
580.33	435.34
580.49	376.83
580.65	367.46
580.82	397.89
580.98	383.85
581.14	397.89
581.30	447.04
581.46	411.93
581.62	454.06
581.78	400.23
581.94	451.72
582.10	435.34
582.26	397.89
582.42	404.91
582.58	355.76
582.74	369.80
582.90	433.00
583.06	528.96
583.22	365.12
583.38	470.45
583.54	372.15
583.70	447.04
583.86	367.46
584.02	437.68
584.18	447.04
584.34	496.19
584.50	414.27
584.66	393.21
584.82	369.80
584.98	440.02
585.14	404.91
585.30	430.66
585.46	425.98
585.62	414.27
585.78	362.78
585.94	447.04
586.10	355.76
586.26	400.23
586.42	503.22
586.58	465.77
586.74	418.96
586.90	444.70
587.06	400.23
587.22	374.49
587.38	456.40
587.54	440.02
587.70	388.53
587.86	470.45
588.02	433.00
588.18	414.27
588.34	447.04
588.49	332.36
588.65	421.30
588.81	397.89
588.97	428.32
589.13	379.17
589.29	421.30
589.45	423.64
589.61	372.15
589.77	400.23
589.93	395.55
590.08	433.00
590.24	383.85
590.40	440.02
590.56	407.25
590.72	433.00
590.88	388.53
591.04	407.25
591.20	444.70
591.35	451.72
591.51	458.74
591.67	393.21
591.83	409.59
591.99	451.72
592.15	447.04
592.31	449.38
592.46	367.46
592.62	442.36
592.78	379.17
592.94	407.25
593.10	386.19
593.26	400.23
593.41	386.19
593.57	383.85
593.73	449.38
593.89	435.34
594.05	421.30
594.20	440.02
594.36	463.43
594.52	416.62
594.68	402.57
594.84	430.66
594.99	477.47
595.15	458.74
595.31	484.49
595.47	491.51
595.62	390.87
595.78	402.57
595.94	388.53
596.10	458.74
596.25	435.34
596.41	437.68
596.57	411.93
596.73	416.62
596.88	414.27
597.04	454.06
597.20	414.27
597.36	472.79
597.51	463.43
597.67	430.66
597.83	404.91
597.99	442.36
598.14	360.44
598.30	442.36
598.46	381.51
598.61	484.49
598.77	433.00
598.93	383.85
599.09	430.66
599.24	423.64
599.40	479.81
599.56	451.72
599.71	414.27
599.87	451.72
600.03	447.04
600.18	414.27
600.34	421.30
600.50	447.04
600.65	465.77
600.81	327.68
600.97	348.74
601.12	386.19
601.28	440.02
601.44	447.04
601.59	388.53
601.75	442.36
601.91	360.44
602.06	475.13
602.22	484.49
602.37	416.62
602.53	444.70
602.69	442.36
602.84	397.89
603.00	456.40
603.16	409.59
603.31	425.98
603.47	524.28
603.62	404.91
603.78	470.45
603.94	395.55
604.09	447.04
604.25	463.43
604.40	421.30
604.56	449.38
604.71	390.87
604.87	411.93
605.03	390.87
605.18	397.89
605.34	484.49
605.49	423.64
605.65	421.30
605.80	449.38
605.96	435.34
606.12	376.83
606.27	430.66
606.43	393.21
606.58	423.64
606.74	418.96
606.89	482.15
607.05	491.51
607.20	437.68
607.36	411.93
607.51	449.38
607.67	444.70
607.82	374.49
607.98	458.74
608.13	414.27
608.29	344.06
608.44	468.11
608.60	425.98
608.75	395.55
608.91	491.51
609.06	444.70
609.22	390.87
609.37	423.64
609.53	397.89
609.68	390.87
609.84	397.89
609.99	477.47
610.15	454.06
