SpectraSuite Data File
++++++++++++++++++++++++++++++++++++
Date: Fri Oct 25 12:11:00 EDT 2013
User: price-jones
Dark Spectrum Present: No
Reference Spectrum Present: No
Number of Sampled Component Spectra: 1
Spectrometers: USB2+H05261
Integration Time (usec): 100000 (USB2+H05261)
Spectra Averaged: 1 (USB2+H05261)
Boxcar Smoothing: 0 (USB2+H05261)
Correct for Electrical Dark: No (USB2+H05261)
Strobe/Lamp Enabled: No (USB2+H05261)
Correct for Detector Non-linearity: No (USB2+H05261)
Correct for Stray Light: No (USB2+H05261)
Number of Pixels in Processed Spectrum: 2048
>>>>>Begin Processed Spectral Data<<<<<
365.73	327.68
365.92	327.68
366.12	327.68
366.32	301.93
366.52	252.78
366.72	243.42
366.91	250.44
367.11	257.46
367.31	294.91
367.51	224.69
367.70	248.10
367.90	308.95
368.10	217.67
368.30	276.18
368.49	243.42
368.69	238.73
368.89	220.01
369.09	252.78
369.28	355.76
369.48	234.05
369.68	262.14
369.87	229.37
370.07	362.78
370.27	330.02
370.47	318.31
370.66	355.76
370.86	353.42
371.06	369.80
371.25	346.40
371.45	383.85
371.65	482.15
371.84	397.89
372.04	330.02
372.24	376.83
372.44	369.80
372.63	393.21
372.83	322.99
373.03	433.00
373.22	409.59
373.42	381.51
373.62	430.66
373.81	393.21
374.01	454.06
374.21	461.09
374.40	465.77
374.60	458.74
374.79	451.72
374.99	414.27
375.19	472.79
375.38	491.51
375.58	458.74
375.78	456.40
375.97	397.89
376.17	465.77
376.37	395.55
376.56	449.38
376.76	367.46
376.95	414.27
377.15	376.83
377.35	407.25
377.54	433.00
377.74	421.30
377.93	393.21
378.13	381.51
378.33	395.55
378.52	390.87
378.72	489.17
378.91	461.09
379.11	376.83
379.31	449.38
379.50	414.27
379.70	437.68
379.89	386.19
380.09	386.19
380.28	381.51
380.48	379.17
380.68	395.55
380.87	418.96
381.07	360.44
381.26	397.89
381.46	428.32
381.65	418.96
381.85	395.55
382.04	430.66
382.24	397.89
382.43	428.32
382.63	414.27
382.83	444.70
383.02	433.00
383.22	430.66
383.41	351.08
383.61	369.80
383.80	414.27
384.00	348.74
384.19	400.23
384.39	365.12
384.58	477.47
384.78	444.70
384.97	397.89
385.17	404.91
385.36	388.53
385.56	374.49
385.75	372.15
385.95	339.38
386.14	458.74
386.34	397.89
386.53	430.66
386.72	404.91
386.92	498.53
387.11	435.34
387.31	472.79
387.50	397.89
387.70	376.83
387.89	418.96
388.09	477.47
388.28	451.72
388.48	397.89
388.67	416.62
388.86	407.25
389.06	402.57
389.25	421.30
389.45	484.49
389.64	435.34
389.84	428.32
390.03	386.19
390.22	411.93
390.42	358.10
390.61	397.89
390.81	369.80
391.00	395.55
391.19	456.40
391.39	440.02
391.58	435.34
391.78	369.80
391.97	416.62
392.16	451.72
392.36	433.00
392.55	416.62
392.75	416.62
392.94	414.27
393.13	418.96
393.33	358.10
393.52	402.57
393.71	433.00
393.91	397.89
394.10	411.93
394.29	351.08
394.49	390.87
394.68	442.36
394.88	456.40
395.07	355.76
395.26	418.96
395.46	440.02
395.65	353.42
395.84	411.93
396.04	425.98
396.23	390.87
396.42	402.57
396.62	416.62
396.81	409.59
397.00	390.87
397.19	383.85
397.39	407.25
397.58	414.27
397.77	416.62
397.97	383.85
398.16	421.30
398.35	449.38
398.55	414.27
398.74	311.29
398.93	409.59
399.12	360.44
399.32	369.80
399.51	430.66
399.70	390.87
399.90	430.66
400.09	447.04
400.28	423.64
400.47	383.85
400.67	444.70
400.86	388.53
401.05	449.38
401.24	421.30
401.44	456.40
401.63	407.25
401.82	435.34
402.01	435.34
402.21	390.87
402.40	381.51
402.59	369.80
402.78	379.17
402.97	388.53
403.17	369.80
403.36	433.00
403.55	397.89
403.74	365.12
403.93	402.57
404.13	461.09
404.32	393.21
404.51	388.53
404.70	397.89
404.89	381.51
405.09	425.98
405.28	397.89
405.47	470.45
405.66	414.27
405.85	374.49
406.05	437.68
406.24	407.25
406.43	442.36
406.62	381.51
406.81	451.72
407.00	362.78
407.20	390.87
407.39	407.25
407.58	416.62
407.77	470.45
407.96	456.40
408.15	362.78
408.34	397.89
408.54	416.62
408.73	440.02
408.92	463.43
409.11	435.34
409.30	418.96
409.49	407.25
409.68	381.51
409.87	395.55
410.07	374.49
410.26	451.72
410.45	418.96
410.64	358.10
410.83	395.55
411.02	369.80
411.21	428.32
411.40	489.17
411.59	482.15
411.78	407.25
411.98	376.83
412.17	379.17
412.36	374.49
412.55	416.62
412.74	433.00
412.93	496.19
413.12	425.98
413.31	388.53
413.50	437.68
413.69	447.04
413.88	456.40
414.07	367.46
414.26	393.21
414.45	451.72
414.64	456.40
414.83	468.11
415.02	311.29
415.22	447.04
415.41	500.87
415.60	365.12
415.79	369.80
415.98	402.57
416.17	428.32
416.36	435.34
416.55	386.19
416.74	479.81
416.93	390.87
417.12	374.49
417.31	388.53
417.50	414.27
417.69	444.70
417.88	414.27
418.07	360.44
418.26	374.49
418.45	395.55
418.64	402.57
418.83	421.30
419.02	318.31
419.21	411.93
419.39	369.80
419.58	365.12
419.77	395.55
419.96	442.36
420.15	404.91
420.34	383.85
420.53	421.30
420.72	393.21
420.91	468.11
421.10	393.21
421.29	430.66
421.48	365.12
421.67	430.66
421.86	341.72
422.05	379.17
422.24	393.21
422.43	442.36
422.61	451.72
422.80	372.15
422.99	390.87
423.18	334.70
423.37	482.15
423.56	507.90
423.75	472.79
423.94	379.17
424.13	409.59
424.32	390.87
424.50	428.32
424.69	411.93
424.88	369.80
425.07	360.44
425.26	379.17
425.45	444.70
425.64	407.25
425.83	463.43
426.01	468.11
426.20	451.72
426.39	425.98
426.58	395.55
426.77	500.87
426.96	395.55
427.15	381.51
427.33	447.04
427.52	421.30
427.71	423.64
427.90	423.64
428.09	376.83
428.28	360.44
428.46	409.59
428.65	411.93
428.84	374.49
429.03	479.81
429.22	388.53
429.40	348.74
429.59	414.27
429.78	465.77
429.97	388.53
430.16	376.83
430.34	454.06
430.53	362.78
430.72	397.89
430.91	407.25
431.10	355.76
431.28	449.38
431.47	400.23
431.66	414.27
431.85	386.19
432.03	449.38
432.22	454.06
432.41	393.21
432.60	376.83
432.79	444.70
432.97	381.51
433.16	337.04
433.35	404.91
433.54	423.64
433.72	425.98
433.91	435.34
434.10	418.96
434.28	365.12
434.47	341.72
434.66	461.09
434.85	369.80
435.03	397.89
435.22	372.15
435.41	468.11
435.59	411.93
435.78	468.11
435.97	433.00
436.16	416.62
436.34	430.66
436.53	454.06
436.72	346.40
436.90	428.32
437.09	425.98
437.28	416.62
437.46	367.46
437.65	428.32
437.84	381.51
438.02	397.89
438.21	418.96
438.40	407.25
438.58	463.43
438.77	423.64
438.96	430.66
439.14	484.49
439.33	386.19
439.52	414.27
439.70	470.45
439.89	465.77
440.08	418.96
440.26	463.43
440.45	374.49
440.63	404.91
440.82	463.43
441.01	475.13
441.19	381.51
441.38	407.25
441.57	411.93
441.75	423.64
441.94	369.80
442.12	414.27
442.31	383.85
442.50	355.76
442.68	428.32
442.87	337.04
443.05	409.59
443.24	447.04
443.43	367.46
443.61	395.55
443.80	428.32
443.98	407.25
444.17	400.23
444.35	428.32
444.54	346.40
444.73	465.77
444.91	451.72
445.10	418.96
445.28	325.33
445.47	358.10
445.65	468.11
445.84	393.21
446.02	348.74
446.21	388.53
446.39	393.21
446.58	500.87
446.77	423.64
446.95	404.91
447.14	409.59
447.32	404.91
447.51	433.00
447.69	454.06
447.88	327.68
448.06	449.38
448.25	393.21
448.43	388.53
448.62	404.91
448.80	393.21
448.99	456.40
449.17	381.51
449.36	379.17
449.54	484.49
449.73	383.85
449.91	376.83
450.10	388.53
450.28	475.13
450.46	472.79
450.65	414.27
450.83	472.79
451.02	447.04
451.20	440.02
451.39	390.87
451.57	383.85
451.76	479.81
451.94	442.36
452.13	463.43
452.31	416.62
452.49	442.36
452.68	416.62
452.86	351.08
453.05	444.70
453.23	379.17
453.42	390.87
453.60	372.15
453.78	444.70
453.97	393.21
454.15	491.51
454.34	430.66
454.52	386.19
454.70	423.64
454.89	388.53
455.07	425.98
455.26	416.62
455.44	463.43
455.62	388.53
455.81	421.30
455.99	435.34
456.17	421.30
456.36	332.36
456.54	395.55
456.73	484.49
456.91	461.09
457.09	376.83
457.28	437.68
457.46	344.06
457.64	402.57
457.83	388.53
458.01	358.10
458.19	444.70
458.38	425.98
458.56	414.27
458.74	447.04
458.93	428.32
459.11	449.38
459.29	388.53
459.48	381.51
459.66	402.57
459.84	440.02
460.03	390.87
460.21	421.30
460.39	465.77
460.57	367.46
460.76	428.32
460.94	442.36
461.12	435.34
461.31	393.21
461.49	411.93
461.67	416.62
461.85	433.00
462.04	447.04
462.22	547.69
462.40	388.53
462.59	430.66
462.77	437.68
462.95	451.72
463.13	430.66
463.32	430.66
463.50	472.79
463.68	451.72
463.86	463.43
464.05	411.93
464.23	461.09
464.41	353.42
464.59	360.44
464.78	418.96
464.96	353.42
465.14	383.85
465.32	341.72
465.50	393.21
465.69	449.38
465.87	435.34
466.05	393.21
466.23	386.19
466.41	397.89
466.60	404.91
466.78	425.98
466.96	416.62
467.14	386.19
467.32	491.51
467.51	437.68
467.69	397.89
467.87	430.66
468.05	421.30
468.23	475.13
468.41	437.68
468.60	486.83
468.78	428.32
468.96	505.56
469.14	489.17
469.32	344.06
469.50	390.87
469.69	374.49
469.87	407.25
470.05	433.00
470.23	358.10
470.41	388.53
470.59	348.74
470.77	409.59
470.95	418.96
471.14	477.47
471.32	447.04
471.50	491.51
471.68	482.15
471.86	367.46
472.04	435.34
472.22	437.68
472.40	409.59
472.58	433.00
472.77	404.91
472.95	465.77
473.13	435.34
473.31	435.34
473.49	348.74
473.67	372.15
473.85	430.66
474.03	491.51
474.21	440.02
474.39	461.09
474.57	428.32
474.75	444.70
474.93	409.59
475.12	360.44
475.30	407.25
475.48	360.44
475.66	360.44
475.84	423.64
476.02	475.13
476.20	430.66
476.38	475.13
476.56	393.21
476.74	461.09
476.92	374.49
477.10	388.53
477.28	409.59
477.46	407.25
477.64	491.51
477.82	414.27
478.00	444.70
478.18	407.25
478.36	440.02
478.54	344.06
478.72	337.04
478.90	397.89
479.08	465.77
479.26	468.11
479.44	390.87
479.62	351.08
479.80	449.38
479.98	435.34
480.16	397.89
480.34	423.64
480.52	463.43
480.70	468.11
480.88	395.55
481.06	425.98
481.24	395.55
481.41	400.23
481.59	414.27
481.77	341.72
481.95	374.49
482.13	461.09
482.31	393.21
482.49	381.51
482.67	437.68
482.85	437.68
483.03	418.96
483.21	390.87
483.39	425.98
483.57	402.57
483.74	491.51
483.92	409.59
484.10	423.64
484.28	414.27
484.46	472.79
484.64	386.19
484.82	433.00
485.00	395.55
485.18	463.43
485.35	423.64
485.53	351.08
485.71	444.70
485.89	409.59
486.07	493.85
486.25	547.69
486.43	435.34
486.61	414.27
486.78	400.23
486.96	360.44
487.14	393.21
487.32	400.23
487.50	334.70
487.68	411.93
487.85	369.80
488.03	435.34
488.21	433.00
488.39	374.49
488.57	367.46
488.75	360.44
488.92	524.28
489.10	369.80
489.28	465.77
489.46	395.55
489.64	400.23
489.81	409.59
489.99	442.36
490.17	433.00
490.35	421.30
490.53	393.21
490.70	416.62
490.88	442.36
491.06	442.36
491.24	503.22
491.41	465.77
491.59	433.00
491.77	367.46
491.95	379.17
492.13	423.64
492.30	376.83
492.48	451.72
492.66	369.80
492.84	334.70
493.01	440.02
493.19	404.91
493.37	442.36
493.54	470.45
493.72	360.44
493.90	425.98
494.08	388.53
494.25	449.38
494.43	421.30
494.61	334.70
494.79	461.09
494.96	390.87
495.14	372.15
495.32	435.34
495.49	449.38
495.67	430.66
495.85	388.53
496.02	442.36
496.20	486.83
496.38	416.62
496.55	414.27
496.73	374.49
496.91	493.85
497.09	414.27
497.26	435.34
497.44	416.62
497.62	383.85
497.79	411.93
497.97	402.57
498.14	421.30
498.32	468.11
498.50	437.68
498.67	449.38
498.85	461.09
499.03	418.96
499.20	379.17
499.38	407.25
499.56	437.68
499.73	409.59
499.91	433.00
500.08	430.66
500.26	379.17
500.44	304.27
500.61	386.19
500.79	468.11
500.97	461.09
501.14	500.87
501.32	498.53
501.49	468.11
501.67	369.80
501.84	395.55
502.02	362.78
502.20	484.49
502.37	444.70
502.55	507.90
502.72	423.64
502.90	433.00
503.07	393.21
503.25	409.59
503.43	463.43
503.60	395.55
503.78	447.04
503.95	395.55
504.13	404.91
504.30	404.91
504.48	442.36
504.65	451.72
504.83	449.38
505.01	463.43
505.18	468.11
505.36	386.19
505.53	428.32
505.71	418.96
505.88	496.19
506.06	397.89
506.23	451.72
506.41	376.83
506.58	367.46
506.76	411.93
506.93	395.55
507.11	411.93
507.28	428.32
507.46	411.93
507.63	456.40
507.81	388.53
507.98	435.34
508.16	358.10
508.33	381.51
508.50	451.72
508.68	383.85
508.85	414.27
509.03	390.87
509.20	435.34
509.38	447.04
509.55	421.30
509.73	400.23
509.90	390.87
510.08	390.87
510.25	470.45
510.42	362.78
510.60	402.57
510.77	383.85
510.95	444.70
511.12	414.27
511.30	449.38
511.47	449.38
511.64	430.66
511.82	421.30
511.99	402.57
512.17	433.00
512.34	334.70
512.51	475.13
512.69	465.77
512.86	449.38
513.04	374.49
513.21	435.34
513.38	390.87
513.56	430.66
513.73	449.38
513.90	311.29
514.08	379.17
514.25	395.55
514.43	425.98
514.60	320.65
514.77	402.57
514.95	407.25
515.12	454.06
515.29	433.00
515.47	442.36
515.64	433.00
515.81	454.06
515.99	468.11
516.16	451.72
516.33	440.02
516.51	409.59
516.68	369.80
516.85	395.55
517.03	369.80
517.20	435.34
517.37	414.27
517.54	358.10
517.72	407.25
517.89	486.83
518.06	472.79
518.24	449.38
518.41	390.87
518.58	447.04
518.75	379.17
518.93	458.74
519.10	425.98
519.27	409.59
519.45	456.40
519.62	465.77
519.79	381.51
519.96	376.83
520.14	423.64
520.31	381.51
520.48	493.85
520.65	388.53
520.83	435.34
521.00	409.59
521.17	437.68
521.34	369.80
521.52	395.55
521.69	379.17
521.86	383.85
522.03	425.98
522.20	456.40
522.38	440.02
522.55	348.74
522.72	383.85
522.89	468.11
523.07	447.04
523.24	374.49
523.41	407.25
523.58	330.02
523.75	393.21
523.92	393.21
524.10	400.23
524.27	468.11
524.44	388.53
524.61	430.66
524.78	484.49
524.96	381.51
525.13	418.96
525.30	475.13
525.47	404.91
525.64	458.74
525.81	369.80
525.98	430.66
526.16	435.34
526.33	367.46
526.50	365.12
526.67	402.57
526.84	386.19
527.01	444.70
527.18	440.02
527.36	463.43
527.53	477.47
527.70	440.02
527.87	430.66
528.04	433.00
528.21	451.72
528.38	435.34
528.55	383.85
528.72	503.22
528.89	500.87
529.07	411.93
529.24	414.27
529.41	440.02
529.58	440.02
529.75	404.91
529.92	379.17
530.09	451.72
530.26	423.64
530.43	330.02
530.60	479.81
530.77	454.06
530.94	433.00
531.11	395.55
531.28	430.66
531.46	411.93
531.63	372.15
531.80	458.74
531.97	388.53
532.14	418.96
532.31	468.11
532.48	454.06
532.65	442.36
532.82	383.85
532.99	423.64
533.16	421.30
533.33	428.32
533.50	430.66
533.67	433.00
533.84	437.68
534.01	421.30
534.18	386.19
534.35	383.85
534.52	409.59
534.69	369.80
534.86	395.55
535.03	315.97
535.20	395.55
535.37	444.70
535.54	409.59
535.71	435.34
535.88	404.91
536.05	397.89
536.22	468.11
536.38	390.87
536.55	454.06
536.72	491.51
536.89	397.89
537.06	425.98
537.23	402.57
537.40	449.38
537.57	393.21
537.74	505.56
537.91	351.08
538.08	442.36
538.25	404.91
538.42	414.27
538.59	409.59
538.75	400.23
538.92	470.45
539.09	528.96
539.26	330.02
539.43	454.06
539.60	409.59
539.77	411.93
539.94	416.62
540.11	435.34
540.28	430.66
540.44	395.55
540.61	442.36
540.78	360.44
540.95	449.38
541.12	486.83
541.29	404.91
541.46	468.11
541.62	486.83
541.79	374.49
541.96	390.87
542.13	374.49
542.30	388.53
542.47	505.56
542.63	353.42
542.80	465.77
542.97	489.17
543.14	381.51
543.31	386.19
543.48	454.06
543.64	397.89
543.81	409.59
543.98	416.62
544.15	430.66
544.32	430.66
544.48	472.79
544.65	449.38
544.82	423.64
544.99	393.21
545.16	418.96
545.32	376.83
545.49	386.19
545.66	454.06
545.83	411.93
546.00	383.85
546.16	367.46
546.33	365.12
546.50	395.55
546.67	491.51
546.83	388.53
547.00	423.64
547.17	461.09
547.34	428.32
547.50	451.72
547.67	423.64
547.84	444.70
548.00	440.02
548.17	418.96
548.34	465.77
548.51	435.34
548.67	447.04
548.84	451.72
549.01	454.06
549.18	400.23
549.34	334.70
549.51	435.34
549.68	461.09
549.84	435.34
550.01	425.98
550.18	440.02
550.34	470.45
550.51	407.25
550.68	447.04
550.84	435.34
551.01	414.27
551.18	425.98
551.34	414.27
551.51	416.62
551.68	351.08
551.84	484.49
552.01	468.11
552.18	416.62
552.34	475.13
552.51	444.70
552.68	444.70
552.84	393.21
553.01	383.85
553.18	451.72
553.34	435.34
553.51	386.19
553.67	482.15
553.84	475.13
554.01	421.30
554.17	430.66
554.34	456.40
554.51	430.66
554.67	397.89
554.84	435.34
555.00	374.49
555.17	526.62
555.33	400.23
555.50	440.02
555.67	428.32
555.83	386.19
556.00	369.80
556.16	540.66
556.33	425.98
556.50	355.76
556.66	393.21
556.83	444.70
556.99	388.53
557.16	442.36
557.32	358.10
557.49	395.55
557.65	423.64
557.82	442.36
557.98	355.76
558.15	468.11
558.32	477.47
558.48	386.19
558.65	433.00
558.81	369.80
558.98	397.89
559.14	468.11
559.31	428.32
559.47	482.15
559.64	447.04
559.80	461.09
559.97	365.12
560.13	421.30
560.30	360.44
560.46	449.38
560.63	451.72
560.79	402.57
560.96	435.34
561.12	400.23
561.29	397.89
561.45	418.96
561.61	442.36
561.78	496.19
561.94	379.17
562.11	409.59
562.27	416.62
562.44	383.85
562.60	433.00
562.77	379.17
562.93	442.36
563.10	404.91
563.26	407.25
563.42	470.45
563.59	418.96
563.75	418.96
563.92	414.27
564.08	454.06
564.24	440.02
564.41	475.13
564.57	475.13
564.74	456.40
564.90	470.45
565.07	458.74
565.23	402.57
565.39	369.80
565.56	423.64
565.72	372.15
565.88	327.68
566.05	444.70
566.21	365.12
566.38	400.23
566.54	397.89
566.70	430.66
566.87	365.12
567.03	360.44
567.19	418.96
567.36	456.40
567.52	414.27
567.68	463.43
567.85	421.30
568.01	409.59
568.17	383.85
568.34	395.55
568.50	404.91
568.66	416.62
568.83	421.30
568.99	374.49
569.15	456.40
569.32	423.64
569.48	479.81
569.64	447.04
569.81	440.02
569.97	390.87
570.13	437.68
570.30	362.78
570.46	479.81
570.62	423.64
570.78	395.55
570.95	437.68
571.11	451.72
571.27	397.89
571.43	402.57
571.60	440.02
571.76	409.59
571.92	409.59
572.09	362.78
572.25	369.80
572.41	386.19
572.57	388.53
572.74	465.77
572.90	449.38
573.06	421.30
573.22	500.87
573.38	442.36
573.55	461.09
573.71	486.83
573.87	383.85
574.03	383.85
574.20	475.13
574.36	458.74
574.52	353.42
574.68	407.25
574.84	409.59
575.01	470.45
575.17	414.27
575.33	416.62
575.49	433.00
575.65	437.68
575.82	472.79
575.98	428.32
576.14	365.12
576.30	381.51
576.46	454.06
576.62	393.21
576.79	383.85
576.95	486.83
577.11	444.70
577.27	395.55
577.43	454.06
577.59	468.11
577.75	383.85
577.92	393.21
578.08	409.59
578.24	416.62
578.40	397.89
578.56	538.32
578.72	414.27
578.88	404.91
579.04	374.49
579.21	395.55
579.37	430.66
579.53	390.87
579.69	430.66
579.85	404.91
580.01	517.26
580.17	416.62
580.33	367.46
580.49	409.59
580.65	440.02
580.82	428.32
580.98	430.66
581.14	451.72
581.30	418.96
581.46	433.00
581.62	386.19
581.78	367.46
581.94	416.62
582.10	456.40
582.26	374.49
582.42	461.09
582.58	409.59
582.74	437.68
582.90	428.32
583.06	456.40
583.22	475.13
583.38	463.43
583.54	423.64
583.70	444.70
583.86	409.59
584.02	463.43
584.18	393.21
584.34	498.53
584.50	397.89
584.66	435.34
584.82	360.44
584.98	435.34
585.14	411.93
585.30	461.09
585.46	451.72
585.62	454.06
585.78	404.91
585.94	437.68
586.10	379.17
586.26	414.27
586.42	386.19
586.58	428.32
586.74	393.21
586.90	414.27
587.06	395.55
587.22	449.38
587.38	381.51
587.54	339.38
587.70	411.93
587.86	503.22
588.02	430.66
588.18	386.19
588.34	411.93
588.49	334.70
588.65	386.19
588.81	477.47
588.97	437.68
589.13	440.02
589.29	440.02
589.45	430.66
589.61	386.19
589.77	437.68
589.93	383.85
590.08	428.32
590.24	395.55
590.40	418.96
590.56	409.59
590.72	367.46
590.88	369.80
591.04	433.00
591.20	407.25
591.35	416.62
591.51	374.49
591.67	322.99
591.83	409.59
591.99	407.25
592.15	454.06
592.31	519.60
592.46	440.02
592.62	404.91
592.78	327.68
592.94	360.44
593.10	411.93
593.26	468.11
593.41	416.62
593.57	402.57
593.73	376.83
593.89	416.62
594.05	409.59
594.20	374.49
594.36	531.30
594.52	425.98
594.68	381.51
594.84	411.93
594.99	461.09
595.15	409.59
595.31	486.83
595.47	393.21
595.62	332.36
595.78	388.53
595.94	423.64
596.10	383.85
596.25	451.72
596.41	423.64
596.57	400.23
596.73	325.33
596.88	442.36
597.04	428.32
597.20	425.98
597.36	454.06
597.51	444.70
597.67	435.34
597.83	372.15
597.99	402.57
598.14	409.59
598.30	433.00
598.46	374.49
598.61	367.46
598.77	376.83
598.93	428.32
599.09	365.12
599.24	402.57
599.40	433.00
599.56	376.83
599.71	440.02
599.87	423.64
600.03	367.46
600.18	353.42
600.34	433.00
600.50	435.34
600.65	435.34
600.81	425.98
600.97	388.53
601.12	421.30
601.28	477.47
601.44	421.30
601.59	447.04
601.75	447.04
601.91	433.00
602.06	402.57
602.22	449.38
602.37	381.51
602.53	407.25
602.69	390.87
602.84	362.78
603.00	404.91
603.16	402.57
603.31	463.43
603.47	407.25
603.62	475.13
603.78	374.49
603.94	421.30
604.09	402.57
604.25	402.57
604.40	486.83
604.56	390.87
604.71	414.27
604.87	404.91
605.03	374.49
605.18	437.68
605.34	421.30
605.49	400.23
605.65	372.15
605.80	388.53
605.96	428.32
606.12	472.79
606.27	351.08
606.43	458.74
606.58	418.96
606.74	411.93
606.89	409.59
607.05	416.62
607.20	418.96
607.36	409.59
607.51	430.66
607.67	416.62
607.82	461.09
607.98	416.62
608.13	330.02
608.29	393.21
608.44	437.68
608.60	372.15
608.75	418.96
608.91	435.34
609.06	379.17
609.22	479.81
609.37	442.36
609.53	421.30
609.68	414.27
609.84	418.96
609.99	425.98
610.15	372.15
