SpectraSuite Data File
++++++++++++++++++++++++++++++++++++
Date: Fri Oct 25 12:11:45 EDT 2013
User: price-jones
Dark Spectrum Present: No
Reference Spectrum Present: No
Number of Sampled Component Spectra: 1
Spectrometers: USB2+H05261
Integration Time (usec): 100000 (USB2+H05261)
Spectra Averaged: 1 (USB2+H05261)
Boxcar Smoothing: 0 (USB2+H05261)
Correct for Electrical Dark: No (USB2+H05261)
Strobe/Lamp Enabled: No (USB2+H05261)
Correct for Detector Non-linearity: No (USB2+H05261)
Correct for Stray Light: No (USB2+H05261)
Number of Pixels in Processed Spectrum: 2048
>>>>>Begin Processed Spectral Data<<<<<
365.73	388.53
365.92	388.53
366.12	388.53
366.32	276.18
366.52	248.10
366.72	264.48
366.91	276.18
367.11	252.78
367.31	203.63
367.51	285.55
367.70	180.22
367.90	243.42
368.10	191.92
368.30	245.76
368.49	259.80
368.69	243.42
368.89	220.01
369.09	241.08
369.28	285.55
369.48	276.18
369.68	337.04
369.87	229.37
370.07	327.68
370.27	311.29
370.47	273.84
370.66	390.87
370.86	400.23
371.06	369.80
371.25	404.91
371.45	407.25
371.65	372.15
371.84	344.06
372.04	344.06
372.24	421.30
372.44	376.83
372.63	400.23
372.83	425.98
373.03	428.32
373.22	381.51
373.42	456.40
373.62	407.25
373.81	468.11
374.01	461.09
374.21	496.19
374.40	374.49
374.60	486.83
374.79	475.13
374.99	334.70
375.19	411.93
375.38	435.34
375.58	456.40
375.78	447.04
375.97	416.62
376.17	433.00
376.37	381.51
376.56	383.85
376.76	491.51
376.95	395.55
377.15	416.62
377.35	397.89
377.54	404.91
377.74	409.59
377.93	367.46
378.13	397.89
378.33	442.36
378.52	486.83
378.72	390.87
378.91	468.11
379.11	433.00
379.31	402.57
379.50	458.74
379.70	433.00
379.89	418.96
380.09	372.15
380.28	454.06
380.48	404.91
380.68	449.38
380.87	411.93
381.07	430.66
381.26	531.30
381.46	428.32
381.65	454.06
381.85	372.15
382.04	421.30
382.24	397.89
382.43	369.80
382.63	418.96
382.83	433.00
383.02	379.17
383.22	388.53
383.41	400.23
383.61	402.57
383.80	423.64
384.00	461.09
384.19	442.36
384.39	421.30
384.58	465.77
384.78	463.43
384.97	512.58
385.17	362.78
385.36	381.51
385.56	407.25
385.75	383.85
385.95	416.62
386.14	454.06
386.34	294.91
386.53	425.98
386.72	402.57
386.92	486.83
387.11	423.64
387.31	346.40
387.50	341.72
387.70	397.89
387.89	416.62
388.09	454.06
388.28	390.87
388.48	463.43
388.67	440.02
388.86	414.27
389.06	416.62
389.25	423.64
389.45	395.55
389.64	365.12
389.84	472.79
390.03	386.19
390.22	383.85
390.42	444.70
390.61	400.23
390.81	365.12
391.00	404.91
391.19	407.25
391.39	381.51
391.58	414.27
391.78	414.27
391.97	393.21
392.16	369.80
392.36	468.11
392.55	402.57
392.75	341.72
392.94	407.25
393.13	390.87
393.33	428.32
393.52	435.34
393.71	393.21
393.91	454.06
394.10	395.55
394.29	428.32
394.49	454.06
394.68	407.25
394.88	362.78
395.07	365.12
395.26	456.40
395.46	346.40
395.65	414.27
395.84	355.76
396.04	409.59
396.23	407.25
396.42	318.31
396.62	414.27
396.81	416.62
397.00	395.55
397.19	379.17
397.39	369.80
397.58	507.90
397.77	379.17
397.97	332.36
398.16	367.46
398.35	418.96
398.55	433.00
398.74	334.70
398.93	454.06
399.12	416.62
399.32	421.30
399.51	507.90
399.70	461.09
399.90	351.08
400.09	470.45
400.28	442.36
400.47	369.80
400.67	411.93
400.86	400.23
401.05	451.72
401.24	442.36
401.44	397.89
401.63	404.91
401.82	442.36
402.01	365.12
402.21	341.72
402.40	458.74
402.59	456.40
402.78	390.87
402.97	454.06
403.17	390.87
403.36	477.47
403.55	428.32
403.74	388.53
403.93	418.96
404.13	454.06
404.32	444.70
404.51	465.77
404.70	418.96
404.89	400.23
405.09	456.40
405.28	383.85
405.47	369.80
405.66	341.72
405.85	418.96
406.05	381.51
406.24	383.85
406.43	449.38
406.62	395.55
406.81	358.10
407.00	411.93
407.20	395.55
407.39	351.08
407.58	348.74
407.77	479.81
407.96	379.17
408.15	381.51
408.34	451.72
408.54	456.40
408.73	416.62
408.92	475.13
409.11	339.38
409.30	404.91
409.49	442.36
409.68	461.09
409.87	454.06
410.07	451.72
410.26	365.12
410.45	362.78
410.64	423.64
410.83	348.74
411.02	437.68
411.21	416.62
411.40	433.00
411.59	407.25
411.78	430.66
411.98	379.17
412.17	416.62
412.36	379.17
412.55	414.27
412.74	418.96
412.93	383.85
413.12	383.85
413.31	421.30
413.50	407.25
413.69	416.62
413.88	486.83
414.07	367.46
414.26	437.68
414.45	411.93
414.64	433.00
414.83	428.32
415.02	447.04
415.22	425.98
415.41	400.23
415.60	468.11
415.79	388.53
415.98	461.09
416.17	425.98
416.36	430.66
416.55	383.85
416.74	400.23
416.93	416.62
417.12	311.29
417.31	360.44
417.50	315.97
417.69	430.66
417.88	423.64
418.07	379.17
418.26	461.09
418.45	386.19
418.64	395.55
418.83	428.32
419.02	344.06
419.21	421.30
419.39	402.57
419.58	304.27
419.77	386.19
419.96	423.64
420.15	418.96
420.34	433.00
420.53	447.04
420.72	454.06
420.91	458.74
421.10	397.89
421.29	407.25
421.48	407.25
421.67	440.02
421.86	440.02
422.05	437.68
422.24	414.27
422.43	458.74
422.61	428.32
422.80	451.72
422.99	421.30
423.18	400.23
423.37	407.25
423.56	402.57
423.75	433.00
423.94	437.68
424.13	402.57
424.32	425.98
424.50	409.59
424.69	383.85
424.88	346.40
425.07	367.46
425.26	365.12
425.45	414.27
425.64	407.25
425.83	456.40
426.01	442.36
426.20	447.04
426.39	484.49
426.58	383.85
426.77	444.70
426.96	451.72
427.15	437.68
427.33	381.51
427.52	381.51
427.71	463.43
427.90	484.49
428.09	437.68
428.28	355.76
428.46	470.45
428.65	390.87
428.84	409.59
429.03	430.66
429.22	425.98
429.40	440.02
429.59	500.87
429.78	458.74
429.97	425.98
430.16	332.36
430.34	388.53
430.53	437.68
430.72	433.00
430.91	423.64
431.10	440.02
431.28	418.96
431.47	411.93
431.66	362.78
431.85	409.59
432.03	454.06
432.22	493.85
432.41	456.40
432.60	468.11
432.79	411.93
432.97	362.78
433.16	454.06
433.35	451.72
433.54	390.87
433.72	416.62
433.91	526.62
434.10	451.72
434.28	454.06
434.47	437.68
434.66	444.70
434.85	397.89
435.03	388.53
435.22	437.68
435.41	418.96
435.59	470.45
435.78	379.17
435.97	339.38
436.16	407.25
436.34	348.74
436.53	381.51
436.72	484.49
436.90	351.08
437.09	379.17
437.28	456.40
437.46	390.87
437.65	435.34
437.84	416.62
438.02	397.89
438.21	482.15
438.40	411.93
438.58	369.80
438.77	440.02
438.96	376.83
439.14	442.36
439.33	486.83
439.52	409.59
439.70	454.06
439.89	348.74
440.08	465.77
440.26	386.19
440.45	447.04
440.63	463.43
440.82	372.15
441.01	416.62
441.19	351.08
441.38	477.47
441.57	440.02
441.75	472.79
441.94	379.17
442.12	388.53
442.31	390.87
442.50	435.34
442.68	458.74
442.87	461.09
443.05	477.47
443.24	423.64
443.43	421.30
443.61	449.38
443.80	418.96
443.98	376.83
444.17	374.49
444.35	388.53
444.54	442.36
444.73	451.72
444.91	435.34
445.10	425.98
445.28	418.96
445.47	465.77
445.65	468.11
445.84	390.87
446.02	475.13
446.21	362.78
446.39	411.93
446.58	451.72
446.77	360.44
446.95	388.53
447.14	430.66
447.32	454.06
447.51	379.17
447.69	411.93
447.88	390.87
448.06	472.79
448.25	416.62
448.43	418.96
448.62	435.34
448.80	407.25
448.99	423.64
449.17	421.30
449.36	374.49
449.54	479.81
449.73	437.68
449.91	458.74
450.10	430.66
450.28	451.72
450.46	458.74
450.65	423.64
450.83	395.55
451.02	414.27
451.20	376.83
451.39	484.49
451.57	390.87
451.76	395.55
451.94	449.38
452.13	395.55
452.31	376.83
452.49	416.62
452.68	358.10
452.86	430.66
453.05	414.27
453.23	447.04
453.42	365.12
453.60	451.72
453.78	437.68
453.97	397.89
454.15	404.91
454.34	393.21
454.52	351.08
454.70	493.85
454.89	402.57
455.07	400.23
455.26	360.44
455.44	386.19
455.62	367.46
455.81	433.00
455.99	428.32
456.17	442.36
456.36	479.81
456.54	348.74
456.73	409.59
456.91	428.32
457.09	388.53
457.28	444.70
457.46	379.17
457.64	365.12
457.83	433.00
458.01	447.04
458.19	400.23
458.38	395.55
458.56	433.00
458.74	447.04
458.93	322.99
459.11	362.78
459.29	404.91
459.48	404.91
459.66	510.24
459.84	440.02
460.03	449.38
460.21	390.87
460.39	374.49
460.57	390.87
460.76	421.30
460.94	390.87
461.12	388.53
461.31	421.30
461.49	437.68
461.67	390.87
461.85	346.40
462.04	451.72
462.22	798.12
462.40	472.79
462.59	395.55
462.77	428.32
462.95	510.24
463.13	414.27
463.32	409.59
463.50	337.04
463.68	386.19
463.86	444.70
464.05	418.96
464.23	512.58
464.41	465.77
464.59	411.93
464.78	433.00
464.96	491.51
465.14	402.57
465.32	355.76
465.50	442.36
465.69	402.57
465.87	383.85
466.05	411.93
466.23	418.96
466.41	369.80
466.60	381.51
466.78	414.27
466.96	374.49
467.14	470.45
467.32	402.57
467.51	418.96
467.69	390.87
467.87	531.30
468.05	416.62
468.23	437.68
468.41	482.15
468.60	404.91
468.78	369.80
468.96	437.68
469.14	470.45
469.32	465.77
469.50	437.68
469.69	428.32
469.87	372.15
470.05	409.59
470.23	456.40
470.41	411.93
470.59	416.62
470.77	440.02
470.95	376.83
471.14	365.12
471.32	402.57
471.50	411.93
471.68	397.89
471.86	425.98
472.04	367.46
472.22	423.64
472.40	386.19
472.58	421.30
472.77	376.83
472.95	437.68
473.13	353.42
473.31	374.49
473.49	423.64
473.67	332.36
473.85	489.17
474.03	418.96
474.21	437.68
474.39	440.02
474.57	505.56
474.75	470.45
474.93	376.83
475.12	374.49
475.30	283.20
475.48	348.74
475.66	397.89
475.84	477.47
476.02	376.83
476.20	437.68
476.38	414.27
476.56	447.04
476.74	414.27
476.92	433.00
477.10	362.78
477.28	430.66
477.46	351.08
477.64	486.83
477.82	351.08
478.00	433.00
478.18	390.87
478.36	423.64
478.54	400.23
478.72	416.62
478.90	425.98
479.08	421.30
479.26	430.66
479.44	395.55
479.62	341.72
479.80	327.68
479.98	407.25
480.16	430.66
480.34	491.51
480.52	381.51
480.70	414.27
480.88	376.83
481.06	400.23
481.24	355.76
481.41	358.10
481.59	395.55
481.77	365.12
481.95	407.25
482.13	482.15
482.31	346.40
482.49	414.27
482.67	475.13
482.85	294.91
483.03	395.55
483.21	514.92
483.39	376.83
483.57	433.00
483.74	463.43
483.92	393.21
484.10	369.80
484.28	454.06
484.46	444.70
484.64	479.81
484.82	423.64
485.00	362.78
485.18	416.62
485.35	442.36
485.53	451.72
485.71	465.77
485.89	400.23
486.07	388.53
486.25	477.47
486.43	374.49
486.61	353.42
486.78	395.55
486.96	404.91
487.14	423.64
487.32	390.87
487.50	428.32
487.68	463.43
487.85	449.38
488.03	461.09
488.21	444.70
488.39	407.25
488.57	393.21
488.75	458.74
488.92	491.51
489.10	390.87
489.28	416.62
489.46	351.08
489.64	463.43
489.81	437.68
489.99	393.21
490.17	458.74
490.35	454.06
490.53	381.51
490.70	374.49
490.88	358.10
491.06	341.72
491.24	425.98
491.41	442.36
491.59	484.49
491.77	418.96
491.95	437.68
492.13	395.55
492.30	411.93
492.48	440.02
492.66	447.04
492.84	402.57
493.01	472.79
493.19	433.00
493.37	496.19
493.54	449.38
493.72	437.68
493.90	397.89
494.08	409.59
494.25	482.15
494.43	461.09
494.61	428.32
494.79	360.44
494.96	491.51
495.14	386.19
495.32	472.79
495.49	381.51
495.67	381.51
495.85	390.87
496.02	451.72
496.20	402.57
496.38	393.21
496.55	386.19
496.73	416.62
496.91	500.87
497.09	425.98
497.26	402.57
497.44	440.02
497.62	463.43
497.79	362.78
497.97	397.89
498.14	353.42
498.32	393.21
498.50	449.38
498.67	414.27
498.85	461.09
499.03	395.55
499.20	416.62
499.38	442.36
499.56	383.85
499.73	414.27
499.91	411.93
500.08	440.02
500.26	456.40
500.44	421.30
500.61	374.49
500.79	353.42
500.97	458.74
501.14	435.34
501.32	461.09
501.49	421.30
501.67	351.08
501.84	390.87
502.02	411.93
502.20	383.85
502.37	327.68
502.55	346.40
502.72	414.27
502.90	482.15
503.07	395.55
503.25	383.85
503.43	362.78
503.60	496.19
503.78	484.49
503.95	433.00
504.13	440.02
504.30	430.66
504.48	367.46
504.65	514.92
504.83	435.34
505.01	369.80
505.18	414.27
505.36	411.93
505.53	433.00
505.71	458.74
505.88	376.83
506.06	430.66
506.23	433.00
506.41	416.62
506.58	437.68
506.76	423.64
506.93	444.70
507.11	374.49
507.28	379.17
507.46	409.59
507.63	337.04
507.81	409.59
507.98	379.17
508.16	454.06
508.33	409.59
508.50	447.04
508.68	433.00
508.85	433.00
509.03	435.34
509.20	479.81
509.38	425.98
509.55	512.58
509.73	442.36
509.90	463.43
510.08	433.00
510.25	440.02
510.42	348.74
510.60	407.25
510.77	372.15
510.95	477.47
511.12	456.40
511.30	456.40
511.47	407.25
511.64	428.32
511.82	376.83
511.99	435.34
512.17	482.15
512.34	414.27
512.51	416.62
512.69	440.02
512.86	365.12
513.04	369.80
513.21	456.40
513.38	414.27
513.56	435.34
513.73	409.59
513.90	423.64
514.08	407.25
514.25	458.74
514.43	411.93
514.60	428.32
514.77	442.36
514.95	365.12
515.12	425.98
515.29	491.51
515.47	348.74
515.64	447.04
515.81	390.87
515.99	390.87
516.16	447.04
516.33	404.91
516.51	447.04
516.68	376.83
516.85	400.23
517.03	374.49
517.20	416.62
517.37	435.34
517.54	482.15
517.72	395.55
517.89	390.87
518.06	435.34
518.24	484.49
518.41	458.74
518.58	421.30
518.75	484.49
518.93	379.17
519.10	409.59
519.27	463.43
519.45	500.87
519.62	416.62
519.79	421.30
519.96	369.80
520.14	379.17
520.31	461.09
520.48	407.25
520.65	376.83
520.83	440.02
521.00	435.34
521.17	528.96
521.34	407.25
521.52	416.62
521.69	390.87
521.86	393.21
522.03	430.66
522.20	409.59
522.38	409.59
522.55	454.06
522.72	407.25
522.89	383.85
523.07	372.15
523.24	372.15
523.41	430.66
523.58	409.59
523.75	430.66
523.92	393.21
524.10	395.55
524.27	416.62
524.44	397.89
524.61	374.49
524.78	400.23
524.96	430.66
525.13	402.57
525.30	503.22
525.47	470.45
525.64	458.74
525.81	428.32
525.98	400.23
526.16	428.32
526.33	421.30
526.50	395.55
526.67	423.64
526.84	393.21
527.01	409.59
527.18	479.81
527.36	395.55
527.53	379.17
527.70	388.53
527.87	451.72
528.04	428.32
528.21	400.23
528.38	402.57
528.55	482.15
528.72	440.02
528.89	423.64
529.07	435.34
529.24	454.06
529.41	451.72
529.58	388.53
529.75	477.47
529.92	411.93
530.09	344.06
530.26	440.02
530.43	393.21
530.60	458.74
530.77	381.51
530.94	390.87
531.11	411.93
531.28	383.85
531.46	418.96
531.63	416.62
531.80	393.21
531.97	341.72
532.14	418.96
532.31	479.81
532.48	393.21
532.65	414.27
532.82	421.30
532.99	430.66
533.16	362.78
533.33	388.53
533.50	400.23
533.67	360.44
533.84	416.62
534.01	374.49
534.18	430.66
534.35	365.12
534.52	400.23
534.69	484.49
534.86	500.87
535.03	423.64
535.20	428.32
535.37	418.96
535.54	456.40
535.71	414.27
535.88	365.12
536.05	411.93
536.22	416.62
536.38	433.00
536.55	433.00
536.72	493.85
536.89	409.59
537.06	458.74
537.23	372.15
537.40	437.68
537.57	425.98
537.74	423.64
537.91	451.72
538.08	404.91
538.25	440.02
538.42	404.91
538.59	421.30
538.75	386.19
538.92	325.33
539.09	491.51
539.26	468.11
539.43	421.30
539.60	421.30
539.77	404.91
539.94	514.92
540.11	461.09
540.28	395.55
540.44	444.70
540.61	458.74
540.78	435.34
540.95	409.59
541.12	407.25
541.29	428.32
541.46	491.51
541.62	440.02
541.79	411.93
541.96	395.55
542.13	365.12
542.30	458.74
542.47	463.43
542.63	454.06
542.80	395.55
542.97	418.96
543.14	390.87
543.31	372.15
543.48	395.55
543.64	353.42
543.81	454.06
543.98	404.91
544.15	395.55
544.32	330.02
544.48	472.79
544.65	327.68
544.82	418.96
544.99	409.59
545.16	386.19
545.32	416.62
545.49	433.00
545.66	402.57
545.83	330.02
546.00	409.59
546.16	407.25
546.33	386.19
546.50	409.59
546.67	369.80
546.83	475.13
547.00	482.15
547.17	383.85
547.34	407.25
547.50	395.55
547.67	397.89
547.84	374.49
548.00	428.32
548.17	395.55
548.34	425.98
548.51	482.15
548.67	458.74
548.84	404.91
549.01	435.34
549.18	463.43
549.34	454.06
549.51	498.53
549.68	435.34
549.84	395.55
550.01	444.70
550.18	540.66
550.34	451.72
550.51	437.68
550.68	507.90
550.84	444.70
551.01	449.38
551.18	404.91
551.34	423.64
551.51	458.74
551.68	423.64
551.84	451.72
552.01	381.51
552.18	486.83
552.34	465.77
552.51	383.85
552.68	367.46
552.84	493.85
553.01	376.83
553.18	416.62
553.34	407.25
553.51	418.96
553.67	397.89
553.84	470.45
554.01	454.06
554.17	468.11
554.34	440.02
554.51	421.30
554.67	430.66
554.84	339.38
555.00	454.06
555.17	390.87
555.33	425.98
555.50	465.77
555.67	390.87
555.83	365.12
556.00	379.17
556.16	559.39
556.33	468.11
556.50	322.99
556.66	404.91
556.83	418.96
556.99	390.87
557.16	369.80
557.32	320.65
557.49	430.66
557.65	386.19
557.82	425.98
557.98	444.70
558.15	433.00
558.32	454.06
558.48	393.21
558.65	442.36
558.81	433.00
558.98	465.77
559.14	411.93
559.31	447.04
559.47	395.55
559.64	428.32
559.80	411.93
559.97	381.51
560.13	442.36
560.30	491.51
560.46	425.98
560.63	393.21
560.79	444.70
560.96	440.02
561.12	454.06
561.29	423.64
561.45	444.70
561.61	407.25
561.78	465.77
561.94	437.68
562.11	397.89
562.27	379.17
562.44	376.83
562.60	365.12
562.77	449.38
562.93	468.11
563.10	437.68
563.26	418.96
563.42	486.83
563.59	421.30
563.75	404.91
563.92	440.02
564.08	447.04
564.24	454.06
564.41	365.12
564.57	463.43
564.74	400.23
564.90	390.87
565.07	421.30
565.23	409.59
565.39	367.46
565.56	463.43
565.72	365.12
565.88	407.25
566.05	421.30
566.21	425.98
566.38	360.44
566.54	411.93
566.70	344.06
566.87	376.83
567.03	365.12
567.19	461.09
567.36	496.19
567.52	388.53
567.68	418.96
567.85	430.66
568.01	407.25
568.17	362.78
568.34	315.97
568.50	395.55
568.66	372.15
568.83	500.87
568.99	348.74
569.15	454.06
569.32	456.40
569.48	395.55
569.64	447.04
569.81	421.30
569.97	418.96
570.13	482.15
570.30	376.83
570.46	428.32
570.62	390.87
570.78	414.27
570.95	381.51
571.11	435.34
571.27	437.68
571.43	409.59
571.60	390.87
571.76	397.89
571.92	411.93
572.09	400.23
572.25	409.59
572.41	463.43
572.57	393.21
572.74	444.70
572.90	442.36
573.06	468.11
573.22	461.09
573.38	386.19
573.55	421.30
573.71	440.02
573.87	447.04
574.03	451.72
574.20	395.55
574.36	475.13
574.52	374.49
574.68	472.79
574.84	437.68
575.01	440.02
575.17	372.15
575.33	372.15
575.49	444.70
575.65	400.23
575.82	381.51
575.98	433.00
576.14	437.68
576.30	381.51
576.46	437.68
576.62	407.25
576.79	449.38
576.95	444.70
577.11	414.27
577.27	454.06
577.43	477.47
577.59	463.43
577.75	360.44
577.92	451.72
578.08	479.81
578.24	407.25
578.40	379.17
578.56	386.19
578.72	479.81
578.88	486.83
579.04	332.36
579.21	407.25
579.37	386.19
579.53	421.30
579.69	416.62
579.85	400.23
580.01	475.13
580.17	383.85
580.33	376.83
580.49	416.62
580.65	374.49
580.82	395.55
580.98	388.53
581.14	414.27
581.30	433.00
581.46	458.74
581.62	456.40
581.78	456.40
581.94	437.68
582.10	372.15
582.26	435.34
582.42	421.30
582.58	411.93
582.74	365.12
582.90	428.32
583.06	423.64
583.22	346.40
583.38	435.34
583.54	400.23
583.70	404.91
583.86	409.59
584.02	421.30
584.18	496.19
584.34	393.21
584.50	493.85
584.66	367.46
584.82	435.34
584.98	489.17
585.14	416.62
585.30	496.19
585.46	456.40
585.62	390.87
585.78	421.30
585.94	456.40
586.10	374.49
586.26	433.00
586.42	447.04
586.58	395.55
586.74	421.30
586.90	444.70
587.06	433.00
587.22	383.85
587.38	353.42
587.54	425.98
587.70	421.30
587.86	418.96
588.02	404.91
588.18	402.57
588.34	451.72
588.49	330.02
588.65	372.15
588.81	402.57
588.97	404.91
589.13	428.32
589.29	425.98
589.45	437.68
589.61	444.70
589.77	404.91
589.93	339.38
590.08	414.27
590.24	397.89
590.40	397.89
590.56	416.62
590.72	386.19
590.88	449.38
591.04	442.36
591.20	407.25
591.35	519.60
591.51	428.32
591.67	351.08
591.83	435.34
591.99	454.06
592.15	372.15
592.31	355.76
592.46	360.44
592.62	451.72
592.78	395.55
592.94	379.17
593.10	369.80
593.26	362.78
593.41	393.21
593.57	421.30
593.73	411.93
593.89	341.72
594.05	454.06
594.20	414.27
594.36	442.36
594.52	407.25
594.68	484.49
594.84	484.49
594.99	482.15
595.15	397.89
595.31	395.55
595.47	435.34
595.62	397.89
595.78	418.96
595.94	458.74
596.10	454.06
596.25	353.42
596.41	362.78
596.57	423.64
596.73	430.66
596.88	435.34
597.04	454.06
597.20	435.34
597.36	428.32
597.51	414.27
597.67	393.21
597.83	395.55
597.99	451.72
598.14	381.51
598.30	397.89
598.46	456.40
598.61	437.68
598.77	383.85
598.93	423.64
599.09	374.49
599.24	381.51
599.40	454.06
599.56	447.04
599.71	369.80
599.87	402.57
600.03	486.83
600.18	390.87
600.34	444.70
600.50	430.66
600.65	383.85
600.81	360.44
600.97	428.32
601.12	425.98
601.28	414.27
601.44	404.91
601.59	456.40
601.75	484.49
601.91	430.66
602.06	524.28
602.22	442.36
602.37	393.21
602.53	416.62
602.69	416.62
602.84	395.55
603.00	484.49
603.16	411.93
603.31	493.85
603.47	454.06
603.62	428.32
603.78	449.38
603.94	416.62
604.09	409.59
604.25	435.34
604.40	449.38
604.56	402.57
604.71	365.12
604.87	355.76
605.03	376.83
605.18	430.66
605.34	430.66
605.49	393.21
605.65	297.25
605.80	397.89
605.96	407.25
606.12	468.11
606.27	444.70
606.43	393.21
606.58	433.00
606.74	416.62
606.89	411.93
607.05	428.32
607.20	514.92
607.36	381.51
607.51	423.64
607.67	421.30
607.82	486.83
607.98	447.04
608.13	414.27
608.29	388.53
608.44	510.24
608.60	409.59
608.75	381.51
608.91	524.28
609.06	433.00
609.22	433.00
609.37	411.93
609.53	376.83
609.68	386.19
609.84	423.64
609.99	449.38
610.15	411.93
