SpectraSuite Data File
++++++++++++++++++++++++++++++++++++
Date: Fri Oct 25 12:11:08 EDT 2013
User: price-jones
Dark Spectrum Present: No
Reference Spectrum Present: No
Number of Sampled Component Spectra: 1
Spectrometers: USB2+H05261
Integration Time (usec): 100000 (USB2+H05261)
Spectra Averaged: 1 (USB2+H05261)
Boxcar Smoothing: 0 (USB2+H05261)
Correct for Electrical Dark: No (USB2+H05261)
Strobe/Lamp Enabled: No (USB2+H05261)
Correct for Detector Non-linearity: No (USB2+H05261)
Correct for Stray Light: No (USB2+H05261)
Number of Pixels in Processed Spectrum: 2048
>>>>>Begin Processed Spectral Data<<<<<
365.73	376.83
365.92	376.83
366.12	376.83
366.32	217.67
366.52	189.58
366.72	140.43
366.91	227.03
367.11	250.44
367.31	184.90
367.51	212.99
367.70	189.58
367.90	271.50
368.10	205.97
368.30	276.18
368.49	250.44
368.69	280.86
368.89	271.50
369.09	168.52
369.28	271.50
369.48	278.52
369.68	252.78
369.87	285.55
370.07	248.10
370.27	367.46
370.47	351.08
370.66	337.04
370.86	437.68
371.06	390.87
371.25	355.76
371.45	360.44
371.65	381.51
371.84	379.17
372.04	297.25
372.24	344.06
372.44	400.23
372.63	337.04
372.83	451.72
373.03	503.22
373.22	411.93
373.42	449.38
373.62	404.91
373.81	372.15
374.01	402.57
374.21	510.24
374.40	383.85
374.60	402.57
374.79	374.49
374.99	416.62
375.19	367.46
375.38	421.30
375.58	489.17
375.78	414.27
375.97	442.36
376.17	454.06
376.37	486.83
376.56	367.46
376.76	409.59
376.95	435.34
377.15	447.04
377.35	386.19
377.54	414.27
377.74	327.68
377.93	379.17
378.13	395.55
378.33	477.47
378.52	372.15
378.72	379.17
378.91	500.87
379.11	390.87
379.31	421.30
379.50	421.30
379.70	500.87
379.89	423.64
380.09	421.30
380.28	416.62
380.48	449.38
380.68	339.38
380.87	388.53
381.07	402.57
381.26	423.64
381.46	367.46
381.65	383.85
381.85	395.55
382.04	440.02
382.24	341.72
382.43	404.91
382.63	400.23
382.83	416.62
383.02	444.70
383.22	416.62
383.41	435.34
383.61	435.34
383.80	425.98
384.00	477.47
384.19	421.30
384.39	496.19
384.58	465.77
384.78	423.64
384.97	381.51
385.17	433.00
385.36	381.51
385.56	433.00
385.75	381.51
385.95	458.74
386.14	372.15
386.34	444.70
386.53	423.64
386.72	414.27
386.92	365.12
387.11	372.15
387.31	390.87
387.50	397.89
387.70	365.12
387.89	374.49
388.09	449.38
388.28	376.83
388.48	381.51
388.67	346.40
388.86	440.02
389.06	379.17
389.25	386.19
389.45	386.19
389.64	381.51
389.84	397.89
390.03	430.66
390.22	400.23
390.42	447.04
390.61	414.27
390.81	402.57
391.00	397.89
391.19	411.93
391.39	414.27
391.58	421.30
391.78	433.00
391.97	395.55
392.16	383.85
392.36	428.32
392.55	365.12
392.75	383.85
392.94	435.34
393.13	379.17
393.33	409.59
393.52	351.08
393.71	510.24
393.91	395.55
394.10	397.89
394.29	365.12
394.49	358.10
394.68	414.27
394.88	414.27
395.07	388.53
395.26	442.36
395.46	355.76
395.65	433.00
395.84	479.81
396.04	510.24
396.23	369.80
396.42	416.62
396.62	416.62
396.81	358.10
397.00	358.10
397.19	383.85
397.39	383.85
397.58	451.72
397.77	411.93
397.97	437.68
398.16	465.77
398.35	397.89
398.55	400.23
398.74	425.98
398.93	454.06
399.12	341.72
399.32	369.80
399.51	407.25
399.70	402.57
399.90	332.36
400.09	404.91
400.28	404.91
400.47	411.93
400.67	411.93
400.86	484.49
401.05	421.30
401.24	433.00
401.44	454.06
401.63	390.87
401.82	404.91
402.01	327.68
402.21	379.17
402.40	418.96
402.59	428.32
402.78	414.27
402.97	409.59
403.17	402.57
403.36	369.80
403.55	344.06
403.74	372.15
403.93	423.64
404.13	428.32
404.32	362.78
404.51	332.36
404.70	461.09
404.89	416.62
405.09	463.43
405.28	421.30
405.47	430.66
405.66	472.79
405.85	358.10
406.05	404.91
406.24	376.83
406.43	449.38
406.62	468.11
406.81	409.59
407.00	381.51
407.20	421.30
407.39	414.27
407.58	339.38
407.77	409.59
407.96	470.45
408.15	435.34
408.34	393.21
408.54	465.77
408.73	379.17
408.92	388.53
409.11	425.98
409.30	433.00
409.49	362.78
409.68	425.98
409.87	414.27
410.07	444.70
410.26	416.62
410.45	435.34
410.64	379.17
410.83	411.93
411.02	404.91
411.21	402.57
411.40	442.36
411.59	341.72
411.78	437.68
411.98	486.83
412.17	433.00
412.36	496.19
412.55	418.96
412.74	421.30
412.93	447.04
413.12	404.91
413.31	437.68
413.50	496.19
413.69	407.25
413.88	447.04
414.07	393.21
414.26	411.93
414.45	388.53
414.64	362.78
414.83	383.85
415.02	423.64
415.22	423.64
415.41	397.89
415.60	425.98
415.79	414.27
415.98	456.40
416.17	397.89
416.36	395.55
416.55	315.97
416.74	388.53
416.93	355.76
417.12	376.83
417.31	290.23
417.50	449.38
417.69	451.72
417.88	397.89
418.07	402.57
418.26	421.30
418.45	409.59
418.64	421.30
418.83	486.83
419.02	297.25
419.21	376.83
419.39	447.04
419.58	344.06
419.77	334.70
419.96	330.02
420.15	433.00
420.34	362.78
420.53	360.44
420.72	451.72
420.91	376.83
421.10	418.96
421.29	395.55
421.48	430.66
421.67	381.51
421.86	393.21
422.05	433.00
422.24	486.83
422.43	512.58
422.61	409.59
422.80	421.30
422.99	400.23
423.18	360.44
423.37	428.32
423.56	449.38
423.75	433.00
423.94	437.68
424.13	409.59
424.32	386.19
424.50	404.91
424.69	397.89
424.88	498.53
425.07	402.57
425.26	407.25
425.45	400.23
425.64	451.72
425.83	374.49
426.01	400.23
426.20	325.33
426.39	374.49
426.58	407.25
426.77	355.76
426.96	365.12
427.15	449.38
427.33	404.91
427.52	449.38
427.71	435.34
427.90	402.57
428.09	458.74
428.28	348.74
428.46	407.25
428.65	360.44
428.84	379.17
429.03	454.06
429.22	383.85
429.40	351.08
429.59	423.64
429.78	468.11
429.97	346.40
430.16	393.21
430.34	416.62
430.53	458.74
430.72	353.42
430.91	390.87
431.10	348.74
431.28	407.25
431.47	386.19
431.66	428.32
431.85	423.64
432.03	400.23
432.22	442.36
432.41	322.99
432.60	449.38
432.79	437.68
432.97	390.87
433.16	374.49
433.35	418.96
433.54	482.15
433.72	496.19
433.91	402.57
434.10	395.55
434.28	402.57
434.47	411.93
434.66	430.66
434.85	454.06
435.03	397.89
435.22	465.77
435.41	416.62
435.59	468.11
435.78	407.25
435.97	383.85
436.16	416.62
436.34	367.46
436.53	435.34
436.72	386.19
436.90	428.32
437.09	414.27
437.28	430.66
437.46	430.66
437.65	454.06
437.84	477.47
438.02	425.98
438.21	372.15
438.40	365.12
438.58	409.59
438.77	353.42
438.96	376.83
439.14	381.51
439.33	414.27
439.52	404.91
439.70	376.83
439.89	409.59
440.08	456.40
440.26	421.30
440.45	491.51
440.63	479.81
440.82	409.59
441.01	390.87
441.19	383.85
441.38	362.78
441.57	379.17
441.75	421.30
441.94	397.89
442.12	374.49
442.31	423.64
442.50	430.66
442.68	444.70
442.87	418.96
443.05	393.21
443.24	402.57
443.43	451.72
443.61	484.49
443.80	442.36
443.98	444.70
444.17	376.83
444.35	395.55
444.54	407.25
444.73	416.62
444.91	447.04
445.10	461.09
445.28	421.30
445.47	423.64
445.65	404.91
445.84	393.21
446.02	433.00
446.21	461.09
446.39	362.78
446.58	395.55
446.77	475.13
446.95	421.30
447.14	416.62
447.32	421.30
447.51	379.17
447.69	430.66
447.88	376.83
448.06	461.09
448.25	458.74
448.43	369.80
448.62	337.04
448.80	454.06
448.99	421.30
449.17	341.72
449.36	407.25
449.54	425.98
449.73	393.21
449.91	402.57
450.10	395.55
450.28	388.53
450.46	416.62
450.65	402.57
450.83	435.34
451.02	414.27
451.20	383.85
451.39	454.06
451.57	421.30
451.76	400.23
451.94	402.57
452.13	528.96
452.31	442.36
452.49	475.13
452.68	397.89
452.86	346.40
453.05	475.13
453.23	470.45
453.42	414.27
453.60	479.81
453.78	381.51
453.97	423.64
454.15	372.15
454.34	435.34
454.52	472.79
454.70	418.96
454.89	444.70
455.07	386.19
455.26	421.30
455.44	418.96
455.62	369.80
455.81	404.91
455.99	440.02
456.17	397.89
456.36	418.96
456.54	355.76
456.73	407.25
456.91	369.80
457.09	440.02
457.28	374.49
457.46	433.00
457.64	461.09
457.83	477.47
458.01	416.62
458.19	423.64
458.38	397.89
458.56	416.62
458.74	400.23
458.93	461.09
459.11	442.36
459.29	404.91
459.48	397.89
459.66	454.06
459.84	456.40
460.03	484.49
460.21	465.77
460.39	435.34
460.57	484.49
460.76	449.38
460.94	383.85
461.12	386.19
461.31	475.13
461.49	369.80
461.67	390.87
461.85	433.00
462.04	456.40
462.22	741.95
462.40	484.49
462.59	416.62
462.77	402.57
462.95	397.89
463.13	397.89
463.32	341.72
463.50	407.25
463.68	414.27
463.86	425.98
464.05	393.21
464.23	418.96
464.41	430.66
464.59	348.74
464.78	470.45
464.96	360.44
465.14	402.57
465.32	458.74
465.50	379.17
465.69	433.00
465.87	414.27
466.05	442.36
466.23	437.68
466.41	348.74
466.60	416.62
466.78	402.57
466.96	397.89
467.14	400.23
467.32	468.11
467.51	411.93
467.69	418.96
467.87	440.02
468.05	425.98
468.23	444.70
468.41	416.62
468.60	395.55
468.78	358.10
468.96	461.09
469.14	407.25
469.32	409.59
469.50	409.59
469.69	390.87
469.87	360.44
470.05	418.96
470.23	411.93
470.41	362.78
470.59	461.09
470.77	383.85
470.95	433.00
471.14	386.19
471.32	449.38
471.50	376.83
471.68	418.96
471.86	444.70
472.04	376.83
472.22	390.87
472.40	390.87
472.58	425.98
472.77	358.10
472.95	425.98
473.13	381.51
473.31	489.17
473.49	367.46
473.67	433.00
473.85	468.11
474.03	425.98
474.21	430.66
474.39	437.68
474.57	463.43
474.75	433.00
474.93	416.62
475.12	304.27
475.30	390.87
475.48	418.96
475.66	447.04
475.84	442.36
476.02	428.32
476.20	517.26
476.38	388.53
476.56	482.15
476.74	486.83
476.92	402.57
477.10	435.34
477.28	430.66
477.46	409.59
477.64	435.34
477.82	369.80
478.00	437.68
478.18	379.17
478.36	395.55
478.54	425.98
478.72	376.83
478.90	372.15
479.08	447.04
479.26	390.87
479.44	388.53
479.62	322.99
479.80	362.78
479.98	407.25
480.16	421.30
480.34	477.47
480.52	407.25
480.70	414.27
480.88	440.02
481.06	461.09
481.24	369.80
481.41	423.64
481.59	388.53
481.77	447.04
481.95	402.57
482.13	461.09
482.31	393.21
482.49	407.25
482.67	463.43
482.85	428.32
483.03	463.43
483.21	348.74
483.39	407.25
483.57	414.27
483.74	468.11
483.92	376.83
484.10	442.36
484.28	435.34
484.46	463.43
484.64	393.21
484.82	388.53
485.00	393.21
485.18	428.32
485.35	454.06
485.53	376.83
485.71	435.34
485.89	393.21
486.07	444.70
486.25	491.51
486.43	402.57
486.61	451.72
486.78	442.36
486.96	393.21
487.14	386.19
487.32	400.23
487.50	381.51
487.68	435.34
487.85	437.68
488.03	386.19
488.21	435.34
488.39	498.53
488.57	472.79
488.75	369.80
488.92	411.93
489.10	463.43
489.28	528.96
489.46	397.89
489.64	442.36
489.81	414.27
489.99	440.02
490.17	390.87
490.35	470.45
490.53	376.83
490.70	360.44
490.88	414.27
491.06	397.89
491.24	442.36
491.41	465.77
491.59	360.44
491.77	440.02
491.95	409.59
492.13	344.06
492.30	458.74
492.48	447.04
492.66	430.66
492.84	386.19
493.01	425.98
493.19	423.64
493.37	411.93
493.54	407.25
493.72	404.91
493.90	418.96
494.08	416.62
494.25	451.72
494.43	418.96
494.61	386.19
494.79	390.87
494.96	421.30
495.14	393.21
495.32	407.25
495.49	458.74
495.67	433.00
495.85	430.66
496.02	383.85
496.20	376.83
496.38	437.68
496.55	447.04
496.73	425.98
496.91	414.27
497.09	440.02
497.26	372.15
497.44	381.51
497.62	498.53
497.79	376.83
497.97	400.23
498.14	477.47
498.32	404.91
498.50	353.42
498.67	376.83
498.85	383.85
499.03	465.77
499.20	477.47
499.38	435.34
499.56	449.38
499.73	339.38
499.91	435.34
500.08	451.72
500.26	498.53
500.44	433.00
500.61	425.98
500.79	402.57
500.97	402.57
501.14	510.24
501.32	404.91
501.49	454.06
501.67	404.91
501.84	444.70
502.02	437.68
502.20	430.66
502.37	411.93
502.55	458.74
502.72	430.66
502.90	440.02
503.07	440.02
503.25	402.57
503.43	442.36
503.60	435.34
503.78	435.34
503.95	339.38
504.13	468.11
504.30	362.78
504.48	404.91
504.65	486.83
504.83	402.57
505.01	433.00
505.18	395.55
505.36	393.21
505.53	372.15
505.71	402.57
505.88	449.38
506.06	465.77
506.23	414.27
506.41	395.55
506.58	456.40
506.76	421.30
506.93	418.96
507.11	390.87
507.28	421.30
507.46	425.98
507.63	423.64
507.81	440.02
507.98	463.43
508.16	341.72
508.33	409.59
508.50	393.21
508.68	372.15
508.85	454.06
509.03	411.93
509.20	407.25
509.38	440.02
509.55	496.19
509.73	461.09
509.90	454.06
510.08	423.64
510.25	451.72
510.42	407.25
510.60	435.34
510.77	395.55
510.95	489.17
511.12	430.66
511.30	470.45
511.47	477.47
511.64	430.66
511.82	400.23
511.99	381.51
512.17	409.59
512.34	397.89
512.51	348.74
512.69	400.23
512.86	447.04
513.04	425.98
513.21	400.23
513.38	374.49
513.56	418.96
513.73	362.78
513.90	388.53
514.08	402.57
514.25	388.53
514.43	379.17
514.60	390.87
514.77	390.87
514.95	430.66
515.12	430.66
515.29	423.64
515.47	430.66
515.64	414.27
515.81	369.80
515.99	461.09
516.16	458.74
516.33	416.62
516.51	444.70
516.68	390.87
516.85	332.36
517.03	386.19
517.20	451.72
517.37	416.62
517.54	482.15
517.72	411.93
517.89	414.27
518.06	454.06
518.24	510.24
518.41	454.06
518.58	400.23
518.75	423.64
518.93	447.04
519.10	407.25
519.27	376.83
519.45	475.13
519.62	421.30
519.79	435.34
519.96	409.59
520.14	425.98
520.31	411.93
520.48	435.34
520.65	365.12
520.83	411.93
521.00	437.68
521.17	470.45
521.34	395.55
521.52	416.62
521.69	465.77
521.86	418.96
522.03	395.55
522.20	463.43
522.38	411.93
522.55	533.64
522.72	461.09
522.89	383.85
523.07	465.77
523.24	435.34
523.41	381.51
523.58	409.59
523.75	454.06
523.92	425.98
524.10	376.83
524.27	540.66
524.44	379.17
524.61	416.62
524.78	486.83
524.96	423.64
525.13	425.98
525.30	489.17
525.47	454.06
525.64	418.96
525.81	416.62
525.98	428.32
526.16	386.19
526.33	395.55
526.50	463.43
526.67	374.49
526.84	437.68
527.01	365.12
527.18	383.85
527.36	416.62
527.53	414.27
527.70	517.26
527.87	393.21
528.04	435.34
528.21	395.55
528.38	409.59
528.55	454.06
528.72	409.59
528.89	503.22
529.07	482.15
529.24	397.89
529.41	393.21
529.58	395.55
529.75	409.59
529.92	425.98
530.09	376.83
530.26	498.53
530.43	489.17
530.60	402.57
530.77	461.09
530.94	411.93
531.11	447.04
531.28	395.55
531.46	454.06
531.63	411.93
531.80	437.68
531.97	521.94
532.14	442.36
532.31	369.80
532.48	430.66
532.65	400.23
532.82	402.57
532.99	435.34
533.16	468.11
533.33	362.78
533.50	393.21
533.67	416.62
533.84	409.59
534.01	454.06
534.18	454.06
534.35	435.34
534.52	433.00
534.69	444.70
534.86	468.11
535.03	449.38
535.20	383.85
535.37	458.74
535.54	442.36
535.71	388.53
535.88	409.59
536.05	493.85
536.22	411.93
536.38	416.62
536.55	449.38
536.72	470.45
536.89	372.15
537.06	372.15
537.23	437.68
537.40	435.34
537.57	409.59
537.74	479.81
537.91	367.46
538.08	423.64
538.25	407.25
538.42	463.43
538.59	479.81
538.75	433.00
538.92	435.34
539.09	437.68
539.26	393.21
539.43	433.00
539.60	430.66
539.77	437.68
539.94	404.91
540.11	496.19
540.28	444.70
540.44	510.24
540.61	465.77
540.78	346.40
540.95	416.62
541.12	517.26
541.29	402.57
541.46	425.98
541.62	355.76
541.79	493.85
541.96	454.06
542.13	397.89
542.30	367.46
542.47	390.87
542.63	433.00
542.80	423.64
542.97	407.25
543.14	479.81
543.31	430.66
543.48	414.27
543.64	500.87
543.81	482.15
543.98	437.68
544.15	435.34
544.32	430.66
544.48	411.93
544.65	423.64
544.82	416.62
544.99	463.43
545.16	388.53
545.32	348.74
545.49	472.79
545.66	428.32
545.83	461.09
546.00	395.55
546.16	376.83
546.33	423.64
546.50	390.87
546.67	414.27
546.83	383.85
547.00	402.57
547.17	381.51
547.34	409.59
547.50	421.30
547.67	397.89
547.84	430.66
548.00	428.32
548.17	449.38
548.34	425.98
548.51	468.11
548.67	425.98
548.84	402.57
549.01	414.27
549.18	423.64
549.34	458.74
549.51	416.62
549.68	400.23
549.84	489.17
550.01	435.34
550.18	468.11
550.34	493.85
550.51	463.43
550.68	470.45
550.84	482.15
551.01	468.11
551.18	484.49
551.34	407.25
551.51	379.17
551.68	425.98
551.84	456.40
552.01	418.96
552.18	435.34
552.34	505.56
552.51	442.36
552.68	381.51
552.84	402.57
553.01	423.64
553.18	477.47
553.34	407.25
553.51	416.62
553.67	435.34
553.84	472.79
554.01	482.15
554.17	397.89
554.34	449.38
554.51	444.70
554.67	500.87
554.84	451.72
555.00	451.72
555.17	388.53
555.33	475.13
555.50	369.80
555.67	425.98
555.83	360.44
556.00	414.27
556.16	507.90
556.33	444.70
556.50	390.87
556.66	351.08
556.83	404.91
556.99	463.43
557.16	416.62
557.32	388.53
557.49	409.59
557.65	390.87
557.82	440.02
557.98	388.53
558.15	421.30
558.32	383.85
558.48	442.36
558.65	500.87
558.81	463.43
558.98	360.44
559.14	313.63
559.31	440.02
559.47	388.53
559.64	430.66
559.80	381.51
559.97	353.42
560.13	430.66
560.30	407.25
560.46	442.36
560.63	440.02
560.79	437.68
560.96	421.30
561.12	425.98
561.29	465.77
561.45	404.91
561.61	393.21
561.78	472.79
561.94	454.06
562.11	414.27
562.27	414.27
562.44	388.53
562.60	472.79
562.77	418.96
562.93	454.06
563.10	390.87
563.26	421.30
563.42	449.38
563.59	369.80
563.75	404.91
563.92	390.87
564.08	421.30
564.24	470.45
564.41	510.24
564.57	402.57
564.74	395.55
564.90	440.02
565.07	444.70
565.23	475.13
565.39	423.64
565.56	418.96
565.72	444.70
565.88	407.25
566.05	414.27
566.21	379.17
566.38	437.68
566.54	512.58
566.70	479.81
566.87	409.59
567.03	447.04
567.19	458.74
567.36	402.57
567.52	421.30
567.68	411.93
567.85	461.09
568.01	372.15
568.17	451.72
568.34	395.55
568.50	449.38
568.66	477.47
568.83	472.79
568.99	365.12
569.15	505.56
569.32	442.36
569.48	451.72
569.64	400.23
569.81	440.02
569.97	451.72
570.13	376.83
570.30	390.87
570.46	472.79
570.62	470.45
570.78	411.93
570.95	397.89
571.11	414.27
571.27	397.89
571.43	393.21
571.60	362.78
571.76	416.62
571.92	461.09
572.09	451.72
572.25	430.66
572.41	454.06
572.57	437.68
572.74	416.62
572.90	428.32
573.06	379.17
573.22	421.30
573.38	437.68
573.55	433.00
573.71	379.17
573.87	437.68
574.03	414.27
574.20	437.68
574.36	496.19
574.52	411.93
574.68	404.91
574.84	435.34
575.01	437.68
575.17	397.89
575.33	397.89
575.49	414.27
575.65	423.64
575.82	351.08
575.98	500.87
576.14	423.64
576.30	411.93
576.46	433.00
576.62	369.80
576.79	416.62
576.95	416.62
577.11	344.06
577.27	383.85
577.43	444.70
577.59	461.09
577.75	381.51
577.92	486.83
578.08	449.38
578.24	409.59
578.40	395.55
578.56	374.49
578.72	428.32
578.88	358.10
579.04	409.59
579.21	397.89
579.37	454.06
579.53	430.66
579.69	409.59
579.85	414.27
580.01	421.30
580.17	395.55
580.33	369.80
580.49	435.34
580.65	451.72
580.82	348.74
580.98	390.87
581.14	393.21
581.30	423.64
581.46	465.77
581.62	477.47
581.78	468.11
581.94	484.49
582.10	411.93
582.26	428.32
582.42	374.49
582.58	472.79
582.74	465.77
582.90	418.96
583.06	311.29
583.22	400.23
583.38	376.83
583.54	397.89
583.70	433.00
583.86	402.57
584.02	351.08
584.18	447.04
584.34	463.43
584.50	440.02
584.66	390.87
584.82	418.96
584.98	461.09
585.14	390.87
585.30	423.64
585.46	433.00
585.62	374.49
585.78	442.36
585.94	435.34
586.10	409.59
586.26	477.47
586.42	528.96
586.58	444.70
586.74	369.80
586.90	425.98
587.06	449.38
587.22	353.42
587.38	425.98
587.54	454.06
587.70	421.30
587.86	400.23
588.02	437.68
588.18	411.93
588.34	482.15
588.49	355.76
588.65	351.08
588.81	395.55
588.97	465.77
589.13	423.64
589.29	320.65
589.45	479.81
589.61	414.27
589.77	407.25
589.93	388.53
590.08	496.19
590.24	407.25
590.40	435.34
590.56	381.51
590.72	407.25
590.88	381.51
591.04	397.89
591.20	449.38
591.35	470.45
591.51	383.85
591.67	367.46
591.83	358.10
591.99	437.68
592.15	421.30
592.31	409.59
592.46	425.98
592.62	468.11
592.78	440.02
592.94	397.89
593.10	442.36
593.26	411.93
593.41	362.78
593.57	440.02
593.73	388.53
593.89	428.32
594.05	447.04
594.20	411.93
594.36	458.74
594.52	479.81
594.68	393.21
594.84	407.25
594.99	475.13
595.15	425.98
595.31	442.36
595.47	500.87
595.62	423.64
595.78	365.12
595.94	418.96
596.10	472.79
596.25	447.04
596.41	400.23
596.57	512.58
596.73	418.96
596.88	372.15
597.04	433.00
597.20	458.74
597.36	372.15
597.51	423.64
597.67	367.46
597.83	383.85
597.99	449.38
598.14	407.25
598.30	489.17
598.46	278.52
598.61	395.55
598.77	390.87
598.93	367.46
599.09	423.64
599.24	395.55
599.40	430.66
599.56	418.96
599.71	407.25
599.87	395.55
600.03	440.02
600.18	437.68
600.34	514.92
600.50	463.43
600.65	449.38
600.81	454.06
600.97	404.91
601.12	425.98
601.28	425.98
601.44	465.77
601.59	430.66
601.75	395.55
601.91	404.91
602.06	444.70
602.22	468.11
602.37	444.70
602.53	404.91
602.69	479.81
602.84	381.51
603.00	428.32
603.16	379.17
603.31	468.11
603.47	428.32
603.62	367.46
603.78	416.62
603.94	472.79
604.09	390.87
604.25	376.83
604.40	423.64
604.56	423.64
604.71	414.27
604.87	407.25
605.03	397.89
605.18	486.83
605.34	517.26
605.49	381.51
605.65	437.68
605.80	390.87
605.96	454.06
606.12	416.62
606.27	334.70
606.43	360.44
606.58	418.96
606.74	393.21
606.89	472.79
607.05	400.23
607.20	414.27
607.36	365.12
607.51	376.83
607.67	416.62
607.82	362.78
607.98	425.98
608.13	437.68
608.29	376.83
608.44	456.40
608.60	372.15
608.75	498.53
608.91	451.72
609.06	458.74
609.22	416.62
609.37	496.19
609.53	400.23
609.68	447.04
609.84	337.04
609.99	402.57
610.15	355.76
