SpectraSuite Data File
++++++++++++++++++++++++++++++++++++
Date: Fri Oct 25 12:10:06 EDT 2013
User: price-jones
Dark Spectrum Present: No
Reference Spectrum Present: No
Number of Sampled Component Spectra: 1
Spectrometers: USB2+H05261
Integration Time (usec): 100000 (USB2+H05261)
Spectra Averaged: 1 (USB2+H05261)
Boxcar Smoothing: 0 (USB2+H05261)
Correct for Electrical Dark: No (USB2+H05261)
Strobe/Lamp Enabled: No (USB2+H05261)
Correct for Detector Non-linearity: No (USB2+H05261)
Correct for Stray Light: No (USB2+H05261)
Number of Pixels in Processed Spectrum: 2048
>>>>>Begin Processed Spectral Data<<<<<
365.73	332.36
365.92	332.36
366.12	332.36
366.32	227.03
366.52	259.80
366.72	299.59
366.91	217.67
367.11	196.60
367.31	184.90
367.51	311.29
367.70	290.23
367.90	287.89
368.10	205.97
368.30	234.05
368.49	245.76
368.69	290.23
368.89	278.52
369.09	187.24
369.28	292.57
369.48	222.35
369.68	276.18
369.87	241.08
370.07	182.56
370.27	271.50
370.47	304.27
370.66	276.18
370.86	383.85
371.06	353.42
371.25	360.44
371.45	386.19
371.65	360.44
371.84	402.57
372.04	344.06
372.24	360.44
372.44	367.46
372.63	325.33
372.83	341.72
373.03	402.57
373.22	442.36
373.42	397.89
373.62	386.19
373.81	418.96
374.01	437.68
374.21	388.53
374.40	418.96
374.60	421.30
374.79	454.06
374.99	372.15
375.19	484.49
375.38	400.23
375.58	379.17
375.78	470.45
375.97	407.25
376.17	477.47
376.37	348.74
376.56	447.04
376.76	346.40
376.95	435.34
377.15	393.21
377.35	416.62
377.54	444.70
377.74	400.23
377.93	454.06
378.13	344.06
378.33	428.32
378.52	376.83
378.72	388.53
378.91	390.87
379.11	376.83
379.31	376.83
379.50	428.32
379.70	414.27
379.89	451.72
380.09	388.53
380.28	332.36
380.48	388.53
380.68	442.36
380.87	358.10
381.07	414.27
381.26	423.64
381.46	397.89
381.65	362.78
381.85	367.46
382.04	411.93
382.24	428.32
382.43	386.19
382.63	386.19
382.83	418.96
383.02	374.49
383.22	435.34
383.41	454.06
383.61	390.87
383.80	421.30
384.00	395.55
384.19	379.17
384.39	397.89
384.58	381.51
384.78	421.30
384.97	334.70
385.17	433.00
385.36	428.32
385.56	428.32
385.75	369.80
385.95	451.72
386.14	376.83
386.34	388.53
386.53	348.74
386.72	383.85
386.92	449.38
387.11	447.04
387.31	390.87
387.50	463.43
387.70	362.78
387.89	433.00
388.09	376.83
388.28	374.49
388.48	379.17
388.67	404.91
388.86	353.42
389.06	433.00
389.25	407.25
389.45	411.93
389.64	444.70
389.84	402.57
390.03	404.91
390.22	369.80
390.42	376.83
390.61	379.17
390.81	388.53
391.00	362.78
391.19	386.19
391.39	423.64
391.58	416.62
391.78	367.46
391.97	397.89
392.16	374.49
392.36	423.64
392.55	425.98
392.75	447.04
392.94	372.15
393.13	411.93
393.33	400.23
393.52	351.08
393.71	348.74
393.91	433.00
394.10	423.64
394.29	435.34
394.49	400.23
394.68	458.74
394.88	421.30
395.07	416.62
395.26	418.96
395.46	379.17
395.65	430.66
395.84	393.21
396.04	458.74
396.23	386.19
396.42	402.57
396.62	379.17
396.81	407.25
397.00	454.06
397.19	386.19
397.39	400.23
397.58	456.40
397.77	362.78
397.97	456.40
398.16	411.93
398.35	376.83
398.55	447.04
398.74	372.15
398.93	365.12
399.12	425.98
399.32	353.42
399.51	407.25
399.70	353.42
399.90	339.38
400.09	400.23
400.28	411.93
400.47	388.53
400.67	379.17
400.86	418.96
401.05	376.83
401.24	381.51
401.44	425.98
401.63	428.32
401.82	430.66
402.01	379.17
402.21	461.09
402.40	437.68
402.59	362.78
402.78	390.87
402.97	402.57
403.17	416.62
403.36	388.53
403.55	383.85
403.74	379.17
403.93	416.62
404.13	449.38
404.32	369.80
404.51	379.17
404.70	416.62
404.89	320.65
405.09	447.04
405.28	346.40
405.47	402.57
405.66	425.98
405.85	390.87
406.05	411.93
406.24	388.53
406.43	475.13
406.62	430.66
406.81	491.51
407.00	463.43
407.20	409.59
407.39	461.09
407.58	346.40
407.77	428.32
407.96	360.44
408.15	440.02
408.34	468.11
408.54	402.57
408.73	386.19
408.92	472.79
409.11	442.36
409.30	414.27
409.49	414.27
409.68	468.11
409.87	374.49
410.07	400.23
410.26	414.27
410.45	381.51
410.64	358.10
410.83	409.59
411.02	379.17
411.21	430.66
411.40	348.74
411.59	346.40
411.78	449.38
411.98	400.23
412.17	449.38
412.36	369.80
412.55	430.66
412.74	435.34
412.93	409.59
413.12	435.34
413.31	486.83
413.50	411.93
413.69	416.62
413.88	437.68
414.07	332.36
414.26	435.34
414.45	372.15
414.64	390.87
414.83	407.25
415.02	383.85
415.22	423.64
415.41	449.38
415.60	411.93
415.79	379.17
415.98	430.66
416.17	381.51
416.36	416.62
416.55	367.46
416.74	416.62
416.93	388.53
417.12	461.09
417.31	435.34
417.50	383.85
417.69	458.74
417.88	397.89
418.07	409.59
418.26	301.93
418.45	397.89
418.64	404.91
418.83	463.43
419.02	376.83
419.21	433.00
419.39	437.68
419.58	472.79
419.77	407.25
419.96	425.98
420.15	475.13
420.34	463.43
420.53	383.85
420.72	379.17
420.91	379.17
421.10	477.47
421.29	393.21
421.48	475.13
421.67	444.70
421.86	388.53
422.05	416.62
422.24	449.38
422.43	395.55
422.61	402.57
422.80	383.85
422.99	418.96
423.18	397.89
423.37	421.30
423.56	442.36
423.75	414.27
423.94	386.19
424.13	339.38
424.32	353.42
424.50	344.06
424.69	379.17
424.88	468.11
425.07	344.06
425.26	416.62
425.45	435.34
425.64	435.34
425.83	407.25
426.01	435.34
426.20	435.34
426.39	395.55
426.58	433.00
426.77	351.08
426.96	374.49
427.15	433.00
427.33	404.91
427.52	374.49
427.71	369.80
427.90	407.25
428.09	437.68
428.28	346.40
428.46	423.64
428.65	458.74
428.84	418.96
429.03	449.38
429.22	388.53
429.40	437.68
429.59	372.15
429.78	355.76
429.97	386.19
430.16	390.87
430.34	454.06
430.53	451.72
430.72	507.90
430.91	493.85
431.10	421.30
431.28	496.19
431.47	421.30
431.66	418.96
431.85	381.51
432.03	369.80
432.22	533.64
432.41	428.32
432.60	400.23
432.79	411.93
432.97	421.30
433.16	386.19
433.35	404.91
433.54	393.21
433.72	346.40
433.91	337.04
434.10	393.21
434.28	397.89
434.47	390.87
434.66	430.66
434.85	437.68
435.03	402.57
435.22	463.43
435.41	425.98
435.59	397.89
435.78	337.04
435.97	341.72
436.16	402.57
436.34	351.08
436.53	428.32
436.72	425.98
436.90	463.43
437.09	423.64
437.28	411.93
437.46	430.66
437.65	442.36
437.84	444.70
438.02	425.98
438.21	397.89
438.40	442.36
438.58	388.53
438.77	393.21
438.96	400.23
439.14	369.80
439.33	500.87
439.52	374.49
439.70	465.77
439.89	388.53
440.08	381.51
440.26	344.06
440.45	411.93
440.63	386.19
440.82	458.74
441.01	369.80
441.19	404.91
441.38	341.72
441.57	390.87
441.75	421.30
441.94	463.43
442.12	533.64
442.31	388.53
442.50	411.93
442.68	374.49
442.87	428.32
443.05	379.17
443.24	386.19
443.43	456.40
443.61	393.21
443.80	395.55
443.98	414.27
444.17	444.70
444.35	535.98
444.54	362.78
444.73	418.96
444.91	493.85
445.10	367.46
445.28	435.34
445.47	449.38
445.65	435.34
445.84	484.49
446.02	449.38
446.21	404.91
446.39	461.09
446.58	409.59
446.77	451.72
446.95	388.53
447.14	369.80
447.32	414.27
447.51	397.89
447.69	386.19
447.88	409.59
448.06	447.04
448.25	402.57
448.43	362.78
448.62	416.62
448.80	393.21
448.99	418.96
449.17	463.43
449.36	444.70
449.54	353.42
449.73	341.72
449.91	425.98
450.10	458.74
450.28	447.04
450.46	449.38
450.65	400.23
450.83	402.57
451.02	435.34
451.20	442.36
451.39	353.42
451.57	346.40
451.76	379.17
451.94	418.96
452.13	388.53
452.31	404.91
452.49	428.32
452.68	327.68
452.86	425.98
453.05	381.51
453.23	451.72
453.42	381.51
453.60	334.70
453.78	411.93
453.97	379.17
454.15	369.80
454.34	421.30
454.52	463.43
454.70	449.38
454.89	374.49
455.07	397.89
455.26	433.00
455.44	458.74
455.62	332.36
455.81	475.13
455.99	496.19
456.17	355.76
456.36	416.62
456.54	458.74
456.73	388.53
456.91	362.78
457.09	395.55
457.28	416.62
457.46	435.34
457.64	383.85
457.83	393.21
458.01	402.57
458.19	496.19
458.38	374.49
458.56	355.76
458.74	374.49
458.93	407.25
459.11	330.02
459.29	400.23
459.48	435.34
459.66	486.83
459.84	423.64
460.03	493.85
460.21	433.00
460.39	407.25
460.57	400.23
460.76	400.23
460.94	390.87
461.12	390.87
461.31	470.45
461.49	402.57
461.67	400.23
461.85	437.68
462.04	430.66
462.22	765.36
462.40	365.12
462.59	423.64
462.77	374.49
462.95	351.08
463.13	407.25
463.32	409.59
463.50	430.66
463.68	416.62
463.86	430.66
464.05	470.45
464.23	367.46
464.41	381.51
464.59	444.70
464.78	442.36
464.96	418.96
465.14	332.36
465.32	393.21
465.50	425.98
465.69	425.98
465.87	402.57
466.05	421.30
466.23	374.49
466.41	360.44
466.60	334.70
466.78	404.91
466.96	425.98
467.14	395.55
467.32	507.90
467.51	498.53
467.69	458.74
467.87	428.32
468.05	416.62
468.23	433.00
468.41	397.89
468.60	404.91
468.78	456.40
468.96	404.91
469.14	435.34
469.32	358.10
469.50	379.17
469.69	505.56
469.87	411.93
470.05	360.44
470.23	390.87
470.41	390.87
470.59	402.57
470.77	425.98
470.95	374.49
471.14	435.34
471.32	339.38
471.50	423.64
471.68	344.06
471.86	358.10
472.04	437.68
472.22	386.19
472.40	421.30
472.58	404.91
472.77	430.66
472.95	418.96
473.13	416.62
473.31	433.00
473.49	337.04
473.67	325.33
473.85	411.93
474.03	367.46
474.21	365.12
474.39	461.09
474.57	447.04
474.75	435.34
474.93	418.96
475.12	409.59
475.30	418.96
475.48	472.79
475.66	465.77
475.84	365.12
476.02	369.80
476.20	463.43
476.38	433.00
476.56	374.49
476.74	409.59
476.92	404.91
477.10	404.91
477.28	362.78
477.46	374.49
477.64	463.43
477.82	397.89
478.00	416.62
478.18	430.66
478.36	411.93
478.54	454.06
478.72	449.38
478.90	442.36
479.08	388.53
479.26	388.53
479.44	355.76
479.62	358.10
479.80	372.15
479.98	360.44
480.16	461.09
480.34	430.66
480.52	500.87
480.70	411.93
480.88	341.72
481.06	395.55
481.24	456.40
481.41	440.02
481.59	388.53
481.77	372.15
481.95	489.17
482.13	449.38
482.31	390.87
482.49	374.49
482.67	435.34
482.85	411.93
483.03	442.36
483.21	404.91
483.39	390.87
483.57	369.80
483.74	491.51
483.92	437.68
484.10	435.34
484.28	435.34
484.46	458.74
484.64	327.68
484.82	369.80
485.00	414.27
485.18	390.87
485.35	388.53
485.53	402.57
485.71	397.89
485.89	463.43
486.07	397.89
486.25	468.11
486.43	390.87
486.61	444.70
486.78	400.23
486.96	395.55
487.14	416.62
487.32	430.66
487.50	386.19
487.68	393.21
487.85	421.30
488.03	404.91
488.21	402.57
488.39	442.36
488.57	440.02
488.75	395.55
488.92	463.43
489.10	407.25
489.28	449.38
489.46	381.51
489.64	393.21
489.81	369.80
489.99	435.34
490.17	402.57
490.35	418.96
490.53	379.17
490.70	360.44
490.88	379.17
491.06	379.17
491.24	475.13
491.41	416.62
491.59	409.59
491.77	484.49
491.95	416.62
492.13	334.70
492.30	477.47
492.48	330.02
492.66	376.83
492.84	372.15
493.01	472.79
493.19	425.98
493.37	500.87
493.54	346.40
493.72	496.19
493.90	372.15
494.08	337.04
494.25	505.56
494.43	416.62
494.61	372.15
494.79	428.32
494.96	404.91
495.14	447.04
495.32	374.49
495.49	395.55
495.67	397.89
495.85	444.70
496.02	442.36
496.20	493.85
496.38	437.68
496.55	423.64
496.73	411.93
496.91	449.38
497.09	367.46
497.26	479.81
497.44	395.55
497.62	458.74
497.79	477.47
497.97	344.06
498.14	397.89
498.32	418.96
498.50	454.06
498.67	437.68
498.85	418.96
499.03	435.34
499.20	353.42
499.38	437.68
499.56	470.45
499.73	472.79
499.91	484.49
500.08	444.70
500.26	416.62
500.44	374.49
500.61	404.91
500.79	402.57
500.97	388.53
501.14	461.09
501.32	421.30
501.49	447.04
501.67	341.72
501.84	449.38
502.02	407.25
502.20	472.79
502.37	463.43
502.55	365.12
502.72	383.85
502.90	449.38
503.07	330.02
503.25	437.68
503.43	376.83
503.60	475.13
503.78	418.96
503.95	383.85
504.13	442.36
504.30	423.64
504.48	423.64
504.65	451.72
504.83	461.09
505.01	458.74
505.18	428.32
505.36	407.25
505.53	456.40
505.71	451.72
505.88	458.74
506.06	346.40
506.23	376.83
506.41	484.49
506.58	430.66
506.76	379.17
506.93	404.91
507.11	444.70
507.28	435.34
507.46	395.55
507.63	383.85
507.81	440.02
507.98	456.40
508.16	404.91
508.33	402.57
508.50	444.70
508.68	344.06
508.85	411.93
509.03	395.55
509.20	425.98
509.38	379.17
509.55	425.98
509.73	402.57
509.90	423.64
510.08	362.78
510.25	416.62
510.42	407.25
510.60	425.98
510.77	383.85
510.95	411.93
511.12	440.02
511.30	514.92
511.47	430.66
511.64	418.96
511.82	425.98
511.99	404.91
512.17	456.40
512.34	390.87
512.51	397.89
512.69	440.02
512.86	430.66
513.04	397.89
513.21	407.25
513.38	423.64
513.56	407.25
513.73	407.25
513.90	463.43
514.08	428.32
514.25	416.62
514.43	433.00
514.60	358.10
514.77	456.40
514.95	414.27
515.12	341.72
515.29	407.25
515.47	404.91
515.64	362.78
515.81	447.04
515.99	437.68
516.16	451.72
516.33	425.98
516.51	400.23
516.68	393.21
516.85	381.51
517.03	397.89
517.20	402.57
517.37	456.40
517.54	372.15
517.72	456.40
517.89	365.12
518.06	388.53
518.24	423.64
518.41	425.98
518.58	351.08
518.75	414.27
518.93	444.70
519.10	367.46
519.27	404.91
519.45	395.55
519.62	493.85
519.79	404.91
519.96	400.23
520.14	421.30
520.31	425.98
520.48	425.98
520.65	425.98
520.83	451.72
521.00	395.55
521.17	404.91
521.34	479.81
521.52	409.59
521.69	379.17
521.86	433.00
522.03	374.49
522.20	482.15
522.38	407.25
522.55	395.55
522.72	390.87
522.89	414.27
523.07	390.87
523.24	315.97
523.41	430.66
523.58	437.68
523.75	400.23
523.92	491.51
524.10	407.25
524.27	381.51
524.44	503.22
524.61	472.79
524.78	437.68
524.96	383.85
525.13	416.62
525.30	388.53
525.47	418.96
525.64	437.68
525.81	386.19
525.98	500.87
526.16	444.70
526.33	339.38
526.50	416.62
526.67	458.74
526.84	367.46
527.01	425.98
527.18	353.42
527.36	470.45
527.53	388.53
527.70	449.38
527.87	416.62
528.04	440.02
528.21	461.09
528.38	440.02
528.55	454.06
528.72	456.40
528.89	425.98
529.07	351.08
529.24	461.09
529.41	437.68
529.58	425.98
529.75	393.21
529.92	451.72
530.09	400.23
530.26	416.62
530.43	430.66
530.60	418.96
530.77	407.25
530.94	433.00
531.11	472.79
531.28	449.38
531.46	388.53
531.63	348.74
531.80	409.59
531.97	404.91
532.14	369.80
532.31	404.91
532.48	383.85
532.65	451.72
532.82	374.49
532.99	374.49
533.16	360.44
533.33	472.79
533.50	479.81
533.67	344.06
533.84	409.59
534.01	458.74
534.18	393.21
534.35	437.68
534.52	383.85
534.69	414.27
534.86	414.27
535.03	435.34
535.20	444.70
535.37	397.89
535.54	397.89
535.71	428.32
535.88	423.64
536.05	402.57
536.22	414.27
536.38	423.64
536.55	414.27
536.72	463.43
536.89	425.98
537.06	374.49
537.23	479.81
537.40	463.43
537.57	442.36
537.74	425.98
537.91	407.25
538.08	388.53
538.25	444.70
538.42	428.32
538.59	386.19
538.75	360.44
538.92	400.23
539.09	418.96
539.26	440.02
539.43	400.23
539.60	451.72
539.77	421.30
539.94	503.22
540.11	470.45
540.28	418.96
540.44	468.11
540.61	477.47
540.78	388.53
540.95	416.62
541.12	444.70
541.29	435.34
541.46	470.45
541.62	411.93
541.79	503.22
541.96	425.98
542.13	383.85
542.30	355.76
542.47	381.51
542.63	435.34
542.80	418.96
542.97	430.66
543.14	402.57
543.31	416.62
543.48	341.72
543.64	433.00
543.81	414.27
543.98	458.74
544.15	421.30
544.32	468.11
544.48	454.06
544.65	425.98
544.82	383.85
544.99	430.66
545.16	486.83
545.32	465.77
545.49	428.32
545.66	374.49
545.83	456.40
546.00	451.72
546.16	409.59
546.33	421.30
546.50	341.72
546.67	451.72
546.83	425.98
547.00	407.25
547.17	393.21
547.34	402.57
547.50	454.06
547.67	433.00
547.84	327.68
548.00	428.32
548.17	393.21
548.34	362.78
548.51	519.60
548.67	447.04
548.84	386.19
549.01	447.04
549.18	442.36
549.34	484.49
549.51	402.57
549.68	355.76
549.84	372.15
550.01	425.98
550.18	447.04
550.34	414.27
550.51	414.27
550.68	411.93
550.84	390.87
551.01	458.74
551.18	437.68
551.34	372.15
551.51	447.04
551.68	440.02
551.84	416.62
552.01	393.21
552.18	430.66
552.34	418.96
552.51	428.32
552.68	386.19
552.84	489.17
553.01	418.96
553.18	400.23
553.34	393.21
553.51	313.63
553.67	395.55
553.84	470.45
554.01	482.15
554.17	428.32
554.34	416.62
554.51	425.98
554.67	435.34
554.84	355.76
555.00	447.04
555.17	411.93
555.33	416.62
555.50	381.51
555.67	430.66
555.83	325.33
556.00	374.49
556.16	554.71
556.33	374.49
556.50	418.96
556.66	458.74
556.83	421.30
556.99	449.38
557.16	479.81
557.32	297.25
557.49	351.08
557.65	409.59
557.82	383.85
557.98	376.83
558.15	444.70
558.32	418.96
558.48	479.81
558.65	435.34
558.81	430.66
558.98	414.27
559.14	442.36
559.31	475.13
559.47	418.96
559.64	376.83
559.80	372.15
559.97	365.12
560.13	379.17
560.30	447.04
560.46	409.59
560.63	372.15
560.79	430.66
560.96	407.25
561.12	360.44
561.29	374.49
561.45	435.34
561.61	430.66
561.78	491.51
561.94	433.00
562.11	430.66
562.27	444.70
562.44	369.80
562.60	411.93
562.77	374.49
562.93	472.79
563.10	362.78
563.26	386.19
563.42	418.96
563.59	454.06
563.75	416.62
563.92	428.32
564.08	461.09
564.24	447.04
564.41	451.72
564.57	454.06
564.74	395.55
564.90	428.32
565.07	386.19
565.23	414.27
565.39	411.93
565.56	402.57
565.72	411.93
565.88	395.55
566.05	402.57
566.21	435.34
566.38	393.21
566.54	411.93
566.70	430.66
566.87	374.49
567.03	468.11
567.19	435.34
567.36	418.96
567.52	388.53
567.68	379.17
567.85	444.70
568.01	400.23
568.17	421.30
568.34	348.74
568.50	482.15
568.66	421.30
568.83	510.24
568.99	435.34
569.15	472.79
569.32	463.43
569.48	425.98
569.64	435.34
569.81	416.62
569.97	404.91
570.13	386.19
570.30	353.42
570.46	447.04
570.62	423.64
570.78	486.83
570.95	425.98
571.11	421.30
571.27	388.53
571.43	418.96
571.60	458.74
571.76	404.91
571.92	381.51
572.09	367.46
572.25	374.49
572.41	440.02
572.57	449.38
572.74	470.45
572.90	379.17
573.06	369.80
573.22	386.19
573.38	440.02
573.55	470.45
573.71	397.89
573.87	454.06
574.03	372.15
574.20	491.51
574.36	418.96
574.52	423.64
574.68	411.93
574.84	360.44
575.01	372.15
575.17	430.66
575.33	332.36
575.49	454.06
575.65	468.11
575.82	372.15
575.98	447.04
576.14	428.32
576.30	435.34
576.46	404.91
576.62	395.55
576.79	374.49
576.95	519.60
577.11	428.32
577.27	433.00
577.43	416.62
577.59	440.02
577.75	416.62
577.92	374.49
578.08	388.53
578.24	402.57
578.40	376.83
578.56	491.51
578.72	414.27
578.88	404.91
579.04	444.70
579.21	470.45
579.37	440.02
579.53	491.51
579.69	379.17
579.85	454.06
580.01	383.85
580.17	440.02
580.33	390.87
580.49	461.09
580.65	402.57
580.82	325.33
580.98	381.51
581.14	355.76
581.30	411.93
581.46	421.30
581.62	442.36
581.78	409.59
581.94	372.15
582.10	482.15
582.26	390.87
582.42	308.95
582.58	407.25
582.74	390.87
582.90	465.77
583.06	425.98
583.22	425.98
583.38	458.74
583.54	362.78
583.70	365.12
583.86	367.46
584.02	351.08
584.18	409.59
584.34	440.02
584.50	430.66
584.66	407.25
584.82	404.91
584.98	416.62
585.14	393.21
585.30	395.55
585.46	404.91
585.62	372.15
585.78	383.85
585.94	367.46
586.10	348.74
586.26	376.83
586.42	482.15
586.58	442.36
586.74	404.91
586.90	411.93
587.06	360.44
587.22	360.44
587.38	388.53
587.54	404.91
587.70	503.22
587.86	416.62
588.02	379.17
588.18	477.47
588.34	496.19
588.49	421.30
588.65	465.77
588.81	437.68
588.97	388.53
589.13	423.64
589.29	407.25
589.45	472.79
589.61	414.27
589.77	475.13
589.93	411.93
590.08	454.06
590.24	397.89
590.40	376.83
590.56	479.81
590.72	418.96
590.88	444.70
591.04	433.00
591.20	409.59
591.35	496.19
591.51	447.04
591.67	397.89
591.83	463.43
591.99	414.27
592.15	444.70
592.31	386.19
592.46	374.49
592.62	383.85
592.78	374.49
592.94	369.80
593.10	421.30
593.26	402.57
593.41	409.59
593.57	400.23
593.73	428.32
593.89	458.74
594.05	374.49
594.20	430.66
594.36	484.49
594.52	477.47
594.68	376.83
594.84	444.70
594.99	425.98
595.15	435.34
595.31	395.55
595.47	430.66
595.62	402.57
595.78	334.70
595.94	442.36
596.10	461.09
596.25	372.15
596.41	341.72
596.57	365.12
596.73	428.32
596.88	416.62
597.04	421.30
597.20	421.30
597.36	440.02
597.51	395.55
597.67	372.15
597.83	365.12
597.99	395.55
598.14	447.04
598.30	390.87
598.46	423.64
598.61	449.38
598.77	388.53
598.93	365.12
599.09	351.08
599.24	362.78
599.40	435.34
599.56	416.62
599.71	428.32
599.87	435.34
600.03	393.21
600.18	299.59
600.34	400.23
600.50	444.70
600.65	472.79
600.81	444.70
600.97	454.06
601.12	484.49
601.28	397.89
601.44	458.74
601.59	433.00
601.75	475.13
601.91	421.30
602.06	465.77
602.22	383.85
602.37	407.25
602.53	379.17
602.69	409.59
602.84	404.91
603.00	390.87
603.16	327.68
603.31	369.80
603.47	423.64
603.62	409.59
603.78	461.09
603.94	477.47
604.09	433.00
604.25	451.72
604.40	416.62
604.56	386.19
604.71	402.57
604.87	308.95
605.03	383.85
605.18	468.11
605.34	433.00
605.49	447.04
605.65	397.89
605.80	428.32
605.96	451.72
606.12	397.89
606.27	433.00
606.43	404.91
606.58	461.09
606.74	367.46
606.89	430.66
607.05	397.89
607.20	416.62
607.36	393.21
607.51	367.46
607.67	344.06
607.82	468.11
607.98	418.96
608.13	407.25
608.29	395.55
608.44	477.47
608.60	449.38
608.75	407.25
608.91	346.40
609.06	498.53
609.22	475.13
609.37	383.85
609.53	425.98
609.68	388.53
609.84	376.83
609.99	435.34
610.15	397.89
