SpectraSuite Data File
++++++++++++++++++++++++++++++++++++
Date: Fri Oct 25 12:11:38 EDT 2013
User: price-jones
Dark Spectrum Present: No
Reference Spectrum Present: No
Number of Sampled Component Spectra: 1
Spectrometers: USB2+H05261
Integration Time (usec): 100000 (USB2+H05261)
Spectra Averaged: 1 (USB2+H05261)
Boxcar Smoothing: 0 (USB2+H05261)
Correct for Electrical Dark: No (USB2+H05261)
Strobe/Lamp Enabled: No (USB2+H05261)
Correct for Detector Non-linearity: No (USB2+H05261)
Correct for Stray Light: No (USB2+H05261)
Number of Pixels in Processed Spectrum: 2048
>>>>>Begin Processed Spectral Data<<<<<
365.73	344.06
365.92	344.06
366.12	344.06
366.32	285.55
366.52	189.58
366.72	273.84
366.91	210.65
367.11	257.46
367.31	276.18
367.51	273.84
367.70	262.14
367.90	234.05
368.10	168.52
368.30	238.73
368.49	189.58
368.69	292.57
368.89	234.05
369.09	304.27
369.28	315.97
369.48	292.57
369.68	255.12
369.87	351.08
370.07	358.10
370.27	304.27
370.47	308.95
370.66	337.04
370.86	353.42
371.06	372.15
371.25	447.04
371.45	318.31
371.65	369.80
371.84	313.63
372.04	386.19
372.24	433.00
372.44	390.87
372.63	486.83
372.83	430.66
373.03	409.59
373.22	400.23
373.42	421.30
373.62	423.64
373.81	383.85
374.01	440.02
374.21	397.89
374.40	330.02
374.60	472.79
374.79	433.00
374.99	383.85
375.19	393.21
375.38	402.57
375.58	416.62
375.78	433.00
375.97	386.19
376.17	477.47
376.37	416.62
376.56	397.89
376.76	463.43
376.95	355.76
377.15	400.23
377.35	404.91
377.54	421.30
377.74	407.25
377.93	353.42
378.13	440.02
378.33	428.32
378.52	449.38
378.72	440.02
378.91	444.70
379.11	454.06
379.31	409.59
379.50	397.89
379.70	470.45
379.89	454.06
380.09	386.19
380.28	423.64
380.48	325.33
380.68	325.33
380.87	304.27
381.07	414.27
381.26	400.23
381.46	383.85
381.65	414.27
381.85	416.62
382.04	402.57
382.24	437.68
382.43	407.25
382.63	388.53
382.83	381.51
383.02	407.25
383.22	414.27
383.41	395.55
383.61	416.62
383.80	475.13
384.00	442.36
384.19	386.19
384.39	402.57
384.58	372.15
384.78	388.53
384.97	346.40
385.17	397.89
385.36	383.85
385.56	337.04
385.75	374.49
385.95	528.96
386.14	430.66
386.34	442.36
386.53	376.83
386.72	341.72
386.92	430.66
387.11	416.62
387.31	437.68
387.50	383.85
387.70	416.62
387.89	447.04
388.09	379.17
388.28	304.27
388.48	351.08
388.67	395.55
388.86	402.57
389.06	390.87
389.25	477.47
389.45	416.62
389.64	360.44
389.84	430.66
390.03	449.38
390.22	451.72
390.42	390.87
390.61	416.62
390.81	383.85
391.00	395.55
391.19	486.83
391.39	397.89
391.58	425.98
391.78	346.40
391.97	411.93
392.16	400.23
392.36	379.17
392.55	484.49
392.75	409.59
392.94	435.34
393.13	374.49
393.33	372.15
393.52	421.30
393.71	411.93
393.91	390.87
394.10	376.83
394.29	447.04
394.49	435.34
394.68	416.62
394.88	421.30
395.07	409.59
395.26	383.85
395.46	409.59
395.65	482.15
395.84	362.78
396.04	449.38
396.23	395.55
396.42	442.36
396.62	395.55
396.81	447.04
397.00	393.21
397.19	393.21
397.39	428.32
397.58	451.72
397.77	374.49
397.97	395.55
398.16	407.25
398.35	425.98
398.55	386.19
398.74	463.43
398.93	393.21
399.12	416.62
399.32	372.15
399.51	470.45
399.70	381.51
399.90	454.06
400.09	381.51
400.28	416.62
400.47	381.51
400.67	423.64
400.86	411.93
401.05	451.72
401.24	372.15
401.44	386.19
401.63	383.85
401.82	489.17
402.01	428.32
402.21	367.46
402.40	397.89
402.59	435.34
402.78	393.21
402.97	458.74
403.17	395.55
403.36	430.66
403.55	358.10
403.74	454.06
403.93	409.59
404.13	416.62
404.32	388.53
404.51	386.19
404.70	463.43
404.89	367.46
405.09	418.96
405.28	374.49
405.47	369.80
405.66	428.32
405.85	390.87
406.05	477.47
406.24	334.70
406.43	414.27
406.62	376.83
406.81	440.02
407.00	374.49
407.20	468.11
407.39	456.40
407.58	404.91
407.77	433.00
407.96	435.34
408.15	454.06
408.34	475.13
408.54	395.55
408.73	423.64
408.92	381.51
409.11	411.93
409.30	400.23
409.49	449.38
409.68	416.62
409.87	327.68
410.07	416.62
410.26	433.00
410.45	407.25
410.64	390.87
410.83	386.19
411.02	423.64
411.21	416.62
411.40	372.15
411.59	430.66
411.78	444.70
411.98	430.66
412.17	435.34
412.36	369.80
412.55	344.06
412.74	435.34
412.93	425.98
413.12	404.91
413.31	430.66
413.50	409.59
413.69	358.10
413.88	435.34
414.07	428.32
414.26	428.32
414.45	447.04
414.64	416.62
414.83	372.15
415.02	437.68
415.22	423.64
415.41	491.51
415.60	386.19
415.79	400.23
415.98	418.96
416.17	404.91
416.36	433.00
416.55	393.21
416.74	411.93
416.93	365.12
417.12	346.40
417.31	442.36
417.50	390.87
417.69	458.74
417.88	482.15
418.07	365.12
418.26	470.45
418.45	463.43
418.64	390.87
418.83	402.57
419.02	451.72
419.21	381.51
419.39	404.91
419.58	372.15
419.77	430.66
419.96	376.83
420.15	465.77
420.34	397.89
420.53	386.19
420.72	470.45
420.91	456.40
421.10	491.51
421.29	421.30
421.48	409.59
421.67	390.87
421.86	404.91
422.05	367.46
422.24	416.62
422.43	388.53
422.61	369.80
422.80	344.06
422.99	379.17
423.18	407.25
423.37	472.79
423.56	425.98
423.75	386.19
423.94	383.85
424.13	411.93
424.32	423.64
424.50	404.91
424.69	383.85
424.88	449.38
425.07	379.17
425.26	397.89
425.45	428.32
425.64	430.66
425.83	360.44
426.01	463.43
426.20	414.27
426.39	379.17
426.58	433.00
426.77	388.53
426.96	386.19
427.15	393.21
427.33	402.57
427.52	404.91
427.71	449.38
427.90	451.72
428.09	440.02
428.28	456.40
428.46	430.66
428.65	397.89
428.84	365.12
429.03	468.11
429.22	360.44
429.40	425.98
429.59	369.80
429.78	416.62
429.97	402.57
430.16	454.06
430.34	395.55
430.53	395.55
430.72	390.87
430.91	404.91
431.10	409.59
431.28	353.42
431.47	440.02
431.66	468.11
431.85	400.23
432.03	444.70
432.22	491.51
432.41	322.99
432.60	451.72
432.79	430.66
432.97	390.87
433.16	507.90
433.35	390.87
433.54	407.25
433.72	400.23
433.91	430.66
434.10	369.80
434.28	400.23
434.47	425.98
434.66	456.40
434.85	395.55
435.03	442.36
435.22	463.43
435.41	362.78
435.59	402.57
435.78	397.89
435.97	484.49
436.16	395.55
436.34	381.51
436.53	402.57
436.72	411.93
436.90	423.64
437.09	407.25
437.28	348.74
437.46	372.15
437.65	402.57
437.84	409.59
438.02	395.55
438.21	428.32
438.40	444.70
438.58	407.25
438.77	465.77
438.96	393.21
439.14	458.74
439.33	407.25
439.52	355.76
439.70	437.68
439.89	430.66
440.08	430.66
440.26	418.96
440.45	411.93
440.63	433.00
440.82	458.74
441.01	379.17
441.19	337.04
441.38	386.19
441.57	486.83
441.75	468.11
441.94	388.53
442.12	383.85
442.31	430.66
442.50	360.44
442.68	463.43
442.87	423.64
443.05	404.91
443.24	428.32
443.43	414.27
443.61	433.00
443.80	374.49
443.98	409.59
444.17	416.62
444.35	430.66
444.54	430.66
444.73	393.21
444.91	454.06
445.10	388.53
445.28	390.87
445.47	430.66
445.65	449.38
445.84	390.87
446.02	407.25
446.21	334.70
446.39	407.25
446.58	430.66
446.77	402.57
446.95	428.32
447.14	346.40
447.32	416.62
447.51	414.27
447.69	486.83
447.88	444.70
448.06	428.32
448.25	447.04
448.43	407.25
448.62	334.70
448.80	440.02
448.99	407.25
449.17	358.10
449.36	447.04
449.54	496.19
449.73	414.27
449.91	402.57
450.10	330.02
450.28	496.19
450.46	416.62
450.65	437.68
450.83	353.42
451.02	449.38
451.20	428.32
451.39	451.72
451.57	414.27
451.76	383.85
451.94	376.83
452.13	348.74
452.31	468.11
452.49	442.36
452.68	358.10
452.86	355.76
453.05	458.74
453.23	397.89
453.42	437.68
453.60	437.68
453.78	465.77
453.97	402.57
454.15	449.38
454.34	407.25
454.52	358.10
454.70	411.93
454.89	395.55
455.07	402.57
455.26	346.40
455.44	393.21
455.62	388.53
455.81	463.43
455.99	442.36
456.17	397.89
456.36	421.30
456.54	407.25
456.73	388.53
456.91	353.42
457.09	428.32
457.28	449.38
457.46	458.74
457.64	423.64
457.83	425.98
458.01	404.91
458.19	418.96
458.38	423.64
458.56	409.59
458.74	344.06
458.93	430.66
459.11	404.91
459.29	376.83
459.48	414.27
459.66	447.04
459.84	418.96
460.03	507.90
460.21	484.49
460.39	360.44
460.57	348.74
460.76	465.77
460.94	414.27
461.12	491.51
461.31	400.23
461.49	365.12
461.67	447.04
461.85	416.62
462.04	425.98
462.22	727.91
462.40	421.30
462.59	395.55
462.77	440.02
462.95	404.91
463.13	418.96
463.32	402.57
463.50	423.64
463.68	465.77
463.86	337.04
464.05	428.32
464.23	362.78
464.41	400.23
464.59	411.93
464.78	348.74
464.96	465.77
465.14	416.62
465.32	465.77
465.50	416.62
465.69	437.68
465.87	414.27
466.05	362.78
466.23	402.57
466.41	390.87
466.60	351.08
466.78	390.87
466.96	332.36
467.14	362.78
467.32	404.91
467.51	404.91
467.69	444.70
467.87	496.19
468.05	437.68
468.23	521.94
468.41	458.74
468.60	449.38
468.78	454.06
468.96	416.62
469.14	447.04
469.32	451.72
469.50	381.51
469.69	416.62
469.87	425.98
470.05	430.66
470.23	435.34
470.41	442.36
470.59	383.85
470.77	414.27
470.95	383.85
471.14	416.62
471.32	437.68
471.50	449.38
471.68	451.72
471.86	461.09
472.04	442.36
472.22	411.93
472.40	381.51
472.58	409.59
472.77	465.77
472.95	505.56
473.13	440.02
473.31	496.19
473.49	360.44
473.67	411.93
473.85	425.98
474.03	430.66
474.21	379.17
474.39	444.70
474.57	440.02
474.75	498.53
474.93	430.66
475.12	444.70
475.30	430.66
475.48	456.40
475.66	416.62
475.84	517.26
476.02	421.30
476.20	458.74
476.38	397.89
476.56	552.37
476.74	423.64
476.92	397.89
477.10	454.06
477.28	358.10
477.46	440.02
477.64	496.19
477.82	430.66
478.00	411.93
478.18	379.17
478.36	465.77
478.54	470.45
478.72	390.87
478.90	358.10
479.08	465.77
479.26	437.68
479.44	402.57
479.62	313.63
479.80	423.64
479.98	430.66
480.16	437.68
480.34	421.30
480.52	421.30
480.70	437.68
480.88	390.87
481.06	395.55
481.24	393.21
481.41	360.44
481.59	367.46
481.77	442.36
481.95	395.55
482.13	390.87
482.31	400.23
482.49	433.00
482.67	461.09
482.85	496.19
483.03	486.83
483.21	437.68
483.39	463.43
483.57	461.09
483.74	414.27
483.92	358.10
484.10	367.46
484.28	416.62
484.46	449.38
484.64	444.70
484.82	390.87
485.00	423.64
485.18	414.27
485.35	437.68
485.53	344.06
485.71	433.00
485.89	376.83
486.07	433.00
486.25	526.62
486.43	444.70
486.61	388.53
486.78	423.64
486.96	337.04
487.14	404.91
487.32	372.15
487.50	299.59
487.68	358.10
487.85	400.23
488.03	479.81
488.21	416.62
488.39	444.70
488.57	510.24
488.75	381.51
488.92	456.40
489.10	400.23
489.28	425.98
489.46	367.46
489.64	463.43
489.81	440.02
489.99	421.30
490.17	388.53
490.35	519.60
490.53	393.21
490.70	374.49
490.88	381.51
491.06	376.83
491.24	423.64
491.41	447.04
491.59	430.66
491.77	348.74
491.95	416.62
492.13	416.62
492.30	416.62
492.48	397.89
492.66	395.55
492.84	414.27
493.01	395.55
493.19	423.64
493.37	442.36
493.54	449.38
493.72	386.19
493.90	444.70
494.08	395.55
494.25	388.53
494.43	440.02
494.61	400.23
494.79	397.89
494.96	379.17
495.14	421.30
495.32	381.51
495.49	395.55
495.67	458.74
495.85	390.87
496.02	433.00
496.20	369.80
496.38	440.02
496.55	416.62
496.73	454.06
496.91	376.83
497.09	414.27
497.26	489.17
497.44	353.42
497.62	447.04
497.79	388.53
497.97	433.00
498.14	430.66
498.32	435.34
498.50	400.23
498.67	390.87
498.85	409.59
499.03	381.51
499.20	379.17
499.38	416.62
499.56	425.98
499.73	470.45
499.91	421.30
500.08	409.59
500.26	447.04
500.44	337.04
500.61	393.21
500.79	472.79
500.97	414.27
501.14	500.87
501.32	416.62
501.49	435.34
501.67	489.17
501.84	409.59
502.02	411.93
502.20	374.49
502.37	404.91
502.55	465.77
502.72	416.62
502.90	461.09
503.07	430.66
503.25	414.27
503.43	433.00
503.60	461.09
503.78	475.13
503.95	418.96
504.13	407.25
504.30	526.62
504.48	482.15
504.65	400.23
504.83	400.23
505.01	348.74
505.18	353.42
505.36	358.10
505.53	402.57
505.71	414.27
505.88	423.64
506.06	409.59
506.23	374.49
506.41	418.96
506.58	456.40
506.76	433.00
506.93	416.62
507.11	372.15
507.28	437.68
507.46	379.17
507.63	435.34
507.81	444.70
507.98	393.21
508.16	454.06
508.33	400.23
508.50	418.96
508.68	395.55
508.85	409.59
509.03	435.34
509.20	397.89
509.38	463.43
509.55	358.10
509.73	451.72
509.90	435.34
510.08	421.30
510.25	468.11
510.42	365.12
510.60	402.57
510.77	433.00
510.95	376.83
511.12	456.40
511.30	435.34
511.47	381.51
511.64	425.98
511.82	369.80
511.99	383.85
512.17	374.49
512.34	430.66
512.51	477.47
512.69	447.04
512.86	461.09
513.04	386.19
513.21	416.62
513.38	395.55
513.56	423.64
513.73	423.64
513.90	388.53
514.08	428.32
514.25	421.30
514.43	386.19
514.60	414.27
514.77	404.91
514.95	379.17
515.12	402.57
515.29	376.83
515.47	433.00
515.64	393.21
515.81	402.57
515.99	423.64
516.16	428.32
516.33	451.72
516.51	365.12
516.68	416.62
516.85	376.83
517.03	421.30
517.20	395.55
517.37	383.85
517.54	482.15
517.72	433.00
517.89	416.62
518.06	337.04
518.24	496.19
518.41	400.23
518.58	414.27
518.75	381.51
518.93	437.68
519.10	395.55
519.27	416.62
519.45	465.77
519.62	496.19
519.79	447.04
519.96	423.64
520.14	489.17
520.31	465.77
520.48	388.53
520.65	449.38
520.83	437.68
521.00	390.87
521.17	444.70
521.34	341.72
521.52	425.98
521.69	447.04
521.86	414.27
522.03	475.13
522.20	341.72
522.38	418.96
522.55	444.70
522.72	334.70
522.89	376.83
523.07	437.68
523.24	400.23
523.41	409.59
523.58	358.10
523.75	360.44
523.92	383.85
524.10	418.96
524.27	470.45
524.44	486.83
524.61	395.55
524.78	395.55
524.96	402.57
525.13	430.66
525.30	458.74
525.47	456.40
525.64	411.93
525.81	440.02
525.98	435.34
526.16	409.59
526.33	388.53
526.50	463.43
526.67	407.25
526.84	421.30
527.01	440.02
527.18	393.21
527.36	465.77
527.53	362.78
527.70	451.72
527.87	409.59
528.04	489.17
528.21	404.91
528.38	421.30
528.55	440.02
528.72	470.45
528.89	447.04
529.07	386.19
529.24	440.02
529.41	423.64
529.58	421.30
529.75	425.98
529.92	346.40
530.09	423.64
530.26	421.30
530.43	414.27
530.60	442.36
530.77	423.64
530.94	521.94
531.11	456.40
531.28	418.96
531.46	334.70
531.63	425.98
531.80	454.06
531.97	414.27
532.14	461.09
532.31	479.81
532.48	416.62
532.65	414.27
532.82	409.59
532.99	393.21
533.16	372.15
533.33	421.30
533.50	465.77
533.67	397.89
533.84	477.47
534.01	372.15
534.18	437.68
534.35	437.68
534.52	477.47
534.69	451.72
534.86	400.23
535.03	423.64
535.20	409.59
535.37	409.59
535.54	381.51
535.71	456.40
535.88	425.98
536.05	348.74
536.22	435.34
536.38	376.83
536.55	428.32
536.72	444.70
536.89	409.59
537.06	346.40
537.23	374.49
537.40	425.98
537.57	416.62
537.74	533.64
537.91	451.72
538.08	465.77
538.25	437.68
538.42	402.57
538.59	367.46
538.75	411.93
538.92	395.55
539.09	386.19
539.26	372.15
539.43	360.44
539.60	458.74
539.77	402.57
539.94	421.30
540.11	402.57
540.28	484.49
540.44	428.32
540.61	447.04
540.78	440.02
540.95	372.15
541.12	425.98
541.29	402.57
541.46	397.89
541.62	479.81
541.79	428.32
541.96	444.70
542.13	381.51
542.30	451.72
542.47	409.59
542.63	409.59
542.80	355.76
542.97	383.85
543.14	369.80
543.31	454.06
543.48	465.77
543.64	491.51
543.81	465.77
543.98	435.34
544.15	365.12
544.32	411.93
544.48	447.04
544.65	449.38
544.82	444.70
544.99	433.00
545.16	482.15
545.32	423.64
545.49	414.27
545.66	456.40
545.83	383.85
546.00	388.53
546.16	400.23
546.33	447.04
546.50	393.21
546.67	437.68
546.83	390.87
547.00	390.87
547.17	400.23
547.34	355.76
547.50	425.98
547.67	411.93
547.84	381.51
548.00	482.15
548.17	440.02
548.34	383.85
548.51	475.13
548.67	411.93
548.84	449.38
549.01	433.00
549.18	435.34
549.34	428.32
549.51	430.66
549.68	425.98
549.84	409.59
550.01	430.66
550.18	430.66
550.34	505.56
550.51	465.77
550.68	514.92
550.84	421.30
551.01	395.55
551.18	404.91
551.34	397.89
551.51	442.36
551.68	388.53
551.84	440.02
552.01	393.21
552.18	414.27
552.34	447.04
552.51	416.62
552.68	442.36
552.84	376.83
553.01	379.17
553.18	428.32
553.34	440.02
553.51	461.09
553.67	449.38
553.84	430.66
554.01	397.89
554.17	435.34
554.34	437.68
554.51	386.19
554.67	362.78
554.84	400.23
555.00	477.47
555.17	472.79
555.33	498.53
555.50	397.89
555.67	402.57
555.83	397.89
556.00	393.21
556.16	517.26
556.33	463.43
556.50	344.06
556.66	407.25
556.83	397.89
556.99	440.02
557.16	390.87
557.32	369.80
557.49	442.36
557.65	477.47
557.82	397.89
557.98	386.19
558.15	465.77
558.32	418.96
558.48	425.98
558.65	353.42
558.81	433.00
558.98	416.62
559.14	402.57
559.31	423.64
559.47	381.51
559.64	397.89
559.80	402.57
559.97	463.43
560.13	484.49
560.30	423.64
560.46	428.32
560.63	444.70
560.79	449.38
560.96	456.40
561.12	458.74
561.29	418.96
561.45	454.06
561.61	440.02
561.78	465.77
561.94	421.30
562.11	390.87
562.27	393.21
562.44	423.64
562.60	437.68
562.77	404.91
562.93	430.66
563.10	428.32
563.26	421.30
563.42	397.89
563.59	402.57
563.75	423.64
563.92	430.66
564.08	428.32
564.24	496.19
564.41	390.87
564.57	376.83
564.74	400.23
564.90	500.87
565.07	498.53
565.23	463.43
565.39	381.51
565.56	433.00
565.72	402.57
565.88	376.83
566.05	440.02
566.21	421.30
566.38	447.04
566.54	421.30
566.70	379.17
566.87	418.96
567.03	411.93
567.19	430.66
567.36	514.92
567.52	421.30
567.68	437.68
567.85	470.45
568.01	440.02
568.17	442.36
568.34	433.00
568.50	404.91
568.66	433.00
568.83	503.22
568.99	402.57
569.15	454.06
569.32	409.59
569.48	447.04
569.64	440.02
569.81	463.43
569.97	465.77
570.13	383.85
570.30	472.79
570.46	440.02
570.62	407.25
570.78	372.15
570.95	400.23
571.11	468.11
571.27	472.79
571.43	421.30
571.60	421.30
571.76	332.36
571.92	414.27
572.09	381.51
572.25	397.89
572.41	444.70
572.57	468.11
572.74	500.87
572.90	500.87
573.06	433.00
573.22	400.23
573.38	390.87
573.55	416.62
573.71	353.42
573.87	505.56
574.03	423.64
574.20	428.32
574.36	421.30
574.52	365.12
574.68	409.59
574.84	482.15
575.01	444.70
575.17	454.06
575.33	440.02
575.49	407.25
575.65	358.10
575.82	337.04
575.98	435.34
576.14	458.74
576.30	409.59
576.46	454.06
576.62	437.68
576.79	456.40
576.95	465.77
577.11	379.17
577.27	372.15
577.43	381.51
577.59	440.02
577.75	465.77
577.92	376.83
578.08	367.46
578.24	395.55
578.40	470.45
578.56	414.27
578.72	395.55
578.88	425.98
579.04	514.92
579.21	442.36
579.37	397.89
579.53	428.32
579.69	456.40
579.85	402.57
580.01	425.98
580.17	465.77
580.33	407.25
580.49	454.06
580.65	510.24
580.82	402.57
580.98	418.96
581.14	500.87
581.30	433.00
581.46	386.19
581.62	472.79
581.78	409.59
581.94	444.70
582.10	381.51
582.26	414.27
582.42	418.96
582.58	444.70
582.74	451.72
582.90	330.02
583.06	407.25
583.22	383.85
583.38	362.78
583.54	374.49
583.70	550.03
583.86	386.19
584.02	397.89
584.18	423.64
584.34	425.98
584.50	397.89
584.66	386.19
584.82	351.08
584.98	367.46
585.14	447.04
585.30	362.78
585.46	379.17
585.62	383.85
585.78	437.68
585.94	472.79
586.10	430.66
586.26	402.57
586.42	465.77
586.58	437.68
586.74	430.66
586.90	383.85
587.06	407.25
587.22	421.30
587.38	348.74
587.54	442.36
587.70	397.89
587.86	451.72
588.02	447.04
588.18	416.62
588.34	454.06
588.49	468.11
588.65	451.72
588.81	411.93
588.97	383.85
589.13	411.93
589.29	381.51
589.45	470.45
589.61	365.12
589.77	388.53
589.93	442.36
590.08	383.85
590.24	367.46
590.40	433.00
590.56	447.04
590.72	397.89
590.88	423.64
591.04	447.04
591.20	374.49
591.35	456.40
591.51	442.36
591.67	341.72
591.83	367.46
591.99	379.17
592.15	454.06
592.31	517.26
592.46	421.30
592.62	479.81
592.78	444.70
592.94	402.57
593.10	475.13
593.26	409.59
593.41	411.93
593.57	463.43
593.73	451.72
593.89	435.34
594.05	421.30
594.20	435.34
594.36	496.19
594.52	407.25
594.68	376.83
594.84	388.53
594.99	461.09
595.15	416.62
595.31	451.72
595.47	414.27
595.62	449.38
595.78	409.59
595.94	433.00
596.10	402.57
596.25	390.87
596.41	404.91
596.57	397.89
596.73	402.57
596.88	442.36
597.04	397.89
597.20	395.55
597.36	390.87
597.51	386.19
597.67	430.66
597.83	369.80
597.99	400.23
598.14	290.23
598.30	433.00
598.46	395.55
598.61	456.40
598.77	454.06
598.93	397.89
599.09	433.00
599.24	376.83
599.40	414.27
599.56	409.59
599.71	498.53
599.87	388.53
600.03	374.49
600.18	404.91
600.34	414.27
600.50	430.66
600.65	423.64
600.81	447.04
600.97	388.53
601.12	362.78
601.28	475.13
601.44	451.72
601.59	400.23
601.75	421.30
601.91	383.85
602.06	421.30
602.22	482.15
602.37	447.04
602.53	489.17
602.69	327.68
602.84	447.04
603.00	360.44
603.16	435.34
603.31	379.17
603.47	437.68
603.62	388.53
603.78	489.17
603.94	365.12
604.09	400.23
604.25	461.09
604.40	435.34
604.56	463.43
604.71	428.32
604.87	383.85
605.03	404.91
605.18	374.49
605.34	475.13
605.49	442.36
605.65	325.33
605.80	395.55
605.96	376.83
606.12	425.98
606.27	411.93
606.43	423.64
606.58	458.74
606.74	367.46
606.89	395.55
607.05	444.70
607.20	442.36
607.36	383.85
607.51	358.10
607.67	428.32
607.82	444.70
607.98	428.32
608.13	505.56
608.29	451.72
608.44	388.53
608.60	400.23
608.75	479.81
608.91	447.04
609.06	519.60
609.22	397.89
609.37	437.68
609.53	369.80
609.68	372.15
609.84	386.19
609.99	526.62
610.15	416.62
