SpectraSuite Data File
++++++++++++++++++++++++++++++++++++
Date: Fri Oct 25 12:11:31 EDT 2013
User: price-jones
Dark Spectrum Present: No
Reference Spectrum Present: No
Number of Sampled Component Spectra: 1
Spectrometers: USB2+H05261
Integration Time (usec): 100000 (USB2+H05261)
Spectra Averaged: 1 (USB2+H05261)
Boxcar Smoothing: 0 (USB2+H05261)
Correct for Electrical Dark: No (USB2+H05261)
Strobe/Lamp Enabled: No (USB2+H05261)
Correct for Detector Non-linearity: No (USB2+H05261)
Correct for Stray Light: No (USB2+H05261)
Number of Pixels in Processed Spectrum: 2048
>>>>>Begin Processed Spectral Data<<<<<
365.73	337.04
365.92	337.04
366.12	337.04
366.32	220.01
366.52	229.37
366.72	306.61
366.91	252.78
367.11	194.26
367.31	224.69
367.51	266.82
367.70	262.14
367.90	252.78
368.10	264.48
368.30	201.29
368.49	241.08
368.69	248.10
368.89	299.59
369.09	311.29
369.28	313.63
369.48	322.99
369.68	313.63
369.87	278.52
370.07	299.59
370.27	259.80
370.47	390.87
370.66	327.68
370.86	367.46
371.06	379.17
371.25	435.34
371.45	395.55
371.65	355.76
371.84	362.78
372.04	393.21
372.24	383.85
372.44	428.32
372.63	414.27
372.83	489.17
373.03	421.30
373.22	409.59
373.42	423.64
373.62	440.02
373.81	409.59
374.01	411.93
374.21	486.83
374.40	402.57
374.60	421.30
374.79	402.57
374.99	407.25
375.19	430.66
375.38	447.04
375.58	386.19
375.78	425.98
375.97	470.45
376.17	437.68
376.37	402.57
376.56	447.04
376.76	362.78
376.95	465.77
377.15	409.59
377.35	407.25
377.54	428.32
377.74	390.87
377.93	442.36
378.13	440.02
378.33	390.87
378.52	381.51
378.72	379.17
378.91	421.30
379.11	433.00
379.31	374.49
379.50	433.00
379.70	437.68
379.89	435.34
380.09	381.51
380.28	428.32
380.48	404.91
380.68	362.78
380.87	393.21
381.07	411.93
381.26	421.30
381.46	491.51
381.65	372.15
381.85	351.08
382.04	484.49
382.24	421.30
382.43	393.21
382.63	355.76
382.83	344.06
383.02	395.55
383.22	411.93
383.41	395.55
383.61	418.96
383.80	484.49
384.00	404.91
384.19	418.96
384.39	425.98
384.58	425.98
384.78	397.89
384.97	395.55
385.17	484.49
385.36	383.85
385.56	372.15
385.75	451.72
385.95	421.30
386.14	395.55
386.34	388.53
386.53	425.98
386.72	369.80
386.92	409.59
387.11	390.87
387.31	355.76
387.50	367.46
387.70	341.72
387.89	353.42
388.09	407.25
388.28	407.25
388.48	360.44
388.67	444.70
388.86	404.91
389.06	411.93
389.25	463.43
389.45	411.93
389.64	395.55
389.84	435.34
390.03	404.91
390.22	430.66
390.42	397.89
390.61	425.98
390.81	472.79
391.00	404.91
391.19	374.49
391.39	423.64
391.58	454.06
391.78	409.59
391.97	449.38
392.16	388.53
392.36	447.04
392.55	423.64
392.75	400.23
392.94	456.40
393.13	355.76
393.33	404.91
393.52	428.32
393.71	435.34
393.91	404.91
394.10	393.21
394.29	374.49
394.49	339.38
394.68	414.27
394.88	423.64
395.07	383.85
395.26	430.66
395.46	397.89
395.65	475.13
395.84	404.91
396.04	507.90
396.23	407.25
396.42	390.87
396.62	451.72
396.81	416.62
397.00	414.27
397.19	447.04
397.39	400.23
397.58	416.62
397.77	369.80
397.97	365.12
398.16	388.53
398.35	404.91
398.55	381.51
398.74	390.87
398.93	374.49
399.12	367.46
399.32	444.70
399.51	351.08
399.70	437.68
399.90	416.62
400.09	433.00
400.28	428.32
400.47	402.57
400.67	440.02
400.86	400.23
401.05	395.55
401.24	409.59
401.44	463.43
401.63	390.87
401.82	337.04
402.01	388.53
402.21	390.87
402.40	390.87
402.59	315.97
402.78	472.79
402.97	390.87
403.17	381.51
403.36	430.66
403.55	449.38
403.74	414.27
403.93	428.32
404.13	407.25
404.32	344.06
404.51	358.10
404.70	409.59
404.89	376.83
405.09	388.53
405.28	414.27
405.47	421.30
405.66	402.57
405.85	414.27
406.05	421.30
406.24	418.96
406.43	400.23
406.62	393.21
406.81	461.09
407.00	397.89
407.20	418.96
407.39	477.47
407.58	346.40
407.77	271.50
407.96	379.17
408.15	465.77
408.34	395.55
408.54	365.12
408.73	433.00
408.92	435.34
409.11	433.00
409.30	470.45
409.49	435.34
409.68	418.96
409.87	433.00
410.07	339.38
410.26	428.32
410.45	360.44
410.64	393.21
410.83	337.04
411.02	386.19
411.21	379.17
411.40	369.80
411.59	374.49
411.78	430.66
411.98	404.91
412.17	381.51
412.36	332.36
412.55	400.23
412.74	461.09
412.93	433.00
413.12	458.74
413.31	416.62
413.50	435.34
413.69	395.55
413.88	486.83
414.07	351.08
414.26	416.62
414.45	449.38
414.64	416.62
414.83	337.04
415.02	482.15
415.22	386.19
415.41	418.96
415.60	409.59
415.79	395.55
415.98	451.72
416.17	395.55
416.36	463.43
416.55	379.17
416.74	440.02
416.93	470.45
417.12	397.89
417.31	330.02
417.50	444.70
417.69	430.66
417.88	437.68
418.07	435.34
418.26	351.08
418.45	339.38
418.64	535.98
418.83	491.51
419.02	416.62
419.21	479.81
419.39	416.62
419.58	344.06
419.77	414.27
419.96	409.59
420.15	454.06
420.34	447.04
420.53	365.12
420.72	496.19
420.91	430.66
421.10	468.11
421.29	348.74
421.48	400.23
421.67	409.59
421.86	418.96
422.05	404.91
422.24	407.25
422.43	395.55
422.61	397.89
422.80	355.76
422.99	379.17
423.18	411.93
423.37	486.83
423.56	390.87
423.75	411.93
423.94	425.98
424.13	454.06
424.32	421.30
424.50	379.17
424.69	454.06
424.88	489.17
425.07	428.32
425.26	351.08
425.45	458.74
425.64	362.78
425.83	383.85
426.01	421.30
426.20	475.13
426.39	414.27
426.58	425.98
426.77	414.27
426.96	470.45
427.15	482.15
427.33	395.55
427.52	416.62
427.71	428.32
427.90	430.66
428.09	444.70
428.28	388.53
428.46	416.62
428.65	400.23
428.84	430.66
429.03	458.74
429.22	428.32
429.40	407.25
429.59	383.85
429.78	416.62
429.97	418.96
430.16	388.53
430.34	397.89
430.53	402.57
430.72	374.49
430.91	411.93
431.10	433.00
431.28	404.91
431.47	334.70
431.66	407.25
431.85	447.04
432.03	428.32
432.22	465.77
432.41	351.08
432.60	442.36
432.79	430.66
432.97	433.00
433.16	369.80
433.35	376.83
433.54	407.25
433.72	435.34
433.91	386.19
434.10	395.55
434.28	360.44
434.47	383.85
434.66	437.68
434.85	320.65
435.03	322.99
435.22	451.72
435.41	393.21
435.59	418.96
435.78	339.38
435.97	416.62
436.16	367.46
436.34	365.12
436.53	388.53
436.72	358.10
436.90	428.32
437.09	442.36
437.28	472.79
437.46	447.04
437.65	433.00
437.84	409.59
438.02	433.00
438.21	367.46
438.40	374.49
438.58	428.32
438.77	374.49
438.96	404.91
439.14	451.72
439.33	433.00
439.52	449.38
439.70	388.53
439.89	477.47
440.08	407.25
440.26	423.64
440.45	400.23
440.63	449.38
440.82	437.68
441.01	442.36
441.19	409.59
441.38	379.17
441.57	388.53
441.75	372.15
441.94	369.80
442.12	430.66
442.31	421.30
442.50	456.40
442.68	404.91
442.87	425.98
443.05	353.42
443.24	395.55
443.43	397.89
443.61	484.49
443.80	390.87
443.98	440.02
444.17	344.06
444.35	390.87
444.54	395.55
444.73	430.66
444.91	407.25
445.10	433.00
445.28	428.32
445.47	393.21
445.65	367.46
445.84	388.53
446.02	435.34
446.21	510.24
446.39	376.83
446.58	470.45
446.77	397.89
446.95	358.10
447.14	397.89
447.32	433.00
447.51	428.32
447.69	369.80
447.88	435.34
448.06	402.57
448.25	435.34
448.43	447.04
448.62	435.34
448.80	451.72
448.99	423.64
449.17	390.87
449.36	421.30
449.54	369.80
449.73	433.00
449.91	444.70
450.10	479.81
450.28	526.62
450.46	451.72
450.65	421.30
450.83	348.74
451.02	362.78
451.20	376.83
451.39	386.19
451.57	428.32
451.76	430.66
451.94	423.64
452.13	395.55
452.31	416.62
452.49	482.15
452.68	402.57
452.86	430.66
453.05	477.47
453.23	381.51
453.42	433.00
453.60	440.02
453.78	423.64
453.97	395.55
454.15	400.23
454.34	430.66
454.52	390.87
454.70	421.30
454.89	491.51
455.07	381.51
455.26	437.68
455.44	421.30
455.62	418.96
455.81	374.49
455.99	400.23
456.17	442.36
456.36	390.87
456.54	435.34
456.73	409.59
456.91	395.55
457.09	423.64
457.28	428.32
457.46	383.85
457.64	404.91
457.83	416.62
458.01	435.34
458.19	407.25
458.38	465.77
458.56	367.46
458.74	472.79
458.93	440.02
459.11	444.70
459.29	418.96
459.48	395.55
459.66	440.02
459.84	383.85
460.03	479.81
460.21	468.11
460.39	470.45
460.57	440.02
460.76	409.59
460.94	458.74
461.12	360.44
461.31	423.64
461.49	355.76
461.67	425.98
461.85	381.51
462.04	489.17
462.22	844.93
462.40	428.32
462.59	479.81
462.77	400.23
462.95	367.46
463.13	397.89
463.32	416.62
463.50	411.93
463.68	355.76
463.86	393.21
464.05	344.06
464.23	519.60
464.41	325.33
464.59	444.70
464.78	388.53
464.96	435.34
465.14	465.77
465.32	360.44
465.50	400.23
465.69	423.64
465.87	447.04
466.05	383.85
466.23	430.66
466.41	390.87
466.60	425.98
466.78	372.15
466.96	465.77
467.14	397.89
467.32	421.30
467.51	437.68
467.69	440.02
467.87	425.98
468.05	423.64
468.23	409.59
468.41	376.83
468.60	367.46
468.78	435.34
468.96	477.47
469.14	421.30
469.32	397.89
469.50	390.87
469.69	411.93
469.87	395.55
470.05	409.59
470.23	367.46
470.41	360.44
470.59	454.06
470.77	447.04
470.95	430.66
471.14	447.04
471.32	486.83
471.50	425.98
471.68	472.79
471.86	404.91
472.04	435.34
472.22	475.13
472.40	374.49
472.58	395.55
472.77	447.04
472.95	381.51
473.13	500.87
473.31	449.38
473.49	358.10
473.67	327.68
473.85	376.83
474.03	365.12
474.21	400.23
474.39	416.62
474.57	416.62
474.75	388.53
474.93	414.27
475.12	397.89
475.30	388.53
475.48	430.66
475.66	341.72
475.84	437.68
476.02	395.55
476.20	416.62
476.38	418.96
476.56	475.13
476.74	353.42
476.92	397.89
477.10	337.04
477.28	437.68
477.46	353.42
477.64	416.62
477.82	472.79
478.00	437.68
478.18	416.62
478.36	409.59
478.54	449.38
478.72	388.53
478.90	397.89
479.08	440.02
479.26	437.68
479.44	430.66
479.62	320.65
479.80	470.45
479.98	433.00
480.16	365.12
480.34	411.93
480.52	416.62
480.70	379.17
480.88	397.89
481.06	346.40
481.24	402.57
481.41	395.55
481.59	433.00
481.77	407.25
481.95	379.17
482.13	418.96
482.31	449.38
482.49	400.23
482.67	393.21
482.85	423.64
483.03	447.04
483.21	418.96
483.39	409.59
483.57	369.80
483.74	440.02
483.92	400.23
484.10	472.79
484.28	393.21
484.46	489.17
484.64	360.44
484.82	454.06
485.00	454.06
485.18	482.15
485.35	449.38
485.53	383.85
485.71	433.00
485.89	365.12
486.07	365.12
486.25	475.13
486.43	472.79
486.61	447.04
486.78	444.70
486.96	428.32
487.14	400.23
487.32	458.74
487.50	397.89
487.68	407.25
487.85	360.44
488.03	447.04
488.21	435.34
488.39	414.27
488.57	402.57
488.75	395.55
488.92	475.13
489.10	433.00
489.28	465.77
489.46	430.66
489.64	421.30
489.81	433.00
489.99	451.72
490.17	463.43
490.35	500.87
490.53	484.49
490.70	418.96
490.88	416.62
491.06	404.91
491.24	358.10
491.41	470.45
491.59	421.30
491.77	416.62
491.95	407.25
492.13	430.66
492.30	425.98
492.48	388.53
492.66	360.44
492.84	435.34
493.01	409.59
493.19	402.57
493.37	433.00
493.54	411.93
493.72	386.19
493.90	404.91
494.08	423.64
494.25	430.66
494.43	416.62
494.61	423.64
494.79	388.53
494.96	437.68
495.14	468.11
495.32	414.27
495.49	402.57
495.67	437.68
495.85	458.74
496.02	444.70
496.20	449.38
496.38	395.55
496.55	397.89
496.73	386.19
496.91	374.49
497.09	421.30
497.26	404.91
497.44	416.62
497.62	402.57
497.79	337.04
497.97	400.23
498.14	423.64
498.32	402.57
498.50	447.04
498.67	400.23
498.85	409.59
499.03	397.89
499.20	381.51
499.38	358.10
499.56	440.02
499.73	440.02
499.91	421.30
500.08	416.62
500.26	425.98
500.44	449.38
500.61	416.62
500.79	409.59
500.97	425.98
501.14	430.66
501.32	428.32
501.49	390.87
501.67	423.64
501.84	423.64
502.02	425.98
502.20	390.87
502.37	510.24
502.55	423.64
502.72	339.38
502.90	449.38
503.07	435.34
503.25	418.96
503.43	379.17
503.60	351.08
503.78	393.21
503.95	369.80
504.13	447.04
504.30	482.15
504.48	402.57
504.65	433.00
504.83	397.89
505.01	449.38
505.18	456.40
505.36	393.21
505.53	341.72
505.71	383.85
505.88	482.15
506.06	423.64
506.23	519.60
506.41	367.46
506.58	449.38
506.76	374.49
506.93	381.51
507.11	348.74
507.28	454.06
507.46	397.89
507.63	411.93
507.81	360.44
507.98	421.30
508.16	512.58
508.33	493.85
508.50	360.44
508.68	428.32
508.85	479.81
509.03	414.27
509.20	463.43
509.38	376.83
509.55	472.79
509.73	451.72
509.90	383.85
510.08	433.00
510.25	383.85
510.42	461.09
510.60	390.87
510.77	386.19
510.95	451.72
511.12	433.00
511.30	393.21
511.47	346.40
511.64	440.02
511.82	404.91
511.99	435.34
512.17	440.02
512.34	407.25
512.51	423.64
512.69	463.43
512.86	484.49
513.04	463.43
513.21	456.40
513.38	381.51
513.56	358.10
513.73	416.62
513.90	400.23
514.08	409.59
514.25	437.68
514.43	397.89
514.60	390.87
514.77	423.64
514.95	409.59
515.12	425.98
515.29	416.62
515.47	418.96
515.64	407.25
515.81	334.70
515.99	440.02
516.16	456.40
516.33	407.25
516.51	421.30
516.68	458.74
516.85	447.04
517.03	451.72
517.20	465.77
517.37	369.80
517.54	367.46
517.72	400.23
517.89	344.06
518.06	341.72
518.24	428.32
518.41	493.85
518.58	491.51
518.75	458.74
518.93	456.40
519.10	425.98
519.27	404.91
519.45	449.38
519.62	386.19
519.79	465.77
519.96	407.25
520.14	425.98
520.31	470.45
520.48	505.56
520.65	477.47
520.83	425.98
521.00	430.66
521.17	421.30
521.34	409.59
521.52	360.44
521.69	442.36
521.86	362.78
522.03	547.69
522.20	470.45
522.38	414.27
522.55	374.49
522.72	369.80
522.89	440.02
523.07	411.93
523.24	440.02
523.41	404.91
523.58	334.70
523.75	421.30
523.92	430.66
524.10	456.40
524.27	400.23
524.44	421.30
524.61	505.56
524.78	327.68
524.96	416.62
525.13	425.98
525.30	440.02
525.47	451.72
525.64	435.34
525.81	475.13
525.98	433.00
526.16	386.19
526.33	416.62
526.50	430.66
526.67	337.04
526.84	433.00
527.01	393.21
527.18	423.64
527.36	456.40
527.53	388.53
527.70	451.72
527.87	400.23
528.04	451.72
528.21	440.02
528.38	381.51
528.55	430.66
528.72	458.74
528.89	444.70
529.07	433.00
529.24	407.25
529.41	418.96
529.58	425.98
529.75	358.10
529.92	538.32
530.09	444.70
530.26	484.49
530.43	414.27
530.60	416.62
530.77	437.68
530.94	442.36
531.11	425.98
531.28	418.96
531.46	484.49
531.63	362.78
531.80	451.72
531.97	449.38
532.14	500.87
532.31	463.43
532.48	470.45
532.65	430.66
532.82	362.78
532.99	390.87
533.16	428.32
533.33	388.53
533.50	397.89
533.67	402.57
533.84	435.34
534.01	454.06
534.18	400.23
534.35	447.04
534.52	435.34
534.69	400.23
534.86	416.62
535.03	353.42
535.20	386.19
535.37	435.34
535.54	411.93
535.71	367.46
535.88	407.25
536.05	365.12
536.22	425.98
536.38	463.43
536.55	449.38
536.72	500.87
536.89	418.96
537.06	468.11
537.23	472.79
537.40	390.87
537.57	440.02
537.74	411.93
537.91	442.36
538.08	430.66
538.25	365.12
538.42	437.68
538.59	416.62
538.75	491.51
538.92	409.59
539.09	454.06
539.26	440.02
539.43	330.02
539.60	458.74
539.77	411.93
539.94	465.77
540.11	437.68
540.28	423.64
540.44	486.83
540.61	383.85
540.78	397.89
540.95	433.00
541.12	470.45
541.29	435.34
541.46	507.90
541.62	397.89
541.79	482.15
541.96	482.15
542.13	407.25
542.30	351.08
542.47	376.83
542.63	461.09
542.80	393.21
542.97	447.04
543.14	407.25
543.31	393.21
543.48	454.06
543.64	400.23
543.81	463.43
543.98	440.02
544.15	390.87
544.32	470.45
544.48	444.70
544.65	369.80
544.82	449.38
544.99	379.17
545.16	425.98
545.32	362.78
545.49	486.83
545.66	442.36
545.83	458.74
546.00	454.06
546.16	425.98
546.33	379.17
546.50	428.32
546.67	407.25
546.83	447.04
547.00	454.06
547.17	397.89
547.34	423.64
547.50	461.09
547.67	409.59
547.84	409.59
548.00	528.96
548.17	444.70
548.34	435.34
548.51	388.53
548.67	404.91
548.84	400.23
549.01	449.38
549.18	444.70
549.34	421.30
549.51	376.83
549.68	421.30
549.84	395.55
550.01	376.83
550.18	444.70
550.34	510.24
550.51	444.70
550.68	461.09
550.84	404.91
551.01	390.87
551.18	428.32
551.34	430.66
551.51	414.27
551.68	390.87
551.84	475.13
552.01	458.74
552.18	367.46
552.34	435.34
552.51	503.22
552.68	386.19
552.84	416.62
553.01	386.19
553.18	447.04
553.34	437.68
553.51	404.91
553.67	440.02
553.84	496.19
554.01	409.59
554.17	402.57
554.34	369.80
554.51	423.64
554.67	496.19
554.84	482.15
555.00	477.47
555.17	409.59
555.33	461.09
555.50	468.11
555.67	503.22
555.83	381.51
556.00	395.55
556.16	507.90
556.33	421.30
556.50	360.44
556.66	451.72
556.83	400.23
556.99	346.40
557.16	423.64
557.32	341.72
557.49	393.21
557.65	447.04
557.82	372.15
557.98	395.55
558.15	404.91
558.32	372.15
558.48	433.00
558.65	454.06
558.81	484.49
558.98	479.81
559.14	428.32
559.31	395.55
559.47	397.89
559.64	444.70
559.80	416.62
559.97	381.51
560.13	416.62
560.30	409.59
560.46	447.04
560.63	477.47
560.79	435.34
560.96	423.64
561.12	416.62
561.29	407.25
561.45	402.57
561.61	430.66
561.78	500.87
561.94	451.72
562.11	346.40
562.27	475.13
562.44	440.02
562.60	463.43
562.77	425.98
562.93	500.87
563.10	454.06
563.26	393.21
563.42	351.08
563.59	440.02
563.75	365.12
563.92	482.15
564.08	430.66
564.24	458.74
564.41	461.09
564.57	362.78
564.74	376.83
564.90	402.57
565.07	479.81
565.23	397.89
565.39	369.80
565.56	416.62
565.72	463.43
565.88	465.77
566.05	428.32
566.21	372.15
566.38	493.85
566.54	423.64
566.70	433.00
566.87	376.83
567.03	407.25
567.19	433.00
567.36	411.93
567.52	423.64
567.68	390.87
567.85	484.49
568.01	430.66
568.17	433.00
568.34	409.59
568.50	425.98
568.66	414.27
568.83	486.83
568.99	400.23
569.15	433.00
569.32	379.17
569.48	442.36
569.64	369.80
569.81	421.30
569.97	437.68
570.13	491.51
570.30	411.93
570.46	440.02
570.62	425.98
570.78	397.89
570.95	400.23
571.11	472.79
571.27	437.68
571.43	437.68
571.60	512.58
571.76	393.21
571.92	414.27
572.09	400.23
572.25	351.08
572.41	421.30
572.57	409.59
572.74	461.09
572.90	407.25
573.06	383.85
573.22	451.72
573.38	414.27
573.55	496.19
573.71	428.32
573.87	461.09
574.03	428.32
574.20	365.12
574.36	421.30
574.52	409.59
574.68	404.91
574.84	442.36
575.01	393.21
575.17	437.68
575.33	421.30
575.49	442.36
575.65	367.46
575.82	461.09
575.98	507.90
576.14	449.38
576.30	486.83
576.46	393.21
576.62	449.38
576.79	435.34
576.95	496.19
577.11	475.13
577.27	444.70
577.43	418.96
577.59	402.57
577.75	442.36
577.92	411.93
578.08	430.66
578.24	421.30
578.40	428.32
578.56	458.74
578.72	477.47
578.88	435.34
579.04	400.23
579.21	496.19
579.37	435.34
579.53	472.79
579.69	484.49
579.85	367.46
580.01	437.68
580.17	409.59
580.33	421.30
580.49	433.00
580.65	430.66
580.82	423.64
580.98	470.45
581.14	374.49
581.30	358.10
581.46	355.76
581.62	404.91
581.78	383.85
581.94	430.66
582.10	477.47
582.26	346.40
582.42	447.04
582.58	437.68
582.74	409.59
582.90	379.17
583.06	407.25
583.22	355.76
583.38	397.89
583.54	292.57
583.70	404.91
583.86	430.66
584.02	421.30
584.18	404.91
584.34	442.36
584.50	353.42
584.66	447.04
584.82	318.31
584.98	400.23
585.14	433.00
585.30	430.66
585.46	407.25
585.62	404.91
585.78	414.27
585.94	449.38
586.10	390.87
586.26	411.93
586.42	447.04
586.58	470.45
586.74	390.87
586.90	442.36
587.06	421.30
587.22	397.89
587.38	437.68
587.54	397.89
587.70	470.45
587.86	428.32
588.02	475.13
588.18	458.74
588.34	402.57
588.49	393.21
588.65	418.96
588.81	414.27
588.97	393.21
589.13	358.10
589.29	397.89
589.45	498.53
589.61	428.32
589.77	458.74
589.93	456.40
590.08	447.04
590.24	437.68
590.40	414.27
590.56	416.62
590.72	486.83
590.88	409.59
591.04	409.59
591.20	409.59
591.35	433.00
591.51	397.89
591.67	442.36
591.83	418.96
591.99	428.32
592.15	376.83
592.31	367.46
592.46	409.59
592.62	465.77
592.78	362.78
592.94	416.62
593.10	374.49
593.26	409.59
593.41	440.02
593.57	444.70
593.73	374.49
593.89	395.55
594.05	433.00
594.20	416.62
594.36	435.34
594.52	442.36
594.68	428.32
594.84	498.53
594.99	451.72
595.15	433.00
595.31	465.77
595.47	447.04
595.62	433.00
595.78	428.32
595.94	355.76
596.10	421.30
596.25	428.32
596.41	437.68
596.57	414.27
596.73	388.53
596.88	379.17
597.04	393.21
597.20	365.12
597.36	404.91
597.51	430.66
597.67	369.80
597.83	315.97
597.99	400.23
598.14	454.06
598.30	444.70
598.46	390.87
598.61	489.17
598.77	477.47
598.93	353.42
599.09	353.42
599.24	395.55
599.40	484.49
599.56	365.12
599.71	430.66
599.87	393.21
600.03	404.91
600.18	425.98
600.34	388.53
600.50	428.32
600.65	414.27
600.81	416.62
600.97	470.45
601.12	433.00
601.28	390.87
601.44	442.36
601.59	383.85
601.75	423.64
601.91	458.74
602.06	395.55
602.22	447.04
602.37	472.79
602.53	404.91
602.69	416.62
602.84	383.85
603.00	458.74
603.16	479.81
603.31	465.77
603.47	397.89
603.62	365.12
603.78	477.47
603.94	358.10
604.09	440.02
604.25	444.70
604.40	435.34
604.56	430.66
604.71	374.49
604.87	425.98
605.03	409.59
605.18	421.30
605.34	400.23
605.49	388.53
605.65	451.72
605.80	421.30
605.96	402.57
606.12	468.11
606.27	477.47
606.43	372.15
606.58	454.06
606.74	362.78
606.89	423.64
607.05	437.68
607.20	421.30
607.36	418.96
607.51	423.64
607.67	421.30
607.82	454.06
607.98	449.38
608.13	404.91
608.29	489.17
608.44	428.32
608.60	416.62
608.75	512.58
608.91	440.02
609.06	444.70
609.22	409.59
609.37	440.02
609.53	423.64
609.68	409.59
609.84	381.51
609.99	435.34
610.15	449.38
