SpectraSuite Data File
++++++++++++++++++++++++++++++++++++
Date: Fri Oct 25 12:10:51 EDT 2013
User: price-jones
Dark Spectrum Present: No
Reference Spectrum Present: No
Number of Sampled Component Spectra: 1
Spectrometers: USB2+H05261
Integration Time (usec): 100000 (USB2+H05261)
Spectra Averaged: 1 (USB2+H05261)
Boxcar Smoothing: 0 (USB2+H05261)
Correct for Electrical Dark: No (USB2+H05261)
Strobe/Lamp Enabled: No (USB2+H05261)
Correct for Detector Non-linearity: No (USB2+H05261)
Correct for Stray Light: No (USB2+H05261)
Number of Pixels in Processed Spectrum: 2048
>>>>>Begin Processed Spectral Data<<<<<
365.73	374.49
365.92	374.49
366.12	374.49
366.32	285.55
366.52	259.80
366.72	252.78
366.91	205.97
367.11	238.73
367.31	283.20
367.51	159.16
367.70	201.29
367.90	308.95
368.10	264.48
368.30	198.95
368.49	220.01
368.69	292.57
368.89	259.80
369.09	217.67
369.28	224.69
369.48	318.31
369.68	280.86
369.87	278.52
370.07	337.04
370.27	308.95
370.47	337.04
370.66	346.40
370.86	397.89
371.06	402.57
371.25	353.42
371.45	304.27
371.65	372.15
371.84	337.04
372.04	341.72
372.24	339.38
372.44	390.87
372.63	407.25
372.83	407.25
373.03	367.46
373.22	407.25
373.42	458.74
373.62	393.21
373.81	433.00
374.01	435.34
374.21	458.74
374.40	454.06
374.60	449.38
374.79	447.04
374.99	458.74
375.19	435.34
375.38	393.21
375.58	414.27
375.78	393.21
375.97	383.85
376.17	479.81
376.37	463.43
376.56	456.40
376.76	423.64
376.95	372.15
377.15	500.87
377.35	409.59
377.54	397.89
377.74	337.04
377.93	440.02
378.13	402.57
378.33	437.68
378.52	409.59
378.72	454.06
378.91	418.96
379.11	374.49
379.31	416.62
379.50	339.38
379.70	407.25
379.89	451.72
380.09	395.55
380.28	393.21
380.48	407.25
380.68	393.21
380.87	407.25
381.07	383.85
381.26	421.30
381.46	362.78
381.65	369.80
381.85	404.91
382.04	360.44
382.24	440.02
382.43	376.83
382.63	414.27
382.83	339.38
383.02	454.06
383.22	383.85
383.41	418.96
383.61	418.96
383.80	395.55
384.00	381.51
384.19	374.49
384.39	327.68
384.58	428.32
384.78	388.53
384.97	475.13
385.17	416.62
385.36	365.12
385.56	369.80
385.75	306.61
385.95	379.17
386.14	322.99
386.34	458.74
386.53	388.53
386.72	355.76
386.92	512.58
387.11	482.15
387.31	430.66
387.50	381.51
387.70	351.08
387.89	397.89
388.09	404.91
388.28	418.96
388.48	416.62
388.67	411.93
388.86	360.44
389.06	390.87
389.25	465.77
389.45	407.25
389.64	388.53
389.84	362.78
390.03	437.68
390.22	416.62
390.42	442.36
390.61	454.06
390.81	435.34
391.00	472.79
391.19	479.81
391.39	402.57
391.58	428.32
391.78	430.66
391.97	519.60
392.16	374.49
392.36	367.46
392.55	332.36
392.75	421.30
392.94	407.25
393.13	390.87
393.33	388.53
393.52	393.21
393.71	442.36
393.91	374.49
394.10	397.89
394.29	374.49
394.49	353.42
394.68	423.64
394.88	435.34
395.07	386.19
395.26	407.25
395.46	381.51
395.65	435.34
395.84	447.04
396.04	496.19
396.23	425.98
396.42	414.27
396.62	423.64
396.81	416.62
397.00	367.46
397.19	423.64
397.39	440.02
397.58	397.89
397.77	386.19
397.97	395.55
398.16	475.13
398.35	449.38
398.55	402.57
398.74	416.62
398.93	433.00
399.12	404.91
399.32	514.92
399.51	442.36
399.70	395.55
399.90	414.27
400.09	423.64
400.28	444.70
400.47	423.64
400.67	358.10
400.86	376.83
401.05	440.02
401.24	395.55
401.44	428.32
401.63	440.02
401.82	404.91
402.01	404.91
402.21	402.57
402.40	430.66
402.59	337.04
402.78	425.98
402.97	400.23
403.17	395.55
403.36	407.25
403.55	407.25
403.74	430.66
403.93	411.93
404.13	353.42
404.32	386.19
404.51	339.38
404.70	397.89
404.89	395.55
405.09	397.89
405.28	376.83
405.47	372.15
405.66	440.02
405.85	409.59
406.05	444.70
406.24	463.43
406.43	379.17
406.62	393.21
406.81	442.36
407.00	442.36
407.20	435.34
407.39	383.85
407.58	367.46
407.77	353.42
407.96	482.15
408.15	425.98
408.34	461.09
408.54	430.66
408.73	379.17
408.92	381.51
409.11	437.68
409.30	477.47
409.49	379.17
409.68	458.74
409.87	367.46
410.07	393.21
410.26	372.15
410.45	383.85
410.64	404.91
410.83	411.93
411.02	400.23
411.21	414.27
411.40	414.27
411.59	313.63
411.78	421.30
411.98	372.15
412.17	362.78
412.36	367.46
412.55	372.15
412.74	390.87
412.93	447.04
413.12	369.80
413.31	428.32
413.50	433.00
413.69	435.34
413.88	461.09
414.07	404.91
414.26	418.96
414.45	369.80
414.64	395.55
414.83	383.85
415.02	397.89
415.22	393.21
415.41	444.70
415.60	369.80
415.79	411.93
415.98	395.55
416.17	463.43
416.36	430.66
416.55	390.87
416.74	451.72
416.93	435.34
417.12	456.40
417.31	360.44
417.50	440.02
417.69	395.55
417.88	437.68
418.07	463.43
418.26	381.51
418.45	414.27
418.64	388.53
418.83	465.77
419.02	486.83
419.21	456.40
419.39	451.72
419.58	411.93
419.77	404.91
419.96	421.30
420.15	468.11
420.34	379.17
420.53	386.19
420.72	435.34
420.91	440.02
421.10	390.87
421.29	421.30
421.48	404.91
421.67	435.34
421.86	414.27
422.05	379.17
422.24	344.06
422.43	416.62
422.61	414.27
422.80	442.36
422.99	433.00
423.18	484.49
423.37	456.40
423.56	493.85
423.75	402.57
423.94	360.44
424.13	372.15
424.32	444.70
424.50	372.15
424.69	465.77
424.88	454.06
425.07	341.72
425.26	437.68
425.45	376.83
425.64	395.55
425.83	386.19
426.01	465.77
426.20	409.59
426.39	423.64
426.58	411.93
426.77	395.55
426.96	454.06
427.15	437.68
427.33	372.15
427.52	404.91
427.71	468.11
427.90	386.19
428.09	404.91
428.28	390.87
428.46	425.98
428.65	393.21
428.84	414.27
429.03	414.27
429.22	358.10
429.40	393.21
429.59	393.21
429.78	397.89
429.97	339.38
430.16	407.25
430.34	414.27
430.53	465.77
430.72	376.83
430.91	463.43
431.10	449.38
431.28	402.57
431.47	362.78
431.66	360.44
431.85	423.64
432.03	390.87
432.22	454.06
432.41	344.06
432.60	430.66
432.79	440.02
432.97	388.53
433.16	404.91
433.35	386.19
433.54	430.66
433.72	430.66
433.91	383.85
434.10	463.43
434.28	376.83
434.47	407.25
434.66	400.23
434.85	407.25
435.03	388.53
435.22	479.81
435.41	456.40
435.59	409.59
435.78	447.04
435.97	393.21
436.16	416.62
436.34	451.72
436.53	454.06
436.72	395.55
436.90	421.30
437.09	423.64
437.28	388.53
437.46	433.00
437.65	458.74
437.84	447.04
438.02	430.66
438.21	444.70
438.40	362.78
438.58	397.89
438.77	367.46
438.96	479.81
439.14	409.59
439.33	475.13
439.52	351.08
439.70	418.96
439.89	461.09
440.08	468.11
440.26	400.23
440.45	425.98
440.63	433.00
440.82	348.74
441.01	404.91
441.19	379.17
441.38	449.38
441.57	402.57
441.75	388.53
441.94	414.27
442.12	433.00
442.31	435.34
442.50	386.19
442.68	372.15
442.87	433.00
443.05	421.30
443.24	435.34
443.43	442.36
443.61	444.70
443.80	411.93
443.98	341.72
444.17	414.27
444.35	444.70
444.54	486.83
444.73	428.32
444.91	442.36
445.10	414.27
445.28	379.17
445.47	421.30
445.65	393.21
445.84	379.17
446.02	449.38
446.21	400.23
446.39	388.53
446.58	397.89
446.77	400.23
446.95	397.89
447.14	360.44
447.32	447.04
447.51	447.04
447.69	418.96
447.88	341.72
448.06	414.27
448.25	454.06
448.43	381.51
448.62	393.21
448.80	454.06
448.99	442.36
449.17	421.30
449.36	404.91
449.54	461.09
449.73	423.64
449.91	418.96
450.10	433.00
450.28	418.96
450.46	444.70
450.65	470.45
450.83	418.96
451.02	393.21
451.20	365.12
451.39	381.51
451.57	395.55
451.76	425.98
451.94	416.62
452.13	407.25
452.31	425.98
452.49	386.19
452.68	454.06
452.86	411.93
453.05	461.09
453.23	472.79
453.42	372.15
453.60	435.34
453.78	404.91
453.97	456.40
454.15	447.04
454.34	461.09
454.52	351.08
454.70	489.17
454.89	428.32
455.07	397.89
455.26	418.96
455.44	470.45
455.62	404.91
455.81	442.36
455.99	437.68
456.17	489.17
456.36	395.55
456.54	397.89
456.73	379.17
456.91	418.96
457.09	414.27
457.28	430.66
457.46	468.11
457.64	486.83
457.83	376.83
458.01	428.32
458.19	388.53
458.38	390.87
458.56	404.91
458.74	409.59
458.93	402.57
459.11	320.65
459.29	423.64
459.48	407.25
459.66	386.19
459.84	430.66
460.03	482.15
460.21	372.15
460.39	437.68
460.57	393.21
460.76	437.68
460.94	444.70
461.12	451.72
461.31	447.04
461.49	421.30
461.67	379.17
461.85	381.51
462.04	393.21
462.22	781.74
462.40	407.25
462.59	475.13
462.77	430.66
462.95	358.10
463.13	411.93
463.32	482.15
463.50	416.62
463.68	402.57
463.86	491.51
464.05	355.76
464.23	362.78
464.41	386.19
464.59	301.93
464.78	393.21
464.96	416.62
465.14	456.40
465.32	491.51
465.50	374.49
465.69	447.04
465.87	390.87
466.05	369.80
466.23	397.89
466.41	425.98
466.60	423.64
466.78	332.36
466.96	418.96
467.14	383.85
467.32	414.27
467.51	418.96
467.69	395.55
467.87	449.38
468.05	367.46
468.23	451.72
468.41	425.98
468.60	355.76
468.78	475.13
468.96	484.49
469.14	444.70
469.32	418.96
469.50	346.40
469.69	390.87
469.87	421.30
470.05	425.98
470.23	433.00
470.41	381.51
470.59	484.49
470.77	437.68
470.95	393.21
471.14	433.00
471.32	402.57
471.50	463.43
471.68	414.27
471.86	437.68
472.04	374.49
472.22	372.15
472.40	339.38
472.58	418.96
472.77	397.89
472.95	353.42
473.13	437.68
473.31	421.30
473.49	421.30
473.67	407.25
473.85	423.64
474.03	402.57
474.21	407.25
474.39	444.70
474.57	411.93
474.75	416.62
474.93	369.80
475.12	435.34
475.30	334.70
475.48	395.55
475.66	369.80
475.84	402.57
476.02	416.62
476.20	440.02
476.38	489.17
476.56	454.06
476.74	454.06
476.92	397.89
477.10	416.62
477.28	425.98
477.46	376.83
477.64	428.32
477.82	411.93
478.00	369.80
478.18	421.30
478.36	409.59
478.54	418.96
478.72	395.55
478.90	411.93
479.08	395.55
479.26	407.25
479.44	325.33
479.62	425.98
479.80	421.30
479.98	386.19
480.16	409.59
480.34	360.44
480.52	428.32
480.70	428.32
480.88	402.57
481.06	414.27
481.24	313.63
481.41	447.04
481.59	442.36
481.77	393.21
481.95	404.91
482.13	447.04
482.31	442.36
482.49	411.93
482.67	449.38
482.85	454.06
483.03	402.57
483.21	362.78
483.39	365.12
483.57	362.78
483.74	395.55
483.92	463.43
484.10	458.74
484.28	449.38
484.46	470.45
484.64	395.55
484.82	369.80
485.00	411.93
485.18	383.85
485.35	409.59
485.53	353.42
485.71	465.77
485.89	407.25
486.07	451.72
486.25	421.30
486.43	479.81
486.61	402.57
486.78	475.13
486.96	468.11
487.14	348.74
487.32	358.10
487.50	330.02
487.68	510.24
487.85	376.83
488.03	416.62
488.21	411.93
488.39	367.46
488.57	360.44
488.75	411.93
488.92	484.49
489.10	414.27
489.28	409.59
489.46	411.93
489.64	475.13
489.81	404.91
489.99	491.51
490.17	423.64
490.35	447.04
490.53	409.59
490.70	416.62
490.88	414.27
491.06	433.00
491.24	465.77
491.41	435.34
491.59	437.68
491.77	437.68
491.95	409.59
492.13	416.62
492.30	407.25
492.48	404.91
492.66	381.51
492.84	362.78
493.01	402.57
493.19	437.68
493.37	402.57
493.54	463.43
493.72	458.74
493.90	482.15
494.08	440.02
494.25	386.19
494.43	376.83
494.61	390.87
494.79	414.27
494.96	451.72
495.14	355.76
495.32	425.98
495.49	404.91
495.67	402.57
495.85	358.10
496.02	430.66
496.20	433.00
496.38	367.46
496.55	400.23
496.73	330.02
496.91	381.51
497.09	475.13
497.26	374.49
497.44	346.40
497.62	400.23
497.79	348.74
497.97	374.49
498.14	493.85
498.32	423.64
498.50	379.17
498.67	409.59
498.85	337.04
499.03	430.66
499.20	463.43
499.38	421.30
499.56	411.93
499.73	526.62
499.91	315.97
500.08	435.34
500.26	346.40
500.44	400.23
500.61	393.21
500.79	383.85
500.97	421.30
501.14	442.36
501.32	458.74
501.49	477.47
501.67	386.19
501.84	362.78
502.02	461.09
502.20	503.22
502.37	393.21
502.55	348.74
502.72	409.59
502.90	395.55
503.07	440.02
503.25	447.04
503.43	393.21
503.60	418.96
503.78	334.70
503.95	430.66
504.13	369.80
504.30	444.70
504.48	463.43
504.65	472.79
504.83	468.11
505.01	334.70
505.18	411.93
505.36	400.23
505.53	440.02
505.71	440.02
505.88	376.83
506.06	404.91
506.23	381.51
506.41	402.57
506.58	425.98
506.76	388.53
506.93	428.32
507.11	397.89
507.28	418.96
507.46	383.85
507.63	362.78
507.81	437.68
507.98	358.10
508.16	369.80
508.33	449.38
508.50	425.98
508.68	407.25
508.85	421.30
509.03	428.32
509.20	390.87
509.38	477.47
509.55	486.83
509.73	386.19
509.90	451.72
510.08	390.87
510.25	416.62
510.42	447.04
510.60	379.17
510.77	421.30
510.95	411.93
511.12	337.04
511.30	348.74
511.47	404.91
511.64	360.44
511.82	365.12
511.99	414.27
512.17	447.04
512.34	383.85
512.51	344.06
512.69	407.25
512.86	428.32
513.04	503.22
513.21	376.83
513.38	330.02
513.56	449.38
513.73	404.91
513.90	374.49
514.08	393.21
514.25	416.62
514.43	407.25
514.60	442.36
514.77	425.98
514.95	447.04
515.12	425.98
515.29	416.62
515.47	414.27
515.64	433.00
515.81	409.59
515.99	376.83
516.16	468.11
516.33	456.40
516.51	393.21
516.68	360.44
516.85	482.15
517.03	444.70
517.20	393.21
517.37	386.19
517.54	379.17
517.72	386.19
517.89	395.55
518.06	320.65
518.24	472.79
518.41	433.00
518.58	433.00
518.75	461.09
518.93	409.59
519.10	414.27
519.27	449.38
519.45	376.83
519.62	449.38
519.79	407.25
519.96	402.57
520.14	395.55
520.31	454.06
520.48	374.49
520.65	433.00
520.83	433.00
521.00	437.68
521.17	400.23
521.34	425.98
521.52	414.27
521.69	430.66
521.86	386.19
522.03	472.79
522.20	430.66
522.38	407.25
522.55	334.70
522.72	388.53
522.89	390.87
523.07	421.30
523.24	388.53
523.41	402.57
523.58	376.83
523.75	470.45
523.92	454.06
524.10	433.00
524.27	433.00
524.44	376.83
524.61	409.59
524.78	383.85
524.96	435.34
525.13	435.34
525.30	379.17
525.47	395.55
525.64	407.25
525.81	472.79
525.98	437.68
526.16	388.53
526.33	383.85
526.50	435.34
526.67	365.12
526.84	461.09
527.01	325.33
527.18	449.38
527.36	362.78
527.53	365.12
527.70	395.55
527.87	381.51
528.04	451.72
528.21	433.00
528.38	477.47
528.55	442.36
528.72	486.83
528.89	435.34
529.07	433.00
529.24	409.59
529.41	451.72
529.58	456.40
529.75	409.59
529.92	383.85
530.09	451.72
530.26	414.27
530.43	437.68
530.60	393.21
530.77	400.23
530.94	388.53
531.11	482.15
531.28	407.25
531.46	367.46
531.63	442.36
531.80	428.32
531.97	383.85
532.14	353.42
532.31	400.23
532.48	428.32
532.65	437.68
532.82	484.49
532.99	456.40
533.16	360.44
533.33	346.40
533.50	421.30
533.67	374.49
533.84	421.30
534.01	407.25
534.18	372.15
534.35	418.96
534.52	344.06
534.69	411.93
534.86	395.55
535.03	505.56
535.20	451.72
535.37	360.44
535.54	381.51
535.71	414.27
535.88	437.68
536.05	337.04
536.22	421.30
536.38	404.91
536.55	411.93
536.72	477.47
536.89	418.96
537.06	374.49
537.23	395.55
537.40	442.36
537.57	425.98
537.74	479.81
537.91	463.43
538.08	449.38
538.25	409.59
538.42	390.87
538.59	454.06
538.75	395.55
538.92	390.87
539.09	407.25
539.26	423.64
539.43	493.85
539.60	315.97
539.77	414.27
539.94	440.02
540.11	435.34
540.28	409.59
540.44	409.59
540.61	433.00
540.78	355.76
540.95	440.02
541.12	409.59
541.29	397.89
541.46	416.62
541.62	437.68
541.79	390.87
541.96	414.27
542.13	388.53
542.30	404.91
542.47	463.43
542.63	470.45
542.80	458.74
542.97	444.70
543.14	376.83
543.31	421.30
543.48	313.63
543.64	411.93
543.81	418.96
543.98	400.23
544.15	500.87
544.32	393.21
544.48	440.02
544.65	402.57
544.82	437.68
544.99	397.89
545.16	416.62
545.32	414.27
545.49	416.62
545.66	353.42
545.83	372.15
546.00	411.93
546.16	325.33
546.33	442.36
546.50	447.04
546.67	463.43
546.83	374.49
547.00	381.51
547.17	379.17
547.34	341.72
547.50	404.91
547.67	374.49
547.84	376.83
548.00	407.25
548.17	440.02
548.34	449.38
548.51	475.13
548.67	465.77
548.84	451.72
549.01	404.91
549.18	407.25
549.34	409.59
549.51	393.21
549.68	440.02
549.84	402.57
550.01	423.64
550.18	500.87
550.34	425.98
550.51	388.53
550.68	449.38
550.84	395.55
551.01	395.55
551.18	407.25
551.34	383.85
551.51	444.70
551.68	447.04
551.84	468.11
552.01	397.89
552.18	362.78
552.34	379.17
552.51	458.74
552.68	381.51
552.84	344.06
553.01	414.27
553.18	468.11
553.34	463.43
553.51	379.17
553.67	381.51
553.84	472.79
554.01	416.62
554.17	407.25
554.34	411.93
554.51	421.30
554.67	430.66
554.84	416.62
555.00	458.74
555.17	407.25
555.33	451.72
555.50	393.21
555.67	407.25
555.83	367.46
556.00	390.87
556.16	512.58
556.33	479.81
556.50	393.21
556.66	458.74
556.83	407.25
556.99	468.11
557.16	376.83
557.32	425.98
557.49	388.53
557.65	430.66
557.82	411.93
557.98	409.59
558.15	458.74
558.32	407.25
558.48	428.32
558.65	435.34
558.81	468.11
558.98	407.25
559.14	414.27
559.31	407.25
559.47	477.47
559.64	435.34
559.80	442.36
559.97	475.13
560.13	332.36
560.30	341.72
560.46	344.06
560.63	393.21
560.79	407.25
560.96	421.30
561.12	404.91
561.29	437.68
561.45	355.76
561.61	418.96
561.78	468.11
561.94	428.32
562.11	421.30
562.27	430.66
562.44	330.02
562.60	360.44
562.77	388.53
562.93	411.93
563.10	440.02
563.26	367.46
563.42	463.43
563.59	491.51
563.75	409.59
563.92	418.96
564.08	507.90
564.24	458.74
564.41	524.28
564.57	351.08
564.74	449.38
564.90	428.32
565.07	421.30
565.23	425.98
565.39	348.74
565.56	358.10
565.72	435.34
565.88	404.91
566.05	390.87
566.21	367.46
566.38	442.36
566.54	411.93
566.70	456.40
566.87	416.62
567.03	374.49
567.19	397.89
567.36	400.23
567.52	444.70
567.68	442.36
567.85	409.59
568.01	330.02
568.17	411.93
568.34	421.30
568.50	423.64
568.66	416.62
568.83	423.64
568.99	409.59
569.15	465.77
569.32	402.57
569.48	383.85
569.64	416.62
569.81	461.09
569.97	437.68
570.13	468.11
570.30	407.25
570.46	386.19
570.62	411.93
570.78	407.25
570.95	400.23
571.11	416.62
571.27	449.38
571.43	325.33
571.60	395.55
571.76	409.59
571.92	454.06
572.09	451.72
572.25	376.83
572.41	404.91
572.57	437.68
572.74	472.79
572.90	404.91
573.06	365.12
573.22	367.46
573.38	379.17
573.55	407.25
573.71	475.13
573.87	388.53
574.03	465.77
574.20	435.34
574.36	411.93
574.52	447.04
574.68	416.62
574.84	454.06
575.01	435.34
575.17	374.49
575.33	440.02
575.49	421.30
575.65	484.49
575.82	423.64
575.98	507.90
576.14	442.36
576.30	393.21
576.46	411.93
576.62	430.66
576.79	451.72
576.95	414.27
577.11	355.76
577.27	418.96
577.43	430.66
577.59	388.53
577.75	411.93
577.92	376.83
578.08	407.25
578.24	383.85
578.40	416.62
578.56	437.68
578.72	414.27
578.88	442.36
579.04	479.81
579.21	472.79
579.37	400.23
579.53	376.83
579.69	409.59
579.85	444.70
580.01	411.93
580.17	449.38
580.33	397.89
580.49	414.27
580.65	430.66
580.82	411.93
580.98	397.89
581.14	402.57
581.30	404.91
581.46	367.46
581.62	381.51
581.78	351.08
581.94	440.02
582.10	337.04
582.26	397.89
582.42	372.15
582.58	397.89
582.74	437.68
582.90	379.17
583.06	456.40
583.22	365.12
583.38	437.68
583.54	388.53
583.70	430.66
583.86	444.70
584.02	418.96
584.18	337.04
584.34	416.62
584.50	428.32
584.66	428.32
584.82	407.25
584.98	383.85
585.14	393.21
585.30	400.23
585.46	456.40
585.62	390.87
585.78	468.11
585.94	395.55
586.10	353.42
586.26	383.85
586.42	362.78
586.58	423.64
586.74	397.89
586.90	393.21
587.06	358.10
587.22	386.19
587.38	346.40
587.54	437.68
587.70	400.23
587.86	435.34
588.02	423.64
588.18	437.68
588.34	409.59
588.49	390.87
588.65	437.68
588.81	379.17
588.97	451.72
589.13	374.49
589.29	442.36
589.45	435.34
589.61	416.62
589.77	449.38
589.93	437.68
590.08	444.70
590.24	458.74
590.40	447.04
590.56	444.70
590.72	360.44
590.88	416.62
591.04	470.45
591.20	440.02
591.35	454.06
591.51	400.23
591.67	362.78
591.83	428.32
591.99	407.25
592.15	461.09
592.31	393.21
592.46	365.12
592.62	386.19
592.78	430.66
592.94	442.36
593.10	407.25
593.26	379.17
593.41	472.79
593.57	388.53
593.73	465.77
593.89	402.57
594.05	360.44
594.20	369.80
594.36	383.85
594.52	393.21
594.68	430.66
594.84	484.49
594.99	503.22
595.15	433.00
595.31	367.46
595.47	486.83
595.62	341.72
595.78	456.40
595.94	430.66
596.10	433.00
596.25	472.79
596.41	458.74
596.57	355.76
596.73	365.12
596.88	444.70
597.04	407.25
597.20	386.19
597.36	402.57
597.51	404.91
597.67	341.72
597.83	388.53
597.99	425.98
598.14	411.93
598.30	379.17
598.46	433.00
598.61	409.59
598.77	444.70
598.93	400.23
599.09	402.57
599.24	358.10
599.40	423.64
599.56	430.66
599.71	493.85
599.87	404.91
600.03	411.93
600.18	433.00
600.34	449.38
600.50	465.77
600.65	383.85
600.81	376.83
600.97	468.11
601.12	397.89
601.28	475.13
601.44	402.57
601.59	418.96
601.75	383.85
601.91	461.09
602.06	458.74
602.22	519.60
602.37	411.93
602.53	386.19
602.69	437.68
602.84	423.64
603.00	407.25
603.16	442.36
603.31	461.09
603.47	397.89
603.62	388.53
603.78	423.64
603.94	393.21
604.09	376.83
604.25	400.23
604.40	374.49
604.56	365.12
604.71	397.89
604.87	416.62
605.03	449.38
605.18	379.17
605.34	505.56
605.49	409.59
605.65	454.06
605.80	386.19
605.96	376.83
606.12	496.19
606.27	472.79
606.43	423.64
606.58	433.00
606.74	449.38
606.89	390.87
607.05	379.17
607.20	421.30
607.36	418.96
607.51	344.06
607.67	341.72
607.82	437.68
607.98	463.43
608.13	456.40
608.29	411.93
608.44	475.13
608.60	440.02
608.75	482.15
608.91	496.19
609.06	500.87
609.22	430.66
609.37	386.19
609.53	355.76
609.68	484.49
609.84	451.72
609.99	440.02
610.15	468.11
