SpectraSuite Data File
++++++++++++++++++++++++++++++++++++
Date: Fri Oct 25 12:10:29 EDT 2013
User: price-jones
Dark Spectrum Present: No
Reference Spectrum Present: No
Number of Sampled Component Spectra: 1
Spectrometers: USB2+H05261
Integration Time (usec): 100000 (USB2+H05261)
Spectra Averaged: 1 (USB2+H05261)
Boxcar Smoothing: 0 (USB2+H05261)
Correct for Electrical Dark: No (USB2+H05261)
Strobe/Lamp Enabled: No (USB2+H05261)
Correct for Detector Non-linearity: No (USB2+H05261)
Correct for Stray Light: No (USB2+H05261)
Number of Pixels in Processed Spectrum: 2048
>>>>>Begin Processed Spectral Data<<<<<
365.73	374.49
365.92	374.49
366.12	374.49
366.32	266.82
366.52	255.12
366.72	306.61
366.91	285.55
367.11	250.44
367.31	243.42
367.51	297.25
367.70	259.80
367.90	294.91
368.10	189.58
368.30	250.44
368.49	191.92
368.69	266.82
368.89	250.44
369.09	224.69
369.28	229.37
369.48	210.65
369.68	292.57
369.87	374.49
370.07	299.59
370.27	327.68
370.47	306.61
370.66	297.25
370.86	367.46
371.06	376.83
371.25	374.49
371.45	313.63
371.65	367.46
371.84	374.49
372.04	376.83
372.24	390.87
372.44	362.78
372.63	374.49
372.83	388.53
373.03	397.89
373.22	390.87
373.42	484.49
373.62	397.89
373.81	468.11
374.01	477.47
374.21	475.13
374.40	374.49
374.60	358.10
374.79	367.46
374.99	425.98
375.19	430.66
375.38	447.04
375.58	393.21
375.78	393.21
375.97	416.62
376.17	465.77
376.37	390.87
376.56	418.96
376.76	425.98
376.95	376.83
377.15	404.91
377.35	482.15
377.54	402.57
377.74	383.85
377.93	454.06
378.13	428.32
378.33	414.27
378.52	428.32
378.72	393.21
378.91	393.21
379.11	416.62
379.31	416.62
379.50	400.23
379.70	444.70
379.89	456.40
380.09	421.30
380.28	388.53
380.48	376.83
380.68	383.85
380.87	367.46
381.07	447.04
381.26	372.15
381.46	358.10
381.65	414.27
381.85	390.87
382.04	341.72
382.24	440.02
382.43	437.68
382.63	423.64
382.83	381.51
383.02	414.27
383.22	468.11
383.41	407.25
383.61	444.70
383.80	407.25
384.00	428.32
384.19	388.53
384.39	362.78
384.58	390.87
384.78	425.98
384.97	414.27
385.17	416.62
385.36	395.55
385.56	386.19
385.75	456.40
385.95	456.40
386.14	360.44
386.34	393.21
386.53	383.85
386.72	423.64
386.92	512.58
387.11	468.11
387.31	442.36
387.50	421.30
387.70	402.57
387.89	381.51
388.09	365.12
388.28	409.59
388.48	383.85
388.67	362.78
388.86	435.34
389.06	421.30
389.25	430.66
389.45	376.83
389.64	369.80
389.84	498.53
390.03	449.38
390.22	411.93
390.42	393.21
390.61	379.17
390.81	416.62
391.00	489.17
391.19	472.79
391.39	430.66
391.58	407.25
391.78	386.19
391.97	397.89
392.16	327.68
392.36	444.70
392.55	383.85
392.75	376.83
392.94	397.89
393.13	402.57
393.33	451.72
393.52	430.66
393.71	407.25
393.91	440.02
394.10	489.17
394.29	390.87
394.49	360.44
394.68	449.38
394.88	395.55
395.07	503.22
395.26	322.99
395.46	418.96
395.65	334.70
395.84	418.96
396.04	472.79
396.23	395.55
396.42	348.74
396.62	437.68
396.81	423.64
397.00	468.11
397.19	454.06
397.39	444.70
397.58	447.04
397.77	386.19
397.97	447.04
398.16	362.78
398.35	376.83
398.55	503.22
398.74	407.25
398.93	334.70
399.12	418.96
399.32	484.49
399.51	440.02
399.70	468.11
399.90	416.62
400.09	355.76
400.28	397.89
400.47	360.44
400.67	442.36
400.86	409.59
401.05	383.85
401.24	390.87
401.44	421.30
401.63	372.15
401.82	421.30
402.01	416.62
402.21	395.55
402.40	358.10
402.59	468.11
402.78	355.76
402.97	414.27
403.17	451.72
403.36	381.51
403.55	393.21
403.74	472.79
403.93	421.30
404.13	374.49
404.32	416.62
404.51	416.62
404.70	449.38
404.89	458.74
405.09	379.17
405.28	397.89
405.47	447.04
405.66	409.59
405.85	386.19
406.05	425.98
406.24	477.47
406.43	339.38
406.62	383.85
406.81	463.43
407.00	428.32
407.20	369.80
407.39	435.34
407.58	348.74
407.77	440.02
407.96	444.70
408.15	465.77
408.34	376.83
408.54	425.98
408.73	402.57
408.92	472.79
409.11	461.09
409.30	411.93
409.49	318.31
409.68	451.72
409.87	315.97
410.07	428.32
410.26	386.19
410.45	360.44
410.64	425.98
410.83	430.66
411.02	425.98
411.21	379.17
411.40	435.34
411.59	402.57
411.78	409.59
411.98	416.62
412.17	433.00
412.36	393.21
412.55	418.96
412.74	407.25
412.93	465.77
413.12	381.51
413.31	400.23
413.50	393.21
413.69	479.81
413.88	475.13
414.07	372.15
414.26	440.02
414.45	390.87
414.64	355.76
414.83	451.72
415.02	334.70
415.22	433.00
415.41	440.02
415.60	437.68
415.79	444.70
415.98	400.23
416.17	311.29
416.36	395.55
416.55	374.49
416.74	486.83
416.93	486.83
417.12	411.93
417.31	435.34
417.50	386.19
417.69	402.57
417.88	393.21
418.07	395.55
418.26	376.83
418.45	411.93
418.64	381.51
418.83	440.02
419.02	386.19
419.21	369.80
419.39	416.62
419.58	447.04
419.77	416.62
419.96	411.93
420.15	409.59
420.34	367.46
420.53	433.00
420.72	449.38
420.91	442.36
421.10	416.62
421.29	376.83
421.48	435.34
421.67	400.23
421.86	386.19
422.05	421.30
422.24	397.89
422.43	484.49
422.61	397.89
422.80	425.98
422.99	479.81
423.18	418.96
423.37	395.55
423.56	397.89
423.75	390.87
423.94	355.76
424.13	369.80
424.32	404.91
424.50	397.89
424.69	393.21
424.88	397.89
425.07	393.21
425.26	376.83
425.45	449.38
425.64	425.98
425.83	409.59
426.01	449.38
426.20	369.80
426.39	442.36
426.58	428.32
426.77	447.04
426.96	461.09
427.15	444.70
427.33	428.32
427.52	379.17
427.71	400.23
427.90	449.38
428.09	390.87
428.28	442.36
428.46	409.59
428.65	500.87
428.84	388.53
429.03	379.17
429.22	360.44
429.40	411.93
429.59	311.29
429.78	421.30
429.97	442.36
430.16	428.32
430.34	454.06
430.53	376.83
430.72	388.53
430.91	367.46
431.10	355.76
431.28	386.19
431.47	390.87
431.66	409.59
431.85	440.02
432.03	383.85
432.22	461.09
432.41	409.59
432.60	388.53
432.79	449.38
432.97	383.85
433.16	367.46
433.35	400.23
433.54	404.91
433.72	358.10
433.91	386.19
434.10	407.25
434.28	433.00
434.47	414.27
434.66	442.36
434.85	507.90
435.03	461.09
435.22	496.19
435.41	440.02
435.59	381.51
435.78	397.89
435.97	397.89
436.16	444.70
436.34	400.23
436.53	397.89
436.72	472.79
436.90	362.78
437.09	383.85
437.28	348.74
437.46	404.91
437.65	374.49
437.84	477.47
438.02	411.93
438.21	456.40
438.40	390.87
438.58	400.23
438.77	404.91
438.96	400.23
439.14	447.04
439.33	379.17
439.52	332.36
439.70	423.64
439.89	447.04
440.08	449.38
440.26	379.17
440.45	358.10
440.63	451.72
440.82	421.30
441.01	407.25
441.19	418.96
441.38	376.83
441.57	334.70
441.75	461.09
441.94	496.19
442.12	376.83
442.31	383.85
442.50	341.72
442.68	400.23
442.87	376.83
443.05	451.72
443.24	475.13
443.43	407.25
443.61	470.45
443.80	414.27
443.98	409.59
444.17	386.19
444.35	472.79
444.54	435.34
444.73	388.53
444.91	411.93
445.10	400.23
445.28	440.02
445.47	388.53
445.65	442.36
445.84	468.11
446.02	390.87
446.21	414.27
446.39	430.66
446.58	437.68
446.77	430.66
446.95	465.77
447.14	447.04
447.32	395.55
447.51	430.66
447.69	353.42
447.88	416.62
448.06	430.66
448.25	463.43
448.43	458.74
448.62	425.98
448.80	388.53
448.99	442.36
449.17	386.19
449.36	449.38
449.54	383.85
449.73	390.87
449.91	400.23
450.10	433.00
450.28	337.04
450.46	465.77
450.65	428.32
450.83	458.74
451.02	365.12
451.20	376.83
451.39	428.32
451.57	414.27
451.76	362.78
451.94	418.96
452.13	437.68
452.31	421.30
452.49	444.70
452.68	430.66
452.86	440.02
453.05	421.30
453.23	386.19
453.42	411.93
453.60	379.17
453.78	402.57
453.97	421.30
454.15	362.78
454.34	400.23
454.52	395.55
454.70	435.34
454.89	519.60
455.07	372.15
455.26	407.25
455.44	407.25
455.62	454.06
455.81	395.55
455.99	360.44
456.17	400.23
456.36	353.42
456.54	468.11
456.73	393.21
456.91	409.59
457.09	414.27
457.28	517.26
457.46	470.45
457.64	449.38
457.83	374.49
458.01	416.62
458.19	414.27
458.38	430.66
458.56	449.38
458.74	383.85
458.93	372.15
459.11	386.19
459.29	435.34
459.48	390.87
459.66	423.64
459.84	397.89
460.03	449.38
460.21	447.04
460.39	367.46
460.57	383.85
460.76	447.04
460.94	418.96
461.12	423.64
461.31	449.38
461.49	388.53
461.67	423.64
461.85	402.57
462.04	360.44
462.22	828.55
462.40	440.02
462.59	358.10
462.77	381.51
462.95	393.21
463.13	435.34
463.32	362.78
463.50	383.85
463.68	470.45
463.86	404.91
464.05	435.34
464.23	454.06
464.41	503.22
464.59	388.53
464.78	482.15
464.96	393.21
465.14	470.45
465.32	440.02
465.50	447.04
465.69	416.62
465.87	437.68
466.05	435.34
466.23	458.74
466.41	456.40
466.60	418.96
466.78	433.00
466.96	358.10
467.14	397.89
467.32	465.77
467.51	388.53
467.69	449.38
467.87	390.87
468.05	325.33
468.23	369.80
468.41	421.30
468.60	337.04
468.78	421.30
468.96	433.00
469.14	475.13
469.32	322.99
469.50	362.78
469.69	475.13
469.87	346.40
470.05	390.87
470.23	397.89
470.41	348.74
470.59	421.30
470.77	367.46
470.95	447.04
471.14	409.59
471.32	421.30
471.50	433.00
471.68	451.72
471.86	376.83
472.04	407.25
472.22	430.66
472.40	386.19
472.58	400.23
472.77	402.57
472.95	327.68
473.13	414.27
473.31	498.53
473.49	414.27
473.67	407.25
473.85	404.91
474.03	376.83
474.21	376.83
474.39	430.66
474.57	386.19
474.75	409.59
474.93	416.62
475.12	423.64
475.30	461.09
475.48	451.72
475.66	463.43
475.84	433.00
476.02	425.98
476.20	353.42
476.38	395.55
476.56	486.83
476.74	414.27
476.92	423.64
477.10	390.87
477.28	411.93
477.46	416.62
477.64	388.53
477.82	437.68
478.00	353.42
478.18	388.53
478.36	458.74
478.54	411.93
478.72	390.87
478.90	348.74
479.08	379.17
479.26	437.68
479.44	332.36
479.62	416.62
479.80	334.70
479.98	442.36
480.16	395.55
480.34	404.91
480.52	440.02
480.70	358.10
480.88	376.83
481.06	400.23
481.24	449.38
481.41	428.32
481.59	447.04
481.77	404.91
481.95	376.83
482.13	416.62
482.31	376.83
482.49	425.98
482.67	479.81
482.85	571.09
483.03	451.72
483.21	470.45
483.39	416.62
483.57	397.89
483.74	461.09
483.92	411.93
484.10	517.26
484.28	395.55
484.46	433.00
484.64	447.04
484.82	411.93
485.00	383.85
485.18	444.70
485.35	374.49
485.53	425.98
485.71	383.85
485.89	393.21
486.07	376.83
486.25	472.79
486.43	425.98
486.61	444.70
486.78	397.89
486.96	451.72
487.14	418.96
487.32	379.17
487.50	423.64
487.68	374.49
487.85	456.40
488.03	444.70
488.21	430.66
488.39	409.59
488.57	374.49
488.75	353.42
488.92	540.66
489.10	463.43
489.28	414.27
489.46	423.64
489.64	472.79
489.81	477.47
489.99	355.76
490.17	360.44
490.35	414.27
490.53	465.77
490.70	437.68
490.88	393.21
491.06	414.27
491.24	348.74
491.41	369.80
491.59	346.40
491.77	435.34
491.95	423.64
492.13	379.17
492.30	425.98
492.48	365.12
492.66	475.13
492.84	456.40
493.01	451.72
493.19	411.93
493.37	430.66
493.54	470.45
493.72	461.09
493.90	386.19
494.08	517.26
494.25	362.78
494.43	447.04
494.61	400.23
494.79	404.91
494.96	428.32
495.14	407.25
495.32	393.21
495.49	383.85
495.67	430.66
495.85	416.62
496.02	390.87
496.20	440.02
496.38	435.34
496.55	451.72
496.73	402.57
496.91	402.57
497.09	416.62
497.26	414.27
497.44	397.89
497.62	322.99
497.79	425.98
497.97	346.40
498.14	433.00
498.32	383.85
498.50	374.49
498.67	409.59
498.85	362.78
499.03	395.55
499.20	360.44
499.38	402.57
499.56	458.74
499.73	479.81
499.91	416.62
500.08	372.15
500.26	444.70
500.44	379.17
500.61	489.17
500.79	400.23
500.97	428.32
501.14	386.19
501.32	395.55
501.49	428.32
501.67	374.49
501.84	475.13
502.02	388.53
502.20	376.83
502.37	475.13
502.55	447.04
502.72	414.27
502.90	383.85
503.07	430.66
503.25	418.96
503.43	388.53
503.60	437.68
503.78	393.21
503.95	360.44
504.13	447.04
504.30	512.58
504.48	482.15
504.65	407.25
504.83	451.72
505.01	372.15
505.18	404.91
505.36	402.57
505.53	423.64
505.71	470.45
505.88	444.70
506.06	346.40
506.23	395.55
506.41	470.45
506.58	435.34
506.76	440.02
506.93	409.59
507.11	423.64
507.28	435.34
507.46	437.68
507.63	381.51
507.81	428.32
507.98	372.15
508.16	435.34
508.33	444.70
508.50	400.23
508.68	461.09
508.85	428.32
509.03	393.21
509.20	386.19
509.38	409.59
509.55	444.70
509.73	512.58
509.90	475.13
510.08	456.40
510.25	433.00
510.42	428.32
510.60	442.36
510.77	404.91
510.95	454.06
511.12	404.91
511.30	440.02
511.47	421.30
511.64	472.79
511.82	360.44
511.99	486.83
512.17	416.62
512.34	395.55
512.51	376.83
512.69	425.98
512.86	463.43
513.04	458.74
513.21	486.83
513.38	458.74
513.56	421.30
513.73	430.66
513.90	325.33
514.08	374.49
514.25	421.30
514.43	442.36
514.60	367.46
514.77	414.27
514.95	409.59
515.12	435.34
515.29	411.93
515.47	393.21
515.64	442.36
515.81	376.83
515.99	428.32
516.16	456.40
516.33	475.13
516.51	409.59
516.68	395.55
516.85	374.49
517.03	376.83
517.20	381.51
517.37	423.64
517.54	404.91
517.72	381.51
517.89	430.66
518.06	447.04
518.24	451.72
518.41	425.98
518.58	425.98
518.75	393.21
518.93	447.04
519.10	388.53
519.27	369.80
519.45	407.25
519.62	430.66
519.79	358.10
519.96	374.49
520.14	388.53
520.31	383.85
520.48	416.62
520.65	430.66
520.83	475.13
521.00	365.12
521.17	444.70
521.34	369.80
521.52	365.12
521.69	461.09
521.86	458.74
522.03	433.00
522.20	468.11
522.38	346.40
522.55	397.89
522.72	383.85
522.89	390.87
523.07	442.36
523.24	421.30
523.41	458.74
523.58	451.72
523.75	381.51
523.92	397.89
524.10	442.36
524.27	456.40
524.44	393.21
524.61	425.98
524.78	468.11
524.96	374.49
525.13	433.00
525.30	390.87
525.47	503.22
525.64	407.25
525.81	402.57
525.98	463.43
526.16	425.98
526.33	418.96
526.50	386.19
526.67	365.12
526.84	435.34
527.01	472.79
527.18	489.17
527.36	430.66
527.53	344.06
527.70	484.49
527.87	390.87
528.04	407.25
528.21	416.62
528.38	397.89
528.55	491.51
528.72	433.00
528.89	425.98
529.07	433.00
529.24	435.34
529.41	470.45
529.58	388.53
529.75	407.25
529.92	402.57
530.09	393.21
530.26	465.77
530.43	390.87
530.60	437.68
530.77	409.59
530.94	407.25
531.11	383.85
531.28	346.40
531.46	463.43
531.63	299.59
531.80	390.87
531.97	468.11
532.14	383.85
532.31	397.89
532.48	365.12
532.65	437.68
532.82	393.21
532.99	390.87
533.16	440.02
533.33	390.87
533.50	437.68
533.67	315.97
533.84	463.43
534.01	454.06
534.18	442.36
534.35	472.79
534.52	435.34
534.69	411.93
534.86	381.51
535.03	407.25
535.20	442.36
535.37	402.57
535.54	414.27
535.71	404.91
535.88	430.66
536.05	397.89
536.22	397.89
536.38	416.62
536.55	383.85
536.72	463.43
536.89	379.17
537.06	479.81
537.23	414.27
537.40	486.83
537.57	404.91
537.74	470.45
537.91	519.60
538.08	390.87
538.25	409.59
538.42	451.72
538.59	444.70
538.75	421.30
538.92	449.38
539.09	416.62
539.26	330.02
539.43	376.83
539.60	390.87
539.77	365.12
539.94	416.62
540.11	430.66
540.28	395.55
540.44	411.93
540.61	435.34
540.78	456.40
540.95	362.78
541.12	489.17
541.29	468.11
541.46	447.04
541.62	407.25
541.79	379.17
541.96	409.59
542.13	414.27
542.30	409.59
542.47	372.15
542.63	442.36
542.80	390.87
542.97	423.64
543.14	379.17
543.31	489.17
543.48	332.36
543.64	451.72
543.81	447.04
543.98	355.76
544.15	400.23
544.32	437.68
544.48	374.49
544.65	351.08
544.82	416.62
544.99	428.32
545.16	484.49
545.32	418.96
545.49	411.93
545.66	423.64
545.83	407.25
546.00	451.72
546.16	440.02
546.33	423.64
546.50	425.98
546.67	454.06
546.83	379.17
547.00	486.83
547.17	379.17
547.34	435.34
547.50	379.17
547.67	348.74
547.84	390.87
548.00	500.87
548.17	395.55
548.34	411.93
548.51	411.93
548.67	418.96
548.84	414.27
549.01	435.34
549.18	475.13
549.34	397.89
549.51	486.83
549.68	322.99
549.84	397.89
550.01	409.59
550.18	491.51
550.34	451.72
550.51	386.19
550.68	465.77
550.84	442.36
551.01	433.00
551.18	489.17
551.34	395.55
551.51	411.93
551.68	503.22
551.84	451.72
552.01	451.72
552.18	372.15
552.34	379.17
552.51	416.62
552.68	393.21
552.84	397.89
553.01	409.59
553.18	423.64
553.34	428.32
553.51	390.87
553.67	468.11
553.84	484.49
554.01	379.17
554.17	402.57
554.34	454.06
554.51	433.00
554.67	440.02
554.84	381.51
555.00	479.81
555.17	437.68
555.33	458.74
555.50	390.87
555.67	428.32
555.83	423.64
556.00	479.81
556.16	566.41
556.33	388.53
556.50	390.87
556.66	388.53
556.83	397.89
556.99	332.36
557.16	433.00
557.32	390.87
557.49	400.23
557.65	341.72
557.82	386.19
557.98	344.06
558.15	344.06
558.32	376.83
558.48	409.59
558.65	493.85
558.81	416.62
558.98	416.62
559.14	411.93
559.31	414.27
559.47	428.32
559.64	407.25
559.80	442.36
559.97	414.27
560.13	388.53
560.30	400.23
560.46	479.81
560.63	447.04
560.79	418.96
560.96	374.49
561.12	404.91
561.29	381.51
561.45	435.34
561.61	407.25
561.78	475.13
561.94	358.10
562.11	461.09
562.27	433.00
562.44	416.62
562.60	437.68
562.77	461.09
562.93	458.74
563.10	393.21
563.26	407.25
563.42	435.34
563.59	404.91
563.75	386.19
563.92	484.49
564.08	388.53
564.24	437.68
564.41	484.49
564.57	430.66
564.74	407.25
564.90	430.66
565.07	491.51
565.23	454.06
565.39	379.17
565.56	465.77
565.72	416.62
565.88	454.06
566.05	376.83
566.21	444.70
566.38	433.00
566.54	393.21
566.70	425.98
566.87	414.27
567.03	374.49
567.19	449.38
567.36	472.79
567.52	411.93
567.68	421.30
567.85	421.30
568.01	437.68
568.17	407.25
568.34	414.27
568.50	376.83
568.66	332.36
568.83	465.77
568.99	395.55
569.15	468.11
569.32	395.55
569.48	402.57
569.64	390.87
569.81	400.23
569.97	379.17
570.13	463.43
570.30	461.09
570.46	430.66
570.62	416.62
570.78	477.47
570.95	367.46
571.11	416.62
571.27	465.77
571.43	367.46
571.60	397.89
571.76	510.24
571.92	407.25
572.09	390.87
572.25	367.46
572.41	409.59
572.57	449.38
572.74	470.45
572.90	491.51
573.06	465.77
573.22	440.02
573.38	456.40
573.55	369.80
573.71	463.43
573.87	397.89
574.03	369.80
574.20	451.72
574.36	458.74
574.52	468.11
574.68	486.83
574.84	505.56
575.01	397.89
575.17	484.49
575.33	330.02
575.49	514.92
575.65	423.64
575.82	395.55
575.98	362.78
576.14	468.11
576.30	416.62
576.46	390.87
576.62	437.68
576.79	461.09
576.95	440.02
577.11	395.55
577.27	372.15
577.43	404.91
577.59	470.45
577.75	341.72
577.92	411.93
578.08	418.96
578.24	386.19
578.40	477.47
578.56	454.06
578.72	421.30
578.88	444.70
579.04	372.15
579.21	395.55
579.37	402.57
579.53	341.72
579.69	489.17
579.85	402.57
580.01	456.40
580.17	430.66
580.33	372.15
580.49	433.00
580.65	362.78
580.82	383.85
580.98	447.04
581.14	376.83
581.30	428.32
581.46	372.15
581.62	451.72
581.78	433.00
581.94	386.19
582.10	351.08
582.26	475.13
582.42	421.30
582.58	374.49
582.74	369.80
582.90	519.60
583.06	348.74
583.22	376.83
583.38	465.77
583.54	355.76
583.70	416.62
583.86	397.89
584.02	376.83
584.18	444.70
584.34	449.38
584.50	418.96
584.66	449.38
584.82	393.21
584.98	362.78
585.14	428.32
585.30	390.87
585.46	358.10
585.62	430.66
585.78	390.87
585.94	367.46
586.10	433.00
586.26	393.21
586.42	496.19
586.58	451.72
586.74	414.27
586.90	351.08
587.06	409.59
587.22	400.23
587.38	456.40
587.54	444.70
587.70	416.62
587.86	409.59
588.02	407.25
588.18	400.23
588.34	442.36
588.49	390.87
588.65	458.74
588.81	355.76
588.97	425.98
589.13	325.33
589.29	425.98
589.45	468.11
589.61	444.70
589.77	421.30
589.93	404.91
590.08	365.12
590.24	454.06
590.40	458.74
590.56	430.66
590.72	409.59
590.88	400.23
591.04	484.49
591.20	500.87
591.35	550.03
591.51	402.57
591.67	430.66
591.83	428.32
591.99	404.91
592.15	400.23
592.31	414.27
592.46	358.10
592.62	440.02
592.78	390.87
592.94	362.78
593.10	442.36
593.26	433.00
593.41	435.34
593.57	430.66
593.73	404.91
593.89	463.43
594.05	358.10
594.20	407.25
594.36	379.17
594.52	360.44
594.68	430.66
594.84	409.59
594.99	430.66
595.15	433.00
595.31	484.49
595.47	447.04
595.62	423.64
595.78	472.79
595.94	416.62
596.10	500.87
596.25	383.85
596.41	444.70
596.57	442.36
596.73	365.12
596.88	353.42
597.04	458.74
597.20	423.64
597.36	383.85
597.51	442.36
597.67	320.65
597.83	397.89
597.99	407.25
598.14	386.19
598.30	442.36
598.46	358.10
598.61	479.81
598.77	440.02
598.93	379.17
599.09	421.30
599.24	433.00
599.40	386.19
599.56	346.40
599.71	418.96
599.87	409.59
600.03	430.66
600.18	379.17
600.34	430.66
600.50	386.19
600.65	383.85
600.81	477.47
600.97	437.68
601.12	449.38
601.28	418.96
601.44	458.74
601.59	379.17
601.75	409.59
601.91	451.72
602.06	421.30
602.22	451.72
602.37	367.46
602.53	397.89
602.69	433.00
602.84	470.45
603.00	430.66
603.16	475.13
603.31	435.34
603.47	386.19
603.62	465.77
603.78	390.87
603.94	421.30
604.09	386.19
604.25	425.98
604.40	472.79
604.56	421.30
604.71	425.98
604.87	423.64
605.03	374.49
605.18	386.19
605.34	442.36
605.49	421.30
605.65	409.59
605.80	400.23
605.96	414.27
606.12	409.59
606.27	397.89
606.43	414.27
606.58	400.23
606.74	386.19
606.89	360.44
607.05	416.62
607.20	475.13
607.36	383.85
607.51	428.32
607.67	451.72
607.82	411.93
607.98	430.66
608.13	409.59
608.29	386.19
608.44	472.79
608.60	404.91
608.75	470.45
608.91	444.70
609.06	322.99
609.22	322.99
609.37	430.66
609.53	358.10
609.68	433.00
609.84	346.40
609.99	402.57
610.15	409.59
