SpectraSuite Data File
++++++++++++++++++++++++++++++++++++
Date: Fri Oct 25 12:11:10 EDT 2013
User: price-jones
Dark Spectrum Present: No
Reference Spectrum Present: No
Number of Sampled Component Spectra: 1
Spectrometers: USB2+H05261
Integration Time (usec): 100000 (USB2+H05261)
Spectra Averaged: 1 (USB2+H05261)
Boxcar Smoothing: 0 (USB2+H05261)
Correct for Electrical Dark: No (USB2+H05261)
Strobe/Lamp Enabled: No (USB2+H05261)
Correct for Detector Non-linearity: No (USB2+H05261)
Correct for Stray Light: No (USB2+H05261)
Number of Pixels in Processed Spectrum: 2048
>>>>>Begin Processed Spectral Data<<<<<
365.73	325.33
365.92	325.33
366.12	325.33
366.32	224.69
366.52	271.50
366.72	269.16
366.91	198.95
367.11	220.01
367.31	236.39
367.51	201.29
367.70	262.14
367.90	262.14
368.10	287.89
368.30	210.65
368.49	227.03
368.69	294.91
368.89	248.10
369.09	252.78
369.28	262.14
369.48	285.55
369.68	255.12
369.87	372.15
370.07	367.46
370.27	308.95
370.47	301.93
370.66	301.93
370.86	367.46
371.06	386.19
371.25	400.23
371.45	402.57
371.65	416.62
371.84	351.08
372.04	311.29
372.24	428.32
372.44	435.34
372.63	376.83
372.83	404.91
373.03	440.02
373.22	404.91
373.42	433.00
373.62	341.72
373.81	447.04
374.01	379.17
374.21	430.66
374.40	442.36
374.60	430.66
374.79	461.09
374.99	475.13
375.19	421.30
375.38	414.27
375.58	444.70
375.78	440.02
375.97	421.30
376.17	458.74
376.37	358.10
376.56	449.38
376.76	400.23
376.95	418.96
377.15	489.17
377.35	449.38
377.54	402.57
377.74	365.12
377.93	411.93
378.13	402.57
378.33	395.55
378.52	414.27
378.72	447.04
378.91	416.62
379.11	428.32
379.31	395.55
379.50	421.30
379.70	407.25
379.89	388.53
380.09	348.74
380.28	430.66
380.48	435.34
380.68	472.79
380.87	383.85
381.07	355.76
381.26	451.72
381.46	393.21
381.65	393.21
381.85	379.17
382.04	404.91
382.24	400.23
382.43	433.00
382.63	437.68
382.83	365.12
383.02	351.08
383.22	449.38
383.41	383.85
383.61	451.72
383.80	433.00
384.00	428.32
384.19	449.38
384.39	358.10
384.58	362.78
384.78	367.46
384.97	475.13
385.17	421.30
385.36	397.89
385.56	458.74
385.75	365.12
385.95	409.59
386.14	482.15
386.34	447.04
386.53	372.15
386.72	334.70
386.92	416.62
387.11	418.96
387.31	400.23
387.50	383.85
387.70	393.21
387.89	409.59
388.09	451.72
388.28	400.23
388.48	400.23
388.67	484.49
388.86	411.93
389.06	355.76
389.25	381.51
389.45	447.04
389.64	414.27
389.84	440.02
390.03	397.89
390.22	376.83
390.42	442.36
390.61	404.91
390.81	306.61
391.00	433.00
391.19	421.30
391.39	402.57
391.58	444.70
391.78	383.85
391.97	468.11
392.16	386.19
392.36	376.83
392.55	512.58
392.75	395.55
392.94	360.44
393.13	423.64
393.33	418.96
393.52	444.70
393.71	472.79
393.91	404.91
394.10	362.78
394.29	407.25
394.49	379.17
394.68	414.27
394.88	360.44
395.07	409.59
395.26	418.96
395.46	458.74
395.65	430.66
395.84	404.91
396.04	425.98
396.23	444.70
396.42	416.62
396.62	414.27
396.81	444.70
397.00	414.27
397.19	418.96
397.39	475.13
397.58	395.55
397.77	411.93
397.97	411.93
398.16	411.93
398.35	416.62
398.55	393.21
398.74	358.10
398.93	346.40
399.12	369.80
399.32	463.43
399.51	404.91
399.70	418.96
399.90	409.59
400.09	433.00
400.28	381.51
400.47	358.10
400.67	433.00
400.86	393.21
401.05	376.83
401.24	379.17
401.44	402.57
401.63	442.36
401.82	411.93
402.01	388.53
402.21	409.59
402.40	355.76
402.59	442.36
402.78	381.51
402.97	423.64
403.17	463.43
403.36	367.46
403.55	411.93
403.74	327.68
403.93	379.17
404.13	421.30
404.32	411.93
404.51	428.32
404.70	411.93
404.89	404.91
405.09	454.06
405.28	397.89
405.47	397.89
405.66	355.76
405.85	433.00
406.05	442.36
406.24	360.44
406.43	372.15
406.62	369.80
406.81	479.81
407.00	491.51
407.20	416.62
407.39	454.06
407.58	416.62
407.77	404.91
407.96	402.57
408.15	477.47
408.34	407.25
408.54	416.62
408.73	463.43
408.92	402.57
409.11	407.25
409.30	404.91
409.49	402.57
409.68	365.12
409.87	437.68
410.07	362.78
410.26	437.68
410.45	388.53
410.64	379.17
410.83	423.64
411.02	339.38
411.21	440.02
411.40	442.36
411.59	458.74
411.78	386.19
411.98	472.79
412.17	383.85
412.36	404.91
412.55	374.49
412.74	428.32
412.93	404.91
413.12	306.61
413.31	468.11
413.50	400.23
413.69	428.32
413.88	425.98
414.07	440.02
414.26	454.06
414.45	374.49
414.64	416.62
414.83	430.66
415.02	386.19
415.22	332.36
415.41	496.19
415.60	395.55
415.79	451.72
415.98	435.34
416.17	400.23
416.36	400.23
416.55	320.65
416.74	411.93
416.93	388.53
417.12	458.74
417.31	407.25
417.50	393.21
417.69	489.17
417.88	496.19
418.07	388.53
418.26	376.83
418.45	442.36
418.64	435.34
418.83	348.74
419.02	421.30
419.21	461.09
419.39	433.00
419.58	395.55
419.77	428.32
419.96	402.57
420.15	416.62
420.34	409.59
420.53	425.98
420.72	421.30
420.91	418.96
421.10	470.45
421.29	456.40
421.48	430.66
421.67	486.83
421.86	376.83
422.05	470.45
422.24	367.46
422.43	440.02
422.61	425.98
422.80	388.53
422.99	449.38
423.18	400.23
423.37	423.64
423.56	430.66
423.75	470.45
423.94	404.91
424.13	463.43
424.32	458.74
424.50	381.51
424.69	444.70
424.88	407.25
425.07	449.38
425.26	423.64
425.45	414.27
425.64	360.44
425.83	379.17
426.01	440.02
426.20	344.06
426.39	379.17
426.58	348.74
426.77	440.02
426.96	463.43
427.15	433.00
427.33	365.12
427.52	465.77
427.71	472.79
427.90	475.13
428.09	416.62
428.28	442.36
428.46	416.62
428.65	442.36
428.84	369.80
429.03	390.87
429.22	428.32
429.40	369.80
429.59	355.76
429.78	414.27
429.97	423.64
430.16	376.83
430.34	404.91
430.53	449.38
430.72	437.68
430.91	468.11
431.10	383.85
431.28	365.12
431.47	383.85
431.66	411.93
431.85	393.21
432.03	362.78
432.22	451.72
432.41	362.78
432.60	362.78
432.79	374.49
432.97	367.46
433.16	447.04
433.35	463.43
433.54	444.70
433.72	409.59
433.91	418.96
434.10	362.78
434.28	461.09
434.47	381.51
434.66	468.11
434.85	503.22
435.03	400.23
435.22	411.93
435.41	493.85
435.59	383.85
435.78	386.19
435.97	414.27
436.16	477.47
436.34	351.08
436.53	456.40
436.72	468.11
436.90	402.57
437.09	433.00
437.28	407.25
437.46	397.89
437.65	400.23
437.84	376.83
438.02	484.49
438.21	425.98
438.40	435.34
438.58	393.21
438.77	381.51
438.96	402.57
439.14	449.38
439.33	514.92
439.52	388.53
439.70	475.13
439.89	435.34
440.08	418.96
440.26	435.34
440.45	388.53
440.63	390.87
440.82	421.30
441.01	482.15
441.19	423.64
441.38	433.00
441.57	463.43
441.75	416.62
441.94	435.34
442.12	372.15
442.31	435.34
442.50	418.96
442.68	386.19
442.87	372.15
443.05	374.49
443.24	428.32
443.43	397.89
443.61	346.40
443.80	376.83
443.98	404.91
444.17	393.21
444.35	414.27
444.54	383.85
444.73	341.72
444.91	535.98
445.10	465.77
445.28	365.12
445.47	414.27
445.65	421.30
445.84	461.09
446.02	407.25
446.21	351.08
446.39	393.21
446.58	395.55
446.77	449.38
446.95	442.36
447.14	407.25
447.32	435.34
447.51	447.04
447.69	397.89
447.88	367.46
448.06	409.59
448.25	383.85
448.43	381.51
448.62	428.32
448.80	383.85
448.99	341.72
449.17	339.38
449.36	435.34
449.54	435.34
449.73	416.62
449.91	461.09
450.10	414.27
450.28	456.40
450.46	533.64
450.65	423.64
450.83	367.46
451.02	390.87
451.20	404.91
451.39	402.57
451.57	428.32
451.76	447.04
451.94	425.98
452.13	379.17
452.31	411.93
452.49	379.17
452.68	447.04
452.86	383.85
453.05	449.38
453.23	435.34
453.42	381.51
453.60	421.30
453.78	461.09
453.97	402.57
454.15	369.80
454.34	411.93
454.52	458.74
454.70	409.59
454.89	418.96
455.07	351.08
455.26	397.89
455.44	461.09
455.62	353.42
455.81	442.36
455.99	437.68
456.17	416.62
456.36	379.17
456.54	468.11
456.73	421.30
456.91	374.49
457.09	454.06
457.28	451.72
457.46	447.04
457.64	390.87
457.83	440.02
458.01	404.91
458.19	442.36
458.38	461.09
458.56	374.49
458.74	421.30
458.93	454.06
459.11	404.91
459.29	369.80
459.48	367.46
459.66	395.55
459.84	475.13
460.03	475.13
460.21	414.27
460.39	468.11
460.57	433.00
460.76	390.87
460.94	402.57
461.12	458.74
461.31	475.13
461.49	395.55
461.67	379.17
461.85	468.11
462.04	367.46
462.22	748.97
462.40	428.32
462.59	430.66
462.77	503.22
462.95	362.78
463.13	449.38
463.32	430.66
463.50	409.59
463.68	461.09
463.86	397.89
464.05	454.06
464.23	433.00
464.41	444.70
464.59	418.96
464.78	425.98
464.96	383.85
465.14	395.55
465.32	332.36
465.50	376.83
465.69	367.46
465.87	458.74
466.05	367.46
466.23	358.10
466.41	414.27
466.60	447.04
466.78	428.32
466.96	409.59
467.14	442.36
467.32	397.89
467.51	430.66
467.69	458.74
467.87	423.64
468.05	425.98
468.23	475.13
468.41	400.23
468.60	418.96
468.78	411.93
468.96	465.77
469.14	369.80
469.32	362.78
469.50	428.32
469.69	449.38
469.87	447.04
470.05	454.06
470.23	372.15
470.41	355.76
470.59	409.59
470.77	430.66
470.95	447.04
471.14	397.89
471.32	472.79
471.50	477.47
471.68	379.17
471.86	470.45
472.04	411.93
472.22	374.49
472.40	337.04
472.58	465.77
472.77	482.15
472.95	400.23
473.13	491.51
473.31	411.93
473.49	407.25
473.67	416.62
473.85	454.06
474.03	395.55
474.21	437.68
474.39	472.79
474.57	486.83
474.75	393.21
474.93	414.27
475.12	341.72
475.30	411.93
475.48	416.62
475.66	416.62
475.84	407.25
476.02	423.64
476.20	425.98
476.38	421.30
476.56	498.53
476.74	390.87
476.92	360.44
477.10	440.02
477.28	454.06
477.46	425.98
477.64	442.36
477.82	421.30
478.00	456.40
478.18	381.51
478.36	395.55
478.54	451.72
478.72	437.68
478.90	463.43
479.08	454.06
479.26	468.11
479.44	454.06
479.62	367.46
479.80	458.74
479.98	376.83
480.16	449.38
480.34	418.96
480.52	369.80
480.70	456.40
480.88	416.62
481.06	402.57
481.24	447.04
481.41	411.93
481.59	365.12
481.77	402.57
481.95	418.96
482.13	442.36
482.31	463.43
482.49	458.74
482.67	456.40
482.85	369.80
483.03	407.25
483.21	491.51
483.39	397.89
483.57	390.87
483.74	503.22
483.92	442.36
484.10	376.83
484.28	374.49
484.46	355.76
484.64	376.83
484.82	337.04
485.00	365.12
485.18	383.85
485.35	355.76
485.53	355.76
485.71	376.83
485.89	421.30
486.07	461.09
486.25	491.51
486.43	454.06
486.61	421.30
486.78	456.40
486.96	442.36
487.14	374.49
487.32	409.59
487.50	418.96
487.68	465.77
487.85	428.32
488.03	454.06
488.21	397.89
488.39	470.45
488.57	395.55
488.75	447.04
488.92	519.60
489.10	390.87
489.28	409.59
489.46	386.19
489.64	379.17
489.81	449.38
489.99	526.62
490.17	386.19
490.35	421.30
490.53	414.27
490.70	435.34
490.88	470.45
491.06	348.74
491.24	395.55
491.41	414.27
491.59	433.00
491.77	374.49
491.95	425.98
492.13	414.27
492.30	449.38
492.48	315.97
492.66	479.81
492.84	407.25
493.01	442.36
493.19	425.98
493.37	461.09
493.54	465.77
493.72	404.91
493.90	421.30
494.08	372.15
494.25	322.99
494.43	386.19
494.61	411.93
494.79	397.89
494.96	388.53
495.14	463.43
495.32	397.89
495.49	407.25
495.67	351.08
495.85	430.66
496.02	463.43
496.20	430.66
496.38	440.02
496.55	416.62
496.73	428.32
496.91	404.91
497.09	425.98
497.26	409.59
497.44	383.85
497.62	440.02
497.79	440.02
497.97	397.89
498.14	339.38
498.32	425.98
498.50	425.98
498.67	372.15
498.85	447.04
499.03	430.66
499.20	461.09
499.38	418.96
499.56	407.25
499.73	421.30
499.91	416.62
500.08	428.32
500.26	397.89
500.44	402.57
500.61	447.04
500.79	383.85
500.97	521.94
501.14	430.66
501.32	465.77
501.49	404.91
501.67	362.78
501.84	458.74
502.02	433.00
502.20	482.15
502.37	421.30
502.55	425.98
502.72	409.59
502.90	374.49
503.07	407.25
503.25	411.93
503.43	337.04
503.60	407.25
503.78	454.06
503.95	484.49
504.13	435.34
504.30	470.45
504.48	475.13
504.65	444.70
504.83	393.21
505.01	322.99
505.18	383.85
505.36	425.98
505.53	418.96
505.71	383.85
505.88	472.79
506.06	374.49
506.23	367.46
506.41	411.93
506.58	456.40
506.76	433.00
506.93	407.25
507.11	472.79
507.28	367.46
507.46	372.15
507.63	379.17
507.81	486.83
507.98	414.27
508.16	407.25
508.33	423.64
508.50	477.47
508.68	416.62
508.85	367.46
509.03	381.51
509.20	437.68
509.38	365.12
509.55	477.47
509.73	444.70
509.90	442.36
510.08	400.23
510.25	456.40
510.42	318.31
510.60	421.30
510.77	442.36
510.95	416.62
511.12	374.49
511.30	411.93
511.47	402.57
511.64	461.09
511.82	400.23
511.99	397.89
512.17	376.83
512.34	379.17
512.51	388.53
512.69	379.17
512.86	362.78
513.04	376.83
513.21	447.04
513.38	358.10
513.56	397.89
513.73	440.02
513.90	435.34
514.08	435.34
514.25	444.70
514.43	433.00
514.60	425.98
514.77	353.42
514.95	374.49
515.12	437.68
515.29	475.13
515.47	433.00
515.64	454.06
515.81	458.74
515.99	458.74
516.16	423.64
516.33	397.89
516.51	433.00
516.68	411.93
516.85	416.62
517.03	360.44
517.20	372.15
517.37	498.53
517.54	440.02
517.72	489.17
517.89	390.87
518.06	386.19
518.24	411.93
518.41	463.43
518.58	367.46
518.75	376.83
518.93	379.17
519.10	423.64
519.27	421.30
519.45	348.74
519.62	414.27
519.79	372.15
519.96	322.99
520.14	332.36
520.31	416.62
520.48	444.70
520.65	447.04
520.83	461.09
521.00	402.57
521.17	423.64
521.34	407.25
521.52	365.12
521.69	423.64
521.86	477.47
522.03	442.36
522.20	442.36
522.38	400.23
522.55	442.36
522.72	440.02
522.89	423.64
523.07	428.32
523.24	411.93
523.41	435.34
523.58	395.55
523.75	475.13
523.92	430.66
524.10	418.96
524.27	418.96
524.44	404.91
524.61	535.98
524.78	423.64
524.96	421.30
525.13	425.98
525.30	418.96
525.47	402.57
525.64	397.89
525.81	365.12
525.98	451.72
526.16	449.38
526.33	418.96
526.50	421.30
526.67	379.17
526.84	409.59
527.01	414.27
527.18	447.04
527.36	379.17
527.53	421.30
527.70	437.68
527.87	351.08
528.04	425.98
528.21	395.55
528.38	428.32
528.55	440.02
528.72	484.49
528.89	447.04
529.07	409.59
529.24	374.49
529.41	486.83
529.58	409.59
529.75	449.38
529.92	395.55
530.09	386.19
530.26	451.72
530.43	451.72
530.60	440.02
530.77	433.00
530.94	472.79
531.11	498.53
531.28	402.57
531.46	362.78
531.63	444.70
531.80	409.59
531.97	358.10
532.14	397.89
532.31	433.00
532.48	418.96
532.65	456.40
532.82	416.62
532.99	383.85
533.16	451.72
533.33	447.04
533.50	383.85
533.67	397.89
533.84	440.02
534.01	404.91
534.18	442.36
534.35	379.17
534.52	414.27
534.69	421.30
534.86	402.57
535.03	414.27
535.20	416.62
535.37	440.02
535.54	454.06
535.71	367.46
535.88	449.38
536.05	440.02
536.22	463.43
536.38	407.25
536.55	365.12
536.72	461.09
536.89	390.87
537.06	418.96
537.23	381.51
537.40	470.45
537.57	435.34
537.74	482.15
537.91	500.87
538.08	433.00
538.25	379.17
538.42	402.57
538.59	444.70
538.75	442.36
538.92	444.70
539.09	388.53
539.26	379.17
539.43	421.30
539.60	482.15
539.77	482.15
539.94	425.98
540.11	449.38
540.28	386.19
540.44	454.06
540.61	435.34
540.78	381.51
540.95	376.83
541.12	390.87
541.29	472.79
541.46	344.06
541.62	360.44
541.79	390.87
541.96	423.64
542.13	414.27
542.30	379.17
542.47	463.43
542.63	435.34
542.80	374.49
542.97	484.49
543.14	395.55
543.31	390.87
543.48	411.93
543.64	360.44
543.81	386.19
543.98	423.64
544.15	348.74
544.32	435.34
544.48	393.21
544.65	414.27
544.82	500.87
544.99	454.06
545.16	365.12
545.32	458.74
545.49	458.74
545.66	414.27
545.83	400.23
546.00	411.93
546.16	348.74
546.33	411.93
546.50	451.72
546.67	374.49
546.83	479.81
547.00	301.93
547.17	404.91
547.34	468.11
547.50	409.59
547.67	470.45
547.84	435.34
548.00	451.72
548.17	407.25
548.34	360.44
548.51	470.45
548.67	465.77
548.84	433.00
549.01	442.36
549.18	428.32
549.34	414.27
549.51	470.45
549.68	407.25
549.84	437.68
550.01	386.19
550.18	451.72
550.34	454.06
550.51	435.34
550.68	514.92
550.84	416.62
551.01	484.49
551.18	402.57
551.34	393.21
551.51	414.27
551.68	407.25
551.84	479.81
552.01	454.06
552.18	449.38
552.34	390.87
552.51	425.98
552.68	486.83
552.84	362.78
553.01	416.62
553.18	477.47
553.34	372.15
553.51	404.91
553.67	447.04
553.84	425.98
554.01	458.74
554.17	425.98
554.34	503.22
554.51	482.15
554.67	437.68
554.84	461.09
555.00	428.32
555.17	447.04
555.33	458.74
555.50	423.64
555.67	465.77
555.83	442.36
556.00	409.59
556.16	486.83
556.33	437.68
556.50	435.34
556.66	463.43
556.83	414.27
556.99	395.55
557.16	414.27
557.32	449.38
557.49	341.72
557.65	388.53
557.82	465.77
557.98	440.02
558.15	456.40
558.32	468.11
558.48	458.74
558.65	411.93
558.81	428.32
558.98	416.62
559.14	409.59
559.31	449.38
559.47	479.81
559.64	463.43
559.80	442.36
559.97	416.62
560.13	447.04
560.30	390.87
560.46	404.91
560.63	395.55
560.79	482.15
560.96	447.04
561.12	351.08
561.29	367.46
561.45	458.74
561.61	423.64
561.78	428.32
561.94	440.02
562.11	442.36
562.27	409.59
562.44	430.66
562.60	444.70
562.77	411.93
562.93	430.66
563.10	444.70
563.26	435.34
563.42	454.06
563.59	393.21
563.75	369.80
563.92	440.02
564.08	456.40
564.24	386.19
564.41	526.62
564.57	477.47
564.74	482.15
564.90	470.45
565.07	418.96
565.23	395.55
565.39	489.17
565.56	372.15
565.72	400.23
565.88	421.30
566.05	456.40
566.21	430.66
566.38	409.59
566.54	428.32
566.70	475.13
566.87	393.21
567.03	440.02
567.19	407.25
567.36	428.32
567.52	428.32
567.68	402.57
567.85	397.89
568.01	402.57
568.17	372.15
568.34	353.42
568.50	416.62
568.66	458.74
568.83	533.64
568.99	416.62
569.15	421.30
569.32	402.57
569.48	447.04
569.64	393.21
569.81	493.85
569.97	372.15
570.13	449.38
570.30	442.36
570.46	383.85
570.62	379.17
570.78	444.70
570.95	388.53
571.11	402.57
571.27	484.49
571.43	451.72
571.60	374.49
571.76	430.66
571.92	418.96
572.09	395.55
572.25	402.57
572.41	440.02
572.57	367.46
572.74	421.30
572.90	458.74
573.06	423.64
573.22	517.26
573.38	400.23
573.55	402.57
573.71	346.40
573.87	409.59
574.03	397.89
574.20	428.32
574.36	447.04
574.52	397.89
574.68	411.93
574.84	449.38
575.01	447.04
575.17	444.70
575.33	423.64
575.49	517.26
575.65	458.74
575.82	383.85
575.98	411.93
576.14	355.76
576.30	390.87
576.46	479.81
576.62	397.89
576.79	433.00
576.95	411.93
577.11	376.83
577.27	411.93
577.43	397.89
577.59	461.09
577.75	498.53
577.92	402.57
578.08	430.66
578.24	414.27
578.40	470.45
578.56	411.93
578.72	430.66
578.88	477.47
579.04	451.72
579.21	379.17
579.37	407.25
579.53	409.59
579.69	395.55
579.85	353.42
580.01	423.64
580.17	447.04
580.33	407.25
580.49	404.91
580.65	479.81
580.82	365.12
580.98	449.38
581.14	402.57
581.30	428.32
581.46	411.93
581.62	451.72
581.78	423.64
581.94	388.53
582.10	409.59
582.26	489.17
582.42	444.70
582.58	397.89
582.74	409.59
582.90	435.34
583.06	447.04
583.22	454.06
583.38	444.70
583.54	383.85
583.70	444.70
583.86	440.02
584.02	423.64
584.18	479.81
584.34	383.85
584.50	416.62
584.66	341.72
584.82	404.91
584.98	425.98
585.14	454.06
585.30	381.51
585.46	313.63
585.62	386.19
585.78	411.93
585.94	425.98
586.10	472.79
586.26	440.02
586.42	400.23
586.58	416.62
586.74	414.27
586.90	491.51
587.06	372.15
587.22	407.25
587.38	435.34
587.54	456.40
587.70	468.11
587.86	353.42
588.02	440.02
588.18	362.78
588.34	395.55
588.49	423.64
588.65	461.09
588.81	454.06
588.97	388.53
589.13	472.79
589.29	451.72
589.45	430.66
589.61	425.98
589.77	409.59
589.93	397.89
590.08	428.32
590.24	418.96
590.40	435.34
590.56	397.89
590.72	388.53
590.88	468.11
591.04	458.74
591.20	461.09
591.35	482.15
591.51	451.72
591.67	463.43
591.83	472.79
591.99	456.40
592.15	388.53
592.31	367.46
592.46	456.40
592.62	372.15
592.78	395.55
592.94	400.23
593.10	376.83
593.26	369.80
593.41	376.83
593.57	458.74
593.73	470.45
593.89	456.40
594.05	479.81
594.20	468.11
594.36	451.72
594.52	449.38
594.68	386.19
594.84	374.49
594.99	461.09
595.15	489.17
595.31	493.85
595.47	458.74
595.62	402.57
595.78	404.91
595.94	353.42
596.10	437.68
596.25	444.70
596.41	346.40
596.57	437.68
596.73	402.57
596.88	416.62
597.04	369.80
597.20	458.74
597.36	379.17
597.51	379.17
597.67	468.11
597.83	411.93
597.99	425.98
598.14	447.04
598.30	449.38
598.46	425.98
598.61	407.25
598.77	423.64
598.93	376.83
599.09	379.17
599.24	437.68
599.40	465.77
599.56	383.85
599.71	447.04
599.87	475.13
600.03	442.36
600.18	435.34
600.34	554.71
600.50	421.30
600.65	376.83
600.81	400.23
600.97	416.62
601.12	475.13
601.28	425.98
601.44	416.62
601.59	440.02
601.75	400.23
601.91	365.12
602.06	388.53
602.22	458.74
602.37	397.89
602.53	418.96
602.69	339.38
602.84	421.30
603.00	411.93
603.16	435.34
603.31	390.87
603.47	498.53
603.62	435.34
603.78	484.49
603.94	404.91
604.09	397.89
604.25	404.91
604.40	400.23
604.56	442.36
604.71	404.91
604.87	458.74
605.03	409.59
605.18	435.34
605.34	528.96
605.49	416.62
605.65	416.62
605.80	381.51
605.96	416.62
606.12	388.53
606.27	425.98
606.43	423.64
606.58	440.02
606.74	479.81
606.89	400.23
607.05	346.40
607.20	409.59
607.36	430.66
607.51	444.70
607.67	454.06
607.82	433.00
607.98	428.32
608.13	484.49
608.29	463.43
608.44	447.04
608.60	472.79
608.75	421.30
608.91	430.66
609.06	404.91
609.22	423.64
609.37	496.19
609.53	390.87
609.68	402.57
609.84	376.83
609.99	425.98
610.15	458.74
