SpectraSuite Data File
++++++++++++++++++++++++++++++++++++
Date: Fri Oct 25 12:10:33 EDT 2013
User: price-jones
Dark Spectrum Present: No
Reference Spectrum Present: No
Number of Sampled Component Spectra: 1
Spectrometers: USB2+H05261
Integration Time (usec): 100000 (USB2+H05261)
Spectra Averaged: 1 (USB2+H05261)
Boxcar Smoothing: 0 (USB2+H05261)
Correct for Electrical Dark: No (USB2+H05261)
Strobe/Lamp Enabled: No (USB2+H05261)
Correct for Detector Non-linearity: No (USB2+H05261)
Correct for Stray Light: No (USB2+H05261)
Number of Pixels in Processed Spectrum: 2048
>>>>>Begin Processed Spectral Data<<<<<
365.73	362.78
365.92	362.78
366.12	362.78
366.32	220.01
366.52	252.78
366.72	210.65
366.91	149.79
367.11	276.18
367.31	231.71
367.51	248.10
367.70	227.03
367.90	360.44
368.10	245.76
368.30	205.97
368.49	248.10
368.69	222.35
368.89	255.12
369.09	283.20
369.28	301.93
369.48	243.42
369.68	264.48
369.87	322.99
370.07	332.36
370.27	320.65
370.47	360.44
370.66	276.18
370.86	346.40
371.06	379.17
371.25	400.23
371.45	397.89
371.65	397.89
371.84	344.06
372.04	423.64
372.24	423.64
372.44	411.93
372.63	484.49
372.83	463.43
373.03	428.32
373.22	362.78
373.42	337.04
373.62	421.30
373.81	383.85
374.01	496.19
374.21	416.62
374.40	451.72
374.60	393.21
374.79	407.25
374.99	386.19
375.19	456.40
375.38	393.21
375.58	404.91
375.78	521.94
375.97	423.64
376.17	425.98
376.37	379.17
376.56	425.98
376.76	449.38
376.95	386.19
377.15	418.96
377.35	418.96
377.54	367.46
377.74	388.53
377.93	400.23
378.13	397.89
378.33	472.79
378.52	348.74
378.72	367.46
378.91	383.85
379.11	437.68
379.31	433.00
379.50	390.87
379.70	430.66
379.89	458.74
380.09	339.38
380.28	325.33
380.48	407.25
380.68	388.53
380.87	435.34
381.07	428.32
381.26	461.09
381.46	447.04
381.65	444.70
381.85	421.30
382.04	395.55
382.24	390.87
382.43	348.74
382.63	411.93
382.83	414.27
383.02	351.08
383.22	395.55
383.41	400.23
383.61	355.76
383.80	503.22
384.00	367.46
384.19	393.21
384.39	402.57
384.58	334.70
384.78	390.87
384.97	402.57
385.17	433.00
385.36	374.49
385.56	346.40
385.75	376.83
385.95	395.55
386.14	444.70
386.34	440.02
386.53	477.47
386.72	423.64
386.92	442.36
387.11	395.55
387.31	390.87
387.50	425.98
387.70	393.21
387.89	468.11
388.09	344.06
388.28	355.76
388.48	351.08
388.67	418.96
388.86	304.27
389.06	379.17
389.25	428.32
389.45	376.83
389.64	393.21
389.84	437.68
390.03	390.87
390.22	379.17
390.42	428.32
390.61	416.62
390.81	365.12
391.00	393.21
391.19	447.04
391.39	437.68
391.58	393.21
391.78	330.02
391.97	472.79
392.16	447.04
392.36	397.89
392.55	400.23
392.75	458.74
392.94	444.70
393.13	348.74
393.33	411.93
393.52	390.87
393.71	451.72
393.91	414.27
394.10	451.72
394.29	381.51
394.49	468.11
394.68	404.91
394.88	411.93
395.07	400.23
395.26	332.36
395.46	404.91
395.65	407.25
395.84	411.93
396.04	404.91
396.23	489.17
396.42	376.83
396.62	416.62
396.81	409.59
397.00	407.25
397.19	411.93
397.39	437.68
397.58	418.96
397.77	393.21
397.97	327.68
398.16	386.19
398.35	400.23
398.55	402.57
398.74	346.40
398.93	456.40
399.12	416.62
399.32	411.93
399.51	390.87
399.70	404.91
399.90	418.96
400.09	393.21
400.28	458.74
400.47	435.34
400.67	411.93
400.86	425.98
401.05	397.89
401.24	449.38
401.44	444.70
401.63	482.15
401.82	418.96
402.01	386.19
402.21	395.55
402.40	362.78
402.59	330.02
402.78	400.23
402.97	425.98
403.17	435.34
403.36	374.49
403.55	435.34
403.74	456.40
403.93	472.79
404.13	430.66
404.32	477.47
404.51	351.08
404.70	390.87
404.89	367.46
405.09	437.68
405.28	379.17
405.47	390.87
405.66	402.57
405.85	451.72
406.05	379.17
406.24	430.66
406.43	383.85
406.62	440.02
406.81	425.98
407.00	411.93
407.20	463.43
407.39	376.83
407.58	376.83
407.77	395.55
407.96	435.34
408.15	379.17
408.34	440.02
408.54	458.74
408.73	484.49
408.92	402.57
409.11	393.21
409.30	416.62
409.49	390.87
409.68	414.27
409.87	390.87
410.07	379.17
410.26	404.91
410.45	369.80
410.64	456.40
410.83	423.64
411.02	423.64
411.21	447.04
411.40	404.91
411.59	397.89
411.78	437.68
411.98	393.21
412.17	390.87
412.36	430.66
412.55	416.62
412.74	374.49
412.93	470.45
413.12	388.53
413.31	386.19
413.50	423.64
413.69	372.15
413.88	381.51
414.07	402.57
414.26	404.91
414.45	381.51
414.64	418.96
414.83	404.91
415.02	374.49
415.22	491.51
415.41	421.30
415.60	388.53
415.79	383.85
415.98	442.36
416.17	397.89
416.36	437.68
416.55	482.15
416.74	381.51
416.93	442.36
417.12	451.72
417.31	418.96
417.50	404.91
417.69	407.25
417.88	409.59
418.07	381.51
418.26	397.89
418.45	414.27
418.64	468.11
418.83	489.17
419.02	423.64
419.21	425.98
419.39	442.36
419.58	409.59
419.77	402.57
419.96	393.21
420.15	421.30
420.34	407.25
420.53	381.51
420.72	372.15
420.91	414.27
421.10	411.93
421.29	425.98
421.48	454.06
421.67	444.70
421.86	367.46
422.05	418.96
422.24	428.32
422.43	440.02
422.61	433.00
422.80	393.21
422.99	435.34
423.18	442.36
423.37	526.62
423.56	435.34
423.75	386.19
423.94	416.62
424.13	407.25
424.32	393.21
424.50	402.57
424.69	372.15
424.88	367.46
425.07	470.45
425.26	461.09
425.45	479.81
425.64	449.38
425.83	390.87
426.01	393.21
426.20	404.91
426.39	388.53
426.58	404.91
426.77	428.32
426.96	409.59
427.15	421.30
427.33	400.23
427.52	358.10
427.71	472.79
427.90	435.34
428.09	423.64
428.28	428.32
428.46	379.17
428.65	418.96
428.84	386.19
429.03	444.70
429.22	344.06
429.40	444.70
429.59	397.89
429.78	383.85
429.97	447.04
430.16	390.87
430.34	407.25
430.53	468.11
430.72	390.87
430.91	407.25
431.10	430.66
431.28	447.04
431.47	472.79
431.66	470.45
431.85	416.62
432.03	381.51
432.22	433.00
432.41	444.70
432.60	437.68
432.79	376.83
432.97	390.87
433.16	390.87
433.35	407.25
433.54	285.55
433.72	409.59
433.91	428.32
434.10	346.40
434.28	421.30
434.47	482.15
434.66	388.53
434.85	425.98
435.03	416.62
435.22	465.77
435.41	468.11
435.59	367.46
435.78	468.11
435.97	435.34
436.16	425.98
436.34	393.21
436.53	477.47
436.72	484.49
436.90	505.56
437.09	379.17
437.28	447.04
437.46	404.91
437.65	423.64
437.84	437.68
438.02	475.13
438.21	491.51
438.40	428.32
438.58	339.38
438.77	397.89
438.96	379.17
439.14	407.25
439.33	402.57
439.52	341.72
439.70	430.66
439.89	407.25
440.08	435.34
440.26	383.85
440.45	386.19
440.63	390.87
440.82	442.36
441.01	409.59
441.19	358.10
441.38	367.46
441.57	348.74
441.75	414.27
441.94	430.66
442.12	393.21
442.31	407.25
442.50	468.11
442.68	428.32
442.87	440.02
443.05	416.62
443.24	390.87
443.43	400.23
443.61	397.89
443.80	435.34
443.98	390.87
444.17	423.64
444.35	400.23
444.54	360.44
444.73	388.53
444.91	400.23
445.10	395.55
445.28	456.40
445.47	477.47
445.65	423.64
445.84	440.02
446.02	388.53
446.21	458.74
446.39	458.74
446.58	449.38
446.77	395.55
446.95	444.70
447.14	383.85
447.32	493.85
447.51	390.87
447.69	402.57
447.88	367.46
448.06	430.66
448.25	397.89
448.43	402.57
448.62	451.72
448.80	386.19
448.99	531.30
449.17	395.55
449.36	360.44
449.54	456.40
449.73	369.80
449.91	482.15
450.10	414.27
450.28	435.34
450.46	505.56
450.65	461.09
450.83	372.15
451.02	341.72
451.20	402.57
451.39	423.64
451.57	388.53
451.76	407.25
451.94	428.32
452.13	475.13
452.31	451.72
452.49	461.09
452.68	433.00
452.86	372.15
453.05	447.04
453.23	400.23
453.42	390.87
453.60	365.12
453.78	484.49
453.97	428.32
454.15	409.59
454.34	414.27
454.52	423.64
454.70	418.96
454.89	365.12
455.07	341.72
455.26	437.68
455.44	327.68
455.62	395.55
455.81	393.21
455.99	386.19
456.17	390.87
456.36	472.79
456.54	465.77
456.73	423.64
456.91	393.21
457.09	381.51
457.28	409.59
457.46	435.34
457.64	425.98
457.83	447.04
458.01	425.98
458.19	416.62
458.38	465.77
458.56	463.43
458.74	404.91
458.93	390.87
459.11	414.27
459.29	400.23
459.48	430.66
459.66	442.36
459.84	451.72
460.03	451.72
460.21	423.64
460.39	395.55
460.57	388.53
460.76	362.78
460.94	442.36
461.12	451.72
461.31	505.56
461.49	409.59
461.67	456.40
461.85	493.85
462.04	484.49
462.22	704.50
462.40	414.27
462.59	479.81
462.77	397.89
462.95	341.72
463.13	416.62
463.32	418.96
463.50	395.55
463.68	411.93
463.86	484.49
464.05	447.04
464.23	437.68
464.41	411.93
464.59	472.79
464.78	447.04
464.96	416.62
465.14	428.32
465.32	409.59
465.50	395.55
465.69	430.66
465.87	484.49
466.05	451.72
466.23	400.23
466.41	440.02
466.60	414.27
466.78	404.91
466.96	489.17
467.14	489.17
467.32	461.09
467.51	444.70
467.69	339.38
467.87	442.36
468.05	461.09
468.23	428.32
468.41	444.70
468.60	407.25
468.78	416.62
468.96	425.98
469.14	362.78
469.32	402.57
469.50	416.62
469.69	470.45
469.87	435.34
470.05	433.00
470.23	376.83
470.41	407.25
470.59	430.66
470.77	386.19
470.95	414.27
471.14	402.57
471.32	337.04
471.50	435.34
471.68	433.00
471.86	433.00
472.04	421.30
472.22	414.27
472.40	407.25
472.58	404.91
472.77	386.19
472.95	461.09
473.13	461.09
473.31	521.94
473.49	425.98
473.67	374.49
473.85	402.57
474.03	456.40
474.21	409.59
474.39	458.74
474.57	435.34
474.75	482.15
474.93	440.02
475.12	421.30
475.30	388.53
475.48	425.98
475.66	400.23
475.84	388.53
476.02	386.19
476.20	449.38
476.38	472.79
476.56	437.68
476.74	449.38
476.92	400.23
477.10	468.11
477.28	346.40
477.46	386.19
477.64	388.53
477.82	383.85
478.00	493.85
478.18	435.34
478.36	416.62
478.54	449.38
478.72	433.00
478.90	379.17
479.08	456.40
479.26	437.68
479.44	388.53
479.62	348.74
479.80	402.57
479.98	341.72
480.16	414.27
480.34	447.04
480.52	407.25
480.70	456.40
480.88	372.15
481.06	425.98
481.24	447.04
481.41	411.93
481.59	383.85
481.77	402.57
481.95	416.62
482.13	433.00
482.31	425.98
482.49	400.23
482.67	402.57
482.85	449.38
483.03	414.27
483.21	362.78
483.39	379.17
483.57	411.93
483.74	447.04
483.92	383.85
484.10	337.04
484.28	479.81
484.46	430.66
484.64	402.57
484.82	442.36
485.00	463.43
485.18	454.06
485.35	390.87
485.53	409.59
485.71	440.02
485.89	418.96
486.07	397.89
486.25	463.43
486.43	409.59
486.61	428.32
486.78	395.55
486.96	451.72
487.14	397.89
487.32	472.79
487.50	416.62
487.68	458.74
487.85	435.34
488.03	461.09
488.21	472.79
488.39	444.70
488.57	454.06
488.75	484.49
488.92	552.37
489.10	533.64
489.28	472.79
489.46	367.46
489.64	379.17
489.81	404.91
489.99	425.98
490.17	496.19
490.35	451.72
490.53	402.57
490.70	404.91
490.88	390.87
491.06	390.87
491.24	348.74
491.41	449.38
491.59	454.06
491.77	348.74
491.95	416.62
492.13	379.17
492.30	454.06
492.48	411.93
492.66	372.15
492.84	402.57
493.01	376.83
493.19	388.53
493.37	456.40
493.54	421.30
493.72	444.70
493.90	379.17
494.08	449.38
494.25	379.17
494.43	381.51
494.61	454.06
494.79	421.30
494.96	435.34
495.14	414.27
495.32	365.12
495.49	451.72
495.67	416.62
495.85	388.53
496.02	444.70
496.20	449.38
496.38	397.89
496.55	428.32
496.73	397.89
496.91	451.72
497.09	367.46
497.26	376.83
497.44	440.02
497.62	374.49
497.79	390.87
497.97	374.49
498.14	414.27
498.32	475.13
498.50	449.38
498.67	386.19
498.85	388.53
499.03	383.85
499.20	376.83
499.38	374.49
499.56	407.25
499.73	444.70
499.91	435.34
500.08	430.66
500.26	416.62
500.44	358.10
500.61	425.98
500.79	393.21
500.97	383.85
501.14	433.00
501.32	409.59
501.49	430.66
501.67	360.44
501.84	327.68
502.02	390.87
502.20	461.09
502.37	430.66
502.55	477.47
502.72	339.38
502.90	407.25
503.07	383.85
503.25	358.10
503.43	435.34
503.60	433.00
503.78	421.30
503.95	428.32
504.13	397.89
504.30	475.13
504.48	407.25
504.65	528.96
504.83	409.59
505.01	407.25
505.18	374.49
505.36	339.38
505.53	425.98
505.71	327.68
505.88	433.00
506.06	409.59
506.23	402.57
506.41	362.78
506.58	442.36
506.76	440.02
506.93	440.02
507.11	461.09
507.28	400.23
507.46	470.45
507.63	407.25
507.81	407.25
507.98	430.66
508.16	418.96
508.33	472.79
508.50	383.85
508.68	411.93
508.85	430.66
509.03	435.34
509.20	411.93
509.38	428.32
509.55	386.19
509.73	369.80
509.90	400.23
510.08	397.89
510.25	379.17
510.42	376.83
510.60	418.96
510.77	425.98
510.95	493.85
511.12	365.12
511.30	433.00
511.47	414.27
511.64	421.30
511.82	376.83
511.99	409.59
512.17	358.10
512.34	409.59
512.51	421.30
512.69	383.85
512.86	461.09
513.04	400.23
513.21	346.40
513.38	447.04
513.56	428.32
513.73	376.83
513.90	330.02
514.08	430.66
514.25	514.92
514.43	442.36
514.60	383.85
514.77	390.87
514.95	379.17
515.12	444.70
515.29	437.68
515.47	425.98
515.64	456.40
515.81	411.93
515.99	458.74
516.16	428.32
516.33	435.34
516.51	430.66
516.68	397.89
516.85	482.15
517.03	407.25
517.20	388.53
517.37	390.87
517.54	365.12
517.72	400.23
517.89	402.57
518.06	416.62
518.24	407.25
518.41	409.59
518.58	554.71
518.75	353.42
518.93	433.00
519.10	402.57
519.27	418.96
519.45	383.85
519.62	409.59
519.79	416.62
519.96	362.78
520.14	468.11
520.31	454.06
520.48	435.34
520.65	435.34
520.83	475.13
521.00	418.96
521.17	358.10
521.34	433.00
521.52	425.98
521.69	376.83
521.86	440.02
522.03	400.23
522.20	545.34
522.38	404.91
522.55	407.25
522.72	404.91
522.89	437.68
523.07	418.96
523.24	461.09
523.41	381.51
523.58	318.31
523.75	409.59
523.92	477.47
524.10	411.93
524.27	346.40
524.44	423.64
524.61	428.32
524.78	383.85
524.96	447.04
525.13	409.59
525.30	397.89
525.47	315.97
525.64	451.72
525.81	423.64
525.98	397.89
526.16	395.55
526.33	475.13
526.50	493.85
526.67	393.21
526.84	383.85
527.01	397.89
527.18	367.46
527.36	381.51
527.53	393.21
527.70	362.78
527.87	425.98
528.04	411.93
528.21	358.10
528.38	444.70
528.55	461.09
528.72	421.30
528.89	383.85
529.07	430.66
529.24	411.93
529.41	428.32
529.58	442.36
529.75	421.30
529.92	409.59
530.09	437.68
530.26	388.53
530.43	390.87
530.60	346.40
530.77	407.25
530.94	360.44
531.11	395.55
531.28	355.76
531.46	386.19
531.63	440.02
531.80	409.59
531.97	447.04
532.14	482.15
532.31	416.62
532.48	440.02
532.65	407.25
532.82	465.77
532.99	409.59
533.16	388.53
533.33	358.10
533.50	444.70
533.67	491.51
533.84	444.70
534.01	418.96
534.18	402.57
534.35	388.53
534.52	402.57
534.69	418.96
534.86	358.10
535.03	416.62
535.20	379.17
535.37	433.00
535.54	496.19
535.71	489.17
535.88	416.62
536.05	381.51
536.22	472.79
536.38	411.93
536.55	425.98
536.72	390.87
536.89	447.04
537.06	376.83
537.23	397.89
537.40	430.66
537.57	393.21
537.74	465.77
537.91	491.51
538.08	447.04
538.25	404.91
538.42	442.36
538.59	440.02
538.75	418.96
538.92	454.06
539.09	428.32
539.26	393.21
539.43	484.49
539.60	402.57
539.77	468.11
539.94	388.53
540.11	423.64
540.28	416.62
540.44	435.34
540.61	388.53
540.78	388.53
540.95	414.27
541.12	456.40
541.29	395.55
541.46	468.11
541.62	409.59
541.79	435.34
541.96	435.34
542.13	418.96
542.30	367.46
542.47	454.06
542.63	348.74
542.80	479.81
542.97	444.70
543.14	407.25
543.31	447.04
543.48	458.74
543.64	407.25
543.81	344.06
543.98	341.72
544.15	358.10
544.32	388.53
544.48	430.66
544.65	468.11
544.82	369.80
544.99	355.76
545.16	451.72
545.32	470.45
545.49	433.00
545.66	379.17
545.83	411.93
546.00	416.62
546.16	411.93
546.33	367.46
546.50	428.32
546.67	430.66
546.83	428.32
547.00	407.25
547.17	355.76
547.34	425.98
547.50	479.81
547.67	447.04
547.84	418.96
548.00	526.62
548.17	395.55
548.34	440.02
548.51	348.74
548.67	428.32
548.84	369.80
549.01	465.77
549.18	484.49
549.34	409.59
549.51	400.23
549.68	451.72
549.84	362.78
550.01	365.12
550.18	561.73
550.34	440.02
550.51	461.09
550.68	428.32
550.84	355.76
551.01	402.57
551.18	428.32
551.34	465.77
551.51	454.06
551.68	444.70
551.84	358.10
552.01	447.04
552.18	444.70
552.34	458.74
552.51	428.32
552.68	348.74
552.84	470.45
553.01	463.43
553.18	477.47
553.34	454.06
553.51	393.21
553.67	463.43
553.84	383.85
554.01	433.00
554.17	507.90
554.34	463.43
554.51	411.93
554.67	435.34
554.84	400.23
555.00	433.00
555.17	433.00
555.33	465.77
555.50	393.21
555.67	440.02
555.83	404.91
556.00	386.19
556.16	468.11
556.33	463.43
556.50	379.17
556.66	388.53
556.83	407.25
556.99	430.66
557.16	454.06
557.32	433.00
557.49	449.38
557.65	397.89
557.82	423.64
557.98	407.25
558.15	447.04
558.32	367.46
558.48	390.87
558.65	463.43
558.81	463.43
558.98	461.09
559.14	437.68
559.31	400.23
559.47	411.93
559.64	437.68
559.80	381.51
559.97	449.38
560.13	458.74
560.30	369.80
560.46	390.87
560.63	442.36
560.79	458.74
560.96	409.59
561.12	454.06
561.29	374.49
561.45	397.89
561.61	496.19
561.78	475.13
561.94	444.70
562.11	400.23
562.27	383.85
562.44	402.57
562.60	414.27
562.77	447.04
562.93	482.15
563.10	362.78
563.26	482.15
563.42	400.23
563.59	400.23
563.75	409.59
563.92	458.74
564.08	376.83
564.24	421.30
564.41	451.72
564.57	418.96
564.74	400.23
564.90	414.27
565.07	402.57
565.23	449.38
565.39	435.34
565.56	468.11
565.72	344.06
565.88	409.59
566.05	477.47
566.21	407.25
566.38	334.70
566.54	421.30
566.70	367.46
566.87	411.93
567.03	383.85
567.19	465.77
567.36	418.96
567.52	360.44
567.68	449.38
567.85	383.85
568.01	444.70
568.17	440.02
568.34	393.21
568.50	428.32
568.66	421.30
568.83	463.43
568.99	409.59
569.15	414.27
569.32	360.44
569.48	404.91
569.64	383.85
569.81	458.74
569.97	454.06
570.13	449.38
570.30	425.98
570.46	379.17
570.62	444.70
570.78	435.34
570.95	402.57
571.11	414.27
571.27	472.79
571.43	465.77
571.60	393.21
571.76	470.45
571.92	386.19
572.09	458.74
572.25	442.36
572.41	393.21
572.57	388.53
572.74	468.11
572.90	348.74
573.06	358.10
573.22	369.80
573.38	442.36
573.55	442.36
573.71	451.72
573.87	486.83
574.03	339.38
574.20	425.98
574.36	374.49
574.52	421.30
574.68	407.25
574.84	430.66
575.01	381.51
575.17	435.34
575.33	358.10
575.49	390.87
575.65	430.66
575.82	456.40
575.98	456.40
576.14	390.87
576.30	367.46
576.46	372.15
576.62	416.62
576.79	402.57
576.95	372.15
577.11	383.85
577.27	395.55
577.43	468.11
577.59	503.22
577.75	442.36
577.92	498.53
578.08	374.49
578.24	397.89
578.40	369.80
578.56	414.27
578.72	456.40
578.88	521.94
579.04	339.38
579.21	390.87
579.37	409.59
579.53	360.44
579.69	409.59
579.85	376.83
580.01	440.02
580.17	395.55
580.33	404.91
580.49	390.87
580.65	428.32
580.82	430.66
580.98	374.49
581.14	470.45
581.30	491.51
581.46	327.68
581.62	414.27
581.78	437.68
581.94	411.93
582.10	437.68
582.26	468.11
582.42	507.90
582.58	437.68
582.74	390.87
582.90	437.68
583.06	383.85
583.22	425.98
583.38	423.64
583.54	454.06
583.70	423.64
583.86	491.51
584.02	383.85
584.18	414.27
584.34	472.79
584.50	381.51
584.66	414.27
584.82	433.00
584.98	381.51
585.14	416.62
585.30	435.34
585.46	355.76
585.62	442.36
585.78	395.55
585.94	437.68
586.10	393.21
586.26	463.43
586.42	411.93
586.58	447.04
586.74	423.64
586.90	400.23
587.06	442.36
587.22	390.87
587.38	411.93
587.54	428.32
587.70	416.62
587.86	461.09
588.02	409.59
588.18	468.11
588.34	449.38
588.49	362.78
588.65	388.53
588.81	414.27
588.97	425.98
589.13	402.57
589.29	442.36
589.45	451.72
589.61	362.78
589.77	454.06
589.93	339.38
590.08	421.30
590.24	374.49
590.40	409.59
590.56	400.23
590.72	437.68
590.88	393.21
591.04	444.70
591.20	440.02
591.35	456.40
591.51	418.96
591.67	411.93
591.83	372.15
591.99	379.17
592.15	472.79
592.31	367.46
592.46	397.89
592.62	433.00
592.78	440.02
592.94	421.30
593.10	423.64
593.26	461.09
593.41	395.55
593.57	400.23
593.73	383.85
593.89	404.91
594.05	447.04
594.20	344.06
594.36	390.87
594.52	440.02
594.68	365.12
594.84	414.27
594.99	369.80
595.15	369.80
595.31	337.04
595.47	430.66
595.62	442.36
595.78	393.21
595.94	425.98
596.10	404.91
596.25	404.91
596.41	444.70
596.57	404.91
596.73	367.46
596.88	472.79
597.04	498.53
597.20	334.70
597.36	472.79
597.51	425.98
597.67	440.02
597.83	435.34
597.99	440.02
598.14	444.70
598.30	433.00
598.46	414.27
598.61	451.72
598.77	461.09
598.93	447.04
599.09	381.51
599.24	428.32
599.40	456.40
599.56	374.49
599.71	461.09
599.87	395.55
600.03	390.87
600.18	418.96
600.34	369.80
600.50	386.19
600.65	442.36
600.81	428.32
600.97	442.36
601.12	456.40
601.28	365.12
601.44	372.15
601.59	407.25
601.75	425.98
601.91	456.40
602.06	416.62
602.22	472.79
602.37	386.19
602.53	449.38
602.69	472.79
602.84	491.51
603.00	440.02
603.16	468.11
603.31	437.68
603.47	472.79
603.62	388.53
603.78	470.45
603.94	454.06
604.09	322.99
604.25	435.34
604.40	437.68
604.56	402.57
604.71	416.62
604.87	407.25
605.03	435.34
605.18	430.66
605.34	479.81
605.49	416.62
605.65	395.55
605.80	407.25
605.96	362.78
606.12	383.85
606.27	400.23
606.43	409.59
606.58	407.25
606.74	360.44
606.89	447.04
607.05	456.40
607.20	425.98
607.36	461.09
607.51	383.85
607.67	372.15
607.82	418.96
607.98	418.96
608.13	456.40
608.29	386.19
608.44	409.59
608.60	440.02
608.75	447.04
608.91	423.64
609.06	468.11
609.22	374.49
609.37	428.32
609.53	379.17
609.68	437.68
609.84	449.38
609.99	299.59
610.15	425.98
