SpectraSuite Data File
++++++++++++++++++++++++++++++++++++
Date: Fri Oct 25 12:10:08 EDT 2013
User: price-jones
Dark Spectrum Present: No
Reference Spectrum Present: No
Number of Sampled Component Spectra: 1
Spectrometers: USB2+H05261
Integration Time (usec): 100000 (USB2+H05261)
Spectra Averaged: 1 (USB2+H05261)
Boxcar Smoothing: 0 (USB2+H05261)
Correct for Electrical Dark: No (USB2+H05261)
Strobe/Lamp Enabled: No (USB2+H05261)
Correct for Detector Non-linearity: No (USB2+H05261)
Correct for Stray Light: No (USB2+H05261)
Number of Pixels in Processed Spectrum: 2048
>>>>>Begin Processed Spectral Data<<<<<
365.73	339.38
365.92	339.38
366.12	339.38
366.32	241.08
366.52	243.42
366.72	360.44
366.91	222.35
367.11	259.80
367.31	177.88
367.51	217.67
367.70	271.50
367.90	252.78
368.10	210.65
368.30	208.31
368.49	212.99
368.69	245.76
368.89	259.80
369.09	264.48
369.28	208.31
369.48	271.50
369.68	264.48
369.87	262.14
370.07	285.55
370.27	304.27
370.47	367.46
370.66	376.83
370.86	365.12
371.06	346.40
371.25	416.62
371.45	339.38
371.65	395.55
371.84	411.93
372.04	386.19
372.24	397.89
372.44	351.08
372.63	369.80
372.83	496.19
373.03	437.68
373.22	393.21
373.42	381.51
373.62	362.78
373.81	437.68
374.01	400.23
374.21	428.32
374.40	376.83
374.60	390.87
374.79	414.27
374.99	348.74
375.19	418.96
375.38	409.59
375.58	451.72
375.78	461.09
375.97	395.55
376.17	454.06
376.37	400.23
376.56	472.79
376.76	383.85
376.95	395.55
377.15	479.81
377.35	369.80
377.54	444.70
377.74	421.30
377.93	351.08
378.13	367.46
378.33	414.27
378.52	491.51
378.72	430.66
378.91	430.66
379.11	414.27
379.31	332.36
379.50	383.85
379.70	423.64
379.89	454.06
380.09	421.30
380.28	369.80
380.48	425.98
380.68	346.40
380.87	294.91
381.07	358.10
381.26	376.83
381.46	383.85
381.65	489.17
381.85	409.59
382.04	381.51
382.24	409.59
382.43	353.42
382.63	442.36
382.83	404.91
383.02	449.38
383.22	393.21
383.41	344.06
383.61	379.17
383.80	433.00
384.00	442.36
384.19	423.64
384.39	404.91
384.58	440.02
384.78	404.91
384.97	376.83
385.17	440.02
385.36	418.96
385.56	395.55
385.75	454.06
385.95	402.57
386.14	409.59
386.34	416.62
386.53	475.13
386.72	330.02
386.92	486.83
387.11	327.68
387.31	383.85
387.50	369.80
387.70	379.17
387.89	365.12
388.09	369.80
388.28	374.49
388.48	379.17
388.67	447.04
388.86	351.08
389.06	397.89
389.25	390.87
389.45	393.21
389.64	388.53
389.84	407.25
390.03	407.25
390.22	407.25
390.42	337.04
390.61	320.65
390.81	362.78
391.00	402.57
391.19	477.47
391.39	458.74
391.58	402.57
391.78	416.62
391.97	374.49
392.16	430.66
392.36	423.64
392.55	388.53
392.75	367.46
392.94	425.98
393.13	346.40
393.33	425.98
393.52	437.68
393.71	470.45
393.91	407.25
394.10	376.83
394.29	425.98
394.49	344.06
394.68	411.93
394.88	430.66
395.07	430.66
395.26	428.32
395.46	442.36
395.65	447.04
395.84	437.68
396.04	437.68
396.23	421.30
396.42	461.09
396.62	421.30
396.81	447.04
397.00	418.96
397.19	365.12
397.39	393.21
397.58	418.96
397.77	301.93
397.97	390.87
398.16	404.91
398.35	430.66
398.55	383.85
398.74	470.45
398.93	362.78
399.12	390.87
399.32	442.36
399.51	341.72
399.70	397.89
399.90	433.00
400.09	447.04
400.28	383.85
400.47	388.53
400.67	395.55
400.86	421.30
401.05	388.53
401.24	428.32
401.44	395.55
401.63	407.25
401.82	407.25
402.01	353.42
402.21	402.57
402.40	416.62
402.59	430.66
402.78	360.44
402.97	404.91
403.17	437.68
403.36	395.55
403.55	418.96
403.74	423.64
403.93	367.46
404.13	433.00
404.32	421.30
404.51	430.66
404.70	435.34
404.89	348.74
405.09	414.27
405.28	409.59
405.47	367.46
405.66	425.98
405.85	358.10
406.05	393.21
406.24	372.15
406.43	418.96
406.62	411.93
406.81	465.77
407.00	447.04
407.20	411.93
407.39	355.76
407.58	451.72
407.77	407.25
407.96	421.30
408.15	423.64
408.34	437.68
408.54	435.34
408.73	360.44
408.92	369.80
409.11	440.02
409.30	421.30
409.49	362.78
409.68	421.30
409.87	454.06
410.07	372.15
410.26	369.80
410.45	428.32
410.64	351.08
410.83	386.19
411.02	388.53
411.21	374.49
411.40	414.27
411.59	418.96
411.78	374.49
411.98	409.59
412.17	414.27
412.36	425.98
412.55	437.68
412.74	383.85
412.93	435.34
413.12	397.89
413.31	421.30
413.50	409.59
413.69	372.15
413.88	379.17
414.07	463.43
414.26	407.25
414.45	393.21
414.64	388.53
414.83	358.10
415.02	402.57
415.22	355.76
415.41	402.57
415.60	416.62
415.79	397.89
415.98	407.25
416.17	351.08
416.36	414.27
416.55	393.21
416.74	376.83
416.93	491.51
417.12	397.89
417.31	379.17
417.50	463.43
417.69	421.30
417.88	383.85
418.07	395.55
418.26	444.70
418.45	397.89
418.64	388.53
418.83	470.45
419.02	393.21
419.21	376.83
419.39	437.68
419.58	362.78
419.77	362.78
419.96	418.96
420.15	372.15
420.34	456.40
420.53	418.96
420.72	442.36
420.91	386.19
421.10	414.27
421.29	421.30
421.48	397.89
421.67	449.38
421.86	421.30
422.05	397.89
422.24	444.70
422.43	472.79
422.61	416.62
422.80	437.68
422.99	348.74
423.18	374.49
423.37	456.40
423.56	353.42
423.75	433.00
423.94	404.91
424.13	468.11
424.32	423.64
424.50	416.62
424.69	355.76
424.88	437.68
425.07	418.96
425.26	451.72
425.45	430.66
425.64	409.59
425.83	351.08
426.01	383.85
426.20	425.98
426.39	421.30
426.58	435.34
426.77	437.68
426.96	414.27
427.15	367.46
427.33	454.06
427.52	386.19
427.71	400.23
427.90	451.72
428.09	447.04
428.28	433.00
428.46	402.57
428.65	463.43
428.84	369.80
429.03	428.32
429.22	358.10
429.40	437.68
429.59	449.38
429.78	407.25
429.97	435.34
430.16	400.23
430.34	421.30
430.53	376.83
430.72	374.49
430.91	416.62
431.10	477.47
431.28	416.62
431.47	456.40
431.66	376.83
431.85	365.12
432.03	442.36
432.22	463.43
432.41	437.68
432.60	407.25
432.79	425.98
432.97	430.66
433.16	395.55
433.35	416.62
433.54	411.93
433.72	365.12
433.91	388.53
434.10	332.36
434.28	454.06
434.47	435.34
434.66	400.23
434.85	393.21
435.03	360.44
435.22	468.11
435.41	475.13
435.59	533.64
435.78	472.79
435.97	393.21
436.16	425.98
436.34	374.49
436.53	456.40
436.72	400.23
436.90	404.91
437.09	402.57
437.28	397.89
437.46	414.27
437.65	421.30
437.84	416.62
438.02	470.45
438.21	472.79
438.40	404.91
438.58	414.27
438.77	425.98
438.96	411.93
439.14	433.00
439.33	449.38
439.52	374.49
439.70	411.93
439.89	428.32
440.08	440.02
440.26	482.15
440.45	390.87
440.63	393.21
440.82	379.17
441.01	435.34
441.19	397.89
441.38	341.72
441.57	341.72
441.75	442.36
441.94	365.12
442.12	437.68
442.31	470.45
442.50	365.12
442.68	374.49
442.87	433.00
443.05	362.78
443.24	407.25
443.43	397.89
443.61	407.25
443.80	461.09
443.98	379.17
444.17	463.43
444.35	435.34
444.54	447.04
444.73	318.31
444.91	440.02
445.10	400.23
445.28	416.62
445.47	376.83
445.65	440.02
445.84	393.21
446.02	397.89
446.21	372.15
446.39	388.53
446.58	440.02
446.77	477.47
446.95	425.98
447.14	407.25
447.32	444.70
447.51	416.62
447.69	411.93
447.88	367.46
448.06	465.77
448.25	475.13
448.43	374.49
448.62	395.55
448.80	433.00
448.99	477.47
449.17	416.62
449.36	414.27
449.54	423.64
449.73	360.44
449.91	362.78
450.10	388.53
450.28	475.13
450.46	475.13
450.65	493.85
450.83	379.17
451.02	414.27
451.20	425.98
451.39	418.96
451.57	358.10
451.76	491.51
451.94	423.64
452.13	402.57
452.31	400.23
452.49	374.49
452.68	400.23
452.86	433.00
453.05	395.55
453.23	421.30
453.42	390.87
453.60	379.17
453.78	449.38
453.97	440.02
454.15	402.57
454.34	416.62
454.52	400.23
454.70	437.68
454.89	430.66
455.07	395.55
455.26	414.27
455.44	388.53
455.62	414.27
455.81	428.32
455.99	393.21
456.17	437.68
456.36	400.23
456.54	353.42
456.73	360.44
456.91	271.50
457.09	367.46
457.28	440.02
457.46	440.02
457.64	402.57
457.83	425.98
458.01	334.70
458.19	414.27
458.38	388.53
458.56	395.55
458.74	369.80
458.93	421.30
459.11	493.85
459.29	341.72
459.48	493.85
459.66	433.00
459.84	421.30
460.03	489.17
460.21	402.57
460.39	393.21
460.57	437.68
460.76	386.19
460.94	397.89
461.12	526.62
461.31	418.96
461.49	423.64
461.67	430.66
461.85	344.06
462.04	484.49
462.22	786.42
462.40	395.55
462.59	388.53
462.77	409.59
462.95	386.19
463.13	409.59
463.32	428.32
463.50	388.53
463.68	456.40
463.86	393.21
464.05	402.57
464.23	465.77
464.41	444.70
464.59	409.59
464.78	458.74
464.96	360.44
465.14	447.04
465.32	400.23
465.50	486.83
465.69	421.30
465.87	461.09
466.05	444.70
466.23	365.12
466.41	362.78
466.60	386.19
466.78	416.62
466.96	407.25
467.14	456.40
467.32	435.34
467.51	428.32
467.69	435.34
467.87	440.02
468.05	428.32
468.23	435.34
468.41	418.96
468.60	470.45
468.78	390.87
468.96	379.17
469.14	423.64
469.32	362.78
469.50	409.59
469.69	358.10
469.87	430.66
470.05	421.30
470.23	416.62
470.41	404.91
470.59	425.98
470.77	397.89
470.95	351.08
471.14	411.93
471.32	479.81
471.50	456.40
471.68	390.87
471.86	379.17
472.04	365.12
472.22	411.93
472.40	425.98
472.58	411.93
472.77	355.76
472.95	351.08
473.13	430.66
473.31	475.13
473.49	383.85
473.67	379.17
473.85	447.04
474.03	411.93
474.21	402.57
474.39	407.25
474.57	369.80
474.75	486.83
474.93	421.30
475.12	374.49
475.30	440.02
475.48	411.93
475.66	388.53
475.84	397.89
476.02	386.19
476.20	463.43
476.38	379.17
476.56	468.11
476.74	468.11
476.92	404.91
477.10	360.44
477.28	395.55
477.46	395.55
477.64	437.68
477.82	379.17
478.00	367.46
478.18	416.62
478.36	435.34
478.54	409.59
478.72	390.87
478.90	386.19
479.08	411.93
479.26	402.57
479.44	369.80
479.62	400.23
479.80	341.72
479.98	402.57
480.16	423.64
480.34	472.79
480.52	414.27
480.70	393.21
480.88	395.55
481.06	330.02
481.24	402.57
481.41	365.12
481.59	416.62
481.77	416.62
481.95	393.21
482.13	435.34
482.31	468.11
482.49	414.27
482.67	449.38
482.85	433.00
483.03	379.17
483.21	381.51
483.39	397.89
483.57	390.87
483.74	381.51
483.92	421.30
484.10	390.87
484.28	451.72
484.46	435.34
484.64	407.25
484.82	433.00
485.00	456.40
485.18	425.98
485.35	484.49
485.53	411.93
485.71	521.94
485.89	376.83
486.07	372.15
486.25	470.45
486.43	430.66
486.61	395.55
486.78	414.27
486.96	458.74
487.14	430.66
487.32	414.27
487.50	463.43
487.68	416.62
487.85	416.62
488.03	425.98
488.21	358.10
488.39	496.19
488.57	430.66
488.75	442.36
488.92	475.13
489.10	372.15
489.28	449.38
489.46	411.93
489.64	355.76
489.81	425.98
489.99	447.04
490.17	454.06
490.35	470.45
490.53	454.06
490.70	416.62
490.88	463.43
491.06	421.30
491.24	435.34
491.41	486.83
491.59	489.17
491.77	388.53
491.95	386.19
492.13	353.42
492.30	400.23
492.48	344.06
492.66	411.93
492.84	383.85
493.01	433.00
493.19	369.80
493.37	449.38
493.54	423.64
493.72	367.46
493.90	381.51
494.08	418.96
494.25	440.02
494.43	449.38
494.61	437.68
494.79	369.80
494.96	451.72
495.14	430.66
495.32	416.62
495.49	437.68
495.67	418.96
495.85	351.08
496.02	362.78
496.20	409.59
496.38	505.56
496.55	463.43
496.73	362.78
496.91	388.53
497.09	411.93
497.26	463.43
497.44	472.79
497.62	362.78
497.79	416.62
497.97	379.17
498.14	430.66
498.32	435.34
498.50	388.53
498.67	421.30
498.85	414.27
499.03	388.53
499.20	414.27
499.38	372.15
499.56	402.57
499.73	423.64
499.91	451.72
500.08	442.36
500.26	395.55
500.44	430.66
500.61	411.93
500.79	423.64
500.97	390.87
501.14	456.40
501.32	430.66
501.49	489.17
501.67	545.34
501.84	444.70
502.02	421.30
502.20	458.74
502.37	451.72
502.55	414.27
502.72	468.11
502.90	454.06
503.07	362.78
503.25	346.40
503.43	440.02
503.60	416.62
503.78	421.30
503.95	449.38
504.13	404.91
504.30	365.12
504.48	414.27
504.65	477.47
504.83	430.66
505.01	440.02
505.18	444.70
505.36	498.53
505.53	341.72
505.71	437.68
505.88	407.25
506.06	463.43
506.23	379.17
506.41	444.70
506.58	451.72
506.76	386.19
506.93	421.30
507.11	496.19
507.28	362.78
507.46	360.44
507.63	409.59
507.81	430.66
507.98	397.89
508.16	386.19
508.33	454.06
508.50	437.68
508.68	449.38
508.85	409.59
509.03	393.21
509.20	400.23
509.38	470.45
509.55	367.46
509.73	433.00
509.90	407.25
510.08	346.40
510.25	367.46
510.42	463.43
510.60	444.70
510.77	425.98
510.95	308.95
511.12	423.64
511.30	325.33
511.47	463.43
511.64	430.66
511.82	435.34
511.99	435.34
512.17	341.72
512.34	404.91
512.51	418.96
512.69	482.15
512.86	447.04
513.04	444.70
513.21	447.04
513.38	447.04
513.56	421.30
513.73	404.91
513.90	388.53
514.08	414.27
514.25	381.51
514.43	376.83
514.60	351.08
514.77	449.38
514.95	449.38
515.12	404.91
515.29	449.38
515.47	496.19
515.64	383.85
515.81	372.15
515.99	454.06
516.16	444.70
516.33	528.96
516.51	435.34
516.68	372.15
516.85	428.32
517.03	390.87
517.20	425.98
517.37	428.32
517.54	465.77
517.72	421.30
517.89	465.77
518.06	461.09
518.24	496.19
518.41	407.25
518.58	402.57
518.75	433.00
518.93	484.49
519.10	444.70
519.27	447.04
519.45	418.96
519.62	421.30
519.79	411.93
519.96	346.40
520.14	451.72
520.31	393.21
520.48	428.32
520.65	449.38
520.83	400.23
521.00	430.66
521.17	379.17
521.34	423.64
521.52	376.83
521.69	355.76
521.86	351.08
522.03	390.87
522.20	470.45
522.38	454.06
522.55	409.59
522.72	411.93
522.89	433.00
523.07	395.55
523.24	437.68
523.41	416.62
523.58	379.17
523.75	339.38
523.92	416.62
524.10	353.42
524.27	402.57
524.44	360.44
524.61	451.72
524.78	411.93
524.96	454.06
525.13	353.42
525.30	404.91
525.47	447.04
525.64	404.91
525.81	465.77
525.98	444.70
526.16	428.32
526.33	332.36
526.50	393.21
526.67	388.53
526.84	421.30
527.01	447.04
527.18	472.79
527.36	433.00
527.53	393.21
527.70	421.30
527.87	383.85
528.04	376.83
528.21	423.64
528.38	442.36
528.55	416.62
528.72	486.83
528.89	421.30
529.07	440.02
529.24	402.57
529.41	465.77
529.58	355.76
529.75	388.53
529.92	372.15
530.09	451.72
530.26	463.43
530.43	407.25
530.60	388.53
530.77	416.62
530.94	369.80
531.11	435.34
531.28	435.34
531.46	411.93
531.63	433.00
531.80	470.45
531.97	472.79
532.14	395.55
532.31	486.83
532.48	451.72
532.65	468.11
532.82	435.34
532.99	388.53
533.16	388.53
533.33	493.85
533.50	470.45
533.67	433.00
533.84	414.27
534.01	486.83
534.18	475.13
534.35	416.62
534.52	456.40
534.69	514.92
534.86	418.96
535.03	451.72
535.20	435.34
535.37	404.91
535.54	404.91
535.71	381.51
535.88	477.47
536.05	411.93
536.22	407.25
536.38	442.36
536.55	423.64
536.72	543.00
536.89	437.68
537.06	416.62
537.23	372.15
537.40	402.57
537.57	411.93
537.74	491.51
537.91	461.09
538.08	341.72
538.25	379.17
538.42	433.00
538.59	444.70
538.75	463.43
538.92	470.45
539.09	325.33
539.26	404.91
539.43	404.91
539.60	367.46
539.77	386.19
539.94	421.30
540.11	423.64
540.28	383.85
540.44	461.09
540.61	442.36
540.78	407.25
540.95	454.06
541.12	416.62
541.29	411.93
541.46	437.68
541.62	404.91
541.79	440.02
541.96	339.38
542.13	418.96
542.30	390.87
542.47	414.27
542.63	325.33
542.80	425.98
542.97	484.49
543.14	482.15
543.31	409.59
543.48	428.32
543.64	386.19
543.81	418.96
543.98	414.27
544.15	379.17
544.32	425.98
544.48	404.91
544.65	388.53
544.82	442.36
544.99	418.96
545.16	397.89
545.32	325.33
545.49	393.21
545.66	416.62
545.83	404.91
546.00	404.91
546.16	416.62
546.33	430.66
546.50	454.06
546.67	477.47
546.83	423.64
547.00	395.55
547.17	470.45
547.34	395.55
547.50	428.32
547.67	433.00
547.84	402.57
548.00	407.25
548.17	447.04
548.34	386.19
548.51	437.68
548.67	465.77
548.84	383.85
549.01	461.09
549.18	437.68
549.34	414.27
549.51	440.02
549.68	355.76
549.84	440.02
550.01	386.19
550.18	507.90
550.34	456.40
550.51	440.02
550.68	496.19
550.84	360.44
551.01	486.83
551.18	423.64
551.34	425.98
551.51	388.53
551.68	454.06
551.84	425.98
552.01	402.57
552.18	381.51
552.34	395.55
552.51	379.17
552.68	428.32
552.84	381.51
553.01	449.38
553.18	402.57
553.34	388.53
553.51	430.66
553.67	491.51
553.84	442.36
554.01	416.62
554.17	421.30
554.34	421.30
554.51	395.55
554.67	425.98
554.84	440.02
555.00	346.40
555.17	404.91
555.33	425.98
555.50	353.42
555.67	475.13
555.83	330.02
556.00	379.17
556.16	519.60
556.33	454.06
556.50	435.34
556.66	390.87
556.83	388.53
556.99	409.59
557.16	386.19
557.32	437.68
557.49	355.76
557.65	381.51
557.82	411.93
557.98	390.87
558.15	409.59
558.32	395.55
558.48	327.68
558.65	418.96
558.81	423.64
558.98	367.46
559.14	444.70
559.31	430.66
559.47	458.74
559.64	383.85
559.80	444.70
559.97	425.98
560.13	461.09
560.30	465.77
560.46	449.38
560.63	491.51
560.79	418.96
560.96	344.06
561.12	486.83
561.29	472.79
561.45	475.13
561.61	442.36
561.78	517.26
561.94	461.09
562.11	519.60
562.27	425.98
562.44	386.19
562.60	454.06
562.77	444.70
562.93	496.19
563.10	454.06
563.26	416.62
563.42	390.87
563.59	414.27
563.75	325.33
563.92	447.04
564.08	428.32
564.24	428.32
564.41	430.66
564.57	425.98
564.74	400.23
564.90	365.12
565.07	440.02
565.23	418.96
565.39	477.47
565.56	430.66
565.72	440.02
565.88	414.27
566.05	397.89
566.21	425.98
566.38	397.89
566.54	454.06
566.70	433.00
566.87	428.32
567.03	433.00
567.19	407.25
567.36	362.78
567.52	428.32
567.68	407.25
567.85	360.44
568.01	390.87
568.17	407.25
568.34	418.96
568.50	428.32
568.66	393.21
568.83	470.45
568.99	409.59
569.15	404.91
569.32	421.30
569.48	411.93
569.64	430.66
569.81	418.96
569.97	414.27
570.13	470.45
570.30	414.27
570.46	470.45
570.62	514.92
570.78	435.34
570.95	449.38
571.11	428.32
571.27	454.06
571.43	421.30
571.60	395.55
571.76	428.32
571.92	313.63
572.09	430.66
572.25	449.38
572.41	447.04
572.57	430.66
572.74	461.09
572.90	437.68
573.06	465.77
573.22	442.36
573.38	491.51
573.55	444.70
573.71	393.21
573.87	425.98
574.03	344.06
574.20	400.23
574.36	407.25
574.52	428.32
574.68	409.59
574.84	393.21
575.01	344.06
575.17	517.26
575.33	440.02
575.49	383.85
575.65	505.56
575.82	470.45
575.98	388.53
576.14	440.02
576.30	418.96
576.46	355.76
576.62	374.49
576.79	428.32
576.95	451.72
577.11	388.53
577.27	468.11
577.43	404.91
577.59	388.53
577.75	421.30
577.92	440.02
578.08	362.78
578.24	388.53
578.40	491.51
578.56	489.17
578.72	430.66
578.88	433.00
579.04	383.85
579.21	395.55
579.37	486.83
579.53	416.62
579.69	468.11
579.85	430.66
580.01	440.02
580.17	454.06
580.33	367.46
580.49	472.79
580.65	400.23
580.82	397.89
580.98	362.78
581.14	407.25
581.30	449.38
581.46	379.17
581.62	486.83
581.78	397.89
581.94	400.23
582.10	383.85
582.26	437.68
582.42	414.27
582.58	409.59
582.74	428.32
582.90	503.22
583.06	496.19
583.22	435.34
583.38	421.30
583.54	456.40
583.70	475.13
583.86	458.74
584.02	442.36
584.18	472.79
584.34	437.68
584.50	461.09
584.66	390.87
584.82	353.42
584.98	386.19
585.14	388.53
585.30	423.64
585.46	444.70
585.62	454.06
585.78	465.77
585.94	435.34
586.10	416.62
586.26	381.51
586.42	486.83
586.58	423.64
586.74	461.09
586.90	468.11
587.06	444.70
587.22	425.98
587.38	402.57
587.54	409.59
587.70	374.49
587.86	425.98
588.02	390.87
588.18	395.55
588.34	400.23
588.49	393.21
588.65	414.27
588.81	437.68
588.97	360.44
589.13	374.49
589.29	430.66
589.45	442.36
589.61	433.00
589.77	393.21
589.93	374.49
590.08	447.04
590.24	341.72
590.40	428.32
590.56	374.49
590.72	416.62
590.88	493.85
591.04	463.43
591.20	374.49
591.35	442.36
591.51	404.91
591.67	372.15
591.83	425.98
591.99	477.47
592.15	428.32
592.31	456.40
592.46	290.23
592.62	386.19
592.78	379.17
592.94	379.17
593.10	418.96
593.26	418.96
593.41	411.93
593.57	454.06
593.73	514.92
593.89	416.62
594.05	437.68
594.20	435.34
594.36	358.10
594.52	407.25
594.68	395.55
594.84	421.30
594.99	353.42
595.15	404.91
595.31	411.93
595.47	456.40
595.62	437.68
595.78	491.51
595.94	388.53
596.10	400.23
596.25	437.68
596.41	423.64
596.57	383.85
596.73	397.89
596.88	435.34
597.04	386.19
597.20	411.93
597.36	421.30
597.51	472.79
597.67	479.81
597.83	351.08
597.99	395.55
598.14	376.83
598.30	383.85
598.46	379.17
598.61	379.17
598.77	397.89
598.93	411.93
599.09	409.59
599.24	414.27
599.40	301.93
599.56	435.34
599.71	418.96
599.87	397.89
600.03	372.15
600.18	465.77
600.34	404.91
600.50	367.46
600.65	437.68
600.81	381.51
600.97	418.96
601.12	409.59
601.28	472.79
601.44	407.25
601.59	362.78
601.75	416.62
601.91	332.36
602.06	400.23
602.22	482.15
602.37	437.68
602.53	444.70
602.69	425.98
602.84	414.27
603.00	435.34
603.16	475.13
603.31	447.04
603.47	475.13
603.62	423.64
603.78	386.19
603.94	362.78
604.09	411.93
604.25	512.58
604.40	411.93
604.56	374.49
604.71	463.43
604.87	358.10
605.03	454.06
605.18	393.21
605.34	451.72
605.49	411.93
605.65	423.64
605.80	325.33
605.96	423.64
606.12	425.98
606.27	430.66
606.43	442.36
606.58	482.15
606.74	479.81
606.89	362.78
607.05	421.30
607.20	416.62
607.36	353.42
607.51	418.96
607.67	400.23
607.82	397.89
607.98	425.98
608.13	358.10
608.29	479.81
608.44	465.77
608.60	468.11
608.75	425.98
608.91	423.64
609.06	449.38
609.22	430.66
609.37	416.62
609.53	479.81
609.68	475.13
609.84	402.57
609.99	491.51
610.15	461.09
