SpectraSuite Data File
++++++++++++++++++++++++++++++++++++
Date: Fri Oct 25 12:10:18 EDT 2013
User: price-jones
Dark Spectrum Present: No
Reference Spectrum Present: No
Number of Sampled Component Spectra: 1
Spectrometers: USB2+H05261
Integration Time (usec): 100000 (USB2+H05261)
Spectra Averaged: 1 (USB2+H05261)
Boxcar Smoothing: 0 (USB2+H05261)
Correct for Electrical Dark: No (USB2+H05261)
Strobe/Lamp Enabled: No (USB2+H05261)
Correct for Detector Non-linearity: No (USB2+H05261)
Correct for Stray Light: No (USB2+H05261)
Number of Pixels in Processed Spectrum: 2048
>>>>>Begin Processed Spectral Data<<<<<
365.73	311.29
365.92	311.29
366.12	311.29
366.32	229.37
366.52	311.29
366.72	257.46
366.91	262.14
367.11	212.99
367.31	201.29
367.51	264.48
367.70	287.89
367.90	227.03
368.10	191.92
368.30	290.23
368.49	229.37
368.69	278.52
368.89	238.73
369.09	241.08
369.28	269.16
369.48	229.37
369.68	220.01
369.87	259.80
370.07	285.55
370.27	353.42
370.47	292.57
370.66	325.33
370.86	322.99
371.06	362.78
371.25	360.44
371.45	290.23
371.65	341.72
371.84	372.15
372.04	348.74
372.24	418.96
372.44	411.93
372.63	374.49
372.83	334.70
373.03	369.80
373.22	365.12
373.42	449.38
373.62	444.70
373.81	379.17
374.01	456.40
374.21	454.06
374.40	353.42
374.60	393.21
374.79	404.91
374.99	461.09
375.19	390.87
375.38	447.04
375.58	404.91
375.78	407.25
375.97	407.25
376.17	470.45
376.37	449.38
376.56	365.12
376.76	442.36
376.95	418.96
377.15	442.36
377.35	435.34
377.54	442.36
377.74	430.66
377.93	444.70
378.13	397.89
378.33	351.08
378.52	379.17
378.72	381.51
378.91	428.32
379.11	365.12
379.31	428.32
379.50	362.78
379.70	409.59
379.89	451.72
380.09	386.19
380.28	407.25
380.48	482.15
380.68	425.98
380.87	334.70
381.07	383.85
381.26	425.98
381.46	374.49
381.65	428.32
381.85	365.12
382.04	337.04
382.24	374.49
382.43	383.85
382.63	388.53
382.83	381.51
383.02	400.23
383.22	386.19
383.41	397.89
383.61	351.08
383.80	393.21
384.00	440.02
384.19	400.23
384.39	318.31
384.58	379.17
384.78	388.53
384.97	409.59
385.17	374.49
385.36	472.79
385.56	430.66
385.75	355.76
385.95	409.59
386.14	397.89
386.34	430.66
386.53	440.02
386.72	367.46
386.92	482.15
387.11	390.87
387.31	468.11
387.50	414.27
387.70	381.51
387.89	402.57
388.09	346.40
388.28	407.25
388.48	402.57
388.67	447.04
388.86	475.13
389.06	369.80
389.25	425.98
389.45	374.49
389.64	440.02
389.84	390.87
390.03	409.59
390.22	418.96
390.42	433.00
390.61	311.29
390.81	423.64
391.00	416.62
391.19	397.89
391.39	409.59
391.58	397.89
391.78	411.93
391.97	442.36
392.16	402.57
392.36	447.04
392.55	428.32
392.75	416.62
392.94	423.64
393.13	433.00
393.33	407.25
393.52	423.64
393.71	402.57
393.91	400.23
394.10	381.51
394.29	400.23
394.49	397.89
394.68	402.57
394.88	433.00
395.07	388.53
395.26	348.74
395.46	320.65
395.65	444.70
395.84	435.34
396.04	442.36
396.23	433.00
396.42	404.91
396.62	395.55
396.81	379.17
397.00	388.53
397.19	358.10
397.39	346.40
397.58	437.68
397.77	308.95
397.97	430.66
398.16	395.55
398.35	388.53
398.55	353.42
398.74	379.17
398.93	423.64
399.12	374.49
399.32	372.15
399.51	444.70
399.70	409.59
399.90	400.23
400.09	411.93
400.28	409.59
400.47	416.62
400.67	416.62
400.86	393.21
401.05	362.78
401.24	477.47
401.44	383.85
401.63	472.79
401.82	418.96
402.01	383.85
402.21	395.55
402.40	437.68
402.59	365.12
402.78	390.87
402.97	444.70
403.17	355.76
403.36	390.87
403.55	376.83
403.74	390.87
403.93	423.64
404.13	430.66
404.32	400.23
404.51	402.57
404.70	407.25
404.89	379.17
405.09	447.04
405.28	411.93
405.47	442.36
405.66	400.23
405.85	369.80
406.05	454.06
406.24	381.51
406.43	447.04
406.62	393.21
406.81	383.85
407.00	428.32
407.20	355.76
407.39	433.00
407.58	423.64
407.77	437.68
407.96	374.49
408.15	411.93
408.34	362.78
408.54	360.44
408.73	447.04
408.92	383.85
409.11	440.02
409.30	402.57
409.49	383.85
409.68	402.57
409.87	440.02
410.07	372.15
410.26	386.19
410.45	423.64
410.64	411.93
410.83	339.38
411.02	428.32
411.21	428.32
411.40	346.40
411.59	468.11
411.78	346.40
411.98	416.62
412.17	341.72
412.36	381.51
412.55	376.83
412.74	325.33
412.93	393.21
413.12	381.51
413.31	416.62
413.50	337.04
413.69	444.70
413.88	435.34
414.07	482.15
414.26	381.51
414.45	393.21
414.64	440.02
414.83	433.00
415.02	383.85
415.22	411.93
415.41	348.74
415.60	404.91
415.79	383.85
415.98	496.19
416.17	388.53
416.36	425.98
416.55	372.15
416.74	355.76
416.93	444.70
417.12	386.19
417.31	360.44
417.50	397.89
417.69	428.32
417.88	423.64
418.07	365.12
418.26	383.85
418.45	402.57
418.64	489.17
418.83	395.55
419.02	437.68
419.21	313.63
419.39	374.49
419.58	449.38
419.77	449.38
419.96	437.68
420.15	465.77
420.34	449.38
420.53	395.55
420.72	484.49
420.91	411.93
421.10	411.93
421.29	428.32
421.48	461.09
421.67	400.23
421.86	386.19
422.05	461.09
422.24	404.91
422.43	449.38
422.61	395.55
422.80	463.43
422.99	444.70
423.18	400.23
423.37	430.66
423.56	430.66
423.75	468.11
423.94	337.04
424.13	437.68
424.32	437.68
424.50	437.68
424.69	444.70
424.88	386.19
425.07	416.62
425.26	425.98
425.45	362.78
425.64	435.34
425.83	498.53
426.01	528.96
426.20	447.04
426.39	372.15
426.58	315.97
426.77	454.06
426.96	428.32
427.15	440.02
427.33	365.12
427.52	409.59
427.71	383.85
427.90	402.57
428.09	360.44
428.28	416.62
428.46	493.85
428.65	468.11
428.84	388.53
429.03	402.57
429.22	393.21
429.40	430.66
429.59	437.68
429.78	484.49
429.97	360.44
430.16	430.66
430.34	400.23
430.53	346.40
430.72	390.87
430.91	400.23
431.10	372.15
431.28	393.21
431.47	411.93
431.66	386.19
431.85	372.15
432.03	435.34
432.22	428.32
432.41	456.40
432.60	491.51
432.79	344.06
432.97	318.31
433.16	379.17
433.35	402.57
433.54	369.80
433.72	397.89
433.91	461.09
434.10	379.17
434.28	421.30
434.47	418.96
434.66	411.93
434.85	456.40
435.03	423.64
435.22	418.96
435.41	367.46
435.59	444.70
435.78	374.49
435.97	451.72
436.16	379.17
436.34	388.53
436.53	355.76
436.72	414.27
436.90	402.57
437.09	440.02
437.28	449.38
437.46	374.49
437.65	409.59
437.84	393.21
438.02	337.04
438.21	407.25
438.40	360.44
438.58	414.27
438.77	390.87
438.96	418.96
439.14	454.06
439.33	451.72
439.52	400.23
439.70	376.83
439.89	442.36
440.08	411.93
440.26	416.62
440.45	365.12
440.63	400.23
440.82	402.57
441.01	428.32
441.19	444.70
441.38	383.85
441.57	386.19
441.75	444.70
441.94	461.09
442.12	381.51
442.31	390.87
442.50	435.34
442.68	414.27
442.87	437.68
443.05	367.46
443.24	437.68
443.43	400.23
443.61	400.23
443.80	369.80
443.98	418.96
444.17	409.59
444.35	440.02
444.54	433.00
444.73	397.89
444.91	484.49
445.10	482.15
445.28	379.17
445.47	386.19
445.65	355.76
445.84	379.17
446.02	428.32
446.21	512.58
446.39	390.87
446.58	395.55
446.77	461.09
446.95	400.23
447.14	404.91
447.32	463.43
447.51	365.12
447.69	475.13
447.88	390.87
448.06	418.96
448.25	461.09
448.43	376.83
448.62	369.80
448.80	383.85
448.99	444.70
449.17	463.43
449.36	409.59
449.54	437.68
449.73	451.72
449.91	440.02
450.10	400.23
450.28	418.96
450.46	409.59
450.65	433.00
450.83	351.08
451.02	425.98
451.20	365.12
451.39	374.49
451.57	414.27
451.76	428.32
451.94	341.72
452.13	451.72
452.31	454.06
452.49	489.17
452.68	395.55
452.86	400.23
453.05	484.49
453.23	390.87
453.42	437.68
453.60	421.30
453.78	334.70
453.97	358.10
454.15	397.89
454.34	383.85
454.52	376.83
454.70	437.68
454.89	376.83
455.07	440.02
455.26	376.83
455.44	477.47
455.62	369.80
455.81	411.93
455.99	351.08
456.17	484.49
456.36	416.62
456.54	454.06
456.73	379.17
456.91	376.83
457.09	362.78
457.28	486.83
457.46	395.55
457.64	388.53
457.83	355.76
458.01	374.49
458.19	416.62
458.38	409.59
458.56	381.51
458.74	400.23
458.93	421.30
459.11	465.77
459.29	423.64
459.48	461.09
459.66	395.55
459.84	409.59
460.03	510.24
460.21	421.30
460.39	353.42
460.57	428.32
460.76	393.21
460.94	477.47
461.12	454.06
461.31	463.43
461.49	447.04
461.67	306.61
461.85	348.74
462.04	376.83
462.22	770.04
462.40	369.80
462.59	397.89
462.77	404.91
462.95	440.02
463.13	372.15
463.32	477.47
463.50	386.19
463.68	411.93
463.86	451.72
464.05	435.34
464.23	306.61
464.41	390.87
464.59	472.79
464.78	456.40
464.96	308.95
465.14	414.27
465.32	367.46
465.50	411.93
465.69	430.66
465.87	362.78
466.05	468.11
466.23	421.30
466.41	437.68
466.60	461.09
466.78	414.27
466.96	428.32
467.14	421.30
467.32	397.89
467.51	433.00
467.69	386.19
467.87	444.70
468.05	330.02
468.23	442.36
468.41	388.53
468.60	461.09
468.78	451.72
468.96	421.30
469.14	447.04
469.32	458.74
469.50	395.55
469.69	440.02
469.87	404.91
470.05	411.93
470.23	390.87
470.41	451.72
470.59	416.62
470.77	409.59
470.95	372.15
471.14	409.59
471.32	425.98
471.50	400.23
471.68	430.66
471.86	456.40
472.04	346.40
472.22	435.34
472.40	414.27
472.58	393.21
472.77	411.93
472.95	428.32
473.13	449.38
473.31	423.64
473.49	362.78
473.67	330.02
473.85	454.06
474.03	388.53
474.21	383.85
474.39	365.12
474.57	402.57
474.75	461.09
474.93	393.21
475.12	456.40
475.30	376.83
475.48	470.45
475.66	440.02
475.84	367.46
476.02	409.59
476.20	493.85
476.38	397.89
476.56	493.85
476.74	444.70
476.92	376.83
477.10	330.02
477.28	425.98
477.46	379.17
477.64	388.53
477.82	383.85
478.00	411.93
478.18	372.15
478.36	374.49
478.54	395.55
478.72	425.98
478.90	425.98
479.08	386.19
479.26	428.32
479.44	449.38
479.62	430.66
479.80	409.59
479.98	397.89
480.16	395.55
480.34	372.15
480.52	374.49
480.70	388.53
480.88	362.78
481.06	433.00
481.24	454.06
481.41	437.68
481.59	428.32
481.77	404.91
481.95	404.91
482.13	395.55
482.31	454.06
482.49	393.21
482.67	409.59
482.85	440.02
483.03	374.49
483.21	470.45
483.39	397.89
483.57	400.23
483.74	461.09
483.92	395.55
484.10	353.42
484.28	402.57
484.46	416.62
484.64	447.04
484.82	348.74
485.00	374.49
485.18	404.91
485.35	416.62
485.53	393.21
485.71	444.70
485.89	393.21
486.07	409.59
486.25	416.62
486.43	367.46
486.61	407.25
486.78	414.27
486.96	360.44
487.14	451.72
487.32	315.97
487.50	463.43
487.68	475.13
487.85	444.70
488.03	425.98
488.21	421.30
488.39	465.77
488.57	402.57
488.75	390.87
488.92	475.13
489.10	433.00
489.28	402.57
489.46	437.68
489.64	484.49
489.81	470.45
489.99	414.27
490.17	437.68
490.35	493.85
490.53	397.89
490.70	411.93
490.88	489.17
491.06	449.38
491.24	383.85
491.41	402.57
491.59	428.32
491.77	372.15
491.95	367.46
492.13	416.62
492.30	393.21
492.48	369.80
492.66	440.02
492.84	346.40
493.01	456.40
493.19	351.08
493.37	386.19
493.54	353.42
493.72	461.09
493.90	386.19
494.08	409.59
494.25	402.57
494.43	425.98
494.61	372.15
494.79	322.99
494.96	404.91
495.14	402.57
495.32	433.00
495.49	411.93
495.67	423.64
495.85	477.47
496.02	416.62
496.20	386.19
496.38	372.15
496.55	461.09
496.73	418.96
496.91	381.51
497.09	444.70
497.26	428.32
497.44	407.25
497.62	402.57
497.79	402.57
497.97	428.32
498.14	440.02
498.32	447.04
498.50	365.12
498.67	444.70
498.85	400.23
499.03	393.21
499.20	379.17
499.38	360.44
499.56	388.53
499.73	461.09
499.91	411.93
500.08	463.43
500.26	397.89
500.44	442.36
500.61	510.24
500.79	416.62
500.97	348.74
501.14	465.77
501.32	477.47
501.49	421.30
501.67	430.66
501.84	430.66
502.02	409.59
502.20	414.27
502.37	404.91
502.55	365.12
502.72	353.42
502.90	477.47
503.07	423.64
503.25	381.51
503.43	404.91
503.60	456.40
503.78	414.27
503.95	414.27
504.13	397.89
504.30	447.04
504.48	428.32
504.65	435.34
504.83	428.32
505.01	395.55
505.18	435.34
505.36	372.15
505.53	468.11
505.71	400.23
505.88	369.80
506.06	390.87
506.23	355.76
506.41	362.78
506.58	409.59
506.76	421.30
506.93	390.87
507.11	315.97
507.28	423.64
507.46	447.04
507.63	388.53
507.81	388.53
507.98	365.12
508.16	358.10
508.33	463.43
508.50	421.30
508.68	428.32
508.85	435.34
509.03	390.87
509.20	372.15
509.38	423.64
509.55	362.78
509.73	414.27
509.90	358.10
510.08	393.21
510.25	475.13
510.42	423.64
510.60	404.91
510.77	395.55
510.95	365.12
511.12	433.00
511.30	435.34
511.47	400.23
511.64	454.06
511.82	369.80
511.99	475.13
512.17	421.30
512.34	395.55
512.51	402.57
512.69	407.25
512.86	409.59
513.04	383.85
513.21	383.85
513.38	456.40
513.56	337.04
513.73	411.93
513.90	428.32
514.08	374.49
514.25	433.00
514.43	454.06
514.60	360.44
514.77	351.08
514.95	447.04
515.12	365.12
515.29	414.27
515.47	383.85
515.64	362.78
515.81	414.27
515.99	458.74
516.16	428.32
516.33	489.17
516.51	381.51
516.68	454.06
516.85	461.09
517.03	379.17
517.20	470.45
517.37	376.83
517.54	428.32
517.72	435.34
517.89	355.76
518.06	458.74
518.24	447.04
518.41	435.34
518.58	440.02
518.75	353.42
518.93	379.17
519.10	339.38
519.27	369.80
519.45	372.15
519.62	376.83
519.79	402.57
519.96	341.72
520.14	402.57
520.31	414.27
520.48	395.55
520.65	416.62
520.83	437.68
521.00	437.68
521.17	360.44
521.34	404.91
521.52	437.68
521.69	404.91
521.86	409.59
522.03	346.40
522.20	414.27
522.38	430.66
522.55	444.70
522.72	456.40
522.89	423.64
523.07	451.72
523.24	423.64
523.41	367.46
523.58	397.89
523.75	400.23
523.92	433.00
524.10	447.04
524.27	447.04
524.44	362.78
524.61	463.43
524.78	341.72
524.96	435.34
525.13	339.38
525.30	500.87
525.47	418.96
525.64	379.17
525.81	444.70
525.98	360.44
526.16	449.38
526.33	409.59
526.50	456.40
526.67	379.17
526.84	395.55
527.01	456.40
527.18	411.93
527.36	414.27
527.53	404.91
527.70	414.27
527.87	397.89
528.04	461.09
528.21	458.74
528.38	442.36
528.55	395.55
528.72	425.98
528.89	477.47
529.07	416.62
529.24	402.57
529.41	433.00
529.58	454.06
529.75	379.17
529.92	390.87
530.09	449.38
530.26	437.68
530.43	496.19
530.60	397.89
530.77	451.72
530.94	500.87
531.11	397.89
531.28	440.02
531.46	479.81
531.63	414.27
531.80	386.19
531.97	369.80
532.14	430.66
532.31	442.36
532.48	435.34
532.65	369.80
532.82	379.17
532.99	475.13
533.16	402.57
533.33	428.32
533.50	489.17
533.67	348.74
533.84	423.64
534.01	388.53
534.18	435.34
534.35	344.06
534.52	418.96
534.69	472.79
534.86	395.55
535.03	437.68
535.20	381.51
535.37	496.19
535.54	407.25
535.71	465.77
535.88	454.06
536.05	423.64
536.22	411.93
536.38	334.70
536.55	374.49
536.72	477.47
536.89	407.25
537.06	404.91
537.23	418.96
537.40	423.64
537.57	402.57
537.74	477.47
537.91	376.83
538.08	400.23
538.25	456.40
538.42	360.44
538.59	414.27
538.75	435.34
538.92	423.64
539.09	379.17
539.26	425.98
539.43	491.51
539.60	433.00
539.77	433.00
539.94	421.30
540.11	433.00
540.28	491.51
540.44	451.72
540.61	367.46
540.78	404.91
540.95	402.57
541.12	477.47
541.29	411.93
541.46	484.49
541.62	463.43
541.79	372.15
541.96	386.19
542.13	395.55
542.30	376.83
542.47	355.76
542.63	358.10
542.80	416.62
542.97	447.04
543.14	404.91
543.31	294.91
543.48	428.32
543.64	418.96
543.81	440.02
543.98	411.93
544.15	404.91
544.32	442.36
544.48	409.59
544.65	358.10
544.82	367.46
544.99	409.59
545.16	390.87
545.32	341.72
545.49	351.08
545.66	386.19
545.83	330.02
546.00	388.53
546.16	400.23
546.33	395.55
546.50	393.21
546.67	416.62
546.83	437.68
547.00	475.13
547.17	308.95
547.34	381.51
547.50	428.32
547.67	381.51
547.84	461.09
548.00	418.96
548.17	388.53
548.34	423.64
548.51	454.06
548.67	414.27
548.84	397.89
549.01	393.21
549.18	440.02
549.34	414.27
549.51	383.85
549.68	351.08
549.84	397.89
550.01	428.32
550.18	454.06
550.34	430.66
550.51	407.25
550.68	393.21
550.84	435.34
551.01	383.85
551.18	442.36
551.34	423.64
551.51	418.96
551.68	433.00
551.84	433.00
552.01	386.19
552.18	388.53
552.34	437.68
552.51	411.93
552.68	472.79
552.84	411.93
553.01	395.55
553.18	386.19
553.34	472.79
553.51	451.72
553.67	425.98
553.84	491.51
554.01	421.30
554.17	454.06
554.34	416.62
554.51	388.53
554.67	468.11
554.84	454.06
555.00	468.11
555.17	437.68
555.33	428.32
555.50	465.77
555.67	418.96
555.83	421.30
556.00	367.46
556.16	521.94
556.33	437.68
556.50	355.76
556.66	418.96
556.83	458.74
556.99	423.64
557.16	416.62
557.32	451.72
557.49	386.19
557.65	463.43
557.82	337.04
557.98	456.40
558.15	407.25
558.32	353.42
558.48	449.38
558.65	330.02
558.81	381.51
558.98	351.08
559.14	433.00
559.31	475.13
559.47	416.62
559.64	444.70
559.80	404.91
559.97	409.59
560.13	365.12
560.30	383.85
560.46	360.44
560.63	484.49
560.79	369.80
560.96	414.27
561.12	433.00
561.29	498.53
561.45	365.12
561.61	416.62
561.78	440.02
561.94	386.19
562.11	379.17
562.27	428.32
562.44	449.38
562.60	423.64
562.77	456.40
562.93	444.70
563.10	362.78
563.26	414.27
563.42	430.66
563.59	430.66
563.75	411.93
563.92	425.98
564.08	393.21
564.24	388.53
564.41	433.00
564.57	421.30
564.74	388.53
564.90	367.46
565.07	454.06
565.23	440.02
565.39	442.36
565.56	407.25
565.72	402.57
565.88	367.46
566.05	421.30
566.21	397.89
566.38	411.93
566.54	468.11
566.70	402.57
566.87	468.11
567.03	440.02
567.19	376.83
567.36	379.17
567.52	388.53
567.68	461.09
567.85	397.89
568.01	486.83
568.17	379.17
568.34	334.70
568.50	461.09
568.66	367.46
568.83	425.98
568.99	486.83
569.15	386.19
569.32	388.53
569.48	395.55
569.64	358.10
569.81	400.23
569.97	360.44
570.13	444.70
570.30	383.85
570.46	418.96
570.62	444.70
570.78	402.57
570.95	388.53
571.11	468.11
571.27	461.09
571.43	400.23
571.60	503.22
571.76	362.78
571.92	435.34
572.09	461.09
572.25	437.68
572.41	397.89
572.57	407.25
572.74	416.62
572.90	416.62
573.06	383.85
573.22	472.79
573.38	440.02
573.55	400.23
573.71	519.60
573.87	416.62
574.03	386.19
574.20	341.72
574.36	416.62
574.52	381.51
574.68	454.06
574.84	400.23
575.01	393.21
575.17	418.96
575.33	381.51
575.49	482.15
575.65	535.98
575.82	409.59
575.98	435.34
576.14	374.49
576.30	400.23
576.46	428.32
576.62	510.24
576.79	444.70
576.95	449.38
577.11	423.64
577.27	440.02
577.43	404.91
577.59	456.40
577.75	444.70
577.92	470.45
578.08	428.32
578.24	451.72
578.40	423.64
578.56	418.96
578.72	397.89
578.88	430.66
579.04	355.76
579.21	383.85
579.37	358.10
579.53	428.32
579.69	386.19
579.85	425.98
580.01	393.21
580.17	461.09
580.33	449.38
580.49	437.68
580.65	416.62
580.82	379.17
580.98	402.57
581.14	463.43
581.30	491.51
581.46	409.59
581.62	397.89
581.78	442.36
581.94	428.32
582.10	360.44
582.26	423.64
582.42	421.30
582.58	435.34
582.74	407.25
582.90	468.11
583.06	465.77
583.22	362.78
583.38	397.89
583.54	430.66
583.70	369.80
583.86	451.72
584.02	404.91
584.18	468.11
584.34	325.33
584.50	458.74
584.66	388.53
584.82	386.19
584.98	351.08
585.14	395.55
585.30	418.96
585.46	372.15
585.62	456.40
585.78	447.04
585.94	395.55
586.10	393.21
586.26	402.57
586.42	372.15
586.58	447.04
586.74	449.38
586.90	360.44
587.06	374.49
587.22	393.21
587.38	437.68
587.54	414.27
587.70	437.68
587.86	451.72
588.02	386.19
588.18	444.70
588.34	367.46
588.49	351.08
588.65	416.62
588.81	437.68
588.97	437.68
589.13	409.59
589.29	444.70
589.45	444.70
589.61	390.87
589.77	390.87
589.93	353.42
590.08	379.17
590.24	400.23
590.40	372.15
590.56	367.46
590.72	386.19
590.88	369.80
591.04	458.74
591.20	355.76
591.35	409.59
591.51	379.17
591.67	346.40
591.83	360.44
591.99	423.64
592.15	435.34
592.31	435.34
592.46	418.96
592.62	456.40
592.78	372.15
592.94	379.17
593.10	365.12
593.26	397.89
593.41	428.32
593.57	414.27
593.73	393.21
593.89	449.38
594.05	437.68
594.20	409.59
594.36	425.98
594.52	402.57
594.68	402.57
594.84	383.85
594.99	400.23
595.15	367.46
595.31	397.89
595.47	418.96
595.62	418.96
595.78	428.32
595.94	458.74
596.10	430.66
596.25	461.09
596.41	402.57
596.57	325.33
596.73	407.25
596.88	409.59
597.04	440.02
597.20	442.36
597.36	444.70
597.51	322.99
597.67	440.02
597.83	465.77
597.99	468.11
598.14	365.12
598.30	407.25
598.46	374.49
598.61	407.25
598.77	423.64
598.93	322.99
599.09	409.59
599.24	404.91
599.40	425.98
599.56	400.23
599.71	458.74
599.87	425.98
600.03	358.10
600.18	395.55
600.34	416.62
600.50	430.66
600.65	475.13
600.81	442.36
600.97	409.59
601.12	449.38
601.28	425.98
601.44	435.34
601.59	315.97
601.75	475.13
601.91	376.83
602.06	468.11
602.22	393.21
602.37	376.83
602.53	383.85
602.69	376.83
602.84	454.06
603.00	414.27
603.16	463.43
603.31	397.89
603.47	482.15
603.62	374.49
603.78	421.30
603.94	475.13
604.09	435.34
604.25	402.57
604.40	447.04
604.56	449.38
604.71	351.08
604.87	365.12
605.03	402.57
605.18	393.21
605.34	416.62
605.49	383.85
605.65	383.85
605.80	386.19
605.96	379.17
606.12	409.59
606.27	367.46
606.43	409.59
606.58	341.72
606.74	367.46
606.89	433.00
607.05	449.38
607.20	447.04
607.36	379.17
607.51	402.57
607.67	348.74
607.82	458.74
607.98	510.24
608.13	423.64
608.29	409.59
608.44	479.81
608.60	444.70
608.75	491.51
608.91	454.06
609.06	423.64
609.22	348.74
609.37	430.66
609.53	365.12
609.68	376.83
609.84	411.93
609.99	421.30
610.15	486.83
