SpectraSuite Data File
++++++++++++++++++++++++++++++++++++
Date: Fri Oct 25 12:10:27 EDT 2013
User: price-jones
Dark Spectrum Present: No
Reference Spectrum Present: No
Number of Sampled Component Spectra: 1
Spectrometers: USB2+H05261
Integration Time (usec): 100000 (USB2+H05261)
Spectra Averaged: 1 (USB2+H05261)
Boxcar Smoothing: 0 (USB2+H05261)
Correct for Electrical Dark: No (USB2+H05261)
Strobe/Lamp Enabled: No (USB2+H05261)
Correct for Detector Non-linearity: No (USB2+H05261)
Correct for Stray Light: No (USB2+H05261)
Number of Pixels in Processed Spectrum: 2048
>>>>>Begin Processed Spectral Data<<<<<
365.73	318.31
365.92	318.31
366.12	318.31
366.32	252.78
366.52	187.24
366.72	294.91
366.91	215.33
367.11	285.55
367.31	210.65
367.51	304.27
367.70	212.99
367.90	212.99
368.10	238.73
368.30	205.97
368.49	318.31
368.69	259.80
368.89	257.46
369.09	236.39
369.28	290.23
369.48	224.69
369.68	337.04
369.87	299.59
370.07	245.76
370.27	330.02
370.47	334.70
370.66	341.72
370.86	411.93
371.06	416.62
371.25	376.83
371.45	374.49
371.65	454.06
371.84	341.72
372.04	367.46
372.24	423.64
372.44	334.70
372.63	472.79
372.83	362.78
373.03	430.66
373.22	451.72
373.42	353.42
373.62	414.27
373.81	397.89
374.01	430.66
374.21	465.77
374.40	451.72
374.60	505.56
374.79	449.38
374.99	425.98
375.19	409.59
375.38	505.56
375.58	376.83
375.78	440.02
375.97	479.81
376.17	402.57
376.37	451.72
376.56	423.64
376.76	411.93
376.95	376.83
377.15	442.36
377.35	395.55
377.54	388.53
377.74	449.38
377.93	454.06
378.13	486.83
378.33	430.66
378.52	393.21
378.72	463.43
378.91	444.70
379.11	332.36
379.31	339.38
379.50	358.10
379.70	348.74
379.89	383.85
380.09	369.80
380.28	376.83
380.48	437.68
380.68	386.19
380.87	395.55
381.07	454.06
381.26	388.53
381.46	440.02
381.65	383.85
381.85	308.95
382.04	409.59
382.24	423.64
382.43	388.53
382.63	353.42
382.83	330.02
383.02	454.06
383.22	393.21
383.41	472.79
383.61	435.34
383.80	477.47
384.00	381.51
384.19	362.78
384.39	404.91
384.58	369.80
384.78	416.62
384.97	383.85
385.17	484.49
385.36	400.23
385.56	414.27
385.75	475.13
385.95	346.40
386.14	463.43
386.34	362.78
386.53	395.55
386.72	409.59
386.92	454.06
387.11	423.64
387.31	372.15
387.50	365.12
387.70	379.17
387.89	428.32
388.09	388.53
388.28	360.44
388.48	421.30
388.67	449.38
388.86	287.89
389.06	402.57
389.25	355.76
389.45	409.59
389.64	407.25
389.84	402.57
390.03	423.64
390.22	435.34
390.42	416.62
390.61	397.89
390.81	393.21
391.00	360.44
391.19	423.64
391.39	393.21
391.58	463.43
391.78	430.66
391.97	379.17
392.16	379.17
392.36	386.19
392.55	395.55
392.75	409.59
392.94	360.44
393.13	393.21
393.33	348.74
393.52	360.44
393.71	454.06
393.91	425.98
394.10	372.15
394.29	379.17
394.49	353.42
394.68	416.62
394.88	425.98
395.07	365.12
395.26	404.91
395.46	334.70
395.65	482.15
395.84	409.59
396.04	463.43
396.23	451.72
396.42	402.57
396.62	407.25
396.81	355.76
397.00	381.51
397.19	421.30
397.39	416.62
397.58	421.30
397.77	395.55
397.97	285.55
398.16	468.11
398.35	404.91
398.55	386.19
398.74	475.13
398.93	444.70
399.12	449.38
399.32	411.93
399.51	458.74
399.70	353.42
399.90	334.70
400.09	393.21
400.28	372.15
400.47	437.68
400.67	388.53
400.86	393.21
401.05	400.23
401.24	402.57
401.44	379.17
401.63	411.93
401.82	407.25
402.01	409.59
402.21	440.02
402.40	353.42
402.59	393.21
402.78	407.25
402.97	454.06
403.17	381.51
403.36	407.25
403.55	414.27
403.74	404.91
403.93	433.00
404.13	430.66
404.32	458.74
404.51	395.55
404.70	428.32
404.89	334.70
405.09	381.51
405.28	374.49
405.47	330.02
405.66	402.57
405.85	402.57
406.05	407.25
406.24	386.19
406.43	407.25
406.62	456.40
406.81	442.36
407.00	355.76
407.20	435.34
407.39	337.04
407.58	374.49
407.77	397.89
407.96	454.06
408.15	414.27
408.34	468.11
408.54	407.25
408.73	477.47
408.92	407.25
409.11	407.25
409.30	304.27
409.49	362.78
409.68	425.98
409.87	416.62
410.07	416.62
410.26	346.40
410.45	428.32
410.64	395.55
410.83	435.34
411.02	409.59
411.21	475.13
411.40	456.40
411.59	339.38
411.78	381.51
411.98	409.59
412.17	430.66
412.36	355.76
412.55	435.34
412.74	449.38
412.93	470.45
413.12	393.21
413.31	411.93
413.50	381.51
413.69	365.12
413.88	444.70
414.07	344.06
414.26	402.57
414.45	362.78
414.64	393.21
414.83	484.49
415.02	444.70
415.22	456.40
415.41	409.59
415.60	388.53
415.79	479.81
415.98	442.36
416.17	447.04
416.36	402.57
416.55	437.68
416.74	418.96
416.93	414.27
417.12	376.83
417.31	353.42
417.50	447.04
417.69	416.62
417.88	425.98
418.07	404.91
418.26	400.23
418.45	362.78
418.64	442.36
418.83	409.59
419.02	430.66
419.21	393.21
419.39	376.83
419.58	402.57
419.77	313.63
419.96	409.59
420.15	444.70
420.34	388.53
420.53	482.15
420.72	344.06
420.91	409.59
421.10	379.17
421.29	390.87
421.48	374.49
421.67	416.62
421.86	409.59
422.05	337.04
422.24	400.23
422.43	334.70
422.61	362.78
422.80	400.23
422.99	479.81
423.18	369.80
423.37	433.00
423.56	367.46
423.75	430.66
423.94	418.96
424.13	437.68
424.32	416.62
424.50	444.70
424.69	465.77
424.88	386.19
425.07	409.59
425.26	390.87
425.45	407.25
425.64	381.51
425.83	425.98
426.01	423.64
426.20	435.34
426.39	486.83
426.58	423.64
426.77	407.25
426.96	388.53
427.15	372.15
427.33	435.34
427.52	407.25
427.71	386.19
427.90	423.64
428.09	390.87
428.28	386.19
428.46	393.21
428.65	411.93
428.84	365.12
429.03	461.09
429.22	430.66
429.40	407.25
429.59	416.62
429.78	442.36
429.97	362.78
430.16	402.57
430.34	365.12
430.53	390.87
430.72	444.70
430.91	407.25
431.10	493.85
431.28	411.93
431.47	475.13
431.66	472.79
431.85	358.10
432.03	409.59
432.22	454.06
432.41	351.08
432.60	468.11
432.79	409.59
432.97	437.68
433.16	362.78
433.35	383.85
433.54	360.44
433.72	393.21
433.91	433.00
434.10	425.98
434.28	379.17
434.47	423.64
434.66	390.87
434.85	407.25
435.03	404.91
435.22	458.74
435.41	435.34
435.59	430.66
435.78	372.15
435.97	400.23
436.16	449.38
436.34	372.15
436.53	409.59
436.72	451.72
436.90	416.62
437.09	468.11
437.28	421.30
437.46	383.85
437.65	369.80
437.84	330.02
438.02	468.11
438.21	367.46
438.40	416.62
438.58	393.21
438.77	414.27
438.96	381.51
439.14	416.62
439.33	468.11
439.52	423.64
439.70	414.27
439.89	402.57
440.08	475.13
440.26	423.64
440.45	397.89
440.63	449.38
440.82	402.57
441.01	393.21
441.19	372.15
441.38	409.59
441.57	400.23
441.75	440.02
441.94	388.53
442.12	442.36
442.31	444.70
442.50	390.87
442.68	503.22
442.87	435.34
443.05	355.76
443.24	437.68
443.43	482.15
443.61	451.72
443.80	372.15
443.98	479.81
444.17	440.02
444.35	409.59
444.54	400.23
444.73	308.95
444.91	430.66
445.10	341.72
445.28	472.79
445.47	409.59
445.65	351.08
445.84	407.25
446.02	367.46
446.21	400.23
446.39	355.76
446.58	442.36
446.77	376.83
446.95	379.17
447.14	421.30
447.32	477.47
447.51	353.42
447.69	409.59
447.88	500.87
448.06	435.34
448.25	393.21
448.43	402.57
448.62	374.49
448.80	353.42
448.99	461.09
449.17	416.62
449.36	421.30
449.54	430.66
449.73	386.19
449.91	400.23
450.10	437.68
450.28	470.45
450.46	444.70
450.65	425.98
450.83	397.89
451.02	390.87
451.20	362.78
451.39	409.59
451.57	393.21
451.76	358.10
451.94	344.06
452.13	411.93
452.31	496.19
452.49	421.30
452.68	386.19
452.86	402.57
453.05	500.87
453.23	444.70
453.42	395.55
453.60	346.40
453.78	348.74
453.97	435.34
454.15	372.15
454.34	393.21
454.52	409.59
454.70	402.57
454.89	475.13
455.07	330.02
455.26	381.51
455.44	477.47
455.62	362.78
455.81	365.12
455.99	442.36
456.17	435.34
456.36	383.85
456.54	430.66
456.73	482.15
456.91	397.89
457.09	482.15
457.28	477.47
457.46	402.57
457.64	402.57
457.83	421.30
458.01	388.53
458.19	465.77
458.38	409.59
458.56	458.74
458.74	341.72
458.93	423.64
459.11	421.30
459.29	421.30
459.48	407.25
459.66	400.23
459.84	409.59
460.03	482.15
460.21	449.38
460.39	421.30
460.57	479.81
460.76	416.62
460.94	402.57
461.12	447.04
461.31	449.38
461.49	437.68
461.67	376.83
461.85	346.40
462.04	358.10
462.22	828.55
462.40	461.09
462.59	442.36
462.77	428.32
462.95	442.36
463.13	381.51
463.32	360.44
463.50	383.85
463.68	449.38
463.86	468.11
464.05	416.62
464.23	393.21
464.41	388.53
464.59	421.30
464.78	449.38
464.96	447.04
465.14	468.11
465.32	451.72
465.50	442.36
465.69	435.34
465.87	465.77
466.05	421.30
466.23	360.44
466.41	425.98
466.60	386.19
466.78	442.36
466.96	437.68
467.14	369.80
467.32	416.62
467.51	430.66
467.69	461.09
467.87	381.51
468.05	383.85
468.23	447.04
468.41	393.21
468.60	407.25
468.78	423.64
468.96	423.64
469.14	390.87
469.32	433.00
469.50	435.34
469.69	458.74
469.87	440.02
470.05	404.91
470.23	388.53
470.41	365.12
470.59	437.68
470.77	409.59
470.95	318.31
471.14	444.70
471.32	470.45
471.50	465.77
471.68	482.15
471.86	388.53
472.04	381.51
472.22	425.98
472.40	386.19
472.58	421.30
472.77	346.40
472.95	449.38
473.13	435.34
473.31	327.68
473.49	451.72
473.67	341.72
473.85	374.49
474.03	388.53
474.21	407.25
474.39	447.04
474.57	451.72
474.75	428.32
474.93	423.64
475.12	367.46
475.30	447.04
475.48	437.68
475.66	400.23
475.84	418.96
476.02	414.27
476.20	430.66
476.38	414.27
476.56	449.38
476.74	447.04
476.92	461.09
477.10	447.04
477.28	404.91
477.46	393.21
477.64	411.93
477.82	337.04
478.00	367.46
478.18	477.47
478.36	393.21
478.54	348.74
478.72	421.30
478.90	381.51
479.08	365.12
479.26	397.89
479.44	397.89
479.62	397.89
479.80	421.30
479.98	397.89
480.16	390.87
480.34	458.74
480.52	395.55
480.70	409.59
480.88	372.15
481.06	372.15
481.24	372.15
481.41	421.30
481.59	379.17
481.77	400.23
481.95	416.62
482.13	533.64
482.31	390.87
482.49	374.49
482.67	337.04
482.85	496.19
483.03	425.98
483.21	411.93
483.39	353.42
483.57	433.00
483.74	454.06
483.92	503.22
484.10	423.64
484.28	496.19
484.46	425.98
484.64	404.91
484.82	440.02
485.00	393.21
485.18	379.17
485.35	355.76
485.53	400.23
485.71	430.66
485.89	358.10
486.07	346.40
486.25	435.34
486.43	430.66
486.61	416.62
486.78	510.24
486.96	381.51
487.14	393.21
487.32	369.80
487.50	407.25
487.68	454.06
487.85	411.93
488.03	355.76
488.21	381.51
488.39	447.04
488.57	444.70
488.75	379.17
488.92	449.38
489.10	447.04
489.28	507.90
489.46	400.23
489.64	395.55
489.81	376.83
489.99	463.43
490.17	418.96
490.35	449.38
490.53	418.96
490.70	404.91
490.88	400.23
491.06	397.89
491.24	379.17
491.41	514.92
491.59	404.91
491.77	416.62
491.95	425.98
492.13	365.12
492.30	355.76
492.48	411.93
492.66	367.46
492.84	435.34
493.01	423.64
493.19	449.38
493.37	425.98
493.54	383.85
493.72	430.66
493.90	407.25
494.08	458.74
494.25	381.51
494.43	465.77
494.61	449.38
494.79	437.68
494.96	475.13
495.14	465.77
495.32	430.66
495.49	430.66
495.67	409.59
495.85	318.31
496.02	388.53
496.20	346.40
496.38	395.55
496.55	383.85
496.73	451.72
496.91	393.21
497.09	374.49
497.26	479.81
497.44	479.81
497.62	456.40
497.79	421.30
497.97	442.36
498.14	390.87
498.32	442.36
498.50	372.15
498.67	353.42
498.85	409.59
499.03	465.77
499.20	390.87
499.38	458.74
499.56	437.68
499.73	430.66
499.91	365.12
500.08	358.10
500.26	390.87
500.44	486.83
500.61	489.17
500.79	477.47
500.97	465.77
501.14	451.72
501.32	416.62
501.49	407.25
501.67	444.70
501.84	430.66
502.02	355.76
502.20	524.28
502.37	449.38
502.55	346.40
502.72	421.30
502.90	416.62
503.07	365.12
503.25	395.55
503.43	372.15
503.60	416.62
503.78	365.12
503.95	381.51
504.13	386.19
504.30	355.76
504.48	449.38
504.65	451.72
504.83	451.72
505.01	369.80
505.18	435.34
505.36	348.74
505.53	418.96
505.71	435.34
505.88	374.49
506.06	390.87
506.23	425.98
506.41	353.42
506.58	409.59
506.76	433.00
506.93	374.49
507.11	444.70
507.28	409.59
507.46	428.32
507.63	482.15
507.81	440.02
507.98	454.06
508.16	390.87
508.33	418.96
508.50	482.15
508.68	416.62
508.85	430.66
509.03	400.23
509.20	418.96
509.38	498.53
509.55	411.93
509.73	407.25
509.90	418.96
510.08	444.70
510.25	454.06
510.42	374.49
510.60	404.91
510.77	379.17
510.95	383.85
511.12	425.98
511.30	416.62
511.47	404.91
511.64	449.38
511.82	379.17
511.99	409.59
512.17	447.04
512.34	468.11
512.51	386.19
512.69	409.59
512.86	367.46
513.04	430.66
513.21	418.96
513.38	409.59
513.56	472.79
513.73	430.66
513.90	433.00
514.08	325.33
514.25	355.76
514.43	351.08
514.60	416.62
514.77	451.72
514.95	449.38
515.12	315.97
515.29	322.99
515.47	407.25
515.64	421.30
515.81	472.79
515.99	390.87
516.16	425.98
516.33	433.00
516.51	440.02
516.68	416.62
516.85	430.66
517.03	425.98
517.20	407.25
517.37	425.98
517.54	458.74
517.72	428.32
517.89	411.93
518.06	404.91
518.24	423.64
518.41	402.57
518.58	454.06
518.75	346.40
518.93	339.38
519.10	397.89
519.27	416.62
519.45	393.21
519.62	409.59
519.79	383.85
519.96	332.36
520.14	489.17
520.31	425.98
520.48	390.87
520.65	372.15
520.83	421.30
521.00	409.59
521.17	440.02
521.34	428.32
521.52	442.36
521.69	379.17
521.86	411.93
522.03	444.70
522.20	430.66
522.38	407.25
522.55	421.30
522.72	393.21
522.89	416.62
523.07	451.72
523.24	416.62
523.41	344.06
523.58	465.77
523.75	411.93
523.92	430.66
524.10	435.34
524.27	416.62
524.44	339.38
524.61	472.79
524.78	379.17
524.96	358.10
525.13	463.43
525.30	414.27
525.47	409.59
525.64	437.68
525.81	428.32
525.98	423.64
526.16	395.55
526.33	475.13
526.50	442.36
526.67	372.15
526.84	386.19
527.01	435.34
527.18	461.09
527.36	463.43
527.53	454.06
527.70	442.36
527.87	425.98
528.04	491.51
528.21	472.79
528.38	442.36
528.55	414.27
528.72	404.91
528.89	409.59
529.07	423.64
529.24	435.34
529.41	444.70
529.58	435.34
529.75	423.64
529.92	472.79
530.09	472.79
530.26	383.85
530.43	414.27
530.60	433.00
530.77	397.89
530.94	404.91
531.11	437.68
531.28	428.32
531.46	433.00
531.63	435.34
531.80	463.43
531.97	301.93
532.14	447.04
532.31	402.57
532.48	421.30
532.65	379.17
532.82	444.70
532.99	498.53
533.16	374.49
533.33	425.98
533.50	458.74
533.67	430.66
533.84	372.15
534.01	430.66
534.18	440.02
534.35	521.94
534.52	433.00
534.69	421.30
534.86	407.25
535.03	416.62
535.20	404.91
535.37	484.49
535.54	440.02
535.71	465.77
535.88	416.62
536.05	407.25
536.22	486.83
536.38	409.59
536.55	437.68
536.72	489.17
536.89	475.13
537.06	414.27
537.23	306.61
537.40	325.33
537.57	397.89
537.74	397.89
537.91	404.91
538.08	351.08
538.25	430.66
538.42	423.64
538.59	454.06
538.75	395.55
538.92	477.47
539.09	414.27
539.26	383.85
539.43	437.68
539.60	454.06
539.77	482.15
539.94	440.02
540.11	381.51
540.28	367.46
540.44	425.98
540.61	456.40
540.78	425.98
540.95	395.55
541.12	418.96
541.29	390.87
541.46	465.77
541.62	463.43
541.79	365.12
541.96	358.10
542.13	418.96
542.30	421.30
542.47	372.15
542.63	423.64
542.80	414.27
542.97	372.15
543.14	465.77
543.31	409.59
543.48	390.87
543.64	440.02
543.81	402.57
543.98	433.00
544.15	491.51
544.32	402.57
544.48	430.66
544.65	386.19
544.82	365.12
544.99	365.12
545.16	510.24
545.32	440.02
545.49	437.68
545.66	418.96
545.83	362.78
546.00	425.98
546.16	400.23
546.33	397.89
546.50	430.66
546.67	477.47
546.83	458.74
547.00	409.59
547.17	416.62
547.34	414.27
547.50	379.17
547.67	414.27
547.84	423.64
548.00	390.87
548.17	477.47
548.34	362.78
548.51	465.77
548.67	355.76
548.84	421.30
549.01	351.08
549.18	449.38
549.34	435.34
549.51	390.87
549.68	451.72
549.84	486.83
550.01	369.80
550.18	475.13
550.34	482.15
550.51	447.04
550.68	484.49
550.84	454.06
551.01	355.76
551.18	362.78
551.34	430.66
551.51	451.72
551.68	447.04
551.84	461.09
552.01	423.64
552.18	428.32
552.34	458.74
552.51	423.64
552.68	383.85
552.84	402.57
553.01	435.34
553.18	461.09
553.34	409.59
553.51	416.62
553.67	397.89
553.84	411.93
554.01	500.87
554.17	470.45
554.34	397.89
554.51	430.66
554.67	451.72
554.84	397.89
555.00	437.68
555.17	390.87
555.33	402.57
555.50	423.64
555.67	437.68
555.83	435.34
556.00	388.53
556.16	561.73
556.33	458.74
556.50	367.46
556.66	397.89
556.83	435.34
556.99	400.23
557.16	397.89
557.32	390.87
557.49	365.12
557.65	440.02
557.82	414.27
557.98	498.53
558.15	390.87
558.32	414.27
558.48	327.68
558.65	362.78
558.81	442.36
558.98	421.30
559.14	458.74
559.31	407.25
559.47	383.85
559.64	484.49
559.80	447.04
559.97	402.57
560.13	390.87
560.30	379.17
560.46	435.34
560.63	400.23
560.79	379.17
560.96	355.76
561.12	395.55
561.29	402.57
561.45	411.93
561.61	374.49
561.78	421.30
561.94	458.74
562.11	416.62
562.27	444.70
562.44	411.93
562.60	390.87
562.77	407.25
562.93	507.90
563.10	477.47
563.26	440.02
563.42	409.59
563.59	418.96
563.75	386.19
563.92	461.09
564.08	355.76
564.24	423.64
564.41	416.62
564.57	449.38
564.74	341.72
564.90	437.68
565.07	458.74
565.23	440.02
565.39	454.06
565.56	393.21
565.72	379.17
565.88	479.81
566.05	430.66
566.21	433.00
566.38	444.70
566.54	447.04
566.70	365.12
566.87	367.46
567.03	374.49
567.19	421.30
567.36	451.72
567.52	334.70
567.68	404.91
567.85	475.13
568.01	409.59
568.17	444.70
568.34	390.87
568.50	435.34
568.66	383.85
568.83	503.22
568.99	409.59
569.15	440.02
569.32	423.64
569.48	430.66
569.64	444.70
569.81	372.15
569.97	383.85
570.13	393.21
570.30	313.63
570.46	383.85
570.62	449.38
570.78	449.38
570.95	421.30
571.11	507.90
571.27	425.98
571.43	374.49
571.60	440.02
571.76	451.72
571.92	388.53
572.09	498.53
572.25	416.62
572.41	379.17
572.57	447.04
572.74	440.02
572.90	465.77
573.06	402.57
573.22	423.64
573.38	458.74
573.55	395.55
573.71	435.34
573.87	430.66
574.03	365.12
574.20	400.23
574.36	437.68
574.52	388.53
574.68	433.00
574.84	421.30
575.01	449.38
575.17	486.83
575.33	435.34
575.49	421.30
575.65	449.38
575.82	416.62
575.98	421.30
576.14	440.02
576.30	430.66
576.46	425.98
576.62	388.53
576.79	456.40
576.95	489.17
577.11	395.55
577.27	358.10
577.43	475.13
577.59	454.06
577.75	430.66
577.92	425.98
578.08	433.00
578.24	423.64
578.40	421.30
578.56	465.77
578.72	465.77
578.88	461.09
579.04	404.91
579.21	430.66
579.37	458.74
579.53	376.83
579.69	414.27
579.85	376.83
580.01	449.38
580.17	454.06
580.33	454.06
580.49	421.30
580.65	472.79
580.82	397.89
580.98	383.85
581.14	472.79
581.30	440.02
581.46	435.34
581.62	465.77
581.78	383.85
581.94	386.19
582.10	470.45
582.26	468.11
582.42	395.55
582.58	458.74
582.74	442.36
582.90	437.68
583.06	463.43
583.22	393.21
583.38	442.36
583.54	456.40
583.70	449.38
583.86	428.32
584.02	348.74
584.18	395.55
584.34	376.83
584.50	449.38
584.66	386.19
584.82	414.27
584.98	386.19
585.14	447.04
585.30	440.02
585.46	463.43
585.62	442.36
585.78	458.74
585.94	430.66
586.10	428.32
586.26	437.68
586.42	458.74
586.58	367.46
586.74	369.80
586.90	421.30
587.06	440.02
587.22	489.17
587.38	421.30
587.54	437.68
587.70	430.66
587.86	397.89
588.02	437.68
588.18	470.45
588.34	503.22
588.49	346.40
588.65	472.79
588.81	355.76
588.97	421.30
589.13	393.21
589.29	409.59
589.45	472.79
589.61	372.15
589.77	538.32
589.93	418.96
590.08	365.12
590.24	372.15
590.40	433.00
590.56	428.32
590.72	423.64
590.88	411.93
591.04	435.34
591.20	402.57
591.35	484.49
591.51	395.55
591.67	416.62
591.83	449.38
591.99	437.68
592.15	493.85
592.31	404.91
592.46	484.49
592.62	437.68
592.78	402.57
592.94	402.57
593.10	447.04
593.26	355.76
593.41	430.66
593.57	404.91
593.73	442.36
593.89	425.98
594.05	376.83
594.20	390.87
594.36	428.32
594.52	393.21
594.68	418.96
594.84	533.64
594.99	381.51
595.15	379.17
595.31	376.83
595.47	362.78
595.62	496.19
595.78	454.06
595.94	397.89
596.10	442.36
596.25	376.83
596.41	433.00
596.57	409.59
596.73	348.74
596.88	463.43
597.04	449.38
597.20	493.85
597.36	409.59
597.51	339.38
597.67	400.23
597.83	369.80
597.99	454.06
598.14	379.17
598.30	482.15
598.46	479.81
598.61	482.15
598.77	463.43
598.93	437.68
599.09	400.23
599.24	383.85
599.40	458.74
599.56	421.30
599.71	500.87
599.87	425.98
600.03	404.91
600.18	430.66
600.34	386.19
600.50	463.43
600.65	381.51
600.81	472.79
600.97	395.55
601.12	461.09
601.28	440.02
601.44	430.66
601.59	472.79
601.75	468.11
601.91	437.68
602.06	451.72
602.22	484.49
602.37	435.34
602.53	425.98
602.69	435.34
602.84	407.25
603.00	390.87
603.16	440.02
603.31	433.00
603.47	430.66
603.62	372.15
603.78	440.02
603.94	402.57
604.09	451.72
604.25	449.38
604.40	414.27
604.56	435.34
604.71	465.77
604.87	402.57
605.03	386.19
605.18	425.98
605.34	484.49
605.49	334.70
605.65	449.38
605.80	369.80
605.96	374.49
606.12	503.22
606.27	395.55
606.43	365.12
606.58	447.04
606.74	451.72
606.89	388.53
607.05	421.30
607.20	451.72
607.36	444.70
607.51	418.96
607.67	433.00
607.82	470.45
607.98	435.34
608.13	435.34
608.29	369.80
608.44	475.13
608.60	491.51
608.75	451.72
608.91	421.30
609.06	397.89
609.22	362.78
609.37	442.36
609.53	428.32
609.68	386.19
609.84	428.32
609.99	409.59
610.15	468.11
