SpectraSuite Data File
++++++++++++++++++++++++++++++++++++
Date: Fri Oct 25 12:11:34 EDT 2013
User: price-jones
Dark Spectrum Present: No
Reference Spectrum Present: No
Number of Sampled Component Spectra: 1
Spectrometers: USB2+H05261
Integration Time (usec): 100000 (USB2+H05261)
Spectra Averaged: 1 (USB2+H05261)
Boxcar Smoothing: 0 (USB2+H05261)
Correct for Electrical Dark: No (USB2+H05261)
Strobe/Lamp Enabled: No (USB2+H05261)
Correct for Detector Non-linearity: No (USB2+H05261)
Correct for Stray Light: No (USB2+H05261)
Number of Pixels in Processed Spectrum: 2048
>>>>>Begin Processed Spectral Data<<<<<
365.73	353.42
365.92	353.42
366.12	353.42
366.32	290.23
366.52	294.91
366.72	278.52
366.91	236.39
367.11	259.80
367.31	217.67
367.51	138.09
367.70	210.65
367.90	203.63
368.10	208.31
368.30	234.05
368.49	248.10
368.69	332.36
368.89	245.76
369.09	271.50
369.28	227.03
369.48	276.18
369.68	243.42
369.87	278.52
370.07	325.33
370.27	397.89
370.47	330.02
370.66	337.04
370.86	428.32
371.06	393.21
371.25	454.06
371.45	355.76
371.65	421.30
371.84	388.53
372.04	351.08
372.24	421.30
372.44	388.53
372.63	458.74
372.83	376.83
373.03	484.49
373.22	454.06
373.42	428.32
373.62	365.12
373.81	393.21
374.01	435.34
374.21	437.68
374.40	402.57
374.60	444.70
374.79	440.02
374.99	425.98
375.19	395.55
375.38	418.96
375.58	456.40
375.78	465.77
375.97	433.00
376.17	447.04
376.37	437.68
376.56	395.55
376.76	360.44
376.95	418.96
377.15	348.74
377.35	404.91
377.54	393.21
377.74	404.91
377.93	407.25
378.13	411.93
378.33	451.72
378.52	362.78
378.72	458.74
378.91	428.32
379.11	397.89
379.31	351.08
379.50	444.70
379.70	491.51
379.89	470.45
380.09	442.36
380.28	416.62
380.48	369.80
380.68	402.57
380.87	416.62
381.07	409.59
381.26	393.21
381.46	475.13
381.65	447.04
381.85	379.17
382.04	411.93
382.24	404.91
382.43	353.42
382.63	395.55
382.83	442.36
383.02	418.96
383.22	386.19
383.41	458.74
383.61	437.68
383.80	433.00
384.00	404.91
384.19	381.51
384.39	411.93
384.58	409.59
384.78	404.91
384.97	400.23
385.17	463.43
385.36	318.31
385.56	411.93
385.75	372.15
385.95	400.23
386.14	430.66
386.34	369.80
386.53	390.87
386.72	362.78
386.92	374.49
387.11	433.00
387.31	390.87
387.50	388.53
387.70	383.85
387.89	430.66
388.09	414.27
388.28	409.59
388.48	418.96
388.67	423.64
388.86	421.30
389.06	416.62
389.25	393.21
389.45	386.19
389.64	414.27
389.84	365.12
390.03	475.13
390.22	444.70
390.42	388.53
390.61	447.04
390.81	372.15
391.00	418.96
391.19	465.77
391.39	472.79
391.58	390.87
391.78	423.64
391.97	470.45
392.16	313.63
392.36	463.43
392.55	400.23
392.75	425.98
392.94	411.93
393.13	365.12
393.33	372.15
393.52	414.27
393.71	449.38
393.91	440.02
394.10	400.23
394.29	379.17
394.49	423.64
394.68	362.78
394.88	425.98
395.07	437.68
395.26	447.04
395.46	381.51
395.65	538.32
395.84	468.11
396.04	402.57
396.23	407.25
396.42	458.74
396.62	397.89
396.81	449.38
397.00	362.78
397.19	479.81
397.39	418.96
397.58	374.49
397.77	433.00
397.97	468.11
398.16	395.55
398.35	379.17
398.55	404.91
398.74	442.36
398.93	400.23
399.12	390.87
399.32	444.70
399.51	456.40
399.70	418.96
399.90	437.68
400.09	344.06
400.28	362.78
400.47	456.40
400.67	409.59
400.86	404.91
401.05	376.83
401.24	442.36
401.44	390.87
401.63	362.78
401.82	475.13
402.01	367.46
402.21	386.19
402.40	418.96
402.59	376.83
402.78	395.55
402.97	369.80
403.17	472.79
403.36	421.30
403.55	397.89
403.74	381.51
403.93	379.17
404.13	409.59
404.32	440.02
404.51	421.30
404.70	411.93
404.89	423.64
405.09	390.87
405.28	402.57
405.47	472.79
405.66	367.46
405.85	517.26
406.05	397.89
406.24	365.12
406.43	367.46
406.62	348.74
406.81	379.17
407.00	393.21
407.20	390.87
407.39	430.66
407.58	442.36
407.77	433.00
407.96	409.59
408.15	393.21
408.34	404.91
408.54	351.08
408.73	407.25
408.92	489.17
409.11	404.91
409.30	411.93
409.49	346.40
409.68	428.32
409.87	437.68
410.07	430.66
410.26	498.53
410.45	428.32
410.64	437.68
410.83	414.27
411.02	393.21
411.21	386.19
411.40	449.38
411.59	337.04
411.78	327.68
411.98	369.80
412.17	362.78
412.36	456.40
412.55	409.59
412.74	414.27
412.93	472.79
413.12	418.96
413.31	414.27
413.50	379.17
413.69	442.36
413.88	411.93
414.07	376.83
414.26	400.23
414.45	421.30
414.64	372.15
414.83	360.44
415.02	418.96
415.22	430.66
415.41	425.98
415.60	393.21
415.79	421.30
415.98	435.34
416.17	362.78
416.36	383.85
416.55	365.12
416.74	360.44
416.93	461.09
417.12	379.17
417.31	339.38
417.50	402.57
417.69	374.49
417.88	418.96
418.07	425.98
418.26	458.74
418.45	372.15
418.64	440.02
418.83	421.30
419.02	456.40
419.21	486.83
419.39	435.34
419.58	388.53
419.77	376.83
419.96	416.62
420.15	444.70
420.34	430.66
420.53	454.06
420.72	435.34
420.91	409.59
421.10	348.74
421.29	456.40
421.48	411.93
421.67	440.02
421.86	414.27
422.05	500.87
422.24	390.87
422.43	400.23
422.61	440.02
422.80	369.80
422.99	428.32
423.18	440.02
423.37	437.68
423.56	407.25
423.75	496.19
423.94	393.21
424.13	407.25
424.32	395.55
424.50	442.36
424.69	465.77
424.88	463.43
425.07	372.15
425.26	416.62
425.45	390.87
425.64	383.85
425.83	400.23
426.01	475.13
426.20	393.21
426.39	447.04
426.58	365.12
426.77	428.32
426.96	362.78
427.15	297.25
427.33	425.98
427.52	393.21
427.71	437.68
427.90	421.30
428.09	407.25
428.28	444.70
428.46	423.64
428.65	456.40
428.84	395.55
429.03	358.10
429.22	404.91
429.40	421.30
429.59	397.89
429.78	514.92
429.97	477.47
430.16	402.57
430.34	400.23
430.53	454.06
430.72	472.79
430.91	451.72
431.10	456.40
431.28	411.93
431.47	390.87
431.66	435.34
431.85	423.64
432.03	423.64
432.22	458.74
432.41	379.17
432.60	400.23
432.79	374.49
432.97	423.64
433.16	425.98
433.35	404.91
433.54	421.30
433.72	353.42
433.91	437.68
434.10	353.42
434.28	489.17
434.47	308.95
434.66	435.34
434.85	414.27
435.03	404.91
435.22	435.34
435.41	449.38
435.59	484.49
435.78	409.59
435.97	341.72
436.16	411.93
436.34	463.43
436.53	421.30
436.72	395.55
436.90	435.34
437.09	381.51
437.28	411.93
437.46	437.68
437.65	430.66
437.84	440.02
438.02	388.53
438.21	362.78
438.40	393.21
438.58	395.55
438.77	383.85
438.96	386.19
439.14	437.68
439.33	400.23
439.52	402.57
439.70	402.57
439.89	454.06
440.08	397.89
440.26	428.32
440.45	418.96
440.63	404.91
440.82	449.38
441.01	418.96
441.19	383.85
441.38	468.11
441.57	404.91
441.75	395.55
441.94	390.87
442.12	386.19
442.31	388.53
442.50	365.12
442.68	423.64
442.87	395.55
443.05	372.15
443.24	449.38
443.43	449.38
443.61	444.70
443.80	461.09
443.98	411.93
444.17	346.40
444.35	437.68
444.54	379.17
444.73	404.91
444.91	442.36
445.10	444.70
445.28	435.34
445.47	372.15
445.65	390.87
445.84	379.17
446.02	425.98
446.21	409.59
446.39	404.91
446.58	468.11
446.77	390.87
446.95	428.32
447.14	402.57
447.32	374.49
447.51	454.06
447.69	407.25
447.88	379.17
448.06	374.49
448.25	444.70
448.43	414.27
448.62	388.53
448.80	463.43
448.99	418.96
449.17	430.66
449.36	402.57
449.54	435.34
449.73	465.77
449.91	465.77
450.10	390.87
450.28	425.98
450.46	416.62
450.65	402.57
450.83	355.76
451.02	416.62
451.20	444.70
451.39	425.98
451.57	421.30
451.76	425.98
451.94	388.53
452.13	451.72
452.31	447.04
452.49	451.72
452.68	332.36
452.86	463.43
453.05	505.56
453.23	430.66
453.42	449.38
453.60	524.28
453.78	404.91
453.97	395.55
454.15	425.98
454.34	395.55
454.52	360.44
454.70	421.30
454.89	458.74
455.07	425.98
455.26	423.64
455.44	414.27
455.62	367.46
455.81	416.62
455.99	393.21
456.17	428.32
456.36	461.09
456.54	395.55
456.73	381.51
456.91	421.30
457.09	449.38
457.28	418.96
457.46	414.27
457.64	454.06
457.83	404.91
458.01	465.77
458.19	491.51
458.38	421.30
458.56	414.27
458.74	402.57
458.93	477.47
459.11	402.57
459.29	416.62
459.48	461.09
459.66	468.11
459.84	449.38
460.03	465.77
460.21	442.36
460.39	465.77
460.57	447.04
460.76	407.25
460.94	433.00
461.12	430.66
461.31	472.79
461.49	409.59
461.67	414.27
461.85	327.68
462.04	449.38
462.22	767.70
462.40	411.93
462.59	407.25
462.77	397.89
462.95	386.19
463.13	423.64
463.32	416.62
463.50	418.96
463.68	430.66
463.86	425.98
464.05	411.93
464.23	470.45
464.41	425.98
464.59	365.12
464.78	397.89
464.96	475.13
465.14	465.77
465.32	400.23
465.50	376.83
465.69	411.93
465.87	376.83
466.05	435.34
466.23	383.85
466.41	444.70
466.60	400.23
466.78	519.60
466.96	430.66
467.14	423.64
467.32	395.55
467.51	400.23
467.69	386.19
467.87	383.85
468.05	442.36
468.23	463.43
468.41	374.49
468.60	421.30
468.78	425.98
468.96	456.40
469.14	447.04
469.32	395.55
469.50	397.89
469.69	468.11
469.87	440.02
470.05	416.62
470.23	468.11
470.41	362.78
470.59	428.32
470.77	482.15
470.95	393.21
471.14	381.51
471.32	414.27
471.50	479.81
471.68	379.17
471.86	479.81
472.04	379.17
472.22	400.23
472.40	404.91
472.58	411.93
472.77	404.91
472.95	475.13
473.13	449.38
473.31	496.19
473.49	379.17
473.67	332.36
473.85	472.79
474.03	390.87
474.21	379.17
474.39	449.38
474.57	514.92
474.75	411.93
474.93	390.87
475.12	395.55
475.30	437.68
475.48	386.19
475.66	416.62
475.84	393.21
476.02	414.27
476.20	491.51
476.38	411.93
476.56	435.34
476.74	376.83
476.92	402.57
477.10	409.59
477.28	472.79
477.46	404.91
477.64	465.77
477.82	421.30
478.00	416.62
478.18	449.38
478.36	358.10
478.54	407.25
478.72	395.55
478.90	421.30
479.08	390.87
479.26	430.66
479.44	414.27
479.62	374.49
479.80	393.21
479.98	404.91
480.16	369.80
480.34	365.12
480.52	404.91
480.70	458.74
480.88	444.70
481.06	456.40
481.24	416.62
481.41	437.68
481.59	423.64
481.77	421.30
481.95	416.62
482.13	470.45
482.31	425.98
482.49	388.53
482.67	468.11
482.85	458.74
483.03	362.78
483.21	381.51
483.39	449.38
483.57	411.93
483.74	456.40
483.92	404.91
484.10	386.19
484.28	433.00
484.46	411.93
484.64	435.34
484.82	404.91
485.00	409.59
485.18	493.85
485.35	395.55
485.53	435.34
485.71	475.13
485.89	430.66
486.07	423.64
486.25	458.74
486.43	379.17
486.61	435.34
486.78	491.51
486.96	425.98
487.14	407.25
487.32	395.55
487.50	372.15
487.68	440.02
487.85	409.59
488.03	372.15
488.21	423.64
488.39	348.74
488.57	404.91
488.75	402.57
488.92	489.17
489.10	407.25
489.28	411.93
489.46	358.10
489.64	421.30
489.81	362.78
489.99	355.76
490.17	423.64
490.35	442.36
490.53	442.36
490.70	330.02
490.88	465.77
491.06	404.91
491.24	388.53
491.41	456.40
491.59	416.62
491.77	393.21
491.95	409.59
492.13	409.59
492.30	369.80
492.48	440.02
492.66	353.42
492.84	390.87
493.01	463.43
493.19	451.72
493.37	444.70
493.54	390.87
493.72	418.96
493.90	442.36
494.08	381.51
494.25	388.53
494.43	402.57
494.61	400.23
494.79	367.46
494.96	409.59
495.14	404.91
495.32	433.00
495.49	479.81
495.67	430.66
495.85	437.68
496.02	411.93
496.20	404.91
496.38	400.23
496.55	353.42
496.73	383.85
496.91	397.89
497.09	449.38
497.26	397.89
497.44	341.72
497.62	362.78
497.79	376.83
497.97	456.40
498.14	465.77
498.32	425.98
498.50	414.27
498.67	407.25
498.85	463.43
499.03	418.96
499.20	458.74
499.38	376.83
499.56	437.68
499.73	470.45
499.91	456.40
500.08	418.96
500.26	430.66
500.44	381.51
500.61	407.25
500.79	519.60
500.97	425.98
501.14	477.47
501.32	367.46
501.49	449.38
501.67	440.02
501.84	489.17
502.02	442.36
502.20	451.72
502.37	423.64
502.55	397.89
502.72	407.25
502.90	447.04
503.07	404.91
503.25	458.74
503.43	451.72
503.60	440.02
503.78	437.68
503.95	461.09
504.13	458.74
504.30	463.43
504.48	374.49
504.65	475.13
504.83	521.94
505.01	383.85
505.18	435.34
505.36	381.51
505.53	461.09
505.71	472.79
505.88	484.49
506.06	402.57
506.23	348.74
506.41	325.33
506.58	444.70
506.76	421.30
506.93	388.53
507.11	425.98
507.28	374.49
507.46	447.04
507.63	461.09
507.81	346.40
507.98	395.55
508.16	388.53
508.33	369.80
508.50	407.25
508.68	416.62
508.85	407.25
509.03	388.53
509.20	435.34
509.38	404.91
509.55	454.06
509.73	383.85
509.90	440.02
510.08	418.96
510.25	433.00
510.42	381.51
510.60	402.57
510.77	423.64
510.95	395.55
511.12	381.51
511.30	379.17
511.47	430.66
511.64	470.45
511.82	367.46
511.99	411.93
512.17	435.34
512.34	444.70
512.51	397.89
512.69	454.06
512.86	402.57
513.04	435.34
513.21	416.62
513.38	423.64
513.56	430.66
513.73	390.87
513.90	425.98
514.08	374.49
514.25	372.15
514.43	444.70
514.60	341.72
514.77	421.30
514.95	397.89
515.12	418.96
515.29	390.87
515.47	367.46
515.64	404.91
515.81	402.57
515.99	524.28
516.16	444.70
516.33	430.66
516.51	475.13
516.68	456.40
516.85	374.49
517.03	442.36
517.20	470.45
517.37	416.62
517.54	479.81
517.72	397.89
517.89	360.44
518.06	374.49
518.24	428.32
518.41	407.25
518.58	393.21
518.75	402.57
518.93	397.89
519.10	383.85
519.27	423.64
519.45	461.09
519.62	463.43
519.79	435.34
519.96	379.17
520.14	355.76
520.31	442.36
520.48	458.74
520.65	416.62
520.83	425.98
521.00	451.72
521.17	456.40
521.34	489.17
521.52	409.59
521.69	341.72
521.86	425.98
522.03	437.68
522.20	491.51
522.38	379.17
522.55	440.02
522.72	425.98
522.89	489.17
523.07	468.11
523.24	423.64
523.41	404.91
523.58	365.12
523.75	449.38
523.92	468.11
524.10	411.93
524.27	379.17
524.44	404.91
524.61	386.19
524.78	451.72
524.96	437.68
525.13	440.02
525.30	440.02
525.47	411.93
525.64	416.62
525.81	416.62
525.98	458.74
526.16	496.19
526.33	404.91
526.50	334.70
526.67	397.89
526.84	400.23
527.01	428.32
527.18	465.77
527.36	482.15
527.53	358.10
527.70	510.24
527.87	416.62
528.04	454.06
528.21	400.23
528.38	430.66
528.55	430.66
528.72	496.19
528.89	442.36
529.07	400.23
529.24	449.38
529.41	411.93
529.58	454.06
529.75	425.98
529.92	479.81
530.09	458.74
530.26	367.46
530.43	489.17
530.60	440.02
530.77	365.12
530.94	440.02
531.11	440.02
531.28	358.10
531.46	386.19
531.63	386.19
531.80	411.93
531.97	470.45
532.14	411.93
532.31	468.11
532.48	423.64
532.65	404.91
532.82	447.04
532.99	428.32
533.16	440.02
533.33	411.93
533.50	365.12
533.67	362.78
533.84	360.44
534.01	461.09
534.18	435.34
534.35	463.43
534.52	400.23
534.69	418.96
534.86	390.87
535.03	397.89
535.20	411.93
535.37	367.46
535.54	435.34
535.71	416.62
535.88	425.98
536.05	409.59
536.22	442.36
536.38	365.12
536.55	416.62
536.72	421.30
536.89	372.15
537.06	346.40
537.23	402.57
537.40	409.59
537.57	365.12
537.74	416.62
537.91	430.66
538.08	379.17
538.25	397.89
538.42	486.83
538.59	416.62
538.75	505.56
538.92	393.21
539.09	372.15
539.26	428.32
539.43	472.79
539.60	458.74
539.77	409.59
539.94	367.46
540.11	442.36
540.28	414.27
540.44	411.93
540.61	404.91
540.78	386.19
540.95	360.44
541.12	346.40
541.29	465.77
541.46	456.40
541.62	440.02
541.79	402.57
541.96	367.46
542.13	402.57
542.30	435.34
542.47	428.32
542.63	402.57
542.80	477.47
542.97	409.59
543.14	425.98
543.31	440.02
543.48	461.09
543.64	437.68
543.81	393.21
543.98	383.85
544.15	428.32
544.32	472.79
544.48	407.25
544.65	341.72
544.82	414.27
544.99	435.34
545.16	421.30
545.32	374.49
545.49	463.43
545.66	440.02
545.83	407.25
546.00	418.96
546.16	393.21
546.33	416.62
546.50	365.12
546.67	463.43
546.83	463.43
547.00	454.06
547.17	437.68
547.34	444.70
547.50	425.98
547.67	393.21
547.84	383.85
548.00	430.66
548.17	421.30
548.34	468.11
548.51	496.19
548.67	500.87
548.84	379.17
549.01	423.64
549.18	433.00
549.34	383.85
549.51	400.23
549.68	421.30
549.84	404.91
550.01	386.19
550.18	554.71
550.34	489.17
550.51	409.59
550.68	498.53
550.84	493.85
551.01	479.81
551.18	447.04
551.34	433.00
551.51	404.91
551.68	433.00
551.84	472.79
552.01	430.66
552.18	395.55
552.34	374.49
552.51	402.57
552.68	458.74
552.84	407.25
553.01	468.11
553.18	440.02
553.34	393.21
553.51	425.98
553.67	433.00
553.84	472.79
554.01	346.40
554.17	423.64
554.34	379.17
554.51	451.72
554.67	444.70
554.84	435.34
555.00	479.81
555.17	463.43
555.33	404.91
555.50	442.36
555.67	362.78
555.83	416.62
556.00	353.42
556.16	514.92
556.33	421.30
556.50	376.83
556.66	447.04
556.83	388.53
556.99	397.89
557.16	475.13
557.32	360.44
557.49	500.87
557.65	442.36
557.82	447.04
557.98	425.98
558.15	407.25
558.32	379.17
558.48	388.53
558.65	435.34
558.81	440.02
558.98	383.85
559.14	447.04
559.31	418.96
559.47	395.55
559.64	451.72
559.80	425.98
559.97	421.30
560.13	435.34
560.30	444.70
560.46	414.27
560.63	409.59
560.79	428.32
560.96	428.32
561.12	379.17
561.29	435.34
561.45	407.25
561.61	397.89
561.78	489.17
561.94	388.53
562.11	430.66
562.27	395.55
562.44	390.87
562.60	447.04
562.77	411.93
562.93	524.28
563.10	400.23
563.26	468.11
563.42	411.93
563.59	456.40
563.75	423.64
563.92	433.00
564.08	437.68
564.24	437.68
564.41	510.24
564.57	402.57
564.74	437.68
564.90	435.34
565.07	465.77
565.23	447.04
565.39	411.93
565.56	437.68
565.72	416.62
565.88	437.68
566.05	440.02
566.21	425.98
566.38	477.47
566.54	402.57
566.70	435.34
566.87	437.68
567.03	402.57
567.19	475.13
567.36	444.70
567.52	407.25
567.68	404.91
567.85	468.11
568.01	407.25
568.17	428.32
568.34	397.89
568.50	402.57
568.66	430.66
568.83	493.85
568.99	428.32
569.15	491.51
569.32	411.93
569.48	454.06
569.64	390.87
569.81	430.66
569.97	423.64
570.13	461.09
570.30	383.85
570.46	428.32
570.62	447.04
570.78	404.91
570.95	390.87
571.11	395.55
571.27	435.34
571.43	390.87
571.60	500.87
571.76	360.44
571.92	428.32
572.09	400.23
572.25	388.53
572.41	465.77
572.57	379.17
572.74	447.04
572.90	423.64
573.06	409.59
573.22	365.12
573.38	418.96
573.55	454.06
573.71	423.64
573.87	465.77
574.03	409.59
574.20	397.89
574.36	344.06
574.52	435.34
574.68	435.34
574.84	472.79
575.01	358.10
575.17	425.98
575.33	365.12
575.49	411.93
575.65	428.32
575.82	379.17
575.98	355.76
576.14	489.17
576.30	463.43
576.46	458.74
576.62	470.45
576.79	409.59
576.95	386.19
577.11	374.49
577.27	372.15
577.43	437.68
577.59	430.66
577.75	376.83
577.92	404.91
578.08	425.98
578.24	379.17
578.40	479.81
578.56	472.79
578.72	400.23
578.88	428.32
579.04	479.81
579.21	400.23
579.37	444.70
579.53	362.78
579.69	456.40
579.85	470.45
580.01	449.38
580.17	435.34
580.33	411.93
580.49	379.17
580.65	451.72
580.82	430.66
580.98	418.96
581.14	390.87
581.30	421.30
581.46	374.49
581.62	475.13
581.78	442.36
581.94	425.98
582.10	414.27
582.26	411.93
582.42	386.19
582.58	468.11
582.74	388.53
582.90	402.57
583.06	409.59
583.22	395.55
583.38	404.91
583.54	372.15
583.70	449.38
583.86	393.21
584.02	414.27
584.18	479.81
584.34	409.59
584.50	360.44
584.66	430.66
584.82	414.27
584.98	416.62
585.14	486.83
585.30	493.85
585.46	444.70
585.62	393.21
585.78	418.96
585.94	486.83
586.10	379.17
586.26	397.89
586.42	482.15
586.58	416.62
586.74	369.80
586.90	355.76
587.06	442.36
587.22	440.02
587.38	454.06
587.54	418.96
587.70	440.02
587.86	418.96
588.02	428.32
588.18	437.68
588.34	416.62
588.49	383.85
588.65	456.40
588.81	402.57
588.97	367.46
589.13	365.12
589.29	383.85
589.45	402.57
589.61	397.89
589.77	475.13
589.93	388.53
590.08	435.34
590.24	456.40
590.40	339.38
590.56	447.04
590.72	444.70
590.88	334.70
591.04	390.87
591.20	435.34
591.35	454.06
591.51	428.32
591.67	390.87
591.83	360.44
591.99	416.62
592.15	390.87
592.31	379.17
592.46	383.85
592.62	418.96
592.78	423.64
592.94	379.17
593.10	418.96
593.26	451.72
593.41	411.93
593.57	477.47
593.73	416.62
593.89	428.32
594.05	388.53
594.20	421.30
594.36	505.56
594.52	451.72
594.68	414.27
594.84	463.43
594.99	461.09
595.15	435.34
595.31	440.02
595.47	451.72
595.62	383.85
595.78	425.98
595.94	411.93
596.10	456.40
596.25	461.09
596.41	461.09
596.57	425.98
596.73	449.38
596.88	397.89
597.04	400.23
597.20	428.32
597.36	533.64
597.51	414.27
597.67	472.79
597.83	433.00
597.99	402.57
598.14	353.42
598.30	433.00
598.46	393.21
598.61	395.55
598.77	479.81
598.93	514.92
599.09	416.62
599.24	475.13
599.40	461.09
599.56	433.00
599.71	397.89
599.87	463.43
600.03	435.34
600.18	416.62
600.34	447.04
600.50	379.17
600.65	433.00
600.81	451.72
600.97	454.06
601.12	404.91
601.28	395.55
601.44	454.06
601.59	390.87
601.75	416.62
601.91	468.11
602.06	451.72
602.22	449.38
602.37	379.17
602.53	414.27
602.69	395.55
602.84	337.04
603.00	472.79
603.16	482.15
603.31	390.87
603.47	430.66
603.62	397.89
603.78	447.04
603.94	444.70
604.09	388.53
604.25	463.43
604.40	421.30
604.56	430.66
604.71	337.04
604.87	407.25
605.03	393.21
605.18	404.91
605.34	500.87
605.49	416.62
605.65	409.59
605.80	360.44
605.96	479.81
606.12	458.74
606.27	397.89
606.43	428.32
606.58	440.02
606.74	348.74
606.89	400.23
607.05	456.40
607.20	358.10
607.36	437.68
607.51	428.32
607.67	407.25
607.82	411.93
607.98	456.40
608.13	437.68
608.29	430.66
608.44	433.00
608.60	404.91
608.75	416.62
608.91	402.57
609.06	423.64
609.22	414.27
609.37	390.87
609.53	414.27
609.68	435.34
609.84	477.47
609.99	470.45
610.15	402.57
