SpectraSuite Data File
++++++++++++++++++++++++++++++++++++
Date: Fri Oct 25 12:10:35 EDT 2013
User: price-jones
Dark Spectrum Present: No
Reference Spectrum Present: No
Number of Sampled Component Spectra: 1
Spectrometers: USB2+H05261
Integration Time (usec): 100000 (USB2+H05261)
Spectra Averaged: 1 (USB2+H05261)
Boxcar Smoothing: 0 (USB2+H05261)
Correct for Electrical Dark: No (USB2+H05261)
Strobe/Lamp Enabled: No (USB2+H05261)
Correct for Detector Non-linearity: No (USB2+H05261)
Correct for Stray Light: No (USB2+H05261)
Number of Pixels in Processed Spectrum: 2048
>>>>>Begin Processed Spectral Data<<<<<
365.73	372.15
365.92	372.15
366.12	372.15
366.32	325.33
366.52	198.95
366.72	241.08
366.91	203.63
367.11	194.26
367.31	231.71
367.51	234.05
367.70	212.99
367.90	229.37
368.10	283.20
368.30	250.44
368.49	212.99
368.69	278.52
368.89	290.23
369.09	252.78
369.28	264.48
369.48	231.71
369.68	231.71
369.87	271.50
370.07	264.48
370.27	346.40
370.47	355.76
370.66	351.08
370.86	390.87
371.06	386.19
371.25	414.27
371.45	327.68
371.65	379.17
371.84	362.78
372.04	372.15
372.24	308.95
372.44	447.04
372.63	348.74
372.83	444.70
373.03	330.02
373.22	360.44
373.42	409.59
373.62	423.64
373.81	425.98
374.01	365.12
374.21	465.77
374.40	468.11
374.60	362.78
374.79	369.80
374.99	418.96
375.19	475.13
375.38	358.10
375.58	372.15
375.78	418.96
375.97	437.68
376.17	435.34
376.37	411.93
376.56	470.45
376.76	449.38
376.95	400.23
377.15	440.02
377.35	404.91
377.54	461.09
377.74	376.83
377.93	407.25
378.13	411.93
378.33	381.51
378.52	402.57
378.72	395.55
378.91	423.64
379.11	461.09
379.31	486.83
379.50	369.80
379.70	421.30
379.89	400.23
380.09	390.87
380.28	414.27
380.48	437.68
380.68	362.78
380.87	374.49
381.07	433.00
381.26	428.32
381.46	388.53
381.65	456.40
381.85	372.15
382.04	311.29
382.24	372.15
382.43	365.12
382.63	374.49
382.83	421.30
383.02	390.87
383.22	433.00
383.41	442.36
383.61	428.32
383.80	414.27
384.00	393.21
384.19	383.85
384.39	465.77
384.58	402.57
384.78	451.72
384.97	416.62
385.17	388.53
385.36	416.62
385.56	374.49
385.75	358.10
385.95	421.30
386.14	458.74
386.34	416.62
386.53	407.25
386.72	379.17
386.92	409.59
387.11	425.98
387.31	407.25
387.50	388.53
387.70	402.57
387.89	332.36
388.09	360.44
388.28	318.31
388.48	353.42
388.67	400.23
388.86	339.38
389.06	440.02
389.25	437.68
389.45	327.68
389.64	365.12
389.84	470.45
390.03	454.06
390.22	404.91
390.42	407.25
390.61	372.15
390.81	346.40
391.00	369.80
391.19	397.89
391.39	440.02
391.58	425.98
391.78	414.27
391.97	346.40
392.16	365.12
392.36	390.87
392.55	463.43
392.75	383.85
392.94	444.70
393.13	449.38
393.33	362.78
393.52	395.55
393.71	458.74
393.91	449.38
394.10	376.83
394.29	397.89
394.49	395.55
394.68	404.91
394.88	379.17
395.07	477.47
395.26	475.13
395.46	465.77
395.65	379.17
395.84	386.19
396.04	451.72
396.23	430.66
396.42	421.30
396.62	470.45
396.81	376.83
397.00	369.80
397.19	456.40
397.39	388.53
397.58	461.09
397.77	440.02
397.97	411.93
398.16	395.55
398.35	437.68
398.55	344.06
398.74	437.68
398.93	411.93
399.12	388.53
399.32	449.38
399.51	402.57
399.70	386.19
399.90	411.93
400.09	444.70
400.28	421.30
400.47	404.91
400.67	395.55
400.86	379.17
401.05	351.08
401.24	407.25
401.44	454.06
401.63	404.91
401.82	358.10
402.01	376.83
402.21	463.43
402.40	442.36
402.59	407.25
402.78	379.17
402.97	402.57
403.17	470.45
403.36	482.15
403.55	400.23
403.74	404.91
403.93	397.89
404.13	458.74
404.32	423.64
404.51	346.40
404.70	397.89
404.89	409.59
405.09	442.36
405.28	442.36
405.47	379.17
405.66	475.13
405.85	388.53
406.05	442.36
406.24	416.62
406.43	341.72
406.62	440.02
406.81	400.23
407.00	451.72
407.20	465.77
407.39	369.80
407.58	388.53
407.77	397.89
407.96	404.91
408.15	447.04
408.34	461.09
408.54	372.15
408.73	397.89
408.92	381.51
409.11	379.17
409.30	423.64
409.49	397.89
409.68	353.42
409.87	430.66
410.07	386.19
410.26	442.36
410.45	442.36
410.64	442.36
410.83	322.99
411.02	332.36
411.21	442.36
411.40	374.49
411.59	404.91
411.78	425.98
411.98	381.51
412.17	297.25
412.36	374.49
412.55	449.38
412.74	435.34
412.93	376.83
413.12	418.96
413.31	458.74
413.50	437.68
413.69	402.57
413.88	491.51
414.07	437.68
414.26	358.10
414.45	379.17
414.64	383.85
414.83	428.32
415.02	423.64
415.22	393.21
415.41	430.66
415.60	449.38
415.79	393.21
415.98	442.36
416.17	428.32
416.36	477.47
416.55	383.85
416.74	440.02
416.93	388.53
417.12	430.66
417.31	395.55
417.50	512.58
417.69	479.81
417.88	454.06
418.07	318.31
418.26	386.19
418.45	397.89
418.64	411.93
418.83	440.02
419.02	454.06
419.21	437.68
419.39	425.98
419.58	381.51
419.77	381.51
419.96	440.02
420.15	507.90
420.34	372.15
420.53	421.30
420.72	430.66
420.91	451.72
421.10	463.43
421.29	421.30
421.48	376.83
421.67	395.55
421.86	388.53
422.05	416.62
422.24	437.68
422.43	381.51
422.61	379.17
422.80	437.68
422.99	423.64
423.18	341.72
423.37	418.96
423.56	421.30
423.75	362.78
423.94	306.61
424.13	400.23
424.32	416.62
424.50	346.40
424.69	430.66
424.88	465.77
425.07	374.49
425.26	369.80
425.45	425.98
425.64	418.96
425.83	430.66
426.01	376.83
426.20	400.23
426.39	374.49
426.58	397.89
426.77	489.17
426.96	353.42
427.15	365.12
427.33	362.78
427.52	409.59
427.71	475.13
427.90	463.43
428.09	461.09
428.28	444.70
428.46	484.49
428.65	402.57
428.84	381.51
429.03	440.02
429.22	402.57
429.40	451.72
429.59	442.36
429.78	407.25
429.97	367.46
430.16	311.29
430.34	414.27
430.53	400.23
430.72	369.80
430.91	386.19
431.10	383.85
431.28	365.12
431.47	390.87
431.66	442.36
431.85	433.00
432.03	425.98
432.22	409.59
432.41	425.98
432.60	388.53
432.79	430.66
432.97	425.98
433.16	414.27
433.35	416.62
433.54	430.66
433.72	456.40
433.91	400.23
434.10	498.53
434.28	503.22
434.47	374.49
434.66	470.45
434.85	437.68
435.03	390.87
435.22	430.66
435.41	423.64
435.59	390.87
435.78	353.42
435.97	402.57
436.16	407.25
436.34	430.66
436.53	374.49
436.72	454.06
436.90	435.34
437.09	418.96
437.28	409.59
437.46	390.87
437.65	421.30
437.84	461.09
438.02	430.66
438.21	475.13
438.40	435.34
438.58	409.59
438.77	472.79
438.96	472.79
439.14	393.21
439.33	381.51
439.52	411.93
439.70	407.25
439.89	416.62
440.08	395.55
440.26	341.72
440.45	433.00
440.63	435.34
440.82	372.15
441.01	507.90
441.19	430.66
441.38	390.87
441.57	397.89
441.75	463.43
441.94	458.74
442.12	421.30
442.31	397.89
442.50	404.91
442.68	479.81
442.87	395.55
443.05	465.77
443.24	407.25
443.43	482.15
443.61	524.28
443.80	411.93
443.98	402.57
444.17	428.32
444.35	416.62
444.54	397.89
444.73	411.93
444.91	463.43
445.10	414.27
445.28	358.10
445.47	365.12
445.65	447.04
445.84	444.70
446.02	491.51
446.21	351.08
446.39	404.91
446.58	388.53
446.77	433.00
446.95	306.61
447.14	414.27
447.32	430.66
447.51	346.40
447.69	442.36
447.88	393.21
448.06	376.83
448.25	458.74
448.43	355.76
448.62	425.98
448.80	433.00
448.99	421.30
449.17	397.89
449.36	486.83
449.54	414.27
449.73	418.96
449.91	421.30
450.10	372.15
450.28	458.74
450.46	444.70
450.65	411.93
450.83	372.15
451.02	482.15
451.20	442.36
451.39	355.76
451.57	351.08
451.76	402.57
451.94	421.30
452.13	407.25
452.31	404.91
452.49	337.04
452.68	348.74
452.86	367.46
453.05	472.79
453.23	367.46
453.42	400.23
453.60	367.46
453.78	428.32
453.97	334.70
454.15	423.64
454.34	390.87
454.52	374.49
454.70	472.79
454.89	421.30
455.07	416.62
455.26	489.17
455.44	463.43
455.62	463.43
455.81	428.32
455.99	407.25
456.17	411.93
456.36	407.25
456.54	379.17
456.73	362.78
456.91	437.68
457.09	393.21
457.28	423.64
457.46	421.30
457.64	383.85
457.83	381.51
458.01	428.32
458.19	416.62
458.38	395.55
458.56	351.08
458.74	400.23
458.93	454.06
459.11	430.66
459.29	407.25
459.48	461.09
459.66	369.80
459.84	444.70
460.03	489.17
460.21	456.40
460.39	496.19
460.57	402.57
460.76	470.45
460.94	440.02
461.12	425.98
461.31	482.15
461.49	402.57
461.67	390.87
461.85	397.89
462.04	337.04
462.22	772.38
462.40	397.89
462.59	435.34
462.77	372.15
462.95	404.91
463.13	449.38
463.32	486.83
463.50	409.59
463.68	491.51
463.86	376.83
464.05	402.57
464.23	414.27
464.41	470.45
464.59	397.89
464.78	407.25
464.96	393.21
465.14	386.19
465.32	327.68
465.50	397.89
465.69	393.21
465.87	341.72
466.05	379.17
466.23	390.87
466.41	465.77
466.60	456.40
466.78	400.23
466.96	397.89
467.14	428.32
467.32	379.17
467.51	374.49
467.69	409.59
467.87	425.98
468.05	442.36
468.23	472.79
468.41	390.87
468.60	416.62
468.78	367.46
468.96	470.45
469.14	477.47
469.32	404.91
469.50	510.24
469.69	430.66
469.87	411.93
470.05	374.49
470.23	423.64
470.41	339.38
470.59	465.77
470.77	351.08
470.95	393.21
471.14	442.36
471.32	409.59
471.50	355.76
471.68	498.53
471.86	402.57
472.04	430.66
472.22	430.66
472.40	435.34
472.58	341.72
472.77	428.32
472.95	369.80
473.13	449.38
473.31	409.59
473.49	409.59
473.67	423.64
473.85	451.72
474.03	449.38
474.21	477.47
474.39	397.89
474.57	430.66
474.75	447.04
474.93	393.21
475.12	423.64
475.30	365.12
475.48	425.98
475.66	425.98
475.84	379.17
476.02	423.64
476.20	444.70
476.38	454.06
476.56	463.43
476.74	376.83
476.92	369.80
477.10	433.00
477.28	479.81
477.46	411.93
477.64	454.06
477.82	369.80
478.00	461.09
478.18	404.91
478.36	402.57
478.54	334.70
478.72	388.53
478.90	390.87
479.08	458.74
479.26	365.12
479.44	386.19
479.62	437.68
479.80	341.72
479.98	437.68
480.16	402.57
480.34	437.68
480.52	376.83
480.70	416.62
480.88	425.98
481.06	458.74
481.24	381.51
481.41	351.08
481.59	390.87
481.77	407.25
481.95	402.57
482.13	428.32
482.31	421.30
482.49	425.98
482.67	411.93
482.85	437.68
483.03	461.09
483.21	491.51
483.39	402.57
483.57	402.57
483.74	416.62
483.92	454.06
484.10	409.59
484.28	437.68
484.46	416.62
484.64	402.57
484.82	433.00
485.00	437.68
485.18	386.19
485.35	482.15
485.53	376.83
485.71	430.66
485.89	409.59
486.07	386.19
486.25	388.53
486.43	477.47
486.61	421.30
486.78	400.23
486.96	430.66
487.14	404.91
487.32	402.57
487.50	425.98
487.68	376.83
487.85	367.46
488.03	465.77
488.21	477.47
488.39	402.57
488.57	442.36
488.75	369.80
488.92	517.26
489.10	360.44
489.28	444.70
489.46	437.68
489.64	440.02
489.81	437.68
489.99	433.00
490.17	402.57
490.35	489.17
490.53	388.53
490.70	451.72
490.88	456.40
491.06	442.36
491.24	435.34
491.41	444.70
491.59	507.90
491.77	383.85
491.95	430.66
492.13	451.72
492.30	444.70
492.48	409.59
492.66	393.21
492.84	374.49
493.01	479.81
493.19	365.12
493.37	451.72
493.54	414.27
493.72	388.53
493.90	376.83
494.08	416.62
494.25	461.09
494.43	503.22
494.61	491.51
494.79	355.76
494.96	379.17
495.14	468.11
495.32	374.49
495.49	430.66
495.67	411.93
495.85	440.02
496.02	395.55
496.20	374.49
496.38	409.59
496.55	425.98
496.73	409.59
496.91	440.02
497.09	376.83
497.26	372.15
497.44	421.30
497.62	465.77
497.79	341.72
497.97	416.62
498.14	400.23
498.32	411.93
498.50	461.09
498.67	468.11
498.85	362.78
499.03	355.76
499.20	435.34
499.38	477.47
499.56	395.55
499.73	388.53
499.91	493.85
500.08	374.49
500.26	397.89
500.44	397.89
500.61	465.77
500.79	353.42
500.97	414.27
501.14	416.62
501.32	433.00
501.49	440.02
501.67	472.79
501.84	440.02
502.02	379.17
502.20	451.72
502.37	423.64
502.55	393.21
502.72	416.62
502.90	440.02
503.07	454.06
503.25	475.13
503.43	437.68
503.60	402.57
503.78	433.00
503.95	397.89
504.13	369.80
504.30	456.40
504.48	400.23
504.65	428.32
504.83	407.25
505.01	440.02
505.18	449.38
505.36	369.80
505.53	353.42
505.71	444.70
505.88	409.59
506.06	430.66
506.23	421.30
506.41	386.19
506.58	470.45
506.76	390.87
506.93	334.70
507.11	472.79
507.28	418.96
507.46	440.02
507.63	454.06
507.81	402.57
507.98	444.70
508.16	454.06
508.33	425.98
508.50	444.70
508.68	379.17
508.85	351.08
509.03	418.96
509.20	365.12
509.38	423.64
509.55	451.72
509.73	402.57
509.90	493.85
510.08	437.68
510.25	402.57
510.42	372.15
510.60	400.23
510.77	458.74
510.95	407.25
511.12	428.32
511.30	475.13
511.47	362.78
511.64	442.36
511.82	423.64
511.99	444.70
512.17	358.10
512.34	444.70
512.51	372.15
512.69	395.55
512.86	433.00
513.04	489.17
513.21	458.74
513.38	358.10
513.56	372.15
513.73	444.70
513.90	393.21
514.08	372.15
514.25	360.44
514.43	334.70
514.60	365.12
514.77	414.27
514.95	430.66
515.12	428.32
515.29	407.25
515.47	447.04
515.64	425.98
515.81	414.27
515.99	456.40
516.16	397.89
516.33	444.70
516.51	407.25
516.68	477.47
516.85	379.17
517.03	397.89
517.20	379.17
517.37	365.12
517.54	423.64
517.72	402.57
517.89	369.80
518.06	421.30
518.24	372.15
518.41	458.74
518.58	372.15
518.75	362.78
518.93	395.55
519.10	411.93
519.27	383.85
519.45	397.89
519.62	383.85
519.79	383.85
519.96	404.91
520.14	451.72
520.31	463.43
520.48	451.72
520.65	381.51
520.83	442.36
521.00	407.25
521.17	461.09
521.34	372.15
521.52	390.87
521.69	418.96
521.86	435.34
522.03	386.19
522.20	421.30
522.38	404.91
522.55	414.27
522.72	451.72
522.89	491.51
523.07	503.22
523.24	463.43
523.41	423.64
523.58	411.93
523.75	433.00
523.92	400.23
524.10	428.32
524.27	456.40
524.44	393.21
524.61	411.93
524.78	449.38
524.96	433.00
525.13	404.91
525.30	444.70
525.47	440.02
525.64	351.08
525.81	463.43
525.98	470.45
526.16	437.68
526.33	425.98
526.50	339.38
526.67	402.57
526.84	386.19
527.01	390.87
527.18	362.78
527.36	421.30
527.53	358.10
527.70	397.89
527.87	390.87
528.04	400.23
528.21	404.91
528.38	468.11
528.55	430.66
528.72	458.74
528.89	374.49
529.07	411.93
529.24	397.89
529.41	449.38
529.58	411.93
529.75	470.45
529.92	482.15
530.09	414.27
530.26	451.72
530.43	454.06
530.60	470.45
530.77	337.04
530.94	395.55
531.11	390.87
531.28	374.49
531.46	470.45
531.63	500.87
531.80	402.57
531.97	395.55
532.14	388.53
532.31	458.74
532.48	475.13
532.65	402.57
532.82	402.57
532.99	390.87
533.16	435.34
533.33	386.19
533.50	468.11
533.67	381.51
533.84	388.53
534.01	463.43
534.18	479.81
534.35	383.85
534.52	409.59
534.69	461.09
534.86	395.55
535.03	454.06
535.20	379.17
535.37	411.93
535.54	421.30
535.71	428.32
535.88	367.46
536.05	386.19
536.22	435.34
536.38	428.32
536.55	383.85
536.72	409.59
536.89	423.64
537.06	435.34
537.23	475.13
537.40	444.70
537.57	418.96
537.74	435.34
537.91	430.66
538.08	395.55
538.25	437.68
538.42	407.25
538.59	463.43
538.75	456.40
538.92	388.53
539.09	435.34
539.26	449.38
539.43	463.43
539.60	414.27
539.77	433.00
539.94	334.70
540.11	465.77
540.28	461.09
540.44	463.43
540.61	421.30
540.78	393.21
540.95	435.34
541.12	428.32
541.29	421.30
541.46	503.22
541.62	468.11
541.79	367.46
541.96	414.27
542.13	400.23
542.30	496.19
542.47	465.77
542.63	433.00
542.80	435.34
542.97	463.43
543.14	449.38
543.31	374.49
543.48	409.59
543.64	435.34
543.81	442.36
543.98	423.64
544.15	355.76
544.32	411.93
544.48	411.93
544.65	475.13
544.82	376.83
544.99	430.66
545.16	437.68
545.32	330.02
545.49	430.66
545.66	423.64
545.83	414.27
546.00	411.93
546.16	421.30
546.33	463.43
546.50	372.15
546.67	458.74
546.83	423.64
547.00	461.09
547.17	423.64
547.34	358.10
547.50	355.76
547.67	465.77
547.84	409.59
548.00	454.06
548.17	454.06
548.34	454.06
548.51	465.77
548.67	496.19
548.84	381.51
549.01	428.32
549.18	402.57
549.34	428.32
549.51	451.72
549.68	411.93
549.84	423.64
550.01	376.83
550.18	475.13
550.34	475.13
550.51	407.25
550.68	407.25
550.84	369.80
551.01	404.91
551.18	435.34
551.34	421.30
551.51	372.15
551.68	442.36
551.84	351.08
552.01	470.45
552.18	400.23
552.34	376.83
552.51	376.83
552.68	447.04
552.84	337.04
553.01	388.53
553.18	433.00
553.34	400.23
553.51	383.85
553.67	369.80
553.84	440.02
554.01	433.00
554.17	404.91
554.34	372.15
554.51	388.53
554.67	477.47
554.84	463.43
555.00	421.30
555.17	383.85
555.33	442.36
555.50	477.47
555.67	461.09
555.83	358.10
556.00	365.12
556.16	489.17
556.33	482.15
556.50	416.62
556.66	402.57
556.83	400.23
556.99	386.19
557.16	425.98
557.32	444.70
557.49	362.78
557.65	472.79
557.82	468.11
557.98	416.62
558.15	477.47
558.32	414.27
558.48	386.19
558.65	411.93
558.81	351.08
558.98	447.04
559.14	428.32
559.31	470.45
559.47	484.49
559.64	367.46
559.80	395.55
559.97	456.40
560.13	484.49
560.30	440.02
560.46	409.59
560.63	390.87
560.79	421.30
560.96	386.19
561.12	447.04
561.29	484.49
561.45	468.11
561.61	435.34
561.78	470.45
561.94	414.27
562.11	383.85
562.27	421.30
562.44	355.76
562.60	423.64
562.77	367.46
562.93	404.91
563.10	407.25
563.26	423.64
563.42	421.30
563.59	383.85
563.75	383.85
563.92	517.26
564.08	456.40
564.24	416.62
564.41	444.70
564.57	425.98
564.74	442.36
564.90	425.98
565.07	486.83
565.23	477.47
565.39	409.59
565.56	414.27
565.72	416.62
565.88	369.80
566.05	390.87
566.21	400.23
566.38	402.57
566.54	372.15
566.70	444.70
566.87	524.28
567.03	416.62
567.19	388.53
567.36	468.11
567.52	477.47
567.68	437.68
567.85	503.22
568.01	442.36
568.17	428.32
568.34	489.17
568.50	517.26
568.66	416.62
568.83	475.13
568.99	472.79
569.15	451.72
569.32	435.34
569.48	421.30
569.64	409.59
569.81	444.70
569.97	433.00
570.13	475.13
570.30	435.34
570.46	425.98
570.62	425.98
570.78	409.59
570.95	379.17
571.11	449.38
571.27	449.38
571.43	351.08
571.60	383.85
571.76	379.17
571.92	369.80
572.09	472.79
572.25	409.59
572.41	400.23
572.57	290.23
572.74	451.72
572.90	411.93
573.06	463.43
573.22	465.77
573.38	414.27
573.55	421.30
573.71	470.45
573.87	388.53
574.03	362.78
574.20	372.15
574.36	423.64
574.52	414.27
574.68	425.98
574.84	341.72
575.01	379.17
575.17	409.59
575.33	423.64
575.49	402.57
575.65	437.68
575.82	465.77
575.98	416.62
576.14	435.34
576.30	465.77
576.46	411.93
576.62	449.38
576.79	411.93
576.95	433.00
577.11	416.62
577.27	346.40
577.43	337.04
577.59	414.27
577.75	402.57
577.92	433.00
578.08	409.59
578.24	411.93
578.40	451.72
578.56	449.38
578.72	416.62
578.88	435.34
579.04	390.87
579.21	421.30
579.37	400.23
579.53	400.23
579.69	425.98
579.85	407.25
580.01	414.27
580.17	388.53
580.33	374.49
580.49	418.96
580.65	397.89
580.82	451.72
580.98	358.10
581.14	365.12
581.30	407.25
581.46	437.68
581.62	482.15
581.78	332.36
581.94	416.62
582.10	407.25
582.26	456.40
582.42	428.32
582.58	421.30
582.74	428.32
582.90	393.21
583.06	461.09
583.22	458.74
583.38	372.15
583.54	395.55
583.70	423.64
583.86	341.72
584.02	444.70
584.18	477.47
584.34	447.04
584.50	383.85
584.66	468.11
584.82	355.76
584.98	390.87
585.14	421.30
585.30	322.99
585.46	348.74
585.62	465.77
585.78	404.91
585.94	440.02
586.10	482.15
586.26	414.27
586.42	447.04
586.58	379.17
586.74	475.13
586.90	465.77
587.06	449.38
587.22	390.87
587.38	355.76
587.54	430.66
587.70	393.21
587.86	461.09
588.02	421.30
588.18	404.91
588.34	365.12
588.49	325.33
588.65	493.85
588.81	430.66
588.97	376.83
589.13	388.53
589.29	418.96
589.45	463.43
589.61	456.40
589.77	411.93
589.93	383.85
590.08	423.64
590.24	369.80
590.40	489.17
590.56	411.93
590.72	428.32
590.88	348.74
591.04	475.13
591.20	404.91
591.35	461.09
591.51	395.55
591.67	447.04
591.83	454.06
591.99	407.25
592.15	362.78
592.31	325.33
592.46	381.51
592.62	423.64
592.78	409.59
592.94	458.74
593.10	390.87
593.26	416.62
593.41	447.04
593.57	421.30
593.73	463.43
593.89	418.96
594.05	472.79
594.20	416.62
594.36	430.66
594.52	435.34
594.68	395.55
594.84	447.04
594.99	477.47
595.15	395.55
595.31	430.66
595.47	486.83
595.62	475.13
595.78	374.49
595.94	430.66
596.10	470.45
596.25	482.15
596.41	447.04
596.57	393.21
596.73	372.15
596.88	348.74
597.04	435.34
597.20	437.68
597.36	433.00
597.51	414.27
597.67	409.59
597.83	395.55
597.99	477.47
598.14	418.96
598.30	498.53
598.46	531.30
598.61	477.47
598.77	435.34
598.93	390.87
599.09	433.00
599.24	414.27
599.40	395.55
599.56	407.25
599.71	414.27
599.87	344.06
600.03	430.66
600.18	454.06
600.34	470.45
600.50	444.70
600.65	409.59
600.81	526.62
600.97	397.89
601.12	402.57
601.28	358.10
601.44	386.19
601.59	409.59
601.75	430.66
601.91	388.53
602.06	416.62
602.22	479.81
602.37	388.53
602.53	428.32
602.69	437.68
602.84	421.30
603.00	461.09
603.16	411.93
603.31	461.09
603.47	475.13
603.62	404.91
603.78	383.85
603.94	402.57
604.09	458.74
604.25	376.83
604.40	437.68
604.56	430.66
604.71	341.72
604.87	465.77
605.03	414.27
605.18	355.76
605.34	433.00
605.49	414.27
605.65	383.85
605.80	423.64
605.96	388.53
606.12	472.79
606.27	402.57
606.43	472.79
606.58	454.06
606.74	395.55
606.89	360.44
607.05	486.83
607.20	468.11
607.36	409.59
607.51	351.08
607.67	372.15
607.82	402.57
607.98	535.98
608.13	404.91
608.29	425.98
608.44	388.53
608.60	372.15
608.75	388.53
608.91	449.38
609.06	409.59
609.22	423.64
609.37	397.89
609.53	416.62
609.68	348.74
609.84	475.13
609.99	440.02
610.15	355.76
