SpectraSuite Data File
++++++++++++++++++++++++++++++++++++
Date: Fri Oct 25 12:10:13 EDT 2013
User: price-jones
Dark Spectrum Present: No
Reference Spectrum Present: No
Number of Sampled Component Spectra: 1
Spectrometers: USB2+H05261
Integration Time (usec): 100000 (USB2+H05261)
Spectra Averaged: 1 (USB2+H05261)
Boxcar Smoothing: 0 (USB2+H05261)
Correct for Electrical Dark: No (USB2+H05261)
Strobe/Lamp Enabled: No (USB2+H05261)
Correct for Detector Non-linearity: No (USB2+H05261)
Correct for Stray Light: No (USB2+H05261)
Number of Pixels in Processed Spectrum: 2048
>>>>>Begin Processed Spectral Data<<<<<
365.73	362.78
365.92	362.78
366.12	362.78
366.32	198.95
366.52	259.80
366.72	313.63
366.91	212.99
367.11	269.16
367.31	168.52
367.51	222.35
367.70	224.69
367.90	241.08
368.10	250.44
368.30	271.50
368.49	255.12
368.69	255.12
368.89	222.35
369.09	344.06
369.28	276.18
369.48	353.42
369.68	276.18
369.87	262.14
370.07	292.57
370.27	360.44
370.47	374.49
370.66	334.70
370.86	341.72
371.06	344.06
371.25	442.36
371.45	360.44
371.65	365.12
371.84	330.02
372.04	355.76
372.24	341.72
372.44	365.12
372.63	362.78
372.83	414.27
373.03	388.53
373.22	411.93
373.42	456.40
373.62	355.76
373.81	362.78
374.01	397.89
374.21	390.87
374.40	334.70
374.60	400.23
374.79	390.87
374.99	411.93
375.19	386.19
375.38	372.15
375.58	428.32
375.78	383.85
375.97	388.53
376.17	482.15
376.37	418.96
376.56	423.64
376.76	484.49
376.95	430.66
377.15	458.74
377.35	358.10
377.54	428.32
377.74	449.38
377.93	451.72
378.13	386.19
378.33	407.25
378.52	442.36
378.72	440.02
378.91	367.46
379.11	407.25
379.31	435.34
379.50	351.08
379.70	437.68
379.89	479.81
380.09	351.08
380.28	376.83
380.48	365.12
380.68	341.72
380.87	465.77
381.07	404.91
381.26	425.98
381.46	463.43
381.65	454.06
381.85	407.25
382.04	433.00
382.24	390.87
382.43	386.19
382.63	390.87
382.83	386.19
383.02	409.59
383.22	400.23
383.41	367.46
383.61	365.12
383.80	369.80
384.00	355.76
384.19	397.89
384.39	472.79
384.58	437.68
384.78	362.78
384.97	372.15
385.17	346.40
385.36	390.87
385.56	411.93
385.75	365.12
385.95	390.87
386.14	411.93
386.34	376.83
386.53	374.49
386.72	360.44
386.92	402.57
387.11	449.38
387.31	379.17
387.50	362.78
387.70	423.64
387.89	454.06
388.09	416.62
388.28	458.74
388.48	393.21
388.67	423.64
388.86	484.49
389.06	353.42
389.25	407.25
389.45	512.58
389.64	437.68
389.84	435.34
390.03	416.62
390.22	402.57
390.42	425.98
390.61	404.91
390.81	425.98
391.00	353.42
391.19	397.89
391.39	346.40
391.58	479.81
391.78	411.93
391.97	449.38
392.16	388.53
392.36	423.64
392.55	437.68
392.75	397.89
392.94	470.45
393.13	416.62
393.33	456.40
393.52	421.30
393.71	402.57
393.91	440.02
394.10	374.49
394.29	393.21
394.49	369.80
394.68	374.49
394.88	423.64
395.07	390.87
395.26	407.25
395.46	428.32
395.65	402.57
395.84	397.89
396.04	447.04
396.23	390.87
396.42	395.55
396.62	390.87
396.81	425.98
397.00	442.36
397.19	402.57
397.39	313.63
397.58	449.38
397.77	416.62
397.97	444.70
398.16	388.53
398.35	369.80
398.55	393.21
398.74	475.13
398.93	400.23
399.12	416.62
399.32	332.36
399.51	397.89
399.70	449.38
399.90	409.59
400.09	470.45
400.28	416.62
400.47	393.21
400.67	475.13
400.86	351.08
401.05	404.91
401.24	449.38
401.44	418.96
401.63	372.15
401.82	393.21
402.01	395.55
402.21	418.96
402.40	337.04
402.59	444.70
402.78	428.32
402.97	383.85
403.17	411.93
403.36	348.74
403.55	393.21
403.74	393.21
403.93	346.40
404.13	414.27
404.32	402.57
404.51	425.98
404.70	433.00
404.89	414.27
405.09	461.09
405.28	395.55
405.47	372.15
405.66	437.68
405.85	369.80
406.05	435.34
406.24	325.33
406.43	407.25
406.62	500.87
406.81	465.77
407.00	397.89
407.20	374.49
407.39	372.15
407.58	425.98
407.77	447.04
407.96	428.32
408.15	402.57
408.34	348.74
408.54	322.99
408.73	400.23
408.92	475.13
409.11	362.78
409.30	463.43
409.49	416.62
409.68	386.19
409.87	360.44
410.07	397.89
410.26	421.30
410.45	397.89
410.64	376.83
410.83	397.89
411.02	430.66
411.21	400.23
411.40	442.36
411.59	339.38
411.78	423.64
411.98	381.51
412.17	351.08
412.36	393.21
412.55	430.66
412.74	449.38
412.93	367.46
413.12	433.00
413.31	475.13
413.50	449.38
413.69	442.36
413.88	472.79
414.07	416.62
414.26	421.30
414.45	383.85
414.64	374.49
414.83	416.62
415.02	376.83
415.22	425.98
415.41	503.22
415.60	374.49
415.79	390.87
415.98	430.66
416.17	425.98
416.36	372.15
416.55	409.59
416.74	402.57
416.93	383.85
417.12	461.09
417.31	451.72
417.50	393.21
417.69	428.32
417.88	402.57
418.07	404.91
418.26	442.36
418.45	428.32
418.64	437.68
418.83	423.64
419.02	416.62
419.21	369.80
419.39	383.85
419.58	400.23
419.77	351.08
419.96	442.36
420.15	409.59
420.34	416.62
420.53	416.62
420.72	358.10
420.91	397.89
421.10	411.93
421.29	393.21
421.48	437.68
421.67	514.92
421.86	421.30
422.05	400.23
422.24	440.02
422.43	421.30
422.61	421.30
422.80	475.13
422.99	468.11
423.18	367.46
423.37	409.59
423.56	402.57
423.75	360.44
423.94	442.36
424.13	435.34
424.32	447.04
424.50	489.17
424.69	397.89
424.88	428.32
425.07	447.04
425.26	390.87
425.45	425.98
425.64	428.32
425.83	430.66
426.01	447.04
426.20	425.98
426.39	348.74
426.58	418.96
426.77	423.64
426.96	470.45
427.15	369.80
427.33	386.19
427.52	425.98
427.71	388.53
427.90	400.23
428.09	332.36
428.28	416.62
428.46	416.62
428.65	404.91
428.84	397.89
429.03	397.89
429.22	339.38
429.40	411.93
429.59	404.91
429.78	395.55
429.97	477.47
430.16	430.66
430.34	421.30
430.53	376.83
430.72	402.57
430.91	337.04
431.10	395.55
431.28	456.40
431.47	468.11
431.66	372.15
431.85	407.25
432.03	435.34
432.22	421.30
432.41	451.72
432.60	402.57
432.79	486.83
432.97	423.64
433.16	437.68
433.35	416.62
433.54	454.06
433.72	421.30
433.91	461.09
434.10	435.34
434.28	383.85
434.47	463.43
434.66	463.43
434.85	362.78
435.03	341.72
435.22	479.81
435.41	411.93
435.59	447.04
435.78	390.87
435.97	388.53
436.16	442.36
436.34	407.25
436.53	397.89
436.72	484.49
436.90	444.70
437.09	435.34
437.28	500.87
437.46	311.29
437.65	414.27
437.84	428.32
438.02	433.00
438.21	341.72
438.40	348.74
438.58	376.83
438.77	397.89
438.96	407.25
439.14	367.46
439.33	404.91
439.52	409.59
439.70	362.78
439.89	437.68
440.08	418.96
440.26	442.36
440.45	414.27
440.63	409.59
440.82	358.10
441.01	440.02
441.19	428.32
441.38	430.66
441.57	442.36
441.75	451.72
441.94	428.32
442.12	395.55
442.31	440.02
442.50	456.40
442.68	376.83
442.87	449.38
443.05	402.57
443.24	407.25
443.43	383.85
443.61	454.06
443.80	449.38
443.98	397.89
444.17	496.19
444.35	433.00
444.54	325.33
444.73	402.57
444.91	395.55
445.10	411.93
445.28	418.96
445.47	390.87
445.65	395.55
445.84	400.23
446.02	341.72
446.21	369.80
446.39	409.59
446.58	397.89
446.77	386.19
446.95	397.89
447.14	425.98
447.32	500.87
447.51	365.12
447.69	369.80
447.88	440.02
448.06	416.62
448.25	404.91
448.43	372.15
448.62	428.32
448.80	402.57
448.99	397.89
449.17	425.98
449.36	381.51
449.54	425.98
449.73	414.27
449.91	433.00
450.10	407.25
450.28	463.43
450.46	470.45
450.65	397.89
450.83	423.64
451.02	409.59
451.20	479.81
451.39	383.85
451.57	491.51
451.76	393.21
451.94	383.85
452.13	404.91
452.31	491.51
452.49	353.42
452.68	416.62
452.86	379.17
453.05	440.02
453.23	433.00
453.42	395.55
453.60	355.76
453.78	423.64
453.97	416.62
454.15	388.53
454.34	435.34
454.52	440.02
454.70	411.93
454.89	425.98
455.07	444.70
455.26	414.27
455.44	428.32
455.62	395.55
455.81	393.21
455.99	414.27
456.17	435.34
456.36	388.53
456.54	418.96
456.73	440.02
456.91	351.08
457.09	409.59
457.28	425.98
457.46	435.34
457.64	362.78
457.83	367.46
458.01	498.53
458.19	479.81
458.38	430.66
458.56	386.19
458.74	463.43
458.93	472.79
459.11	365.12
459.29	339.38
459.48	386.19
459.66	447.04
459.84	440.02
460.03	454.06
460.21	547.69
460.39	435.34
460.57	418.96
460.76	367.46
460.94	440.02
461.12	418.96
461.31	393.21
461.49	409.59
461.67	379.17
461.85	390.87
462.04	470.45
462.22	823.87
462.40	409.59
462.59	458.74
462.77	526.62
462.95	376.83
463.13	458.74
463.32	454.06
463.50	383.85
463.68	458.74
463.86	493.85
464.05	418.96
464.23	442.36
464.41	360.44
464.59	369.80
464.78	393.21
464.96	437.68
465.14	444.70
465.32	407.25
465.50	428.32
465.69	491.51
465.87	388.53
466.05	402.57
466.23	449.38
466.41	449.38
466.60	393.21
466.78	402.57
466.96	423.64
467.14	390.87
467.32	404.91
467.51	444.70
467.69	404.91
467.87	440.02
468.05	463.43
468.23	486.83
468.41	461.09
468.60	381.51
468.78	346.40
468.96	463.43
469.14	454.06
469.32	461.09
469.50	397.89
469.69	451.72
469.87	348.74
470.05	390.87
470.23	341.72
470.41	351.08
470.59	397.89
470.77	421.30
470.95	442.36
471.14	421.30
471.32	475.13
471.50	461.09
471.68	479.81
471.86	414.27
472.04	468.11
472.22	437.68
472.40	390.87
472.58	351.08
472.77	404.91
472.95	395.55
473.13	461.09
473.31	425.98
473.49	454.06
473.67	428.32
473.85	454.06
474.03	386.19
474.21	407.25
474.39	503.22
474.57	472.79
474.75	393.21
474.93	428.32
475.12	367.46
475.30	372.15
475.48	411.93
475.66	407.25
475.84	421.30
476.02	477.47
476.20	421.30
476.38	411.93
476.56	435.34
476.74	442.36
476.92	409.59
477.10	379.17
477.28	418.96
477.46	407.25
477.64	442.36
477.82	404.91
478.00	421.30
478.18	395.55
478.36	374.49
478.54	423.64
478.72	386.19
478.90	491.51
479.08	498.53
479.26	397.89
479.44	353.42
479.62	351.08
479.80	468.11
479.98	428.32
480.16	374.49
480.34	437.68
480.52	404.91
480.70	351.08
480.88	407.25
481.06	376.83
481.24	463.43
481.41	393.21
481.59	444.70
481.77	500.87
481.95	444.70
482.13	435.34
482.31	393.21
482.49	341.72
482.67	437.68
482.85	388.53
483.03	351.08
483.21	423.64
483.39	425.98
483.57	423.64
483.74	383.85
483.92	381.51
484.10	379.17
484.28	521.94
484.46	404.91
484.64	428.32
484.82	475.13
485.00	430.66
485.18	503.22
485.35	383.85
485.53	437.68
485.71	442.36
485.89	423.64
486.07	381.51
486.25	465.77
486.43	440.02
486.61	414.27
486.78	430.66
486.96	414.27
487.14	411.93
487.32	416.62
487.50	447.04
487.68	376.83
487.85	334.70
488.03	397.89
488.21	430.66
488.39	355.76
488.57	393.21
488.75	411.93
488.92	545.34
489.10	437.68
489.28	400.23
489.46	372.15
489.64	514.92
489.81	369.80
489.99	437.68
490.17	381.51
490.35	458.74
490.53	383.85
490.70	428.32
490.88	414.27
491.06	463.43
491.24	339.38
491.41	414.27
491.59	421.30
491.77	402.57
491.95	407.25
492.13	482.15
492.30	430.66
492.48	390.87
492.66	430.66
492.84	404.91
493.01	423.64
493.19	407.25
493.37	458.74
493.54	404.91
493.72	440.02
493.90	372.15
494.08	372.15
494.25	465.77
494.43	383.85
494.61	440.02
494.79	395.55
494.96	454.06
495.14	337.04
495.32	447.04
495.49	430.66
495.67	416.62
495.85	402.57
496.02	395.55
496.20	400.23
496.38	440.02
496.55	454.06
496.73	344.06
496.91	402.57
497.09	451.72
497.26	393.21
497.44	362.78
497.62	428.32
497.79	425.98
497.97	388.53
498.14	463.43
498.32	433.00
498.50	416.62
498.67	404.91
498.85	461.09
499.03	418.96
499.20	428.32
499.38	369.80
499.56	407.25
499.73	414.27
499.91	409.59
500.08	407.25
500.26	465.77
500.44	447.04
500.61	409.59
500.79	341.72
500.97	447.04
501.14	463.43
501.32	475.13
501.49	470.45
501.67	449.38
501.84	425.98
502.02	493.85
502.20	433.00
502.37	423.64
502.55	468.11
502.72	423.64
502.90	390.87
503.07	409.59
503.25	402.57
503.43	454.06
503.60	376.83
503.78	440.02
503.95	444.70
504.13	435.34
504.30	404.91
504.48	416.62
504.65	484.49
504.83	454.06
505.01	402.57
505.18	430.66
505.36	416.62
505.53	418.96
505.71	379.17
505.88	383.85
506.06	388.53
506.23	463.43
506.41	393.21
506.58	437.68
506.76	386.19
506.93	388.53
507.11	367.46
507.28	409.59
507.46	395.55
507.63	428.32
507.81	404.91
507.98	393.21
508.16	390.87
508.33	416.62
508.50	390.87
508.68	402.57
508.85	409.59
509.03	362.78
509.20	358.10
509.38	425.98
509.55	437.68
509.73	475.13
509.90	402.57
510.08	351.08
510.25	458.74
510.42	425.98
510.60	409.59
510.77	482.15
510.95	433.00
511.12	442.36
511.30	489.17
511.47	400.23
511.64	451.72
511.82	393.21
511.99	397.89
512.17	411.93
512.34	355.76
512.51	411.93
512.69	421.30
512.86	433.00
513.04	381.51
513.21	379.17
513.38	379.17
513.56	418.96
513.73	402.57
513.90	463.43
514.08	337.04
514.25	386.19
514.43	430.66
514.60	369.80
514.77	416.62
514.95	365.12
515.12	433.00
515.29	482.15
515.47	416.62
515.64	372.15
515.81	390.87
515.99	500.87
516.16	486.83
516.33	409.59
516.51	400.23
516.68	440.02
516.85	458.74
517.03	456.40
517.20	444.70
517.37	400.23
517.54	376.83
517.72	358.10
517.89	465.77
518.06	435.34
518.24	430.66
518.41	468.11
518.58	423.64
518.75	400.23
518.93	381.51
519.10	402.57
519.27	362.78
519.45	416.62
519.62	440.02
519.79	477.47
519.96	458.74
520.14	421.30
520.31	369.80
520.48	458.74
520.65	418.96
520.83	381.51
521.00	402.57
521.17	475.13
521.34	383.85
521.52	376.83
521.69	468.11
521.86	351.08
522.03	484.49
522.20	468.11
522.38	395.55
522.55	430.66
522.72	388.53
522.89	440.02
523.07	416.62
523.24	374.49
523.41	418.96
523.58	383.85
523.75	411.93
523.92	425.98
524.10	362.78
524.27	442.36
524.44	435.34
524.61	409.59
524.78	409.59
524.96	409.59
525.13	428.32
525.30	517.26
525.47	383.85
525.64	400.23
525.81	435.34
525.98	395.55
526.16	444.70
526.33	433.00
526.50	428.32
526.67	402.57
526.84	482.15
527.01	353.42
527.18	397.89
527.36	355.76
527.53	400.23
527.70	421.30
527.87	433.00
528.04	440.02
528.21	393.21
528.38	433.00
528.55	526.62
528.72	482.15
528.89	414.27
529.07	418.96
529.24	409.59
529.41	416.62
529.58	463.43
529.75	348.74
529.92	409.59
530.09	416.62
530.26	411.93
530.43	381.51
530.60	365.12
530.77	421.30
530.94	379.17
531.11	411.93
531.28	416.62
531.46	400.23
531.63	400.23
531.80	411.93
531.97	421.30
532.14	407.25
532.31	425.98
532.48	407.25
532.65	418.96
532.82	421.30
532.99	444.70
533.16	397.89
533.33	390.87
533.50	365.12
533.67	322.99
533.84	423.64
534.01	421.30
534.18	402.57
534.35	423.64
534.52	414.27
534.69	451.72
534.86	435.34
535.03	397.89
535.20	395.55
535.37	440.02
535.54	421.30
535.71	381.51
535.88	456.40
536.05	372.15
536.22	376.83
536.38	433.00
536.55	358.10
536.72	425.98
536.89	447.04
537.06	400.23
537.23	404.91
537.40	400.23
537.57	433.00
537.74	437.68
537.91	449.38
538.08	430.66
538.25	418.96
538.42	381.51
538.59	430.66
538.75	472.79
538.92	437.68
539.09	472.79
539.26	444.70
539.43	418.96
539.60	390.87
539.77	435.34
539.94	365.12
540.11	407.25
540.28	433.00
540.44	489.17
540.61	418.96
540.78	358.10
540.95	400.23
541.12	482.15
541.29	454.06
541.46	409.59
541.62	428.32
541.79	451.72
541.96	437.68
542.13	463.43
542.30	311.29
542.47	374.49
542.63	353.42
542.80	379.17
542.97	458.74
543.14	369.80
543.31	454.06
543.48	395.55
543.64	447.04
543.81	435.34
543.98	440.02
544.15	334.70
544.32	362.78
544.48	440.02
544.65	407.25
544.82	383.85
544.99	409.59
545.16	409.59
545.32	388.53
545.49	437.68
545.66	428.32
545.83	379.17
546.00	430.66
546.16	355.76
546.33	433.00
546.50	407.25
546.67	440.02
546.83	479.81
547.00	411.93
547.17	444.70
547.34	437.68
547.50	386.19
547.67	430.66
547.84	477.47
548.00	507.90
548.17	423.64
548.34	404.91
548.51	379.17
548.67	390.87
548.84	379.17
549.01	493.85
549.18	397.89
549.34	458.74
549.51	388.53
549.68	484.49
549.84	404.91
550.01	369.80
550.18	470.45
550.34	550.03
550.51	390.87
550.68	463.43
550.84	337.04
551.01	393.21
551.18	414.27
551.34	421.30
551.51	362.78
551.68	470.45
551.84	402.57
552.01	393.21
552.18	367.46
552.34	381.51
552.51	440.02
552.68	430.66
552.84	386.19
553.01	458.74
553.18	402.57
553.34	407.25
553.51	428.32
553.67	463.43
553.84	470.45
554.01	435.34
554.17	430.66
554.34	379.17
554.51	451.72
554.67	435.34
554.84	423.64
555.00	414.27
555.17	454.06
555.33	444.70
555.50	393.21
555.67	416.62
555.83	390.87
556.00	383.85
556.16	507.90
556.33	425.98
556.50	390.87
556.66	496.19
556.83	348.74
556.99	449.38
557.16	428.32
557.32	402.57
557.49	461.09
557.65	416.62
557.82	437.68
557.98	400.23
558.15	484.49
558.32	402.57
558.48	411.93
558.65	428.32
558.81	442.36
558.98	468.11
559.14	451.72
559.31	437.68
559.47	402.57
559.64	470.45
559.80	456.40
559.97	397.89
560.13	397.89
560.30	355.76
560.46	381.51
560.63	372.15
560.79	404.91
560.96	428.32
561.12	374.49
561.29	479.81
561.45	477.47
561.61	437.68
561.78	447.04
561.94	433.00
562.11	320.65
562.27	421.30
562.44	397.89
562.60	409.59
562.77	444.70
562.93	461.09
563.10	381.51
563.26	451.72
563.42	489.17
563.59	416.62
563.75	416.62
563.92	409.59
564.08	449.38
564.24	388.53
564.41	512.58
564.57	367.46
564.74	442.36
564.90	395.55
565.07	468.11
565.23	430.66
565.39	496.19
565.56	372.15
565.72	402.57
565.88	372.15
566.05	442.36
566.21	393.21
566.38	449.38
566.54	472.79
566.70	451.72
566.87	416.62
567.03	334.70
567.19	493.85
567.36	433.00
567.52	416.62
567.68	440.02
567.85	414.27
568.01	372.15
568.17	465.77
568.34	407.25
568.50	416.62
568.66	421.30
568.83	524.28
568.99	416.62
569.15	411.93
569.32	456.40
569.48	507.90
569.64	444.70
569.81	521.94
569.97	430.66
570.13	433.00
570.30	409.59
570.46	372.15
570.62	330.02
570.78	393.21
570.95	414.27
571.11	430.66
571.27	451.72
571.43	365.12
571.60	484.49
571.76	461.09
571.92	484.49
572.09	330.02
572.25	437.68
572.41	383.85
572.57	388.53
572.74	444.70
572.90	409.59
573.06	369.80
573.22	374.49
573.38	435.34
573.55	362.78
573.71	440.02
573.87	400.23
574.03	416.62
574.20	411.93
574.36	498.53
574.52	409.59
574.68	407.25
574.84	376.83
575.01	458.74
575.17	409.59
575.33	393.21
575.49	397.89
575.65	447.04
575.82	442.36
575.98	444.70
576.14	414.27
576.30	372.15
576.46	393.21
576.62	348.74
576.79	442.36
576.95	475.13
577.11	437.68
577.27	379.17
577.43	468.11
577.59	463.43
577.75	470.45
577.92	482.15
578.08	442.36
578.24	430.66
578.40	430.66
578.56	421.30
578.72	451.72
578.88	425.98
579.04	449.38
579.21	386.19
579.37	409.59
579.53	440.02
579.69	393.21
579.85	390.87
580.01	407.25
580.17	425.98
580.33	440.02
580.49	374.49
580.65	447.04
580.82	440.02
580.98	393.21
581.14	407.25
581.30	376.83
581.46	435.34
581.62	449.38
581.78	390.87
581.94	454.06
582.10	330.02
582.26	358.10
582.42	367.46
582.58	430.66
582.74	472.79
582.90	428.32
583.06	435.34
583.22	372.15
583.38	330.02
583.54	430.66
583.70	428.32
583.86	442.36
584.02	430.66
584.18	388.53
584.34	374.49
584.50	418.96
584.66	437.68
584.82	430.66
584.98	472.79
585.14	393.21
585.30	423.64
585.46	362.78
585.62	418.96
585.78	458.74
585.94	386.19
586.10	447.04
586.26	376.83
586.42	376.83
586.58	449.38
586.74	400.23
586.90	386.19
587.06	330.02
587.22	454.06
587.38	433.00
587.54	430.66
587.70	418.96
587.86	318.31
588.02	374.49
588.18	435.34
588.34	423.64
588.49	292.57
588.65	400.23
588.81	435.34
588.97	449.38
589.13	423.64
589.29	454.06
589.45	470.45
589.61	437.68
589.77	425.98
589.93	444.70
590.08	430.66
590.24	397.89
590.40	369.80
590.56	447.04
590.72	444.70
590.88	428.32
591.04	428.32
591.20	393.21
591.35	461.09
591.51	437.68
591.67	423.64
591.83	421.30
591.99	442.36
592.15	451.72
592.31	433.00
592.46	421.30
592.62	383.85
592.78	402.57
592.94	411.93
593.10	416.62
593.26	411.93
593.41	442.36
593.57	407.25
593.73	327.68
593.89	456.40
594.05	402.57
594.20	458.74
594.36	430.66
594.52	376.83
594.68	451.72
594.84	491.51
594.99	430.66
595.15	381.51
595.31	491.51
595.47	465.77
595.62	428.32
595.78	451.72
595.94	409.59
596.10	421.30
596.25	372.15
596.41	397.89
596.57	458.74
596.73	486.83
596.88	461.09
597.04	519.60
597.20	411.93
597.36	437.68
597.51	454.06
597.67	461.09
597.83	369.80
597.99	418.96
598.14	334.70
598.30	440.02
598.46	416.62
598.61	418.96
598.77	463.43
598.93	414.27
599.09	374.49
599.24	365.12
599.40	500.87
599.56	402.57
599.71	337.04
599.87	458.74
600.03	353.42
600.18	407.25
600.34	416.62
600.50	442.36
600.65	409.59
600.81	411.93
600.97	451.72
601.12	433.00
601.28	477.47
601.44	402.57
601.59	402.57
601.75	416.62
601.91	376.83
602.06	430.66
602.22	440.02
602.37	437.68
602.53	421.30
602.69	402.57
602.84	400.23
603.00	489.17
603.16	397.89
603.31	400.23
603.47	411.93
603.62	425.98
603.78	433.00
603.94	423.64
604.09	400.23
604.25	425.98
604.40	341.72
604.56	386.19
604.71	444.70
604.87	479.81
605.03	461.09
605.18	458.74
605.34	430.66
605.49	421.30
605.65	425.98
605.80	365.12
605.96	404.91
606.12	456.40
606.27	395.55
606.43	458.74
606.58	463.43
606.74	416.62
606.89	383.85
607.05	402.57
607.20	402.57
607.36	428.32
607.51	397.89
607.67	341.72
607.82	416.62
607.98	449.38
608.13	472.79
608.29	409.59
608.44	451.72
608.60	393.21
608.75	465.77
608.91	421.30
609.06	376.83
609.22	470.45
609.37	433.00
609.53	470.45
609.68	463.43
609.84	425.98
609.99	430.66
610.15	428.32
