SpectraSuite Data File
++++++++++++++++++++++++++++++++++++
Date: Fri Oct 25 12:10:51 EDT 2013
User: price-jones
Dark Spectrum Present: No
Reference Spectrum Present: No
Number of Sampled Component Spectra: 1
Spectrometers: USB2+H05261
Integration Time (usec): 100000 (USB2+H05261)
Spectra Averaged: 1 (USB2+H05261)
Boxcar Smoothing: 0 (USB2+H05261)
Correct for Electrical Dark: No (USB2+H05261)
Strobe/Lamp Enabled: No (USB2+H05261)
Correct for Detector Non-linearity: No (USB2+H05261)
Correct for Stray Light: No (USB2+H05261)
Number of Pixels in Processed Spectrum: 2048
>>>>>Begin Processed Spectral Data<<<<<
365.73	379.17
365.92	379.17
366.12	379.17
366.32	250.44
366.52	227.03
366.72	241.08
366.91	294.91
367.11	217.67
367.31	177.88
367.51	252.78
367.70	234.05
367.90	313.63
368.10	264.48
368.30	231.71
368.49	243.42
368.69	285.55
368.89	236.39
369.09	278.52
369.28	250.44
369.48	217.67
369.68	278.52
369.87	337.04
370.07	262.14
370.27	355.76
370.47	280.86
370.66	332.36
370.86	388.53
371.06	369.80
371.25	404.91
371.45	416.62
371.65	322.99
371.84	414.27
372.04	372.15
372.24	435.34
372.44	416.62
372.63	416.62
372.83	416.62
373.03	362.78
373.22	411.93
373.42	376.83
373.62	451.72
373.81	421.30
374.01	475.13
374.21	428.32
374.40	393.21
374.60	454.06
374.79	414.27
374.99	451.72
375.19	372.15
375.38	454.06
375.58	379.17
375.78	454.06
375.97	437.68
376.17	442.36
376.37	489.17
376.56	425.98
376.76	374.49
376.95	360.44
377.15	393.21
377.35	344.06
377.54	362.78
377.74	334.70
377.93	421.30
378.13	454.06
378.33	425.98
378.52	435.34
378.72	367.46
378.91	449.38
379.11	348.74
379.31	435.34
379.50	388.53
379.70	486.83
379.89	290.23
380.09	428.32
380.28	414.27
380.48	404.91
380.68	358.10
380.87	322.99
381.07	414.27
381.26	397.89
381.46	416.62
381.65	444.70
381.85	409.59
382.04	374.49
382.24	416.62
382.43	379.17
382.63	402.57
382.83	451.72
383.02	407.25
383.22	358.10
383.41	395.55
383.61	433.00
383.80	374.49
384.00	383.85
384.19	425.98
384.39	381.51
384.58	383.85
384.78	428.32
384.97	332.36
385.17	348.74
385.36	393.21
385.56	376.83
385.75	423.64
385.95	360.44
386.14	376.83
386.34	393.21
386.53	440.02
386.72	374.49
386.92	383.85
387.11	512.58
387.31	369.80
387.50	360.44
387.70	327.68
387.89	458.74
388.09	400.23
388.28	388.53
388.48	407.25
388.67	430.66
388.86	322.99
389.06	416.62
389.25	421.30
389.45	402.57
389.64	397.89
389.84	418.96
390.03	376.83
390.22	447.04
390.42	442.36
390.61	404.91
390.81	390.87
391.00	433.00
391.19	407.25
391.39	425.98
391.58	400.23
391.78	299.59
391.97	390.87
392.16	430.66
392.36	400.23
392.55	447.04
392.75	372.15
392.94	393.21
393.13	388.53
393.33	362.78
393.52	372.15
393.71	379.17
393.91	381.51
394.10	367.46
394.29	414.27
394.49	346.40
394.68	376.83
394.88	437.68
395.07	409.59
395.26	409.59
395.46	423.64
395.65	470.45
395.84	362.78
396.04	486.83
396.23	428.32
396.42	332.36
396.62	334.70
396.81	430.66
397.00	451.72
397.19	421.30
397.39	477.47
397.58	388.53
397.77	376.83
397.97	388.53
398.16	348.74
398.35	414.27
398.55	383.85
398.74	435.34
398.93	440.02
399.12	423.64
399.32	404.91
399.51	418.96
399.70	414.27
399.90	346.40
400.09	355.76
400.28	425.98
400.47	353.42
400.67	390.87
400.86	390.87
401.05	400.23
401.24	440.02
401.44	463.43
401.63	423.64
401.82	414.27
402.01	428.32
402.21	360.44
402.40	365.12
402.59	454.06
402.78	418.96
402.97	369.80
403.17	372.15
403.36	463.43
403.55	463.43
403.74	435.34
403.93	393.21
404.13	369.80
404.32	409.59
404.51	416.62
404.70	411.93
404.89	428.32
405.09	444.70
405.28	414.27
405.47	421.30
405.66	411.93
405.85	451.72
406.05	435.34
406.24	409.59
406.43	437.68
406.62	440.02
406.81	404.91
407.00	402.57
407.20	472.79
407.39	379.17
407.58	435.34
407.77	400.23
407.96	454.06
408.15	379.17
408.34	393.21
408.54	386.19
408.73	358.10
408.92	423.64
409.11	374.49
409.30	425.98
409.49	379.17
409.68	395.55
409.87	423.64
410.07	390.87
410.26	379.17
410.45	353.42
410.64	393.21
410.83	381.51
411.02	346.40
411.21	463.43
411.40	390.87
411.59	409.59
411.78	379.17
411.98	397.89
412.17	463.43
412.36	353.42
412.55	421.30
412.74	421.30
412.93	388.53
413.12	339.38
413.31	421.30
413.50	362.78
413.69	407.25
413.88	402.57
414.07	390.87
414.26	524.28
414.45	402.57
414.64	416.62
414.83	407.25
415.02	451.72
415.22	400.23
415.41	456.40
415.60	388.53
415.79	369.80
415.98	381.51
416.17	437.68
416.36	479.81
416.55	425.98
416.74	437.68
416.93	463.43
417.12	456.40
417.31	334.70
417.50	402.57
417.69	491.51
417.88	381.51
418.07	393.21
418.26	400.23
418.45	395.55
418.64	404.91
418.83	482.15
419.02	393.21
419.21	468.11
419.39	407.25
419.58	374.49
419.77	409.59
419.96	407.25
420.15	411.93
420.34	374.49
420.53	374.49
420.72	386.19
420.91	409.59
421.10	418.96
421.29	411.93
421.48	372.15
421.67	435.34
421.86	402.57
422.05	416.62
422.24	374.49
422.43	402.57
422.61	351.08
422.80	388.53
422.99	393.21
423.18	393.21
423.37	423.64
423.56	475.13
423.75	351.08
423.94	418.96
424.13	416.62
424.32	393.21
424.50	400.23
424.69	428.32
424.88	390.87
425.07	369.80
425.26	416.62
425.45	475.13
425.64	395.55
425.83	407.25
426.01	505.56
426.20	379.17
426.39	386.19
426.58	463.43
426.77	449.38
426.96	383.85
427.15	449.38
427.33	428.32
427.52	418.96
427.71	425.98
427.90	430.66
428.09	437.68
428.28	435.34
428.46	381.51
428.65	374.49
428.84	369.80
429.03	451.72
429.22	456.40
429.40	379.17
429.59	395.55
429.78	414.27
429.97	381.51
430.16	458.74
430.34	423.64
430.53	465.77
430.72	463.43
430.91	461.09
431.10	381.51
431.28	440.02
431.47	440.02
431.66	404.91
431.85	409.59
432.03	423.64
432.22	512.58
432.41	454.06
432.60	416.62
432.79	416.62
432.97	414.27
433.16	451.72
433.35	383.85
433.54	388.53
433.72	475.13
433.91	463.43
434.10	390.87
434.28	409.59
434.47	461.09
434.66	400.23
434.85	414.27
435.03	418.96
435.22	505.56
435.41	442.36
435.59	421.30
435.78	425.98
435.97	503.22
436.16	409.59
436.34	379.17
436.53	414.27
436.72	433.00
436.90	400.23
437.09	428.32
437.28	386.19
437.46	351.08
437.65	447.04
437.84	465.77
438.02	376.83
438.21	409.59
438.40	418.96
438.58	339.38
438.77	409.59
438.96	383.85
439.14	365.12
439.33	435.34
439.52	423.64
439.70	374.49
439.89	397.89
440.08	458.74
440.26	421.30
440.45	346.40
440.63	447.04
440.82	379.17
441.01	440.02
441.19	376.83
441.38	311.29
441.57	374.49
441.75	379.17
441.94	447.04
442.12	437.68
442.31	414.27
442.50	390.87
442.68	374.49
442.87	376.83
443.05	313.63
443.24	383.85
443.43	411.93
443.61	346.40
443.80	442.36
443.98	369.80
444.17	440.02
444.35	390.87
444.54	402.57
444.73	411.93
444.91	451.72
445.10	400.23
445.28	416.62
445.47	383.85
445.65	393.21
445.84	425.98
446.02	512.58
446.21	444.70
446.39	402.57
446.58	430.66
446.77	388.53
446.95	369.80
447.14	390.87
447.32	372.15
447.51	440.02
447.69	444.70
447.88	433.00
448.06	425.98
448.25	395.55
448.43	418.96
448.62	442.36
448.80	411.93
448.99	479.81
449.17	458.74
449.36	449.38
449.54	341.72
449.73	425.98
449.91	404.91
450.10	379.17
450.28	404.91
450.46	407.25
450.65	388.53
450.83	411.93
451.02	451.72
451.20	381.51
451.39	346.40
451.57	465.77
451.76	456.40
451.94	395.55
452.13	433.00
452.31	437.68
452.49	423.64
452.68	388.53
452.86	430.66
453.05	470.45
453.23	393.21
453.42	390.87
453.60	411.93
453.78	416.62
453.97	421.30
454.15	416.62
454.34	440.02
454.52	425.98
454.70	418.96
454.89	463.43
455.07	353.42
455.26	397.89
455.44	425.98
455.62	418.96
455.81	449.38
455.99	395.55
456.17	433.00
456.36	407.25
456.54	397.89
456.73	416.62
456.91	428.32
457.09	374.49
457.28	423.64
457.46	397.89
457.64	435.34
457.83	411.93
458.01	400.23
458.19	372.15
458.38	470.45
458.56	440.02
458.74	381.51
458.93	491.51
459.11	543.00
459.29	325.33
459.48	404.91
459.66	418.96
459.84	437.68
460.03	437.68
460.21	414.27
460.39	393.21
460.57	404.91
460.76	388.53
460.94	449.38
461.12	470.45
461.31	463.43
461.49	376.83
461.67	308.95
461.85	311.29
462.04	411.93
462.22	748.97
462.40	379.17
462.59	477.47
462.77	418.96
462.95	409.59
463.13	383.85
463.32	433.00
463.50	416.62
463.68	423.64
463.86	411.93
464.05	437.68
464.23	430.66
464.41	451.72
464.59	367.46
464.78	379.17
464.96	433.00
465.14	433.00
465.32	425.98
465.50	468.11
465.69	416.62
465.87	400.23
466.05	451.72
466.23	369.80
466.41	367.46
466.60	369.80
466.78	369.80
466.96	461.09
467.14	442.36
467.32	400.23
467.51	444.70
467.69	437.68
467.87	507.90
468.05	390.87
468.23	496.19
468.41	442.36
468.60	437.68
468.78	339.38
468.96	472.79
469.14	421.30
469.32	351.08
469.50	351.08
469.69	423.64
469.87	358.10
470.05	374.49
470.23	423.64
470.41	379.17
470.59	369.80
470.77	444.70
470.95	416.62
471.14	456.40
471.32	440.02
471.50	496.19
471.68	458.74
471.86	416.62
472.04	407.25
472.22	472.79
472.40	348.74
472.58	362.78
472.77	442.36
472.95	493.85
473.13	526.62
473.31	451.72
473.49	376.83
473.67	479.81
473.85	390.87
474.03	400.23
474.21	381.51
474.39	425.98
474.57	393.21
474.75	414.27
474.93	414.27
475.12	428.32
475.30	416.62
475.48	454.06
475.66	407.25
475.84	465.77
476.02	449.38
476.20	407.25
476.38	437.68
476.56	454.06
476.74	411.93
476.92	433.00
477.10	390.87
477.28	440.02
477.46	397.89
477.64	435.34
477.82	360.44
478.00	400.23
478.18	374.49
478.36	451.72
478.54	390.87
478.72	451.72
478.90	416.62
479.08	381.51
479.26	425.98
479.44	414.27
479.62	393.21
479.80	402.57
479.98	397.89
480.16	414.27
480.34	423.64
480.52	442.36
480.70	517.26
480.88	407.25
481.06	393.21
481.24	404.91
481.41	367.46
481.59	468.11
481.77	416.62
481.95	437.68
482.13	421.30
482.31	397.89
482.49	346.40
482.67	456.40
482.85	421.30
483.03	425.98
483.21	416.62
483.39	397.89
483.57	433.00
483.74	437.68
483.92	355.76
484.10	442.36
484.28	381.51
484.46	411.93
484.64	365.12
484.82	449.38
485.00	402.57
485.18	393.21
485.35	393.21
485.53	332.36
485.71	493.85
485.89	407.25
486.07	409.59
486.25	491.51
486.43	433.00
486.61	416.62
486.78	416.62
486.96	430.66
487.14	430.66
487.32	372.15
487.50	491.51
487.68	404.91
487.85	367.46
488.03	423.64
488.21	470.45
488.39	397.89
488.57	397.89
488.75	425.98
488.92	491.51
489.10	397.89
489.28	381.51
489.46	376.83
489.64	404.91
489.81	472.79
489.99	379.17
490.17	449.38
490.35	498.53
490.53	409.59
490.70	414.27
490.88	496.19
491.06	381.51
491.24	418.96
491.41	477.47
491.59	402.57
491.77	344.06
491.95	411.93
492.13	355.76
492.30	402.57
492.48	447.04
492.66	437.68
492.84	400.23
493.01	454.06
493.19	374.49
493.37	465.77
493.54	344.06
493.72	409.59
493.90	407.25
494.08	447.04
494.25	344.06
494.43	397.89
494.61	477.47
494.79	374.49
494.96	404.91
495.14	440.02
495.32	404.91
495.49	360.44
495.67	367.46
495.85	435.34
496.02	381.51
496.20	433.00
496.38	435.34
496.55	447.04
496.73	360.44
496.91	348.74
497.09	458.74
497.26	421.30
497.44	470.45
497.62	421.30
497.79	433.00
497.97	425.98
498.14	449.38
498.32	484.49
498.50	428.32
498.67	381.51
498.85	400.23
499.03	447.04
499.20	386.19
499.38	435.34
499.56	388.53
499.73	435.34
499.91	388.53
500.08	475.13
500.26	456.40
500.44	395.55
500.61	393.21
500.79	400.23
500.97	339.38
501.14	491.51
501.32	493.85
501.49	435.34
501.67	374.49
501.84	442.36
502.02	400.23
502.20	430.66
502.37	444.70
502.55	433.00
502.72	435.34
502.90	386.19
503.07	400.23
503.25	369.80
503.43	447.04
503.60	421.30
503.78	416.62
503.95	332.36
504.13	374.49
504.30	407.25
504.48	465.77
504.65	475.13
504.83	414.27
505.01	393.21
505.18	411.93
505.36	362.78
505.53	423.64
505.71	444.70
505.88	475.13
506.06	416.62
506.23	341.72
506.41	362.78
506.58	407.25
506.76	376.83
506.93	442.36
507.11	463.43
507.28	428.32
507.46	414.27
507.63	402.57
507.81	428.32
507.98	451.72
508.16	369.80
508.33	418.96
508.50	411.93
508.68	444.70
508.85	386.19
509.03	393.21
509.20	367.46
509.38	425.98
509.55	486.83
509.73	442.36
509.90	449.38
510.08	351.08
510.25	376.83
510.42	409.59
510.60	416.62
510.77	348.74
510.95	390.87
511.12	372.15
511.30	449.38
511.47	374.49
511.64	435.34
511.82	383.85
511.99	395.55
512.17	327.68
512.34	418.96
512.51	447.04
512.69	428.32
512.86	500.87
513.04	461.09
513.21	435.34
513.38	404.91
513.56	430.66
513.73	358.10
513.90	402.57
514.08	397.89
514.25	369.80
514.43	381.51
514.60	341.72
514.77	442.36
514.95	404.91
515.12	374.49
515.29	447.04
515.47	484.49
515.64	440.02
515.81	395.55
515.99	433.00
516.16	411.93
516.33	376.83
516.51	463.43
516.68	414.27
516.85	362.78
517.03	416.62
517.20	362.78
517.37	369.80
517.54	430.66
517.72	463.43
517.89	376.83
518.06	433.00
518.24	444.70
518.41	360.44
518.58	538.32
518.75	505.56
518.93	477.47
519.10	404.91
519.27	407.25
519.45	425.98
519.62	397.89
519.79	444.70
519.96	421.30
520.14	411.93
520.31	409.59
520.48	353.42
520.65	430.66
520.83	437.68
521.00	383.85
521.17	454.06
521.34	447.04
521.52	449.38
521.69	418.96
521.86	430.66
522.03	440.02
522.20	449.38
522.38	411.93
522.55	489.17
522.72	376.83
522.89	489.17
523.07	456.40
523.24	435.34
523.41	381.51
523.58	393.21
523.75	341.72
523.92	367.46
524.10	355.76
524.27	355.76
524.44	346.40
524.61	447.04
524.78	440.02
524.96	433.00
525.13	402.57
525.30	418.96
525.47	360.44
525.64	435.34
525.81	435.34
525.98	454.06
526.16	430.66
526.33	386.19
526.50	484.49
526.67	397.89
526.84	409.59
527.01	400.23
527.18	407.25
527.36	437.68
527.53	430.66
527.70	416.62
527.87	491.51
528.04	435.34
528.21	477.47
528.38	444.70
528.55	458.74
528.72	433.00
528.89	409.59
529.07	341.72
529.24	423.64
529.41	435.34
529.58	442.36
529.75	372.15
529.92	376.83
530.09	451.72
530.26	442.36
530.43	411.93
530.60	470.45
530.77	486.83
530.94	362.78
531.11	407.25
531.28	388.53
531.46	362.78
531.63	447.04
531.80	379.17
531.97	388.53
532.14	423.64
532.31	435.34
532.48	397.89
532.65	458.74
532.82	454.06
532.99	411.93
533.16	437.68
533.33	423.64
533.50	409.59
533.67	418.96
533.84	430.66
534.01	409.59
534.18	510.24
534.35	386.19
534.52	451.72
534.69	437.68
534.86	402.57
535.03	379.17
535.20	425.98
535.37	425.98
535.54	521.94
535.71	365.12
535.88	463.43
536.05	423.64
536.22	418.96
536.38	409.59
536.55	372.15
536.72	447.04
536.89	447.04
537.06	472.79
537.23	421.30
537.40	475.13
537.57	409.59
537.74	379.17
537.91	451.72
538.08	423.64
538.25	451.72
538.42	374.49
538.59	388.53
538.75	454.06
538.92	409.59
539.09	477.47
539.26	407.25
539.43	435.34
539.60	486.83
539.77	514.92
539.94	404.91
540.11	400.23
540.28	472.79
540.44	444.70
540.61	397.89
540.78	430.66
540.95	379.17
541.12	416.62
541.29	395.55
541.46	374.49
541.62	461.09
541.79	334.70
541.96	425.98
542.13	397.89
542.30	425.98
542.47	358.10
542.63	418.96
542.80	416.62
542.97	433.00
543.14	430.66
543.31	369.80
543.48	381.51
543.64	456.40
543.81	479.81
543.98	409.59
544.15	421.30
544.32	402.57
544.48	468.11
544.65	449.38
544.82	351.08
544.99	433.00
545.16	449.38
545.32	465.77
545.49	404.91
545.66	330.02
545.83	383.85
546.00	425.98
546.16	395.55
546.33	355.76
546.50	383.85
546.67	461.09
546.83	355.76
547.00	395.55
547.17	400.23
547.34	418.96
547.50	454.06
547.67	372.15
547.84	339.38
548.00	400.23
548.17	369.80
548.34	407.25
548.51	423.64
548.67	425.98
548.84	491.51
549.01	433.00
549.18	402.57
549.34	388.53
549.51	468.11
549.68	369.80
549.84	423.64
550.01	388.53
550.18	454.06
550.34	493.85
550.51	425.98
550.68	451.72
550.84	311.29
551.01	470.45
551.18	383.85
551.34	362.78
551.51	423.64
551.68	409.59
551.84	414.27
552.01	477.47
552.18	442.36
552.34	411.93
552.51	353.42
552.68	472.79
552.84	376.83
553.01	374.49
553.18	404.91
553.34	386.19
553.51	395.55
553.67	442.36
553.84	493.85
554.01	400.23
554.17	451.72
554.34	397.89
554.51	442.36
554.67	468.11
554.84	407.25
555.00	411.93
555.17	404.91
555.33	376.83
555.50	433.00
555.67	402.57
555.83	351.08
556.00	442.36
556.16	519.60
556.33	437.68
556.50	388.53
556.66	442.36
556.83	339.38
556.99	379.17
557.16	449.38
557.32	437.68
557.49	463.43
557.65	449.38
557.82	360.44
557.98	404.91
558.15	458.74
558.32	421.30
558.48	395.55
558.65	355.76
558.81	482.15
558.98	425.98
559.14	393.21
559.31	423.64
559.47	414.27
559.64	458.74
559.80	421.30
559.97	418.96
560.13	454.06
560.30	421.30
560.46	463.43
560.63	388.53
560.79	411.93
560.96	421.30
561.12	390.87
561.29	400.23
561.45	386.19
561.61	451.72
561.78	552.37
561.94	411.93
562.11	404.91
562.27	454.06
562.44	482.15
562.60	397.89
562.77	386.19
562.93	512.58
563.10	423.64
563.26	437.68
563.42	372.15
563.59	411.93
563.75	437.68
563.92	489.17
564.08	418.96
564.24	447.04
564.41	437.68
564.57	351.08
564.74	402.57
564.90	458.74
565.07	437.68
565.23	395.55
565.39	425.98
565.56	435.34
565.72	411.93
565.88	433.00
566.05	428.32
566.21	400.23
566.38	421.30
566.54	430.66
566.70	407.25
566.87	411.93
567.03	367.46
567.19	475.13
567.36	414.27
567.52	353.42
567.68	463.43
567.85	397.89
568.01	442.36
568.17	388.53
568.34	376.83
568.50	369.80
568.66	332.36
568.83	442.36
568.99	367.46
569.15	421.30
569.32	449.38
569.48	444.70
569.64	435.34
569.81	397.89
569.97	428.32
570.13	447.04
570.30	435.34
570.46	428.32
570.62	428.32
570.78	400.23
570.95	418.96
571.11	428.32
571.27	442.36
571.43	414.27
571.60	505.56
571.76	393.21
571.92	407.25
572.09	367.46
572.25	379.17
572.41	348.74
572.57	383.85
572.74	418.96
572.90	360.44
573.06	414.27
573.22	376.83
573.38	360.44
573.55	418.96
573.71	458.74
573.87	465.77
574.03	409.59
574.20	423.64
574.36	369.80
574.52	423.64
574.68	430.66
574.84	447.04
575.01	393.21
575.17	409.59
575.33	411.93
575.49	360.44
575.65	421.30
575.82	397.89
575.98	435.34
576.14	383.85
576.30	369.80
576.46	447.04
576.62	374.49
576.79	416.62
576.95	372.15
577.11	381.51
577.27	351.08
577.43	423.64
577.59	390.87
577.75	447.04
577.92	430.66
578.08	414.27
578.24	402.57
578.40	414.27
578.56	461.09
578.72	461.09
578.88	472.79
579.04	409.59
579.21	493.85
579.37	461.09
579.53	386.19
579.69	369.80
579.85	496.19
580.01	454.06
580.17	386.19
580.33	423.64
580.49	388.53
580.65	421.30
580.82	425.98
580.98	381.51
581.14	433.00
581.30	402.57
581.46	409.59
581.62	433.00
581.78	440.02
581.94	421.30
582.10	346.40
582.26	423.64
582.42	411.93
582.58	409.59
582.74	458.74
582.90	390.87
583.06	374.49
583.22	407.25
583.38	360.44
583.54	418.96
583.70	341.72
583.86	416.62
584.02	437.68
584.18	423.64
584.34	447.04
584.50	409.59
584.66	463.43
584.82	433.00
584.98	421.30
585.14	458.74
585.30	386.19
585.46	458.74
585.62	416.62
585.78	472.79
585.94	444.70
586.10	416.62
586.26	381.51
586.42	454.06
586.58	425.98
586.74	308.95
586.90	451.72
587.06	390.87
587.22	379.17
587.38	449.38
587.54	433.00
587.70	456.40
587.86	386.19
588.02	461.09
588.18	360.44
588.34	477.47
588.49	409.59
588.65	383.85
588.81	510.24
588.97	411.93
589.13	421.30
589.29	418.96
589.45	430.66
589.61	444.70
589.77	475.13
589.93	470.45
590.08	386.19
590.24	425.98
590.40	430.66
590.56	381.51
590.72	440.02
590.88	418.96
591.04	435.34
591.20	376.83
591.35	451.72
591.51	390.87
591.67	404.91
591.83	437.68
591.99	447.04
592.15	411.93
592.31	433.00
592.46	416.62
592.62	437.68
592.78	449.38
592.94	358.10
593.10	374.49
593.26	381.51
593.41	437.68
593.57	346.40
593.73	393.21
593.89	437.68
594.05	400.23
594.20	449.38
594.36	454.06
594.52	409.59
594.68	351.08
594.84	379.17
594.99	477.47
595.15	461.09
595.31	367.46
595.47	512.58
595.62	407.25
595.78	395.55
595.94	435.34
596.10	458.74
596.25	386.19
596.41	484.49
596.57	409.59
596.73	372.15
596.88	461.09
597.04	374.49
597.20	402.57
597.36	475.13
597.51	362.78
597.67	400.23
597.83	407.25
597.99	442.36
598.14	388.53
598.30	454.06
598.46	468.11
598.61	451.72
598.77	428.32
598.93	395.55
599.09	400.23
599.24	421.30
599.40	414.27
599.56	414.27
599.71	421.30
599.87	447.04
600.03	400.23
600.18	440.02
600.34	475.13
600.50	353.42
600.65	393.21
600.81	365.12
600.97	397.89
601.12	442.36
601.28	435.34
601.44	411.93
601.59	456.40
601.75	379.17
601.91	451.72
602.06	472.79
602.22	472.79
602.37	376.83
602.53	423.64
602.69	407.25
602.84	367.46
603.00	411.93
603.16	475.13
603.31	369.80
603.47	400.23
603.62	344.06
603.78	402.57
603.94	421.30
604.09	437.68
604.25	400.23
604.40	451.72
604.56	437.68
604.71	397.89
604.87	362.78
605.03	400.23
605.18	393.21
605.34	526.62
605.49	395.55
605.65	358.10
605.80	353.42
605.96	393.21
606.12	365.12
606.27	447.04
606.43	442.36
606.58	433.00
606.74	430.66
606.89	402.57
607.05	486.83
607.20	451.72
607.36	437.68
607.51	386.19
607.67	418.96
607.82	395.55
607.98	428.32
608.13	435.34
608.29	470.45
608.44	379.17
608.60	393.21
608.75	425.98
608.91	435.34
609.06	461.09
609.22	447.04
609.37	449.38
609.53	407.25
609.68	456.40
609.84	376.83
609.99	423.64
610.15	397.89
