SpectraSuite Data File
++++++++++++++++++++++++++++++++++++
Date: Fri Oct 25 12:10:40 EDT 2013
User: price-jones
Dark Spectrum Present: No
Reference Spectrum Present: No
Number of Sampled Component Spectra: 1
Spectrometers: USB2+H05261
Integration Time (usec): 100000 (USB2+H05261)
Spectra Averaged: 1 (USB2+H05261)
Boxcar Smoothing: 0 (USB2+H05261)
Correct for Electrical Dark: No (USB2+H05261)
Strobe/Lamp Enabled: No (USB2+H05261)
Correct for Detector Non-linearity: No (USB2+H05261)
Correct for Stray Light: No (USB2+H05261)
Number of Pixels in Processed Spectrum: 2048
>>>>>Begin Processed Spectral Data<<<<<
365.73	245.76
365.92	245.76
366.12	245.76
366.32	292.57
366.52	245.76
366.72	227.03
366.91	191.92
367.11	250.44
367.31	189.58
367.51	222.35
367.70	262.14
367.90	222.35
368.10	255.12
368.30	250.44
368.49	184.90
368.69	212.99
368.89	280.86
369.09	191.92
369.28	252.78
369.48	311.29
369.68	315.97
369.87	257.46
370.07	304.27
370.27	330.02
370.47	297.25
370.66	341.72
370.86	374.49
371.06	388.53
371.25	458.74
371.45	325.33
371.65	358.10
371.84	358.10
372.04	294.91
372.24	395.55
372.44	411.93
372.63	358.10
372.83	442.36
373.03	433.00
373.22	358.10
373.42	404.91
373.62	365.12
373.81	428.32
374.01	388.53
374.21	440.02
374.40	418.96
374.60	376.83
374.79	393.21
374.99	400.23
375.19	381.51
375.38	402.57
375.58	435.34
375.78	421.30
375.97	435.34
376.17	475.13
376.37	447.04
376.56	425.98
376.76	418.96
376.95	435.34
377.15	402.57
377.35	437.68
377.54	479.81
377.74	400.23
377.93	416.62
378.13	444.70
378.33	374.49
378.52	379.17
378.72	369.80
378.91	425.98
379.11	414.27
379.31	430.66
379.50	407.25
379.70	437.68
379.89	383.85
380.09	376.83
380.28	404.91
380.48	379.17
380.68	404.91
380.87	395.55
381.07	379.17
381.26	397.89
381.46	468.11
381.65	430.66
381.85	372.15
382.04	430.66
382.24	458.74
382.43	369.80
382.63	418.96
382.83	383.85
383.02	444.70
383.22	395.55
383.41	425.98
383.61	421.30
383.80	425.98
384.00	447.04
384.19	379.17
384.39	411.93
384.58	397.89
384.78	381.51
384.97	409.59
385.17	390.87
385.36	411.93
385.56	442.36
385.75	376.83
385.95	372.15
386.14	482.15
386.34	428.32
386.53	458.74
386.72	404.91
386.92	428.32
387.11	425.98
387.31	418.96
387.50	402.57
387.70	299.59
387.89	421.30
388.09	367.46
388.28	332.36
388.48	416.62
388.67	397.89
388.86	409.59
389.06	360.44
389.25	423.64
389.45	444.70
389.64	400.23
389.84	362.78
390.03	416.62
390.22	327.68
390.42	388.53
390.61	351.08
390.81	344.06
391.00	418.96
391.19	353.42
391.39	416.62
391.58	414.27
391.78	477.47
391.97	449.38
392.16	393.21
392.36	423.64
392.55	414.27
392.75	421.30
392.94	358.10
393.13	456.40
393.33	372.15
393.52	386.19
393.71	442.36
393.91	418.96
394.10	442.36
394.29	430.66
394.49	407.25
394.68	444.70
394.88	437.68
395.07	400.23
395.26	358.10
395.46	421.30
395.65	433.00
395.84	353.42
396.04	423.64
396.23	407.25
396.42	437.68
396.62	433.00
396.81	358.10
397.00	381.51
397.19	393.21
397.39	374.49
397.58	414.27
397.77	388.53
397.97	440.02
398.16	421.30
398.35	381.51
398.55	397.89
398.74	327.68
398.93	416.62
399.12	351.08
399.32	393.21
399.51	482.15
399.70	395.55
399.90	411.93
400.09	369.80
400.28	393.21
400.47	407.25
400.67	381.51
400.86	404.91
401.05	423.64
401.24	435.34
401.44	444.70
401.63	404.91
401.82	465.77
402.01	407.25
402.21	414.27
402.40	430.66
402.59	404.91
402.78	435.34
402.97	416.62
403.17	365.12
403.36	425.98
403.55	418.96
403.74	393.21
403.93	381.51
404.13	435.34
404.32	444.70
404.51	386.19
404.70	418.96
404.89	444.70
405.09	454.06
405.28	414.27
405.47	496.19
405.66	409.59
405.85	402.57
406.05	423.64
406.24	369.80
406.43	423.64
406.62	353.42
406.81	444.70
407.00	451.72
407.20	416.62
407.39	372.15
407.58	334.70
407.77	451.72
407.96	470.45
408.15	351.08
408.34	470.45
408.54	383.85
408.73	285.55
408.92	358.10
409.11	430.66
409.30	397.89
409.49	442.36
409.68	376.83
409.87	514.92
410.07	437.68
410.26	397.89
410.45	444.70
410.64	395.55
410.83	358.10
411.02	390.87
411.21	470.45
411.40	454.06
411.59	440.02
411.78	383.85
411.98	367.46
412.17	440.02
412.36	451.72
412.55	388.53
412.74	421.30
412.93	339.38
413.12	388.53
413.31	386.19
413.50	344.06
413.69	430.66
413.88	409.59
414.07	376.83
414.26	367.46
414.45	454.06
414.64	393.21
414.83	447.04
415.02	386.19
415.22	435.34
415.41	421.30
415.60	390.87
415.79	372.15
415.98	430.66
416.17	383.85
416.36	435.34
416.55	393.21
416.74	428.32
416.93	421.30
417.12	454.06
417.31	428.32
417.50	397.89
417.69	435.34
417.88	440.02
418.07	414.27
418.26	337.04
418.45	386.19
418.64	414.27
418.83	390.87
419.02	386.19
419.21	404.91
419.39	353.42
419.58	404.91
419.77	376.83
419.96	442.36
420.15	390.87
420.34	416.62
420.53	423.64
420.72	477.47
420.91	456.40
421.10	395.55
421.29	358.10
421.48	341.72
421.67	397.89
421.86	386.19
422.05	353.42
422.24	369.80
422.43	400.23
422.61	402.57
422.80	435.34
422.99	360.44
423.18	435.34
423.37	407.25
423.56	400.23
423.75	454.06
423.94	437.68
424.13	414.27
424.32	437.68
424.50	435.34
424.69	400.23
424.88	369.80
425.07	362.78
425.26	418.96
425.45	376.83
425.64	374.49
425.83	397.89
426.01	367.46
426.20	369.80
426.39	458.74
426.58	404.91
426.77	418.96
426.96	388.53
427.15	435.34
427.33	423.64
427.52	386.19
427.71	461.09
427.90	482.15
428.09	325.33
428.28	337.04
428.46	402.57
428.65	449.38
428.84	425.98
429.03	430.66
429.22	360.44
429.40	381.51
429.59	395.55
429.78	395.55
429.97	379.17
430.16	451.72
430.34	444.70
430.53	381.51
430.72	472.79
430.91	404.91
431.10	493.85
431.28	435.34
431.47	447.04
431.66	383.85
431.85	390.87
432.03	402.57
432.22	475.13
432.41	409.59
432.60	421.30
432.79	409.59
432.97	381.51
433.16	430.66
433.35	360.44
433.54	395.55
433.72	433.00
433.91	435.34
434.10	423.64
434.28	402.57
434.47	369.80
434.66	454.06
434.85	379.17
435.03	409.59
435.22	381.51
435.41	477.47
435.59	411.93
435.78	351.08
435.97	362.78
436.16	428.32
436.34	395.55
436.53	395.55
436.72	435.34
436.90	409.59
437.09	430.66
437.28	393.21
437.46	388.53
437.65	486.83
437.84	409.59
438.02	397.89
438.21	442.36
438.40	418.96
438.58	372.15
438.77	449.38
438.96	433.00
439.14	482.15
439.33	433.00
439.52	376.83
439.70	435.34
439.89	463.43
440.08	470.45
440.26	383.85
440.45	451.72
440.63	341.72
440.82	416.62
441.01	421.30
441.19	409.59
441.38	374.49
441.57	409.59
441.75	449.38
441.94	414.27
442.12	409.59
442.31	477.47
442.50	409.59
442.68	411.93
442.87	435.34
443.05	353.42
443.24	435.34
443.43	451.72
443.61	421.30
443.80	461.09
443.98	402.57
444.17	388.53
444.35	425.98
444.54	414.27
444.73	383.85
444.91	447.04
445.10	465.77
445.28	421.30
445.47	456.40
445.65	388.53
445.84	421.30
446.02	461.09
446.21	367.46
446.39	369.80
446.58	425.98
446.77	393.21
446.95	374.49
447.14	414.27
447.32	437.68
447.51	421.30
447.69	449.38
447.88	454.06
448.06	505.56
448.25	400.23
448.43	423.64
448.62	383.85
448.80	444.70
448.99	444.70
449.17	414.27
449.36	404.91
449.54	470.45
449.73	411.93
449.91	418.96
450.10	381.51
450.28	449.38
450.46	507.90
450.65	381.51
450.83	496.19
451.02	421.30
451.20	484.49
451.39	414.27
451.57	428.32
451.76	475.13
451.94	390.87
452.13	311.29
452.31	353.42
452.49	379.17
452.68	407.25
452.86	409.59
453.05	414.27
453.23	440.02
453.42	442.36
453.60	416.62
453.78	428.32
453.97	355.76
454.15	451.72
454.34	423.64
454.52	440.02
454.70	414.27
454.89	486.83
455.07	428.32
455.26	454.06
455.44	442.36
455.62	365.12
455.81	435.34
455.99	397.89
456.17	341.72
456.36	430.66
456.54	397.89
456.73	465.77
456.91	379.17
457.09	444.70
457.28	397.89
457.46	337.04
457.64	442.36
457.83	395.55
458.01	440.02
458.19	409.59
458.38	416.62
458.56	379.17
458.74	379.17
458.93	404.91
459.11	437.68
459.29	365.12
459.48	386.19
459.66	468.11
459.84	411.93
460.03	461.09
460.21	440.02
460.39	397.89
460.57	451.72
460.76	411.93
460.94	397.89
461.12	451.72
461.31	470.45
461.49	423.64
461.67	444.70
461.85	416.62
462.04	397.89
462.22	716.20
462.40	308.95
462.59	468.11
462.77	423.64
462.95	353.42
463.13	411.93
463.32	493.85
463.50	418.96
463.68	411.93
463.86	402.57
464.05	402.57
464.23	449.38
464.41	470.45
464.59	355.76
464.78	418.96
464.96	402.57
465.14	383.85
465.32	461.09
465.50	477.47
465.69	451.72
465.87	414.27
466.05	451.72
466.23	449.38
466.41	388.53
466.60	348.74
466.78	421.30
466.96	418.96
467.14	461.09
467.32	437.68
467.51	313.63
467.69	435.34
467.87	451.72
468.05	461.09
468.23	500.87
468.41	409.59
468.60	444.70
468.78	416.62
468.96	374.49
469.14	435.34
469.32	386.19
469.50	397.89
469.69	330.02
469.87	496.19
470.05	433.00
470.23	393.21
470.41	360.44
470.59	362.78
470.77	444.70
470.95	447.04
471.14	400.23
471.32	435.34
471.50	411.93
471.68	402.57
471.86	358.10
472.04	414.27
472.22	421.30
472.40	418.96
472.58	447.04
472.77	402.57
472.95	388.53
473.13	402.57
473.31	479.81
473.49	447.04
473.67	437.68
473.85	437.68
474.03	458.74
474.21	440.02
474.39	365.12
474.57	484.49
474.75	428.32
474.93	437.68
475.12	322.99
475.30	400.23
475.48	393.21
475.66	428.32
475.84	416.62
476.02	463.43
476.20	409.59
476.38	407.25
476.56	458.74
476.74	407.25
476.92	376.83
477.10	425.98
477.28	449.38
477.46	383.85
477.64	407.25
477.82	468.11
478.00	407.25
478.18	397.89
478.36	390.87
478.54	397.89
478.72	409.59
478.90	411.93
479.08	440.02
479.26	344.06
479.44	390.87
479.62	379.17
479.80	404.91
479.98	409.59
480.16	395.55
480.34	397.89
480.52	369.80
480.70	428.32
480.88	444.70
481.06	365.12
481.24	491.51
481.41	418.96
481.59	470.45
481.77	404.91
481.95	395.55
482.13	503.22
482.31	475.13
482.49	421.30
482.67	355.76
482.85	475.13
483.03	468.11
483.21	475.13
483.39	425.98
483.57	407.25
483.74	440.02
483.92	425.98
484.10	421.30
484.28	379.17
484.46	440.02
484.64	400.23
484.82	430.66
485.00	444.70
485.18	437.68
485.35	393.21
485.53	423.64
485.71	414.27
485.89	376.83
486.07	409.59
486.25	493.85
486.43	477.47
486.61	440.02
486.78	418.96
486.96	374.49
487.14	423.64
487.32	418.96
487.50	437.68
487.68	388.53
487.85	433.00
488.03	381.51
488.21	489.17
488.39	451.72
488.57	362.78
488.75	416.62
488.92	437.68
489.10	381.51
489.28	444.70
489.46	421.30
489.64	418.96
489.81	341.72
489.99	383.85
490.17	433.00
490.35	470.45
490.53	463.43
490.70	468.11
490.88	407.25
491.06	372.15
491.24	421.30
491.41	425.98
491.59	395.55
491.77	369.80
491.95	421.30
492.13	407.25
492.30	421.30
492.48	409.59
492.66	458.74
492.84	358.10
493.01	425.98
493.19	451.72
493.37	418.96
493.54	428.32
493.72	407.25
493.90	463.43
494.08	465.77
494.25	411.93
494.43	383.85
494.61	440.02
494.79	416.62
494.96	407.25
495.14	468.11
495.32	390.87
495.49	414.27
495.67	365.12
495.85	390.87
496.02	348.74
496.20	407.25
496.38	376.83
496.55	369.80
496.73	472.79
496.91	381.51
497.09	379.17
497.26	365.12
497.44	416.62
497.62	402.57
497.79	433.00
497.97	376.83
498.14	374.49
498.32	449.38
498.50	402.57
498.67	449.38
498.85	463.43
499.03	322.99
499.20	390.87
499.38	362.78
499.56	447.04
499.73	496.19
499.91	414.27
500.08	393.21
500.26	447.04
500.44	365.12
500.61	390.87
500.79	397.89
500.97	472.79
501.14	454.06
501.32	411.93
501.49	411.93
501.67	500.87
501.84	416.62
502.02	358.10
502.20	437.68
502.37	428.32
502.55	402.57
502.72	404.91
502.90	440.02
503.07	423.64
503.25	397.89
503.43	418.96
503.60	425.98
503.78	421.30
503.95	472.79
504.13	353.42
504.30	454.06
504.48	435.34
504.65	435.34
504.83	395.55
505.01	369.80
505.18	421.30
505.36	416.62
505.53	468.11
505.71	440.02
505.88	369.80
506.06	397.89
506.23	372.15
506.41	386.19
506.58	390.87
506.76	372.15
506.93	393.21
507.11	411.93
507.28	351.08
507.46	414.27
507.63	425.98
507.81	414.27
507.98	402.57
508.16	332.36
508.33	376.83
508.50	372.15
508.68	393.21
508.85	416.62
509.03	383.85
509.20	468.11
509.38	465.77
509.55	430.66
509.73	472.79
509.90	395.55
510.08	383.85
510.25	425.98
510.42	465.77
510.60	386.19
510.77	400.23
510.95	423.64
511.12	379.17
511.30	383.85
511.47	362.78
511.64	430.66
511.82	362.78
511.99	351.08
512.17	393.21
512.34	416.62
512.51	351.08
512.69	442.36
512.86	482.15
513.04	390.87
513.21	411.93
513.38	421.30
513.56	332.36
513.73	351.08
513.90	388.53
514.08	418.96
514.25	332.36
514.43	407.25
514.60	418.96
514.77	461.09
514.95	397.89
515.12	372.15
515.29	451.72
515.47	397.89
515.64	430.66
515.81	395.55
515.99	367.46
516.16	468.11
516.33	440.02
516.51	404.91
516.68	332.36
516.85	454.06
517.03	458.74
517.20	444.70
517.37	486.83
517.54	400.23
517.72	484.49
517.89	341.72
518.06	451.72
518.24	337.04
518.41	423.64
518.58	428.32
518.75	414.27
518.93	407.25
519.10	402.57
519.27	423.64
519.45	437.68
519.62	383.85
519.79	390.87
519.96	416.62
520.14	463.43
520.31	444.70
520.48	411.93
520.65	430.66
520.83	416.62
521.00	449.38
521.17	388.53
521.34	388.53
521.52	404.91
521.69	442.36
521.86	479.81
522.03	358.10
522.20	407.25
522.38	292.57
522.55	388.53
522.72	362.78
522.89	421.30
523.07	435.34
523.24	411.93
523.41	475.13
523.58	444.70
523.75	477.47
523.92	414.27
524.10	428.32
524.27	414.27
524.44	360.44
524.61	421.30
524.78	442.36
524.96	393.21
525.13	414.27
525.30	372.15
525.47	386.19
525.64	430.66
525.81	425.98
525.98	418.96
526.16	449.38
526.33	454.06
526.50	402.57
526.67	416.62
526.84	369.80
527.01	468.11
527.18	456.40
527.36	470.45
527.53	411.93
527.70	442.36
527.87	416.62
528.04	442.36
528.21	421.30
528.38	463.43
528.55	484.49
528.72	430.66
528.89	407.25
529.07	397.89
529.24	430.66
529.41	409.59
529.58	383.85
529.75	402.57
529.92	444.70
530.09	414.27
530.26	437.68
530.43	435.34
530.60	437.68
530.77	414.27
530.94	463.43
531.11	388.53
531.28	407.25
531.46	409.59
531.63	383.85
531.80	447.04
531.97	463.43
532.14	430.66
532.31	423.64
532.48	461.09
532.65	428.32
532.82	423.64
532.99	428.32
533.16	433.00
533.33	435.34
533.50	444.70
533.67	421.30
533.84	397.89
534.01	400.23
534.18	390.87
534.35	407.25
534.52	393.21
534.69	337.04
534.86	440.02
535.03	411.93
535.20	355.76
535.37	444.70
535.54	468.11
535.71	344.06
535.88	414.27
536.05	421.30
536.22	425.98
536.38	374.49
536.55	367.46
536.72	402.57
536.89	397.89
537.06	395.55
537.23	341.72
537.40	397.89
537.57	393.21
537.74	475.13
537.91	428.32
538.08	360.44
538.25	437.68
538.42	372.15
538.59	421.30
538.75	421.30
538.92	454.06
539.09	454.06
539.26	414.27
539.43	456.40
539.60	409.59
539.77	428.32
539.94	423.64
540.11	458.74
540.28	402.57
540.44	449.38
540.61	456.40
540.78	407.25
540.95	435.34
541.12	458.74
541.29	430.66
541.46	390.87
541.62	418.96
541.79	358.10
541.96	423.64
542.13	395.55
542.30	360.44
542.47	400.23
542.63	418.96
542.80	421.30
542.97	437.68
543.14	383.85
543.31	458.74
543.48	393.21
543.64	365.12
543.81	407.25
543.98	367.46
544.15	369.80
544.32	421.30
544.48	358.10
544.65	435.34
544.82	449.38
544.99	440.02
545.16	461.09
545.32	390.87
545.49	397.89
545.66	425.98
545.83	390.87
546.00	290.23
546.16	376.83
546.33	353.42
546.50	409.59
546.67	458.74
546.83	454.06
547.00	458.74
547.17	430.66
547.34	376.83
547.50	423.64
547.67	435.34
547.84	402.57
548.00	451.72
548.17	423.64
548.34	423.64
548.51	379.17
548.67	360.44
548.84	465.77
549.01	381.51
549.18	423.64
549.34	416.62
549.51	477.47
549.68	395.55
549.84	381.51
550.01	435.34
550.18	444.70
550.34	461.09
550.51	390.87
550.68	463.43
550.84	447.04
551.01	418.96
551.18	425.98
551.34	444.70
551.51	461.09
551.68	463.43
551.84	454.06
552.01	397.89
552.18	393.21
552.34	425.98
552.51	395.55
552.68	379.17
552.84	418.96
553.01	395.55
553.18	463.43
553.34	428.32
553.51	433.00
553.67	381.51
553.84	470.45
554.01	428.32
554.17	393.21
554.34	428.32
554.51	372.15
554.67	374.49
554.84	479.81
555.00	433.00
555.17	402.57
555.33	421.30
555.50	414.27
555.67	442.36
555.83	465.77
556.00	442.36
556.16	538.32
556.33	435.34
556.50	433.00
556.66	477.47
556.83	395.55
556.99	330.02
557.16	430.66
557.32	430.66
557.49	470.45
557.65	407.25
557.82	407.25
557.98	500.87
558.15	472.79
558.32	430.66
558.48	362.78
558.65	416.62
558.81	440.02
558.98	414.27
559.14	411.93
559.31	475.13
559.47	437.68
559.64	414.27
559.80	456.40
559.97	400.23
560.13	475.13
560.30	433.00
560.46	379.17
560.63	425.98
560.79	435.34
560.96	407.25
561.12	465.77
561.29	407.25
561.45	404.91
561.61	414.27
561.78	535.98
561.94	407.25
562.11	404.91
562.27	463.43
562.44	416.62
562.60	414.27
562.77	353.42
562.93	435.34
563.10	358.10
563.26	404.91
563.42	425.98
563.59	423.64
563.75	411.93
563.92	423.64
564.08	475.13
564.24	418.96
564.41	404.91
564.57	337.04
564.74	449.38
564.90	386.19
565.07	395.55
565.23	500.87
565.39	440.02
565.56	393.21
565.72	421.30
565.88	449.38
566.05	454.06
566.21	463.43
566.38	421.30
566.54	372.15
566.70	430.66
566.87	461.09
567.03	353.42
567.19	353.42
567.36	407.25
567.52	383.85
567.68	365.12
567.85	440.02
568.01	433.00
568.17	386.19
568.34	475.13
568.50	414.27
568.66	397.89
568.83	465.77
568.99	362.78
569.15	472.79
569.32	484.49
569.48	397.89
569.64	435.34
569.81	482.15
569.97	388.53
570.13	381.51
570.30	334.70
570.46	374.49
570.62	442.36
570.78	468.11
570.95	320.65
571.11	416.62
571.27	440.02
571.43	449.38
571.60	437.68
571.76	440.02
571.92	468.11
572.09	456.40
572.25	451.72
572.41	339.38
572.57	454.06
572.74	418.96
572.90	395.55
573.06	393.21
573.22	372.15
573.38	444.70
573.55	535.98
573.71	449.38
573.87	433.00
574.03	369.80
574.20	388.53
574.36	444.70
574.52	414.27
574.68	489.17
574.84	451.72
575.01	360.44
575.17	449.38
575.33	369.80
575.49	437.68
575.65	456.40
575.82	456.40
575.98	365.12
576.14	418.96
576.30	425.98
576.46	376.83
576.62	465.77
576.79	397.89
576.95	409.59
577.11	433.00
577.27	425.98
577.43	491.51
577.59	454.06
577.75	482.15
577.92	496.19
578.08	374.49
578.24	418.96
578.40	411.93
578.56	454.06
578.72	428.32
578.88	358.10
579.04	468.11
579.21	402.57
579.37	449.38
579.53	386.19
579.69	418.96
579.85	400.23
580.01	369.80
580.17	489.17
580.33	442.36
580.49	456.40
580.65	458.74
580.82	395.55
580.98	360.44
581.14	418.96
581.30	477.47
581.46	334.70
581.62	428.32
581.78	381.51
581.94	358.10
582.10	365.12
582.26	447.04
582.42	465.77
582.58	470.45
582.74	498.53
582.90	472.79
583.06	489.17
583.22	423.64
583.38	322.99
583.54	433.00
583.70	430.66
583.86	428.32
584.02	372.15
584.18	461.09
584.34	425.98
584.50	444.70
584.66	435.34
584.82	423.64
584.98	458.74
585.14	409.59
585.30	390.87
585.46	386.19
585.62	393.21
585.78	418.96
585.94	433.00
586.10	404.91
586.26	388.53
586.42	390.87
586.58	437.68
586.74	440.02
586.90	458.74
587.06	409.59
587.22	416.62
587.38	393.21
587.54	351.08
587.70	498.53
587.86	451.72
588.02	458.74
588.18	407.25
588.34	444.70
588.49	388.53
588.65	451.72
588.81	407.25
588.97	393.21
589.13	435.34
589.29	486.83
589.45	454.06
589.61	341.72
589.77	388.53
589.93	383.85
590.08	355.76
590.24	367.46
590.40	421.30
590.56	365.12
590.72	411.93
590.88	372.15
591.04	379.17
591.20	404.91
591.35	416.62
591.51	444.70
591.67	379.17
591.83	461.09
591.99	456.40
592.15	437.68
592.31	355.76
592.46	440.02
592.62	418.96
592.78	400.23
592.94	400.23
593.10	414.27
593.26	409.59
593.41	369.80
593.57	381.51
593.73	393.21
593.89	388.53
594.05	435.34
594.20	489.17
594.36	449.38
594.52	418.96
594.68	372.15
594.84	477.47
594.99	463.43
595.15	388.53
595.31	437.68
595.47	414.27
595.62	376.83
595.78	372.15
595.94	465.77
596.10	400.23
596.25	437.68
596.41	470.45
596.57	447.04
596.73	484.49
596.88	397.89
597.04	470.45
597.20	397.89
597.36	351.08
597.51	379.17
597.67	437.68
597.83	395.55
597.99	454.06
598.14	383.85
598.30	425.98
598.46	421.30
598.61	433.00
598.77	388.53
598.93	423.64
599.09	477.47
599.24	404.91
599.40	407.25
599.56	395.55
599.71	339.38
599.87	461.09
600.03	447.04
600.18	433.00
600.34	425.98
600.50	374.49
600.65	374.49
600.81	395.55
600.97	437.68
601.12	444.70
601.28	449.38
601.44	484.49
601.59	367.46
601.75	421.30
601.91	379.17
602.06	395.55
602.22	447.04
602.37	465.77
602.53	360.44
602.69	468.11
602.84	395.55
603.00	493.85
603.16	437.68
603.31	416.62
603.47	379.17
603.62	379.17
603.78	479.81
603.94	458.74
604.09	376.83
604.25	414.27
604.40	397.89
604.56	379.17
604.71	444.70
604.87	430.66
605.03	477.47
605.18	414.27
605.34	435.34
605.49	416.62
605.65	437.68
605.80	341.72
605.96	376.83
606.12	315.97
606.27	402.57
606.43	411.93
606.58	435.34
606.74	451.72
606.89	397.89
607.05	341.72
607.20	369.80
607.36	400.23
607.51	400.23
607.67	421.30
607.82	381.51
607.98	440.02
608.13	442.36
608.29	433.00
608.44	454.06
608.60	372.15
608.75	454.06
608.91	397.89
609.06	409.59
609.22	360.44
609.37	428.32
609.53	437.68
609.68	355.76
609.84	407.25
609.99	322.99
610.15	423.64
