SpectraSuite Data File
++++++++++++++++++++++++++++++++++++
Date: Fri Oct 25 12:10:17 EDT 2013
User: price-jones
Dark Spectrum Present: No
Reference Spectrum Present: No
Number of Sampled Component Spectra: 1
Spectrometers: USB2+H05261
Integration Time (usec): 100000 (USB2+H05261)
Spectra Averaged: 1 (USB2+H05261)
Boxcar Smoothing: 0 (USB2+H05261)
Correct for Electrical Dark: No (USB2+H05261)
Strobe/Lamp Enabled: No (USB2+H05261)
Correct for Detector Non-linearity: No (USB2+H05261)
Correct for Stray Light: No (USB2+H05261)
Number of Pixels in Processed Spectrum: 2048
>>>>>Begin Processed Spectral Data<<<<<
365.73	355.76
365.92	355.76
366.12	355.76
366.32	266.82
366.52	290.23
366.72	243.42
366.91	252.78
367.11	287.89
367.31	203.63
367.51	210.65
367.70	227.03
367.90	292.57
368.10	196.60
368.30	168.52
368.49	168.52
368.69	245.76
368.89	269.16
369.09	238.73
369.28	250.44
369.48	215.33
369.68	297.25
369.87	306.61
370.07	334.70
370.27	346.40
370.47	290.23
370.66	278.52
370.86	315.97
371.06	425.98
371.25	409.59
371.45	360.44
371.65	355.76
371.84	365.12
372.04	320.65
372.24	381.51
372.44	369.80
372.63	430.66
372.83	374.49
373.03	381.51
373.22	362.78
373.42	395.55
373.62	451.72
373.81	402.57
374.01	435.34
374.21	451.72
374.40	435.34
374.60	496.19
374.79	390.87
374.99	388.53
375.19	365.12
375.38	463.43
375.58	449.38
375.78	425.98
375.97	451.72
376.17	447.04
376.37	390.87
376.56	390.87
376.76	337.04
376.95	374.49
377.15	411.93
377.35	397.89
377.54	416.62
377.74	496.19
377.93	404.91
378.13	397.89
378.33	369.80
378.52	400.23
378.72	425.98
378.91	435.34
379.11	374.49
379.31	379.17
379.50	376.83
379.70	454.06
379.89	351.08
380.09	468.11
380.28	402.57
380.48	386.19
380.68	400.23
380.87	358.10
381.07	498.53
381.26	416.62
381.46	437.68
381.65	425.98
381.85	365.12
382.04	468.11
382.24	454.06
382.43	425.98
382.63	442.36
382.83	386.19
383.02	435.34
383.22	437.68
383.41	411.93
383.61	425.98
383.80	449.38
384.00	411.93
384.19	393.21
384.39	353.42
384.58	339.38
384.78	418.96
384.97	318.31
385.17	376.83
385.36	355.76
385.56	454.06
385.75	451.72
385.95	402.57
386.14	362.78
386.34	444.70
386.53	381.51
386.72	442.36
386.92	414.27
387.11	386.19
387.31	374.49
387.50	421.30
387.70	393.21
387.89	362.78
388.09	374.49
388.28	444.70
388.48	346.40
388.67	451.72
388.86	447.04
389.06	414.27
389.25	390.87
389.45	381.51
389.64	479.81
389.84	388.53
390.03	390.87
390.22	423.64
390.42	409.59
390.61	358.10
390.81	355.76
391.00	346.40
391.19	390.87
391.39	346.40
391.58	416.62
391.78	416.62
391.97	348.74
392.16	374.49
392.36	470.45
392.55	482.15
392.75	393.21
392.94	374.49
393.13	486.83
393.33	376.83
393.52	344.06
393.71	456.40
393.91	353.42
394.10	374.49
394.29	400.23
394.49	381.51
394.68	456.40
394.88	395.55
395.07	334.70
395.26	440.02
395.46	456.40
395.65	407.25
395.84	388.53
396.04	503.22
396.23	388.53
396.42	409.59
396.62	386.19
396.81	318.31
397.00	386.19
397.19	477.47
397.39	397.89
397.58	390.87
397.77	318.31
397.97	369.80
398.16	388.53
398.35	435.34
398.55	346.40
398.74	365.12
398.93	400.23
399.12	437.68
399.32	381.51
399.51	458.74
399.70	395.55
399.90	442.36
400.09	395.55
400.28	414.27
400.47	400.23
400.67	404.91
400.86	437.68
401.05	402.57
401.24	423.64
401.44	428.32
401.63	351.08
401.82	454.06
402.01	421.30
402.21	404.91
402.40	330.02
402.59	346.40
402.78	397.89
402.97	379.17
403.17	416.62
403.36	428.32
403.55	402.57
403.74	414.27
403.93	374.49
404.13	395.55
404.32	440.02
404.51	400.23
404.70	435.34
404.89	374.49
405.09	461.09
405.28	369.80
405.47	339.38
405.66	449.38
405.85	428.32
406.05	355.76
406.24	355.76
406.43	411.93
406.62	367.46
406.81	547.69
407.00	409.59
407.20	322.99
407.39	425.98
407.58	440.02
407.77	425.98
407.96	430.66
408.15	386.19
408.34	404.91
408.54	369.80
408.73	374.49
408.92	397.89
409.11	416.62
409.30	395.55
409.49	358.10
409.68	388.53
409.87	409.59
410.07	344.06
410.26	411.93
410.45	397.89
410.64	423.64
410.83	414.27
411.02	404.91
411.21	442.36
411.40	388.53
411.59	362.78
411.78	369.80
411.98	341.72
412.17	369.80
412.36	358.10
412.55	404.91
412.74	414.27
412.93	507.90
413.12	458.74
413.31	470.45
413.50	400.23
413.69	409.59
413.88	421.30
414.07	379.17
414.26	470.45
414.45	369.80
414.64	428.32
414.83	447.04
415.02	479.81
415.22	442.36
415.41	447.04
415.60	332.36
415.79	372.15
415.98	416.62
416.17	433.00
416.36	449.38
416.55	416.62
416.74	433.00
416.93	383.85
417.12	381.51
417.31	402.57
417.50	442.36
417.69	437.68
417.88	442.36
418.07	367.46
418.26	421.30
418.45	444.70
418.64	414.27
418.83	484.49
419.02	416.62
419.21	428.32
419.39	435.34
419.58	400.23
419.77	327.68
419.96	390.87
420.15	482.15
420.34	397.89
420.53	386.19
420.72	435.34
420.91	430.66
421.10	444.70
421.29	442.36
421.48	362.78
421.67	393.21
421.86	451.72
422.05	428.32
422.24	376.83
422.43	428.32
422.61	400.23
422.80	440.02
422.99	390.87
423.18	395.55
423.37	407.25
423.56	348.74
423.75	416.62
423.94	437.68
424.13	411.93
424.32	397.89
424.50	374.49
424.69	484.49
424.88	486.83
425.07	386.19
425.26	388.53
425.45	451.72
425.64	374.49
425.83	395.55
426.01	395.55
426.20	381.51
426.39	402.57
426.58	409.59
426.77	437.68
426.96	393.21
427.15	468.11
427.33	407.25
427.52	376.83
427.71	393.21
427.90	395.55
428.09	456.40
428.28	435.34
428.46	423.64
428.65	482.15
428.84	390.87
429.03	428.32
429.22	402.57
429.40	454.06
429.59	416.62
429.78	425.98
429.97	362.78
430.16	454.06
430.34	440.02
430.53	360.44
430.72	411.93
430.91	428.32
431.10	353.42
431.28	468.11
431.47	461.09
431.66	348.74
431.85	337.04
432.03	416.62
432.22	477.47
432.41	353.42
432.60	444.70
432.79	360.44
432.97	423.64
433.16	362.78
433.35	372.15
433.54	428.32
433.72	442.36
433.91	456.40
434.10	444.70
434.28	484.49
434.47	435.34
434.66	395.55
434.85	414.27
435.03	484.49
435.22	463.43
435.41	468.11
435.59	465.77
435.78	414.27
435.97	486.83
436.16	400.23
436.34	400.23
436.53	360.44
436.72	411.93
436.90	325.33
437.09	407.25
437.28	440.02
437.46	369.80
437.65	365.12
437.84	390.87
438.02	351.08
438.21	407.25
438.40	458.74
438.58	351.08
438.77	407.25
438.96	388.53
439.14	367.46
439.33	454.06
439.52	365.12
439.70	463.43
439.89	311.29
440.08	407.25
440.26	409.59
440.45	358.10
440.63	428.32
440.82	376.83
441.01	444.70
441.19	416.62
441.38	472.79
441.57	423.64
441.75	423.64
441.94	486.83
442.12	379.17
442.31	367.46
442.50	484.49
442.68	423.64
442.87	425.98
443.05	433.00
443.24	367.46
443.43	484.49
443.61	358.10
443.80	379.17
443.98	308.95
444.17	433.00
444.35	449.38
444.54	407.25
444.73	421.30
444.91	425.98
445.10	468.11
445.28	348.74
445.47	388.53
445.65	388.53
445.84	388.53
446.02	379.17
446.21	402.57
446.39	421.30
446.58	463.43
446.77	409.59
446.95	407.25
447.14	442.36
447.32	430.66
447.51	423.64
447.69	437.68
447.88	433.00
448.06	374.49
448.25	376.83
448.43	411.93
448.62	362.78
448.80	346.40
448.99	367.46
449.17	454.06
449.36	388.53
449.54	393.21
449.73	372.15
449.91	458.74
450.10	344.06
450.28	386.19
450.46	458.74
450.65	472.79
450.83	397.89
451.02	456.40
451.20	414.27
451.39	390.87
451.57	430.66
451.76	395.55
451.94	407.25
452.13	503.22
452.31	411.93
452.49	365.12
452.68	437.68
452.86	418.96
453.05	409.59
453.23	440.02
453.42	442.36
453.60	346.40
453.78	447.04
453.97	388.53
454.15	351.08
454.34	428.32
454.52	383.85
454.70	468.11
454.89	425.98
455.07	414.27
455.26	482.15
455.44	444.70
455.62	407.25
455.81	444.70
455.99	447.04
456.17	362.78
456.36	418.96
456.54	442.36
456.73	444.70
456.91	447.04
457.09	381.51
457.28	421.30
457.46	360.44
457.64	372.15
457.83	367.46
458.01	400.23
458.19	348.74
458.38	367.46
458.56	465.77
458.74	440.02
458.93	402.57
459.11	472.79
459.29	423.64
459.48	444.70
459.66	498.53
459.84	348.74
460.03	505.56
460.21	437.68
460.39	423.64
460.57	486.83
460.76	430.66
460.94	477.47
461.12	416.62
461.31	512.58
461.49	430.66
461.67	433.00
461.85	423.64
462.04	418.96
462.22	751.31
462.40	463.43
462.59	482.15
462.77	442.36
462.95	428.32
463.13	454.06
463.32	465.77
463.50	390.87
463.68	423.64
463.86	418.96
464.05	367.46
464.23	463.43
464.41	379.17
464.59	353.42
464.78	367.46
464.96	374.49
465.14	409.59
465.32	358.10
465.50	374.49
465.69	339.38
465.87	433.00
466.05	402.57
466.23	262.14
466.41	411.93
466.60	325.33
466.78	486.83
466.96	414.27
467.14	421.30
467.32	535.98
467.51	456.40
467.69	463.43
467.87	468.11
468.05	449.38
468.23	479.81
468.41	477.47
468.60	400.23
468.78	454.06
468.96	442.36
469.14	383.85
469.32	435.34
469.50	423.64
469.69	451.72
469.87	482.15
470.05	395.55
470.23	388.53
470.41	444.70
470.59	386.19
470.77	383.85
470.95	425.98
471.14	411.93
471.32	433.00
471.50	451.72
471.68	266.82
471.86	458.74
472.04	306.61
472.22	365.12
472.40	367.46
472.58	400.23
472.77	428.32
472.95	374.49
473.13	454.06
473.31	376.83
473.49	337.04
473.67	351.08
473.85	376.83
474.03	437.68
474.21	486.83
474.39	440.02
474.57	433.00
474.75	322.99
474.93	397.89
475.12	355.76
475.30	351.08
475.48	449.38
475.66	444.70
475.84	433.00
476.02	358.10
476.20	414.27
476.38	379.17
476.56	491.51
476.74	435.34
476.92	409.59
477.10	404.91
477.28	402.57
477.46	402.57
477.64	353.42
477.82	411.93
478.00	346.40
478.18	348.74
478.36	358.10
478.54	461.09
478.72	393.21
478.90	397.89
479.08	372.15
479.26	379.17
479.44	358.10
479.62	308.95
479.80	472.79
479.98	388.53
480.16	386.19
480.34	468.11
480.52	374.49
480.70	379.17
480.88	447.04
481.06	397.89
481.24	454.06
481.41	456.40
481.59	409.59
481.77	397.89
481.95	433.00
482.13	425.98
482.31	484.49
482.49	393.21
482.67	339.38
482.85	411.93
483.03	428.32
483.21	433.00
483.39	437.68
483.57	388.53
483.74	435.34
483.92	418.96
484.10	381.51
484.28	409.59
484.46	475.13
484.64	393.21
484.82	379.17
485.00	369.80
485.18	428.32
485.35	414.27
485.53	362.78
485.71	468.11
485.89	315.97
486.07	362.78
486.25	442.36
486.43	500.87
486.61	533.64
486.78	390.87
486.96	390.87
487.14	458.74
487.32	348.74
487.50	381.51
487.68	447.04
487.85	358.10
488.03	365.12
488.21	360.44
488.39	416.62
488.57	376.83
488.75	418.96
488.92	557.05
489.10	472.79
489.28	430.66
489.46	374.49
489.64	388.53
489.81	416.62
489.99	454.06
490.17	430.66
490.35	517.26
490.53	430.66
490.70	414.27
490.88	379.17
491.06	421.30
491.24	451.72
491.41	421.30
491.59	383.85
491.77	451.72
491.95	416.62
492.13	411.93
492.30	386.19
492.48	376.83
492.66	433.00
492.84	393.21
493.01	418.96
493.19	428.32
493.37	482.15
493.54	484.49
493.72	395.55
493.90	365.12
494.08	442.36
494.25	409.59
494.43	402.57
494.61	425.98
494.79	332.36
494.96	360.44
495.14	463.43
495.32	472.79
495.49	472.79
495.67	465.77
495.85	400.23
496.02	407.25
496.20	440.02
496.38	463.43
496.55	456.40
496.73	414.27
496.91	411.93
497.09	369.80
497.26	458.74
497.44	442.36
497.62	386.19
497.79	407.25
497.97	418.96
498.14	369.80
498.32	440.02
498.50	362.78
498.67	435.34
498.85	411.93
499.03	374.49
499.20	334.70
499.38	397.89
499.56	348.74
499.73	451.72
499.91	435.34
500.08	381.51
500.26	414.27
500.44	433.00
500.61	470.45
500.79	428.32
500.97	423.64
501.14	531.30
501.32	407.25
501.49	514.92
501.67	395.55
501.84	444.70
502.02	379.17
502.20	404.91
502.37	395.55
502.55	475.13
502.72	425.98
502.90	451.72
503.07	339.38
503.25	435.34
503.43	404.91
503.60	423.64
503.78	407.25
503.95	477.47
504.13	409.59
504.30	400.23
504.48	428.32
504.65	451.72
504.83	430.66
505.01	360.44
505.18	414.27
505.36	374.49
505.53	400.23
505.71	435.34
505.88	458.74
506.06	435.34
506.23	456.40
506.41	444.70
506.58	451.72
506.76	493.85
506.93	458.74
507.11	479.81
507.28	433.00
507.46	442.36
507.63	444.70
507.81	407.25
507.98	397.89
508.16	437.68
508.33	451.72
508.50	421.30
508.68	418.96
508.85	353.42
509.03	393.21
509.20	376.83
509.38	390.87
509.55	423.64
509.73	407.25
509.90	444.70
510.08	397.89
510.25	416.62
510.42	411.93
510.60	447.04
510.77	435.34
510.95	440.02
511.12	407.25
511.30	383.85
511.47	379.17
511.64	468.11
511.82	390.87
511.99	379.17
512.17	362.78
512.34	390.87
512.51	355.76
512.69	379.17
512.86	463.43
513.04	369.80
513.21	400.23
513.38	449.38
513.56	381.51
513.73	376.83
513.90	461.09
514.08	360.44
514.25	423.64
514.43	430.66
514.60	418.96
514.77	395.55
514.95	421.30
515.12	423.64
515.29	313.63
515.47	414.27
515.64	372.15
515.81	388.53
515.99	407.25
516.16	444.70
516.33	430.66
516.51	402.57
516.68	374.49
516.85	404.91
517.03	388.53
517.20	355.76
517.37	433.00
517.54	425.98
517.72	437.68
517.89	374.49
518.06	358.10
518.24	475.13
518.41	463.43
518.58	397.89
518.75	404.91
518.93	409.59
519.10	402.57
519.27	444.70
519.45	390.87
519.62	433.00
519.79	383.85
519.96	376.83
520.14	362.78
520.31	472.79
520.48	435.34
520.65	428.32
520.83	440.02
521.00	367.46
521.17	440.02
521.34	353.42
521.52	388.53
521.69	395.55
521.86	353.42
522.03	442.36
522.20	402.57
522.38	330.02
522.55	402.57
522.72	428.32
522.89	393.21
523.07	475.13
523.24	365.12
523.41	421.30
523.58	344.06
523.75	388.53
523.92	465.77
524.10	447.04
524.27	416.62
524.44	372.15
524.61	468.11
524.78	390.87
524.96	402.57
525.13	400.23
525.30	425.98
525.47	360.44
525.64	393.21
525.81	353.42
525.98	472.79
526.16	451.72
526.33	479.81
526.50	393.21
526.67	423.64
526.84	395.55
527.01	348.74
527.18	402.57
527.36	358.10
527.53	472.79
527.70	404.91
527.87	407.25
528.04	374.49
528.21	463.43
528.38	409.59
528.55	400.23
528.72	400.23
528.89	430.66
529.07	411.93
529.24	369.80
529.41	447.04
529.58	390.87
529.75	418.96
529.92	437.68
530.09	411.93
530.26	423.64
530.43	390.87
530.60	395.55
530.77	402.57
530.94	414.27
531.11	388.53
531.28	447.04
531.46	374.49
531.63	430.66
531.80	393.21
531.97	386.19
532.14	430.66
532.31	430.66
532.48	383.85
532.65	402.57
532.82	381.51
532.99	397.89
533.16	400.23
533.33	416.62
533.50	461.09
533.67	351.08
533.84	425.98
534.01	388.53
534.18	341.72
534.35	393.21
534.52	409.59
534.69	491.51
534.86	369.80
535.03	416.62
535.20	404.91
535.37	451.72
535.54	409.59
535.71	440.02
535.88	374.49
536.05	428.32
536.22	437.68
536.38	313.63
536.55	404.91
536.72	468.11
536.89	390.87
537.06	400.23
537.23	418.96
537.40	454.06
537.57	402.57
537.74	475.13
537.91	451.72
538.08	407.25
538.25	409.59
538.42	390.87
538.59	402.57
538.75	397.89
538.92	442.36
539.09	433.00
539.26	449.38
539.43	386.19
539.60	379.17
539.77	421.30
539.94	404.91
540.11	440.02
540.28	437.68
540.44	500.87
540.61	416.62
540.78	442.36
540.95	442.36
541.12	421.30
541.29	430.66
541.46	512.58
541.62	388.53
541.79	454.06
541.96	383.85
542.13	449.38
542.30	374.49
542.47	425.98
542.63	458.74
542.80	325.33
542.97	374.49
543.14	395.55
543.31	428.32
543.48	379.17
543.64	355.76
543.81	360.44
543.98	397.89
544.15	440.02
544.32	393.21
544.48	435.34
544.65	362.78
544.82	437.68
544.99	514.92
545.16	409.59
545.32	402.57
545.49	360.44
545.66	461.09
545.83	414.27
546.00	414.27
546.16	433.00
546.33	414.27
546.50	449.38
546.67	425.98
546.83	449.38
547.00	320.65
547.17	414.27
547.34	456.40
547.50	496.19
547.67	472.79
547.84	386.19
548.00	383.85
548.17	407.25
548.34	454.06
548.51	440.02
548.67	440.02
548.84	376.83
549.01	449.38
549.18	381.51
549.34	440.02
549.51	400.23
549.68	393.21
549.84	435.34
550.01	393.21
550.18	416.62
550.34	428.32
550.51	425.98
550.68	442.36
550.84	447.04
551.01	332.36
551.18	367.46
551.34	440.02
551.51	409.59
551.68	369.80
551.84	437.68
552.01	388.53
552.18	418.96
552.34	423.64
552.51	454.06
552.68	500.87
552.84	393.21
553.01	393.21
553.18	442.36
553.34	395.55
553.51	332.36
553.67	433.00
553.84	344.06
554.01	477.47
554.17	496.19
554.34	395.55
554.51	430.66
554.67	440.02
554.84	379.17
555.00	437.68
555.17	400.23
555.33	498.53
555.50	437.68
555.67	451.72
555.83	369.80
556.00	430.66
556.16	533.64
556.33	440.02
556.50	379.17
556.66	470.45
556.83	407.25
556.99	440.02
557.16	397.89
557.32	400.23
557.49	400.23
557.65	404.91
557.82	393.21
557.98	411.93
558.15	372.15
558.32	461.09
558.48	393.21
558.65	409.59
558.81	423.64
558.98	393.21
559.14	477.47
559.31	468.11
559.47	402.57
559.64	381.51
559.80	449.38
559.97	437.68
560.13	463.43
560.30	423.64
560.46	472.79
560.63	404.91
560.79	433.00
560.96	447.04
561.12	416.62
561.29	428.32
561.45	456.40
561.61	407.25
561.78	491.51
561.94	400.23
562.11	449.38
562.27	409.59
562.44	374.49
562.60	397.89
562.77	430.66
562.93	421.30
563.10	463.43
563.26	418.96
563.42	489.17
563.59	416.62
563.75	479.81
563.92	418.96
564.08	407.25
564.24	440.02
564.41	428.32
564.57	486.83
564.74	437.68
564.90	447.04
565.07	461.09
565.23	407.25
565.39	379.17
565.56	411.93
565.72	463.43
565.88	407.25
566.05	416.62
566.21	416.62
566.38	444.70
566.54	447.04
566.70	404.91
566.87	376.83
567.03	388.53
567.19	386.19
567.36	458.74
567.52	465.77
567.68	437.68
567.85	442.36
568.01	421.30
568.17	360.44
568.34	418.96
568.50	479.81
568.66	411.93
568.83	482.15
568.99	395.55
569.15	400.23
569.32	402.57
569.48	411.93
569.64	390.87
569.81	400.23
569.97	395.55
570.13	440.02
570.30	348.74
570.46	423.64
570.62	416.62
570.78	395.55
570.95	451.72
571.11	512.58
571.27	411.93
571.43	442.36
571.60	491.51
571.76	458.74
571.92	372.15
572.09	444.70
572.25	407.25
572.41	407.25
572.57	400.23
572.74	411.93
572.90	484.49
573.06	409.59
573.22	449.38
573.38	400.23
573.55	433.00
573.71	454.06
573.87	458.74
574.03	376.83
574.20	433.00
574.36	524.28
574.52	395.55
574.68	435.34
574.84	362.78
575.01	435.34
575.17	447.04
575.33	409.59
575.49	433.00
575.65	447.04
575.82	425.98
575.98	421.30
576.14	461.09
576.30	409.59
576.46	393.21
576.62	341.72
576.79	433.00
576.95	444.70
577.11	374.49
577.27	416.62
577.43	458.74
577.59	409.59
577.75	440.02
577.92	369.80
578.08	425.98
578.24	442.36
578.40	395.55
578.56	423.64
578.72	383.85
578.88	449.38
579.04	454.06
579.21	463.43
579.37	463.43
579.53	425.98
579.69	503.22
579.85	381.51
580.01	442.36
580.17	362.78
580.33	482.15
580.49	414.27
580.65	461.09
580.82	461.09
580.98	442.36
581.14	414.27
581.30	444.70
581.46	437.68
581.62	447.04
581.78	367.46
581.94	416.62
582.10	351.08
582.26	402.57
582.42	390.87
582.58	411.93
582.74	421.30
582.90	440.02
583.06	409.59
583.22	409.59
583.38	402.57
583.54	444.70
583.70	425.98
583.86	472.79
584.02	435.34
584.18	358.10
584.34	402.57
584.50	484.49
584.66	346.40
584.82	404.91
584.98	383.85
585.14	402.57
585.30	477.47
585.46	421.30
585.62	395.55
585.78	433.00
585.94	442.36
586.10	409.59
586.26	435.34
586.42	500.87
586.58	444.70
586.74	465.77
586.90	418.96
587.06	433.00
587.22	404.91
587.38	369.80
587.54	465.77
587.70	489.17
587.86	360.44
588.02	390.87
588.18	430.66
588.34	421.30
588.49	411.93
588.65	409.59
588.81	472.79
588.97	465.77
589.13	433.00
589.29	430.66
589.45	400.23
589.61	414.27
589.77	421.30
589.93	428.32
590.08	386.19
590.24	437.68
590.40	372.15
590.56	454.06
590.72	388.53
590.88	411.93
591.04	400.23
591.20	353.42
591.35	447.04
591.51	409.59
591.67	330.02
591.83	400.23
591.99	425.98
592.15	484.49
592.31	435.34
592.46	449.38
592.62	486.83
592.78	393.21
592.94	374.49
593.10	430.66
593.26	351.08
593.41	379.17
593.57	437.68
593.73	458.74
593.89	458.74
594.05	447.04
594.20	418.96
594.36	456.40
594.52	421.30
594.68	425.98
594.84	388.53
594.99	383.85
595.15	454.06
595.31	437.68
595.47	524.28
595.62	440.02
595.78	376.83
595.94	428.32
596.10	421.30
596.25	517.26
596.41	458.74
596.57	390.87
596.73	400.23
596.88	402.57
597.04	362.78
597.20	416.62
597.36	397.89
597.51	411.93
597.67	503.22
597.83	479.81
597.99	388.53
598.14	339.38
598.30	451.72
598.46	383.85
598.61	442.36
598.77	407.25
598.93	440.02
599.09	433.00
599.24	386.19
599.40	433.00
599.56	383.85
599.71	393.21
599.87	454.06
600.03	435.34
600.18	416.62
600.34	360.44
600.50	395.55
600.65	491.51
600.81	465.77
600.97	402.57
601.12	524.28
601.28	437.68
601.44	482.15
601.59	407.25
601.75	533.64
601.91	418.96
602.06	386.19
602.22	514.92
602.37	454.06
602.53	386.19
602.69	393.21
602.84	383.85
603.00	407.25
603.16	442.36
603.31	484.49
603.47	404.91
603.62	381.51
603.78	372.15
603.94	358.10
604.09	440.02
604.25	411.93
604.40	374.49
604.56	484.49
604.71	414.27
604.87	404.91
605.03	402.57
605.18	409.59
605.34	449.38
605.49	411.93
605.65	379.17
605.80	376.83
605.96	400.23
606.12	437.68
606.27	425.98
606.43	390.87
606.58	468.11
606.74	358.10
606.89	390.87
607.05	465.77
607.20	449.38
607.36	376.83
607.51	353.42
607.67	414.27
607.82	447.04
607.98	482.15
608.13	430.66
608.29	418.96
608.44	416.62
608.60	388.53
608.75	437.68
608.91	402.57
609.06	351.08
609.22	433.00
609.37	442.36
609.53	367.46
609.68	365.12
609.84	421.30
609.99	390.87
610.15	362.78
