SpectraSuite Data File
++++++++++++++++++++++++++++++++++++
Date: Fri Oct 25 12:11:03 EDT 2013
User: price-jones
Dark Spectrum Present: No
Reference Spectrum Present: No
Number of Sampled Component Spectra: 1
Spectrometers: USB2+H05261
Integration Time (usec): 100000 (USB2+H05261)
Spectra Averaged: 1 (USB2+H05261)
Boxcar Smoothing: 0 (USB2+H05261)
Correct for Electrical Dark: No (USB2+H05261)
Strobe/Lamp Enabled: No (USB2+H05261)
Correct for Detector Non-linearity: No (USB2+H05261)
Correct for Stray Light: No (USB2+H05261)
Number of Pixels in Processed Spectrum: 2048
>>>>>Begin Processed Spectral Data<<<<<
365.73	287.89
365.92	287.89
366.12	287.89
366.32	262.14
366.52	241.08
366.72	308.95
366.91	273.84
367.11	285.55
367.31	210.65
367.51	177.88
367.70	278.52
367.90	241.08
368.10	276.18
368.30	248.10
368.49	203.63
368.69	297.25
368.89	238.73
369.09	285.55
369.28	250.44
369.48	227.03
369.68	348.74
369.87	346.40
370.07	327.68
370.27	306.61
370.47	346.40
370.66	341.72
370.86	365.12
371.06	327.68
371.25	411.93
371.45	360.44
371.65	397.89
371.84	365.12
372.04	341.72
372.24	395.55
372.44	369.80
372.63	425.98
372.83	414.27
373.03	376.83
373.22	369.80
373.42	395.55
373.62	428.32
373.81	454.06
374.01	379.17
374.21	486.83
374.40	341.72
374.60	402.57
374.79	355.76
374.99	461.09
375.19	390.87
375.38	395.55
375.58	365.12
375.78	411.93
375.97	386.19
376.17	430.66
376.37	411.93
376.56	451.72
376.76	449.38
376.95	407.25
377.15	390.87
377.35	433.00
377.54	463.43
377.74	334.70
377.93	425.98
378.13	444.70
378.33	414.27
378.52	374.49
378.72	449.38
378.91	479.81
379.11	409.59
379.31	395.55
379.50	337.04
379.70	407.25
379.89	484.49
380.09	381.51
380.28	372.15
380.48	393.21
380.68	348.74
380.87	404.91
381.07	407.25
381.26	374.49
381.46	372.15
381.65	381.51
381.85	409.59
382.04	381.51
382.24	407.25
382.43	423.64
382.63	404.91
382.83	395.55
383.02	348.74
383.22	423.64
383.41	397.89
383.61	421.30
383.80	404.91
384.00	367.46
384.19	430.66
384.39	447.04
384.58	440.02
384.78	390.87
384.97	362.78
385.17	374.49
385.36	362.78
385.56	374.49
385.75	470.45
385.95	409.59
386.14	383.85
386.34	444.70
386.53	400.23
386.72	402.57
386.92	440.02
387.11	379.17
387.31	463.43
387.50	416.62
387.70	425.98
387.89	409.59
388.09	449.38
388.28	346.40
388.48	414.27
388.67	400.23
388.86	379.17
389.06	402.57
389.25	353.42
389.45	355.76
389.64	322.99
389.84	344.06
390.03	465.77
390.22	400.23
390.42	430.66
390.61	425.98
390.81	297.25
391.00	411.93
391.19	475.13
391.39	449.38
391.58	374.49
391.78	425.98
391.97	411.93
392.16	351.08
392.36	430.66
392.55	411.93
392.75	390.87
392.94	435.34
393.13	435.34
393.33	351.08
393.52	451.72
393.71	440.02
393.91	416.62
394.10	430.66
394.29	383.85
394.49	367.46
394.68	402.57
394.88	383.85
395.07	348.74
395.26	425.98
395.46	411.93
395.65	458.74
395.84	383.85
396.04	456.40
396.23	409.59
396.42	458.74
396.62	374.49
396.81	433.00
397.00	456.40
397.19	308.95
397.39	416.62
397.58	414.27
397.77	456.40
397.97	365.12
398.16	416.62
398.35	372.15
398.55	440.02
398.74	451.72
398.93	414.27
399.12	433.00
399.32	381.51
399.51	386.19
399.70	388.53
399.90	400.23
400.09	411.93
400.28	428.32
400.47	402.57
400.67	463.43
400.86	337.04
401.05	402.57
401.24	395.55
401.44	437.68
401.63	482.15
401.82	360.44
402.01	379.17
402.21	411.93
402.40	425.98
402.59	346.40
402.78	395.55
402.97	451.72
403.17	355.76
403.36	435.34
403.55	421.30
403.74	376.83
403.93	409.59
404.13	458.74
404.32	433.00
404.51	348.74
404.70	397.89
404.89	433.00
405.09	425.98
405.28	458.74
405.47	409.59
405.66	418.96
405.85	425.98
406.05	418.96
406.24	414.27
406.43	425.98
406.62	374.49
406.81	353.42
407.00	463.43
407.20	365.12
407.39	376.83
407.58	376.83
407.77	454.06
407.96	482.15
408.15	470.45
408.34	409.59
408.54	397.89
408.73	372.15
408.92	376.83
409.11	447.04
409.30	423.64
409.49	414.27
409.68	372.15
409.87	458.74
410.07	425.98
410.26	372.15
410.45	411.93
410.64	442.36
410.83	423.64
411.02	425.98
411.21	430.66
411.40	400.23
411.59	444.70
411.78	411.93
411.98	454.06
412.17	430.66
412.36	355.76
412.55	433.00
412.74	421.30
412.93	437.68
413.12	381.51
413.31	437.68
413.50	454.06
413.69	475.13
413.88	411.93
414.07	388.53
414.26	393.21
414.45	390.87
414.64	444.70
414.83	395.55
415.02	461.09
415.22	400.23
415.41	425.98
415.60	383.85
415.79	430.66
415.98	402.57
416.17	472.79
416.36	372.15
416.55	388.53
416.74	390.87
416.93	390.87
417.12	402.57
417.31	365.12
417.50	433.00
417.69	433.00
417.88	400.23
418.07	341.72
418.26	376.83
418.45	407.25
418.64	498.53
418.83	454.06
419.02	442.36
419.21	402.57
419.39	416.62
419.58	425.98
419.77	454.06
419.96	423.64
420.15	430.66
420.34	381.51
420.53	449.38
420.72	411.93
420.91	458.74
421.10	451.72
421.29	458.74
421.48	444.70
421.67	456.40
421.86	330.02
422.05	372.15
422.24	437.68
422.43	428.32
422.61	400.23
422.80	414.27
422.99	430.66
423.18	425.98
423.37	409.59
423.56	355.76
423.75	390.87
423.94	397.89
424.13	369.80
424.32	318.31
424.50	362.78
424.69	428.32
424.88	435.34
425.07	416.62
425.26	351.08
425.45	390.87
425.64	379.17
425.83	440.02
426.01	447.04
426.20	421.30
426.39	397.89
426.58	362.78
426.77	362.78
426.96	451.72
427.15	397.89
427.33	418.96
427.52	414.27
427.71	411.93
427.90	376.83
428.09	369.80
428.28	379.17
428.46	395.55
428.65	379.17
428.84	304.27
429.03	433.00
429.22	418.96
429.40	395.55
429.59	449.38
429.78	407.25
429.97	339.38
430.16	482.15
430.34	433.00
430.53	440.02
430.72	386.19
430.91	404.91
431.10	332.36
431.28	428.32
431.47	472.79
431.66	372.15
431.85	407.25
432.03	404.91
432.22	421.30
432.41	400.23
432.60	348.74
432.79	390.87
432.97	449.38
433.16	470.45
433.35	437.68
433.54	428.32
433.72	470.45
433.91	465.77
434.10	397.89
434.28	430.66
434.47	440.02
434.66	437.68
434.85	369.80
435.03	388.53
435.22	465.77
435.41	463.43
435.59	372.15
435.78	451.72
435.97	414.27
436.16	390.87
436.34	503.22
436.53	365.12
436.72	477.47
436.90	461.09
437.09	454.06
437.28	440.02
437.46	430.66
437.65	470.45
437.84	360.44
438.02	421.30
438.21	318.31
438.40	348.74
438.58	334.70
438.77	440.02
438.96	437.68
439.14	369.80
439.33	503.22
439.52	400.23
439.70	437.68
439.89	414.27
440.08	418.96
440.26	414.27
440.45	381.51
440.63	416.62
440.82	397.89
441.01	327.68
441.19	451.72
441.38	365.12
441.57	484.49
441.75	470.45
441.94	433.00
442.12	430.66
442.31	341.72
442.50	414.27
442.68	451.72
442.87	334.70
443.05	425.98
443.24	393.21
443.43	440.02
443.61	486.83
443.80	416.62
443.98	388.53
444.17	337.04
444.35	440.02
444.54	465.77
444.73	423.64
444.91	395.55
445.10	437.68
445.28	414.27
445.47	421.30
445.65	421.30
445.84	376.83
446.02	360.44
446.21	414.27
446.39	416.62
446.58	451.72
446.77	458.74
446.95	367.46
447.14	430.66
447.32	461.09
447.51	486.83
447.69	451.72
447.88	374.49
448.06	442.36
448.25	376.83
448.43	397.89
448.62	395.55
448.80	442.36
448.99	374.49
449.17	376.83
449.36	388.53
449.54	428.32
449.73	418.96
449.91	416.62
450.10	376.83
450.28	407.25
450.46	418.96
450.65	348.74
450.83	332.36
451.02	437.68
451.20	404.91
451.39	444.70
451.57	362.78
451.76	409.59
451.94	339.38
452.13	449.38
452.31	430.66
452.49	430.66
452.68	404.91
452.86	461.09
453.05	414.27
453.23	437.68
453.42	393.21
453.60	383.85
453.78	365.12
453.97	365.12
454.15	390.87
454.34	388.53
454.52	383.85
454.70	393.21
454.89	461.09
455.07	411.93
455.26	402.57
455.44	433.00
455.62	353.42
455.81	428.32
455.99	400.23
456.17	442.36
456.36	344.06
456.54	388.53
456.73	428.32
456.91	465.77
457.09	330.02
457.28	486.83
457.46	369.80
457.64	395.55
457.83	414.27
458.01	444.70
458.19	404.91
458.38	423.64
458.56	421.30
458.74	425.98
458.93	456.40
459.11	423.64
459.29	402.57
459.48	388.53
459.66	416.62
459.84	423.64
460.03	433.00
460.21	447.04
460.39	362.78
460.57	444.70
460.76	493.85
460.94	376.83
461.12	461.09
461.31	454.06
461.49	379.17
461.67	390.87
461.85	479.81
462.04	414.27
462.22	819.19
462.40	498.53
462.59	400.23
462.77	430.66
462.95	390.87
463.13	390.87
463.32	348.74
463.50	351.08
463.68	437.68
463.86	381.51
464.05	451.72
464.23	388.53
464.41	407.25
464.59	433.00
464.78	409.59
464.96	397.89
465.14	430.66
465.32	388.53
465.50	451.72
465.69	381.51
465.87	348.74
466.05	437.68
466.23	409.59
466.41	351.08
466.60	374.49
466.78	449.38
466.96	454.06
467.14	386.19
467.32	416.62
467.51	409.59
467.69	444.70
467.87	428.32
468.05	404.91
468.23	447.04
468.41	440.02
468.60	411.93
468.78	416.62
468.96	435.34
469.14	498.53
469.32	416.62
469.50	339.38
469.69	444.70
469.87	416.62
470.05	463.43
470.23	397.89
470.41	395.55
470.59	437.68
470.77	411.93
470.95	411.93
471.14	470.45
471.32	353.42
471.50	437.68
471.68	388.53
471.86	418.96
472.04	414.27
472.22	409.59
472.40	395.55
472.58	353.42
472.77	407.25
472.95	416.62
473.13	435.34
473.31	402.57
473.49	409.59
473.67	374.49
473.85	395.55
474.03	393.21
474.21	383.85
474.39	449.38
474.57	407.25
474.75	390.87
474.93	407.25
475.12	437.68
475.30	454.06
475.48	489.17
475.66	376.83
475.84	393.21
476.02	414.27
476.20	449.38
476.38	418.96
476.56	505.56
476.74	376.83
476.92	325.33
477.10	376.83
477.28	421.30
477.46	444.70
477.64	388.53
477.82	451.72
478.00	465.77
478.18	442.36
478.36	430.66
478.54	390.87
478.72	388.53
478.90	428.32
479.08	433.00
479.26	353.42
479.44	449.38
479.62	451.72
479.80	348.74
479.98	351.08
480.16	440.02
480.34	442.36
480.52	442.36
480.70	418.96
480.88	390.87
481.06	437.68
481.24	418.96
481.41	440.02
481.59	463.43
481.77	404.91
481.95	390.87
482.13	402.57
482.31	475.13
482.49	423.64
482.67	407.25
482.85	451.72
483.03	430.66
483.21	402.57
483.39	433.00
483.57	397.89
483.74	407.25
483.92	337.04
484.10	372.15
484.28	411.93
484.46	475.13
484.64	325.33
484.82	491.51
485.00	383.85
485.18	376.83
485.35	402.57
485.53	367.46
485.71	493.85
485.89	344.06
486.07	339.38
486.25	486.83
486.43	440.02
486.61	451.72
486.78	416.62
486.96	409.59
487.14	437.68
487.32	383.85
487.50	369.80
487.68	409.59
487.85	376.83
488.03	425.98
488.21	407.25
488.39	362.78
488.57	447.04
488.75	379.17
488.92	486.83
489.10	449.38
489.28	458.74
489.46	400.23
489.64	402.57
489.81	482.15
489.99	416.62
490.17	374.49
490.35	456.40
490.53	409.59
490.70	463.43
490.88	395.55
491.06	447.04
491.24	468.11
491.41	425.98
491.59	402.57
491.77	435.34
491.95	346.40
492.13	362.78
492.30	346.40
492.48	435.34
492.66	428.32
492.84	348.74
493.01	395.55
493.19	395.55
493.37	416.62
493.54	435.34
493.72	409.59
493.90	411.93
494.08	341.72
494.25	472.79
494.43	409.59
494.61	369.80
494.79	355.76
494.96	444.70
495.14	449.38
495.32	358.10
495.49	447.04
495.67	339.38
495.85	440.02
496.02	407.25
496.20	444.70
496.38	381.51
496.55	468.11
496.73	507.90
496.91	374.49
497.09	425.98
497.26	414.27
497.44	355.76
497.62	447.04
497.79	428.32
497.97	397.89
498.14	444.70
498.32	374.49
498.50	383.85
498.67	386.19
498.85	425.98
499.03	400.23
499.20	440.02
499.38	407.25
499.56	407.25
499.73	484.49
499.91	404.91
500.08	475.13
500.26	355.76
500.44	430.66
500.61	442.36
500.79	409.59
500.97	404.91
501.14	367.46
501.32	400.23
501.49	472.79
501.67	449.38
501.84	407.25
502.02	322.99
502.20	404.91
502.37	423.64
502.55	397.89
502.72	383.85
502.90	381.51
503.07	472.79
503.25	477.47
503.43	367.46
503.60	425.98
503.78	402.57
503.95	346.40
504.13	435.34
504.30	430.66
504.48	409.59
504.65	475.13
504.83	465.77
505.01	425.98
505.18	440.02
505.36	414.27
505.53	400.23
505.71	437.68
505.88	411.93
506.06	468.11
506.23	409.59
506.41	339.38
506.58	433.00
506.76	437.68
506.93	423.64
507.11	411.93
507.28	451.72
507.46	381.51
507.63	449.38
507.81	411.93
507.98	461.09
508.16	414.27
508.33	374.49
508.50	344.06
508.68	351.08
508.85	456.40
509.03	456.40
509.20	404.91
509.38	376.83
509.55	454.06
509.73	416.62
509.90	447.04
510.08	327.68
510.25	430.66
510.42	353.42
510.60	433.00
510.77	475.13
510.95	407.25
511.12	376.83
511.30	414.27
511.47	449.38
511.64	404.91
511.82	388.53
511.99	379.17
512.17	379.17
512.34	346.40
512.51	430.66
512.69	395.55
512.86	374.49
513.04	468.11
513.21	397.89
513.38	411.93
513.56	407.25
513.73	365.12
513.90	287.89
514.08	414.27
514.25	379.17
514.43	433.00
514.60	404.91
514.77	393.21
514.95	489.17
515.12	430.66
515.29	390.87
515.47	430.66
515.64	447.04
515.81	411.93
515.99	482.15
516.16	407.25
516.33	440.02
516.51	369.80
516.68	416.62
516.85	341.72
517.03	299.59
517.20	395.55
517.37	437.68
517.54	435.34
517.72	470.45
517.89	315.97
518.06	425.98
518.24	449.38
518.41	449.38
518.58	372.15
518.75	444.70
518.93	372.15
519.10	365.12
519.27	451.72
519.45	440.02
519.62	433.00
519.79	400.23
519.96	386.19
520.14	402.57
520.31	458.74
520.48	411.93
520.65	409.59
520.83	437.68
521.00	381.51
521.17	376.83
521.34	404.91
521.52	444.70
521.69	414.27
521.86	400.23
522.03	454.06
522.20	486.83
522.38	484.49
522.55	404.91
522.72	414.27
522.89	489.17
523.07	423.64
523.24	360.44
523.41	369.80
523.58	395.55
523.75	454.06
523.92	409.59
524.10	451.72
524.27	376.83
524.44	372.15
524.61	465.77
524.78	397.89
524.96	482.15
525.13	454.06
525.30	388.53
525.47	440.02
525.64	425.98
525.81	449.38
525.98	482.15
526.16	393.21
526.33	449.38
526.50	411.93
526.67	463.43
526.84	402.57
527.01	404.91
527.18	411.93
527.36	404.91
527.53	383.85
527.70	374.49
527.87	400.23
528.04	475.13
528.21	390.87
528.38	430.66
528.55	369.80
528.72	442.36
528.89	507.90
529.07	360.44
529.24	348.74
529.41	472.79
529.58	463.43
529.75	383.85
529.92	444.70
530.09	454.06
530.26	414.27
530.43	402.57
530.60	435.34
530.77	430.66
530.94	414.27
531.11	409.59
531.28	465.77
531.46	449.38
531.63	407.25
531.80	447.04
531.97	468.11
532.14	458.74
532.31	454.06
532.48	367.46
532.65	407.25
532.82	493.85
532.99	468.11
533.16	355.76
533.33	421.30
533.50	425.98
533.67	456.40
533.84	425.98
534.01	372.15
534.18	423.64
534.35	414.27
534.52	437.68
534.69	407.25
534.86	409.59
535.03	374.49
535.20	402.57
535.37	423.64
535.54	442.36
535.71	404.91
535.88	409.59
536.05	400.23
536.22	477.47
536.38	454.06
536.55	409.59
536.72	475.13
536.89	386.19
537.06	390.87
537.23	416.62
537.40	411.93
537.57	444.70
537.74	461.09
537.91	386.19
538.08	535.98
538.25	463.43
538.42	362.78
538.59	458.74
538.75	444.70
538.92	376.83
539.09	418.96
539.26	421.30
539.43	447.04
539.60	367.46
539.77	428.32
539.94	402.57
540.11	449.38
540.28	437.68
540.44	461.09
540.61	423.64
540.78	456.40
540.95	400.23
541.12	440.02
541.29	418.96
541.46	433.00
541.62	440.02
541.79	400.23
541.96	449.38
542.13	404.91
542.30	393.21
542.47	440.02
542.63	351.08
542.80	428.32
542.97	407.25
543.14	477.47
543.31	404.91
543.48	428.32
543.64	423.64
543.81	386.19
543.98	442.36
544.15	430.66
544.32	418.96
544.48	376.83
544.65	390.87
544.82	404.91
544.99	388.53
545.16	428.32
545.32	395.55
545.49	440.02
545.66	379.17
545.83	386.19
546.00	404.91
546.16	416.62
546.33	386.19
546.50	416.62
546.67	463.43
546.83	390.87
547.00	402.57
547.17	442.36
547.34	376.83
547.50	369.80
547.67	393.21
547.84	414.27
548.00	407.25
548.17	479.81
548.34	470.45
548.51	461.09
548.67	430.66
548.84	428.32
549.01	444.70
549.18	430.66
549.34	496.19
549.51	339.38
549.68	416.62
549.84	416.62
550.01	440.02
550.18	512.58
550.34	512.58
550.51	416.62
550.68	404.91
550.84	374.49
551.01	437.68
551.18	351.08
551.34	407.25
551.51	409.59
551.68	414.27
551.84	416.62
552.01	449.38
552.18	435.34
552.34	416.62
552.51	379.17
552.68	479.81
552.84	388.53
553.01	447.04
553.18	451.72
553.34	435.34
553.51	435.34
553.67	449.38
553.84	461.09
554.01	472.79
554.17	449.38
554.34	454.06
554.51	456.40
554.67	456.40
554.84	540.66
555.00	404.91
555.17	348.74
555.33	479.81
555.50	503.22
555.67	388.53
555.83	425.98
556.00	500.87
556.16	517.26
556.33	444.70
556.50	479.81
556.66	486.83
556.83	437.68
556.99	400.23
557.16	458.74
557.32	454.06
557.49	409.59
557.65	402.57
557.82	425.98
557.98	498.53
558.15	475.13
558.32	428.32
558.48	440.02
558.65	418.96
558.81	428.32
558.98	395.55
559.14	512.58
559.31	463.43
559.47	458.74
559.64	416.62
559.80	418.96
559.97	332.36
560.13	425.98
560.30	409.59
560.46	404.91
560.63	414.27
560.79	477.47
560.96	369.80
561.12	381.51
561.29	411.93
561.45	472.79
561.61	447.04
561.78	475.13
561.94	414.27
562.11	411.93
562.27	425.98
562.44	379.17
562.60	465.77
562.77	430.66
562.93	491.51
563.10	458.74
563.26	421.30
563.42	454.06
563.59	454.06
563.75	423.64
563.92	416.62
564.08	451.72
564.24	484.49
564.41	484.49
564.57	348.74
564.74	400.23
564.90	402.57
565.07	414.27
565.23	418.96
565.39	440.02
565.56	447.04
565.72	489.17
565.88	414.27
566.05	437.68
566.21	383.85
566.38	454.06
566.54	348.74
566.70	393.21
566.87	402.57
567.03	414.27
567.19	393.21
567.36	437.68
567.52	381.51
567.68	381.51
567.85	376.83
568.01	489.17
568.17	407.25
568.34	372.15
568.50	421.30
568.66	395.55
568.83	489.17
568.99	451.72
569.15	423.64
569.32	353.42
569.48	404.91
569.64	376.83
569.81	416.62
569.97	482.15
570.13	376.83
570.30	400.23
570.46	423.64
570.62	390.87
570.78	484.49
570.95	379.17
571.11	435.34
571.27	482.15
571.43	409.59
571.60	416.62
571.76	404.91
571.92	386.19
572.09	482.15
572.25	367.46
572.41	433.00
572.57	390.87
572.74	433.00
572.90	430.66
573.06	447.04
573.22	411.93
573.38	402.57
573.55	428.32
573.71	498.53
573.87	433.00
574.03	393.21
574.20	454.06
574.36	461.09
574.52	390.87
574.68	337.04
574.84	526.62
575.01	339.38
575.17	440.02
575.33	468.11
575.49	433.00
575.65	463.43
575.82	414.27
575.98	468.11
576.14	498.53
576.30	374.49
576.46	435.34
576.62	463.43
576.79	411.93
576.95	449.38
577.11	409.59
577.27	411.93
577.43	428.32
577.59	447.04
577.75	393.21
577.92	374.49
578.08	444.70
578.24	407.25
578.40	468.11
578.56	388.53
578.72	416.62
578.88	514.92
579.04	433.00
579.21	383.85
579.37	454.06
579.53	437.68
579.69	440.02
579.85	360.44
580.01	416.62
580.17	425.98
580.33	355.76
580.49	388.53
580.65	367.46
580.82	430.66
580.98	397.89
581.14	500.87
581.30	407.25
581.46	360.44
581.62	388.53
581.78	433.00
581.94	451.72
582.10	425.98
582.26	390.87
582.42	395.55
582.58	421.30
582.74	409.59
582.90	409.59
583.06	411.93
583.22	367.46
583.38	397.89
583.54	351.08
583.70	507.90
583.86	416.62
584.02	346.40
584.18	395.55
584.34	472.79
584.50	411.93
584.66	400.23
584.82	425.98
584.98	440.02
585.14	421.30
585.30	407.25
585.46	374.49
585.62	395.55
585.78	437.68
585.94	486.83
586.10	428.32
586.26	430.66
586.42	421.30
586.58	379.17
586.74	397.89
586.90	461.09
587.06	421.30
587.22	374.49
587.38	372.15
587.54	390.87
587.70	447.04
587.86	489.17
588.02	456.40
588.18	433.00
588.34	433.00
588.49	367.46
588.65	362.78
588.81	451.72
588.97	404.91
589.13	346.40
589.29	362.78
589.45	402.57
589.61	423.64
589.77	416.62
589.93	425.98
590.08	362.78
590.24	365.12
590.40	428.32
590.56	376.83
590.72	496.19
590.88	372.15
591.04	344.06
591.20	454.06
591.35	423.64
591.51	475.13
591.67	416.62
591.83	407.25
591.99	400.23
592.15	402.57
592.31	393.21
592.46	442.36
592.62	451.72
592.78	358.10
592.94	383.85
593.10	374.49
593.26	435.34
593.41	388.53
593.57	456.40
593.73	435.34
593.89	411.93
594.05	428.32
594.20	414.27
594.36	393.21
594.52	409.59
594.68	491.51
594.84	461.09
594.99	491.51
595.15	449.38
595.31	451.72
595.47	388.53
595.62	421.30
595.78	393.21
595.94	383.85
596.10	369.80
596.25	367.46
596.41	353.42
596.57	393.21
596.73	407.25
596.88	416.62
597.04	416.62
597.20	400.23
597.36	381.51
597.51	409.59
597.67	418.96
597.83	393.21
597.99	465.77
598.14	444.70
598.30	428.32
598.46	383.85
598.61	407.25
598.77	402.57
598.93	447.04
599.09	456.40
599.24	379.17
599.40	456.40
599.56	381.51
599.71	507.90
599.87	435.34
600.03	430.66
600.18	433.00
600.34	447.04
600.50	376.83
600.65	381.51
600.81	444.70
600.97	322.99
601.12	416.62
601.28	423.64
601.44	477.47
601.59	358.10
601.75	414.27
601.91	353.42
602.06	435.34
602.22	440.02
602.37	411.93
602.53	404.91
602.69	397.89
602.84	461.09
603.00	421.30
603.16	433.00
603.31	440.02
603.47	411.93
603.62	393.21
603.78	358.10
603.94	447.04
604.09	444.70
604.25	463.43
604.40	428.32
604.56	358.10
604.71	465.77
604.87	451.72
605.03	411.93
605.18	358.10
605.34	423.64
605.49	414.27
605.65	355.76
605.80	360.44
605.96	428.32
606.12	458.74
606.27	404.91
606.43	451.72
606.58	472.79
606.74	397.89
606.89	409.59
607.05	402.57
607.20	400.23
607.36	416.62
607.51	381.51
607.67	433.00
607.82	449.38
607.98	442.36
608.13	388.53
608.29	393.21
608.44	463.43
608.60	468.11
608.75	416.62
608.91	353.42
609.06	454.06
609.22	458.74
609.37	339.38
609.53	381.51
609.68	327.68
609.84	447.04
609.99	435.34
610.15	418.96
