SpectraSuite Data File
++++++++++++++++++++++++++++++++++++
Date: Fri Oct 25 12:11:28 EDT 2013
User: price-jones
Dark Spectrum Present: No
Reference Spectrum Present: No
Number of Sampled Component Spectra: 1
Spectrometers: USB2+H05261
Integration Time (usec): 100000 (USB2+H05261)
Spectra Averaged: 1 (USB2+H05261)
Boxcar Smoothing: 0 (USB2+H05261)
Correct for Electrical Dark: No (USB2+H05261)
Strobe/Lamp Enabled: No (USB2+H05261)
Correct for Detector Non-linearity: No (USB2+H05261)
Correct for Stray Light: No (USB2+H05261)
Number of Pixels in Processed Spectrum: 2048
>>>>>Begin Processed Spectral Data<<<<<
365.73	348.74
365.92	348.74
366.12	348.74
366.32	241.08
366.52	287.89
366.72	290.23
366.91	252.78
367.11	152.13
367.31	205.97
367.51	264.48
367.70	208.31
367.90	266.82
368.10	215.33
368.30	234.05
368.49	212.99
368.69	287.89
368.89	224.69
369.09	322.99
369.28	217.67
369.48	177.88
369.68	278.52
369.87	301.93
370.07	315.97
370.27	407.25
370.47	362.78
370.66	346.40
370.86	369.80
371.06	404.91
371.25	369.80
371.45	395.55
371.65	407.25
371.84	306.61
372.04	423.64
372.24	369.80
372.44	414.27
372.63	409.59
372.83	500.87
373.03	409.59
373.22	381.51
373.42	360.44
373.62	456.40
373.81	395.55
374.01	451.72
374.21	472.79
374.40	458.74
374.60	461.09
374.79	545.34
374.99	470.45
375.19	468.11
375.38	411.93
375.58	449.38
375.78	440.02
375.97	355.76
376.17	475.13
376.37	374.49
376.56	386.19
376.76	388.53
376.95	383.85
377.15	470.45
377.35	454.06
377.54	381.51
377.74	367.46
377.93	435.34
378.13	477.47
378.33	479.81
378.52	416.62
378.72	442.36
378.91	407.25
379.11	418.96
379.31	393.21
379.50	411.93
379.70	430.66
379.89	428.32
380.09	407.25
380.28	451.72
380.48	348.74
380.68	395.55
380.87	409.59
381.07	369.80
381.26	418.96
381.46	379.17
381.65	449.38
381.85	376.83
382.04	351.08
382.24	360.44
382.43	348.74
382.63	435.34
382.83	409.59
383.02	425.98
383.22	416.62
383.41	397.89
383.61	414.27
383.80	414.27
384.00	388.53
384.19	411.93
384.39	386.19
384.58	353.42
384.78	465.77
384.97	402.57
385.17	402.57
385.36	440.02
385.56	414.27
385.75	362.78
385.95	353.42
386.14	348.74
386.34	435.34
386.53	397.89
386.72	365.12
386.92	440.02
387.11	428.32
387.31	409.59
387.50	428.32
387.70	416.62
387.89	454.06
388.09	348.74
388.28	372.15
388.48	411.93
388.67	428.32
388.86	379.17
389.06	444.70
389.25	397.89
389.45	423.64
389.64	388.53
389.84	404.91
390.03	416.62
390.22	330.02
390.42	437.68
390.61	353.42
390.81	435.34
391.00	341.72
391.19	425.98
391.39	451.72
391.58	449.38
391.78	428.32
391.97	428.32
392.16	407.25
392.36	451.72
392.55	369.80
392.75	395.55
392.94	365.12
393.13	470.45
393.33	421.30
393.52	376.83
393.71	381.51
393.91	393.21
394.10	411.93
394.29	348.74
394.49	454.06
394.68	381.51
394.88	442.36
395.07	440.02
395.26	395.55
395.46	402.57
395.65	437.68
395.84	409.59
396.04	500.87
396.23	330.02
396.42	437.68
396.62	348.74
396.81	325.33
397.00	433.00
397.19	358.10
397.39	379.17
397.58	449.38
397.77	433.00
397.97	390.87
398.16	358.10
398.35	404.91
398.55	444.70
398.74	404.91
398.93	414.27
399.12	402.57
399.32	418.96
399.51	437.68
399.70	470.45
399.90	498.53
400.09	425.98
400.28	444.70
400.47	400.23
400.67	430.66
400.86	388.53
401.05	423.64
401.24	475.13
401.44	393.21
401.63	442.36
401.82	397.89
402.01	423.64
402.21	472.79
402.40	442.36
402.59	395.55
402.78	381.51
402.97	395.55
403.17	386.19
403.36	428.32
403.55	418.96
403.74	414.27
403.93	322.99
404.13	451.72
404.32	414.27
404.51	365.12
404.70	365.12
404.89	390.87
405.09	435.34
405.28	411.93
405.47	390.87
405.66	344.06
405.85	423.64
406.05	451.72
406.24	423.64
406.43	369.80
406.62	414.27
406.81	496.19
407.00	383.85
407.20	442.36
407.39	440.02
407.58	414.27
407.77	454.06
407.96	407.25
408.15	386.19
408.34	409.59
408.54	414.27
408.73	393.21
408.92	430.66
409.11	411.93
409.30	458.74
409.49	425.98
409.68	379.17
409.87	397.89
410.07	374.49
410.26	430.66
410.45	374.49
410.64	344.06
410.83	407.25
411.02	362.78
411.21	383.85
411.40	456.40
411.59	395.55
411.78	402.57
411.98	383.85
412.17	372.15
412.36	454.06
412.55	376.83
412.74	386.19
412.93	479.81
413.12	369.80
413.31	430.66
413.50	397.89
413.69	402.57
413.88	440.02
414.07	381.51
414.26	386.19
414.45	395.55
414.64	477.47
414.83	367.46
415.02	414.27
415.22	390.87
415.41	430.66
415.60	334.70
415.79	374.49
415.98	407.25
416.17	315.97
416.36	390.87
416.55	433.00
416.74	442.36
416.93	425.98
417.12	418.96
417.31	395.55
417.50	372.15
417.69	465.77
417.88	416.62
418.07	402.57
418.26	353.42
418.45	304.27
418.64	411.93
418.83	423.64
419.02	493.85
419.21	304.27
419.39	418.96
419.58	451.72
419.77	425.98
419.96	400.23
420.15	440.02
420.34	383.85
420.53	404.91
420.72	468.11
420.91	367.46
421.10	402.57
421.29	461.09
421.48	428.32
421.67	365.12
421.86	456.40
422.05	414.27
422.24	428.32
422.43	416.62
422.61	365.12
422.80	416.62
422.99	341.72
423.18	470.45
423.37	430.66
423.56	472.79
423.75	470.45
423.94	444.70
424.13	358.10
424.32	409.59
424.50	409.59
424.69	376.83
424.88	465.77
425.07	433.00
425.26	423.64
425.45	451.72
425.64	458.74
425.83	461.09
426.01	435.34
426.20	479.81
426.39	374.49
426.58	379.17
426.77	435.34
426.96	442.36
427.15	390.87
427.33	451.72
427.52	397.89
427.71	418.96
427.90	374.49
428.09	423.64
428.28	411.93
428.46	416.62
428.65	437.68
428.84	440.02
429.03	395.55
429.22	388.53
429.40	395.55
429.59	376.83
429.78	491.51
429.97	437.68
430.16	416.62
430.34	458.74
430.53	451.72
430.72	348.74
430.91	425.98
431.10	414.27
431.28	430.66
431.47	449.38
431.66	463.43
431.85	418.96
432.03	407.25
432.22	461.09
432.41	428.32
432.60	442.36
432.79	383.85
432.97	442.36
433.16	423.64
433.35	411.93
433.54	334.70
433.72	362.78
433.91	358.10
434.10	449.38
434.28	409.59
434.47	395.55
434.66	510.24
434.85	404.91
435.03	386.19
435.22	430.66
435.41	470.45
435.59	444.70
435.78	444.70
435.97	402.57
436.16	397.89
436.34	379.17
436.53	437.68
436.72	407.25
436.90	390.87
437.09	374.49
437.28	437.68
437.46	367.46
437.65	435.34
437.84	447.04
438.02	404.91
438.21	468.11
438.40	425.98
438.58	430.66
438.77	386.19
438.96	414.27
439.14	367.46
439.33	411.93
439.52	388.53
439.70	397.89
439.89	409.59
440.08	416.62
440.26	468.11
440.45	407.25
440.63	416.62
440.82	425.98
441.01	421.30
441.19	449.38
441.38	418.96
441.57	430.66
441.75	458.74
441.94	386.19
442.12	449.38
442.31	411.93
442.50	428.32
442.68	404.91
442.87	418.96
443.05	393.21
443.24	369.80
443.43	407.25
443.61	475.13
443.80	465.77
443.98	402.57
444.17	435.34
444.35	425.98
444.54	411.93
444.73	383.85
444.91	442.36
445.10	498.53
445.28	451.72
445.47	358.10
445.65	451.72
445.84	395.55
446.02	353.42
446.21	465.77
446.39	411.93
446.58	486.83
446.77	337.04
446.95	407.25
447.14	348.74
447.32	463.43
447.51	423.64
447.69	447.04
447.88	374.49
448.06	425.98
448.25	404.91
448.43	374.49
448.62	393.21
448.80	461.09
448.99	484.49
449.17	397.89
449.36	482.15
449.54	416.62
449.73	428.32
449.91	367.46
450.10	442.36
450.28	430.66
450.46	407.25
450.65	440.02
450.83	461.09
451.02	390.87
451.20	341.72
451.39	458.74
451.57	425.98
451.76	430.66
451.94	348.74
452.13	444.70
452.31	372.15
452.49	425.98
452.68	444.70
452.86	493.85
453.05	409.59
453.23	451.72
453.42	409.59
453.60	395.55
453.78	379.17
453.97	428.32
454.15	411.93
454.34	351.08
454.52	433.00
454.70	390.87
454.89	407.25
455.07	449.38
455.26	386.19
455.44	390.87
455.62	489.17
455.81	433.00
455.99	397.89
456.17	414.27
456.36	411.93
456.54	402.57
456.73	393.21
456.91	409.59
457.09	383.85
457.28	477.47
457.46	435.34
457.64	442.36
457.83	353.42
458.01	367.46
458.19	397.89
458.38	465.77
458.56	414.27
458.74	449.38
458.93	414.27
459.11	360.44
459.29	369.80
459.48	400.23
459.66	444.70
459.84	442.36
460.03	486.83
460.21	423.64
460.39	379.17
460.57	440.02
460.76	409.59
460.94	341.72
461.12	505.56
461.31	444.70
461.49	376.83
461.67	449.38
461.85	470.45
462.04	437.68
462.22	758.33
462.40	355.76
462.59	411.93
462.77	416.62
462.95	437.68
463.13	407.25
463.32	477.47
463.50	397.89
463.68	383.85
463.86	393.21
464.05	449.38
464.23	421.30
464.41	400.23
464.59	393.21
464.78	447.04
464.96	400.23
465.14	376.83
465.32	430.66
465.50	416.62
465.69	444.70
465.87	465.77
466.05	388.53
466.23	395.55
466.41	479.81
466.60	365.12
466.78	454.06
466.96	463.43
467.14	440.02
467.32	423.64
467.51	458.74
467.69	433.00
467.87	482.15
468.05	428.32
468.23	456.40
468.41	498.53
468.60	369.80
468.78	444.70
468.96	447.04
469.14	447.04
469.32	421.30
469.50	421.30
469.69	383.85
469.87	418.96
470.05	463.43
470.23	395.55
470.41	390.87
470.59	402.57
470.77	393.21
470.95	430.66
471.14	468.11
471.32	388.53
471.50	416.62
471.68	409.59
471.86	456.40
472.04	465.77
472.22	435.34
472.40	388.53
472.58	395.55
472.77	397.89
472.95	479.81
473.13	447.04
473.31	418.96
473.49	407.25
473.67	397.89
473.85	407.25
474.03	400.23
474.21	402.57
474.39	451.72
474.57	449.38
474.75	407.25
474.93	442.36
475.12	425.98
475.30	435.34
475.48	477.47
475.66	440.02
475.84	440.02
476.02	402.57
476.20	407.25
476.38	454.06
476.56	416.62
476.74	461.09
476.92	444.70
477.10	411.93
477.28	428.32
477.46	372.15
477.64	456.40
477.82	409.59
478.00	407.25
478.18	486.83
478.36	418.96
478.54	409.59
478.72	437.68
478.90	390.87
479.08	475.13
479.26	374.49
479.44	327.68
479.62	447.04
479.80	418.96
479.98	418.96
480.16	372.15
480.34	383.85
480.52	395.55
480.70	442.36
480.88	388.53
481.06	320.65
481.24	395.55
481.41	442.36
481.59	425.98
481.77	344.06
481.95	365.12
482.13	428.32
482.31	472.79
482.49	369.80
482.67	440.02
482.85	365.12
483.03	397.89
483.21	402.57
483.39	421.30
483.57	437.68
483.74	365.12
483.92	355.76
484.10	442.36
484.28	411.93
484.46	498.53
484.64	397.89
484.82	433.00
485.00	461.09
485.18	423.64
485.35	369.80
485.53	400.23
485.71	449.38
485.89	435.34
486.07	390.87
486.25	470.45
486.43	411.93
486.61	358.10
486.78	425.98
486.96	388.53
487.14	393.21
487.32	435.34
487.50	400.23
487.68	372.15
487.85	355.76
488.03	442.36
488.21	430.66
488.39	449.38
488.57	437.68
488.75	381.51
488.92	554.71
489.10	409.59
489.28	428.32
489.46	383.85
489.64	444.70
489.81	430.66
489.99	444.70
490.17	379.17
490.35	486.83
490.53	381.51
490.70	355.76
490.88	465.77
491.06	395.55
491.24	388.53
491.41	449.38
491.59	395.55
491.77	379.17
491.95	334.70
492.13	418.96
492.30	360.44
492.48	390.87
492.66	435.34
492.84	348.74
493.01	461.09
493.19	486.83
493.37	472.79
493.54	395.55
493.72	393.21
493.90	372.15
494.08	402.57
494.25	463.43
494.43	409.59
494.61	322.99
494.79	395.55
494.96	397.89
495.14	418.96
495.32	421.30
495.49	372.15
495.67	346.40
495.85	451.72
496.02	498.53
496.20	358.10
496.38	430.66
496.55	346.40
496.73	365.12
496.91	435.34
497.09	437.68
497.26	470.45
497.44	444.70
497.62	437.68
497.79	444.70
497.97	433.00
498.14	435.34
498.32	458.74
498.50	430.66
498.67	341.72
498.85	440.02
499.03	486.83
499.20	390.87
499.38	423.64
499.56	416.62
499.73	444.70
499.91	416.62
500.08	390.87
500.26	414.27
500.44	437.68
500.61	390.87
500.79	456.40
500.97	458.74
501.14	397.89
501.32	418.96
501.49	447.04
501.67	416.62
501.84	365.12
502.02	390.87
502.20	449.38
502.37	402.57
502.55	423.64
502.72	325.33
502.90	496.19
503.07	433.00
503.25	440.02
503.43	468.11
503.60	397.89
503.78	433.00
503.95	421.30
504.13	360.44
504.30	411.93
504.48	379.17
504.65	435.34
504.83	447.04
505.01	351.08
505.18	444.70
505.36	404.91
505.53	369.80
505.71	337.04
505.88	390.87
506.06	428.32
506.23	421.30
506.41	374.49
506.58	442.36
506.76	397.89
506.93	409.59
507.11	416.62
507.28	400.23
507.46	435.34
507.63	449.38
507.81	365.12
507.98	456.40
508.16	407.25
508.33	388.53
508.50	430.66
508.68	449.38
508.85	397.89
509.03	433.00
509.20	428.32
509.38	470.45
509.55	461.09
509.73	402.57
509.90	444.70
510.08	407.25
510.25	449.38
510.42	451.72
510.60	444.70
510.77	418.96
510.95	395.55
511.12	341.72
511.30	437.68
511.47	407.25
511.64	475.13
511.82	442.36
511.99	521.94
512.17	407.25
512.34	447.04
512.51	404.91
512.69	430.66
512.86	428.32
513.04	362.78
513.21	397.89
513.38	395.55
513.56	404.91
513.73	332.36
513.90	437.68
514.08	311.29
514.25	440.02
514.43	386.19
514.60	369.80
514.77	395.55
514.95	442.36
515.12	423.64
515.29	433.00
515.47	454.06
515.64	447.04
515.81	418.96
515.99	440.02
516.16	414.27
516.33	404.91
516.51	397.89
516.68	479.81
516.85	433.00
517.03	440.02
517.20	365.12
517.37	376.83
517.54	444.70
517.72	484.49
517.89	414.27
518.06	393.21
518.24	454.06
518.41	428.32
518.58	376.83
518.75	470.45
518.93	409.59
519.10	339.38
519.27	435.34
519.45	433.00
519.62	414.27
519.79	404.91
519.96	386.19
520.14	468.11
520.31	374.49
520.48	414.27
520.65	458.74
520.83	428.32
521.00	479.81
521.17	409.59
521.34	369.80
521.52	414.27
521.69	362.78
521.86	395.55
522.03	407.25
522.20	425.98
522.38	449.38
522.55	456.40
522.72	435.34
522.89	442.36
523.07	418.96
523.24	454.06
523.41	402.57
523.58	372.15
523.75	325.33
523.92	390.87
524.10	437.68
524.27	407.25
524.44	463.43
524.61	498.53
524.78	428.32
524.96	444.70
525.13	409.59
525.30	435.34
525.47	348.74
525.64	348.74
525.81	444.70
525.98	496.19
526.16	409.59
526.33	472.79
526.50	449.38
526.67	428.32
526.84	379.17
527.01	510.24
527.18	393.21
527.36	402.57
527.53	421.30
527.70	404.91
527.87	409.59
528.04	498.53
528.21	397.89
528.38	433.00
528.55	451.72
528.72	383.85
528.89	390.87
529.07	386.19
529.24	479.81
529.41	423.64
529.58	433.00
529.75	381.51
529.92	433.00
530.09	472.79
530.26	440.02
530.43	468.11
530.60	379.17
530.77	351.08
530.94	407.25
531.11	435.34
531.28	447.04
531.46	381.51
531.63	337.04
531.80	400.23
531.97	418.96
532.14	395.55
532.31	442.36
532.48	379.17
532.65	409.59
532.82	318.31
532.99	423.64
533.16	388.53
533.33	430.66
533.50	379.17
533.67	442.36
533.84	470.45
534.01	435.34
534.18	440.02
534.35	496.19
534.52	376.83
534.69	470.45
534.86	482.15
535.03	479.81
535.20	440.02
535.37	449.38
535.54	411.93
535.71	358.10
535.88	442.36
536.05	355.76
536.22	374.49
536.38	360.44
536.55	381.51
536.72	418.96
536.89	447.04
537.06	376.83
537.23	379.17
537.40	442.36
537.57	411.93
537.74	484.49
537.91	442.36
538.08	435.34
538.25	379.17
538.42	440.02
538.59	451.72
538.75	411.93
538.92	386.19
539.09	468.11
539.26	428.32
539.43	418.96
539.60	407.25
539.77	433.00
539.94	437.68
540.11	444.70
540.28	414.27
540.44	449.38
540.61	440.02
540.78	418.96
540.95	449.38
541.12	482.15
541.29	447.04
541.46	430.66
541.62	386.19
541.79	388.53
541.96	351.08
542.13	463.43
542.30	425.98
542.47	454.06
542.63	442.36
542.80	367.46
542.97	449.38
543.14	423.64
543.31	381.51
543.48	475.13
543.64	468.11
543.81	430.66
543.98	402.57
544.15	404.91
544.32	496.19
544.48	416.62
544.65	397.89
544.82	362.78
544.99	421.30
545.16	458.74
545.32	440.02
545.49	447.04
545.66	388.53
545.83	348.74
546.00	393.21
546.16	470.45
546.33	393.21
546.50	416.62
546.67	416.62
546.83	411.93
547.00	437.68
547.17	416.62
547.34	411.93
547.50	404.91
547.67	458.74
547.84	376.83
548.00	386.19
548.17	421.30
548.34	416.62
548.51	421.30
548.67	423.64
548.84	414.27
549.01	491.51
549.18	451.72
549.34	465.77
549.51	440.02
549.68	444.70
549.84	376.83
550.01	362.78
550.18	489.17
550.34	444.70
550.51	517.26
550.68	489.17
550.84	393.21
551.01	489.17
551.18	437.68
551.34	451.72
551.51	400.23
551.68	418.96
551.84	477.47
552.01	456.40
552.18	351.08
552.34	393.21
552.51	440.02
552.68	411.93
552.84	425.98
553.01	454.06
553.18	489.17
553.34	411.93
553.51	397.89
553.67	435.34
553.84	475.13
554.01	425.98
554.17	470.45
554.34	402.57
554.51	402.57
554.67	421.30
554.84	425.98
555.00	320.65
555.17	407.25
555.33	507.90
555.50	428.32
555.67	437.68
555.83	318.31
556.00	395.55
556.16	482.15
556.33	479.81
556.50	390.87
556.66	409.59
556.83	437.68
556.99	442.36
557.16	388.53
557.32	365.12
557.49	472.79
557.65	437.68
557.82	465.77
557.98	458.74
558.15	393.21
558.32	479.81
558.48	440.02
558.65	479.81
558.81	395.55
558.98	325.33
559.14	397.89
559.31	423.64
559.47	468.11
559.64	433.00
559.80	428.32
559.97	418.96
560.13	362.78
560.30	456.40
560.46	383.85
560.63	344.06
560.79	379.17
560.96	397.89
561.12	430.66
561.29	369.80
561.45	414.27
561.61	383.85
561.78	477.47
561.94	444.70
562.11	475.13
562.27	447.04
562.44	461.09
562.60	425.98
562.77	344.06
562.93	416.62
563.10	428.32
563.26	365.12
563.42	449.38
563.59	425.98
563.75	418.96
563.92	456.40
564.08	430.66
564.24	470.45
564.41	477.47
564.57	442.36
564.74	440.02
564.90	383.85
565.07	433.00
565.23	510.24
565.39	416.62
565.56	376.83
565.72	454.06
565.88	442.36
566.05	409.59
566.21	437.68
566.38	451.72
566.54	369.80
566.70	458.74
566.87	402.57
567.03	430.66
567.19	496.19
567.36	477.47
567.52	374.49
567.68	381.51
567.85	451.72
568.01	365.12
568.17	379.17
568.34	468.11
568.50	468.11
568.66	379.17
568.83	430.66
568.99	440.02
569.15	430.66
569.32	444.70
569.48	355.76
569.64	409.59
569.81	491.51
569.97	386.19
570.13	440.02
570.30	433.00
570.46	395.55
570.62	388.53
570.78	407.25
570.95	369.80
571.11	461.09
571.27	477.47
571.43	447.04
571.60	383.85
571.76	418.96
571.92	383.85
572.09	386.19
572.25	454.06
572.41	435.34
572.57	416.62
572.74	442.36
572.90	418.96
573.06	458.74
573.22	409.59
573.38	468.11
573.55	498.53
573.71	379.17
573.87	409.59
574.03	447.04
574.20	397.89
574.36	421.30
574.52	379.17
574.68	465.77
574.84	416.62
575.01	449.38
575.17	465.77
575.33	421.30
575.49	440.02
575.65	449.38
575.82	334.70
575.98	358.10
576.14	447.04
576.30	477.47
576.46	395.55
576.62	374.49
576.79	388.53
576.95	449.38
577.11	358.10
577.27	416.62
577.43	411.93
577.59	444.70
577.75	402.57
577.92	414.27
578.08	475.13
578.24	510.24
578.40	440.02
578.56	470.45
578.72	472.79
578.88	437.68
579.04	430.66
579.21	475.13
579.37	449.38
579.53	360.44
579.69	449.38
579.85	451.72
580.01	423.64
580.17	358.10
580.33	379.17
580.49	397.89
580.65	475.13
580.82	414.27
580.98	468.11
581.14	433.00
581.30	461.09
581.46	388.53
581.62	423.64
581.78	402.57
581.94	489.17
582.10	449.38
582.26	386.19
582.42	411.93
582.58	440.02
582.74	425.98
582.90	383.85
583.06	400.23
583.22	440.02
583.38	458.74
583.54	458.74
583.70	397.89
583.86	411.93
584.02	390.87
584.18	468.11
584.34	383.85
584.50	322.99
584.66	395.55
584.82	416.62
584.98	475.13
585.14	433.00
585.30	444.70
585.46	435.34
585.62	411.93
585.78	404.91
585.94	334.70
586.10	390.87
586.26	390.87
586.42	482.15
586.58	418.96
586.74	390.87
586.90	493.85
587.06	510.24
587.22	447.04
587.38	418.96
587.54	320.65
587.70	442.36
587.86	428.32
588.02	393.21
588.18	444.70
588.34	372.15
588.49	404.91
588.65	351.08
588.81	423.64
588.97	421.30
589.13	372.15
589.29	416.62
589.45	428.32
589.61	423.64
589.77	468.11
589.93	454.06
590.08	486.83
590.24	454.06
590.40	465.77
590.56	458.74
590.72	374.49
590.88	379.17
591.04	388.53
591.20	423.64
591.35	435.34
591.51	386.19
591.67	390.87
591.83	423.64
591.99	479.81
592.15	407.25
592.31	414.27
592.46	395.55
592.62	386.19
592.78	414.27
592.94	414.27
593.10	379.17
593.26	397.89
593.41	454.06
593.57	372.15
593.73	425.98
593.89	475.13
594.05	388.53
594.20	393.21
594.36	456.40
594.52	449.38
594.68	358.10
594.84	489.17
594.99	421.30
595.15	442.36
595.31	414.27
595.47	435.34
595.62	442.36
595.78	339.38
595.94	379.17
596.10	355.76
596.25	386.19
596.41	456.40
596.57	475.13
596.73	435.34
596.88	430.66
597.04	421.30
597.20	433.00
597.36	428.32
597.51	423.64
597.67	386.19
597.83	386.19
597.99	435.34
598.14	367.46
598.30	491.51
598.46	400.23
598.61	383.85
598.77	437.68
598.93	372.15
599.09	470.45
599.24	395.55
599.40	411.93
599.56	423.64
599.71	512.58
599.87	458.74
600.03	444.70
600.18	454.06
600.34	440.02
600.50	461.09
600.65	421.30
600.81	416.62
600.97	404.91
601.12	386.19
601.28	472.79
601.44	362.78
601.59	395.55
601.75	425.98
601.91	442.36
602.06	451.72
602.22	454.06
602.37	423.64
602.53	425.98
602.69	388.53
602.84	505.56
603.00	454.06
603.16	355.76
603.31	433.00
603.47	433.00
603.62	411.93
603.78	461.09
603.94	400.23
604.09	383.85
604.25	433.00
604.40	423.64
604.56	468.11
604.71	365.12
604.87	444.70
605.03	395.55
605.18	337.04
605.34	393.21
605.49	428.32
605.65	418.96
605.80	423.64
605.96	498.53
606.12	440.02
606.27	451.72
606.43	449.38
606.58	411.93
606.74	482.15
606.89	299.59
607.05	414.27
607.20	376.83
607.36	409.59
607.51	475.13
607.67	454.06
607.82	383.85
607.98	451.72
608.13	440.02
608.29	447.04
608.44	393.21
608.60	414.27
608.75	397.89
608.91	449.38
609.06	435.34
609.22	500.87
609.37	435.34
609.53	351.08
609.68	414.27
609.84	503.22
609.99	407.25
610.15	386.19
