SpectraSuite Data File
++++++++++++++++++++++++++++++++++++
Date: Fri Oct 25 12:10:45 EDT 2013
User: price-jones
Dark Spectrum Present: No
Reference Spectrum Present: No
Number of Sampled Component Spectra: 1
Spectrometers: USB2+H05261
Integration Time (usec): 100000 (USB2+H05261)
Spectra Averaged: 1 (USB2+H05261)
Boxcar Smoothing: 0 (USB2+H05261)
Correct for Electrical Dark: No (USB2+H05261)
Strobe/Lamp Enabled: No (USB2+H05261)
Correct for Detector Non-linearity: No (USB2+H05261)
Correct for Stray Light: No (USB2+H05261)
Number of Pixels in Processed Spectrum: 2048
>>>>>Begin Processed Spectral Data<<<<<
365.73	362.78
365.92	362.78
366.12	362.78
366.32	290.23
366.52	149.79
366.72	292.57
366.91	252.78
367.11	215.33
367.31	236.39
367.51	175.54
367.70	224.69
367.90	220.01
368.10	236.39
368.30	257.46
368.49	238.73
368.69	276.18
368.89	257.46
369.09	224.69
369.28	285.55
369.48	290.23
369.68	285.55
369.87	330.02
370.07	271.50
370.27	311.29
370.47	306.61
370.66	339.38
370.86	306.61
371.06	344.06
371.25	404.91
371.45	376.83
371.65	383.85
371.84	308.95
372.04	374.49
372.24	416.62
372.44	461.09
372.63	388.53
372.83	365.12
373.03	437.68
373.22	327.68
373.42	332.36
373.62	414.27
373.81	416.62
374.01	447.04
374.21	367.46
374.40	430.66
374.60	388.53
374.79	379.17
374.99	411.93
375.19	397.89
375.38	423.64
375.58	407.25
375.78	428.32
375.97	414.27
376.17	503.22
376.37	365.12
376.56	442.36
376.76	425.98
376.95	372.15
377.15	463.43
377.35	379.17
377.54	444.70
377.74	440.02
377.93	428.32
378.13	388.53
378.33	468.11
378.52	433.00
378.72	472.79
378.91	390.87
379.11	421.30
379.31	353.42
379.50	376.83
379.70	465.77
379.89	456.40
380.09	451.72
380.28	367.46
380.48	376.83
380.68	491.51
380.87	337.04
381.07	418.96
381.26	386.19
381.46	447.04
381.65	435.34
381.85	381.51
382.04	404.91
382.24	376.83
382.43	325.33
382.63	458.74
382.83	397.89
383.02	381.51
383.22	381.51
383.41	395.55
383.61	423.64
383.80	400.23
384.00	381.51
384.19	381.51
384.39	388.53
384.58	411.93
384.78	447.04
384.97	393.21
385.17	435.34
385.36	376.83
385.56	365.12
385.75	400.23
385.95	409.59
386.14	372.15
386.34	423.64
386.53	365.12
386.72	440.02
386.92	414.27
387.11	416.62
387.31	395.55
387.50	386.19
387.70	386.19
387.89	325.33
388.09	372.15
388.28	383.85
388.48	369.80
388.67	437.68
388.86	397.89
389.06	358.10
389.25	383.85
389.45	423.64
389.64	449.38
389.84	433.00
390.03	372.15
390.22	397.89
390.42	376.83
390.61	390.87
390.81	381.51
391.00	334.70
391.19	353.42
391.39	402.57
391.58	400.23
391.78	454.06
391.97	451.72
392.16	456.40
392.36	430.66
392.55	421.30
392.75	376.83
392.94	411.93
393.13	423.64
393.33	327.68
393.52	388.53
393.71	421.30
393.91	423.64
394.10	379.17
394.29	433.00
394.49	451.72
394.68	418.96
394.88	393.21
395.07	430.66
395.26	395.55
395.46	437.68
395.65	388.53
395.84	430.66
396.04	451.72
396.23	395.55
396.42	381.51
396.62	407.25
396.81	393.21
397.00	381.51
397.19	402.57
397.39	330.02
397.58	388.53
397.77	374.49
397.97	493.85
398.16	416.62
398.35	463.43
398.55	421.30
398.74	418.96
398.93	425.98
399.12	465.77
399.32	418.96
399.51	360.44
399.70	325.33
399.90	458.74
400.09	369.80
400.28	381.51
400.47	376.83
400.67	400.23
400.86	458.74
401.05	435.34
401.24	447.04
401.44	381.51
401.63	362.78
401.82	458.74
402.01	360.44
402.21	344.06
402.40	381.51
402.59	372.15
402.78	395.55
402.97	367.46
403.17	404.91
403.36	430.66
403.55	407.25
403.74	393.21
403.93	362.78
404.13	430.66
404.32	369.80
404.51	369.80
404.70	360.44
404.89	397.89
405.09	416.62
405.28	409.59
405.47	330.02
405.66	346.40
405.85	393.21
406.05	388.53
406.24	482.15
406.43	374.49
406.62	423.64
406.81	421.30
407.00	493.85
407.20	393.21
407.39	379.17
407.58	428.32
407.77	388.53
407.96	416.62
408.15	472.79
408.34	507.90
408.54	381.51
408.73	383.85
408.92	362.78
409.11	418.96
409.30	461.09
409.49	339.38
409.68	388.53
409.87	348.74
410.07	414.27
410.26	498.53
410.45	414.27
410.64	428.32
410.83	433.00
411.02	440.02
411.21	418.96
411.40	353.42
411.59	421.30
411.78	421.30
411.98	428.32
412.17	355.76
412.36	402.57
412.55	379.17
412.74	451.72
412.93	442.36
413.12	395.55
413.31	444.70
413.50	447.04
413.69	386.19
413.88	414.27
414.07	390.87
414.26	372.15
414.45	414.27
414.64	393.21
414.83	444.70
415.02	433.00
415.22	355.76
415.41	421.30
415.60	400.23
415.79	470.45
415.98	475.13
416.17	411.93
416.36	388.53
416.55	437.68
416.74	386.19
416.93	409.59
417.12	428.32
417.31	367.46
417.50	416.62
417.69	337.04
417.88	440.02
418.07	360.44
418.26	468.11
418.45	477.47
418.64	447.04
418.83	440.02
419.02	397.89
419.21	402.57
419.39	376.83
419.58	468.11
419.77	428.32
419.96	477.47
420.15	449.38
420.34	461.09
420.53	433.00
420.72	372.15
420.91	395.55
421.10	435.34
421.29	393.21
421.48	416.62
421.67	388.53
421.86	374.49
422.05	402.57
422.24	351.08
422.43	442.36
422.61	374.49
422.80	358.10
422.99	442.36
423.18	437.68
423.37	425.98
423.56	407.25
423.75	442.36
423.94	447.04
424.13	402.57
424.32	400.23
424.50	411.93
424.69	381.51
424.88	463.43
425.07	390.87
425.26	449.38
425.45	395.55
425.64	407.25
425.83	404.91
426.01	449.38
426.20	428.32
426.39	407.25
426.58	414.27
426.77	379.17
426.96	454.06
427.15	465.77
427.33	447.04
427.52	383.85
427.71	435.34
427.90	435.34
428.09	451.72
428.28	404.91
428.46	437.68
428.65	503.22
428.84	421.30
429.03	493.85
429.22	425.98
429.40	344.06
429.59	390.87
429.78	402.57
429.97	449.38
430.16	416.62
430.34	402.57
430.53	404.91
430.72	390.87
430.91	367.46
431.10	379.17
431.28	482.15
431.47	430.66
431.66	397.89
431.85	411.93
432.03	451.72
432.22	451.72
432.41	435.34
432.60	461.09
432.79	393.21
432.97	421.30
433.16	355.76
433.35	465.77
433.54	388.53
433.72	440.02
433.91	393.21
434.10	425.98
434.28	318.31
434.47	393.21
434.66	414.27
434.85	383.85
435.03	447.04
435.22	425.98
435.41	512.58
435.59	372.15
435.78	463.43
435.97	437.68
436.16	458.74
436.34	351.08
436.53	456.40
436.72	388.53
436.90	470.45
437.09	355.76
437.28	454.06
437.46	435.34
437.65	402.57
437.84	440.02
438.02	444.70
438.21	379.17
438.40	341.72
438.58	383.85
438.77	444.70
438.96	367.46
439.14	461.09
439.33	409.59
439.52	367.46
439.70	372.15
439.89	402.57
440.08	367.46
440.26	341.72
440.45	468.11
440.63	383.85
440.82	430.66
441.01	407.25
441.19	327.68
441.38	346.40
441.57	423.64
441.75	430.66
441.94	451.72
442.12	433.00
442.31	493.85
442.50	383.85
442.68	395.55
442.87	379.17
443.05	404.91
443.24	489.17
443.43	407.25
443.61	512.58
443.80	451.72
443.98	393.21
444.17	409.59
444.35	348.74
444.54	367.46
444.73	362.78
444.91	461.09
445.10	411.93
445.28	395.55
445.47	330.02
445.65	442.36
445.84	365.12
446.02	423.64
446.21	390.87
446.39	418.96
446.58	353.42
446.77	425.98
446.95	381.51
447.14	418.96
447.32	451.72
447.51	383.85
447.69	428.32
447.88	440.02
448.06	402.57
448.25	358.10
448.43	409.59
448.62	327.68
448.80	407.25
448.99	512.58
449.17	444.70
449.36	437.68
449.54	489.17
449.73	388.53
449.91	369.80
450.10	355.76
450.28	456.40
450.46	435.34
450.65	383.85
450.83	386.19
451.02	402.57
451.20	402.57
451.39	379.17
451.57	421.30
451.76	505.56
451.94	442.36
452.13	404.91
452.31	362.78
452.49	456.40
452.68	374.49
452.86	397.89
453.05	376.83
453.23	379.17
453.42	365.12
453.60	409.59
453.78	430.66
453.97	374.49
454.15	346.40
454.34	402.57
454.52	351.08
454.70	512.58
454.89	425.98
455.07	383.85
455.26	402.57
455.44	444.70
455.62	463.43
455.81	416.62
455.99	418.96
456.17	421.30
456.36	395.55
456.54	409.59
456.73	369.80
456.91	393.21
457.09	442.36
457.28	447.04
457.46	395.55
457.64	423.64
457.83	313.63
458.01	374.49
458.19	400.23
458.38	390.87
458.56	374.49
458.74	397.89
458.93	491.51
459.11	449.38
459.29	383.85
459.48	444.70
459.66	449.38
459.84	433.00
460.03	433.00
460.21	458.74
460.39	400.23
460.57	418.96
460.76	423.64
460.94	402.57
461.12	521.94
461.31	407.25
461.49	409.59
461.67	461.09
461.85	407.25
462.04	430.66
462.22	772.38
462.40	479.81
462.59	463.43
462.77	440.02
462.95	421.30
463.13	390.87
463.32	465.77
463.50	442.36
463.68	414.27
463.86	437.68
464.05	409.59
464.23	447.04
464.41	491.51
464.59	369.80
464.78	332.36
464.96	454.06
465.14	421.30
465.32	425.98
465.50	423.64
465.69	404.91
465.87	376.83
466.05	491.51
466.23	372.15
466.41	447.04
466.60	454.06
466.78	379.17
466.96	376.83
467.14	433.00
467.32	484.49
467.51	379.17
467.69	423.64
467.87	458.74
468.05	465.77
468.23	489.17
468.41	435.34
468.60	423.64
468.78	386.19
468.96	416.62
469.14	442.36
469.32	362.78
469.50	433.00
469.69	461.09
469.87	423.64
470.05	454.06
470.23	409.59
470.41	395.55
470.59	407.25
470.77	428.32
470.95	369.80
471.14	390.87
471.32	383.85
471.50	437.68
471.68	435.34
471.86	404.91
472.04	425.98
472.22	339.38
472.40	411.93
472.58	428.32
472.77	362.78
472.95	411.93
473.13	428.32
473.31	442.36
473.49	365.12
473.67	414.27
473.85	383.85
474.03	404.91
474.21	435.34
474.39	475.13
474.57	418.96
474.75	374.49
474.93	451.72
475.12	465.77
475.30	447.04
475.48	423.64
475.66	449.38
475.84	383.85
476.02	402.57
476.20	463.43
476.38	407.25
476.56	418.96
476.74	404.91
476.92	409.59
477.10	409.59
477.28	437.68
477.46	376.83
477.64	409.59
477.82	395.55
478.00	404.91
478.18	381.51
478.36	407.25
478.54	365.12
478.72	367.46
478.90	447.04
479.08	421.30
479.26	409.59
479.44	341.72
479.62	397.89
479.80	416.62
479.98	318.31
480.16	442.36
480.34	451.72
480.52	404.91
480.70	351.08
480.88	362.78
481.06	411.93
481.24	430.66
481.41	341.72
481.59	451.72
481.77	428.32
481.95	393.21
482.13	458.74
482.31	411.93
482.49	421.30
482.67	442.36
482.85	390.87
483.03	407.25
483.21	454.06
483.39	458.74
483.57	475.13
483.74	435.34
483.92	369.80
484.10	400.23
484.28	407.25
484.46	381.51
484.64	407.25
484.82	416.62
485.00	372.15
485.18	407.25
485.35	421.30
485.53	402.57
485.71	493.85
485.89	395.55
486.07	409.59
486.25	444.70
486.43	414.27
486.61	409.59
486.78	442.36
486.96	393.21
487.14	386.19
487.32	388.53
487.50	447.04
487.68	386.19
487.85	400.23
488.03	367.46
488.21	440.02
488.39	409.59
488.57	397.89
488.75	425.98
488.92	524.28
489.10	465.77
489.28	425.98
489.46	482.15
489.64	421.30
489.81	397.89
489.99	395.55
490.17	414.27
490.35	461.09
490.53	404.91
490.70	423.64
490.88	381.51
491.06	423.64
491.24	414.27
491.41	463.43
491.59	456.40
491.77	440.02
491.95	418.96
492.13	372.15
492.30	465.77
492.48	437.68
492.66	454.06
492.84	383.85
493.01	365.12
493.19	433.00
493.37	486.83
493.54	456.40
493.72	447.04
493.90	379.17
494.08	400.23
494.25	379.17
494.43	482.15
494.61	395.55
494.79	367.46
494.96	388.53
495.14	414.27
495.32	367.46
495.49	425.98
495.67	409.59
495.85	367.46
496.02	407.25
496.20	491.51
496.38	395.55
496.55	423.64
496.73	411.93
496.91	374.49
497.09	409.59
497.26	369.80
497.44	400.23
497.62	430.66
497.79	411.93
497.97	423.64
498.14	465.77
498.32	456.40
498.50	409.59
498.67	451.72
498.85	428.32
499.03	454.06
499.20	444.70
499.38	435.34
499.56	337.04
499.73	416.62
499.91	409.59
500.08	418.96
500.26	411.93
500.44	388.53
500.61	411.93
500.79	444.70
500.97	400.23
501.14	435.34
501.32	435.34
501.49	416.62
501.67	395.55
501.84	458.74
502.02	418.96
502.20	388.53
502.37	435.34
502.55	400.23
502.72	454.06
502.90	526.62
503.07	449.38
503.25	482.15
503.43	414.27
503.60	404.91
503.78	493.85
503.95	390.87
504.13	451.72
504.30	386.19
504.48	425.98
504.65	400.23
504.83	456.40
505.01	376.83
505.18	451.72
505.36	425.98
505.53	402.57
505.71	421.30
505.88	383.85
506.06	416.62
506.23	393.21
506.41	369.80
506.58	425.98
506.76	414.27
506.93	397.89
507.11	397.89
507.28	418.96
507.46	433.00
507.63	381.51
507.81	454.06
507.98	372.15
508.16	334.70
508.33	468.11
508.50	404.91
508.68	400.23
508.85	397.89
509.03	414.27
509.20	456.40
509.38	409.59
509.55	397.89
509.73	428.32
509.90	393.21
510.08	390.87
510.25	418.96
510.42	379.17
510.60	376.83
510.77	376.83
510.95	440.02
511.12	414.27
511.30	505.56
511.47	503.22
511.64	362.78
511.82	421.30
511.99	414.27
512.17	386.19
512.34	313.63
512.51	362.78
512.69	402.57
512.86	414.27
513.04	449.38
513.21	404.91
513.38	388.53
513.56	360.44
513.73	414.27
513.90	428.32
514.08	409.59
514.25	416.62
514.43	437.68
514.60	423.64
514.77	402.57
514.95	409.59
515.12	332.36
515.29	397.89
515.47	440.02
515.64	390.87
515.81	428.32
515.99	442.36
516.16	414.27
516.33	484.49
516.51	411.93
516.68	376.83
516.85	407.25
517.03	465.77
517.20	425.98
517.37	383.85
517.54	395.55
517.72	360.44
517.89	418.96
518.06	475.13
518.24	451.72
518.41	465.77
518.58	414.27
518.75	411.93
518.93	376.83
519.10	449.38
519.27	447.04
519.45	337.04
519.62	425.98
519.79	381.51
519.96	339.38
520.14	351.08
520.31	440.02
520.48	376.83
520.65	463.43
520.83	414.27
521.00	351.08
521.17	435.34
521.34	465.77
521.52	423.64
521.69	407.25
521.86	418.96
522.03	418.96
522.20	458.74
522.38	470.45
522.55	360.44
522.72	451.72
522.89	404.91
523.07	493.85
523.24	409.59
523.41	435.34
523.58	397.89
523.75	397.89
523.92	435.34
524.10	360.44
524.27	388.53
524.44	496.19
524.61	444.70
524.78	414.27
524.96	386.19
525.13	416.62
525.30	472.79
525.47	383.85
525.64	447.04
525.81	463.43
525.98	454.06
526.16	437.68
526.33	444.70
526.50	402.57
526.67	369.80
526.84	383.85
527.01	456.40
527.18	374.49
527.36	430.66
527.53	416.62
527.70	400.23
527.87	395.55
528.04	479.81
528.21	353.42
528.38	442.36
528.55	346.40
528.72	418.96
528.89	442.36
529.07	442.36
529.24	407.25
529.41	451.72
529.58	449.38
529.75	416.62
529.92	411.93
530.09	381.51
530.26	367.46
530.43	407.25
530.60	369.80
530.77	414.27
530.94	449.38
531.11	397.89
531.28	423.64
531.46	456.40
531.63	416.62
531.80	346.40
531.97	423.64
532.14	456.40
532.31	351.08
532.48	416.62
532.65	395.55
532.82	355.76
532.99	402.57
533.16	386.19
533.33	355.76
533.50	386.19
533.67	409.59
533.84	472.79
534.01	404.91
534.18	451.72
534.35	421.30
534.52	430.66
534.69	381.51
534.86	355.76
535.03	433.00
535.20	421.30
535.37	465.77
535.54	407.25
535.71	362.78
535.88	477.47
536.05	411.93
536.22	433.00
536.38	414.27
536.55	365.12
536.72	425.98
536.89	379.17
537.06	386.19
537.23	400.23
537.40	383.85
537.57	360.44
537.74	463.43
537.91	414.27
538.08	407.25
538.25	456.40
538.42	360.44
538.59	442.36
538.75	454.06
538.92	365.12
539.09	390.87
539.26	376.83
539.43	440.02
539.60	390.87
539.77	418.96
539.94	383.85
540.11	421.30
540.28	493.85
540.44	423.64
540.61	442.36
540.78	353.42
540.95	395.55
541.12	369.80
541.29	395.55
541.46	433.00
541.62	397.89
541.79	458.74
541.96	475.13
542.13	451.72
542.30	383.85
542.47	437.68
542.63	379.17
542.80	418.96
542.97	423.64
543.14	472.79
543.31	425.98
543.48	430.66
543.64	430.66
543.81	416.62
543.98	454.06
544.15	393.21
544.32	414.27
544.48	411.93
544.65	437.68
544.82	454.06
544.99	409.59
545.16	451.72
545.32	369.80
545.49	425.98
545.66	367.46
545.83	423.64
546.00	449.38
546.16	414.27
546.33	454.06
546.50	461.09
546.67	472.79
546.83	418.96
547.00	390.87
547.17	418.96
547.34	421.30
547.50	404.91
547.67	449.38
547.84	337.04
548.00	456.40
548.17	437.68
548.34	376.83
548.51	498.53
548.67	428.32
548.84	444.70
549.01	428.32
549.18	351.08
549.34	379.17
549.51	437.68
549.68	433.00
549.84	404.91
550.01	365.12
550.18	433.00
550.34	437.68
550.51	423.64
550.68	409.59
550.84	409.59
551.01	393.21
551.18	435.34
551.34	440.02
551.51	416.62
551.68	348.74
551.84	463.43
552.01	463.43
552.18	348.74
552.34	379.17
552.51	411.93
552.68	447.04
552.84	482.15
553.01	346.40
553.18	440.02
553.34	440.02
553.51	425.98
553.67	425.98
553.84	479.81
554.01	407.25
554.17	447.04
554.34	365.12
554.51	416.62
554.67	465.77
554.84	416.62
555.00	486.83
555.17	367.46
555.33	423.64
555.50	381.51
555.67	444.70
555.83	416.62
556.00	449.38
556.16	592.16
556.33	346.40
556.50	360.44
556.66	418.96
556.83	454.06
556.99	355.76
557.16	428.32
557.32	423.64
557.49	444.70
557.65	416.62
557.82	425.98
557.98	449.38
558.15	409.59
558.32	444.70
558.48	465.77
558.65	374.49
558.81	435.34
558.98	409.59
559.14	411.93
559.31	411.93
559.47	463.43
559.64	409.59
559.80	437.68
559.97	337.04
560.13	435.34
560.30	362.78
560.46	404.91
560.63	451.72
560.79	418.96
560.96	372.15
561.12	383.85
561.29	376.83
561.45	393.21
561.61	395.55
561.78	458.74
561.94	409.59
562.11	468.11
562.27	418.96
562.44	351.08
562.60	416.62
562.77	421.30
562.93	465.77
563.10	433.00
563.26	433.00
563.42	465.77
563.59	458.74
563.75	395.55
563.92	451.72
564.08	400.23
564.24	449.38
564.41	461.09
564.57	374.49
564.74	397.89
564.90	404.91
565.07	456.40
565.23	447.04
565.39	351.08
565.56	346.40
565.72	416.62
565.88	372.15
566.05	437.68
566.21	444.70
566.38	451.72
566.54	423.64
566.70	447.04
566.87	369.80
567.03	411.93
567.19	400.23
567.36	449.38
567.52	395.55
567.68	425.98
567.85	433.00
568.01	435.34
568.17	435.34
568.34	454.06
568.50	428.32
568.66	404.91
568.83	482.15
568.99	325.33
569.15	470.45
569.32	423.64
569.48	479.81
569.64	397.89
569.81	421.30
569.97	353.42
570.13	458.74
570.30	411.93
570.46	402.57
570.62	440.02
570.78	423.64
570.95	376.83
571.11	442.36
571.27	395.55
571.43	388.53
571.60	407.25
571.76	383.85
571.92	435.34
572.09	337.04
572.25	386.19
572.41	379.17
572.57	416.62
572.74	407.25
572.90	388.53
573.06	402.57
573.22	416.62
573.38	493.85
573.55	437.68
573.71	479.81
573.87	411.93
574.03	416.62
574.20	475.13
574.36	440.02
574.52	393.21
574.68	454.06
574.84	458.74
575.01	435.34
575.17	463.43
575.33	423.64
575.49	440.02
575.65	477.47
575.82	416.62
575.98	421.30
576.14	421.30
576.30	456.40
576.46	404.91
576.62	409.59
576.79	334.70
576.95	444.70
577.11	428.32
577.27	430.66
577.43	489.17
577.59	461.09
577.75	395.55
577.92	379.17
578.08	400.23
578.24	442.36
578.40	400.23
578.56	451.72
578.72	418.96
578.88	461.09
579.04	369.80
579.21	430.66
579.37	435.34
579.53	393.21
579.69	418.96
579.85	351.08
580.01	423.64
580.17	484.49
580.33	430.66
580.49	437.68
580.65	407.25
580.82	425.98
580.98	390.87
581.14	390.87
581.30	456.40
581.46	409.59
581.62	416.62
581.78	463.43
581.94	451.72
582.10	348.74
582.26	299.59
582.42	416.62
582.58	456.40
582.74	390.87
582.90	456.40
583.06	416.62
583.22	470.45
583.38	383.85
583.54	409.59
583.70	461.09
583.86	365.12
584.02	381.51
584.18	367.46
584.34	463.43
584.50	386.19
584.66	430.66
584.82	447.04
584.98	414.27
585.14	463.43
585.30	407.25
585.46	425.98
585.62	334.70
585.78	388.53
585.94	379.17
586.10	489.17
586.26	435.34
586.42	348.74
586.58	414.27
586.74	449.38
586.90	468.11
587.06	451.72
587.22	414.27
587.38	409.59
587.54	454.06
587.70	416.62
587.86	367.46
588.02	372.15
588.18	437.68
588.34	430.66
588.49	409.59
588.65	449.38
588.81	353.42
588.97	430.66
589.13	433.00
589.29	374.49
589.45	430.66
589.61	477.47
589.77	458.74
589.93	395.55
590.08	379.17
590.24	383.85
590.40	411.93
590.56	425.98
590.72	440.02
590.88	395.55
591.04	407.25
591.20	442.36
591.35	451.72
591.51	484.49
591.67	477.47
591.83	397.89
591.99	470.45
592.15	423.64
592.31	414.27
592.46	400.23
592.62	388.53
592.78	433.00
592.94	348.74
593.10	379.17
593.26	421.30
593.41	414.27
593.57	433.00
593.73	451.72
593.89	465.77
594.05	404.91
594.20	435.34
594.36	461.09
594.52	425.98
594.68	397.89
594.84	498.53
594.99	428.32
595.15	433.00
595.31	463.43
595.47	386.19
595.62	407.25
595.78	395.55
595.94	400.23
596.10	423.64
596.25	402.57
596.41	423.64
596.57	407.25
596.73	444.70
596.88	355.76
597.04	468.11
597.20	409.59
597.36	416.62
597.51	444.70
597.67	437.68
597.83	400.23
597.99	388.53
598.14	482.15
598.30	447.04
598.46	395.55
598.61	447.04
598.77	355.76
598.93	463.43
599.09	463.43
599.24	411.93
599.40	418.96
599.56	503.22
599.71	360.44
599.87	463.43
600.03	433.00
600.18	404.91
600.34	365.12
600.50	433.00
600.65	395.55
600.81	414.27
600.97	393.21
601.12	402.57
601.28	491.51
601.44	395.55
601.59	372.15
601.75	376.83
601.91	369.80
602.06	510.24
602.22	458.74
602.37	418.96
602.53	374.49
602.69	332.36
602.84	430.66
603.00	367.46
603.16	400.23
603.31	407.25
603.47	440.02
603.62	397.89
603.78	461.09
603.94	362.78
604.09	437.68
604.25	421.30
604.40	428.32
604.56	418.96
604.71	404.91
604.87	379.17
605.03	341.72
605.18	418.96
605.34	500.87
605.49	353.42
605.65	451.72
605.80	402.57
605.96	440.02
606.12	423.64
606.27	449.38
606.43	400.23
606.58	458.74
606.74	365.12
606.89	437.68
607.05	421.30
607.20	388.53
607.36	444.70
607.51	390.87
607.67	353.42
607.82	423.64
607.98	428.32
608.13	409.59
608.29	428.32
608.44	482.15
608.60	386.19
608.75	496.19
608.91	458.74
609.06	444.70
609.22	425.98
609.37	421.30
609.53	416.62
609.68	407.25
609.84	381.51
609.99	411.93
610.15	500.87
