SpectraSuite Data File
++++++++++++++++++++++++++++++++++++
Date: Fri Oct 25 12:11:25 EDT 2013
User: price-jones
Dark Spectrum Present: No
Reference Spectrum Present: No
Number of Sampled Component Spectra: 1
Spectrometers: USB2+H05261
Integration Time (usec): 100000 (USB2+H05261)
Spectra Averaged: 1 (USB2+H05261)
Boxcar Smoothing: 0 (USB2+H05261)
Correct for Electrical Dark: No (USB2+H05261)
Strobe/Lamp Enabled: No (USB2+H05261)
Correct for Detector Non-linearity: No (USB2+H05261)
Correct for Stray Light: No (USB2+H05261)
Number of Pixels in Processed Spectrum: 2048
>>>>>Begin Processed Spectral Data<<<<<
365.73	332.36
365.92	332.36
366.12	332.36
366.32	248.10
366.52	241.08
366.72	285.55
366.91	250.44
367.11	292.57
367.31	266.82
367.51	255.12
367.70	245.76
367.90	318.31
368.10	259.80
368.30	273.84
368.49	234.05
368.69	283.20
368.89	229.37
369.09	259.80
369.28	348.74
369.48	259.80
369.68	278.52
369.87	325.33
370.07	266.82
370.27	297.25
370.47	243.42
370.66	327.68
370.86	372.15
371.06	334.70
371.25	411.93
371.45	393.21
371.65	332.36
371.84	341.72
372.04	383.85
372.24	325.33
372.44	379.17
372.63	414.27
372.83	451.72
373.03	404.91
373.22	369.80
373.42	484.49
373.62	447.04
373.81	383.85
374.01	358.10
374.21	421.30
374.40	407.25
374.60	451.72
374.79	437.68
374.99	397.89
375.19	395.55
375.38	365.12
375.58	353.42
375.78	393.21
375.97	423.64
376.17	437.68
376.37	449.38
376.56	442.36
376.76	390.87
376.95	435.34
377.15	404.91
377.35	416.62
377.54	449.38
377.74	421.30
377.93	372.15
378.13	456.40
378.33	355.76
378.52	374.49
378.72	416.62
378.91	444.70
379.11	437.68
379.31	367.46
379.50	402.57
379.70	444.70
379.89	461.09
380.09	475.13
380.28	358.10
380.48	449.38
380.68	482.15
380.87	442.36
381.07	365.12
381.26	477.47
381.46	388.53
381.65	411.93
381.85	414.27
382.04	444.70
382.24	379.17
382.43	421.30
382.63	386.19
382.83	402.57
383.02	454.06
383.22	449.38
383.41	376.83
383.61	428.32
383.80	442.36
384.00	444.70
384.19	414.27
384.39	334.70
384.58	449.38
384.78	395.55
384.97	362.78
385.17	397.89
385.36	451.72
385.56	428.32
385.75	397.89
385.95	423.64
386.14	414.27
386.34	423.64
386.53	449.38
386.72	402.57
386.92	418.96
387.11	423.64
387.31	425.98
387.50	360.44
387.70	376.83
387.89	414.27
388.09	388.53
388.28	465.77
388.48	369.80
388.67	411.93
388.86	437.68
389.06	414.27
389.25	390.87
389.45	379.17
389.64	451.72
389.84	402.57
390.03	430.66
390.22	383.85
390.42	416.62
390.61	407.25
390.81	416.62
391.00	433.00
391.19	423.64
391.39	369.80
391.58	449.38
391.78	386.19
391.97	430.66
392.16	409.59
392.36	393.21
392.55	365.12
392.75	393.21
392.94	388.53
393.13	402.57
393.33	367.46
393.52	353.42
393.71	402.57
393.91	386.19
394.10	341.72
394.29	372.15
394.49	334.70
394.68	379.17
394.88	404.91
395.07	430.66
395.26	402.57
395.46	428.32
395.65	425.98
395.84	372.15
396.04	484.49
396.23	468.11
396.42	369.80
396.62	456.40
396.81	451.72
397.00	341.72
397.19	435.34
397.39	386.19
397.58	425.98
397.77	351.08
397.97	376.83
398.16	379.17
398.35	433.00
398.55	421.30
398.74	421.30
398.93	414.27
399.12	418.96
399.32	390.87
399.51	425.98
399.70	381.51
399.90	437.68
400.09	425.98
400.28	437.68
400.47	418.96
400.67	451.72
400.86	468.11
401.05	416.62
401.24	449.38
401.44	472.79
401.63	484.49
401.82	437.68
402.01	421.30
402.21	360.44
402.40	454.06
402.59	449.38
402.78	344.06
402.97	428.32
403.17	463.43
403.36	479.81
403.55	334.70
403.74	444.70
403.93	367.46
404.13	390.87
404.32	456.40
404.51	369.80
404.70	376.83
404.89	379.17
405.09	430.66
405.28	374.49
405.47	379.17
405.66	409.59
405.85	458.74
406.05	372.15
406.24	435.34
406.43	425.98
406.62	423.64
406.81	440.02
407.00	365.12
407.20	414.27
407.39	437.68
407.58	416.62
407.77	360.44
407.96	402.57
408.15	486.83
408.34	463.43
408.54	395.55
408.73	456.40
408.92	334.70
409.11	433.00
409.30	461.09
409.49	402.57
409.68	430.66
409.87	390.87
410.07	381.51
410.26	388.53
410.45	407.25
410.64	346.40
410.83	416.62
411.02	433.00
411.21	402.57
411.40	449.38
411.59	428.32
411.78	428.32
411.98	442.36
412.17	437.68
412.36	379.17
412.55	425.98
412.74	388.53
412.93	435.34
413.12	409.59
413.31	362.78
413.50	444.70
413.69	440.02
413.88	414.27
414.07	503.22
414.26	407.25
414.45	318.31
414.64	451.72
414.83	433.00
415.02	404.91
415.22	456.40
415.41	418.96
415.60	425.98
415.79	379.17
415.98	397.89
416.17	358.10
416.36	437.68
416.55	395.55
416.74	425.98
416.93	451.72
417.12	397.89
417.31	435.34
417.50	414.27
417.69	463.43
417.88	418.96
418.07	435.34
418.26	360.44
418.45	374.49
418.64	461.09
418.83	341.72
419.02	430.66
419.21	435.34
419.39	475.13
419.58	395.55
419.77	414.27
419.96	367.46
420.15	400.23
420.34	425.98
420.53	472.79
420.72	442.36
420.91	472.79
421.10	388.53
421.29	423.64
421.48	402.57
421.67	414.27
421.86	407.25
422.05	421.30
422.24	388.53
422.43	454.06
422.61	491.51
422.80	409.59
422.99	442.36
423.18	430.66
423.37	404.91
423.56	416.62
423.75	351.08
423.94	315.97
424.13	393.21
424.32	400.23
424.50	332.36
424.69	444.70
424.88	440.02
425.07	414.27
425.26	440.02
425.45	395.55
425.64	334.70
425.83	383.85
426.01	351.08
426.20	440.02
426.39	407.25
426.58	355.76
426.77	409.59
426.96	376.83
427.15	423.64
427.33	449.38
427.52	526.62
427.71	369.80
427.90	395.55
428.09	402.57
428.28	444.70
428.46	414.27
428.65	514.92
428.84	409.59
429.03	454.06
429.22	397.89
429.40	395.55
429.59	386.19
429.78	404.91
429.97	414.27
430.16	451.72
430.34	374.49
430.53	390.87
430.72	402.57
430.91	430.66
431.10	374.49
431.28	369.80
431.47	465.77
431.66	447.04
431.85	496.19
432.03	447.04
432.22	472.79
432.41	386.19
432.60	411.93
432.79	404.91
432.97	383.85
433.16	454.06
433.35	367.46
433.54	383.85
433.72	376.83
433.91	365.12
434.10	416.62
434.28	407.25
434.47	404.91
434.66	407.25
434.85	447.04
435.03	449.38
435.22	435.34
435.41	386.19
435.59	409.59
435.78	390.87
435.97	393.21
436.16	479.81
436.34	360.44
436.53	397.89
436.72	418.96
436.90	395.55
437.09	428.32
437.28	456.40
437.46	482.15
437.65	435.34
437.84	360.44
438.02	388.53
438.21	365.12
438.40	440.02
438.58	332.36
438.77	386.19
438.96	404.91
439.14	447.04
439.33	507.90
439.52	440.02
439.70	421.30
439.89	402.57
440.08	442.36
440.26	416.62
440.45	486.83
440.63	395.55
440.82	365.12
441.01	400.23
441.19	376.83
441.38	379.17
441.57	437.68
441.75	458.74
441.94	400.23
442.12	435.34
442.31	358.10
442.50	362.78
442.68	400.23
442.87	423.64
443.05	390.87
443.24	503.22
443.43	360.44
443.61	390.87
443.80	503.22
443.98	449.38
444.17	404.91
444.35	400.23
444.54	402.57
444.73	411.93
444.91	395.55
445.10	379.17
445.28	376.83
445.47	400.23
445.65	423.64
445.84	400.23
446.02	437.68
446.21	395.55
446.39	463.43
446.58	390.87
446.77	435.34
446.95	456.40
447.14	423.64
447.32	475.13
447.51	395.55
447.69	418.96
447.88	421.30
448.06	458.74
448.25	456.40
448.43	458.74
448.62	451.72
448.80	425.98
448.99	437.68
449.17	458.74
449.36	308.95
449.54	386.19
449.73	428.32
449.91	367.46
450.10	421.30
450.28	425.98
450.46	451.72
450.65	414.27
450.83	369.80
451.02	402.57
451.20	395.55
451.39	444.70
451.57	395.55
451.76	477.47
451.94	386.19
452.13	414.27
452.31	409.59
452.49	402.57
452.68	449.38
452.86	447.04
453.05	451.72
453.23	416.62
453.42	386.19
453.60	365.12
453.78	400.23
453.97	397.89
454.15	409.59
454.34	425.98
454.52	386.19
454.70	411.93
454.89	365.12
455.07	423.64
455.26	512.58
455.44	440.02
455.62	440.02
455.81	447.04
455.99	409.59
456.17	458.74
456.36	449.38
456.54	369.80
456.73	397.89
456.91	390.87
457.09	482.15
457.28	433.00
457.46	463.43
457.64	437.68
457.83	404.91
458.01	386.19
458.19	416.62
458.38	430.66
458.56	372.15
458.74	421.30
458.93	409.59
459.11	486.83
459.29	418.96
459.48	465.77
459.66	433.00
459.84	477.47
460.03	437.68
460.21	369.80
460.39	395.55
460.57	484.49
460.76	447.04
460.94	386.19
461.12	461.09
461.31	397.89
461.49	402.57
461.67	440.02
461.85	400.23
462.04	409.59
462.22	741.95
462.40	489.17
462.59	519.60
462.77	388.53
462.95	411.93
463.13	393.21
463.32	465.77
463.50	369.80
463.68	393.21
463.86	337.04
464.05	404.91
464.23	484.49
464.41	458.74
464.59	362.78
464.78	423.64
464.96	416.62
465.14	390.87
465.32	430.66
465.50	430.66
465.69	433.00
465.87	353.42
466.05	430.66
466.23	383.85
466.41	369.80
466.60	397.89
466.78	486.83
466.96	433.00
467.14	451.72
467.32	454.06
467.51	463.43
467.69	468.11
467.87	425.98
468.05	435.34
468.23	409.59
468.41	491.51
468.60	451.72
468.78	465.77
468.96	465.77
469.14	423.64
469.32	444.70
469.50	409.59
469.69	421.30
469.87	468.11
470.05	372.15
470.23	433.00
470.41	381.51
470.59	397.89
470.77	362.78
470.95	425.98
471.14	414.27
471.32	435.34
471.50	475.13
471.68	425.98
471.86	433.00
472.04	381.51
472.22	430.66
472.40	456.40
472.58	442.36
472.77	437.68
472.95	393.21
473.13	397.89
473.31	482.15
473.49	411.93
473.67	388.53
473.85	365.12
474.03	463.43
474.21	423.64
474.39	475.13
474.57	454.06
474.75	400.23
474.93	444.70
475.12	421.30
475.30	418.96
475.48	369.80
475.66	437.68
475.84	367.46
476.02	374.49
476.20	477.47
476.38	365.12
476.56	444.70
476.74	447.04
476.92	411.93
477.10	447.04
477.28	418.96
477.46	447.04
477.64	404.91
477.82	397.89
478.00	402.57
478.18	386.19
478.36	425.98
478.54	418.96
478.72	411.93
478.90	468.11
479.08	430.66
479.26	395.55
479.44	423.64
479.62	430.66
479.80	479.81
479.98	447.04
480.16	484.49
480.34	407.25
480.52	402.57
480.70	461.09
480.88	344.06
481.06	414.27
481.24	428.32
481.41	360.44
481.59	372.15
481.77	393.21
481.95	325.33
482.13	386.19
482.31	428.32
482.49	379.17
482.67	472.79
482.85	498.53
483.03	477.47
483.21	395.55
483.39	395.55
483.57	470.45
483.74	442.36
483.92	407.25
484.10	365.12
484.28	360.44
484.46	393.21
484.64	407.25
484.82	400.23
485.00	411.93
485.18	430.66
485.35	451.72
485.53	435.34
485.71	500.87
485.89	411.93
486.07	428.32
486.25	386.19
486.43	383.85
486.61	404.91
486.78	428.32
486.96	421.30
487.14	418.96
487.32	402.57
487.50	475.13
487.68	421.30
487.85	470.45
488.03	489.17
488.21	393.21
488.39	383.85
488.57	433.00
488.75	437.68
488.92	547.69
489.10	498.53
489.28	449.38
489.46	428.32
489.64	393.21
489.81	388.53
489.99	433.00
490.17	409.59
490.35	456.40
490.53	463.43
490.70	383.85
490.88	404.91
491.06	475.13
491.24	442.36
491.41	430.66
491.59	402.57
491.77	400.23
491.95	435.34
492.13	435.34
492.30	421.30
492.48	400.23
492.66	390.87
492.84	444.70
493.01	435.34
493.19	444.70
493.37	393.21
493.54	444.70
493.72	418.96
493.90	461.09
494.08	390.87
494.25	400.23
494.43	486.83
494.61	435.34
494.79	393.21
494.96	365.12
495.14	465.77
495.32	409.59
495.49	411.93
495.67	390.87
495.85	437.68
496.02	416.62
496.20	395.55
496.38	409.59
496.55	430.66
496.73	437.68
496.91	414.27
497.09	404.91
497.26	437.68
497.44	390.87
497.62	454.06
497.79	437.68
497.97	425.98
498.14	447.04
498.32	372.15
498.50	475.13
498.67	381.51
498.85	397.89
499.03	407.25
499.20	334.70
499.38	404.91
499.56	425.98
499.73	390.87
499.91	365.12
500.08	465.77
500.26	449.38
500.44	411.93
500.61	477.47
500.79	346.40
500.97	395.55
501.14	461.09
501.32	367.46
501.49	393.21
501.67	465.77
501.84	482.15
502.02	381.51
502.20	416.62
502.37	444.70
502.55	414.27
502.72	395.55
502.90	365.12
503.07	421.30
503.25	381.51
503.43	435.34
503.60	433.00
503.78	362.78
503.95	414.27
504.13	379.17
504.30	430.66
504.48	437.68
504.65	444.70
504.83	425.98
505.01	486.83
505.18	407.25
505.36	428.32
505.53	470.45
505.71	461.09
505.88	491.51
506.06	470.45
506.23	386.19
506.41	395.55
506.58	425.98
506.76	425.98
506.93	456.40
507.11	433.00
507.28	386.19
507.46	433.00
507.63	428.32
507.81	477.47
507.98	465.77
508.16	362.78
508.33	451.72
508.50	381.51
508.68	379.17
508.85	435.34
509.03	421.30
509.20	386.19
509.38	360.44
509.55	486.83
509.73	440.02
509.90	433.00
510.08	379.17
510.25	449.38
510.42	423.64
510.60	447.04
510.77	393.21
510.95	407.25
511.12	477.47
511.30	367.46
511.47	388.53
511.64	458.74
511.82	313.63
511.99	383.85
512.17	470.45
512.34	344.06
512.51	421.30
512.69	440.02
512.86	451.72
513.04	360.44
513.21	458.74
513.38	463.43
513.56	341.72
513.73	444.70
513.90	451.72
514.08	374.49
514.25	404.91
514.43	454.06
514.60	383.85
514.77	404.91
514.95	528.96
515.12	404.91
515.29	447.04
515.47	383.85
515.64	458.74
515.81	421.30
515.99	491.51
516.16	395.55
516.33	486.83
516.51	404.91
516.68	397.89
516.85	367.46
517.03	470.45
517.20	463.43
517.37	444.70
517.54	479.81
517.72	444.70
517.89	355.76
518.06	383.85
518.24	472.79
518.41	367.46
518.58	379.17
518.75	451.72
518.93	416.62
519.10	423.64
519.27	402.57
519.45	414.27
519.62	402.57
519.79	355.76
519.96	362.78
520.14	472.79
520.31	416.62
520.48	402.57
520.65	423.64
520.83	416.62
521.00	463.43
521.17	449.38
521.34	320.65
521.52	428.32
521.69	418.96
521.86	435.34
522.03	400.23
522.20	486.83
522.38	449.38
522.55	425.98
522.72	425.98
522.89	451.72
523.07	465.77
523.24	449.38
523.41	388.53
523.58	425.98
523.75	437.68
523.92	449.38
524.10	454.06
524.27	440.02
524.44	351.08
524.61	496.19
524.78	351.08
524.96	437.68
525.13	390.87
525.30	463.43
525.47	388.53
525.64	404.91
525.81	444.70
525.98	437.68
526.16	423.64
526.33	440.02
526.50	428.32
526.67	374.49
526.84	437.68
527.01	435.34
527.18	449.38
527.36	425.98
527.53	404.91
527.70	411.93
527.87	421.30
528.04	407.25
528.21	430.66
528.38	430.66
528.55	470.45
528.72	404.91
528.89	393.21
529.07	355.76
529.24	425.98
529.41	477.47
529.58	397.89
529.75	379.17
529.92	376.83
530.09	440.02
530.26	421.30
530.43	407.25
530.60	367.46
530.77	407.25
530.94	341.72
531.11	510.24
531.28	404.91
531.46	468.11
531.63	393.21
531.80	372.15
531.97	407.25
532.14	355.76
532.31	365.12
532.48	386.19
532.65	386.19
532.82	447.04
532.99	479.81
533.16	397.89
533.33	435.34
533.50	369.80
533.67	418.96
533.84	411.93
534.01	418.96
534.18	411.93
534.35	486.83
534.52	390.87
534.69	402.57
534.86	386.19
535.03	447.04
535.20	407.25
535.37	411.93
535.54	344.06
535.71	374.49
535.88	390.87
536.05	393.21
536.22	458.74
536.38	397.89
536.55	454.06
536.72	470.45
536.89	470.45
537.06	447.04
537.23	381.51
537.40	411.93
537.57	425.98
537.74	475.13
537.91	451.72
538.08	465.77
538.25	454.06
538.42	369.80
538.59	411.93
538.75	418.96
538.92	477.47
539.09	348.74
539.26	369.80
539.43	461.09
539.60	404.91
539.77	496.19
539.94	402.57
540.11	388.53
540.28	376.83
540.44	475.13
540.61	440.02
540.78	353.42
540.95	390.87
541.12	447.04
541.29	409.59
541.46	451.72
541.62	503.22
541.79	437.68
541.96	365.12
542.13	418.96
542.30	458.74
542.47	470.45
542.63	447.04
542.80	442.36
542.97	486.83
543.14	355.76
543.31	440.02
543.48	374.49
543.64	374.49
543.81	362.78
543.98	409.59
544.15	351.08
544.32	414.27
544.48	447.04
544.65	409.59
544.82	327.68
544.99	484.49
545.16	456.40
545.32	447.04
545.49	386.19
545.66	393.21
545.83	404.91
546.00	376.83
546.16	365.12
546.33	386.19
546.50	390.87
546.67	456.40
546.83	437.68
547.00	409.59
547.17	379.17
547.34	423.64
547.50	470.45
547.67	409.59
547.84	430.66
548.00	411.93
548.17	437.68
548.34	397.89
548.51	456.40
548.67	470.45
548.84	400.23
549.01	409.59
549.18	425.98
549.34	472.79
549.51	388.53
549.68	437.68
549.84	362.78
550.01	435.34
550.18	484.49
550.34	451.72
550.51	423.64
550.68	505.56
550.84	449.38
551.01	409.59
551.18	425.98
551.34	449.38
551.51	411.93
551.68	444.70
551.84	362.78
552.01	428.32
552.18	411.93
552.34	386.19
552.51	393.21
552.68	458.74
552.84	372.15
553.01	428.32
553.18	416.62
553.34	447.04
553.51	428.32
553.67	503.22
553.84	468.11
554.01	425.98
554.17	400.23
554.34	381.51
554.51	461.09
554.67	395.55
554.84	442.36
555.00	360.44
555.17	386.19
555.33	381.51
555.50	414.27
555.67	475.13
555.83	407.25
556.00	404.91
556.16	664.71
556.33	461.09
556.50	409.59
556.66	444.70
556.83	482.15
556.99	486.83
557.16	379.17
557.32	435.34
557.49	332.36
557.65	360.44
557.82	362.78
557.98	374.49
558.15	409.59
558.32	344.06
558.48	381.51
558.65	491.51
558.81	411.93
558.98	465.77
559.14	463.43
559.31	458.74
559.47	416.62
559.64	362.78
559.80	437.68
559.97	475.13
560.13	440.02
560.30	393.21
560.46	472.79
560.63	379.17
560.79	437.68
560.96	390.87
561.12	458.74
561.29	430.66
561.45	416.62
561.61	437.68
561.78	458.74
561.94	437.68
562.11	433.00
562.27	451.72
562.44	428.32
562.60	472.79
562.77	404.91
562.93	449.38
563.10	444.70
563.26	449.38
563.42	493.85
563.59	381.51
563.75	367.46
563.92	416.62
564.08	407.25
564.24	475.13
564.41	442.36
564.57	337.04
564.74	330.02
564.90	367.46
565.07	421.30
565.23	428.32
565.39	381.51
565.56	425.98
565.72	379.17
565.88	428.32
566.05	362.78
566.21	397.89
566.38	430.66
566.54	418.96
566.70	449.38
566.87	423.64
567.03	369.80
567.19	367.46
567.36	430.66
567.52	418.96
567.68	397.89
567.85	397.89
568.01	444.70
568.17	425.98
568.34	433.00
568.50	468.11
568.66	414.27
568.83	397.89
568.99	367.46
569.15	465.77
569.32	416.62
569.48	428.32
569.64	430.66
569.81	414.27
569.97	484.49
570.13	489.17
570.30	414.27
570.46	397.89
570.62	402.57
570.78	397.89
570.95	447.04
571.11	411.93
571.27	414.27
571.43	397.89
571.60	390.87
571.76	503.22
571.92	423.64
572.09	437.68
572.25	390.87
572.41	348.74
572.57	404.91
572.74	402.57
572.90	379.17
573.06	411.93
573.22	376.83
573.38	425.98
573.55	395.55
573.71	440.02
573.87	416.62
574.03	421.30
574.20	421.30
574.36	409.59
574.52	468.11
574.68	404.91
574.84	440.02
575.01	397.89
575.17	468.11
575.33	404.91
575.49	507.90
575.65	395.55
575.82	433.00
575.98	400.23
576.14	390.87
576.30	409.59
576.46	416.62
576.62	388.53
576.79	437.68
576.95	437.68
577.11	416.62
577.27	365.12
577.43	493.85
577.59	482.15
577.75	393.21
577.92	435.34
578.08	461.09
578.24	416.62
578.40	507.90
578.56	454.06
578.72	449.38
578.88	423.64
579.04	332.36
579.21	376.83
579.37	390.87
579.53	407.25
579.69	433.00
579.85	376.83
580.01	418.96
580.17	397.89
580.33	458.74
580.49	468.11
580.65	451.72
580.82	444.70
580.98	411.93
581.14	360.44
581.30	458.74
581.46	440.02
581.62	447.04
581.78	416.62
581.94	379.17
582.10	402.57
582.26	458.74
582.42	383.85
582.58	397.89
582.74	477.47
582.90	423.64
583.06	421.30
583.22	402.57
583.38	433.00
583.54	449.38
583.70	390.87
583.86	407.25
584.02	425.98
584.18	451.72
584.34	397.89
584.50	437.68
584.66	428.32
584.82	393.21
584.98	390.87
585.14	402.57
585.30	428.32
585.46	447.04
585.62	411.93
585.78	454.06
585.94	440.02
586.10	484.49
586.26	444.70
586.42	528.96
586.58	400.23
586.74	404.91
586.90	458.74
587.06	468.11
587.22	421.30
587.38	395.55
587.54	416.62
587.70	402.57
587.86	484.49
588.02	472.79
588.18	407.25
588.34	414.27
588.49	360.44
588.65	491.51
588.81	416.62
588.97	344.06
589.13	435.34
589.29	449.38
589.45	491.51
589.61	421.30
589.77	463.43
589.93	477.47
590.08	423.64
590.24	451.72
590.40	430.66
590.56	379.17
590.72	339.38
590.88	486.83
591.04	407.25
591.20	435.34
591.35	496.19
591.51	486.83
591.67	409.59
591.83	425.98
591.99	447.04
592.15	407.25
592.31	367.46
592.46	418.96
592.62	440.02
592.78	360.44
592.94	386.19
593.10	430.66
593.26	372.15
593.41	444.70
593.57	362.78
593.73	442.36
593.89	449.38
594.05	435.34
594.20	442.36
594.36	475.13
594.52	451.72
594.68	376.83
594.84	379.17
594.99	475.13
595.15	433.00
595.31	407.25
595.47	421.30
595.62	428.32
595.78	383.85
595.94	393.21
596.10	402.57
596.25	397.89
596.41	486.83
596.57	355.76
596.73	449.38
596.88	470.45
597.04	383.85
597.20	430.66
597.36	390.87
597.51	498.53
597.67	402.57
597.83	407.25
597.99	454.06
598.14	414.27
598.30	397.89
598.46	418.96
598.61	447.04
598.77	470.45
598.93	411.93
599.09	414.27
599.24	430.66
599.40	461.09
599.56	379.17
599.71	365.12
599.87	367.46
600.03	409.59
600.18	454.06
600.34	430.66
600.50	390.87
600.65	402.57
600.81	489.17
600.97	425.98
601.12	498.53
601.28	383.85
601.44	414.27
601.59	339.38
601.75	444.70
601.91	390.87
602.06	376.83
602.22	484.49
602.37	428.32
602.53	409.59
602.69	456.40
602.84	390.87
603.00	397.89
603.16	519.60
603.31	390.87
603.47	416.62
603.62	447.04
603.78	458.74
603.94	425.98
604.09	409.59
604.25	414.27
604.40	465.77
604.56	414.27
604.71	451.72
604.87	400.23
605.03	362.78
605.18	395.55
605.34	444.70
605.49	407.25
605.65	379.17
605.80	388.53
605.96	477.47
606.12	381.51
606.27	435.34
606.43	388.53
606.58	430.66
606.74	369.80
606.89	402.57
607.05	444.70
607.20	458.74
607.36	428.32
607.51	393.21
607.67	491.51
607.82	386.19
607.98	449.38
608.13	447.04
608.29	447.04
608.44	421.30
608.60	440.02
608.75	402.57
608.91	430.66
609.06	397.89
609.22	456.40
609.37	482.15
609.53	409.59
609.68	386.19
609.84	416.62
609.99	477.47
610.15	444.70
