SpectraSuite Data File
++++++++++++++++++++++++++++++++++++
Date: Fri Oct 25 12:10:22 EDT 2013
User: price-jones
Dark Spectrum Present: No
Reference Spectrum Present: No
Number of Sampled Component Spectra: 1
Spectrometers: USB2+H05261
Integration Time (usec): 100000 (USB2+H05261)
Spectra Averaged: 1 (USB2+H05261)
Boxcar Smoothing: 0 (USB2+H05261)
Correct for Electrical Dark: No (USB2+H05261)
Strobe/Lamp Enabled: No (USB2+H05261)
Correct for Detector Non-linearity: No (USB2+H05261)
Correct for Stray Light: No (USB2+H05261)
Number of Pixels in Processed Spectrum: 2048
>>>>>Begin Processed Spectral Data<<<<<
365.73	346.40
365.92	346.40
366.12	346.40
366.32	231.71
366.52	257.46
366.72	191.92
366.91	273.84
367.11	245.76
367.31	201.29
367.51	266.82
367.70	229.37
367.90	245.76
368.10	250.44
368.30	255.12
368.49	259.80
368.69	301.93
368.89	234.05
369.09	201.29
369.28	222.35
369.48	262.14
369.68	229.37
369.87	327.68
370.07	259.80
370.27	341.72
370.47	358.10
370.66	301.93
370.86	346.40
371.06	395.55
371.25	376.83
371.45	393.21
371.65	353.42
371.84	353.42
372.04	355.76
372.24	390.87
372.44	402.57
372.63	407.25
372.83	332.36
373.03	433.00
373.22	425.98
373.42	437.68
373.62	393.21
373.81	390.87
374.01	414.27
374.21	369.80
374.40	362.78
374.60	437.68
374.79	435.34
374.99	393.21
375.19	325.33
375.38	390.87
375.58	451.72
375.78	486.83
375.97	465.77
376.17	449.38
376.37	447.04
376.56	428.32
376.76	358.10
376.95	283.20
377.15	423.64
377.35	407.25
377.54	376.83
377.74	381.51
377.93	442.36
378.13	440.02
378.33	402.57
378.52	421.30
378.72	404.91
378.91	428.32
379.11	454.06
379.31	489.17
379.50	358.10
379.70	418.96
379.89	388.53
380.09	346.40
380.28	369.80
380.48	409.59
380.68	400.23
380.87	444.70
381.07	456.40
381.26	435.34
381.46	365.12
381.65	374.49
381.85	395.55
382.04	365.12
382.24	409.59
382.43	383.85
382.63	362.78
382.83	393.21
383.02	433.00
383.22	374.49
383.41	409.59
383.61	442.36
383.80	493.85
384.00	421.30
384.19	393.21
384.39	447.04
384.58	402.57
384.78	369.80
384.97	390.87
385.17	346.40
385.36	486.83
385.56	449.38
385.75	353.42
385.95	393.21
386.14	433.00
386.34	407.25
386.53	430.66
386.72	355.76
386.92	491.51
387.11	402.57
387.31	442.36
387.50	425.98
387.70	425.98
387.89	416.62
388.09	386.19
388.28	411.93
388.48	393.21
388.67	444.70
388.86	304.27
389.06	411.93
389.25	458.74
389.45	376.83
389.64	379.17
389.84	433.00
390.03	372.15
390.22	393.21
390.42	383.85
390.61	404.91
390.81	330.02
391.00	353.42
391.19	402.57
391.39	447.04
391.58	379.17
391.78	428.32
391.97	374.49
392.16	435.34
392.36	411.93
392.55	388.53
392.75	442.36
392.94	390.87
393.13	411.93
393.33	393.21
393.52	454.06
393.71	381.51
393.91	404.91
394.10	362.78
394.29	449.38
394.49	414.27
394.68	402.57
394.88	425.98
395.07	421.30
395.26	461.09
395.46	484.49
395.65	414.27
395.84	360.44
396.04	538.32
396.23	433.00
396.42	414.27
396.62	383.85
396.81	442.36
397.00	400.23
397.19	397.89
397.39	358.10
397.58	456.40
397.77	369.80
397.97	334.70
398.16	374.49
398.35	395.55
398.55	376.83
398.74	418.96
398.93	463.43
399.12	414.27
399.32	458.74
399.51	388.53
399.70	365.12
399.90	400.23
400.09	423.64
400.28	428.32
400.47	409.59
400.67	435.34
400.86	407.25
401.05	376.83
401.24	468.11
401.44	407.25
401.63	414.27
401.82	437.68
402.01	437.68
402.21	369.80
402.40	411.93
402.59	468.11
402.78	390.87
402.97	388.53
403.17	461.09
403.36	383.85
403.55	425.98
403.74	327.68
403.93	416.62
404.13	381.51
404.32	421.30
404.51	393.21
404.70	379.17
404.89	430.66
405.09	404.91
405.28	414.27
405.47	374.49
405.66	386.19
405.85	444.70
406.05	437.68
406.24	362.78
406.43	423.64
406.62	472.79
406.81	414.27
407.00	381.51
407.20	397.89
407.39	381.51
407.58	444.70
407.77	393.21
407.96	449.38
408.15	435.34
408.34	465.77
408.54	442.36
408.73	411.93
408.92	423.64
409.11	437.68
409.30	383.85
409.49	318.31
409.68	421.30
409.87	411.93
410.07	416.62
410.26	395.55
410.45	386.19
410.64	430.66
410.83	400.23
411.02	425.98
411.21	376.83
411.40	449.38
411.59	395.55
411.78	390.87
411.98	372.15
412.17	351.08
412.36	418.96
412.55	414.27
412.74	430.66
412.93	461.09
413.12	461.09
413.31	484.49
413.50	449.38
413.69	414.27
413.88	386.19
414.07	456.40
414.26	416.62
414.45	411.93
414.64	416.62
414.83	425.98
415.02	449.38
415.22	407.25
415.41	400.23
415.60	416.62
415.79	397.89
415.98	503.22
416.17	390.87
416.36	395.55
416.55	435.34
416.74	393.21
416.93	489.17
417.12	400.23
417.31	409.59
417.50	337.04
417.69	463.43
417.88	390.87
418.07	430.66
418.26	400.23
418.45	374.49
418.64	472.79
418.83	496.19
419.02	430.66
419.21	374.49
419.39	402.57
419.58	416.62
419.77	386.19
419.96	475.13
420.15	421.30
420.34	381.51
420.53	435.34
420.72	344.06
420.91	465.77
421.10	402.57
421.29	376.83
421.48	449.38
421.67	376.83
421.86	447.04
422.05	465.77
422.24	477.47
422.43	442.36
422.61	365.12
422.80	397.89
422.99	332.36
423.18	421.30
423.37	306.61
423.56	358.10
423.75	386.19
423.94	355.76
424.13	381.51
424.32	390.87
424.50	414.27
424.69	402.57
424.88	444.70
425.07	393.21
425.26	404.91
425.45	423.64
425.64	393.21
425.83	437.68
426.01	397.89
426.20	425.98
426.39	400.23
426.58	369.80
426.77	362.78
426.96	449.38
427.15	444.70
427.33	390.87
427.52	409.59
427.71	414.27
427.90	425.98
428.09	362.78
428.28	381.51
428.46	428.32
428.65	416.62
428.84	409.59
429.03	440.02
429.22	355.76
429.40	337.04
429.59	430.66
429.78	425.98
429.97	456.40
430.16	454.06
430.34	407.25
430.53	447.04
430.72	407.25
430.91	503.22
431.10	416.62
431.28	402.57
431.47	407.25
431.66	407.25
431.85	402.57
432.03	404.91
432.22	440.02
432.41	374.49
432.60	402.57
432.79	456.40
432.97	379.17
433.16	425.98
433.35	383.85
433.54	404.91
433.72	376.83
433.91	447.04
434.10	390.87
434.28	407.25
434.47	411.93
434.66	411.93
434.85	454.06
435.03	437.68
435.22	449.38
435.41	425.98
435.59	400.23
435.78	444.70
435.97	395.55
436.16	486.83
436.34	411.93
436.53	393.21
436.72	458.74
436.90	388.53
437.09	383.85
437.28	418.96
437.46	454.06
437.65	447.04
437.84	482.15
438.02	369.80
438.21	404.91
438.40	346.40
438.58	355.76
438.77	337.04
438.96	463.43
439.14	400.23
439.33	449.38
439.52	423.64
439.70	383.85
439.89	451.72
440.08	456.40
440.26	388.53
440.45	451.72
440.63	381.51
440.82	433.00
441.01	428.32
441.19	447.04
441.38	395.55
441.57	348.74
441.75	393.21
441.94	475.13
442.12	433.00
442.31	465.77
442.50	388.53
442.68	440.02
442.87	447.04
443.05	360.44
443.24	400.23
443.43	465.77
443.61	402.57
443.80	360.44
443.98	423.64
444.17	383.85
444.35	416.62
444.54	409.59
444.73	428.32
444.91	435.34
445.10	390.87
445.28	458.74
445.47	390.87
445.65	404.91
445.84	428.32
446.02	430.66
446.21	327.68
446.39	397.89
446.58	404.91
446.77	482.15
446.95	428.32
447.14	433.00
447.32	435.34
447.51	388.53
447.69	416.62
447.88	397.89
448.06	468.11
448.25	425.98
448.43	418.96
448.62	369.80
448.80	416.62
448.99	402.57
449.17	411.93
449.36	372.15
449.54	390.87
449.73	360.44
449.91	407.25
450.10	409.59
450.28	440.02
450.46	440.02
450.65	416.62
450.83	500.87
451.02	379.17
451.20	369.80
451.39	437.68
451.57	400.23
451.76	444.70
451.94	402.57
452.13	404.91
452.31	428.32
452.49	374.49
452.68	425.98
452.86	414.27
453.05	433.00
453.23	433.00
453.42	404.91
453.60	369.80
453.78	454.06
453.97	430.66
454.15	489.17
454.34	447.04
454.52	376.83
454.70	442.36
454.89	468.11
455.07	367.46
455.26	430.66
455.44	428.32
455.62	388.53
455.81	418.96
455.99	404.91
456.17	386.19
456.36	353.42
456.54	442.36
456.73	465.77
456.91	416.62
457.09	414.27
457.28	458.74
457.46	421.30
457.64	447.04
457.83	386.19
458.01	428.32
458.19	416.62
458.38	402.57
458.56	400.23
458.74	395.55
458.93	416.62
459.11	416.62
459.29	404.91
459.48	428.32
459.66	463.43
459.84	482.15
460.03	561.73
460.21	416.62
460.39	374.49
460.57	442.36
460.76	372.15
460.94	440.02
461.12	503.22
461.31	444.70
461.49	447.04
461.67	433.00
461.85	484.49
462.04	430.66
462.22	741.95
462.40	365.12
462.59	411.93
462.77	400.23
462.95	430.66
463.13	374.49
463.32	489.17
463.50	393.21
463.68	404.91
463.86	397.89
464.05	327.68
464.23	395.55
464.41	470.45
464.59	416.62
464.78	402.57
464.96	376.83
465.14	465.77
465.32	404.91
465.50	411.93
465.69	397.89
465.87	395.55
466.05	456.40
466.23	358.10
466.41	524.28
466.60	447.04
466.78	409.59
466.96	395.55
467.14	388.53
467.32	463.43
467.51	465.77
467.69	407.25
467.87	402.57
468.05	365.12
468.23	500.87
468.41	512.58
468.60	411.93
468.78	386.19
468.96	425.98
469.14	383.85
469.32	418.96
469.50	437.68
469.69	414.27
469.87	423.64
470.05	383.85
470.23	411.93
470.41	390.87
470.59	407.25
470.77	362.78
470.95	376.83
471.14	395.55
471.32	461.09
471.50	514.92
471.68	437.68
471.86	388.53
472.04	388.53
472.22	367.46
472.40	369.80
472.58	362.78
472.77	327.68
472.95	425.98
473.13	423.64
473.31	547.69
473.49	421.30
473.67	411.93
473.85	440.02
474.03	421.30
474.21	393.21
474.39	381.51
474.57	423.64
474.75	381.51
474.93	400.23
475.12	351.08
475.30	416.62
475.48	411.93
475.66	407.25
475.84	435.34
476.02	451.72
476.20	404.91
476.38	479.81
476.56	458.74
476.74	407.25
476.92	425.98
477.10	407.25
477.28	416.62
477.46	393.21
477.64	411.93
477.82	458.74
478.00	416.62
478.18	407.25
478.36	411.93
478.54	454.06
478.72	423.64
478.90	374.49
479.08	437.68
479.26	416.62
479.44	430.66
479.62	407.25
479.80	442.36
479.98	355.76
480.16	430.66
480.34	418.96
480.52	411.93
480.70	484.49
480.88	372.15
481.06	386.19
481.24	395.55
481.41	437.68
481.59	388.53
481.77	449.38
481.95	381.51
482.13	470.45
482.31	479.81
482.49	442.36
482.67	428.32
482.85	383.85
483.03	395.55
483.21	339.38
483.39	379.17
483.57	442.36
483.74	496.19
483.92	456.40
484.10	411.93
484.28	449.38
484.46	440.02
484.64	423.64
484.82	383.85
485.00	418.96
485.18	463.43
485.35	428.32
485.53	358.10
485.71	358.10
485.89	362.78
486.07	414.27
486.25	454.06
486.43	409.59
486.61	435.34
486.78	397.89
486.96	358.10
487.14	390.87
487.32	367.46
487.50	397.89
487.68	409.59
487.85	435.34
488.03	433.00
488.21	470.45
488.39	475.13
488.57	381.51
488.75	397.89
488.92	519.60
489.10	407.25
489.28	442.36
489.46	369.80
489.64	437.68
489.81	388.53
489.99	397.89
490.17	433.00
490.35	442.36
490.53	388.53
490.70	437.68
490.88	468.11
491.06	416.62
491.24	463.43
491.41	444.70
491.59	414.27
491.77	388.53
491.95	402.57
492.13	390.87
492.30	418.96
492.48	346.40
492.66	376.83
492.84	353.42
493.01	442.36
493.19	360.44
493.37	428.32
493.54	435.34
493.72	444.70
493.90	374.49
494.08	386.19
494.25	435.34
494.43	409.59
494.61	400.23
494.79	388.53
494.96	421.30
495.14	486.83
495.32	351.08
495.49	360.44
495.67	468.11
495.85	423.64
496.02	444.70
496.20	493.85
496.38	470.45
496.55	372.15
496.73	388.53
496.91	461.09
497.09	423.64
497.26	440.02
497.44	395.55
497.62	435.34
497.79	456.40
497.97	468.11
498.14	393.21
498.32	472.79
498.50	376.83
498.67	390.87
498.85	468.11
499.03	442.36
499.20	404.91
499.38	358.10
499.56	383.85
499.73	395.55
499.91	425.98
500.08	468.11
500.26	402.57
500.44	397.89
500.61	393.21
500.79	397.89
500.97	369.80
501.14	479.81
501.32	423.64
501.49	407.25
501.67	428.32
501.84	418.96
502.02	423.64
502.20	449.38
502.37	407.25
502.55	334.70
502.72	435.34
502.90	414.27
503.07	489.17
503.25	454.06
503.43	449.38
503.60	402.57
503.78	416.62
503.95	358.10
504.13	390.87
504.30	458.74
504.48	418.96
504.65	404.91
504.83	386.19
505.01	395.55
505.18	449.38
505.36	430.66
505.53	369.80
505.71	355.76
505.88	456.40
506.06	365.12
506.23	353.42
506.41	400.23
506.58	381.51
506.76	334.70
506.93	451.72
507.11	440.02
507.28	486.83
507.46	374.49
507.63	425.98
507.81	456.40
507.98	463.43
508.16	330.02
508.33	400.23
508.50	470.45
508.68	409.59
508.85	444.70
509.03	346.40
509.20	397.89
509.38	404.91
509.55	362.78
509.73	402.57
509.90	498.53
510.08	421.30
510.25	496.19
510.42	470.45
510.60	400.23
510.77	493.85
510.95	465.77
511.12	365.12
511.30	454.06
511.47	416.62
511.64	449.38
511.82	372.15
511.99	386.19
512.17	341.72
512.34	376.83
512.51	407.25
512.69	372.15
512.86	428.32
513.04	421.30
513.21	388.53
513.38	358.10
513.56	421.30
513.73	318.31
513.90	390.87
514.08	472.79
514.25	416.62
514.43	358.10
514.60	400.23
514.77	369.80
514.95	388.53
515.12	393.21
515.29	404.91
515.47	449.38
515.64	470.45
515.81	416.62
515.99	411.93
516.16	409.59
516.33	442.36
516.51	348.74
516.68	381.51
516.85	411.93
517.03	416.62
517.20	451.72
517.37	451.72
517.54	489.17
517.72	407.25
517.89	367.46
518.06	407.25
518.24	411.93
518.41	449.38
518.58	397.89
518.75	435.34
518.93	390.87
519.10	475.13
519.27	414.27
519.45	411.93
519.62	404.91
519.79	381.51
519.96	402.57
520.14	421.30
520.31	400.23
520.48	374.49
520.65	435.34
520.83	395.55
521.00	365.12
521.17	418.96
521.34	362.78
521.52	421.30
521.69	362.78
521.86	477.47
522.03	433.00
522.20	397.89
522.38	456.40
522.55	414.27
522.72	428.32
522.89	491.51
523.07	461.09
523.24	393.21
523.41	416.62
523.58	402.57
523.75	447.04
523.92	418.96
524.10	409.59
524.27	444.70
524.44	407.25
524.61	475.13
524.78	433.00
524.96	435.34
525.13	451.72
525.30	454.06
525.47	458.74
525.64	430.66
525.81	395.55
525.98	395.55
526.16	470.45
526.33	386.19
526.50	425.98
526.67	346.40
526.84	489.17
527.01	433.00
527.18	407.25
527.36	437.68
527.53	489.17
527.70	463.43
527.87	400.23
528.04	451.72
528.21	458.74
528.38	442.36
528.55	447.04
528.72	404.91
528.89	381.51
529.07	472.79
529.24	437.68
529.41	435.34
529.58	369.80
529.75	360.44
529.92	444.70
530.09	404.91
530.26	381.51
530.43	395.55
530.60	407.25
530.77	383.85
530.94	433.00
531.11	339.38
531.28	397.89
531.46	449.38
531.63	437.68
531.80	421.30
531.97	421.30
532.14	414.27
532.31	407.25
532.48	498.53
532.65	308.95
532.82	479.81
532.99	437.68
533.16	440.02
533.33	397.89
533.50	477.47
533.67	397.89
533.84	454.06
534.01	360.44
534.18	447.04
534.35	416.62
534.52	456.40
534.69	421.30
534.86	423.64
535.03	423.64
535.20	372.15
535.37	493.85
535.54	447.04
535.71	404.91
535.88	411.93
536.05	407.25
536.22	379.17
536.38	433.00
536.55	461.09
536.72	477.47
536.89	433.00
537.06	397.89
537.23	425.98
537.40	365.12
537.57	402.57
537.74	475.13
537.91	397.89
538.08	449.38
538.25	463.43
538.42	397.89
538.59	533.64
538.75	421.30
538.92	365.12
539.09	510.24
539.26	409.59
539.43	505.56
539.60	423.64
539.77	397.89
539.94	507.90
540.11	414.27
540.28	383.85
540.44	421.30
540.61	374.49
540.78	379.17
540.95	414.27
541.12	461.09
541.29	390.87
541.46	435.34
541.62	400.23
541.79	358.10
541.96	393.21
542.13	372.15
542.30	440.02
542.47	430.66
542.63	433.00
542.80	348.74
542.97	444.70
543.14	393.21
543.31	348.74
543.48	337.04
543.64	442.36
543.81	472.79
543.98	416.62
544.15	437.68
544.32	409.59
544.48	491.51
544.65	379.17
544.82	383.85
544.99	414.27
545.16	430.66
545.32	447.04
545.49	468.11
545.66	421.30
545.83	428.32
546.00	367.46
546.16	362.78
546.33	461.09
546.50	482.15
546.67	447.04
546.83	482.15
547.00	435.34
547.17	390.87
547.34	353.42
547.50	360.44
547.67	381.51
547.84	383.85
548.00	437.68
548.17	386.19
548.34	444.70
548.51	404.91
548.67	477.47
548.84	416.62
549.01	437.68
549.18	407.25
549.34	367.46
549.51	484.49
549.68	437.68
549.84	454.06
550.01	416.62
550.18	395.55
550.34	425.98
550.51	409.59
550.68	461.09
550.84	470.45
551.01	423.64
551.18	493.85
551.34	409.59
551.51	402.57
551.68	425.98
551.84	421.30
552.01	397.89
552.18	414.27
552.34	435.34
552.51	423.64
552.68	423.64
552.84	430.66
553.01	383.85
553.18	470.45
553.34	444.70
553.51	414.27
553.67	454.06
553.84	390.87
554.01	442.36
554.17	425.98
554.34	416.62
554.51	390.87
554.67	411.93
554.84	407.25
555.00	479.81
555.17	454.06
555.33	442.36
555.50	437.68
555.67	388.53
555.83	322.99
556.00	433.00
556.16	503.22
556.33	379.17
556.50	430.66
556.66	461.09
556.83	360.44
556.99	402.57
557.16	393.21
557.32	482.15
557.49	479.81
557.65	423.64
557.82	411.93
557.98	428.32
558.15	491.51
558.32	447.04
558.48	390.87
558.65	416.62
558.81	447.04
558.98	358.10
559.14	428.32
559.31	383.85
559.47	416.62
559.64	465.77
559.80	433.00
559.97	407.25
560.13	411.93
560.30	386.19
560.46	360.44
560.63	400.23
560.79	374.49
560.96	451.72
561.12	435.34
561.29	449.38
561.45	397.89
561.61	397.89
561.78	484.49
561.94	437.68
562.11	397.89
562.27	374.49
562.44	346.40
562.60	435.34
562.77	482.15
562.93	521.94
563.10	395.55
563.26	393.21
563.42	367.46
563.59	458.74
563.75	418.96
563.92	409.59
564.08	475.13
564.24	472.79
564.41	472.79
564.57	463.43
564.74	451.72
564.90	395.55
565.07	442.36
565.23	365.12
565.39	479.81
565.56	463.43
565.72	423.64
565.88	411.93
566.05	402.57
566.21	395.55
566.38	456.40
566.54	440.02
566.70	369.80
566.87	454.06
567.03	383.85
567.19	425.98
567.36	386.19
567.52	388.53
567.68	351.08
567.85	388.53
568.01	395.55
568.17	404.91
568.34	444.70
568.50	421.30
568.66	334.70
568.83	505.56
568.99	463.43
569.15	440.02
569.32	407.25
569.48	421.30
569.64	425.98
569.81	477.47
569.97	425.98
570.13	447.04
570.30	374.49
570.46	358.10
570.62	486.83
570.78	444.70
570.95	383.85
571.11	498.53
571.27	433.00
571.43	400.23
571.60	423.64
571.76	418.96
571.92	393.21
572.09	393.21
572.25	465.77
572.41	374.49
572.57	435.34
572.74	451.72
572.90	395.55
573.06	418.96
573.22	402.57
573.38	454.06
573.55	454.06
573.71	397.89
573.87	362.78
574.03	390.87
574.20	447.04
574.36	402.57
574.52	313.63
574.68	409.59
574.84	411.93
575.01	442.36
575.17	472.79
575.33	442.36
575.49	493.85
575.65	472.79
575.82	435.34
575.98	390.87
576.14	470.45
576.30	435.34
576.46	409.59
576.62	433.00
576.79	411.93
576.95	468.11
577.11	390.87
577.27	414.27
577.43	444.70
577.59	442.36
577.75	397.89
577.92	381.51
578.08	409.59
578.24	367.46
578.40	451.72
578.56	437.68
578.72	376.83
578.88	430.66
579.04	411.93
579.21	454.06
579.37	421.30
579.53	468.11
579.69	428.32
579.85	372.15
580.01	414.27
580.17	402.57
580.33	390.87
580.49	386.19
580.65	444.70
580.82	428.32
580.98	374.49
581.14	386.19
581.30	381.51
581.46	388.53
581.62	409.59
581.78	444.70
581.94	367.46
582.10	428.32
582.26	393.21
582.42	404.91
582.58	423.64
582.74	353.42
582.90	428.32
583.06	470.45
583.22	461.09
583.38	386.19
583.54	369.80
583.70	421.30
583.86	416.62
584.02	425.98
584.18	411.93
584.34	433.00
584.50	458.74
584.66	484.49
584.82	367.46
584.98	440.02
585.14	374.49
585.30	442.36
585.46	395.55
585.62	362.78
585.78	421.30
585.94	425.98
586.10	404.91
586.26	360.44
586.42	430.66
586.58	386.19
586.74	435.34
586.90	437.68
587.06	421.30
587.22	454.06
587.38	376.83
587.54	447.04
587.70	372.15
587.86	463.43
588.02	421.30
588.18	423.64
588.34	390.87
588.49	454.06
588.65	393.21
588.81	411.93
588.97	393.21
589.13	440.02
589.29	404.91
589.45	369.80
589.61	451.72
589.77	409.59
589.93	402.57
590.08	414.27
590.24	393.21
590.40	395.55
590.56	381.51
590.72	454.06
590.88	395.55
591.04	388.53
591.20	362.78
591.35	421.30
591.51	402.57
591.67	447.04
591.83	414.27
591.99	423.64
592.15	454.06
592.31	451.72
592.46	418.96
592.62	369.80
592.78	430.66
592.94	454.06
593.10	463.43
593.26	418.96
593.41	461.09
593.57	435.34
593.73	367.46
593.89	411.93
594.05	430.66
594.20	402.57
594.36	468.11
594.52	435.34
594.68	372.15
594.84	444.70
594.99	372.15
595.15	447.04
595.31	430.66
595.47	372.15
595.62	383.85
595.78	489.17
595.94	428.32
596.10	372.15
596.25	379.17
596.41	505.56
596.57	421.30
596.73	334.70
596.88	386.19
597.04	362.78
597.20	330.02
597.36	484.49
597.51	411.93
597.67	397.89
597.83	337.04
597.99	454.06
598.14	444.70
598.30	458.74
598.46	425.98
598.61	540.66
598.77	454.06
598.93	423.64
599.09	423.64
599.24	400.23
599.40	423.64
599.56	440.02
599.71	416.62
599.87	404.91
600.03	393.21
600.18	390.87
600.34	444.70
600.50	397.89
600.65	411.93
600.81	482.15
600.97	440.02
601.12	369.80
601.28	393.21
601.44	395.55
601.59	388.53
601.75	461.09
601.91	491.51
602.06	477.47
602.22	430.66
602.37	430.66
602.53	428.32
602.69	416.62
602.84	395.55
603.00	447.04
603.16	461.09
603.31	351.08
603.47	447.04
603.62	386.19
603.78	425.98
603.94	449.38
604.09	390.87
604.25	360.44
604.40	409.59
604.56	461.09
604.71	437.68
604.87	383.85
605.03	393.21
605.18	456.40
605.34	447.04
605.49	404.91
605.65	418.96
605.80	440.02
605.96	402.57
606.12	423.64
606.27	423.64
606.43	397.89
606.58	383.85
606.74	404.91
606.89	393.21
607.05	400.23
607.20	428.32
607.36	475.13
607.51	421.30
607.67	376.83
607.82	416.62
607.98	458.74
608.13	472.79
608.29	362.78
608.44	505.56
608.60	367.46
608.75	418.96
608.91	362.78
609.06	444.70
609.22	437.68
609.37	430.66
609.53	353.42
609.68	489.17
609.84	423.64
609.99	411.93
610.15	404.91
