SpectraSuite Data File
++++++++++++++++++++++++++++++++++++
Date: Fri Oct 25 12:11:02 EDT 2013
User: price-jones
Dark Spectrum Present: No
Reference Spectrum Present: No
Number of Sampled Component Spectra: 1
Spectrometers: USB2+H05261
Integration Time (usec): 100000 (USB2+H05261)
Spectra Averaged: 1 (USB2+H05261)
Boxcar Smoothing: 0 (USB2+H05261)
Correct for Electrical Dark: No (USB2+H05261)
Strobe/Lamp Enabled: No (USB2+H05261)
Correct for Detector Non-linearity: No (USB2+H05261)
Correct for Stray Light: No (USB2+H05261)
Number of Pixels in Processed Spectrum: 2048
>>>>>Begin Processed Spectral Data<<<<<
365.73	306.61
365.92	306.61
366.12	306.61
366.32	257.46
366.52	238.73
366.72	227.03
366.91	255.12
367.11	262.14
367.31	196.60
367.51	266.82
367.70	168.52
367.90	227.03
368.10	280.86
368.30	170.86
368.49	196.60
368.69	257.46
368.89	266.82
369.09	287.89
369.28	248.10
369.48	229.37
369.68	337.04
369.87	311.29
370.07	304.27
370.27	355.76
370.47	322.99
370.66	353.42
370.86	322.99
371.06	442.36
371.25	447.04
371.45	266.82
371.65	395.55
371.84	334.70
372.04	397.89
372.24	402.57
372.44	332.36
372.63	418.96
372.83	404.91
373.03	341.72
373.22	437.68
373.42	435.34
373.62	327.68
373.81	414.27
374.01	482.15
374.21	395.55
374.40	447.04
374.60	418.96
374.79	442.36
374.99	437.68
375.19	463.43
375.38	435.34
375.58	423.64
375.78	482.15
375.97	456.40
376.17	468.11
376.37	421.30
376.56	421.30
376.76	409.59
376.95	390.87
377.15	390.87
377.35	388.53
377.54	409.59
377.74	353.42
377.93	395.55
378.13	407.25
378.33	444.70
378.52	447.04
378.72	451.72
378.91	468.11
379.11	442.36
379.31	358.10
379.50	428.32
379.70	465.77
379.89	402.57
380.09	332.36
380.28	416.62
380.48	381.51
380.68	353.42
380.87	425.98
381.07	383.85
381.26	409.59
381.46	365.12
381.65	393.21
381.85	381.51
382.04	451.72
382.24	468.11
382.43	463.43
382.63	411.93
382.83	477.47
383.02	400.23
383.22	393.21
383.41	337.04
383.61	433.00
383.80	400.23
384.00	395.55
384.19	379.17
384.39	414.27
384.58	400.23
384.78	395.55
384.97	411.93
385.17	397.89
385.36	388.53
385.56	421.30
385.75	327.68
385.95	351.08
386.14	376.83
386.34	463.43
386.53	409.59
386.72	447.04
386.92	407.25
387.11	400.23
387.31	409.59
387.50	341.72
387.70	327.68
387.89	437.68
388.09	390.87
388.28	418.96
388.48	411.93
388.67	404.91
388.86	421.30
389.06	381.51
389.25	463.43
389.45	437.68
389.64	416.62
389.84	400.23
390.03	423.64
390.22	540.66
390.42	395.55
390.61	421.30
390.81	358.10
391.00	435.34
391.19	367.46
391.39	428.32
391.58	449.38
391.78	362.78
391.97	404.91
392.16	423.64
392.36	430.66
392.55	367.46
392.75	348.74
392.94	442.36
393.13	442.36
393.33	339.38
393.52	409.59
393.71	444.70
393.91	330.02
394.10	390.87
394.29	360.44
394.49	414.27
394.68	379.17
394.88	428.32
395.07	400.23
395.26	402.57
395.46	449.38
395.65	423.64
395.84	386.19
396.04	442.36
396.23	461.09
396.42	397.89
396.62	383.85
396.81	397.89
397.00	395.55
397.19	397.89
397.39	451.72
397.58	447.04
397.77	388.53
397.97	369.80
398.16	454.06
398.35	435.34
398.55	388.53
398.74	440.02
398.93	407.25
399.12	407.25
399.32	421.30
399.51	409.59
399.70	351.08
399.90	463.43
400.09	442.36
400.28	414.27
400.47	451.72
400.67	402.57
400.86	418.96
401.05	400.23
401.24	430.66
401.44	454.06
401.63	414.27
401.82	395.55
402.01	369.80
402.21	425.98
402.40	414.27
402.59	407.25
402.78	397.89
402.97	348.74
403.17	456.40
403.36	458.74
403.55	447.04
403.74	409.59
403.93	353.42
404.13	388.53
404.32	315.97
404.51	454.06
404.70	447.04
404.89	383.85
405.09	404.91
405.28	407.25
405.47	433.00
405.66	421.30
405.85	428.32
406.05	451.72
406.24	365.12
406.43	475.13
406.62	425.98
406.81	409.59
407.00	388.53
407.20	407.25
407.39	407.25
407.58	360.44
407.77	409.59
407.96	353.42
408.15	397.89
408.34	465.77
408.54	484.49
408.73	472.79
408.92	397.89
409.11	372.15
409.30	369.80
409.49	395.55
409.68	447.04
409.87	451.72
410.07	393.21
410.26	395.55
410.45	442.36
410.64	454.06
410.83	402.57
411.02	404.91
411.21	369.80
411.40	367.46
411.59	386.19
411.78	407.25
411.98	440.02
412.17	435.34
412.36	348.74
412.55	306.61
412.74	358.10
412.93	454.06
413.12	395.55
413.31	376.83
413.50	390.87
413.69	393.21
413.88	449.38
414.07	404.91
414.26	425.98
414.45	425.98
414.64	489.17
414.83	400.23
415.02	374.49
415.22	411.93
415.41	477.47
415.60	372.15
415.79	393.21
415.98	367.46
416.17	418.96
416.36	409.59
416.55	362.78
416.74	418.96
416.93	463.43
417.12	407.25
417.31	407.25
417.50	444.70
417.69	416.62
417.88	402.57
418.07	416.62
418.26	381.51
418.45	411.93
418.64	414.27
418.83	390.87
419.02	414.27
419.21	456.40
419.39	388.53
419.58	418.96
419.77	397.89
419.96	414.27
420.15	472.79
420.34	372.15
420.53	404.91
420.72	397.89
420.91	423.64
421.10	379.17
421.29	430.66
421.48	416.62
421.67	428.32
421.86	362.78
422.05	379.17
422.24	372.15
422.43	341.72
422.61	451.72
422.80	409.59
422.99	447.04
423.18	365.12
423.37	489.17
423.56	456.40
423.75	360.44
423.94	358.10
424.13	416.62
424.32	393.21
424.50	451.72
424.69	491.51
424.88	465.77
425.07	395.55
425.26	444.70
425.45	463.43
425.64	393.21
425.83	440.02
426.01	418.96
426.20	407.25
426.39	381.51
426.58	421.30
426.77	325.33
426.96	433.00
427.15	390.87
427.33	407.25
427.52	407.25
427.71	451.72
427.90	440.02
428.09	351.08
428.28	407.25
428.46	362.78
428.65	381.51
428.84	425.98
429.03	470.45
429.22	379.17
429.40	442.36
429.59	449.38
429.78	437.68
429.97	428.32
430.16	418.96
430.34	418.96
430.53	395.55
430.72	414.27
430.91	449.38
431.10	472.79
431.28	437.68
431.47	369.80
431.66	484.49
431.85	418.96
432.03	423.64
432.22	486.83
432.41	383.85
432.60	379.17
432.79	346.40
432.97	402.57
433.16	390.87
433.35	294.91
433.54	393.21
433.72	386.19
433.91	425.98
434.10	332.36
434.28	461.09
434.47	407.25
434.66	397.89
434.85	428.32
435.03	428.32
435.22	444.70
435.41	390.87
435.59	449.38
435.78	458.74
435.97	400.23
436.16	367.46
436.34	397.89
436.53	437.68
436.72	367.46
436.90	482.15
437.09	500.87
437.28	402.57
437.46	376.83
437.65	514.92
437.84	414.27
438.02	418.96
438.21	484.49
438.40	425.98
438.58	362.78
438.77	512.58
438.96	486.83
439.14	332.36
439.33	444.70
439.52	437.68
439.70	381.51
439.89	386.19
440.08	423.64
440.26	358.10
440.45	390.87
440.63	390.87
440.82	311.29
441.01	486.83
441.19	449.38
441.38	416.62
441.57	423.64
441.75	390.87
441.94	449.38
442.12	440.02
442.31	418.96
442.50	484.49
442.68	374.49
442.87	437.68
443.05	433.00
443.24	327.68
443.43	397.89
443.61	362.78
443.80	374.49
443.98	437.68
444.17	395.55
444.35	407.25
444.54	423.64
444.73	400.23
444.91	486.83
445.10	334.70
445.28	386.19
445.47	449.38
445.65	423.64
445.84	386.19
446.02	374.49
446.21	456.40
446.39	418.96
446.58	393.21
446.77	395.55
446.95	440.02
447.14	493.85
447.32	414.27
447.51	416.62
447.69	386.19
447.88	449.38
448.06	430.66
448.25	388.53
448.43	440.02
448.62	407.25
448.80	477.47
448.99	444.70
449.17	423.64
449.36	397.89
449.54	372.15
449.73	348.74
449.91	404.91
450.10	348.74
450.28	454.06
450.46	365.12
450.65	409.59
450.83	355.76
451.02	414.27
451.20	400.23
451.39	341.72
451.57	404.91
451.76	379.17
451.94	433.00
452.13	461.09
452.31	444.70
452.49	430.66
452.68	358.10
452.86	362.78
453.05	409.59
453.23	421.30
453.42	437.68
453.60	454.06
453.78	353.42
453.97	397.89
454.15	407.25
454.34	379.17
454.52	465.77
454.70	465.77
454.89	456.40
455.07	390.87
455.26	449.38
455.44	444.70
455.62	416.62
455.81	388.53
455.99	477.47
456.17	437.68
456.36	358.10
456.54	379.17
456.73	404.91
456.91	430.66
457.09	484.49
457.28	402.57
457.46	461.09
457.64	451.72
457.83	428.32
458.01	447.04
458.19	402.57
458.38	421.30
458.56	447.04
458.74	397.89
458.93	526.62
459.11	400.23
459.29	475.13
459.48	440.02
459.66	498.53
459.84	435.34
460.03	519.60
460.21	327.68
460.39	339.38
460.57	390.87
460.76	435.34
460.94	397.89
461.12	482.15
461.31	402.57
461.49	411.93
461.67	341.72
461.85	451.72
462.04	491.51
462.22	746.63
462.40	362.78
462.59	423.64
462.77	442.36
462.95	442.36
463.13	440.02
463.32	381.51
463.50	390.87
463.68	409.59
463.86	414.27
464.05	425.98
464.23	449.38
464.41	447.04
464.59	482.15
464.78	320.65
464.96	421.30
465.14	435.34
465.32	369.80
465.50	383.85
465.69	425.98
465.87	421.30
466.05	428.32
466.23	402.57
466.41	362.78
466.60	442.36
466.78	395.55
466.96	510.24
467.14	472.79
467.32	507.90
467.51	365.12
467.69	390.87
467.87	442.36
468.05	418.96
468.23	430.66
468.41	447.04
468.60	402.57
468.78	449.38
468.96	472.79
469.14	362.78
469.32	402.57
469.50	411.93
469.69	428.32
469.87	411.93
470.05	409.59
470.23	402.57
470.41	411.93
470.59	402.57
470.77	388.53
470.95	393.21
471.14	421.30
471.32	510.24
471.50	435.34
471.68	404.91
471.86	402.57
472.04	369.80
472.22	376.83
472.40	367.46
472.58	451.72
472.77	372.15
472.95	374.49
473.13	444.70
473.31	348.74
473.49	353.42
473.67	423.64
473.85	393.21
474.03	470.45
474.21	421.30
474.39	447.04
474.57	402.57
474.75	372.15
474.93	433.00
475.12	465.77
475.30	393.21
475.48	411.93
475.66	402.57
475.84	379.17
476.02	374.49
476.20	461.09
476.38	440.02
476.56	449.38
476.74	388.53
476.92	341.72
477.10	397.89
477.28	433.00
477.46	355.76
477.64	395.55
477.82	451.72
478.00	397.89
478.18	393.21
478.36	395.55
478.54	440.02
478.72	423.64
478.90	388.53
479.08	433.00
479.26	451.72
479.44	442.36
479.62	437.68
479.80	358.10
479.98	404.91
480.16	463.43
480.34	423.64
480.52	421.30
480.70	409.59
480.88	390.87
481.06	322.99
481.24	423.64
481.41	447.04
481.59	440.02
481.77	416.62
481.95	381.51
482.13	472.79
482.31	407.25
482.49	444.70
482.67	397.89
482.85	407.25
483.03	390.87
483.21	433.00
483.39	404.91
483.57	421.30
483.74	421.30
483.92	376.83
484.10	407.25
484.28	386.19
484.46	524.28
484.64	418.96
484.82	400.23
485.00	372.15
485.18	367.46
485.35	414.27
485.53	433.00
485.71	444.70
485.89	358.10
486.07	458.74
486.25	428.32
486.43	447.04
486.61	390.87
486.78	442.36
486.96	346.40
487.14	437.68
487.32	421.30
487.50	339.38
487.68	456.40
487.85	400.23
488.03	400.23
488.21	404.91
488.39	451.72
488.57	458.74
488.75	327.68
488.92	482.15
489.10	393.21
489.28	465.77
489.46	397.89
489.64	454.06
489.81	482.15
489.99	435.34
490.17	503.22
490.35	519.60
490.53	440.02
490.70	351.08
490.88	472.79
491.06	358.10
491.24	454.06
491.41	435.34
491.59	496.19
491.77	418.96
491.95	365.12
492.13	414.27
492.30	440.02
492.48	451.72
492.66	433.00
492.84	383.85
493.01	381.51
493.19	428.32
493.37	416.62
493.54	369.80
493.72	451.72
493.90	430.66
494.08	397.89
494.25	414.27
494.43	461.09
494.61	376.83
494.79	416.62
494.96	411.93
495.14	486.83
495.32	383.85
495.49	386.19
495.67	367.46
495.85	449.38
496.02	433.00
496.20	442.36
496.38	444.70
496.55	372.15
496.73	381.51
496.91	381.51
497.09	491.51
497.26	334.70
497.44	404.91
497.62	393.21
497.79	395.55
497.97	423.64
498.14	458.74
498.32	418.96
498.50	472.79
498.67	404.91
498.85	379.17
499.03	411.93
499.20	402.57
499.38	421.30
499.56	449.38
499.73	442.36
499.91	383.85
500.08	365.12
500.26	451.72
500.44	390.87
500.61	411.93
500.79	454.06
500.97	433.00
501.14	440.02
501.32	372.15
501.49	461.09
501.67	418.96
501.84	493.85
502.02	404.91
502.20	503.22
502.37	491.51
502.55	444.70
502.72	390.87
502.90	468.11
503.07	381.51
503.25	440.02
503.43	402.57
503.60	461.09
503.78	444.70
503.95	435.34
504.13	395.55
504.30	386.19
504.48	395.55
504.65	447.04
504.83	418.96
505.01	376.83
505.18	442.36
505.36	393.21
505.53	421.30
505.71	346.40
505.88	400.23
506.06	447.04
506.23	461.09
506.41	402.57
506.58	308.95
506.76	369.80
506.93	365.12
507.11	475.13
507.28	348.74
507.46	395.55
507.63	402.57
507.81	423.64
507.98	409.59
508.16	381.51
508.33	437.68
508.50	458.74
508.68	365.12
508.85	334.70
509.03	416.62
509.20	435.34
509.38	423.64
509.55	475.13
509.73	442.36
509.90	390.87
510.08	393.21
510.25	379.17
510.42	360.44
510.60	444.70
510.77	444.70
510.95	322.99
511.12	374.49
511.30	435.34
511.47	435.34
511.64	435.34
511.82	365.12
511.99	440.02
512.17	479.81
512.34	414.27
512.51	444.70
512.69	435.34
512.86	444.70
513.04	411.93
513.21	425.98
513.38	374.49
513.56	479.81
513.73	292.57
513.90	418.96
514.08	411.93
514.25	388.53
514.43	411.93
514.60	440.02
514.77	444.70
514.95	397.89
515.12	381.51
515.29	418.96
515.47	416.62
515.64	437.68
515.81	339.38
515.99	456.40
516.16	458.74
516.33	461.09
516.51	435.34
516.68	386.19
516.85	395.55
517.03	423.64
517.20	454.06
517.37	463.43
517.54	433.00
517.72	489.17
517.89	348.74
518.06	416.62
518.24	430.66
518.41	411.93
518.58	470.45
518.75	458.74
518.93	409.59
519.10	435.34
519.27	437.68
519.45	383.85
519.62	402.57
519.79	454.06
519.96	465.77
520.14	365.12
520.31	418.96
520.48	369.80
520.65	339.38
520.83	430.66
521.00	423.64
521.17	400.23
521.34	489.17
521.52	451.72
521.69	416.62
521.86	372.15
522.03	414.27
522.20	397.89
522.38	395.55
522.55	383.85
522.72	407.25
522.89	458.74
523.07	496.19
523.24	451.72
523.41	383.85
523.58	365.12
523.75	332.36
523.92	416.62
524.10	393.21
524.27	418.96
524.44	425.98
524.61	465.77
524.78	428.32
524.96	430.66
525.13	486.83
525.30	425.98
525.47	519.60
525.64	421.30
525.81	440.02
525.98	409.59
526.16	386.19
526.33	451.72
526.50	407.25
526.67	440.02
526.84	376.83
527.01	416.62
527.18	418.96
527.36	390.87
527.53	383.85
527.70	395.55
527.87	470.45
528.04	454.06
528.21	414.27
528.38	416.62
528.55	402.57
528.72	421.30
528.89	486.83
529.07	376.83
529.24	430.66
529.41	416.62
529.58	404.91
529.75	435.34
529.92	507.90
530.09	433.00
530.26	397.89
530.43	372.15
530.60	400.23
530.77	308.95
530.94	507.90
531.11	379.17
531.28	425.98
531.46	454.06
531.63	470.45
531.80	449.38
531.97	404.91
532.14	407.25
532.31	409.59
532.48	442.36
532.65	468.11
532.82	397.89
532.99	379.17
533.16	402.57
533.33	414.27
533.50	381.51
533.67	428.32
533.84	421.30
534.01	440.02
534.18	451.72
534.35	463.43
534.52	451.72
534.69	437.68
534.86	322.99
535.03	475.13
535.20	428.32
535.37	395.55
535.54	428.32
535.71	365.12
535.88	428.32
536.05	430.66
536.22	381.51
536.38	400.23
536.55	390.87
536.72	444.70
536.89	409.59
537.06	411.93
537.23	355.76
537.40	418.96
537.57	440.02
537.74	414.27
537.91	470.45
538.08	447.04
538.25	423.64
538.42	435.34
538.59	390.87
538.75	397.89
538.92	383.85
539.09	442.36
539.26	435.34
539.43	468.11
539.60	341.72
539.77	374.49
539.94	374.49
540.11	442.36
540.28	339.38
540.44	390.87
540.61	353.42
540.78	376.83
540.95	379.17
541.12	428.32
541.29	477.47
541.46	369.80
541.62	416.62
541.79	320.65
541.96	379.17
542.13	470.45
542.30	400.23
542.47	383.85
542.63	404.91
542.80	463.43
542.97	400.23
543.14	510.24
543.31	437.68
543.48	454.06
543.64	430.66
543.81	442.36
543.98	421.30
544.15	362.78
544.32	374.49
544.48	463.43
544.65	402.57
544.82	407.25
544.99	388.53
545.16	393.21
545.32	397.89
545.49	404.91
545.66	393.21
545.83	404.91
546.00	428.32
546.16	425.98
546.33	395.55
546.50	423.64
546.67	437.68
546.83	437.68
547.00	355.76
547.17	409.59
547.34	395.55
547.50	409.59
547.67	414.27
547.84	337.04
548.00	440.02
548.17	449.38
548.34	433.00
548.51	456.40
548.67	442.36
548.84	409.59
549.01	407.25
549.18	447.04
549.34	468.11
549.51	425.98
549.68	430.66
549.84	435.34
550.01	381.51
550.18	489.17
550.34	489.17
550.51	418.96
550.68	430.66
550.84	360.44
551.01	383.85
551.18	416.62
551.34	444.70
551.51	397.89
551.68	444.70
551.84	461.09
552.01	407.25
552.18	374.49
552.34	526.62
552.51	411.93
552.68	449.38
552.84	360.44
553.01	425.98
553.18	346.40
553.34	395.55
553.51	454.06
553.67	430.66
553.84	454.06
554.01	496.19
554.17	421.30
554.34	423.64
554.51	444.70
554.67	461.09
554.84	404.91
555.00	451.72
555.17	376.83
555.33	388.53
555.50	475.13
555.67	428.32
555.83	451.72
556.00	449.38
556.16	528.96
556.33	451.72
556.50	435.34
556.66	351.08
556.83	390.87
556.99	369.80
557.16	367.46
557.32	390.87
557.49	346.40
557.65	430.66
557.82	430.66
557.98	388.53
558.15	402.57
558.32	372.15
558.48	442.36
558.65	423.64
558.81	463.43
558.98	344.06
559.14	395.55
559.31	463.43
559.47	425.98
559.64	411.93
559.80	449.38
559.97	437.68
560.13	425.98
560.30	367.46
560.46	411.93
560.63	346.40
560.79	414.27
560.96	376.83
561.12	425.98
561.29	421.30
561.45	365.12
561.61	395.55
561.78	524.28
561.94	454.06
562.11	414.27
562.27	430.66
562.44	435.34
562.60	355.76
562.77	440.02
562.93	423.64
563.10	388.53
563.26	503.22
563.42	435.34
563.59	402.57
563.75	402.57
563.92	425.98
564.08	486.83
564.24	397.89
564.41	458.74
564.57	334.70
564.74	386.19
564.90	411.93
565.07	465.77
565.23	337.04
565.39	400.23
565.56	416.62
565.72	423.64
565.88	404.91
566.05	400.23
566.21	400.23
566.38	362.78
566.54	423.64
566.70	409.59
566.87	428.32
567.03	379.17
567.19	423.64
567.36	425.98
567.52	397.89
567.68	407.25
567.85	463.43
568.01	402.57
568.17	447.04
568.34	411.93
568.50	451.72
568.66	341.72
568.83	416.62
568.99	320.65
569.15	409.59
569.32	440.02
569.48	421.30
569.64	386.19
569.81	479.81
569.97	414.27
570.13	444.70
570.30	454.06
570.46	414.27
570.62	435.34
570.78	386.19
570.95	390.87
571.11	402.57
571.27	421.30
571.43	395.55
571.60	484.49
571.76	379.17
571.92	395.55
572.09	425.98
572.25	344.06
572.41	369.80
572.57	362.78
572.74	461.09
572.90	449.38
573.06	411.93
573.22	414.27
573.38	461.09
573.55	430.66
573.71	456.40
573.87	421.30
574.03	472.79
574.20	404.91
574.36	402.57
574.52	486.83
574.68	425.98
574.84	390.87
575.01	461.09
575.17	411.93
575.33	477.47
575.49	381.51
575.65	383.85
575.82	454.06
575.98	414.27
576.14	402.57
576.30	411.93
576.46	388.53
576.62	498.53
576.79	430.66
576.95	491.51
577.11	318.31
577.27	423.64
577.43	456.40
577.59	463.43
577.75	477.47
577.92	430.66
578.08	393.21
578.24	355.76
578.40	472.79
578.56	454.06
578.72	456.40
578.88	388.53
579.04	411.93
579.21	500.87
579.37	421.30
579.53	465.77
579.69	407.25
579.85	388.53
580.01	425.98
580.17	404.91
580.33	440.02
580.49	482.15
580.65	421.30
580.82	409.59
580.98	428.32
581.14	386.19
581.30	409.59
581.46	451.72
581.62	404.91
581.78	440.02
581.94	362.78
582.10	414.27
582.26	404.91
582.42	404.91
582.58	437.68
582.74	358.10
582.90	433.00
583.06	395.55
583.22	369.80
583.38	465.77
583.54	437.68
583.70	440.02
583.86	493.85
584.02	411.93
584.18	433.00
584.34	407.25
584.50	414.27
584.66	479.81
584.82	388.53
584.98	442.36
585.14	367.46
585.30	379.17
585.46	435.34
585.62	463.43
585.78	425.98
585.94	414.27
586.10	402.57
586.26	386.19
586.42	484.49
586.58	404.91
586.74	414.27
586.90	456.40
587.06	418.96
587.22	400.23
587.38	346.40
587.54	358.10
587.70	407.25
587.86	421.30
588.02	369.80
588.18	493.85
588.34	433.00
588.49	456.40
588.65	465.77
588.81	423.64
588.97	402.57
589.13	414.27
589.29	428.32
589.45	458.74
589.61	397.89
589.77	411.93
589.93	383.85
590.08	430.66
590.24	440.02
590.40	451.72
590.56	463.43
590.72	437.68
590.88	400.23
591.04	454.06
591.20	463.43
591.35	418.96
591.51	390.87
591.67	325.33
591.83	332.36
591.99	423.64
592.15	397.89
592.31	444.70
592.46	400.23
592.62	423.64
592.78	351.08
592.94	381.51
593.10	379.17
593.26	362.78
593.41	358.10
593.57	383.85
593.73	451.72
593.89	390.87
594.05	379.17
594.20	390.87
594.36	463.43
594.52	442.36
594.68	468.11
594.84	433.00
594.99	449.38
595.15	404.91
595.31	461.09
595.47	404.91
595.62	341.72
595.78	435.34
595.94	449.38
596.10	395.55
596.25	374.49
596.41	428.32
596.57	409.59
596.73	383.85
596.88	454.06
597.04	365.12
597.20	416.62
597.36	376.83
597.51	390.87
597.67	365.12
597.83	451.72
597.99	414.27
598.14	404.91
598.30	484.49
598.46	411.93
598.61	482.15
598.77	451.72
598.93	348.74
599.09	355.76
599.24	367.46
599.40	465.77
599.56	341.72
599.71	411.93
599.87	447.04
600.03	451.72
600.18	402.57
600.34	416.62
600.50	421.30
600.65	367.46
600.81	433.00
600.97	348.74
601.12	442.36
601.28	386.19
601.44	402.57
601.59	372.15
601.75	472.79
601.91	461.09
602.06	388.53
602.22	514.92
602.37	411.93
602.53	423.64
602.69	414.27
602.84	496.19
603.00	414.27
603.16	351.08
603.31	383.85
603.47	376.83
603.62	447.04
603.78	353.42
603.94	416.62
604.09	444.70
604.25	449.38
604.40	449.38
604.56	454.06
604.71	369.80
604.87	444.70
605.03	435.34
605.18	540.66
605.34	440.02
605.49	428.32
605.65	374.49
605.80	376.83
605.96	430.66
606.12	327.68
606.27	435.34
606.43	407.25
606.58	461.09
606.74	437.68
606.89	433.00
607.05	475.13
607.20	388.53
607.36	411.93
607.51	397.89
607.67	362.78
607.82	472.79
607.98	404.91
608.13	414.27
608.29	458.74
608.44	454.06
608.60	437.68
608.75	498.53
608.91	404.91
609.06	440.02
609.22	500.87
609.37	454.06
609.53	421.30
609.68	458.74
609.84	355.76
609.99	461.09
610.15	421.30
