SpectraSuite Data File
++++++++++++++++++++++++++++++++++++
Date: Fri Oct 25 12:11:16 EDT 2013
User: price-jones
Dark Spectrum Present: No
Reference Spectrum Present: No
Number of Sampled Component Spectra: 1
Spectrometers: USB2+H05261
Integration Time (usec): 100000 (USB2+H05261)
Spectra Averaged: 1 (USB2+H05261)
Boxcar Smoothing: 0 (USB2+H05261)
Correct for Electrical Dark: No (USB2+H05261)
Strobe/Lamp Enabled: No (USB2+H05261)
Correct for Detector Non-linearity: No (USB2+H05261)
Correct for Stray Light: No (USB2+H05261)
Number of Pixels in Processed Spectrum: 2048
>>>>>Begin Processed Spectral Data<<<<<
365.73	337.04
365.92	337.04
366.12	337.04
366.32	238.73
366.52	283.20
366.72	299.59
366.91	229.37
367.11	264.48
367.31	217.67
367.51	269.16
367.70	280.86
367.90	243.42
368.10	271.50
368.30	203.63
368.49	161.50
368.69	320.65
368.89	264.48
369.09	208.31
369.28	264.48
369.48	257.46
369.68	318.31
369.87	280.86
370.07	276.18
370.27	365.12
370.47	360.44
370.66	344.06
370.86	346.40
371.06	304.27
371.25	400.23
371.45	367.46
371.65	414.27
371.84	348.74
372.04	428.32
372.24	358.10
372.44	416.62
372.63	393.21
372.83	444.70
373.03	414.27
373.22	376.83
373.42	365.12
373.62	393.21
373.81	451.72
374.01	442.36
374.21	465.77
374.40	355.76
374.60	409.59
374.79	430.66
374.99	400.23
375.19	411.93
375.38	486.83
375.58	442.36
375.78	433.00
375.97	428.32
376.17	397.89
376.37	379.17
376.56	430.66
376.76	423.64
376.95	390.87
377.15	395.55
377.35	435.34
377.54	458.74
377.74	322.99
377.93	425.98
378.13	444.70
378.33	365.12
378.52	386.19
378.72	451.72
378.91	442.36
379.11	374.49
379.31	440.02
379.50	397.89
379.70	411.93
379.89	454.06
380.09	449.38
380.28	376.83
380.48	416.62
380.68	411.93
380.87	365.12
381.07	407.25
381.26	383.85
381.46	402.57
381.65	430.66
381.85	393.21
382.04	404.91
382.24	407.25
382.43	411.93
382.63	393.21
382.83	440.02
383.02	416.62
383.22	472.79
383.41	402.57
383.61	395.55
383.80	444.70
384.00	456.40
384.19	423.64
384.39	369.80
384.58	341.72
384.78	470.45
384.97	402.57
385.17	381.51
385.36	425.98
385.56	386.19
385.75	376.83
385.95	409.59
386.14	407.25
386.34	418.96
386.53	411.93
386.72	416.62
386.92	435.34
387.11	376.83
387.31	449.38
387.50	395.55
387.70	411.93
387.89	393.21
388.09	376.83
388.28	411.93
388.48	447.04
388.67	393.21
388.86	367.46
389.06	372.15
389.25	430.66
389.45	425.98
389.64	397.89
389.84	411.93
390.03	421.30
390.22	386.19
390.42	456.40
390.61	447.04
390.81	337.04
391.00	372.15
391.19	383.85
391.39	376.83
391.58	416.62
391.78	407.25
391.97	400.23
392.16	313.63
392.36	372.15
392.55	463.43
392.75	397.89
392.94	411.93
393.13	402.57
393.33	388.53
393.52	388.53
393.71	447.04
393.91	421.30
394.10	348.74
394.29	414.27
394.49	440.02
394.68	358.10
394.88	376.83
395.07	472.79
395.26	428.32
395.46	491.51
395.65	461.09
395.84	402.57
396.04	475.13
396.23	400.23
396.42	400.23
396.62	346.40
396.81	360.44
397.00	365.12
397.19	397.89
397.39	365.12
397.58	386.19
397.77	395.55
397.97	458.74
398.16	376.83
398.35	400.23
398.55	421.30
398.74	367.46
398.93	430.66
399.12	409.59
399.32	395.55
399.51	451.72
399.70	449.38
399.90	440.02
400.09	449.38
400.28	463.43
400.47	379.17
400.67	468.11
400.86	458.74
401.05	423.64
401.24	489.17
401.44	395.55
401.63	449.38
401.82	414.27
402.01	362.78
402.21	383.85
402.40	388.53
402.59	351.08
402.78	397.89
402.97	454.06
403.17	425.98
403.36	500.87
403.55	381.51
403.74	393.21
403.93	397.89
404.13	365.12
404.32	379.17
404.51	475.13
404.70	411.93
404.89	388.53
405.09	430.66
405.28	461.09
405.47	430.66
405.66	414.27
405.85	409.59
406.05	374.49
406.24	442.36
406.43	423.64
406.62	470.45
406.81	472.79
407.00	348.74
407.20	369.80
407.39	486.83
407.58	407.25
407.77	458.74
407.96	430.66
408.15	409.59
408.34	397.89
408.54	428.32
408.73	451.72
408.92	383.85
409.11	491.51
409.30	447.04
409.49	369.80
409.68	409.59
409.87	400.23
410.07	351.08
410.26	341.72
410.45	362.78
410.64	404.91
410.83	442.36
411.02	428.32
411.21	348.74
411.40	442.36
411.59	390.87
411.78	379.17
411.98	418.96
412.17	472.79
412.36	407.25
412.55	360.44
412.74	381.51
412.93	404.91
413.12	440.02
413.31	421.30
413.50	449.38
413.69	402.57
413.88	390.87
414.07	402.57
414.26	379.17
414.45	381.51
414.64	351.08
414.83	395.55
415.02	397.89
415.22	430.66
415.41	409.59
415.60	388.53
415.79	344.06
415.98	402.57
416.17	383.85
416.36	440.02
416.55	372.15
416.74	404.91
416.93	397.89
417.12	379.17
417.31	353.42
417.50	454.06
417.69	365.12
417.88	374.49
418.07	353.42
418.26	402.57
418.45	369.80
418.64	470.45
418.83	376.83
419.02	435.34
419.21	447.04
419.39	402.57
419.58	386.19
419.77	397.89
419.96	435.34
420.15	463.43
420.34	397.89
420.53	444.70
420.72	475.13
420.91	374.49
421.10	418.96
421.29	409.59
421.48	372.15
421.67	393.21
421.86	423.64
422.05	451.72
422.24	437.68
422.43	423.64
422.61	416.62
422.80	395.55
422.99	351.08
423.18	423.64
423.37	449.38
423.56	454.06
423.75	433.00
423.94	379.17
424.13	411.93
424.32	489.17
424.50	421.30
424.69	351.08
424.88	449.38
425.07	423.64
425.26	383.85
425.45	454.06
425.64	376.83
425.83	449.38
426.01	493.85
426.20	362.78
426.39	409.59
426.58	355.76
426.77	463.43
426.96	503.22
427.15	461.09
427.33	404.91
427.52	428.32
427.71	454.06
427.90	418.96
428.09	458.74
428.28	367.46
428.46	369.80
428.65	414.27
428.84	390.87
429.03	475.13
429.22	411.93
429.40	418.96
429.59	409.59
429.78	383.85
429.97	421.30
430.16	421.30
430.34	374.49
430.53	447.04
430.72	339.38
430.91	404.91
431.10	449.38
431.28	437.68
431.47	428.32
431.66	402.57
431.85	425.98
432.03	449.38
432.22	484.49
432.41	437.68
432.60	437.68
432.79	409.59
432.97	374.49
433.16	430.66
433.35	442.36
433.54	442.36
433.72	416.62
433.91	416.62
434.10	421.30
434.28	376.83
434.47	397.89
434.66	430.66
434.85	367.46
435.03	465.77
435.22	421.30
435.41	484.49
435.59	421.30
435.78	409.59
435.97	414.27
436.16	423.64
436.34	414.27
436.53	503.22
436.72	435.34
436.90	388.53
437.09	402.57
437.28	447.04
437.46	369.80
437.65	400.23
437.84	339.38
438.02	365.12
438.21	440.02
438.40	409.59
438.58	397.89
438.77	414.27
438.96	482.15
439.14	437.68
439.33	393.21
439.52	416.62
439.70	395.55
439.89	437.68
440.08	374.49
440.26	404.91
440.45	503.22
440.63	421.30
440.82	470.45
441.01	470.45
441.19	367.46
441.38	388.53
441.57	397.89
441.75	447.04
441.94	395.55
442.12	376.83
442.31	355.76
442.50	407.25
442.68	416.62
442.87	433.00
443.05	395.55
443.24	491.51
443.43	440.02
443.61	369.80
443.80	421.30
443.98	376.83
444.17	383.85
444.35	442.36
444.54	365.12
444.73	430.66
444.91	517.26
445.10	393.21
445.28	440.02
445.47	369.80
445.65	393.21
445.84	369.80
446.02	348.74
446.21	402.57
446.39	409.59
446.58	362.78
446.77	414.27
446.95	425.98
447.14	421.30
447.32	423.64
447.51	423.64
447.69	393.21
447.88	428.32
448.06	404.91
448.25	449.38
448.43	447.04
448.62	430.66
448.80	418.96
448.99	372.15
449.17	458.74
449.36	414.27
449.54	409.59
449.73	437.68
449.91	461.09
450.10	430.66
450.28	435.34
450.46	456.40
450.65	437.68
450.83	484.49
451.02	386.19
451.20	355.76
451.39	395.55
451.57	465.77
451.76	470.45
451.94	451.72
452.13	444.70
452.31	409.59
452.49	376.83
452.68	393.21
452.86	372.15
453.05	442.36
453.23	465.77
453.42	407.25
453.60	414.27
453.78	409.59
453.97	435.34
454.15	402.57
454.34	388.53
454.52	444.70
454.70	402.57
454.89	374.49
455.07	383.85
455.26	477.47
455.44	482.15
455.62	407.25
455.81	416.62
455.99	421.30
456.17	367.46
456.36	397.89
456.54	325.33
456.73	395.55
456.91	400.23
457.09	381.51
457.28	454.06
457.46	369.80
457.64	402.57
457.83	365.12
458.01	374.49
458.19	428.32
458.38	430.66
458.56	433.00
458.74	355.76
458.93	306.61
459.11	468.11
459.29	486.83
459.48	451.72
459.66	411.93
459.84	376.83
460.03	418.96
460.21	423.64
460.39	360.44
460.57	454.06
460.76	451.72
460.94	400.23
461.12	482.15
461.31	433.00
461.49	440.02
461.67	454.06
461.85	423.64
462.04	416.62
462.22	746.63
462.40	404.91
462.59	388.53
462.77	388.53
462.95	454.06
463.13	386.19
463.32	440.02
463.50	465.77
463.68	409.59
463.86	414.27
464.05	468.11
464.23	383.85
464.41	369.80
464.59	379.17
464.78	414.27
464.96	449.38
465.14	435.34
465.32	407.25
465.50	376.83
465.69	379.17
465.87	423.64
466.05	447.04
466.23	374.49
466.41	423.64
466.60	423.64
466.78	418.96
466.96	400.23
467.14	451.72
467.32	470.45
467.51	418.96
467.69	416.62
467.87	437.68
468.05	442.36
468.23	484.49
468.41	444.70
468.60	447.04
468.78	414.27
468.96	472.79
469.14	461.09
469.32	433.00
469.50	374.49
469.69	414.27
469.87	447.04
470.05	416.62
470.23	416.62
470.41	425.98
470.59	360.44
470.77	402.57
470.95	425.98
471.14	442.36
471.32	360.44
471.50	397.89
471.68	393.21
471.86	472.79
472.04	365.12
472.22	430.66
472.40	442.36
472.58	358.10
472.77	393.21
472.95	437.68
473.13	425.98
473.31	409.59
473.49	388.53
473.67	372.15
473.85	489.17
474.03	414.27
474.21	449.38
474.39	374.49
474.57	414.27
474.75	433.00
474.93	447.04
475.12	383.85
475.30	442.36
475.48	386.19
475.66	416.62
475.84	344.06
476.02	367.46
476.20	421.30
476.38	425.98
476.56	503.22
476.74	404.91
476.92	440.02
477.10	348.74
477.28	346.40
477.46	339.38
477.64	362.78
477.82	365.12
478.00	372.15
478.18	404.91
478.36	440.02
478.54	428.32
478.72	407.25
478.90	411.93
479.08	458.74
479.26	470.45
479.44	383.85
479.62	351.08
479.80	379.17
479.98	388.53
480.16	500.87
480.34	440.02
480.52	447.04
480.70	468.11
480.88	367.46
481.06	372.15
481.24	409.59
481.41	360.44
481.59	372.15
481.77	435.34
481.95	404.91
482.13	496.19
482.31	463.43
482.49	332.36
482.67	433.00
482.85	433.00
483.03	454.06
483.21	444.70
483.39	416.62
483.57	393.21
483.74	486.83
483.92	423.64
484.10	367.46
484.28	465.77
484.46	449.38
484.64	411.93
484.82	414.27
485.00	482.15
485.18	416.62
485.35	416.62
485.53	362.78
485.71	447.04
485.89	379.17
486.07	400.23
486.25	461.09
486.43	491.51
486.61	505.56
486.78	433.00
486.96	440.02
487.14	383.85
487.32	447.04
487.50	444.70
487.68	442.36
487.85	390.87
488.03	386.19
488.21	376.83
488.39	461.09
488.57	456.40
488.75	383.85
488.92	514.92
489.10	418.96
489.28	484.49
489.46	367.46
489.64	435.34
489.81	461.09
489.99	440.02
490.17	411.93
490.35	468.11
490.53	414.27
490.70	397.89
490.88	351.08
491.06	351.08
491.24	430.66
491.41	402.57
491.59	500.87
491.77	402.57
491.95	337.04
492.13	395.55
492.30	430.66
492.48	411.93
492.66	348.74
492.84	400.23
493.01	404.91
493.19	390.87
493.37	402.57
493.54	440.02
493.72	407.25
493.90	402.57
494.08	386.19
494.25	402.57
494.43	407.25
494.61	388.53
494.79	449.38
494.96	376.83
495.14	442.36
495.32	451.72
495.49	440.02
495.67	433.00
495.85	407.25
496.02	407.25
496.20	416.62
496.38	437.68
496.55	421.30
496.73	433.00
496.91	390.87
497.09	435.34
497.26	475.13
497.44	451.72
497.62	449.38
497.79	369.80
497.97	395.55
498.14	386.19
498.32	404.91
498.50	374.49
498.67	411.93
498.85	407.25
499.03	381.51
499.20	369.80
499.38	393.21
499.56	484.49
499.73	503.22
499.91	428.32
500.08	454.06
500.26	430.66
500.44	421.30
500.61	400.23
500.79	397.89
500.97	444.70
501.14	433.00
501.32	407.25
501.49	421.30
501.67	374.49
501.84	444.70
502.02	435.34
502.20	458.74
502.37	395.55
502.55	463.43
502.72	442.36
502.90	404.91
503.07	369.80
503.25	404.91
503.43	339.38
503.60	355.76
503.78	388.53
503.95	411.93
504.13	362.78
504.30	428.32
504.48	430.66
504.65	463.43
504.83	484.49
505.01	346.40
505.18	444.70
505.36	388.53
505.53	322.99
505.71	397.89
505.88	489.17
506.06	320.65
506.23	491.51
506.41	369.80
506.58	437.68
506.76	498.53
506.93	365.12
507.11	414.27
507.28	332.36
507.46	468.11
507.63	367.46
507.81	470.45
507.98	437.68
508.16	440.02
508.33	442.36
508.50	369.80
508.68	372.15
508.85	397.89
509.03	383.85
509.20	386.19
509.38	407.25
509.55	456.40
509.73	381.51
509.90	433.00
510.08	369.80
510.25	442.36
510.42	472.79
510.60	472.79
510.77	423.64
510.95	418.96
511.12	383.85
511.30	421.30
511.47	388.53
511.64	400.23
511.82	404.91
511.99	402.57
512.17	440.02
512.34	430.66
512.51	365.12
512.69	435.34
512.86	465.77
513.04	374.49
513.21	461.09
513.38	416.62
513.56	374.49
513.73	383.85
513.90	409.59
514.08	423.64
514.25	500.87
514.43	411.93
514.60	400.23
514.77	437.68
514.95	456.40
515.12	489.17
515.29	423.64
515.47	404.91
515.64	402.57
515.81	493.85
515.99	411.93
516.16	348.74
516.33	472.79
516.51	456.40
516.68	355.76
516.85	449.38
517.03	430.66
517.20	416.62
517.37	388.53
517.54	451.72
517.72	409.59
517.89	381.51
518.06	365.12
518.24	409.59
518.41	440.02
518.58	355.76
518.75	430.66
518.93	379.17
519.10	355.76
519.27	407.25
519.45	376.83
519.62	430.66
519.79	423.64
519.96	435.34
520.14	416.62
520.31	454.06
520.48	346.40
520.65	451.72
520.83	409.59
521.00	423.64
521.17	486.83
521.34	463.43
521.52	409.59
521.69	458.74
521.86	388.53
522.03	414.27
522.20	482.15
522.38	428.32
522.55	454.06
522.72	390.87
522.89	395.55
523.07	416.62
523.24	388.53
523.41	346.40
523.58	479.81
523.75	397.89
523.92	461.09
524.10	444.70
524.27	407.25
524.44	402.57
524.61	454.06
524.78	442.36
524.96	407.25
525.13	444.70
525.30	388.53
525.47	428.32
525.64	486.83
525.81	379.17
525.98	353.42
526.16	451.72
526.33	337.04
526.50	435.34
526.67	454.06
526.84	414.27
527.01	416.62
527.18	458.74
527.36	376.83
527.53	449.38
527.70	435.34
527.87	388.53
528.04	477.47
528.21	379.17
528.38	411.93
528.55	411.93
528.72	397.89
528.89	484.49
529.07	409.59
529.24	416.62
529.41	444.70
529.58	458.74
529.75	433.00
529.92	397.89
530.09	418.96
530.26	447.04
530.43	428.32
530.60	381.51
530.77	500.87
530.94	475.13
531.11	407.25
531.28	360.44
531.46	395.55
531.63	381.51
531.80	365.12
531.97	444.70
532.14	428.32
532.31	437.68
532.48	400.23
532.65	468.11
532.82	393.21
532.99	407.25
533.16	423.64
533.33	395.55
533.50	444.70
533.67	369.80
533.84	416.62
534.01	407.25
534.18	407.25
534.35	395.55
534.52	379.17
534.69	498.53
534.86	367.46
535.03	482.15
535.20	435.34
535.37	449.38
535.54	421.30
535.71	472.79
535.88	374.49
536.05	430.66
536.22	402.57
536.38	365.12
536.55	437.68
536.72	416.62
536.89	447.04
537.06	435.34
537.23	381.51
537.40	423.64
537.57	423.64
537.74	489.17
537.91	414.27
538.08	428.32
538.25	444.70
538.42	418.96
538.59	402.57
538.75	369.80
538.92	421.30
539.09	374.49
539.26	454.06
539.43	393.21
539.60	407.25
539.77	388.53
539.94	367.46
540.11	449.38
540.28	402.57
540.44	500.87
540.61	435.34
540.78	491.51
540.95	477.47
541.12	447.04
541.29	493.85
541.46	351.08
541.62	489.17
541.79	423.64
541.96	409.59
542.13	402.57
542.30	442.36
542.47	479.81
542.63	484.49
542.80	414.27
542.97	348.74
543.14	451.72
543.31	449.38
543.48	465.77
543.64	463.43
543.81	386.19
543.98	440.02
544.15	388.53
544.32	409.59
544.48	397.89
544.65	440.02
544.82	425.98
544.99	404.91
545.16	468.11
545.32	372.15
545.49	444.70
545.66	400.23
545.83	416.62
546.00	416.62
546.16	360.44
546.33	517.26
546.50	369.80
546.67	393.21
546.83	444.70
547.00	416.62
547.17	411.93
547.34	451.72
547.50	514.92
547.67	486.83
547.84	489.17
548.00	440.02
548.17	442.36
548.34	418.96
548.51	393.21
548.67	388.53
548.84	416.62
549.01	395.55
549.18	411.93
549.34	400.23
549.51	437.68
549.68	372.15
549.84	411.93
550.01	390.87
550.18	440.02
550.34	456.40
550.51	397.89
550.68	442.36
550.84	442.36
551.01	411.93
551.18	444.70
551.34	381.51
551.51	397.89
551.68	503.22
551.84	411.93
552.01	379.17
552.18	463.43
552.34	402.57
552.51	388.53
552.68	486.83
552.84	376.83
553.01	421.30
553.18	447.04
553.34	372.15
553.51	325.33
553.67	400.23
553.84	468.11
554.01	428.32
554.17	372.15
554.34	397.89
554.51	407.25
554.67	379.17
554.84	397.89
555.00	486.83
555.17	379.17
555.33	468.11
555.50	400.23
555.67	407.25
555.83	346.40
556.00	388.53
556.16	524.28
556.33	414.27
556.50	376.83
556.66	482.15
556.83	388.53
556.99	409.59
557.16	430.66
557.32	404.91
557.49	367.46
557.65	381.51
557.82	388.53
557.98	447.04
558.15	435.34
558.32	407.25
558.48	454.06
558.65	402.57
558.81	376.83
558.98	395.55
559.14	444.70
559.31	437.68
559.47	395.55
559.64	423.64
559.80	386.19
559.97	411.93
560.13	435.34
560.30	454.06
560.46	383.85
560.63	435.34
560.79	407.25
560.96	442.36
561.12	449.38
561.29	418.96
561.45	454.06
561.61	442.36
561.78	470.45
561.94	428.32
562.11	400.23
562.27	428.32
562.44	444.70
562.60	390.87
562.77	421.30
562.93	545.34
563.10	414.27
563.26	379.17
563.42	369.80
563.59	418.96
563.75	397.89
563.92	440.02
564.08	437.68
564.24	447.04
564.41	482.15
564.57	374.49
564.74	381.51
564.90	421.30
565.07	400.23
565.23	447.04
565.39	372.15
565.56	454.06
565.72	315.97
565.88	482.15
566.05	514.92
566.21	339.38
566.38	430.66
566.54	348.74
566.70	341.72
566.87	386.19
567.03	451.72
567.19	348.74
567.36	456.40
567.52	435.34
567.68	428.32
567.85	395.55
568.01	402.57
568.17	423.64
568.34	461.09
568.50	449.38
568.66	425.98
568.83	470.45
568.99	447.04
569.15	433.00
569.32	414.27
569.48	458.74
569.64	454.06
569.81	418.96
569.97	367.46
570.13	414.27
570.30	367.46
570.46	444.70
570.62	425.98
570.78	379.17
570.95	395.55
571.11	449.38
571.27	447.04
571.43	416.62
571.60	369.80
571.76	414.27
571.92	390.87
572.09	437.68
572.25	393.21
572.41	390.87
572.57	414.27
572.74	491.51
572.90	411.93
573.06	456.40
573.22	388.53
573.38	369.80
573.55	400.23
573.71	386.19
573.87	440.02
574.03	400.23
574.20	421.30
574.36	472.79
574.52	486.83
574.68	421.30
574.84	477.47
575.01	435.34
575.17	409.59
575.33	402.57
575.49	383.85
575.65	456.40
575.82	449.38
575.98	386.19
576.14	390.87
576.30	388.53
576.46	395.55
576.62	479.81
576.79	465.77
576.95	440.02
577.11	411.93
577.27	360.44
577.43	400.23
577.59	367.46
577.75	393.21
577.92	444.70
578.08	409.59
578.24	348.74
578.40	517.26
578.56	400.23
578.72	433.00
578.88	395.55
579.04	353.42
579.21	440.02
579.37	404.91
579.53	379.17
579.69	526.62
579.85	435.34
580.01	351.08
580.17	393.21
580.33	458.74
580.49	402.57
580.65	423.64
580.82	418.96
580.98	440.02
581.14	433.00
581.30	407.25
581.46	430.66
581.62	386.19
581.78	430.66
581.94	428.32
582.10	437.68
582.26	444.70
582.42	379.17
582.58	388.53
582.74	425.98
582.90	404.91
583.06	421.30
583.22	435.34
583.38	416.62
583.54	463.43
583.70	477.47
583.86	407.25
584.02	369.80
584.18	421.30
584.34	440.02
584.50	435.34
584.66	386.19
584.82	451.72
584.98	428.32
585.14	344.06
585.30	344.06
585.46	414.27
585.62	353.42
585.78	411.93
585.94	393.21
586.10	442.36
586.26	456.40
586.42	458.74
586.58	444.70
586.74	388.53
586.90	404.91
587.06	395.55
587.22	470.45
587.38	365.12
587.54	416.62
587.70	404.91
587.86	372.15
588.02	402.57
588.18	421.30
588.34	374.49
588.49	461.09
588.65	440.02
588.81	390.87
588.97	435.34
589.13	447.04
589.29	472.79
589.45	388.53
589.61	374.49
589.77	428.32
589.93	379.17
590.08	475.13
590.24	330.02
590.40	435.34
590.56	425.98
590.72	449.38
590.88	367.46
591.04	435.34
591.20	386.19
591.35	435.34
591.51	454.06
591.67	397.89
591.83	393.21
591.99	425.98
592.15	461.09
592.31	447.04
592.46	365.12
592.62	451.72
592.78	369.80
592.94	414.27
593.10	411.93
593.26	353.42
593.41	458.74
593.57	409.59
593.73	454.06
593.89	461.09
594.05	447.04
594.20	358.10
594.36	425.98
594.52	545.34
594.68	447.04
594.84	407.25
594.99	430.66
595.15	400.23
595.31	465.77
595.47	435.34
595.62	437.68
595.78	397.89
595.94	400.23
596.10	397.89
596.25	402.57
596.41	423.64
596.57	411.93
596.73	425.98
596.88	390.87
597.04	491.51
597.20	383.85
597.36	418.96
597.51	400.23
597.67	421.30
597.83	397.89
597.99	381.51
598.14	437.68
598.30	470.45
598.46	407.25
598.61	449.38
598.77	484.49
598.93	390.87
599.09	374.49
599.24	430.66
599.40	442.36
599.56	376.83
599.71	386.19
599.87	454.06
600.03	369.80
600.18	404.91
600.34	430.66
600.50	430.66
600.65	454.06
600.81	433.00
600.97	411.93
601.12	404.91
601.28	433.00
601.44	482.15
601.59	416.62
601.75	390.87
601.91	348.74
602.06	353.42
602.22	437.68
602.37	430.66
602.53	390.87
602.69	463.43
602.84	414.27
603.00	411.93
603.16	421.30
603.31	376.83
603.47	395.55
603.62	353.42
603.78	433.00
603.94	381.51
604.09	379.17
604.25	449.38
604.40	358.10
604.56	376.83
604.71	442.36
604.87	393.21
605.03	411.93
605.18	339.38
605.34	381.51
605.49	416.62
605.65	404.91
605.80	355.76
605.96	456.40
606.12	402.57
606.27	395.55
606.43	365.12
606.58	348.74
606.74	369.80
606.89	433.00
607.05	404.91
607.20	428.32
607.36	404.91
607.51	388.53
607.67	360.44
607.82	444.70
607.98	421.30
608.13	475.13
608.29	449.38
608.44	433.00
608.60	421.30
608.75	468.11
608.91	393.21
609.06	430.66
609.22	472.79
609.37	397.89
609.53	482.15
609.68	362.78
609.84	374.49
609.99	374.49
610.15	425.98
