SpectraSuite Data File
++++++++++++++++++++++++++++++++++++
Date: Fri Oct 25 12:10:08 EDT 2013
User: price-jones
Dark Spectrum Present: No
Reference Spectrum Present: No
Number of Sampled Component Spectra: 1
Spectrometers: USB2+H05261
Integration Time (usec): 100000 (USB2+H05261)
Spectra Averaged: 1 (USB2+H05261)
Boxcar Smoothing: 0 (USB2+H05261)
Correct for Electrical Dark: No (USB2+H05261)
Strobe/Lamp Enabled: No (USB2+H05261)
Correct for Detector Non-linearity: No (USB2+H05261)
Correct for Stray Light: No (USB2+H05261)
Number of Pixels in Processed Spectrum: 2048
>>>>>Begin Processed Spectral Data<<<<<
365.73	369.80
365.92	369.80
366.12	369.80
366.32	259.80
366.52	299.59
366.72	266.82
366.91	224.69
367.11	156.82
367.31	271.50
367.51	224.69
367.70	269.16
367.90	234.05
368.10	215.33
368.30	212.99
368.49	217.67
368.69	210.65
368.89	241.08
369.09	220.01
369.28	271.50
369.48	283.20
369.68	234.05
369.87	280.86
370.07	334.70
370.27	313.63
370.47	299.59
370.66	315.97
370.86	304.27
371.06	428.32
371.25	395.55
371.45	330.02
371.65	379.17
371.84	393.21
372.04	397.89
372.24	433.00
372.44	390.87
372.63	351.08
372.83	440.02
373.03	423.64
373.22	346.40
373.42	454.06
373.62	372.15
373.81	402.57
374.01	458.74
374.21	355.76
374.40	454.06
374.60	409.59
374.79	404.91
374.99	491.51
375.19	461.09
375.38	430.66
375.58	397.89
375.78	358.10
375.97	414.27
376.17	475.13
376.37	379.17
376.56	395.55
376.76	383.85
376.95	425.98
377.15	404.91
377.35	435.34
377.54	456.40
377.74	411.93
377.93	381.51
378.13	468.11
378.33	461.09
378.52	383.85
378.72	372.15
378.91	451.72
379.11	374.49
379.31	423.64
379.50	397.89
379.70	404.91
379.89	423.64
380.09	379.17
380.28	390.87
380.48	409.59
380.68	351.08
380.87	315.97
381.07	397.89
381.26	379.17
381.46	425.98
381.65	418.96
381.85	367.46
382.04	383.85
382.24	418.96
382.43	444.70
382.63	334.70
382.83	372.15
383.02	437.68
383.22	449.38
383.41	437.68
383.61	374.49
383.80	447.04
384.00	409.59
384.19	421.30
384.39	484.49
384.58	344.06
384.78	430.66
384.97	435.34
385.17	390.87
385.36	374.49
385.56	355.76
385.75	346.40
385.95	421.30
386.14	397.89
386.34	383.85
386.53	402.57
386.72	409.59
386.92	463.43
387.11	351.08
387.31	423.64
387.50	414.27
387.70	416.62
387.89	404.91
388.09	322.99
388.28	376.83
388.48	440.02
388.67	418.96
388.86	397.89
389.06	348.74
389.25	393.21
389.45	358.10
389.64	421.30
389.84	472.79
390.03	332.36
390.22	365.12
390.42	423.64
390.61	421.30
390.81	369.80
391.00	430.66
391.19	430.66
391.39	433.00
391.58	435.34
391.78	379.17
391.97	454.06
392.16	454.06
392.36	442.36
392.55	489.17
392.75	341.72
392.94	454.06
393.13	367.46
393.33	355.76
393.52	397.89
393.71	404.91
393.91	365.12
394.10	358.10
394.29	461.09
394.49	372.15
394.68	400.23
394.88	397.89
395.07	393.21
395.26	402.57
395.46	388.53
395.65	435.34
395.84	411.93
396.04	465.77
396.23	348.74
396.42	376.83
396.62	379.17
396.81	444.70
397.00	484.49
397.19	433.00
397.39	468.11
397.58	447.04
397.77	458.74
397.97	416.62
398.16	486.83
398.35	407.25
398.55	433.00
398.74	416.62
398.93	430.66
399.12	395.55
399.32	442.36
399.51	372.15
399.70	421.30
399.90	346.40
400.09	477.47
400.28	428.32
400.47	388.53
400.67	355.76
400.86	353.42
401.05	374.49
401.24	421.30
401.44	468.11
401.63	407.25
401.82	318.31
402.01	407.25
402.21	379.17
402.40	360.44
402.59	355.76
402.78	358.10
402.97	337.04
403.17	390.87
403.36	304.27
403.55	433.00
403.74	344.06
403.93	390.87
404.13	425.98
404.32	425.98
404.51	353.42
404.70	397.89
404.89	388.53
405.09	458.74
405.28	451.72
405.47	388.53
405.66	395.55
405.85	414.27
406.05	383.85
406.24	400.23
406.43	397.89
406.62	397.89
406.81	435.34
407.00	440.02
407.20	447.04
407.39	402.57
407.58	273.84
407.77	388.53
407.96	440.02
408.15	411.93
408.34	461.09
408.54	407.25
408.73	362.78
408.92	421.30
409.11	407.25
409.30	479.81
409.49	425.98
409.68	395.55
409.87	433.00
410.07	327.68
410.26	407.25
410.45	461.09
410.64	346.40
410.83	418.96
411.02	421.30
411.21	418.96
411.40	416.62
411.59	388.53
411.78	374.49
411.98	409.59
412.17	433.00
412.36	383.85
412.55	362.78
412.74	454.06
412.93	423.64
413.12	444.70
413.31	423.64
413.50	402.57
413.69	411.93
413.88	486.83
414.07	407.25
414.26	433.00
414.45	388.53
414.64	386.19
414.83	425.98
415.02	376.83
415.22	435.34
415.41	409.59
415.60	334.70
415.79	421.30
415.98	440.02
416.17	400.23
416.36	393.21
416.55	301.93
416.74	386.19
416.93	423.64
417.12	465.77
417.31	400.23
417.50	451.72
417.69	444.70
417.88	400.23
418.07	390.87
418.26	425.98
418.45	395.55
418.64	463.43
418.83	383.85
419.02	362.78
419.21	400.23
419.39	353.42
419.58	386.19
419.77	348.74
419.96	414.27
420.15	472.79
420.34	519.60
420.53	416.62
420.72	451.72
420.91	451.72
421.10	447.04
421.29	404.91
421.48	425.98
421.67	404.91
421.86	369.80
422.05	374.49
422.24	369.80
422.43	454.06
422.61	409.59
422.80	437.68
422.99	397.89
423.18	428.32
423.37	379.17
423.56	416.62
423.75	428.32
423.94	404.91
424.13	386.19
424.32	292.57
424.50	397.89
424.69	418.96
424.88	503.22
425.07	369.80
425.26	423.64
425.45	423.64
425.64	386.19
425.83	409.59
426.01	435.34
426.20	386.19
426.39	444.70
426.58	346.40
426.77	390.87
426.96	393.21
427.15	395.55
427.33	418.96
427.52	386.19
427.71	514.92
427.90	418.96
428.09	407.25
428.28	362.78
428.46	414.27
428.65	442.36
428.84	381.51
429.03	400.23
429.22	416.62
429.40	421.30
429.59	423.64
429.78	423.64
429.97	404.91
430.16	404.91
430.34	402.57
430.53	362.78
430.72	442.36
430.91	404.91
431.10	444.70
431.28	402.57
431.47	463.43
431.66	472.79
431.85	376.83
432.03	411.93
432.22	433.00
432.41	402.57
432.60	449.38
432.79	414.27
432.97	458.74
433.16	472.79
433.35	337.04
433.54	383.85
433.72	397.89
433.91	416.62
434.10	400.23
434.28	482.15
434.47	428.32
434.66	465.77
434.85	430.66
435.03	423.64
435.22	416.62
435.41	411.93
435.59	402.57
435.78	418.96
435.97	437.68
436.16	409.59
436.34	397.89
436.53	304.27
436.72	468.11
436.90	390.87
437.09	388.53
437.28	381.51
437.46	411.93
437.65	468.11
437.84	402.57
438.02	402.57
438.21	440.02
438.40	325.33
438.58	393.21
438.77	383.85
438.96	383.85
439.14	444.70
439.33	409.59
439.52	440.02
439.70	435.34
439.89	407.25
440.08	416.62
440.26	400.23
440.45	430.66
440.63	376.83
440.82	472.79
441.01	386.19
441.19	390.87
441.38	376.83
441.57	421.30
441.75	411.93
441.94	407.25
442.12	475.13
442.31	381.51
442.50	376.83
442.68	421.30
442.87	360.44
443.05	372.15
443.24	376.83
443.43	388.53
443.61	456.40
443.80	393.21
443.98	407.25
444.17	472.79
444.35	400.23
444.54	376.83
444.73	395.55
444.91	433.00
445.10	404.91
445.28	339.38
445.47	372.15
445.65	344.06
445.84	400.23
446.02	482.15
446.21	423.64
446.39	376.83
446.58	470.45
446.77	418.96
446.95	416.62
447.14	393.21
447.32	479.81
447.51	435.34
447.69	468.11
447.88	402.57
448.06	444.70
448.25	407.25
448.43	463.43
448.62	367.46
448.80	423.64
448.99	444.70
449.17	407.25
449.36	393.21
449.54	383.85
449.73	456.40
449.91	482.15
450.10	367.46
450.28	430.66
450.46	465.77
450.65	390.87
450.83	374.49
451.02	386.19
451.20	376.83
451.39	435.34
451.57	451.72
451.76	334.70
451.94	416.62
452.13	465.77
452.31	428.32
452.49	458.74
452.68	430.66
452.86	430.66
453.05	407.25
453.23	397.89
453.42	477.47
453.60	430.66
453.78	395.55
453.97	444.70
454.15	421.30
454.34	381.51
454.52	407.25
454.70	414.27
454.89	477.47
455.07	393.21
455.26	505.56
455.44	433.00
455.62	435.34
455.81	425.98
455.99	404.91
456.17	461.09
456.36	496.19
456.54	477.47
456.73	430.66
456.91	379.17
457.09	428.32
457.28	367.46
457.46	362.78
457.64	383.85
457.83	400.23
458.01	400.23
458.19	388.53
458.38	393.21
458.56	367.46
458.74	374.49
458.93	355.76
459.11	500.87
459.29	358.10
459.48	444.70
459.66	428.32
459.84	411.93
460.03	489.17
460.21	395.55
460.39	409.59
460.57	458.74
460.76	301.93
460.94	379.17
461.12	461.09
461.31	425.98
461.49	416.62
461.67	358.10
461.85	449.38
462.04	407.25
462.22	720.88
462.40	440.02
462.59	365.12
462.77	355.76
462.95	409.59
463.13	409.59
463.32	458.74
463.50	425.98
463.68	491.51
463.86	430.66
464.05	395.55
464.23	425.98
464.41	376.83
464.59	433.00
464.78	397.89
464.96	435.34
465.14	449.38
465.32	430.66
465.50	365.12
465.69	411.93
465.87	381.51
466.05	418.96
466.23	404.91
466.41	404.91
466.60	451.72
466.78	447.04
466.96	416.62
467.14	437.68
467.32	388.53
467.51	430.66
467.69	507.90
467.87	477.47
468.05	411.93
468.23	503.22
468.41	404.91
468.60	369.80
468.78	475.13
468.96	407.25
469.14	367.46
469.32	404.91
469.50	409.59
469.69	435.34
469.87	407.25
470.05	388.53
470.23	449.38
470.41	334.70
470.59	402.57
470.77	362.78
470.95	477.47
471.14	390.87
471.32	409.59
471.50	451.72
471.68	442.36
471.86	369.80
472.04	435.34
472.22	344.06
472.40	369.80
472.58	407.25
472.77	433.00
472.95	425.98
473.13	442.36
473.31	404.91
473.49	512.58
473.67	365.12
473.85	402.57
474.03	482.15
474.21	486.83
474.39	421.30
474.57	512.58
474.75	390.87
474.93	447.04
475.12	437.68
475.30	379.17
475.48	407.25
475.66	358.10
475.84	369.80
476.02	395.55
476.20	390.87
476.38	379.17
476.56	533.64
476.74	472.79
476.92	444.70
477.10	442.36
477.28	461.09
477.46	367.46
477.64	416.62
477.82	414.27
478.00	449.38
478.18	365.12
478.36	430.66
478.54	322.99
478.72	442.36
478.90	423.64
479.08	435.34
479.26	425.98
479.44	360.44
479.62	360.44
479.80	404.91
479.98	404.91
480.16	372.15
480.34	428.32
480.52	470.45
480.70	451.72
480.88	379.17
481.06	454.06
481.24	409.59
481.41	404.91
481.59	418.96
481.77	428.32
481.95	433.00
482.13	454.06
482.31	505.56
482.49	451.72
482.67	404.91
482.85	451.72
483.03	451.72
483.21	433.00
483.39	376.83
483.57	315.97
483.74	437.68
483.92	388.53
484.10	437.68
484.28	383.85
484.46	435.34
484.64	416.62
484.82	421.30
485.00	400.23
485.18	402.57
485.35	447.04
485.53	491.51
485.71	458.74
485.89	390.87
486.07	451.72
486.25	477.47
486.43	461.09
486.61	447.04
486.78	381.51
486.96	456.40
487.14	386.19
487.32	409.59
487.50	428.32
487.68	425.98
487.85	397.89
488.03	411.93
488.21	433.00
488.39	449.38
488.57	444.70
488.75	383.85
488.92	461.09
489.10	449.38
489.28	533.64
489.46	454.06
489.64	397.89
489.81	465.77
489.99	404.91
490.17	407.25
490.35	491.51
490.53	442.36
490.70	421.30
490.88	372.15
491.06	390.87
491.24	376.83
491.41	411.93
491.59	470.45
491.77	416.62
491.95	414.27
492.13	393.21
492.30	404.91
492.48	402.57
492.66	360.44
492.84	421.30
493.01	409.59
493.19	376.83
493.37	423.64
493.54	388.53
493.72	379.17
493.90	346.40
494.08	390.87
494.25	362.78
494.43	440.02
494.61	402.57
494.79	433.00
494.96	435.34
495.14	489.17
495.32	372.15
495.49	433.00
495.67	491.51
495.85	418.96
496.02	386.19
496.20	367.46
496.38	374.49
496.55	444.70
496.73	390.87
496.91	386.19
497.09	433.00
497.26	407.25
497.44	440.02
497.62	390.87
497.79	418.96
497.97	386.19
498.14	470.45
498.32	411.93
498.50	416.62
498.67	472.79
498.85	341.72
499.03	379.17
499.20	404.91
499.38	353.42
499.56	365.12
499.73	404.91
499.91	376.83
500.08	414.27
500.26	372.15
500.44	395.55
500.61	365.12
500.79	346.40
500.97	369.80
501.14	447.04
501.32	423.64
501.49	449.38
501.67	437.68
501.84	414.27
502.02	369.80
502.20	411.93
502.37	355.76
502.55	355.76
502.72	421.30
502.90	444.70
503.07	381.51
503.25	440.02
503.43	404.91
503.60	362.78
503.78	449.38
503.95	344.06
504.13	409.59
504.30	393.21
504.48	437.68
504.65	440.02
504.83	477.47
505.01	402.57
505.18	423.64
505.36	411.93
505.53	395.55
505.71	440.02
505.88	418.96
506.06	407.25
506.23	449.38
506.41	470.45
506.58	348.74
506.76	433.00
506.93	325.33
507.11	416.62
507.28	505.56
507.46	425.98
507.63	367.46
507.81	423.64
507.98	407.25
508.16	414.27
508.33	386.19
508.50	365.12
508.68	416.62
508.85	416.62
509.03	428.32
509.20	449.38
509.38	367.46
509.55	418.96
509.73	498.53
509.90	411.93
510.08	458.74
510.25	428.32
510.42	418.96
510.60	442.36
510.77	414.27
510.95	393.21
511.12	468.11
511.30	395.55
511.47	423.64
511.64	454.06
511.82	428.32
511.99	444.70
512.17	442.36
512.34	411.93
512.51	430.66
512.69	404.91
512.86	404.91
513.04	400.23
513.21	369.80
513.38	351.08
513.56	421.30
513.73	451.72
513.90	395.55
514.08	423.64
514.25	407.25
514.43	411.93
514.60	442.36
514.77	414.27
514.95	409.59
515.12	428.32
515.29	400.23
515.47	418.96
515.64	400.23
515.81	477.47
515.99	407.25
516.16	360.44
516.33	428.32
516.51	440.02
516.68	388.53
516.85	437.68
517.03	365.12
517.20	430.66
517.37	407.25
517.54	421.30
517.72	411.93
517.89	470.45
518.06	414.27
518.24	458.74
518.41	421.30
518.58	421.30
518.75	482.15
518.93	496.19
519.10	409.59
519.27	414.27
519.45	374.49
519.62	376.83
519.79	402.57
519.96	355.76
520.14	397.89
520.31	386.19
520.48	430.66
520.65	437.68
520.83	397.89
521.00	388.53
521.17	461.09
521.34	430.66
521.52	369.80
521.69	390.87
521.86	360.44
522.03	388.53
522.20	463.43
522.38	433.00
522.55	393.21
522.72	418.96
522.89	428.32
523.07	477.47
523.24	390.87
523.41	402.57
523.58	423.64
523.75	388.53
523.92	475.13
524.10	395.55
524.27	461.09
524.44	503.22
524.61	444.70
524.78	369.80
524.96	418.96
525.13	383.85
525.30	416.62
525.47	442.36
525.64	447.04
525.81	437.68
525.98	416.62
526.16	386.19
526.33	435.34
526.50	491.51
526.67	369.80
526.84	444.70
527.01	402.57
527.18	456.40
527.36	379.17
527.53	407.25
527.70	458.74
527.87	358.10
528.04	395.55
528.21	414.27
528.38	484.49
528.55	444.70
528.72	514.92
528.89	444.70
529.07	372.15
529.24	379.17
529.41	430.66
529.58	404.91
529.75	332.36
529.92	409.59
530.09	376.83
530.26	484.49
530.43	395.55
530.60	442.36
530.77	507.90
530.94	421.30
531.11	423.64
531.28	393.21
531.46	390.87
531.63	367.46
531.80	416.62
531.97	444.70
532.14	433.00
532.31	475.13
532.48	414.27
532.65	372.15
532.82	449.38
532.99	332.36
533.16	402.57
533.33	421.30
533.50	463.43
533.67	418.96
533.84	449.38
534.01	397.89
534.18	383.85
534.35	400.23
534.52	437.68
534.69	376.83
534.86	414.27
535.03	360.44
535.20	414.27
535.37	376.83
535.54	390.87
535.71	393.21
535.88	414.27
536.05	358.10
536.22	423.64
536.38	414.27
536.55	402.57
536.72	430.66
536.89	409.59
537.06	428.32
537.23	344.06
537.40	402.57
537.57	313.63
537.74	472.79
537.91	458.74
538.08	397.89
538.25	435.34
538.42	444.70
538.59	430.66
538.75	395.55
538.92	498.53
539.09	454.06
539.26	486.83
539.43	423.64
539.60	454.06
539.77	379.17
539.94	423.64
540.11	472.79
540.28	428.32
540.44	447.04
540.61	451.72
540.78	418.96
540.95	416.62
541.12	433.00
541.29	411.93
541.46	500.87
541.62	437.68
541.79	418.96
541.96	404.91
542.13	386.19
542.30	411.93
542.47	425.98
542.63	454.06
542.80	449.38
542.97	440.02
543.14	517.26
543.31	404.91
543.48	416.62
543.64	416.62
543.81	386.19
543.98	430.66
544.15	449.38
544.32	458.74
544.48	411.93
544.65	447.04
544.82	423.64
544.99	383.85
545.16	425.98
545.32	463.43
545.49	430.66
545.66	433.00
545.83	421.30
546.00	418.96
546.16	351.08
546.33	400.23
546.50	414.27
546.67	423.64
546.83	425.98
547.00	437.68
547.17	402.57
547.34	416.62
547.50	376.83
547.67	416.62
547.84	454.06
548.00	395.55
548.17	346.40
548.34	458.74
548.51	411.93
548.67	395.55
548.84	449.38
549.01	362.78
549.18	440.02
549.34	369.80
549.51	393.21
549.68	402.57
549.84	468.11
550.01	463.43
550.18	475.13
550.34	468.11
550.51	440.02
550.68	465.77
550.84	463.43
551.01	428.32
551.18	418.96
551.34	456.40
551.51	425.98
551.68	411.93
551.84	491.51
552.01	395.55
552.18	402.57
552.34	437.68
552.51	425.98
552.68	388.53
552.84	374.49
553.01	393.21
553.18	423.64
553.34	437.68
553.51	416.62
553.67	402.57
553.84	512.58
554.01	425.98
554.17	433.00
554.34	440.02
554.51	421.30
554.67	393.21
554.84	381.51
555.00	425.98
555.17	512.58
555.33	465.77
555.50	482.15
555.67	428.32
555.83	374.49
556.00	388.53
556.16	571.09
556.33	442.36
556.50	388.53
556.66	493.85
556.83	425.98
556.99	440.02
557.16	348.74
557.32	470.45
557.49	409.59
557.65	402.57
557.82	388.53
557.98	444.70
558.15	444.70
558.32	397.89
558.48	470.45
558.65	423.64
558.81	421.30
558.98	404.91
559.14	409.59
559.31	472.79
559.47	411.93
559.64	435.34
559.80	447.04
559.97	421.30
560.13	423.64
560.30	360.44
560.46	341.72
560.63	390.87
560.79	404.91
560.96	470.45
561.12	421.30
561.29	437.68
561.45	421.30
561.61	440.02
561.78	416.62
561.94	496.19
562.11	372.15
562.27	468.11
562.44	428.32
562.60	416.62
562.77	341.72
562.93	418.96
563.10	437.68
563.26	372.15
563.42	461.09
563.59	423.64
563.75	372.15
563.92	421.30
564.08	456.40
564.24	454.06
564.41	503.22
564.57	416.62
564.74	461.09
564.90	430.66
565.07	416.62
565.23	463.43
565.39	369.80
565.56	409.59
565.72	447.04
565.88	418.96
566.05	440.02
566.21	388.53
566.38	437.68
566.54	374.49
566.70	484.49
566.87	369.80
567.03	344.06
567.19	470.45
567.36	472.79
567.52	418.96
567.68	437.68
567.85	414.27
568.01	388.53
568.17	402.57
568.34	421.30
568.50	442.36
568.66	358.10
568.83	498.53
568.99	369.80
569.15	477.47
569.32	456.40
569.48	465.77
569.64	437.68
569.81	402.57
569.97	379.17
570.13	468.11
570.30	383.85
570.46	442.36
570.62	418.96
570.78	409.59
570.95	402.57
571.11	461.09
571.27	465.77
571.43	435.34
571.60	421.30
571.76	341.72
571.92	386.19
572.09	411.93
572.25	383.85
572.41	402.57
572.57	440.02
572.74	489.17
572.90	437.68
573.06	423.64
573.22	472.79
573.38	442.36
573.55	430.66
573.71	479.81
573.87	479.81
574.03	376.83
574.20	416.62
574.36	447.04
574.52	496.19
574.68	372.15
574.84	409.59
575.01	416.62
575.17	468.11
575.33	360.44
575.49	461.09
575.65	402.57
575.82	374.49
575.98	463.43
576.14	421.30
576.30	379.17
576.46	386.19
576.62	404.91
576.79	334.70
576.95	510.24
577.11	442.36
577.27	447.04
577.43	489.17
577.59	411.93
577.75	421.30
577.92	388.53
578.08	463.43
578.24	425.98
578.40	514.92
578.56	407.25
578.72	437.68
578.88	411.93
579.04	428.32
579.21	421.30
579.37	395.55
579.53	404.91
579.69	388.53
579.85	376.83
580.01	437.68
580.17	416.62
580.33	468.11
580.49	496.19
580.65	454.06
580.82	353.42
580.98	393.21
581.14	423.64
581.30	447.04
581.46	486.83
581.62	449.38
581.78	332.36
581.94	449.38
582.10	397.89
582.26	374.49
582.42	355.76
582.58	447.04
582.74	430.66
582.90	503.22
583.06	456.40
583.22	388.53
583.38	421.30
583.54	421.30
583.70	425.98
583.86	442.36
584.02	458.74
584.18	447.04
584.34	430.66
584.50	404.91
584.66	358.10
584.82	386.19
584.98	423.64
585.14	421.30
585.30	407.25
585.46	447.04
585.62	355.76
585.78	458.74
585.94	404.91
586.10	395.55
586.26	416.62
586.42	475.13
586.58	425.98
586.74	449.38
586.90	456.40
587.06	421.30
587.22	390.87
587.38	386.19
587.54	411.93
587.70	435.34
587.86	421.30
588.02	388.53
588.18	454.06
588.34	440.02
588.49	369.80
588.65	390.87
588.81	418.96
588.97	414.27
589.13	372.15
589.29	409.59
589.45	533.64
589.61	425.98
589.77	456.40
589.93	416.62
590.08	411.93
590.24	362.78
590.40	437.68
590.56	498.53
590.72	400.23
590.88	404.91
591.04	355.76
591.20	430.66
591.35	425.98
591.51	374.49
591.67	416.62
591.83	447.04
591.99	395.55
592.15	400.23
592.31	388.53
592.46	423.64
592.62	479.81
592.78	449.38
592.94	376.83
593.10	332.36
593.26	353.42
593.41	500.87
593.57	400.23
593.73	461.09
593.89	365.12
594.05	400.23
594.20	393.21
594.36	454.06
594.52	451.72
594.68	449.38
594.84	414.27
594.99	463.43
595.15	414.27
595.31	411.93
595.47	414.27
595.62	404.91
595.78	489.17
595.94	425.98
596.10	451.72
596.25	393.21
596.41	475.13
596.57	500.87
596.73	390.87
596.88	435.34
597.04	393.21
597.20	397.89
597.36	484.49
597.51	479.81
597.67	451.72
597.83	351.08
597.99	353.42
598.14	414.27
598.30	493.85
598.46	449.38
598.61	414.27
598.77	491.51
598.93	376.83
599.09	355.76
599.24	390.87
599.40	313.63
599.56	369.80
599.71	409.59
599.87	383.85
600.03	507.90
600.18	442.36
600.34	395.55
600.50	409.59
600.65	423.64
600.81	514.92
600.97	437.68
601.12	428.32
601.28	521.94
601.44	486.83
601.59	369.80
601.75	484.49
601.91	461.09
602.06	454.06
602.22	482.15
602.37	365.12
602.53	395.55
602.69	440.02
602.84	313.63
603.00	416.62
603.16	423.64
603.31	425.98
603.47	393.21
603.62	414.27
603.78	402.57
603.94	330.02
604.09	479.81
604.25	425.98
604.40	482.15
604.56	369.80
604.71	397.89
604.87	374.49
605.03	402.57
605.18	435.34
605.34	421.30
605.49	393.21
605.65	433.00
605.80	369.80
605.96	433.00
606.12	437.68
606.27	365.12
606.43	397.89
606.58	454.06
606.74	458.74
606.89	414.27
607.05	505.56
607.20	407.25
607.36	407.25
607.51	390.87
607.67	449.38
607.82	524.28
607.98	393.21
608.13	428.32
608.29	435.34
608.44	493.85
608.60	411.93
608.75	482.15
608.91	423.64
609.06	411.93
609.22	470.45
609.37	463.43
609.53	411.93
609.68	351.08
609.84	409.59
609.99	404.91
610.15	379.17
