SpectraSuite Data File
++++++++++++++++++++++++++++++++++++
Date: Fri Oct 25 12:11:35 EDT 2013
User: price-jones
Dark Spectrum Present: No
Reference Spectrum Present: No
Number of Sampled Component Spectra: 1
Spectrometers: USB2+H05261
Integration Time (usec): 100000 (USB2+H05261)
Spectra Averaged: 1 (USB2+H05261)
Boxcar Smoothing: 0 (USB2+H05261)
Correct for Electrical Dark: No (USB2+H05261)
Strobe/Lamp Enabled: No (USB2+H05261)
Correct for Detector Non-linearity: No (USB2+H05261)
Correct for Stray Light: No (USB2+H05261)
Number of Pixels in Processed Spectrum: 2048
>>>>>Begin Processed Spectral Data<<<<<
365.73	348.74
365.92	348.74
366.12	348.74
366.32	222.35
366.52	283.20
366.72	238.73
366.91	271.50
367.11	234.05
367.31	262.14
367.51	252.78
367.70	238.73
367.90	236.39
368.10	259.80
368.30	252.78
368.49	264.48
368.69	266.82
368.89	292.57
369.09	278.52
369.28	301.93
369.48	320.65
369.68	315.97
369.87	325.33
370.07	306.61
370.27	374.49
370.47	330.02
370.66	351.08
370.86	290.23
371.06	339.38
371.25	433.00
371.45	442.36
371.65	444.70
371.84	351.08
372.04	358.10
372.24	383.85
372.44	367.46
372.63	423.64
372.83	407.25
373.03	421.30
373.22	318.31
373.42	444.70
373.62	449.38
373.81	468.11
374.01	500.87
374.21	477.47
374.40	458.74
374.60	440.02
374.79	409.59
374.99	390.87
375.19	411.93
375.38	451.72
375.58	388.53
375.78	458.74
375.97	414.27
376.17	482.15
376.37	393.21
376.56	428.32
376.76	512.58
376.95	407.25
377.15	442.36
377.35	402.57
377.54	404.91
377.74	355.76
377.93	365.12
378.13	379.17
378.33	479.81
378.52	433.00
378.72	449.38
378.91	435.34
379.11	407.25
379.31	449.38
379.50	386.19
379.70	444.70
379.89	468.11
380.09	351.08
380.28	428.32
380.48	397.89
380.68	421.30
380.87	433.00
381.07	435.34
381.26	489.17
381.46	435.34
381.65	355.76
381.85	393.21
382.04	482.15
382.24	421.30
382.43	388.53
382.63	433.00
382.83	479.81
383.02	358.10
383.22	461.09
383.41	393.21
383.61	393.21
383.80	475.13
384.00	386.19
384.19	425.98
384.39	463.43
384.58	367.46
384.78	425.98
384.97	355.76
385.17	407.25
385.36	416.62
385.56	393.21
385.75	409.59
385.95	437.68
386.14	463.43
386.34	374.49
386.53	433.00
386.72	360.44
386.92	393.21
387.11	435.34
387.31	435.34
387.50	407.25
387.70	388.53
387.89	411.93
388.09	381.51
388.28	430.66
388.48	362.78
388.67	397.89
388.86	428.32
389.06	484.49
389.25	418.96
389.45	428.32
389.64	425.98
389.84	428.32
390.03	411.93
390.22	409.59
390.42	449.38
390.61	402.57
390.81	348.74
391.00	402.57
391.19	447.04
391.39	322.99
391.58	433.00
391.78	411.93
391.97	416.62
392.16	374.49
392.36	465.77
392.55	442.36
392.75	444.70
392.94	461.09
393.13	425.98
393.33	428.32
393.52	365.12
393.71	425.98
393.91	365.12
394.10	400.23
394.29	447.04
394.49	358.10
394.68	444.70
394.88	498.53
395.07	353.42
395.26	397.89
395.46	383.85
395.65	414.27
395.84	344.06
396.04	444.70
396.23	369.80
396.42	393.21
396.62	440.02
396.81	428.32
397.00	470.45
397.19	372.15
397.39	442.36
397.58	414.27
397.77	447.04
397.97	362.78
398.16	402.57
398.35	418.96
398.55	287.89
398.74	386.19
398.93	442.36
399.12	430.66
399.32	517.26
399.51	416.62
399.70	393.21
399.90	330.02
400.09	433.00
400.28	468.11
400.47	381.51
400.67	491.51
400.86	451.72
401.05	458.74
401.24	383.85
401.44	454.06
401.63	423.64
401.82	433.00
402.01	397.89
402.21	418.96
402.40	372.15
402.59	390.87
402.78	362.78
402.97	468.11
403.17	423.64
403.36	376.83
403.55	428.32
403.74	447.04
403.93	416.62
404.13	496.19
404.32	505.56
404.51	416.62
404.70	416.62
404.89	423.64
405.09	442.36
405.28	376.83
405.47	388.53
405.66	390.87
405.85	470.45
406.05	358.10
406.24	360.44
406.43	428.32
406.62	482.15
406.81	458.74
407.00	444.70
407.20	411.93
407.39	381.51
407.58	440.02
407.77	421.30
407.96	409.59
408.15	402.57
408.34	404.91
408.54	477.47
408.73	425.98
408.92	444.70
409.11	315.97
409.30	414.27
409.49	355.76
409.68	400.23
409.87	388.53
410.07	383.85
410.26	351.08
410.45	444.70
410.64	433.00
410.83	402.57
411.02	346.40
411.21	397.89
411.40	367.46
411.59	414.27
411.78	416.62
411.98	388.53
412.17	468.11
412.36	409.59
412.55	407.25
412.74	390.87
412.93	423.64
413.12	374.49
413.31	468.11
413.50	395.55
413.69	386.19
413.88	404.91
414.07	444.70
414.26	458.74
414.45	447.04
414.64	430.66
414.83	390.87
415.02	442.36
415.22	409.59
415.41	435.34
415.60	416.62
415.79	437.68
415.98	428.32
416.17	433.00
416.36	325.33
416.55	411.93
416.74	334.70
416.93	397.89
417.12	428.32
417.31	372.15
417.50	393.21
417.69	423.64
417.88	425.98
418.07	393.21
418.26	411.93
418.45	367.46
418.64	423.64
418.83	416.62
419.02	449.38
419.21	442.36
419.39	404.91
419.58	456.40
419.77	395.55
419.96	390.87
420.15	435.34
420.34	435.34
420.53	430.66
420.72	367.46
420.91	407.25
421.10	390.87
421.29	491.51
421.48	407.25
421.67	416.62
421.86	383.85
422.05	388.53
422.24	388.53
422.43	404.91
422.61	503.22
422.80	482.15
422.99	458.74
423.18	393.21
423.37	379.17
423.56	383.85
423.75	369.80
423.94	388.53
424.13	327.68
424.32	369.80
424.50	451.72
424.69	393.21
424.88	451.72
425.07	390.87
425.26	344.06
425.45	416.62
425.64	416.62
425.83	479.81
426.01	407.25
426.20	421.30
426.39	461.09
426.58	447.04
426.77	383.85
426.96	423.64
427.15	404.91
427.33	388.53
427.52	423.64
427.71	435.34
427.90	454.06
428.09	395.55
428.28	388.53
428.46	421.30
428.65	451.72
428.84	416.62
429.03	430.66
429.22	388.53
429.40	381.51
429.59	383.85
429.78	489.17
429.97	351.08
430.16	374.49
430.34	365.12
430.53	428.32
430.72	393.21
430.91	404.91
431.10	435.34
431.28	339.38
431.47	477.47
431.66	491.51
431.85	414.27
432.03	423.64
432.22	540.66
432.41	418.96
432.60	414.27
432.79	456.40
432.97	379.17
433.16	360.44
433.35	447.04
433.54	454.06
433.72	428.32
433.91	435.34
434.10	447.04
434.28	435.34
434.47	404.91
434.66	404.91
434.85	444.70
435.03	444.70
435.22	550.03
435.41	451.72
435.59	381.51
435.78	339.38
435.97	400.23
436.16	428.32
436.34	400.23
436.53	337.04
436.72	353.42
436.90	418.96
437.09	477.47
437.28	362.78
437.46	330.02
437.65	500.87
437.84	425.98
438.02	404.91
438.21	463.43
438.40	425.98
438.58	365.12
438.77	428.32
438.96	414.27
439.14	374.49
439.33	423.64
439.52	369.80
439.70	454.06
439.89	475.13
440.08	383.85
440.26	444.70
440.45	442.36
440.63	421.30
440.82	428.32
441.01	409.59
441.19	407.25
441.38	383.85
441.57	416.62
441.75	468.11
441.94	428.32
442.12	390.87
442.31	416.62
442.50	409.59
442.68	369.80
442.87	470.45
443.05	393.21
443.24	348.74
443.43	395.55
443.61	411.93
443.80	362.78
443.98	425.98
444.17	421.30
444.35	486.83
444.54	465.77
444.73	468.11
444.91	505.56
445.10	416.62
445.28	486.83
445.47	472.79
445.65	414.27
445.84	437.68
446.02	351.08
446.21	421.30
446.39	491.51
446.58	404.91
446.77	355.76
446.95	491.51
447.14	395.55
447.32	390.87
447.51	491.51
447.69	402.57
447.88	376.83
448.06	372.15
448.25	425.98
448.43	388.53
448.62	414.27
448.80	465.77
448.99	456.40
449.17	390.87
449.36	327.68
449.54	402.57
449.73	383.85
449.91	451.72
450.10	397.89
450.28	479.81
450.46	470.45
450.65	463.43
450.83	393.21
451.02	411.93
451.20	386.19
451.39	421.30
451.57	423.64
451.76	376.83
451.94	416.62
452.13	442.36
452.31	465.77
452.49	397.89
452.68	390.87
452.86	449.38
453.05	411.93
453.23	397.89
453.42	365.12
453.60	409.59
453.78	383.85
453.97	440.02
454.15	393.21
454.34	355.76
454.52	437.68
454.70	428.32
454.89	390.87
455.07	449.38
455.26	461.09
455.44	442.36
455.62	409.59
455.81	400.23
455.99	397.89
456.17	386.19
456.36	360.44
456.54	390.87
456.73	416.62
456.91	344.06
457.09	454.06
457.28	390.87
457.46	442.36
457.64	404.91
457.83	423.64
458.01	390.87
458.19	430.66
458.38	461.09
458.56	486.83
458.74	428.32
458.93	369.80
459.11	425.98
459.29	334.70
459.48	552.37
459.66	477.47
459.84	510.24
460.03	440.02
460.21	472.79
460.39	430.66
460.57	463.43
460.76	430.66
460.94	397.89
461.12	414.27
461.31	390.87
461.49	425.98
461.67	430.66
461.85	430.66
462.04	414.27
462.22	683.44
462.40	442.36
462.59	425.98
462.77	400.23
462.95	374.49
463.13	383.85
463.32	425.98
463.50	404.91
463.68	402.57
463.86	306.61
464.05	372.15
464.23	430.66
464.41	437.68
464.59	449.38
464.78	390.87
464.96	416.62
465.14	423.64
465.32	449.38
465.50	402.57
465.69	468.11
465.87	435.34
466.05	425.98
466.23	430.66
466.41	451.72
466.60	472.79
466.78	383.85
466.96	458.74
467.14	379.17
467.32	423.64
467.51	428.32
467.69	425.98
467.87	414.27
468.05	433.00
468.23	468.11
468.41	423.64
468.60	416.62
468.78	437.68
468.96	388.53
469.14	374.49
469.32	365.12
469.50	367.46
469.69	451.72
469.87	451.72
470.05	409.59
470.23	437.68
470.41	386.19
470.59	393.21
470.77	456.40
470.95	407.25
471.14	433.00
471.32	390.87
471.50	386.19
471.68	341.72
471.86	388.53
472.04	461.09
472.22	404.91
472.40	383.85
472.58	409.59
472.77	437.68
472.95	440.02
473.13	435.34
473.31	496.19
473.49	414.27
473.67	430.66
473.85	510.24
474.03	390.87
474.21	402.57
474.39	402.57
474.57	362.78
474.75	390.87
474.93	365.12
475.12	348.74
475.30	393.21
475.48	430.66
475.66	395.55
475.84	428.32
476.02	365.12
476.20	388.53
476.38	470.45
476.56	409.59
476.74	421.30
476.92	395.55
477.10	425.98
477.28	416.62
477.46	404.91
477.64	444.70
477.82	327.68
478.00	440.02
478.18	383.85
478.36	393.21
478.54	456.40
478.72	461.09
478.90	437.68
479.08	458.74
479.26	411.93
479.44	479.81
479.62	421.30
479.80	421.30
479.98	421.30
480.16	358.10
480.34	435.34
480.52	404.91
480.70	454.06
480.88	456.40
481.06	407.25
481.24	400.23
481.41	404.91
481.59	444.70
481.77	437.68
481.95	449.38
482.13	470.45
482.31	437.68
482.49	428.32
482.67	414.27
482.85	397.89
483.03	428.32
483.21	433.00
483.39	409.59
483.57	447.04
483.74	543.00
483.92	437.68
484.10	397.89
484.28	433.00
484.46	472.79
484.64	369.80
484.82	411.93
485.00	409.59
485.18	416.62
485.35	440.02
485.53	365.12
485.71	404.91
485.89	428.32
486.07	381.51
486.25	444.70
486.43	421.30
486.61	475.13
486.78	372.15
486.96	409.59
487.14	425.98
487.32	433.00
487.50	395.55
487.68	407.25
487.85	386.19
488.03	433.00
488.21	440.02
488.39	430.66
488.57	411.93
488.75	379.17
488.92	498.53
489.10	512.58
489.28	414.27
489.46	351.08
489.64	327.68
489.81	379.17
489.99	482.15
490.17	442.36
490.35	484.49
490.53	404.91
490.70	383.85
490.88	428.32
491.06	430.66
491.24	425.98
491.41	355.76
491.59	411.93
491.77	404.91
491.95	444.70
492.13	416.62
492.30	383.85
492.48	381.51
492.66	470.45
492.84	437.68
493.01	425.98
493.19	416.62
493.37	463.43
493.54	421.30
493.72	351.08
493.90	395.55
494.08	407.25
494.25	369.80
494.43	449.38
494.61	402.57
494.79	355.76
494.96	365.12
495.14	503.22
495.32	437.68
495.49	383.85
495.67	472.79
495.85	383.85
496.02	390.87
496.20	440.02
496.38	454.06
496.55	393.21
496.73	454.06
496.91	423.64
497.09	409.59
497.26	428.32
497.44	414.27
497.62	444.70
497.79	374.49
497.97	423.64
498.14	390.87
498.32	365.12
498.50	407.25
498.67	430.66
498.85	409.59
499.03	402.57
499.20	421.30
499.38	407.25
499.56	449.38
499.73	465.77
499.91	449.38
500.08	376.83
500.26	449.38
500.44	374.49
500.61	437.68
500.79	381.51
500.97	381.51
501.14	409.59
501.32	383.85
501.49	440.02
501.67	379.17
501.84	440.02
502.02	423.64
502.20	498.53
502.37	390.87
502.55	402.57
502.72	416.62
502.90	411.93
503.07	458.74
503.25	376.83
503.43	379.17
503.60	388.53
503.78	416.62
503.95	440.02
504.13	400.23
504.30	470.45
504.48	435.34
504.65	369.80
504.83	437.68
505.01	351.08
505.18	367.46
505.36	374.49
505.53	414.27
505.71	414.27
505.88	451.72
506.06	437.68
506.23	360.44
506.41	444.70
506.58	397.89
506.76	409.59
506.93	447.04
507.11	381.51
507.28	477.47
507.46	449.38
507.63	421.30
507.81	395.55
507.98	390.87
508.16	388.53
508.33	440.02
508.50	449.38
508.68	395.55
508.85	447.04
509.03	337.04
509.20	386.19
509.38	512.58
509.55	463.43
509.73	440.02
509.90	486.83
510.08	454.06
510.25	414.27
510.42	381.51
510.60	486.83
510.77	421.30
510.95	442.36
511.12	414.27
511.30	477.47
511.47	418.96
511.64	489.17
511.82	404.91
511.99	390.87
512.17	416.62
512.34	435.34
512.51	311.29
512.69	510.24
512.86	435.34
513.04	491.51
513.21	348.74
513.38	393.21
513.56	409.59
513.73	411.93
513.90	402.57
514.08	376.83
514.25	430.66
514.43	365.12
514.60	404.91
514.77	428.32
514.95	437.68
515.12	416.62
515.29	444.70
515.47	376.83
515.64	421.30
515.81	355.76
515.99	404.91
516.16	463.43
516.33	402.57
516.51	421.30
516.68	397.89
516.85	444.70
517.03	404.91
517.20	374.49
517.37	388.53
517.54	390.87
517.72	451.72
517.89	369.80
518.06	365.12
518.24	465.77
518.41	430.66
518.58	397.89
518.75	404.91
518.93	512.58
519.10	456.40
519.27	477.47
519.45	437.68
519.62	397.89
519.79	437.68
519.96	435.34
520.14	449.38
520.31	505.56
520.48	411.93
520.65	454.06
520.83	376.83
521.00	428.32
521.17	449.38
521.34	376.83
521.52	362.78
521.69	355.76
521.86	451.72
522.03	388.53
522.20	428.32
522.38	433.00
522.55	449.38
522.72	463.43
522.89	435.34
523.07	475.13
523.24	456.40
523.41	390.87
523.58	456.40
523.75	435.34
523.92	355.76
524.10	430.66
524.27	472.79
524.44	468.11
524.61	451.72
524.78	402.57
524.96	430.66
525.13	458.74
525.30	442.36
525.47	414.27
525.64	367.46
525.81	468.11
525.98	463.43
526.16	372.15
526.33	379.17
526.50	409.59
526.67	449.38
526.84	447.04
527.01	381.51
527.18	465.77
527.36	393.21
527.53	362.78
527.70	425.98
527.87	404.91
528.04	440.02
528.21	423.64
528.38	461.09
528.55	430.66
528.72	402.57
528.89	437.68
529.07	428.32
529.24	397.89
529.41	486.83
529.58	397.89
529.75	407.25
529.92	477.47
530.09	383.85
530.26	374.49
530.43	425.98
530.60	409.59
530.77	372.15
530.94	428.32
531.11	470.45
531.28	414.27
531.46	374.49
531.63	440.02
531.80	454.06
531.97	423.64
532.14	435.34
532.31	341.72
532.48	433.00
532.65	437.68
532.82	407.25
532.99	409.59
533.16	402.57
533.33	433.00
533.50	414.27
533.67	421.30
533.84	444.70
534.01	393.21
534.18	435.34
534.35	435.34
534.52	402.57
534.69	376.83
534.86	402.57
535.03	428.32
535.20	351.08
535.37	395.55
535.54	468.11
535.71	339.38
535.88	421.30
536.05	358.10
536.22	442.36
536.38	381.51
536.55	407.25
536.72	407.25
536.89	437.68
537.06	346.40
537.23	433.00
537.40	404.91
537.57	367.46
537.74	437.68
537.91	435.34
538.08	388.53
538.25	440.02
538.42	344.06
538.59	404.91
538.75	423.64
538.92	411.93
539.09	390.87
539.26	376.83
539.43	376.83
539.60	388.53
539.77	411.93
539.94	486.83
540.11	454.06
540.28	430.66
540.44	491.51
540.61	433.00
540.78	454.06
540.95	454.06
541.12	477.47
541.29	468.11
541.46	479.81
541.62	430.66
541.79	346.40
541.96	418.96
542.13	388.53
542.30	409.59
542.47	463.43
542.63	451.72
542.80	414.27
542.97	369.80
543.14	409.59
543.31	461.09
543.48	449.38
543.64	425.98
543.81	386.19
543.98	433.00
544.15	442.36
544.32	388.53
544.48	393.21
544.65	449.38
544.82	395.55
544.99	369.80
545.16	381.51
545.32	353.42
545.49	416.62
545.66	402.57
545.83	440.02
546.00	372.15
546.16	402.57
546.33	390.87
546.50	395.55
546.67	454.06
546.83	435.34
547.00	393.21
547.17	411.93
547.34	376.83
547.50	428.32
547.67	390.87
547.84	437.68
548.00	428.32
548.17	330.02
548.34	360.44
548.51	451.72
548.67	461.09
548.84	425.98
549.01	407.25
549.18	358.10
549.34	400.23
549.51	442.36
549.68	395.55
549.84	437.68
550.01	435.34
550.18	493.85
550.34	484.49
550.51	517.26
550.68	528.96
550.84	355.76
551.01	451.72
551.18	524.28
551.34	484.49
551.51	407.25
551.68	456.40
551.84	454.06
552.01	372.15
552.18	402.57
552.34	351.08
552.51	468.11
552.68	442.36
552.84	433.00
553.01	365.12
553.18	484.49
553.34	447.04
553.51	440.02
553.67	369.80
553.84	355.76
554.01	475.13
554.17	344.06
554.34	440.02
554.51	388.53
554.67	470.45
554.84	388.53
555.00	397.89
555.17	376.83
555.33	482.15
555.50	379.17
555.67	440.02
555.83	430.66
556.00	442.36
556.16	547.69
556.33	425.98
556.50	421.30
556.66	456.40
556.83	386.19
556.99	472.79
557.16	444.70
557.32	381.51
557.49	365.12
557.65	390.87
557.82	418.96
557.98	423.64
558.15	418.96
558.32	442.36
558.48	304.27
558.65	367.46
558.81	468.11
558.98	449.38
559.14	505.56
559.31	451.72
559.47	458.74
559.64	423.64
559.80	456.40
559.97	491.51
560.13	381.51
560.30	423.64
560.46	416.62
560.63	390.87
560.79	444.70
560.96	472.79
561.12	470.45
561.29	397.89
561.45	444.70
561.61	470.45
561.78	475.13
561.94	409.59
562.11	465.77
562.27	411.93
562.44	369.80
562.60	393.21
562.77	496.19
562.93	484.49
563.10	425.98
563.26	437.68
563.42	428.32
563.59	428.32
563.75	425.98
563.92	514.92
564.08	435.34
564.24	397.89
564.41	500.87
564.57	461.09
564.74	322.99
564.90	442.36
565.07	425.98
565.23	510.24
565.39	442.36
565.56	440.02
565.72	402.57
565.88	433.00
566.05	449.38
566.21	386.19
566.38	437.68
566.54	475.13
566.70	465.77
566.87	404.91
567.03	365.12
567.19	409.59
567.36	454.06
567.52	404.91
567.68	397.89
567.85	470.45
568.01	430.66
568.17	416.62
568.34	449.38
568.50	355.76
568.66	404.91
568.83	442.36
568.99	372.15
569.15	379.17
569.32	376.83
569.48	468.11
569.64	433.00
569.81	393.21
569.97	425.98
570.13	390.87
570.30	393.21
570.46	381.51
570.62	458.74
570.78	404.91
570.95	358.10
571.11	461.09
571.27	449.38
571.43	423.64
571.60	442.36
571.76	388.53
571.92	397.89
572.09	386.19
572.25	440.02
572.41	383.85
572.57	414.27
572.74	423.64
572.90	404.91
573.06	470.45
573.22	444.70
573.38	468.11
573.55	440.02
573.71	351.08
573.87	400.23
574.03	416.62
574.20	454.06
574.36	360.44
574.52	365.12
574.68	383.85
574.84	395.55
575.01	390.87
575.17	409.59
575.33	339.38
575.49	449.38
575.65	503.22
575.82	372.15
575.98	423.64
576.14	376.83
576.30	397.89
576.46	416.62
576.62	447.04
576.79	433.00
576.95	416.62
577.11	440.02
577.27	440.02
577.43	416.62
577.59	409.59
577.75	423.64
577.92	486.83
578.08	388.53
578.24	393.21
578.40	376.83
578.56	444.70
578.72	484.49
578.88	451.72
579.04	372.15
579.21	463.43
579.37	414.27
579.53	409.59
579.69	416.62
579.85	404.91
580.01	397.89
580.17	461.09
580.33	447.04
580.49	425.98
580.65	428.32
580.82	425.98
580.98	416.62
581.14	433.00
581.30	454.06
581.46	461.09
581.62	383.85
581.78	386.19
581.94	496.19
582.10	451.72
582.26	348.74
582.42	397.89
582.58	411.93
582.74	428.32
582.90	449.38
583.06	496.19
583.22	381.51
583.38	411.93
583.54	447.04
583.70	484.49
583.86	489.17
584.02	454.06
584.18	491.51
584.34	440.02
584.50	351.08
584.66	397.89
584.82	447.04
584.98	433.00
585.14	369.80
585.30	433.00
585.46	411.93
585.62	428.32
585.78	416.62
585.94	433.00
586.10	482.15
586.26	451.72
586.42	470.45
586.58	425.98
586.74	484.49
586.90	402.57
587.06	414.27
587.22	409.59
587.38	402.57
587.54	414.27
587.70	465.77
587.86	442.36
588.02	402.57
588.18	365.12
588.34	451.72
588.49	423.64
588.65	369.80
588.81	435.34
588.97	451.72
589.13	339.38
589.29	418.96
589.45	407.25
589.61	395.55
589.77	435.34
589.93	442.36
590.08	414.27
590.24	374.49
590.40	386.19
590.56	458.74
590.72	395.55
590.88	365.12
591.04	435.34
591.20	407.25
591.35	503.22
591.51	454.06
591.67	463.43
591.83	416.62
591.99	374.49
592.15	470.45
592.31	470.45
592.46	397.89
592.62	355.76
592.78	435.34
592.94	365.12
593.10	430.66
593.26	360.44
593.41	379.17
593.57	493.85
593.73	468.11
593.89	430.66
594.05	337.04
594.20	351.08
594.36	449.38
594.52	402.57
594.68	409.59
594.84	395.55
594.99	489.17
595.15	442.36
595.31	425.98
595.47	351.08
595.62	418.96
595.78	369.80
595.94	367.46
596.10	416.62
596.25	449.38
596.41	435.34
596.57	433.00
596.73	393.21
596.88	418.96
597.04	456.40
597.20	465.77
597.36	411.93
597.51	327.68
597.67	379.17
597.83	475.13
597.99	440.02
598.14	454.06
598.30	414.27
598.46	470.45
598.61	559.39
598.77	388.53
598.93	388.53
599.09	407.25
599.24	437.68
599.40	449.38
599.56	386.19
599.71	444.70
599.87	390.87
600.03	437.68
600.18	376.83
600.34	411.93
600.50	416.62
600.65	435.34
600.81	416.62
600.97	353.42
601.12	402.57
601.28	418.96
601.44	381.51
601.59	444.70
601.75	442.36
601.91	454.06
602.06	395.55
602.22	477.47
602.37	451.72
602.53	381.51
602.69	437.68
602.84	414.27
603.00	369.80
603.16	449.38
603.31	491.51
603.47	425.98
603.62	416.62
603.78	341.72
603.94	404.91
604.09	383.85
604.25	456.40
604.40	416.62
604.56	390.87
604.71	367.46
604.87	369.80
605.03	454.06
605.18	428.32
605.34	444.70
605.49	475.13
605.65	400.23
605.80	449.38
605.96	409.59
606.12	411.93
606.27	447.04
606.43	454.06
606.58	456.40
606.74	416.62
606.89	388.53
607.05	435.34
607.20	423.64
607.36	393.21
607.51	451.72
607.67	386.19
607.82	461.09
607.98	416.62
608.13	440.02
608.29	472.79
608.44	458.74
608.60	351.08
608.75	418.96
608.91	507.90
609.06	402.57
609.22	444.70
609.37	390.87
609.53	355.76
609.68	339.38
609.84	409.59
609.99	411.93
610.15	477.47
