SpectraSuite Data File
++++++++++++++++++++++++++++++++++++
Date: Fri Oct 25 12:11:15 EDT 2013
User: price-jones
Dark Spectrum Present: No
Reference Spectrum Present: No
Number of Sampled Component Spectra: 1
Spectrometers: USB2+H05261
Integration Time (usec): 100000 (USB2+H05261)
Spectra Averaged: 1 (USB2+H05261)
Boxcar Smoothing: 0 (USB2+H05261)
Correct for Electrical Dark: No (USB2+H05261)
Strobe/Lamp Enabled: No (USB2+H05261)
Correct for Detector Non-linearity: No (USB2+H05261)
Correct for Stray Light: No (USB2+H05261)
Number of Pixels in Processed Spectrum: 2048
>>>>>Begin Processed Spectral Data<<<<<
365.73	320.65
365.92	320.65
366.12	320.65
366.32	290.23
366.52	152.13
366.72	269.16
366.91	243.42
367.11	271.50
367.31	229.37
367.51	212.99
367.70	191.92
367.90	166.18
368.10	217.67
368.30	248.10
368.49	252.78
368.69	287.89
368.89	255.12
369.09	217.67
369.28	301.93
369.48	266.82
369.68	243.42
369.87	255.12
370.07	252.78
370.27	423.64
370.47	327.68
370.66	285.55
370.86	362.78
371.06	388.53
371.25	360.44
371.45	362.78
371.65	397.89
371.84	416.62
372.04	397.89
372.24	372.15
372.44	404.91
372.63	372.15
372.83	397.89
373.03	381.51
373.22	381.51
373.42	435.34
373.62	435.34
373.81	430.66
374.01	451.72
374.21	395.55
374.40	433.00
374.60	425.98
374.79	381.51
374.99	472.79
375.19	411.93
375.38	397.89
375.58	423.64
375.78	489.17
375.97	472.79
376.17	517.26
376.37	404.91
376.56	418.96
376.76	514.92
376.95	454.06
377.15	442.36
377.35	435.34
377.54	456.40
377.74	395.55
377.93	372.15
378.13	414.27
378.33	390.87
378.52	416.62
378.72	430.66
378.91	369.80
379.11	400.23
379.31	440.02
379.50	409.59
379.70	397.89
379.89	444.70
380.09	451.72
380.28	365.12
380.48	447.04
380.68	362.78
380.87	369.80
381.07	397.89
381.26	372.15
381.46	358.10
381.65	428.32
381.85	407.25
382.04	444.70
382.24	449.38
382.43	386.19
382.63	472.79
382.83	407.25
383.02	461.09
383.22	414.27
383.41	397.89
383.61	407.25
383.80	435.34
384.00	388.53
384.19	430.66
384.39	369.80
384.58	447.04
384.78	430.66
384.97	397.89
385.17	395.55
385.36	332.36
385.56	430.66
385.75	325.33
385.95	425.98
386.14	418.96
386.34	475.13
386.53	437.68
386.72	421.30
386.92	496.19
387.11	430.66
387.31	409.59
387.50	381.51
387.70	388.53
387.89	447.04
388.09	433.00
388.28	369.80
388.48	442.36
388.67	475.13
388.86	397.89
389.06	362.78
389.25	416.62
389.45	383.85
389.64	379.17
389.84	379.17
390.03	437.68
390.22	423.64
390.42	388.53
390.61	365.12
390.81	390.87
391.00	372.15
391.19	468.11
391.39	430.66
391.58	388.53
391.78	442.36
391.97	367.46
392.16	376.83
392.36	407.25
392.55	397.89
392.75	353.42
392.94	390.87
393.13	355.76
393.33	376.83
393.52	358.10
393.71	472.79
393.91	418.96
394.10	393.21
394.29	376.83
394.49	379.17
394.68	416.62
394.88	430.66
395.07	418.96
395.26	365.12
395.46	437.68
395.65	379.17
395.84	404.91
396.04	393.21
396.23	435.34
396.42	381.51
396.62	365.12
396.81	423.64
397.00	477.47
397.19	341.72
397.39	440.02
397.58	447.04
397.77	416.62
397.97	416.62
398.16	435.34
398.35	451.72
398.55	447.04
398.74	425.98
398.93	444.70
399.12	449.38
399.32	423.64
399.51	423.64
399.70	369.80
399.90	369.80
400.09	463.43
400.28	418.96
400.47	461.09
400.67	407.25
400.86	348.74
401.05	397.89
401.24	444.70
401.44	395.55
401.63	397.89
401.82	449.38
402.01	320.65
402.21	433.00
402.40	428.32
402.59	395.55
402.78	430.66
402.97	440.02
403.17	435.34
403.36	330.02
403.55	411.93
403.74	386.19
403.93	400.23
404.13	339.38
404.32	463.43
404.51	397.89
404.70	421.30
404.89	418.96
405.09	318.31
405.28	400.23
405.47	358.10
405.66	421.30
405.85	383.85
406.05	433.00
406.24	383.85
406.43	395.55
406.62	425.98
406.81	351.08
407.00	451.72
407.20	404.91
407.39	423.64
407.58	381.51
407.77	451.72
407.96	402.57
408.15	414.27
408.34	468.11
408.54	376.83
408.73	400.23
408.92	388.53
409.11	411.93
409.30	416.62
409.49	383.85
409.68	444.70
409.87	447.04
410.07	393.21
410.26	454.06
410.45	355.76
410.64	463.43
410.83	402.57
411.02	372.15
411.21	365.12
411.40	397.89
411.59	425.98
411.78	418.96
411.98	468.11
412.17	400.23
412.36	430.66
412.55	418.96
412.74	444.70
412.93	463.43
413.12	435.34
413.31	409.59
413.50	381.51
413.69	423.64
413.88	416.62
414.07	430.66
414.26	409.59
414.45	351.08
414.64	442.36
414.83	393.21
415.02	379.17
415.22	444.70
415.41	425.98
415.60	390.87
415.79	430.66
415.98	444.70
416.17	433.00
416.36	414.27
416.55	414.27
416.74	472.79
416.93	407.25
417.12	428.32
417.31	341.72
417.50	402.57
417.69	379.17
417.88	393.21
418.07	381.51
418.26	402.57
418.45	402.57
418.64	440.02
418.83	381.51
419.02	418.96
419.21	428.32
419.39	383.85
419.58	372.15
419.77	327.68
419.96	442.36
420.15	388.53
420.34	435.34
420.53	425.98
420.72	411.93
420.91	433.00
421.10	416.62
421.29	472.79
421.48	397.89
421.67	388.53
421.86	456.40
422.05	414.27
422.24	425.98
422.43	369.80
422.61	348.74
422.80	423.64
422.99	433.00
423.18	379.17
423.37	470.45
423.56	402.57
423.75	358.10
423.94	411.93
424.13	325.33
424.32	430.66
424.50	433.00
424.69	397.89
424.88	447.04
425.07	411.93
425.26	458.74
425.45	428.32
425.64	369.80
425.83	440.02
426.01	489.17
426.20	388.53
426.39	400.23
426.58	388.53
426.77	411.93
426.96	367.46
427.15	409.59
427.33	320.65
427.52	304.27
427.71	472.79
427.90	447.04
428.09	425.98
428.28	433.00
428.46	390.87
428.65	517.26
428.84	276.18
429.03	362.78
429.22	423.64
429.40	418.96
429.59	400.23
429.78	393.21
429.97	423.64
430.16	442.36
430.34	418.96
430.53	458.74
430.72	376.83
430.91	339.38
431.10	372.15
431.28	468.11
431.47	444.70
431.66	428.32
431.85	411.93
432.03	393.21
432.22	425.98
432.41	409.59
432.60	381.51
432.79	344.06
432.97	458.74
433.16	414.27
433.35	393.21
433.54	404.91
433.72	437.68
433.91	444.70
434.10	472.79
434.28	440.02
434.47	447.04
434.66	444.70
434.85	341.72
435.03	374.49
435.22	414.27
435.41	458.74
435.59	451.72
435.78	437.68
435.97	388.53
436.16	433.00
436.34	402.57
436.53	374.49
436.72	358.10
436.90	404.91
437.09	388.53
437.28	395.55
437.46	379.17
437.65	388.53
437.84	400.23
438.02	430.66
438.21	421.30
438.40	388.53
438.58	393.21
438.77	421.30
438.96	400.23
439.14	440.02
439.33	397.89
439.52	421.30
439.70	388.53
439.89	416.62
440.08	458.74
440.26	397.89
440.45	423.64
440.63	440.02
440.82	369.80
441.01	465.77
441.19	358.10
441.38	444.70
441.57	280.86
441.75	423.64
441.94	451.72
442.12	414.27
442.31	402.57
442.50	379.17
442.68	442.36
442.87	414.27
443.05	477.47
443.24	444.70
443.43	451.72
443.61	395.55
443.80	400.23
443.98	411.93
444.17	416.62
444.35	456.40
444.54	397.89
444.73	440.02
444.91	461.09
445.10	411.93
445.28	428.32
445.47	425.98
445.65	376.83
445.84	348.74
446.02	442.36
446.21	383.85
446.39	409.59
446.58	362.78
446.77	400.23
446.95	440.02
447.14	444.70
447.32	507.90
447.51	444.70
447.69	409.59
447.88	409.59
448.06	442.36
448.25	397.89
448.43	346.40
448.62	369.80
448.80	372.15
448.99	393.21
449.17	397.89
449.36	397.89
449.54	454.06
449.73	372.15
449.91	390.87
450.10	376.83
450.28	437.68
450.46	451.72
450.65	409.59
450.83	428.32
451.02	393.21
451.20	346.40
451.39	418.96
451.57	491.51
451.76	369.80
451.94	390.87
452.13	409.59
452.31	416.62
452.49	454.06
452.68	388.53
452.86	376.83
453.05	482.15
453.23	416.62
453.42	358.10
453.60	477.47
453.78	381.51
453.97	376.83
454.15	374.49
454.34	458.74
454.52	425.98
454.70	442.36
454.89	416.62
455.07	430.66
455.26	369.80
455.44	367.46
455.62	351.08
455.81	395.55
455.99	372.15
456.17	425.98
456.36	447.04
456.54	397.89
456.73	416.62
456.91	458.74
457.09	386.19
457.28	386.19
457.46	386.19
457.64	456.40
457.83	388.53
458.01	447.04
458.19	407.25
458.38	397.89
458.56	447.04
458.74	402.57
458.93	381.51
459.11	362.78
459.29	414.27
459.48	395.55
459.66	458.74
459.84	418.96
460.03	411.93
460.21	416.62
460.39	458.74
460.57	430.66
460.76	390.87
460.94	407.25
461.12	425.98
461.31	428.32
461.49	383.85
461.67	433.00
461.85	411.93
462.04	451.72
462.22	702.16
462.40	404.91
462.59	449.38
462.77	437.68
462.95	437.68
463.13	397.89
463.32	404.91
463.50	447.04
463.68	433.00
463.86	379.17
464.05	369.80
464.23	418.96
464.41	367.46
464.59	379.17
464.78	404.91
464.96	475.13
465.14	379.17
465.32	390.87
465.50	367.46
465.69	433.00
465.87	379.17
466.05	425.98
466.23	433.00
466.41	442.36
466.60	348.74
466.78	334.70
466.96	435.34
467.14	435.34
467.32	411.93
467.51	442.36
467.69	430.66
467.87	433.00
468.05	397.89
468.23	498.53
468.41	400.23
468.60	414.27
468.78	393.21
468.96	458.74
469.14	397.89
469.32	421.30
469.50	339.38
469.69	428.32
469.87	444.70
470.05	411.93
470.23	404.91
470.41	390.87
470.59	395.55
470.77	416.62
470.95	428.32
471.14	395.55
471.32	433.00
471.50	449.38
471.68	454.06
471.86	451.72
472.04	355.76
472.22	430.66
472.40	374.49
472.58	390.87
472.77	397.89
472.95	351.08
473.13	440.02
473.31	447.04
473.49	379.17
473.67	341.72
473.85	449.38
474.03	407.25
474.21	360.44
474.39	449.38
474.57	451.72
474.75	437.68
474.93	470.45
475.12	421.30
475.30	386.19
475.48	416.62
475.66	330.02
475.84	418.96
476.02	397.89
476.20	425.98
476.38	433.00
476.56	442.36
476.74	411.93
476.92	351.08
477.10	400.23
477.28	505.56
477.46	367.46
477.64	393.21
477.82	383.85
478.00	346.40
478.18	444.70
478.36	444.70
478.54	435.34
478.72	381.51
478.90	386.19
479.08	386.19
479.26	421.30
479.44	416.62
479.62	440.02
479.80	358.10
479.98	390.87
480.16	367.46
480.34	458.74
480.52	409.59
480.70	418.96
480.88	411.93
481.06	372.15
481.24	451.72
481.41	477.47
481.59	423.64
481.77	425.98
481.95	421.30
482.13	414.27
482.31	402.57
482.49	369.80
482.67	414.27
482.85	475.13
483.03	407.25
483.21	449.38
483.39	437.68
483.57	397.89
483.74	451.72
483.92	447.04
484.10	388.53
484.28	388.53
484.46	435.34
484.64	475.13
484.82	381.51
485.00	388.53
485.18	386.19
485.35	425.98
485.53	383.85
485.71	444.70
485.89	383.85
486.07	440.02
486.25	449.38
486.43	437.68
486.61	435.34
486.78	442.36
486.96	411.93
487.14	440.02
487.32	435.34
487.50	411.93
487.68	437.68
487.85	428.32
488.03	407.25
488.21	430.66
488.39	390.87
488.57	500.87
488.75	409.59
488.92	491.51
489.10	390.87
489.28	423.64
489.46	397.89
489.64	430.66
489.81	425.98
489.99	425.98
490.17	409.59
490.35	477.47
490.53	386.19
490.70	440.02
490.88	447.04
491.06	423.64
491.24	360.44
491.41	360.44
491.59	526.62
491.77	407.25
491.95	390.87
492.13	341.72
492.30	369.80
492.48	447.04
492.66	411.93
492.84	421.30
493.01	472.79
493.19	428.32
493.37	458.74
493.54	440.02
493.72	372.15
493.90	393.21
494.08	386.19
494.25	465.77
494.43	421.30
494.61	374.49
494.79	447.04
494.96	388.53
495.14	437.68
495.32	407.25
495.49	428.32
495.67	409.59
495.85	383.85
496.02	421.30
496.20	369.80
496.38	397.89
496.55	465.77
496.73	447.04
496.91	423.64
497.09	416.62
497.26	447.04
497.44	470.45
497.62	390.87
497.79	393.21
497.97	416.62
498.14	451.72
498.32	407.25
498.50	458.74
498.67	397.89
498.85	381.51
499.03	425.98
499.20	437.68
499.38	435.34
499.56	454.06
499.73	437.68
499.91	440.02
500.08	395.55
500.26	447.04
500.44	493.85
500.61	358.10
500.79	454.06
500.97	423.64
501.14	386.19
501.32	383.85
501.49	440.02
501.67	440.02
501.84	505.56
502.02	411.93
502.20	423.64
502.37	428.32
502.55	393.21
502.72	381.51
502.90	395.55
503.07	414.27
503.25	454.06
503.43	416.62
503.60	430.66
503.78	418.96
503.95	503.22
504.13	407.25
504.30	430.66
504.48	423.64
504.65	425.98
504.83	444.70
505.01	465.77
505.18	472.79
505.36	465.77
505.53	376.83
505.71	383.85
505.88	400.23
506.06	449.38
506.23	400.23
506.41	390.87
506.58	451.72
506.76	454.06
506.93	517.26
507.11	402.57
507.28	454.06
507.46	360.44
507.63	400.23
507.81	400.23
507.98	447.04
508.16	400.23
508.33	423.64
508.50	477.47
508.68	395.55
508.85	421.30
509.03	416.62
509.20	451.72
509.38	428.32
509.55	477.47
509.73	454.06
509.90	461.09
510.08	477.47
510.25	437.68
510.42	479.81
510.60	409.59
510.77	454.06
510.95	395.55
511.12	409.59
511.30	482.15
511.47	444.70
511.64	402.57
511.82	402.57
511.99	449.38
512.17	454.06
512.34	372.15
512.51	383.85
512.69	397.89
512.86	447.04
513.04	416.62
513.21	486.83
513.38	433.00
513.56	428.32
513.73	346.40
513.90	381.51
514.08	428.32
514.25	440.02
514.43	390.87
514.60	348.74
514.77	400.23
514.95	456.40
515.12	358.10
515.29	381.51
515.47	430.66
515.64	416.62
515.81	465.77
515.99	414.27
516.16	465.77
516.33	461.09
516.51	423.64
516.68	421.30
516.85	430.66
517.03	388.53
517.20	409.59
517.37	442.36
517.54	423.64
517.72	365.12
517.89	425.98
518.06	379.17
518.24	505.56
518.41	404.91
518.58	451.72
518.75	430.66
518.93	435.34
519.10	458.74
519.27	437.68
519.45	390.87
519.62	397.89
519.79	425.98
519.96	493.85
520.14	472.79
520.31	430.66
520.48	383.85
520.65	402.57
520.83	351.08
521.00	374.49
521.17	418.96
521.34	423.64
521.52	404.91
521.69	435.34
521.86	393.21
522.03	461.09
522.20	458.74
522.38	472.79
522.55	433.00
522.72	454.06
522.89	435.34
523.07	500.87
523.24	369.80
523.41	395.55
523.58	505.56
523.75	421.30
523.92	386.19
524.10	416.62
524.27	449.38
524.44	388.53
524.61	433.00
524.78	458.74
524.96	440.02
525.13	383.85
525.30	430.66
525.47	386.19
525.64	463.43
525.81	409.59
525.98	470.45
526.16	416.62
526.33	372.15
526.50	472.79
526.67	449.38
526.84	421.30
527.01	416.62
527.18	386.19
527.36	468.11
527.53	500.87
527.70	458.74
527.87	447.04
528.04	416.62
528.21	435.34
528.38	454.06
528.55	463.43
528.72	451.72
528.89	447.04
529.07	390.87
529.24	437.68
529.41	414.27
529.58	433.00
529.75	461.09
529.92	407.25
530.09	376.83
530.26	404.91
530.43	493.85
530.60	465.77
530.77	444.70
530.94	435.34
531.11	440.02
531.28	433.00
531.46	416.62
531.63	451.72
531.80	437.68
531.97	425.98
532.14	369.80
532.31	386.19
532.48	437.68
532.65	418.96
532.82	416.62
532.99	454.06
533.16	489.17
533.33	414.27
533.50	386.19
533.67	479.81
533.84	425.98
534.01	421.30
534.18	461.09
534.35	437.68
534.52	344.06
534.69	430.66
534.86	421.30
535.03	367.46
535.20	447.04
535.37	482.15
535.54	425.98
535.71	418.96
535.88	435.34
536.05	409.59
536.22	367.46
536.38	418.96
536.55	379.17
536.72	423.64
536.89	353.42
537.06	442.36
537.23	465.77
537.40	425.98
537.57	414.27
537.74	500.87
537.91	437.68
538.08	458.74
538.25	409.59
538.42	400.23
538.59	372.15
538.75	444.70
538.92	397.89
539.09	440.02
539.26	400.23
539.43	470.45
539.60	334.70
539.77	416.62
539.94	376.83
540.11	437.68
540.28	416.62
540.44	489.17
540.61	437.68
540.78	430.66
540.95	325.33
541.12	458.74
541.29	456.40
541.46	332.36
541.62	383.85
541.79	383.85
541.96	416.62
542.13	393.21
542.30	409.59
542.47	381.51
542.63	421.30
542.80	409.59
542.97	423.64
543.14	442.36
543.31	447.04
543.48	486.83
543.64	386.19
543.81	372.15
543.98	362.78
544.15	440.02
544.32	440.02
544.48	479.81
544.65	437.68
544.82	383.85
544.99	411.93
545.16	496.19
545.32	411.93
545.49	332.36
545.66	463.43
545.83	449.38
546.00	409.59
546.16	400.23
546.33	414.27
546.50	397.89
546.67	454.06
546.83	428.32
547.00	454.06
547.17	393.21
547.34	418.96
547.50	390.87
547.67	414.27
547.84	428.32
548.00	491.51
548.17	468.11
548.34	404.91
548.51	461.09
548.67	411.93
548.84	397.89
549.01	416.62
549.18	374.49
549.34	433.00
549.51	346.40
549.68	379.17
549.84	444.70
550.01	435.34
550.18	484.49
550.34	496.19
550.51	416.62
550.68	449.38
550.84	440.02
551.01	470.45
551.18	425.98
551.34	444.70
551.51	388.53
551.68	381.51
551.84	435.34
552.01	456.40
552.18	435.34
552.34	423.64
552.51	498.53
552.68	418.96
552.84	360.44
553.01	482.15
553.18	407.25
553.34	414.27
553.51	411.93
553.67	421.30
553.84	395.55
554.01	477.47
554.17	454.06
554.34	400.23
554.51	449.38
554.67	444.70
554.84	421.30
555.00	442.36
555.17	416.62
555.33	409.59
555.50	400.23
555.67	475.13
555.83	400.23
556.00	465.77
556.16	526.62
556.33	449.38
556.50	360.44
556.66	411.93
556.83	496.19
556.99	409.59
557.16	421.30
557.32	407.25
557.49	444.70
557.65	409.59
557.82	435.34
557.98	400.23
558.15	510.24
558.32	449.38
558.48	407.25
558.65	442.36
558.81	376.83
558.98	451.72
559.14	421.30
559.31	402.57
559.47	397.89
559.64	411.93
559.80	383.85
559.97	358.10
560.13	400.23
560.30	397.89
560.46	351.08
560.63	344.06
560.79	402.57
560.96	498.53
561.12	395.55
561.29	409.59
561.45	369.80
561.61	374.49
561.78	470.45
561.94	402.57
562.11	456.40
562.27	386.19
562.44	442.36
562.60	411.93
562.77	468.11
562.93	505.56
563.10	383.85
563.26	458.74
563.42	475.13
563.59	447.04
563.75	395.55
563.92	402.57
564.08	353.42
564.24	456.40
564.41	475.13
564.57	402.57
564.74	395.55
564.90	435.34
565.07	454.06
565.23	367.46
565.39	414.27
565.56	395.55
565.72	465.77
565.88	500.87
566.05	400.23
566.21	362.78
566.38	428.32
566.54	393.21
566.70	407.25
566.87	379.17
567.03	374.49
567.19	468.11
567.36	444.70
567.52	454.06
567.68	421.30
567.85	479.81
568.01	390.87
568.17	421.30
568.34	360.44
568.50	433.00
568.66	386.19
568.83	519.60
568.99	458.74
569.15	472.79
569.32	386.19
569.48	416.62
569.64	465.77
569.81	393.21
569.97	437.68
570.13	496.19
570.30	383.85
570.46	411.93
570.62	416.62
570.78	456.40
570.95	421.30
571.11	514.92
571.27	472.79
571.43	430.66
571.60	463.43
571.76	367.46
571.92	416.62
572.09	447.04
572.25	484.49
572.41	430.66
572.57	456.40
572.74	472.79
572.90	416.62
573.06	440.02
573.22	435.34
573.38	409.59
573.55	416.62
573.71	512.58
573.87	491.51
574.03	421.30
574.20	374.49
574.36	416.62
574.52	334.70
574.68	374.49
574.84	390.87
575.01	418.96
575.17	470.45
575.33	435.34
575.49	447.04
575.65	442.36
575.82	407.25
575.98	442.36
576.14	376.83
576.30	456.40
576.46	402.57
576.62	454.06
576.79	479.81
576.95	437.68
577.11	386.19
577.27	442.36
577.43	402.57
577.59	449.38
577.75	437.68
577.92	449.38
578.08	454.06
578.24	416.62
578.40	449.38
578.56	451.72
578.72	428.32
578.88	486.83
579.04	393.21
579.21	360.44
579.37	423.64
579.53	355.76
579.69	425.98
579.85	423.64
580.01	489.17
580.17	463.43
580.33	355.76
580.49	374.49
580.65	451.72
580.82	447.04
580.98	397.89
581.14	390.87
581.30	475.13
581.46	341.72
581.62	395.55
581.78	388.53
581.94	365.12
582.10	311.29
582.26	437.68
582.42	444.70
582.58	400.23
582.74	376.83
582.90	472.79
583.06	395.55
583.22	416.62
583.38	346.40
583.54	418.96
583.70	381.51
583.86	421.30
584.02	393.21
584.18	425.98
584.34	395.55
584.50	395.55
584.66	425.98
584.82	388.53
584.98	423.64
585.14	468.11
585.30	479.81
585.46	418.96
585.62	376.83
585.78	454.06
585.94	461.09
586.10	414.27
586.26	367.46
586.42	425.98
586.58	381.51
586.74	360.44
586.90	409.59
587.06	454.06
587.22	404.91
587.38	383.85
587.54	418.96
587.70	430.66
587.86	374.49
588.02	381.51
588.18	428.32
588.34	407.25
588.49	353.42
588.65	425.98
588.81	442.36
588.97	458.74
589.13	369.80
589.29	383.85
589.45	454.06
589.61	496.19
589.77	372.15
589.93	409.59
590.08	400.23
590.24	381.51
590.40	428.32
590.56	491.51
590.72	381.51
590.88	409.59
591.04	355.76
591.20	372.15
591.35	440.02
591.51	409.59
591.67	475.13
591.83	404.91
591.99	416.62
592.15	451.72
592.31	407.25
592.46	407.25
592.62	496.19
592.78	416.62
592.94	421.30
593.10	489.17
593.26	409.59
593.41	454.06
593.57	362.78
593.73	421.30
593.89	374.49
594.05	498.53
594.20	407.25
594.36	374.49
594.52	430.66
594.68	435.34
594.84	449.38
594.99	416.62
595.15	484.49
595.31	430.66
595.47	496.19
595.62	454.06
595.78	351.08
595.94	402.57
596.10	430.66
596.25	451.72
596.41	397.89
596.57	388.53
596.73	379.17
596.88	393.21
597.04	376.83
597.20	397.89
597.36	390.87
597.51	407.25
597.67	330.02
597.83	388.53
597.99	447.04
598.14	468.11
598.30	449.38
598.46	402.57
598.61	402.57
598.77	404.91
598.93	402.57
599.09	383.85
599.24	416.62
599.40	458.74
599.56	425.98
599.71	463.43
599.87	418.96
600.03	449.38
600.18	442.36
600.34	456.40
600.50	414.27
600.65	386.19
600.81	418.96
600.97	325.33
601.12	430.66
601.28	456.40
601.44	470.45
601.59	374.49
601.75	416.62
601.91	411.93
602.06	360.44
602.22	475.13
602.37	428.32
602.53	360.44
602.69	430.66
602.84	411.93
603.00	416.62
603.16	428.32
603.31	393.21
603.47	353.42
603.62	402.57
603.78	472.79
603.94	397.89
604.09	425.98
604.25	451.72
604.40	463.43
604.56	470.45
604.71	421.30
604.87	421.30
605.03	409.59
605.18	440.02
605.34	402.57
605.49	418.96
605.65	372.15
605.80	430.66
605.96	374.49
606.12	404.91
606.27	397.89
606.43	477.47
606.58	358.10
606.74	390.87
606.89	458.74
607.05	376.83
607.20	346.40
607.36	346.40
607.51	376.83
607.67	444.70
607.82	444.70
607.98	500.87
608.13	444.70
608.29	484.49
608.44	442.36
608.60	421.30
608.75	402.57
608.91	409.59
609.06	451.72
609.22	468.11
609.37	430.66
609.53	449.38
609.68	463.43
609.84	409.59
609.99	456.40
610.15	425.98
