SpectraSuite Data File
++++++++++++++++++++++++++++++++++++
Date: Fri Oct 25 12:10:31 EDT 2013
User: price-jones
Dark Spectrum Present: No
Reference Spectrum Present: No
Number of Sampled Component Spectra: 1
Spectrometers: USB2+H05261
Integration Time (usec): 100000 (USB2+H05261)
Spectra Averaged: 1 (USB2+H05261)
Boxcar Smoothing: 0 (USB2+H05261)
Correct for Electrical Dark: No (USB2+H05261)
Strobe/Lamp Enabled: No (USB2+H05261)
Correct for Detector Non-linearity: No (USB2+H05261)
Correct for Stray Light: No (USB2+H05261)
Number of Pixels in Processed Spectrum: 2048
>>>>>Begin Processed Spectral Data<<<<<
365.73	299.59
365.92	299.59
366.12	299.59
366.32	285.55
366.52	234.05
366.72	224.69
366.91	215.33
367.11	180.22
367.31	198.95
367.51	257.46
367.70	276.18
367.90	241.08
368.10	205.97
368.30	257.46
368.49	234.05
368.69	266.82
368.89	198.95
369.09	222.35
369.28	245.76
369.48	315.97
369.68	201.29
369.87	287.89
370.07	351.08
370.27	334.70
370.47	379.17
370.66	301.93
370.86	418.96
371.06	383.85
371.25	372.15
371.45	318.31
371.65	402.57
371.84	322.99
372.04	353.42
372.24	346.40
372.44	376.83
372.63	355.76
372.83	348.74
373.03	393.21
373.22	421.30
373.42	376.83
373.62	435.34
373.81	428.32
374.01	433.00
374.21	411.93
374.40	414.27
374.60	449.38
374.79	381.51
374.99	404.91
375.19	435.34
375.38	463.43
375.58	393.21
375.78	435.34
375.97	383.85
376.17	388.53
376.37	372.15
376.56	418.96
376.76	409.59
376.95	437.68
377.15	337.04
377.35	463.43
377.54	409.59
377.74	390.87
377.93	442.36
378.13	390.87
378.33	416.62
378.52	442.36
378.72	468.11
378.91	407.25
379.11	365.12
379.31	337.04
379.50	344.06
379.70	409.59
379.89	409.59
380.09	395.55
380.28	428.32
380.48	458.74
380.68	425.98
380.87	421.30
381.07	360.44
381.26	433.00
381.46	397.89
381.65	468.11
381.85	374.49
382.04	395.55
382.24	358.10
382.43	379.17
382.63	425.98
382.83	386.19
383.02	472.79
383.22	440.02
383.41	395.55
383.61	425.98
383.80	433.00
384.00	423.64
384.19	451.72
384.39	407.25
384.58	390.87
384.78	365.12
384.97	409.59
385.17	334.70
385.36	369.80
385.56	381.51
385.75	404.91
385.95	442.36
386.14	400.23
386.34	390.87
386.53	456.40
386.72	416.62
386.92	442.36
387.11	390.87
387.31	376.83
387.50	428.32
387.70	365.12
387.89	465.77
388.09	404.91
388.28	388.53
388.48	381.51
388.67	433.00
388.86	397.89
389.06	435.34
389.25	402.57
389.45	402.57
389.64	346.40
389.84	444.70
390.03	444.70
390.22	433.00
390.42	388.53
390.61	442.36
390.81	395.55
391.00	355.76
391.19	463.43
391.39	393.21
391.58	355.76
391.78	360.44
391.97	440.02
392.16	360.44
392.36	386.19
392.55	402.57
392.75	390.87
392.94	428.32
393.13	414.27
393.33	409.59
393.52	383.85
393.71	374.49
393.91	407.25
394.10	400.23
394.29	435.34
394.49	351.08
394.68	388.53
394.88	341.72
395.07	414.27
395.26	447.04
395.46	409.59
395.65	440.02
395.84	334.70
396.04	388.53
396.23	414.27
396.42	315.97
396.62	358.10
396.81	475.13
397.00	400.23
397.19	402.57
397.39	444.70
397.58	451.72
397.77	409.59
397.97	381.51
398.16	409.59
398.35	404.91
398.55	383.85
398.74	365.12
398.93	369.80
399.12	337.04
399.32	447.04
399.51	372.15
399.70	390.87
399.90	477.47
400.09	463.43
400.28	409.59
400.47	404.91
400.67	339.38
400.86	383.85
401.05	409.59
401.24	404.91
401.44	362.78
401.63	425.98
401.82	411.93
402.01	440.02
402.21	423.64
402.40	379.17
402.59	421.30
402.78	369.80
402.97	397.89
403.17	440.02
403.36	430.66
403.55	442.36
403.74	369.80
403.93	388.53
404.13	386.19
404.32	325.33
404.51	374.49
404.70	433.00
404.89	393.21
405.09	421.30
405.28	400.23
405.47	369.80
405.66	414.27
405.85	444.70
406.05	404.91
406.24	407.25
406.43	475.13
406.62	395.55
406.81	411.93
407.00	475.13
407.20	423.64
407.39	407.25
407.58	423.64
407.77	386.19
407.96	470.45
408.15	430.66
408.34	376.83
408.54	433.00
408.73	437.68
408.92	416.62
409.11	416.62
409.30	435.34
409.49	362.78
409.68	416.62
409.87	379.17
410.07	449.38
410.26	409.59
410.45	414.27
410.64	344.06
410.83	430.66
411.02	369.80
411.21	425.98
411.40	369.80
411.59	351.08
411.78	456.40
411.98	353.42
412.17	383.85
412.36	416.62
412.55	358.10
412.74	437.68
412.93	482.15
413.12	376.83
413.31	381.51
413.50	421.30
413.69	390.87
413.88	430.66
414.07	433.00
414.26	414.27
414.45	332.36
414.64	418.96
414.83	477.47
415.02	374.49
415.22	418.96
415.41	421.30
415.60	414.27
415.79	390.87
415.98	407.25
416.17	386.19
416.36	437.68
416.55	411.93
416.74	418.96
416.93	435.34
417.12	365.12
417.31	423.64
417.50	416.62
417.69	411.93
417.88	430.66
418.07	428.32
418.26	414.27
418.45	369.80
418.64	423.64
418.83	362.78
419.02	414.27
419.21	472.79
419.39	472.79
419.58	386.19
419.77	365.12
419.96	423.64
420.15	421.30
420.34	421.30
420.53	475.13
420.72	376.83
420.91	344.06
421.10	337.04
421.29	397.89
421.48	421.30
421.67	362.78
421.86	411.93
422.05	423.64
422.24	444.70
422.43	440.02
422.61	444.70
422.80	367.46
422.99	458.74
423.18	423.64
423.37	379.17
423.56	362.78
423.75	379.17
423.94	369.80
424.13	404.91
424.32	451.72
424.50	449.38
424.69	428.32
424.88	418.96
425.07	400.23
425.26	428.32
425.45	425.98
425.64	430.66
425.83	388.53
426.01	400.23
426.20	372.15
426.39	458.74
426.58	421.30
426.77	458.74
426.96	428.32
427.15	430.66
427.33	383.85
427.52	411.93
427.71	416.62
427.90	461.09
428.09	369.80
428.28	372.15
428.46	360.44
428.65	463.43
428.84	421.30
429.03	454.06
429.22	379.17
429.40	444.70
429.59	465.77
429.78	484.49
429.97	433.00
430.16	409.59
430.34	397.89
430.53	416.62
430.72	379.17
430.91	388.53
431.10	327.68
431.28	430.66
431.47	435.34
431.66	447.04
431.85	435.34
432.03	393.21
432.22	442.36
432.41	404.91
432.60	435.34
432.79	440.02
432.97	351.08
433.16	437.68
433.35	447.04
433.54	407.25
433.72	397.89
433.91	461.09
434.10	341.72
434.28	440.02
434.47	404.91
434.66	435.34
434.85	430.66
435.03	369.80
435.22	395.55
435.41	444.70
435.59	437.68
435.78	407.25
435.97	346.40
436.16	355.76
436.34	425.98
436.53	425.98
436.72	449.38
436.90	421.30
437.09	365.12
437.28	409.59
437.46	395.55
437.65	421.30
437.84	372.15
438.02	393.21
438.21	482.15
438.40	444.70
438.58	440.02
438.77	423.64
438.96	407.25
439.14	351.08
439.33	388.53
439.52	409.59
439.70	447.04
439.89	348.74
440.08	414.27
440.26	402.57
440.45	379.17
440.63	346.40
440.82	388.53
441.01	407.25
441.19	397.89
441.38	402.57
441.57	397.89
441.75	351.08
441.94	468.11
442.12	414.27
442.31	472.79
442.50	416.62
442.68	355.76
442.87	430.66
443.05	437.68
443.24	437.68
443.43	435.34
443.61	456.40
443.80	376.83
443.98	404.91
444.17	444.70
444.35	442.36
444.54	376.83
444.73	458.74
444.91	433.00
445.10	383.85
445.28	395.55
445.47	400.23
445.65	435.34
445.84	440.02
446.02	458.74
446.21	390.87
446.39	430.66
446.58	428.32
446.77	404.91
446.95	414.27
447.14	447.04
447.32	465.77
447.51	430.66
447.69	386.19
447.88	397.89
448.06	414.27
448.25	407.25
448.43	397.89
448.62	472.79
448.80	404.91
448.99	379.17
449.17	393.21
449.36	477.47
449.54	416.62
449.73	463.43
449.91	468.11
450.10	400.23
450.28	433.00
450.46	414.27
450.65	421.30
450.83	334.70
451.02	456.40
451.20	451.72
451.39	383.85
451.57	390.87
451.76	421.30
451.94	449.38
452.13	442.36
452.31	503.22
452.49	440.02
452.68	374.49
452.86	437.68
453.05	383.85
453.23	418.96
453.42	411.93
453.60	397.89
453.78	400.23
453.97	418.96
454.15	390.87
454.34	451.72
454.52	376.83
454.70	374.49
454.89	430.66
455.07	402.57
455.26	386.19
455.44	440.02
455.62	423.64
455.81	461.09
455.99	425.98
456.17	475.13
456.36	437.68
456.54	390.87
456.73	407.25
456.91	397.89
457.09	372.15
457.28	456.40
457.46	402.57
457.64	472.79
457.83	358.10
458.01	374.49
458.19	407.25
458.38	411.93
458.56	425.98
458.74	393.21
458.93	365.12
459.11	372.15
459.29	421.30
459.48	428.32
459.66	435.34
459.84	442.36
460.03	390.87
460.21	470.45
460.39	465.77
460.57	454.06
460.76	433.00
460.94	418.96
461.12	465.77
461.31	393.21
461.49	428.32
461.67	430.66
461.85	470.45
462.04	416.62
462.22	819.19
462.40	486.83
462.59	442.36
462.77	390.87
462.95	308.95
463.13	351.08
463.32	383.85
463.50	458.74
463.68	519.60
463.86	423.64
464.05	465.77
464.23	470.45
464.41	386.19
464.59	407.25
464.78	433.00
464.96	416.62
465.14	395.55
465.32	362.78
465.50	390.87
465.69	395.55
465.87	442.36
466.05	388.53
466.23	423.64
466.41	395.55
466.60	451.72
466.78	475.13
466.96	437.68
467.14	470.45
467.32	482.15
467.51	365.12
467.69	470.45
467.87	451.72
468.05	416.62
468.23	468.11
468.41	351.08
468.60	404.91
468.78	484.49
468.96	463.43
469.14	517.26
469.32	418.96
469.50	379.17
469.69	423.64
469.87	458.74
470.05	449.38
470.23	414.27
470.41	395.55
470.59	379.17
470.77	402.57
470.95	463.43
471.14	430.66
471.32	435.34
471.50	379.17
471.68	425.98
471.86	425.98
472.04	475.13
472.22	353.42
472.40	365.12
472.58	407.25
472.77	416.62
472.95	379.17
473.13	425.98
473.31	430.66
473.49	449.38
473.67	386.19
473.85	374.49
474.03	411.93
474.21	468.11
474.39	463.43
474.57	454.06
474.75	383.85
474.93	414.27
475.12	461.09
475.30	411.93
475.48	444.70
475.66	440.02
475.84	344.06
476.02	463.43
476.20	435.34
476.38	435.34
476.56	456.40
476.74	353.42
476.92	425.98
477.10	362.78
477.28	404.91
477.46	425.98
477.64	425.98
477.82	395.55
478.00	397.89
478.18	472.79
478.36	428.32
478.54	393.21
478.72	470.45
478.90	425.98
479.08	428.32
479.26	440.02
479.44	351.08
479.62	372.15
479.80	376.83
479.98	379.17
480.16	372.15
480.34	423.64
480.52	404.91
480.70	461.09
480.88	390.87
481.06	416.62
481.24	447.04
481.41	468.11
481.59	479.81
481.77	442.36
481.95	388.53
482.13	416.62
482.31	344.06
482.49	465.77
482.67	477.47
482.85	479.81
483.03	416.62
483.21	437.68
483.39	407.25
483.57	365.12
483.74	402.57
483.92	407.25
484.10	430.66
484.28	421.30
484.46	465.77
484.64	421.30
484.82	397.89
485.00	388.53
485.18	463.43
485.35	315.97
485.53	386.19
485.71	437.68
485.89	348.74
486.07	458.74
486.25	470.45
486.43	341.72
486.61	379.17
486.78	433.00
486.96	447.04
487.14	351.08
487.32	351.08
487.50	435.34
487.68	423.64
487.85	397.89
488.03	400.23
488.21	376.83
488.39	395.55
488.57	454.06
488.75	456.40
488.92	554.71
489.10	440.02
489.28	465.77
489.46	395.55
489.64	421.30
489.81	447.04
489.99	468.11
490.17	444.70
490.35	416.62
490.53	402.57
490.70	376.83
490.88	489.17
491.06	468.11
491.24	442.36
491.41	444.70
491.59	470.45
491.77	397.89
491.95	430.66
492.13	430.66
492.30	374.49
492.48	486.83
492.66	367.46
492.84	379.17
493.01	433.00
493.19	468.11
493.37	458.74
493.54	351.08
493.72	435.34
493.90	428.32
494.08	397.89
494.25	390.87
494.43	404.91
494.61	390.87
494.79	376.83
494.96	358.10
495.14	407.25
495.32	454.06
495.49	428.32
495.67	393.21
495.85	416.62
496.02	442.36
496.20	503.22
496.38	353.42
496.55	454.06
496.73	395.55
496.91	362.78
497.09	411.93
497.26	449.38
497.44	510.24
497.62	407.25
497.79	416.62
497.97	404.91
498.14	365.12
498.32	362.78
498.50	402.57
498.67	416.62
498.85	428.32
499.03	388.53
499.20	388.53
499.38	367.46
499.56	383.85
499.73	369.80
499.91	376.83
500.08	425.98
500.26	451.72
500.44	456.40
500.61	472.79
500.79	428.32
500.97	379.17
501.14	493.85
501.32	409.59
501.49	397.89
501.67	461.09
501.84	388.53
502.02	442.36
502.20	472.79
502.37	381.51
502.55	339.38
502.72	379.17
502.90	365.12
503.07	425.98
503.25	409.59
503.43	301.93
503.60	393.21
503.78	407.25
503.95	383.85
504.13	353.42
504.30	456.40
504.48	447.04
504.65	404.91
504.83	458.74
505.01	407.25
505.18	409.59
505.36	411.93
505.53	430.66
505.71	407.25
505.88	484.49
506.06	484.49
506.23	433.00
506.41	404.91
506.58	386.19
506.76	428.32
506.93	409.59
507.11	414.27
507.28	376.83
507.46	404.91
507.63	428.32
507.81	372.15
507.98	442.36
508.16	400.23
508.33	407.25
508.50	440.02
508.68	381.51
508.85	435.34
509.03	526.62
509.20	351.08
509.38	362.78
509.55	456.40
509.73	407.25
509.90	423.64
510.08	444.70
510.25	440.02
510.42	418.96
510.60	367.46
510.77	442.36
510.95	372.15
511.12	458.74
511.30	465.77
511.47	493.85
511.64	528.96
511.82	381.51
511.99	418.96
512.17	404.91
512.34	362.78
512.51	454.06
512.69	407.25
512.86	407.25
513.04	402.57
513.21	416.62
513.38	397.89
513.56	409.59
513.73	381.51
513.90	374.49
514.08	390.87
514.25	416.62
514.43	407.25
514.60	491.51
514.77	369.80
514.95	440.02
515.12	421.30
515.29	407.25
515.47	454.06
515.64	477.47
515.81	470.45
515.99	477.47
516.16	418.96
516.33	456.40
516.51	381.51
516.68	447.04
516.85	447.04
517.03	409.59
517.20	365.12
517.37	386.19
517.54	404.91
517.72	381.51
517.89	360.44
518.06	297.25
518.24	425.98
518.41	498.53
518.58	383.85
518.75	407.25
518.93	472.79
519.10	468.11
519.27	362.78
519.45	397.89
519.62	404.91
519.79	461.09
519.96	365.12
520.14	404.91
520.31	447.04
520.48	360.44
520.65	463.43
520.83	461.09
521.00	423.64
521.17	395.55
521.34	451.72
521.52	376.83
521.69	400.23
521.86	397.89
522.03	407.25
522.20	414.27
522.38	454.06
522.55	355.76
522.72	402.57
522.89	451.72
523.07	440.02
523.24	468.11
523.41	418.96
523.58	440.02
523.75	348.74
523.92	435.34
524.10	400.23
524.27	442.36
524.44	433.00
524.61	451.72
524.78	435.34
524.96	266.82
525.13	383.85
525.30	503.22
525.47	465.77
525.64	447.04
525.81	407.25
525.98	376.83
526.16	423.64
526.33	339.38
526.50	449.38
526.67	404.91
526.84	393.21
527.01	390.87
527.18	442.36
527.36	430.66
527.53	390.87
527.70	458.74
527.87	390.87
528.04	468.11
528.21	346.40
528.38	376.83
528.55	421.30
528.72	449.38
528.89	491.51
529.07	416.62
529.24	484.49
529.41	489.17
529.58	433.00
529.75	442.36
529.92	365.12
530.09	449.38
530.26	425.98
530.43	425.98
530.60	388.53
530.77	407.25
530.94	411.93
531.11	421.30
531.28	355.76
531.46	423.64
531.63	416.62
531.80	465.77
531.97	451.72
532.14	451.72
532.31	465.77
532.48	414.27
532.65	402.57
532.82	376.83
532.99	376.83
533.16	411.93
533.33	433.00
533.50	353.42
533.67	388.53
533.84	435.34
534.01	393.21
534.18	393.21
534.35	376.83
534.52	418.96
534.69	491.51
534.86	379.17
535.03	472.79
535.20	458.74
535.37	451.72
535.54	428.32
535.71	449.38
535.88	386.19
536.05	362.78
536.22	456.40
536.38	369.80
536.55	381.51
536.72	470.45
536.89	395.55
537.06	468.11
537.23	468.11
537.40	425.98
537.57	393.21
537.74	472.79
537.91	400.23
538.08	341.72
538.25	423.64
538.42	369.80
538.59	451.72
538.75	430.66
538.92	418.96
539.09	416.62
539.26	414.27
539.43	351.08
539.60	400.23
539.77	442.36
539.94	414.27
540.11	418.96
540.28	447.04
540.44	472.79
540.61	416.62
540.78	421.30
540.95	440.02
541.12	500.87
541.29	397.89
541.46	402.57
541.62	449.38
541.79	425.98
541.96	362.78
542.13	393.21
542.30	374.49
542.47	404.91
542.63	322.99
542.80	353.42
542.97	416.62
543.14	470.45
543.31	454.06
543.48	423.64
543.64	411.93
543.81	440.02
543.98	458.74
544.15	428.32
544.32	381.51
544.48	416.62
544.65	360.44
544.82	404.91
544.99	409.59
545.16	435.34
545.32	409.59
545.49	330.02
545.66	461.09
545.83	362.78
546.00	355.76
546.16	423.64
546.33	477.47
546.50	463.43
546.67	454.06
546.83	461.09
547.00	367.46
547.17	451.72
547.34	369.80
547.50	374.49
547.67	428.32
547.84	428.32
548.00	397.89
548.17	379.17
548.34	381.51
548.51	482.15
548.67	435.34
548.84	416.62
549.01	442.36
549.18	433.00
549.34	397.89
549.51	355.76
549.68	458.74
549.84	430.66
550.01	351.08
550.18	454.06
550.34	486.83
550.51	444.70
550.68	503.22
550.84	484.49
551.01	433.00
551.18	418.96
551.34	416.62
551.51	416.62
551.68	421.30
551.84	421.30
552.01	374.49
552.18	360.44
552.34	430.66
552.51	414.27
552.68	510.24
552.84	383.85
553.01	454.06
553.18	435.34
553.34	402.57
553.51	435.34
553.67	388.53
553.84	470.45
554.01	362.78
554.17	451.72
554.34	437.68
554.51	465.77
554.67	489.17
554.84	395.55
555.00	418.96
555.17	402.57
555.33	454.06
555.50	411.93
555.67	442.36
555.83	353.42
556.00	437.68
556.16	519.60
556.33	442.36
556.50	456.40
556.66	409.59
556.83	461.09
556.99	451.72
557.16	498.53
557.32	383.85
557.49	458.74
557.65	482.15
557.82	437.68
557.98	465.77
558.15	402.57
558.32	449.38
558.48	346.40
558.65	442.36
558.81	404.91
558.98	418.96
559.14	442.36
559.31	383.85
559.47	484.49
559.64	411.93
559.80	451.72
559.97	421.30
560.13	351.08
560.30	362.78
560.46	383.85
560.63	416.62
560.79	447.04
560.96	395.55
561.12	463.43
561.29	449.38
561.45	416.62
561.61	463.43
561.78	533.64
561.94	454.06
562.11	411.93
562.27	425.98
562.44	395.55
562.60	484.49
562.77	433.00
562.93	468.11
563.10	472.79
563.26	386.19
563.42	409.59
563.59	400.23
563.75	407.25
563.92	475.13
564.08	318.31
564.24	393.21
564.41	482.15
564.57	346.40
564.74	430.66
564.90	440.02
565.07	369.80
565.23	456.40
565.39	461.09
565.56	404.91
565.72	416.62
565.88	346.40
566.05	362.78
566.21	367.46
566.38	407.25
566.54	404.91
566.70	341.72
566.87	465.77
567.03	355.76
567.19	456.40
567.36	458.74
567.52	386.19
567.68	451.72
567.85	463.43
568.01	393.21
568.17	447.04
568.34	411.93
568.50	482.15
568.66	442.36
568.83	451.72
568.99	383.85
569.15	451.72
569.32	428.32
569.48	332.36
569.64	423.64
569.81	362.78
569.97	430.66
570.13	435.34
570.30	437.68
570.46	369.80
570.62	475.13
570.78	449.38
570.95	409.59
571.11	430.66
571.27	461.09
571.43	383.85
571.60	428.32
571.76	407.25
571.92	421.30
572.09	451.72
572.25	367.46
572.41	369.80
572.57	430.66
572.74	402.57
572.90	486.83
573.06	337.04
573.22	442.36
573.38	402.57
573.55	355.76
573.71	411.93
573.87	451.72
574.03	458.74
574.20	383.85
574.36	428.32
574.52	486.83
574.68	418.96
574.84	421.30
575.01	365.12
575.17	428.32
575.33	409.59
575.49	388.53
575.65	465.77
575.82	454.06
575.98	388.53
576.14	461.09
576.30	477.47
576.46	416.62
576.62	479.81
576.79	355.76
576.95	505.56
577.11	383.85
577.27	472.79
577.43	430.66
577.59	388.53
577.75	510.24
577.92	477.47
578.08	355.76
578.24	454.06
578.40	416.62
578.56	475.13
578.72	496.19
578.88	351.08
579.04	388.53
579.21	430.66
579.37	418.96
579.53	411.93
579.69	510.24
579.85	372.15
580.01	435.34
580.17	454.06
580.33	430.66
580.49	421.30
580.65	360.44
580.82	433.00
580.98	463.43
581.14	393.21
581.30	503.22
581.46	416.62
581.62	470.45
581.78	425.98
581.94	407.25
582.10	381.51
582.26	395.55
582.42	344.06
582.58	407.25
582.74	379.17
582.90	454.06
583.06	414.27
583.22	381.51
583.38	421.30
583.54	362.78
583.70	428.32
583.86	425.98
584.02	433.00
584.18	454.06
584.34	456.40
584.50	395.55
584.66	383.85
584.82	423.64
584.98	433.00
585.14	435.34
585.30	458.74
585.46	390.87
585.62	379.17
585.78	318.31
585.94	454.06
586.10	381.51
586.26	395.55
586.42	470.45
586.58	395.55
586.74	386.19
586.90	381.51
587.06	395.55
587.22	430.66
587.38	397.89
587.54	440.02
587.70	430.66
587.86	442.36
588.02	421.30
588.18	514.92
588.34	449.38
588.49	447.04
588.65	463.43
588.81	402.57
588.97	383.85
589.13	428.32
589.29	428.32
589.45	376.83
589.61	465.77
589.77	435.34
589.93	372.15
590.08	376.83
590.24	440.02
590.40	449.38
590.56	519.60
590.72	421.30
590.88	390.87
591.04	388.53
591.20	414.27
591.35	482.15
591.51	376.83
591.67	411.93
591.83	447.04
591.99	421.30
592.15	386.19
592.31	442.36
592.46	369.80
592.62	458.74
592.78	376.83
592.94	388.53
593.10	428.32
593.26	493.85
593.41	437.68
593.57	365.12
593.73	451.72
593.89	470.45
594.05	381.51
594.20	440.02
594.36	409.59
594.52	461.09
594.68	477.47
594.84	372.15
594.99	428.32
595.15	428.32
595.31	440.02
595.47	440.02
595.62	365.12
595.78	372.15
595.94	393.21
596.10	451.72
596.25	418.96
596.41	388.53
596.57	433.00
596.73	414.27
596.88	477.47
597.04	425.98
597.20	463.43
597.36	510.24
597.51	337.04
597.67	423.64
597.83	418.96
597.99	472.79
598.14	372.15
598.30	388.53
598.46	381.51
598.61	475.13
598.77	435.34
598.93	414.27
599.09	409.59
599.24	486.83
599.40	388.53
599.56	386.19
599.71	421.30
599.87	463.43
600.03	416.62
600.18	374.49
600.34	477.47
600.50	447.04
600.65	430.66
600.81	498.53
600.97	355.76
601.12	372.15
601.28	468.11
601.44	369.80
601.59	362.78
601.75	411.93
601.91	477.47
602.06	348.74
602.22	498.53
602.37	369.80
602.53	383.85
602.69	386.19
602.84	395.55
603.00	400.23
603.16	447.04
603.31	440.02
603.47	404.91
603.62	447.04
603.78	386.19
603.94	383.85
604.09	372.15
604.25	442.36
604.40	395.55
604.56	360.44
604.71	456.40
604.87	367.46
605.03	402.57
605.18	414.27
605.34	425.98
605.49	463.43
605.65	395.55
605.80	283.20
605.96	409.59
606.12	510.24
606.27	447.04
606.43	449.38
606.58	465.77
606.74	435.34
606.89	404.91
607.05	409.59
607.20	472.79
607.36	404.91
607.51	388.53
607.67	428.32
607.82	472.79
607.98	472.79
608.13	463.43
608.29	390.87
608.44	458.74
608.60	393.21
608.75	461.09
608.91	369.80
609.06	397.89
609.22	416.62
609.37	470.45
609.53	397.89
609.68	400.23
609.84	414.27
609.99	358.10
610.15	498.53
