SpectraSuite Data File
++++++++++++++++++++++++++++++++++++
Date: Fri Oct 25 12:11:28 EDT 2013
User: price-jones
Dark Spectrum Present: No
Reference Spectrum Present: No
Number of Sampled Component Spectra: 1
Spectrometers: USB2+H05261
Integration Time (usec): 100000 (USB2+H05261)
Spectra Averaged: 1 (USB2+H05261)
Boxcar Smoothing: 0 (USB2+H05261)
Correct for Electrical Dark: No (USB2+H05261)
Strobe/Lamp Enabled: No (USB2+H05261)
Correct for Detector Non-linearity: No (USB2+H05261)
Correct for Stray Light: No (USB2+H05261)
Number of Pixels in Processed Spectrum: 2048
>>>>>Begin Processed Spectral Data<<<<<
365.73	285.55
365.92	285.55
366.12	285.55
366.32	313.63
366.52	315.97
366.72	243.42
366.91	318.31
367.11	224.69
367.31	294.91
367.51	201.29
367.70	283.20
367.90	231.71
368.10	231.71
368.30	224.69
368.49	241.08
368.69	280.86
368.89	208.31
369.09	294.91
369.28	259.80
369.48	245.76
369.68	262.14
369.87	224.69
370.07	292.57
370.27	367.46
370.47	348.74
370.66	287.89
370.86	390.87
371.06	337.04
371.25	458.74
371.45	383.85
371.65	369.80
371.84	383.85
372.04	327.68
372.24	461.09
372.44	367.46
372.63	397.89
372.83	425.98
373.03	341.72
373.22	395.55
373.42	360.44
373.62	414.27
373.81	482.15
374.01	409.59
374.21	493.85
374.40	334.70
374.60	437.68
374.79	428.32
374.99	454.06
375.19	433.00
375.38	395.55
375.58	421.30
375.78	407.25
375.97	416.62
376.17	461.09
376.37	390.87
376.56	395.55
376.76	346.40
376.95	411.93
377.15	521.94
377.35	440.02
377.54	409.59
377.74	390.87
377.93	451.72
378.13	411.93
378.33	440.02
378.52	416.62
378.72	444.70
378.91	365.12
379.11	449.38
379.31	421.30
379.50	411.93
379.70	440.02
379.89	416.62
380.09	402.57
380.28	421.30
380.48	411.93
380.68	341.72
380.87	308.95
381.07	454.06
381.26	493.85
381.46	372.15
381.65	367.46
381.85	369.80
382.04	397.89
382.24	365.12
382.43	418.96
382.63	416.62
382.83	390.87
383.02	456.40
383.22	418.96
383.41	425.98
383.61	451.72
383.80	449.38
384.00	433.00
384.19	451.72
384.39	397.89
384.58	447.04
384.78	397.89
384.97	351.08
385.17	430.66
385.36	381.51
385.56	437.68
385.75	304.27
385.95	381.51
386.14	402.57
386.34	416.62
386.53	402.57
386.72	447.04
386.92	411.93
387.11	414.27
387.31	416.62
387.50	348.74
387.70	433.00
387.89	369.80
388.09	381.51
388.28	402.57
388.48	346.40
388.67	456.40
388.86	435.34
389.06	393.21
389.25	393.21
389.45	369.80
389.64	395.55
389.84	465.77
390.03	351.08
390.22	430.66
390.42	369.80
390.61	404.91
390.81	341.72
391.00	379.17
391.19	379.17
391.39	376.83
391.58	400.23
391.78	411.93
391.97	458.74
392.16	411.93
392.36	510.24
392.55	409.59
392.75	395.55
392.94	344.06
393.13	435.34
393.33	402.57
393.52	430.66
393.71	402.57
393.91	348.74
394.10	440.02
394.29	404.91
394.49	367.46
394.68	425.98
394.88	465.77
395.07	454.06
395.26	444.70
395.46	358.10
395.65	433.00
395.84	409.59
396.04	477.47
396.23	409.59
396.42	442.36
396.62	365.12
396.81	442.36
397.00	435.34
397.19	421.30
397.39	456.40
397.58	475.13
397.77	355.76
397.97	442.36
398.16	390.87
398.35	390.87
398.55	379.17
398.74	344.06
398.93	416.62
399.12	409.59
399.32	416.62
399.51	367.46
399.70	390.87
399.90	416.62
400.09	503.22
400.28	400.23
400.47	449.38
400.67	411.93
400.86	374.49
401.05	430.66
401.24	414.27
401.44	367.46
401.63	409.59
401.82	430.66
402.01	374.49
402.21	486.83
402.40	444.70
402.59	402.57
402.78	386.19
402.97	461.09
403.17	461.09
403.36	435.34
403.55	395.55
403.74	397.89
403.93	458.74
404.13	407.25
404.32	444.70
404.51	379.17
404.70	407.25
404.89	367.46
405.09	472.79
405.28	369.80
405.47	442.36
405.66	397.89
405.85	482.15
406.05	400.23
406.24	437.68
406.43	390.87
406.62	435.34
406.81	505.56
407.00	468.11
407.20	437.68
407.39	409.59
407.58	395.55
407.77	381.51
407.96	365.12
408.15	383.85
408.34	423.64
408.54	461.09
408.73	376.83
408.92	365.12
409.11	372.15
409.30	519.60
409.49	416.62
409.68	423.64
409.87	444.70
410.07	376.83
410.26	449.38
410.45	374.49
410.64	379.17
410.83	402.57
411.02	402.57
411.21	409.59
411.40	418.96
411.59	379.17
411.78	369.80
411.98	423.64
412.17	334.70
412.36	397.89
412.55	423.64
412.74	379.17
412.93	447.04
413.12	390.87
413.31	461.09
413.50	376.83
413.69	381.51
413.88	414.27
414.07	433.00
414.26	390.87
414.45	395.55
414.64	365.12
414.83	505.56
415.02	425.98
415.22	484.49
415.41	393.21
415.60	395.55
415.79	461.09
415.98	416.62
416.17	411.93
416.36	418.96
416.55	503.22
416.74	404.91
416.93	456.40
417.12	404.91
417.31	428.32
417.50	454.06
417.69	395.55
417.88	414.27
418.07	435.34
418.26	393.21
418.45	428.32
418.64	425.98
418.83	407.25
419.02	472.79
419.21	475.13
419.39	397.89
419.58	430.66
419.77	425.98
419.96	418.96
420.15	423.64
420.34	397.89
420.53	477.47
420.72	444.70
420.91	425.98
421.10	397.89
421.29	416.62
421.48	407.25
421.67	358.10
421.86	372.15
422.05	411.93
422.24	498.53
422.43	341.72
422.61	379.17
422.80	414.27
422.99	428.32
423.18	423.64
423.37	468.11
423.56	442.36
423.75	381.51
423.94	451.72
424.13	428.32
424.32	360.44
424.50	344.06
424.69	444.70
424.88	416.62
425.07	407.25
425.26	390.87
425.45	383.85
425.64	341.72
425.83	404.91
426.01	372.15
426.20	433.00
426.39	421.30
426.58	468.11
426.77	418.96
426.96	404.91
427.15	440.02
427.33	311.29
427.52	365.12
427.71	395.55
427.90	402.57
428.09	346.40
428.28	447.04
428.46	404.91
428.65	423.64
428.84	393.21
429.03	418.96
429.22	411.93
429.40	355.76
429.59	416.62
429.78	421.30
429.97	411.93
430.16	390.87
430.34	411.93
430.53	341.72
430.72	334.70
430.91	449.38
431.10	484.49
431.28	362.78
431.47	472.79
431.66	393.21
431.85	334.70
432.03	393.21
432.22	475.13
432.41	411.93
432.60	461.09
432.79	374.49
432.97	348.74
433.16	353.42
433.35	358.10
433.54	353.42
433.72	393.21
433.91	423.64
434.10	362.78
434.28	355.76
434.47	376.83
434.66	362.78
434.85	341.72
435.03	337.04
435.22	451.72
435.41	418.96
435.59	404.91
435.78	376.83
435.97	355.76
436.16	409.59
436.34	404.91
436.53	421.30
436.72	451.72
436.90	433.00
437.09	503.22
437.28	435.34
437.46	287.89
437.65	421.30
437.84	369.80
438.02	416.62
438.21	425.98
438.40	390.87
438.58	355.76
438.77	393.21
438.96	393.21
439.14	423.64
439.33	374.49
439.52	407.25
439.70	423.64
439.89	386.19
440.08	411.93
440.26	421.30
440.45	407.25
440.63	442.36
440.82	428.32
441.01	468.11
441.19	386.19
441.38	367.46
441.57	337.04
441.75	437.68
441.94	393.21
442.12	395.55
442.31	418.96
442.50	376.83
442.68	395.55
442.87	414.27
443.05	360.44
443.24	402.57
443.43	447.04
443.61	407.25
443.80	409.59
443.98	416.62
444.17	416.62
444.35	383.85
444.54	381.51
444.73	416.62
444.91	503.22
445.10	428.32
445.28	437.68
445.47	449.38
445.65	449.38
445.84	395.55
446.02	360.44
446.21	407.25
446.39	472.79
446.58	411.93
446.77	456.40
446.95	409.59
447.14	414.27
447.32	388.53
447.51	442.36
447.69	404.91
447.88	402.57
448.06	386.19
448.25	395.55
448.43	451.72
448.62	409.59
448.80	418.96
448.99	447.04
449.17	435.34
449.36	407.25
449.54	449.38
449.73	400.23
449.91	430.66
450.10	365.12
450.28	470.45
450.46	461.09
450.65	416.62
450.83	414.27
451.02	411.93
451.20	376.83
451.39	430.66
451.57	409.59
451.76	393.21
451.94	407.25
452.13	477.47
452.31	451.72
452.49	447.04
452.68	463.43
452.86	418.96
453.05	425.98
453.23	390.87
453.42	477.47
453.60	444.70
453.78	388.53
453.97	451.72
454.15	416.62
454.34	433.00
454.52	379.17
454.70	491.51
454.89	458.74
455.07	395.55
455.26	465.77
455.44	456.40
455.62	348.74
455.81	393.21
455.99	400.23
456.17	393.21
456.36	386.19
456.54	395.55
456.73	425.98
456.91	421.30
457.09	365.12
457.28	369.80
457.46	353.42
457.64	369.80
457.83	386.19
458.01	383.85
458.19	409.59
458.38	381.51
458.56	423.64
458.74	362.78
458.93	411.93
459.11	390.87
459.29	322.99
459.48	360.44
459.66	437.68
459.84	358.10
460.03	531.30
460.21	437.68
460.39	444.70
460.57	381.51
460.76	374.49
460.94	344.06
461.12	435.34
461.31	447.04
461.49	421.30
461.67	425.98
461.85	456.40
462.04	414.27
462.22	842.59
462.40	425.98
462.59	472.79
462.77	421.30
462.95	400.23
463.13	386.19
463.32	402.57
463.50	444.70
463.68	423.64
463.86	358.10
464.05	437.68
464.23	388.53
464.41	493.85
464.59	390.87
464.78	416.62
464.96	435.34
465.14	320.65
465.32	425.98
465.50	388.53
465.69	470.45
465.87	416.62
466.05	484.49
466.23	360.44
466.41	435.34
466.60	425.98
466.78	386.19
466.96	465.77
467.14	414.27
467.32	386.19
467.51	416.62
467.69	449.38
467.87	358.10
468.05	397.89
468.23	444.70
468.41	376.83
468.60	421.30
468.78	351.08
468.96	423.64
469.14	379.17
469.32	404.91
469.50	383.85
469.69	353.42
469.87	369.80
470.05	346.40
470.23	423.64
470.41	360.44
470.59	409.59
470.77	447.04
470.95	524.28
471.14	472.79
471.32	435.34
471.50	418.96
471.68	449.38
471.86	376.83
472.04	461.09
472.22	383.85
472.40	330.02
472.58	400.23
472.77	393.21
472.95	447.04
473.13	430.66
473.31	395.55
473.49	390.87
473.67	472.79
473.85	409.59
474.03	435.34
474.21	390.87
474.39	524.28
474.57	428.32
474.75	353.42
474.93	458.74
475.12	404.91
475.30	374.49
475.48	414.27
475.66	376.83
475.84	428.32
476.02	414.27
476.20	486.83
476.38	507.90
476.56	451.72
476.74	411.93
476.92	425.98
477.10	449.38
477.28	416.62
477.46	358.10
477.64	437.68
477.82	411.93
478.00	414.27
478.18	468.11
478.36	409.59
478.54	444.70
478.72	320.65
478.90	397.89
479.08	451.72
479.26	365.12
479.44	454.06
479.62	402.57
479.80	365.12
479.98	430.66
480.16	407.25
480.34	416.62
480.52	414.27
480.70	374.49
480.88	355.76
481.06	390.87
481.24	421.30
481.41	456.40
481.59	400.23
481.77	409.59
481.95	372.15
482.13	472.79
482.31	463.43
482.49	477.47
482.67	386.19
482.85	442.36
483.03	421.30
483.21	301.93
483.39	454.06
483.57	383.85
483.74	531.30
483.92	465.77
484.10	442.36
484.28	484.49
484.46	430.66
484.64	369.80
484.82	381.51
485.00	339.38
485.18	411.93
485.35	421.30
485.53	416.62
485.71	374.49
485.89	435.34
486.07	433.00
486.25	451.72
486.43	418.96
486.61	397.89
486.78	454.06
486.96	400.23
487.14	339.38
487.32	318.31
487.50	362.78
487.68	393.21
487.85	376.83
488.03	388.53
488.21	500.87
488.39	437.68
488.57	484.49
488.75	433.00
488.92	557.05
489.10	367.46
489.28	449.38
489.46	449.38
489.64	369.80
489.81	437.68
489.99	435.34
490.17	383.85
490.35	475.13
490.53	409.59
490.70	416.62
490.88	449.38
491.06	411.93
491.24	418.96
491.41	528.96
491.59	458.74
491.77	425.98
491.95	418.96
492.13	358.10
492.30	409.59
492.48	381.51
492.66	425.98
492.84	348.74
493.01	369.80
493.19	411.93
493.37	489.17
493.54	465.77
493.72	454.06
493.90	416.62
494.08	374.49
494.25	409.59
494.43	479.81
494.61	461.09
494.79	362.78
494.96	423.64
495.14	407.25
495.32	395.55
495.49	407.25
495.67	435.34
495.85	376.83
496.02	355.76
496.20	447.04
496.38	444.70
496.55	353.42
496.73	400.23
496.91	353.42
497.09	421.30
497.26	456.40
497.44	369.80
497.62	416.62
497.79	337.04
497.97	418.96
498.14	437.68
498.32	437.68
498.50	496.19
498.67	444.70
498.85	430.66
499.03	416.62
499.20	444.70
499.38	463.43
499.56	388.53
499.73	493.85
499.91	395.55
500.08	418.96
500.26	376.83
500.44	411.93
500.61	397.89
500.79	444.70
500.97	470.45
501.14	386.19
501.32	433.00
501.49	447.04
501.67	390.87
501.84	404.91
502.02	433.00
502.20	428.32
502.37	411.93
502.55	388.53
502.72	433.00
502.90	425.98
503.07	496.19
503.25	418.96
503.43	374.49
503.60	463.43
503.78	411.93
503.95	330.02
504.13	407.25
504.30	411.93
504.48	435.34
504.65	465.77
504.83	507.90
505.01	381.51
505.18	367.46
505.36	449.38
505.53	414.27
505.71	463.43
505.88	397.89
506.06	433.00
506.23	428.32
506.41	360.44
506.58	390.87
506.76	435.34
506.93	463.43
507.11	468.11
507.28	395.55
507.46	379.17
507.63	418.96
507.81	395.55
507.98	372.15
508.16	435.34
508.33	470.45
508.50	404.91
508.68	444.70
508.85	433.00
509.03	414.27
509.20	437.68
509.38	461.09
509.55	402.57
509.73	435.34
509.90	442.36
510.08	404.91
510.25	400.23
510.42	400.23
510.60	437.68
510.77	339.38
510.95	383.85
511.12	367.46
511.30	425.98
511.47	482.15
511.64	437.68
511.82	418.96
511.99	472.79
512.17	395.55
512.34	339.38
512.51	404.91
512.69	430.66
512.86	461.09
513.04	327.68
513.21	409.59
513.38	390.87
513.56	393.21
513.73	491.51
513.90	376.83
514.08	407.25
514.25	407.25
514.43	442.36
514.60	372.15
514.77	372.15
514.95	400.23
515.12	390.87
515.29	428.32
515.47	437.68
515.64	409.59
515.81	418.96
515.99	379.17
516.16	376.83
516.33	505.56
516.51	416.62
516.68	367.46
516.85	433.00
517.03	461.09
517.20	498.53
517.37	381.51
517.54	418.96
517.72	435.34
517.89	428.32
518.06	346.40
518.24	437.68
518.41	498.53
518.58	414.27
518.75	430.66
518.93	416.62
519.10	390.87
519.27	404.91
519.45	409.59
519.62	407.25
519.79	397.89
519.96	402.57
520.14	447.04
520.31	458.74
520.48	458.74
520.65	482.15
520.83	393.21
521.00	475.13
521.17	430.66
521.34	372.15
521.52	390.87
521.69	393.21
521.86	421.30
522.03	461.09
522.20	369.80
522.38	418.96
522.55	451.72
522.72	411.93
522.89	428.32
523.07	524.28
523.24	395.55
523.41	500.87
523.58	404.91
523.75	479.81
523.92	433.00
524.10	341.72
524.27	409.59
524.44	341.72
524.61	454.06
524.78	400.23
524.96	521.94
525.13	393.21
525.30	468.11
525.47	456.40
525.64	540.66
525.81	526.62
525.98	421.30
526.16	402.57
526.33	390.87
526.50	447.04
526.67	388.53
526.84	374.49
527.01	411.93
527.18	435.34
527.36	400.23
527.53	430.66
527.70	423.64
527.87	430.66
528.04	402.57
528.21	418.96
528.38	435.34
528.55	414.27
528.72	376.83
528.89	407.25
529.07	381.51
529.24	425.98
529.41	486.83
529.58	463.43
529.75	477.47
529.92	393.21
530.09	400.23
530.26	444.70
530.43	395.55
530.60	374.49
530.77	442.36
530.94	425.98
531.11	435.34
531.28	386.19
531.46	449.38
531.63	433.00
531.80	463.43
531.97	397.89
532.14	421.30
532.31	388.53
532.48	489.17
532.65	362.78
532.82	322.99
532.99	418.96
533.16	507.90
533.33	430.66
533.50	418.96
533.67	440.02
533.84	444.70
534.01	402.57
534.18	512.58
534.35	365.12
534.52	381.51
534.69	465.77
534.86	418.96
535.03	421.30
535.20	362.78
535.37	442.36
535.54	435.34
535.71	463.43
535.88	416.62
536.05	468.11
536.22	414.27
536.38	390.87
536.55	433.00
536.72	386.19
536.89	386.19
537.06	435.34
537.23	379.17
537.40	440.02
537.57	346.40
537.74	451.72
537.91	404.91
538.08	433.00
538.25	451.72
538.42	477.47
538.59	372.15
538.75	379.17
538.92	479.81
539.09	428.32
539.26	489.17
539.43	435.34
539.60	386.19
539.77	477.47
539.94	362.78
540.11	414.27
540.28	409.59
540.44	449.38
540.61	402.57
540.78	444.70
540.95	447.04
541.12	477.47
541.29	444.70
541.46	447.04
541.62	468.11
541.79	435.34
541.96	409.59
542.13	430.66
542.30	428.32
542.47	435.34
542.63	376.83
542.80	425.98
542.97	400.23
543.14	327.68
543.31	428.32
543.48	437.68
543.64	386.19
543.81	402.57
543.98	461.09
544.15	451.72
544.32	362.78
544.48	376.83
544.65	411.93
544.82	397.89
544.99	418.96
545.16	479.81
545.32	414.27
545.49	447.04
545.66	442.36
545.83	447.04
546.00	458.74
546.16	376.83
546.33	514.92
546.50	409.59
546.67	472.79
546.83	458.74
547.00	463.43
547.17	423.64
547.34	437.68
547.50	428.32
547.67	411.93
547.84	451.72
548.00	435.34
548.17	440.02
548.34	425.98
548.51	416.62
548.67	472.79
548.84	369.80
549.01	416.62
549.18	428.32
549.34	425.98
549.51	397.89
549.68	468.11
549.84	423.64
550.01	351.08
550.18	416.62
550.34	524.28
550.51	479.81
550.68	425.98
550.84	402.57
551.01	367.46
551.18	456.40
551.34	444.70
551.51	468.11
551.68	486.83
551.84	407.25
552.01	484.49
552.18	383.85
552.34	435.34
552.51	458.74
552.68	442.36
552.84	468.11
553.01	451.72
553.18	472.79
553.34	327.68
553.51	458.74
553.67	379.17
553.84	472.79
554.01	479.81
554.17	458.74
554.34	362.78
554.51	423.64
554.67	388.53
554.84	374.49
555.00	428.32
555.17	463.43
555.33	430.66
555.50	306.61
555.67	315.97
555.83	409.59
556.00	393.21
556.16	484.49
556.33	444.70
556.50	451.72
556.66	454.06
556.83	440.02
556.99	449.38
557.16	411.93
557.32	435.34
557.49	407.25
557.65	393.21
557.82	390.87
557.98	404.91
558.15	477.47
558.32	421.30
558.48	383.85
558.65	437.68
558.81	437.68
558.98	404.91
559.14	435.34
559.31	477.47
559.47	407.25
559.64	428.32
559.80	425.98
559.97	416.62
560.13	428.32
560.30	369.80
560.46	400.23
560.63	407.25
560.79	341.72
560.96	463.43
561.12	393.21
561.29	423.64
561.45	451.72
561.61	489.17
561.78	447.04
561.94	416.62
562.11	430.66
562.27	407.25
562.44	395.55
562.60	433.00
562.77	463.43
562.93	444.70
563.10	369.80
563.26	372.15
563.42	425.98
563.59	402.57
563.75	433.00
563.92	451.72
564.08	407.25
564.24	397.89
564.41	451.72
564.57	416.62
564.74	421.30
564.90	372.15
565.07	435.34
565.23	407.25
565.39	430.66
565.56	454.06
565.72	418.96
565.88	444.70
566.05	421.30
566.21	397.89
566.38	411.93
566.54	461.09
566.70	386.19
566.87	400.23
567.03	414.27
567.19	440.02
567.36	507.90
567.52	444.70
567.68	442.36
567.85	435.34
568.01	372.15
568.17	395.55
568.34	416.62
568.50	376.83
568.66	362.78
568.83	500.87
568.99	372.15
569.15	472.79
569.32	468.11
569.48	423.64
569.64	362.78
569.81	383.85
569.97	444.70
570.13	440.02
570.30	365.12
570.46	388.53
570.62	393.21
570.78	397.89
570.95	458.74
571.11	503.22
571.27	442.36
571.43	503.22
571.60	386.19
571.76	397.89
571.92	362.78
572.09	430.66
572.25	425.98
572.41	423.64
572.57	402.57
572.74	528.96
572.90	390.87
573.06	433.00
573.22	442.36
573.38	479.81
573.55	383.85
573.71	421.30
573.87	440.02
574.03	463.43
574.20	468.11
574.36	449.38
574.52	404.91
574.68	358.10
574.84	365.12
575.01	383.85
575.17	379.17
575.33	475.13
575.49	418.96
575.65	369.80
575.82	376.83
575.98	421.30
576.14	442.36
576.30	430.66
576.46	430.66
576.62	442.36
576.79	418.96
576.95	423.64
577.11	440.02
577.27	402.57
577.43	397.89
577.59	374.49
577.75	395.55
577.92	386.19
578.08	442.36
578.24	369.80
578.40	416.62
578.56	482.15
578.72	402.57
578.88	402.57
579.04	444.70
579.21	423.64
579.37	451.72
579.53	409.59
579.69	454.06
579.85	397.89
580.01	468.11
580.17	416.62
580.33	393.21
580.49	425.98
580.65	372.15
580.82	390.87
580.98	411.93
581.14	458.74
581.30	437.68
581.46	416.62
581.62	414.27
581.78	407.25
581.94	390.87
582.10	416.62
582.26	360.44
582.42	411.93
582.58	444.70
582.74	465.77
582.90	411.93
583.06	463.43
583.22	393.21
583.38	416.62
583.54	425.98
583.70	369.80
583.86	400.23
584.02	489.17
584.18	496.19
584.34	402.57
584.50	409.59
584.66	447.04
584.82	442.36
584.98	376.83
585.14	374.49
585.30	433.00
585.46	397.89
585.62	400.23
585.78	379.17
585.94	425.98
586.10	425.98
586.26	393.21
586.42	447.04
586.58	365.12
586.74	407.25
586.90	456.40
587.06	397.89
587.22	407.25
587.38	437.68
587.54	416.62
587.70	451.72
587.86	456.40
588.02	411.93
588.18	442.36
588.34	339.38
588.49	395.55
588.65	423.64
588.81	404.91
588.97	383.85
589.13	386.19
589.29	362.78
589.45	447.04
589.61	383.85
589.77	440.02
589.93	468.11
590.08	414.27
590.24	372.15
590.40	535.98
590.56	430.66
590.72	433.00
590.88	458.74
591.04	379.17
591.20	367.46
591.35	409.59
591.51	409.59
591.67	383.85
591.83	397.89
591.99	411.93
592.15	433.00
592.31	433.00
592.46	463.43
592.62	477.47
592.78	407.25
592.94	503.22
593.10	430.66
593.26	404.91
593.41	472.79
593.57	339.38
593.73	409.59
593.89	416.62
594.05	451.72
594.20	433.00
594.36	496.19
594.52	411.93
594.68	367.46
594.84	454.06
594.99	397.89
595.15	395.55
595.31	456.40
595.47	489.17
595.62	365.12
595.78	416.62
595.94	491.51
596.10	477.47
596.25	435.34
596.41	383.85
596.57	383.85
596.73	383.85
596.88	414.27
597.04	435.34
597.20	414.27
597.36	351.08
597.51	358.10
597.67	418.96
597.83	402.57
597.99	362.78
598.14	404.91
598.30	381.51
598.46	409.59
598.61	465.77
598.77	433.00
598.93	369.80
599.09	475.13
599.24	390.87
599.40	454.06
599.56	423.64
599.71	468.11
599.87	447.04
600.03	416.62
600.18	416.62
600.34	442.36
600.50	418.96
600.65	442.36
600.81	435.34
600.97	393.21
601.12	444.70
601.28	496.19
601.44	463.43
601.59	390.87
601.75	433.00
601.91	400.23
602.06	472.79
602.22	519.60
602.37	411.93
602.53	409.59
602.69	454.06
602.84	402.57
603.00	362.78
603.16	486.83
603.31	451.72
603.47	430.66
603.62	381.51
603.78	346.40
603.94	404.91
604.09	475.13
604.25	397.89
604.40	449.38
604.56	395.55
604.71	444.70
604.87	404.91
605.03	411.93
605.18	402.57
605.34	454.06
605.49	404.91
605.65	470.45
605.80	433.00
605.96	428.32
606.12	400.23
606.27	400.23
606.43	451.72
606.58	468.11
606.74	395.55
606.89	407.25
607.05	416.62
607.20	311.29
607.36	472.79
607.51	376.83
607.67	409.59
607.82	440.02
607.98	421.30
608.13	402.57
608.29	407.25
608.44	449.38
608.60	423.64
608.75	437.68
608.91	435.34
609.06	414.27
609.22	440.02
609.37	421.30
609.53	456.40
609.68	372.15
609.84	477.47
609.99	407.25
610.15	458.74
