SpectraSuite Data File
++++++++++++++++++++++++++++++++++++
Date: Fri Oct 25 12:10:37 EDT 2013
User: price-jones
Dark Spectrum Present: No
Reference Spectrum Present: No
Number of Sampled Component Spectra: 1
Spectrometers: USB2+H05261
Integration Time (usec): 100000 (USB2+H05261)
Spectra Averaged: 1 (USB2+H05261)
Boxcar Smoothing: 0 (USB2+H05261)
Correct for Electrical Dark: No (USB2+H05261)
Strobe/Lamp Enabled: No (USB2+H05261)
Correct for Detector Non-linearity: No (USB2+H05261)
Correct for Stray Light: No (USB2+H05261)
Number of Pixels in Processed Spectrum: 2048
>>>>>Begin Processed Spectral Data<<<<<
365.73	372.15
365.92	372.15
366.12	372.15
366.32	292.57
366.52	241.08
366.72	269.16
366.91	273.84
367.11	257.46
367.31	273.84
367.51	294.91
367.70	236.39
367.90	236.39
368.10	198.95
368.30	245.76
368.49	229.37
368.69	278.52
368.89	311.29
369.09	238.73
369.28	205.97
369.48	264.48
369.68	278.52
369.87	351.08
370.07	320.65
370.27	320.65
370.47	320.65
370.66	313.63
370.86	334.70
371.06	458.74
371.25	334.70
371.45	362.78
371.65	372.15
371.84	388.53
372.04	339.38
372.24	360.44
372.44	433.00
372.63	416.62
372.83	376.83
373.03	414.27
373.22	390.87
373.42	374.49
373.62	411.93
373.81	416.62
374.01	407.25
374.21	388.53
374.40	442.36
374.60	470.45
374.79	433.00
374.99	348.74
375.19	365.12
375.38	362.78
375.58	444.70
375.78	444.70
375.97	449.38
376.17	418.96
376.37	440.02
376.56	355.76
376.76	454.06
376.95	381.51
377.15	442.36
377.35	428.32
377.54	465.77
377.74	409.59
377.93	355.76
378.13	418.96
378.33	451.72
378.52	407.25
378.72	456.40
378.91	435.34
379.11	451.72
379.31	369.80
379.50	379.17
379.70	407.25
379.89	395.55
380.09	423.64
380.28	379.17
380.48	383.85
380.68	468.11
380.87	430.66
381.07	334.70
381.26	421.30
381.46	388.53
381.65	435.34
381.85	372.15
382.04	414.27
382.24	407.25
382.43	348.74
382.63	344.06
382.83	461.09
383.02	360.44
383.22	376.83
383.41	355.76
383.61	397.89
383.80	409.59
384.00	447.04
384.19	447.04
384.39	372.15
384.58	362.78
384.78	428.32
384.97	423.64
385.17	461.09
385.36	390.87
385.56	400.23
385.75	376.83
385.95	306.61
386.14	454.06
386.34	430.66
386.53	416.62
386.72	308.95
386.92	383.85
387.11	327.68
387.31	433.00
387.50	376.83
387.70	402.57
387.89	362.78
388.09	390.87
388.28	369.80
388.48	433.00
388.67	430.66
388.86	390.87
389.06	372.15
389.25	367.46
389.45	381.51
389.64	372.15
389.84	416.62
390.03	486.83
390.22	421.30
390.42	437.68
390.61	395.55
390.81	402.57
391.00	322.99
391.19	411.93
391.39	435.34
391.58	393.21
391.78	379.17
391.97	369.80
392.16	334.70
392.36	435.34
392.55	362.78
392.75	451.72
392.94	351.08
393.13	449.38
393.33	351.08
393.52	414.27
393.71	379.17
393.91	393.21
394.10	425.98
394.29	442.36
394.49	374.49
394.68	411.93
394.88	388.53
395.07	444.70
395.26	423.64
395.46	315.97
395.65	472.79
395.84	400.23
396.04	444.70
396.23	409.59
396.42	430.66
396.62	383.85
396.81	435.34
397.00	411.93
397.19	411.93
397.39	400.23
397.58	379.17
397.77	365.12
397.97	404.91
398.16	372.15
398.35	383.85
398.55	365.12
398.74	358.10
398.93	313.63
399.12	393.21
399.32	390.87
399.51	418.96
399.70	414.27
399.90	423.64
400.09	379.17
400.28	355.76
400.47	311.29
400.67	348.74
400.86	351.08
401.05	491.51
401.24	360.44
401.44	404.91
401.63	433.00
401.82	416.62
402.01	416.62
402.21	365.12
402.40	423.64
402.59	475.13
402.78	330.02
402.97	386.19
403.17	400.23
403.36	428.32
403.55	397.89
403.74	435.34
403.93	332.36
404.13	449.38
404.32	437.68
404.51	390.87
404.70	416.62
404.89	402.57
405.09	470.45
405.28	397.89
405.47	381.51
405.66	477.47
405.85	372.15
406.05	440.02
406.24	362.78
406.43	344.06
406.62	376.83
406.81	456.40
407.00	440.02
407.20	454.06
407.39	379.17
407.58	433.00
407.77	393.21
407.96	404.91
408.15	400.23
408.34	386.19
408.54	421.30
408.73	374.49
408.92	451.72
409.11	447.04
409.30	447.04
409.49	440.02
409.68	337.04
409.87	404.91
410.07	367.46
410.26	468.11
410.45	395.55
410.64	374.49
410.83	360.44
411.02	395.55
411.21	379.17
411.40	374.49
411.59	374.49
411.78	404.91
411.98	442.36
412.17	435.34
412.36	388.53
412.55	358.10
412.74	358.10
412.93	425.98
413.12	362.78
413.31	489.17
413.50	381.51
413.69	425.98
413.88	423.64
414.07	435.34
414.26	463.43
414.45	346.40
414.64	400.23
414.83	418.96
415.02	362.78
415.22	463.43
415.41	428.32
415.60	444.70
415.79	400.23
415.98	444.70
416.17	425.98
416.36	393.21
416.55	416.62
416.74	458.74
416.93	437.68
417.12	348.74
417.31	341.72
417.50	437.68
417.69	388.53
417.88	393.21
418.07	365.12
418.26	442.36
418.45	402.57
418.64	440.02
418.83	433.00
419.02	409.59
419.21	404.91
419.39	423.64
419.58	435.34
419.77	397.89
419.96	369.80
420.15	404.91
420.34	348.74
420.53	440.02
420.72	372.15
420.91	458.74
421.10	372.15
421.29	433.00
421.48	372.15
421.67	369.80
421.86	400.23
422.05	472.79
422.24	393.21
422.43	421.30
422.61	404.91
422.80	407.25
422.99	425.98
423.18	334.70
423.37	395.55
423.56	358.10
423.75	374.49
423.94	390.87
424.13	482.15
424.32	351.08
424.50	379.17
424.69	332.36
424.88	489.17
425.07	376.83
425.26	411.93
425.45	407.25
425.64	416.62
425.83	330.02
426.01	416.62
426.20	404.91
426.39	440.02
426.58	430.66
426.77	444.70
426.96	372.15
427.15	416.62
427.33	425.98
427.52	388.53
427.71	400.23
427.90	339.38
428.09	444.70
428.28	374.49
428.46	449.38
428.65	472.79
428.84	444.70
429.03	430.66
429.22	454.06
429.40	402.57
429.59	280.86
429.78	416.62
429.97	416.62
430.16	428.32
430.34	390.87
430.53	428.32
430.72	414.27
430.91	425.98
431.10	416.62
431.28	423.64
431.47	444.70
431.66	418.96
431.85	358.10
432.03	421.30
432.22	472.79
432.41	407.25
432.60	435.34
432.79	395.55
432.97	423.64
433.16	344.06
433.35	444.70
433.54	442.36
433.72	376.83
433.91	421.30
434.10	372.15
434.28	367.46
434.47	447.04
434.66	444.70
434.85	362.78
435.03	393.21
435.22	425.98
435.41	428.32
435.59	444.70
435.78	409.59
435.97	404.91
436.16	451.72
436.34	451.72
436.53	433.00
436.72	418.96
436.90	437.68
437.09	397.89
437.28	430.66
437.46	418.96
437.65	423.64
437.84	395.55
438.02	456.40
438.21	421.30
438.40	383.85
438.58	390.87
438.77	409.59
438.96	402.57
439.14	425.98
439.33	320.65
439.52	456.40
439.70	383.85
439.89	416.62
440.08	444.70
440.26	421.30
440.45	470.45
440.63	425.98
440.82	374.49
441.01	381.51
441.19	414.27
441.38	376.83
441.57	435.34
441.75	433.00
441.94	458.74
442.12	388.53
442.31	381.51
442.50	395.55
442.68	449.38
442.87	425.98
443.05	348.74
443.24	393.21
443.43	395.55
443.61	421.30
443.80	425.98
443.98	360.44
444.17	374.49
444.35	400.23
444.54	400.23
444.73	423.64
444.91	458.74
445.10	444.70
445.28	435.34
445.47	456.40
445.65	468.11
445.84	400.23
446.02	397.89
446.21	386.19
446.39	402.57
446.58	449.38
446.77	379.17
446.95	393.21
447.14	393.21
447.32	451.72
447.51	397.89
447.69	325.33
447.88	383.85
448.06	477.47
448.25	416.62
448.43	390.87
448.62	379.17
448.80	416.62
448.99	425.98
449.17	369.80
449.36	414.27
449.54	482.15
449.73	433.00
449.91	444.70
450.10	456.40
450.28	397.89
450.46	381.51
450.65	454.06
450.83	393.21
451.02	418.96
451.20	339.38
451.39	468.11
451.57	451.72
451.76	489.17
451.94	414.27
452.13	496.19
452.31	435.34
452.49	404.91
452.68	388.53
452.86	456.40
453.05	442.36
453.23	505.56
453.42	362.78
453.60	451.72
453.78	421.30
453.97	383.85
454.15	374.49
454.34	367.46
454.52	355.76
454.70	425.98
454.89	421.30
455.07	449.38
455.26	421.30
455.44	421.30
455.62	461.09
455.81	416.62
455.99	400.23
456.17	397.89
456.36	454.06
456.54	449.38
456.73	390.87
456.91	458.74
457.09	451.72
457.28	442.36
457.46	421.30
457.64	430.66
457.83	337.04
458.01	355.76
458.19	444.70
458.38	379.17
458.56	402.57
458.74	411.93
458.93	433.00
459.11	374.49
459.29	299.59
459.48	411.93
459.66	477.47
459.84	411.93
460.03	454.06
460.21	381.51
460.39	383.85
460.57	472.79
460.76	407.25
460.94	404.91
461.12	465.77
461.31	435.34
461.49	358.10
461.67	421.30
461.85	374.49
462.04	423.64
462.22	767.70
462.40	411.93
462.59	447.04
462.77	379.17
462.95	468.11
463.13	411.93
463.32	425.98
463.50	435.34
463.68	390.87
463.86	365.12
464.05	407.25
464.23	367.46
464.41	447.04
464.59	276.18
464.78	404.91
464.96	383.85
465.14	402.57
465.32	393.21
465.50	498.53
465.69	400.23
465.87	367.46
466.05	414.27
466.23	344.06
466.41	388.53
466.60	337.04
466.78	395.55
466.96	379.17
467.14	437.68
467.32	463.43
467.51	461.09
467.69	423.64
467.87	456.40
468.05	409.59
468.23	440.02
468.41	463.43
468.60	381.51
468.78	449.38
468.96	400.23
469.14	369.80
469.32	369.80
469.50	351.08
469.69	397.89
469.87	444.70
470.05	449.38
470.23	409.59
470.41	395.55
470.59	411.93
470.77	360.44
470.95	369.80
471.14	458.74
471.32	411.93
471.50	409.59
471.68	463.43
471.86	421.30
472.04	416.62
472.22	355.76
472.40	372.15
472.58	409.59
472.77	428.32
472.95	465.77
473.13	475.13
473.31	393.21
473.49	372.15
473.67	362.78
473.85	470.45
474.03	430.66
474.21	360.44
474.39	411.93
474.57	430.66
474.75	416.62
474.93	430.66
475.12	393.21
475.30	397.89
475.48	397.89
475.66	458.74
475.84	374.49
476.02	423.64
476.20	418.96
476.38	395.55
476.56	463.43
476.74	367.46
476.92	442.36
477.10	472.79
477.28	369.80
477.46	428.32
477.64	423.64
477.82	451.72
478.00	440.02
478.18	418.96
478.36	407.25
478.54	381.51
478.72	449.38
478.90	353.42
479.08	435.34
479.26	418.96
479.44	449.38
479.62	362.78
479.80	409.59
479.98	383.85
480.16	416.62
480.34	491.51
480.52	365.12
480.70	411.93
480.88	390.87
481.06	433.00
481.24	304.27
481.41	416.62
481.59	386.19
481.77	423.64
481.95	395.55
482.13	411.93
482.31	418.96
482.49	393.21
482.67	451.72
482.85	456.40
483.03	489.17
483.21	353.42
483.39	374.49
483.57	344.06
483.74	449.38
483.92	435.34
484.10	397.89
484.28	484.49
484.46	468.11
484.64	362.78
484.82	430.66
485.00	402.57
485.18	430.66
485.35	348.74
485.53	344.06
485.71	433.00
485.89	440.02
486.07	355.76
486.25	503.22
486.43	430.66
486.61	383.85
486.78	353.42
486.96	447.04
487.14	423.64
487.32	430.66
487.50	425.98
487.68	447.04
487.85	433.00
488.03	437.68
488.21	402.57
488.39	414.27
488.57	411.93
488.75	418.96
488.92	503.22
489.10	395.55
489.28	444.70
489.46	400.23
489.64	388.53
489.81	386.19
489.99	390.87
490.17	383.85
490.35	425.98
490.53	339.38
490.70	355.76
490.88	444.70
491.06	430.66
491.24	390.87
491.41	397.89
491.59	411.93
491.77	376.83
491.95	493.85
492.13	411.93
492.30	442.36
492.48	409.59
492.66	491.51
492.84	451.72
493.01	388.53
493.19	447.04
493.37	447.04
493.54	461.09
493.72	390.87
493.90	372.15
494.08	369.80
494.25	397.89
494.43	344.06
494.61	362.78
494.79	341.72
494.96	477.47
495.14	421.30
495.32	379.17
495.49	447.04
495.67	428.32
495.85	428.32
496.02	330.02
496.20	433.00
496.38	411.93
496.55	416.62
496.73	322.99
496.91	433.00
497.09	435.34
497.26	411.93
497.44	421.30
497.62	355.76
497.79	423.64
497.97	407.25
498.14	416.62
498.32	454.06
498.50	430.66
498.67	507.90
498.85	421.30
499.03	386.19
499.20	435.34
499.38	360.44
499.56	397.89
499.73	395.55
499.91	362.78
500.08	397.89
500.26	442.36
500.44	503.22
500.61	421.30
500.79	308.95
500.97	421.30
501.14	374.49
501.32	435.34
501.49	491.51
501.67	404.91
501.84	397.89
502.02	407.25
502.20	411.93
502.37	430.66
502.55	416.62
502.72	416.62
502.90	454.06
503.07	397.89
503.25	425.98
503.43	381.51
503.60	433.00
503.78	428.32
503.95	451.72
504.13	414.27
504.30	449.38
504.48	411.93
504.65	482.15
504.83	454.06
505.01	425.98
505.18	411.93
505.36	409.59
505.53	360.44
505.71	442.36
505.88	362.78
506.06	409.59
506.23	456.40
506.41	416.62
506.58	461.09
506.76	472.79
506.93	465.77
507.11	500.87
507.28	437.68
507.46	386.19
507.63	404.91
507.81	341.72
507.98	402.57
508.16	414.27
508.33	414.27
508.50	468.11
508.68	397.89
508.85	433.00
509.03	400.23
509.20	294.91
509.38	388.53
509.55	447.04
509.73	379.17
509.90	409.59
510.08	386.19
510.25	416.62
510.42	418.96
510.60	430.66
510.77	465.77
510.95	444.70
511.12	411.93
511.30	390.87
511.47	414.27
511.64	320.65
511.82	383.85
511.99	435.34
512.17	416.62
512.34	322.99
512.51	421.30
512.69	362.78
512.86	430.66
513.04	395.55
513.21	376.83
513.38	437.68
513.56	393.21
513.73	358.10
513.90	327.68
514.08	416.62
514.25	444.70
514.43	430.66
514.60	397.89
514.77	416.62
514.95	383.85
515.12	430.66
515.29	461.09
515.47	400.23
515.64	416.62
515.81	451.72
515.99	428.32
516.16	433.00
516.33	503.22
516.51	390.87
516.68	423.64
516.85	367.46
517.03	414.27
517.20	440.02
517.37	376.83
517.54	416.62
517.72	397.89
517.89	440.02
518.06	381.51
518.24	379.17
518.41	475.13
518.58	397.89
518.75	414.27
518.93	456.40
519.10	447.04
519.27	404.91
519.45	484.49
519.62	418.96
519.79	433.00
519.96	411.93
520.14	374.49
520.31	437.68
520.48	376.83
520.65	402.57
520.83	428.32
521.00	402.57
521.17	423.64
521.34	355.76
521.52	425.98
521.69	367.46
521.86	454.06
522.03	407.25
522.20	442.36
522.38	299.59
522.55	397.89
522.72	379.17
522.89	456.40
523.07	472.79
523.24	360.44
523.41	355.76
523.58	376.83
523.75	407.25
523.92	444.70
524.10	435.34
524.27	404.91
524.44	423.64
524.61	390.87
524.78	407.25
524.96	421.30
525.13	423.64
525.30	421.30
525.47	425.98
525.64	407.25
525.81	390.87
525.98	400.23
526.16	493.85
526.33	461.09
526.50	433.00
526.67	390.87
526.84	400.23
527.01	440.02
527.18	407.25
527.36	425.98
527.53	332.36
527.70	454.06
527.87	461.09
528.04	411.93
528.21	418.96
528.38	423.64
528.55	404.91
528.72	400.23
528.89	484.49
529.07	388.53
529.24	393.21
529.41	421.30
529.58	444.70
529.75	468.11
529.92	451.72
530.09	362.78
530.26	454.06
530.43	407.25
530.60	351.08
530.77	435.34
530.94	440.02
531.11	437.68
531.28	383.85
531.46	409.59
531.63	388.53
531.80	430.66
531.97	458.74
532.14	409.59
532.31	404.91
532.48	423.64
532.65	430.66
532.82	397.89
532.99	334.70
533.16	465.77
533.33	414.27
533.50	465.77
533.67	454.06
533.84	444.70
534.01	421.30
534.18	411.93
534.35	433.00
534.52	449.38
534.69	428.32
534.86	334.70
535.03	409.59
535.20	484.49
535.37	503.22
535.54	465.77
535.71	414.27
535.88	468.11
536.05	489.17
536.22	500.87
536.38	435.34
536.55	423.64
536.72	503.22
536.89	416.62
537.06	444.70
537.23	376.83
537.40	428.32
537.57	388.53
537.74	440.02
537.91	409.59
538.08	428.32
538.25	477.47
538.42	367.46
538.59	416.62
538.75	411.93
538.92	348.74
539.09	435.34
539.26	379.17
539.43	428.32
539.60	425.98
539.77	449.38
539.94	425.98
540.11	367.46
540.28	367.46
540.44	451.72
540.61	454.06
540.78	388.53
540.95	381.51
541.12	351.08
541.29	477.47
541.46	416.62
541.62	386.19
541.79	425.98
541.96	430.66
542.13	407.25
542.30	409.59
542.47	395.55
542.63	437.68
542.80	388.53
542.97	395.55
543.14	381.51
543.31	400.23
543.48	388.53
543.64	402.57
543.81	372.15
543.98	393.21
544.15	313.63
544.32	365.12
544.48	386.19
544.65	348.74
544.82	449.38
544.99	404.91
545.16	433.00
545.32	414.27
545.49	315.97
545.66	355.76
545.83	388.53
546.00	423.64
546.16	444.70
546.33	416.62
546.50	334.70
546.67	418.96
546.83	451.72
547.00	407.25
547.17	362.78
547.34	416.62
547.50	414.27
547.67	351.08
547.84	400.23
548.00	456.40
548.17	510.24
548.34	379.17
548.51	383.85
548.67	425.98
548.84	451.72
549.01	411.93
549.18	421.30
549.34	430.66
549.51	482.15
549.68	470.45
549.84	425.98
550.01	379.17
550.18	545.34
550.34	451.72
550.51	339.38
550.68	458.74
550.84	454.06
551.01	411.93
551.18	411.93
551.34	437.68
551.51	421.30
551.68	374.49
551.84	442.36
552.01	388.53
552.18	337.04
552.34	414.27
552.51	463.43
552.68	421.30
552.84	402.57
553.01	400.23
553.18	484.49
553.34	414.27
553.51	400.23
553.67	449.38
553.84	400.23
554.01	447.04
554.17	400.23
554.34	418.96
554.51	400.23
554.67	425.98
554.84	433.00
555.00	390.87
555.17	409.59
555.33	454.06
555.50	393.21
555.67	421.30
555.83	358.10
556.00	327.68
556.16	578.11
556.33	397.89
556.50	423.64
556.66	500.87
556.83	393.21
556.99	339.38
557.16	407.25
557.32	503.22
557.49	397.89
557.65	386.19
557.82	472.79
557.98	362.78
558.15	489.17
558.32	383.85
558.48	428.32
558.65	465.77
558.81	449.38
558.98	416.62
559.14	428.32
559.31	414.27
559.47	463.43
559.64	395.55
559.80	318.31
559.97	388.53
560.13	421.30
560.30	402.57
560.46	447.04
560.63	414.27
560.79	404.91
560.96	447.04
561.12	447.04
561.29	430.66
561.45	465.77
561.61	423.64
561.78	470.45
561.94	447.04
562.11	456.40
562.27	430.66
562.44	447.04
562.60	503.22
562.77	407.25
562.93	463.43
563.10	402.57
563.26	447.04
563.42	489.17
563.59	358.10
563.75	383.85
563.92	505.56
564.08	395.55
564.24	428.32
564.41	465.77
564.57	433.00
564.74	435.34
564.90	437.68
565.07	437.68
565.23	409.59
565.39	400.23
565.56	423.64
565.72	346.40
565.88	458.74
566.05	463.43
566.21	447.04
566.38	379.17
566.54	507.90
566.70	444.70
566.87	423.64
567.03	397.89
567.19	444.70
567.36	425.98
567.52	402.57
567.68	477.47
567.85	475.13
568.01	444.70
568.17	381.51
568.34	404.91
568.50	472.79
568.66	395.55
568.83	449.38
568.99	418.96
569.15	423.64
569.32	400.23
569.48	400.23
569.64	388.53
569.81	407.25
569.97	447.04
570.13	503.22
570.30	421.30
570.46	362.78
570.62	428.32
570.78	425.98
570.95	397.89
571.11	456.40
571.27	496.19
571.43	390.87
571.60	397.89
571.76	463.43
571.92	367.46
572.09	358.10
572.25	376.83
572.41	397.89
572.57	344.06
572.74	458.74
572.90	517.26
573.06	444.70
573.22	475.13
573.38	409.59
573.55	510.24
573.71	468.11
573.87	430.66
574.03	376.83
574.20	395.55
574.36	470.45
574.52	386.19
574.68	435.34
574.84	477.47
575.01	433.00
575.17	433.00
575.33	449.38
575.49	416.62
575.65	376.83
575.82	461.09
575.98	404.91
576.14	414.27
576.30	433.00
576.46	414.27
576.62	444.70
576.79	360.44
576.95	365.12
577.11	421.30
577.27	383.85
577.43	440.02
577.59	475.13
577.75	477.47
577.92	444.70
578.08	461.09
578.24	470.45
578.40	477.47
578.56	409.59
578.72	423.64
578.88	470.45
579.04	425.98
579.21	404.91
579.37	367.46
579.53	386.19
579.69	383.85
579.85	423.64
580.01	425.98
580.17	372.15
580.33	390.87
580.49	484.49
580.65	423.64
580.82	456.40
580.98	442.36
581.14	421.30
581.30	416.62
581.46	498.53
581.62	409.59
581.78	407.25
581.94	407.25
582.10	407.25
582.26	425.98
582.42	404.91
582.58	400.23
582.74	400.23
582.90	369.80
583.06	456.40
583.22	402.57
583.38	456.40
583.54	367.46
583.70	461.09
583.86	425.98
584.02	454.06
584.18	414.27
584.34	463.43
584.50	425.98
584.66	423.64
584.82	493.85
584.98	496.19
585.14	444.70
585.30	416.62
585.46	383.85
585.62	423.64
585.78	383.85
585.94	430.66
586.10	376.83
586.26	376.83
586.42	444.70
586.58	428.32
586.74	381.51
586.90	428.32
587.06	456.40
587.22	428.32
587.38	397.89
587.54	360.44
587.70	433.00
587.86	397.89
588.02	418.96
588.18	411.93
588.34	418.96
588.49	411.93
588.65	428.32
588.81	411.93
588.97	393.21
589.13	414.27
589.29	416.62
589.45	395.55
589.61	407.25
589.77	482.15
589.93	383.85
590.08	433.00
590.24	444.70
590.40	491.51
590.56	409.59
590.72	433.00
590.88	367.46
591.04	404.91
591.20	440.02
591.35	402.57
591.51	407.25
591.67	421.30
591.83	369.80
591.99	418.96
592.15	482.15
592.31	407.25
592.46	400.23
592.62	451.72
592.78	423.64
592.94	444.70
593.10	425.98
593.26	397.89
593.41	409.59
593.57	461.09
593.73	325.33
593.89	449.38
594.05	463.43
594.20	416.62
594.36	376.83
594.52	386.19
594.68	383.85
594.84	442.36
594.99	397.89
595.15	393.21
595.31	447.04
595.47	514.92
595.62	451.72
595.78	418.96
595.94	486.83
596.10	409.59
596.25	414.27
596.41	444.70
596.57	341.72
596.73	383.85
596.88	430.66
597.04	470.45
597.20	397.89
597.36	496.19
597.51	451.72
597.67	372.15
597.83	369.80
597.99	449.38
598.14	400.23
598.30	409.59
598.46	381.51
598.61	369.80
598.77	451.72
598.93	435.34
599.09	435.34
599.24	451.72
599.40	430.66
599.56	386.19
599.71	447.04
599.87	411.93
600.03	402.57
600.18	393.21
600.34	421.30
600.50	400.23
600.65	367.46
600.81	374.49
600.97	430.66
601.12	425.98
601.28	435.34
601.44	463.43
601.59	388.53
601.75	379.17
601.91	458.74
602.06	423.64
602.22	503.22
602.37	379.17
602.53	454.06
602.69	430.66
602.84	393.21
603.00	433.00
603.16	449.38
603.31	409.59
603.47	395.55
603.62	414.27
603.78	425.98
603.94	425.98
604.09	409.59
604.25	409.59
604.40	416.62
604.56	423.64
604.71	404.91
604.87	465.77
605.03	461.09
605.18	444.70
605.34	458.74
605.49	461.09
605.65	355.76
605.80	376.83
605.96	400.23
606.12	479.81
606.27	484.49
606.43	472.79
606.58	425.98
606.74	404.91
606.89	383.85
607.05	517.26
607.20	409.59
607.36	428.32
607.51	435.34
607.67	386.19
607.82	409.59
607.98	421.30
608.13	395.55
608.29	393.21
608.44	397.89
608.60	381.51
608.75	451.72
608.91	423.64
609.06	430.66
609.22	454.06
609.37	348.74
609.53	402.57
609.68	470.45
609.84	400.23
609.99	418.96
610.15	425.98
