SpectraSuite Data File
++++++++++++++++++++++++++++++++++++
Date: Fri Oct 25 12:10:45 EDT 2013
User: price-jones
Dark Spectrum Present: No
Reference Spectrum Present: No
Number of Sampled Component Spectra: 1
Spectrometers: USB2+H05261
Integration Time (usec): 100000 (USB2+H05261)
Spectra Averaged: 1 (USB2+H05261)
Boxcar Smoothing: 0 (USB2+H05261)
Correct for Electrical Dark: No (USB2+H05261)
Strobe/Lamp Enabled: No (USB2+H05261)
Correct for Detector Non-linearity: No (USB2+H05261)
Correct for Stray Light: No (USB2+H05261)
Number of Pixels in Processed Spectrum: 2048
>>>>>Begin Processed Spectral Data<<<<<
365.73	304.27
365.92	304.27
366.12	304.27
366.32	327.68
366.52	210.65
366.72	255.12
366.91	208.31
367.11	243.42
367.31	227.03
367.51	241.08
367.70	201.29
367.90	297.25
368.10	271.50
368.30	297.25
368.49	301.93
368.69	245.76
368.89	304.27
369.09	259.80
369.28	297.25
369.48	297.25
369.68	304.27
369.87	341.72
370.07	306.61
370.27	425.98
370.47	311.29
370.66	334.70
370.86	304.27
371.06	353.42
371.25	402.57
371.45	381.51
371.65	386.19
371.84	414.27
372.04	430.66
372.24	379.17
372.44	393.21
372.63	433.00
372.83	421.30
373.03	407.25
373.22	407.25
373.42	360.44
373.62	360.44
373.81	372.15
374.01	472.79
374.21	435.34
374.40	440.02
374.60	428.32
374.79	482.15
374.99	425.98
375.19	475.13
375.38	447.04
375.58	454.06
375.78	449.38
375.97	428.32
376.17	496.19
376.37	463.43
376.56	435.34
376.76	414.27
376.95	395.55
377.15	397.89
377.35	404.91
377.54	456.40
377.74	423.64
377.93	379.17
378.13	390.87
378.33	386.19
378.52	435.34
378.72	428.32
378.91	470.45
379.11	418.96
379.31	400.23
379.50	390.87
379.70	463.43
379.89	404.91
380.09	351.08
380.28	418.96
380.48	390.87
380.68	365.12
380.87	355.76
381.07	383.85
381.26	411.93
381.46	416.62
381.65	315.97
381.85	383.85
382.04	358.10
382.24	372.15
382.43	355.76
382.63	301.93
382.83	390.87
383.02	393.21
383.22	475.13
383.41	430.66
383.61	388.53
383.80	451.72
384.00	386.19
384.19	409.59
384.39	411.93
384.58	435.34
384.78	414.27
384.97	395.55
385.17	451.72
385.36	416.62
385.56	421.30
385.75	437.68
385.95	376.83
386.14	430.66
386.34	393.21
386.53	372.15
386.72	339.38
386.92	468.11
387.11	447.04
387.31	479.81
387.50	348.74
387.70	390.87
387.89	428.32
388.09	383.85
388.28	416.62
388.48	386.19
388.67	433.00
388.86	414.27
389.06	372.15
389.25	475.13
389.45	463.43
389.64	440.02
389.84	435.34
390.03	479.81
390.22	332.36
390.42	351.08
390.61	374.49
390.81	365.12
391.00	395.55
391.19	407.25
391.39	442.36
391.58	374.49
391.78	451.72
391.97	482.15
392.16	425.98
392.36	440.02
392.55	421.30
392.75	440.02
392.94	409.59
393.13	421.30
393.33	435.34
393.52	479.81
393.71	454.06
393.91	468.11
394.10	407.25
394.29	447.04
394.49	388.53
394.68	339.38
394.88	493.85
395.07	465.77
395.26	416.62
395.46	451.72
395.65	472.79
395.84	433.00
396.04	489.17
396.23	433.00
396.42	418.96
396.62	468.11
396.81	437.68
397.00	376.83
397.19	402.57
397.39	395.55
397.58	414.27
397.77	320.65
397.97	435.34
398.16	409.59
398.35	351.08
398.55	461.09
398.74	414.27
398.93	437.68
399.12	395.55
399.32	362.78
399.51	409.59
399.70	435.34
399.90	348.74
400.09	409.59
400.28	374.49
400.47	449.38
400.67	433.00
400.86	442.36
401.05	519.60
401.24	425.98
401.44	468.11
401.63	430.66
401.82	367.46
402.01	397.89
402.21	472.79
402.40	351.08
402.59	402.57
402.78	393.21
402.97	404.91
403.17	461.09
403.36	482.15
403.55	470.45
403.74	416.62
403.93	440.02
404.13	437.68
404.32	369.80
404.51	418.96
404.70	447.04
404.89	414.27
405.09	423.64
405.28	430.66
405.47	477.47
405.66	407.25
405.85	477.47
406.05	451.72
406.24	376.83
406.43	404.91
406.62	435.34
406.81	411.93
407.00	425.98
407.20	421.30
407.39	468.11
407.58	337.04
407.77	418.96
407.96	428.32
408.15	423.64
408.34	449.38
408.54	444.70
408.73	475.13
408.92	444.70
409.11	409.59
409.30	463.43
409.49	393.21
409.68	414.27
409.87	388.53
410.07	428.32
410.26	374.49
410.45	428.32
410.64	416.62
410.83	418.96
411.02	355.76
411.21	430.66
411.40	416.62
411.59	435.34
411.78	381.51
411.98	374.49
412.17	407.25
412.36	418.96
412.55	367.46
412.74	383.85
412.93	435.34
413.12	425.98
413.31	430.66
413.50	395.55
413.69	337.04
413.88	397.89
414.07	411.93
414.26	397.89
414.45	425.98
414.64	351.08
414.83	404.91
415.02	376.83
415.22	477.47
415.41	507.90
415.60	381.51
415.79	404.91
415.98	425.98
416.17	402.57
416.36	390.87
416.55	386.19
416.74	428.32
416.93	400.23
417.12	379.17
417.31	416.62
417.50	407.25
417.69	379.17
417.88	472.79
418.07	395.55
418.26	454.06
418.45	411.93
418.64	430.66
418.83	409.59
419.02	458.74
419.21	482.15
419.39	383.85
419.58	397.89
419.77	381.51
419.96	416.62
420.15	461.09
420.34	458.74
420.53	383.85
420.72	386.19
420.91	386.19
421.10	351.08
421.29	423.64
421.48	404.91
421.67	369.80
421.86	344.06
422.05	344.06
422.24	381.51
422.43	404.91
422.61	355.76
422.80	407.25
422.99	386.19
423.18	362.78
423.37	442.36
423.56	374.49
423.75	407.25
423.94	402.57
424.13	402.57
424.32	341.72
424.50	379.17
424.69	407.25
424.88	465.77
425.07	430.66
425.26	421.30
425.45	423.64
425.64	390.87
425.83	393.21
426.01	435.34
426.20	465.77
426.39	423.64
426.58	409.59
426.77	393.21
426.96	416.62
427.15	470.45
427.33	374.49
427.52	386.19
427.71	315.97
427.90	411.93
428.09	435.34
428.28	484.49
428.46	433.00
428.65	407.25
428.84	454.06
429.03	425.98
429.22	411.93
429.40	409.59
429.59	369.80
429.78	475.13
429.97	465.77
430.16	386.19
430.34	407.25
430.53	430.66
430.72	402.57
430.91	458.74
431.10	320.65
431.28	400.23
431.47	416.62
431.66	395.55
431.85	454.06
432.03	344.06
432.22	433.00
432.41	362.78
432.60	489.17
432.79	379.17
432.97	447.04
433.16	383.85
433.35	372.15
433.54	400.23
433.72	416.62
433.91	362.78
434.10	428.32
434.28	477.47
434.47	421.30
434.66	421.30
434.85	393.21
435.03	383.85
435.22	461.09
435.41	449.38
435.59	355.76
435.78	341.72
435.97	341.72
436.16	411.93
436.34	383.85
436.53	435.34
436.72	475.13
436.90	491.51
437.09	430.66
437.28	472.79
437.46	386.19
437.65	346.40
437.84	369.80
438.02	465.77
438.21	449.38
438.40	421.30
438.58	355.76
438.77	423.64
438.96	418.96
439.14	402.57
439.33	435.34
439.52	348.74
439.70	437.68
439.89	425.98
440.08	334.70
440.26	486.83
440.45	390.87
440.63	435.34
440.82	404.91
441.01	407.25
441.19	395.55
441.38	447.04
441.57	411.93
441.75	454.06
441.94	346.40
442.12	433.00
442.31	381.51
442.50	390.87
442.68	358.10
442.87	409.59
443.05	379.17
443.24	409.59
443.43	418.96
443.61	444.70
443.80	362.78
443.98	447.04
444.17	454.06
444.35	468.11
444.54	430.66
444.73	484.49
444.91	507.90
445.10	372.15
445.28	376.83
445.47	416.62
445.65	404.91
445.84	444.70
446.02	416.62
446.21	411.93
446.39	390.87
446.58	468.11
446.77	395.55
446.95	374.49
447.14	421.30
447.32	437.68
447.51	444.70
447.69	372.15
447.88	416.62
448.06	404.91
448.25	386.19
448.43	442.36
448.62	402.57
448.80	510.24
448.99	475.13
449.17	390.87
449.36	428.32
449.54	433.00
449.73	346.40
449.91	409.59
450.10	430.66
450.28	465.77
450.46	486.83
450.65	379.17
450.83	376.83
451.02	414.27
451.20	477.47
451.39	360.44
451.57	444.70
451.76	395.55
451.94	425.98
452.13	414.27
452.31	397.89
452.49	367.46
452.68	358.10
452.86	456.40
453.05	402.57
453.23	379.17
453.42	461.09
453.60	425.98
453.78	423.64
453.97	397.89
454.15	402.57
454.34	390.87
454.52	409.59
454.70	430.66
454.89	454.06
455.07	376.83
455.26	433.00
455.44	421.30
455.62	369.80
455.81	430.66
455.99	381.51
456.17	404.91
456.36	374.49
456.54	414.27
456.73	402.57
456.91	428.32
457.09	339.38
457.28	456.40
457.46	437.68
457.64	416.62
457.83	468.11
458.01	449.38
458.19	411.93
458.38	390.87
458.56	402.57
458.74	409.59
458.93	367.46
459.11	440.02
459.29	423.64
459.48	386.19
459.66	440.02
459.84	351.08
460.03	486.83
460.21	418.96
460.39	369.80
460.57	423.64
460.76	458.74
460.94	409.59
461.12	440.02
461.31	440.02
461.49	475.13
461.67	428.32
461.85	374.49
462.04	463.43
462.22	786.42
462.40	404.91
462.59	433.00
462.77	367.46
462.95	372.15
463.13	393.21
463.32	390.87
463.50	414.27
463.68	428.32
463.86	397.89
464.05	402.57
464.23	393.21
464.41	404.91
464.59	414.27
464.78	411.93
464.96	435.34
465.14	416.62
465.32	400.23
465.50	442.36
465.69	407.25
465.87	386.19
466.05	430.66
466.23	341.72
466.41	372.15
466.60	418.96
466.78	355.76
466.96	416.62
467.14	433.00
467.32	425.98
467.51	332.36
467.69	409.59
467.87	456.40
468.05	414.27
468.23	355.76
468.41	367.46
468.60	421.30
468.78	337.04
468.96	425.98
469.14	379.17
469.32	379.17
469.50	418.96
469.69	397.89
469.87	409.59
470.05	402.57
470.23	411.93
470.41	430.66
470.59	409.59
470.77	416.62
470.95	397.89
471.14	416.62
471.32	386.19
471.50	458.74
471.68	369.80
471.86	475.13
472.04	400.23
472.22	430.66
472.40	447.04
472.58	463.43
472.77	348.74
472.95	339.38
473.13	507.90
473.31	418.96
473.49	400.23
473.67	407.25
473.85	430.66
474.03	465.77
474.21	409.59
474.39	390.87
474.57	400.23
474.75	514.92
474.93	402.57
475.12	395.55
475.30	430.66
475.48	407.25
475.66	411.93
475.84	409.59
476.02	297.25
476.20	447.04
476.38	421.30
476.56	456.40
476.74	416.62
476.92	482.15
477.10	414.27
477.28	444.70
477.46	440.02
477.64	456.40
477.82	393.21
478.00	404.91
478.18	416.62
478.36	362.78
478.54	404.91
478.72	461.09
478.90	421.30
479.08	465.77
479.26	416.62
479.44	423.64
479.62	381.51
479.80	425.98
479.98	395.55
480.16	383.85
480.34	411.93
480.52	423.64
480.70	425.98
480.88	433.00
481.06	428.32
481.24	383.85
481.41	358.10
481.59	341.72
481.77	379.17
481.95	404.91
482.13	444.70
482.31	447.04
482.49	404.91
482.67	404.91
482.85	383.85
483.03	451.72
483.21	402.57
483.39	430.66
483.57	465.77
483.74	386.19
483.92	402.57
484.10	383.85
484.28	369.80
484.46	514.92
484.64	430.66
484.82	346.40
485.00	404.91
485.18	383.85
485.35	447.04
485.53	381.51
485.71	470.45
485.89	374.49
486.07	351.08
486.25	451.72
486.43	430.66
486.61	449.38
486.78	414.27
486.96	430.66
487.14	449.38
487.32	414.27
487.50	423.64
487.68	402.57
487.85	397.89
488.03	372.15
488.21	517.26
488.39	397.89
488.57	437.68
488.75	451.72
488.92	550.03
489.10	409.59
489.28	482.15
489.46	393.21
489.64	393.21
489.81	463.43
489.99	376.83
490.17	362.78
490.35	430.66
490.53	397.89
490.70	351.08
490.88	496.19
491.06	365.12
491.24	386.19
491.41	428.32
491.59	475.13
491.77	421.30
491.95	477.47
492.13	313.63
492.30	416.62
492.48	486.83
492.66	418.96
492.84	416.62
493.01	425.98
493.19	407.25
493.37	423.64
493.54	404.91
493.72	418.96
493.90	435.34
494.08	468.11
494.25	423.64
494.43	409.59
494.61	449.38
494.79	433.00
494.96	376.83
495.14	472.79
495.32	414.27
495.49	447.04
495.67	423.64
495.85	390.87
496.02	418.96
496.20	428.32
496.38	463.43
496.55	437.68
496.73	381.51
496.91	416.62
497.09	491.51
497.26	470.45
497.44	454.06
497.62	428.32
497.79	360.44
497.97	423.64
498.14	386.19
498.32	425.98
498.50	376.83
498.67	360.44
498.85	418.96
499.03	414.27
499.20	435.34
499.38	383.85
499.56	500.87
499.73	456.40
499.91	442.36
500.08	404.91
500.26	395.55
500.44	416.62
500.61	451.72
500.79	433.00
500.97	411.93
501.14	524.28
501.32	444.70
501.49	402.57
501.67	355.76
501.84	465.77
502.02	416.62
502.20	397.89
502.37	379.17
502.55	411.93
502.72	395.55
502.90	451.72
503.07	416.62
503.25	437.68
503.43	320.65
503.60	393.21
503.78	458.74
503.95	388.53
504.13	376.83
504.30	414.27
504.48	454.06
504.65	374.49
504.83	381.51
505.01	395.55
505.18	418.96
505.36	402.57
505.53	416.62
505.71	423.64
505.88	409.59
506.06	390.87
506.23	393.21
506.41	395.55
506.58	428.32
506.76	388.53
506.93	381.51
507.11	461.09
507.28	365.12
507.46	376.83
507.63	463.43
507.81	395.55
507.98	451.72
508.16	358.10
508.33	409.59
508.50	346.40
508.68	463.43
508.85	397.89
509.03	416.62
509.20	409.59
509.38	463.43
509.55	400.23
509.73	400.23
509.90	477.47
510.08	404.91
510.25	475.13
510.42	425.98
510.60	428.32
510.77	437.68
510.95	451.72
511.12	472.79
511.30	416.62
511.47	416.62
511.64	531.30
511.82	393.21
511.99	430.66
512.17	442.36
512.34	435.34
512.51	400.23
512.69	428.32
512.86	430.66
513.04	440.02
513.21	440.02
513.38	400.23
513.56	393.21
513.73	404.91
513.90	367.46
514.08	411.93
514.25	409.59
514.43	416.62
514.60	386.19
514.77	421.30
514.95	395.55
515.12	435.34
515.29	430.66
515.47	433.00
515.64	393.21
515.81	470.45
515.99	472.79
516.16	442.36
516.33	437.68
516.51	407.25
516.68	454.06
516.85	358.10
517.03	404.91
517.20	451.72
517.37	482.15
517.54	435.34
517.72	390.87
517.89	421.30
518.06	393.21
518.24	451.72
518.41	491.51
518.58	400.23
518.75	411.93
518.93	449.38
519.10	444.70
519.27	404.91
519.45	404.91
519.62	407.25
519.79	449.38
519.96	423.64
520.14	397.89
520.31	416.62
520.48	456.40
520.65	397.89
520.83	407.25
521.00	449.38
521.17	379.17
521.34	369.80
521.52	381.51
521.69	306.61
521.86	393.21
522.03	409.59
522.20	468.11
522.38	433.00
522.55	381.51
522.72	390.87
522.89	365.12
523.07	465.77
523.24	451.72
523.41	369.80
523.58	440.02
523.75	407.25
523.92	383.85
524.10	461.09
524.27	442.36
524.44	435.34
524.61	454.06
524.78	379.17
524.96	416.62
525.13	423.64
525.30	484.49
525.47	472.79
525.64	425.98
525.81	411.93
525.98	423.64
526.16	416.62
526.33	344.06
526.50	397.89
526.67	423.64
526.84	433.00
527.01	407.25
527.18	395.55
527.36	435.34
527.53	409.59
527.70	482.15
527.87	423.64
528.04	411.93
528.21	355.76
528.38	458.74
528.55	428.32
528.72	491.51
528.89	407.25
529.07	369.80
529.24	383.85
529.41	491.51
529.58	414.27
529.75	381.51
529.92	440.02
530.09	416.62
530.26	379.17
530.43	381.51
530.60	409.59
530.77	369.80
530.94	400.23
531.11	400.23
531.28	465.77
531.46	442.36
531.63	442.36
531.80	430.66
531.97	482.15
532.14	409.59
532.31	393.21
532.48	423.64
532.65	372.15
532.82	402.57
532.99	409.59
533.16	346.40
533.33	411.93
533.50	400.23
533.67	440.02
533.84	397.89
534.01	402.57
534.18	344.06
534.35	402.57
534.52	397.89
534.69	397.89
534.86	400.23
535.03	383.85
535.20	512.58
535.37	416.62
535.54	437.68
535.71	421.30
535.88	409.59
536.05	379.17
536.22	341.72
536.38	428.32
536.55	416.62
536.72	444.70
536.89	372.15
537.06	414.27
537.23	437.68
537.40	449.38
537.57	425.98
537.74	414.27
537.91	402.57
538.08	395.55
538.25	386.19
538.42	423.64
538.59	351.08
538.75	407.25
538.92	353.42
539.09	411.93
539.26	437.68
539.43	475.13
539.60	407.25
539.77	390.87
539.94	395.55
540.11	430.66
540.28	388.53
540.44	367.46
540.61	330.02
540.78	404.91
540.95	353.42
541.12	440.02
541.29	437.68
541.46	484.49
541.62	425.98
541.79	322.99
541.96	416.62
542.13	416.62
542.30	393.21
542.47	388.53
542.63	444.70
542.80	442.36
542.97	447.04
543.14	458.74
543.31	393.21
543.48	468.11
543.64	423.64
543.81	348.74
543.98	388.53
544.15	411.93
544.32	416.62
544.48	447.04
544.65	456.40
544.82	437.68
544.99	395.55
545.16	425.98
545.32	435.34
545.49	425.98
545.66	348.74
545.83	395.55
546.00	351.08
546.16	440.02
546.33	416.62
546.50	400.23
546.67	449.38
546.83	414.27
547.00	407.25
547.17	372.15
547.34	376.83
547.50	437.68
547.67	393.21
547.84	402.57
548.00	337.04
548.17	379.17
548.34	437.68
548.51	400.23
548.67	372.15
548.84	465.77
549.01	411.93
549.18	423.64
549.34	379.17
549.51	409.59
549.68	383.85
549.84	367.46
550.01	409.59
550.18	461.09
550.34	430.66
550.51	423.64
550.68	472.79
550.84	339.38
551.01	461.09
551.18	374.49
551.34	346.40
551.51	470.45
551.68	372.15
551.84	491.51
552.01	463.43
552.18	386.19
552.34	442.36
552.51	430.66
552.68	456.40
552.84	414.27
553.01	447.04
553.18	374.49
553.34	362.78
553.51	386.19
553.67	447.04
553.84	430.66
554.01	397.89
554.17	397.89
554.34	402.57
554.51	428.32
554.67	433.00
554.84	496.19
555.00	493.85
555.17	428.32
555.33	451.72
555.50	416.62
555.67	437.68
555.83	444.70
556.00	470.45
556.16	517.26
556.33	526.62
556.50	468.11
556.66	468.11
556.83	409.59
556.99	477.47
557.16	411.93
557.32	444.70
557.49	400.23
557.65	381.51
557.82	393.21
557.98	430.66
558.15	423.64
558.32	365.12
558.48	496.19
558.65	369.80
558.81	423.64
558.98	425.98
559.14	365.12
559.31	423.64
559.47	397.89
559.64	425.98
559.80	390.87
559.97	433.00
560.13	425.98
560.30	416.62
560.46	388.53
560.63	433.00
560.79	440.02
560.96	397.89
561.12	505.56
561.29	423.64
561.45	400.23
561.61	404.91
561.78	512.58
561.94	402.57
562.11	402.57
562.27	374.49
562.44	339.38
562.60	404.91
562.77	411.93
562.93	475.13
563.10	435.34
563.26	418.96
563.42	437.68
563.59	393.21
563.75	360.44
563.92	456.40
564.08	465.77
564.24	442.36
564.41	493.85
564.57	433.00
564.74	386.19
564.90	397.89
565.07	461.09
565.23	383.85
565.39	454.06
565.56	470.45
565.72	400.23
565.88	367.46
566.05	421.30
566.21	461.09
566.38	367.46
566.54	470.45
566.70	376.83
566.87	390.87
567.03	322.99
567.19	484.49
567.36	402.57
567.52	440.02
567.68	435.34
567.85	388.53
568.01	425.98
568.17	409.59
568.34	447.04
568.50	400.23
568.66	390.87
568.83	435.34
568.99	411.93
569.15	449.38
569.32	456.40
569.48	447.04
569.64	393.21
569.81	468.11
569.97	423.64
570.13	475.13
570.30	379.17
570.46	451.72
570.62	437.68
570.78	400.23
570.95	388.53
571.11	470.45
571.27	395.55
571.43	388.53
571.60	409.59
571.76	351.08
571.92	496.19
572.09	369.80
572.25	374.49
572.41	376.83
572.57	423.64
572.74	404.91
572.90	421.30
573.06	454.06
573.22	458.74
573.38	458.74
573.55	416.62
573.71	442.36
573.87	416.62
574.03	365.12
574.20	339.38
574.36	379.17
574.52	376.83
574.68	400.23
574.84	442.36
575.01	447.04
575.17	409.59
575.33	442.36
575.49	367.46
575.65	437.68
575.82	430.66
575.98	440.02
576.14	486.83
576.30	393.21
576.46	425.98
576.62	447.04
576.79	421.30
576.95	418.96
577.11	428.32
577.27	414.27
577.43	454.06
577.59	479.81
577.75	407.25
577.92	374.49
578.08	442.36
578.24	386.19
578.40	440.02
578.56	489.17
578.72	470.45
578.88	465.77
579.04	428.32
579.21	433.00
579.37	386.19
579.53	390.87
579.69	451.72
579.85	414.27
580.01	395.55
580.17	428.32
580.33	423.64
580.49	358.10
580.65	386.19
580.82	393.21
580.98	433.00
581.14	383.85
581.30	510.24
581.46	421.30
581.62	409.59
581.78	407.25
581.94	430.66
582.10	397.89
582.26	397.89
582.42	425.98
582.58	332.36
582.74	395.55
582.90	461.09
583.06	418.96
583.22	482.15
583.38	468.11
583.54	330.02
583.70	496.19
583.86	411.93
584.02	425.98
584.18	433.00
584.34	425.98
584.50	393.21
584.66	390.87
584.82	390.87
584.98	395.55
585.14	402.57
585.30	470.45
585.46	416.62
585.62	433.00
585.78	379.17
585.94	425.98
586.10	425.98
586.26	449.38
586.42	404.91
586.58	421.30
586.74	435.34
586.90	416.62
587.06	393.21
587.22	435.34
587.38	376.83
587.54	463.43
587.70	472.79
587.86	416.62
588.02	423.64
588.18	454.06
588.34	407.25
588.49	351.08
588.65	407.25
588.81	386.19
588.97	407.25
589.13	416.62
589.29	465.77
589.45	325.33
589.61	400.23
589.77	416.62
589.93	407.25
590.08	386.19
590.24	404.91
590.40	416.62
590.56	489.17
590.72	440.02
590.88	381.51
591.04	414.27
591.20	435.34
591.35	409.59
591.51	409.59
591.67	367.46
591.83	407.25
591.99	465.77
592.15	433.00
592.31	484.49
592.46	416.62
592.62	327.68
592.78	372.15
592.94	395.55
593.10	395.55
593.26	381.51
593.41	493.85
593.57	435.34
593.73	372.15
593.89	416.62
594.05	418.96
594.20	479.81
594.36	496.19
594.52	442.36
594.68	421.30
594.84	428.32
594.99	383.85
595.15	407.25
595.31	500.87
595.47	402.57
595.62	425.98
595.78	409.59
595.94	360.44
596.10	341.72
596.25	444.70
596.41	428.32
596.57	449.38
596.73	372.15
596.88	353.42
597.04	376.83
597.20	407.25
597.36	376.83
597.51	465.77
597.67	449.38
597.83	435.34
597.99	449.38
598.14	418.96
598.30	386.19
598.46	407.25
598.61	468.11
598.77	386.19
598.93	313.63
599.09	372.15
599.24	418.96
599.40	402.57
599.56	463.43
599.71	416.62
599.87	344.06
600.03	395.55
600.18	374.49
600.34	442.36
600.50	409.59
600.65	383.85
600.81	400.23
600.97	395.55
601.12	358.10
601.28	444.70
601.44	374.49
601.59	402.57
601.75	386.19
601.91	411.93
602.06	425.98
602.22	477.47
602.37	472.79
602.53	435.34
602.69	418.96
602.84	409.59
603.00	430.66
603.16	472.79
603.31	416.62
603.47	414.27
603.62	365.12
603.78	390.87
603.94	496.19
604.09	484.49
604.25	458.74
604.40	517.26
604.56	421.30
604.71	423.64
604.87	369.80
605.03	386.19
605.18	423.64
605.34	402.57
605.49	423.64
605.65	423.64
605.80	372.15
605.96	428.32
606.12	390.87
606.27	479.81
606.43	372.15
606.58	521.94
606.74	402.57
606.89	407.25
607.05	458.74
607.20	425.98
607.36	430.66
607.51	468.11
607.67	393.21
607.82	409.59
607.98	470.45
608.13	465.77
608.29	463.43
608.44	440.02
608.60	421.30
608.75	433.00
608.91	465.77
609.06	444.70
609.22	505.56
609.37	458.74
609.53	379.17
609.68	442.36
609.84	440.02
609.99	414.27
610.15	470.45
