SpectraSuite Data File
++++++++++++++++++++++++++++++++++++
Date: Fri Oct 25 12:10:50 EDT 2013
User: price-jones
Dark Spectrum Present: No
Reference Spectrum Present: No
Number of Sampled Component Spectra: 1
Spectrometers: USB2+H05261
Integration Time (usec): 100000 (USB2+H05261)
Spectra Averaged: 1 (USB2+H05261)
Boxcar Smoothing: 0 (USB2+H05261)
Correct for Electrical Dark: No (USB2+H05261)
Strobe/Lamp Enabled: No (USB2+H05261)
Correct for Detector Non-linearity: No (USB2+H05261)
Correct for Stray Light: No (USB2+H05261)
Number of Pixels in Processed Spectrum: 2048
>>>>>Begin Processed Spectral Data<<<<<
365.73	287.89
365.92	287.89
366.12	287.89
366.32	182.56
366.52	248.10
366.72	238.73
366.91	245.76
367.11	234.05
367.31	194.26
367.51	245.76
367.70	250.44
367.90	278.52
368.10	248.10
368.30	273.84
368.49	231.71
368.69	241.08
368.89	243.42
369.09	248.10
369.28	276.18
369.48	198.95
369.68	238.73
369.87	322.99
370.07	304.27
370.27	330.02
370.47	320.65
370.66	306.61
370.86	353.42
371.06	376.83
371.25	428.32
371.45	393.21
371.65	386.19
371.84	379.17
372.04	400.23
372.24	351.08
372.44	386.19
372.63	421.30
372.83	451.72
373.03	428.32
373.22	411.93
373.42	353.42
373.62	449.38
373.81	442.36
374.01	404.91
374.21	411.93
374.40	320.65
374.60	470.45
374.79	353.42
374.99	458.74
375.19	353.42
375.38	402.57
375.58	409.59
375.78	367.46
375.97	440.02
376.17	444.70
376.37	444.70
376.56	444.70
376.76	390.87
376.95	315.97
377.15	383.85
377.35	440.02
377.54	444.70
377.74	393.21
377.93	433.00
378.13	388.53
378.33	402.57
378.52	402.57
378.72	404.91
378.91	407.25
379.11	367.46
379.31	407.25
379.50	440.02
379.70	400.23
379.89	437.68
380.09	372.15
380.28	402.57
380.48	440.02
380.68	447.04
380.87	334.70
381.07	435.34
381.26	386.19
381.46	444.70
381.65	330.02
381.85	437.68
382.04	390.87
382.24	416.62
382.43	414.27
382.63	390.87
382.83	383.85
383.02	421.30
383.22	484.49
383.41	381.51
383.61	421.30
383.80	351.08
384.00	355.76
384.19	374.49
384.39	390.87
384.58	386.19
384.78	435.34
384.97	447.04
385.17	465.77
385.36	423.64
385.56	444.70
385.75	435.34
385.95	395.55
386.14	381.51
386.34	390.87
386.53	360.44
386.72	404.91
386.92	433.00
387.11	409.59
387.31	425.98
387.50	468.11
387.70	409.59
387.89	512.58
388.09	404.91
388.28	465.77
388.48	334.70
388.67	442.36
388.86	332.36
389.06	421.30
389.25	430.66
389.45	393.21
389.64	407.25
389.84	362.78
390.03	470.45
390.22	421.30
390.42	397.89
390.61	318.31
390.81	367.46
391.00	367.46
391.19	386.19
391.39	428.32
391.58	423.64
391.78	369.80
391.97	486.83
392.16	315.97
392.36	390.87
392.55	484.49
392.75	425.98
392.94	379.17
393.13	435.34
393.33	353.42
393.52	454.06
393.71	374.49
393.91	367.46
394.10	435.34
394.29	442.36
394.49	390.87
394.68	454.06
394.88	447.04
395.07	418.96
395.26	395.55
395.46	383.85
395.65	374.49
395.84	425.98
396.04	512.58
396.23	418.96
396.42	430.66
396.62	458.74
396.81	402.57
397.00	348.74
397.19	327.68
397.39	353.42
397.58	423.64
397.77	442.36
397.97	395.55
398.16	416.62
398.35	404.91
398.55	339.38
398.74	358.10
398.93	449.38
399.12	400.23
399.32	435.34
399.51	355.76
399.70	407.25
399.90	381.51
400.09	451.72
400.28	430.66
400.47	395.55
400.67	440.02
400.86	386.19
401.05	433.00
401.24	425.98
401.44	355.76
401.63	395.55
401.82	411.93
402.01	395.55
402.21	362.78
402.40	461.09
402.59	365.12
402.78	425.98
402.97	496.19
403.17	456.40
403.36	395.55
403.55	402.57
403.74	404.91
403.93	393.21
404.13	381.51
404.32	344.06
404.51	390.87
404.70	449.38
404.89	447.04
405.09	475.13
405.28	360.44
405.47	414.27
405.66	388.53
405.85	393.21
406.05	447.04
406.24	440.02
406.43	421.30
406.62	407.25
406.81	407.25
407.00	421.30
407.20	451.72
407.39	393.21
407.58	444.70
407.77	435.34
407.96	390.87
408.15	425.98
408.34	423.64
408.54	376.83
408.73	390.87
408.92	397.89
409.11	404.91
409.30	393.21
409.49	418.96
409.68	383.85
409.87	372.15
410.07	386.19
410.26	433.00
410.45	367.46
410.64	383.85
410.83	402.57
411.02	409.59
411.21	416.62
411.40	390.87
411.59	390.87
411.78	449.38
411.98	393.21
412.17	421.30
412.36	440.02
412.55	362.78
412.74	428.32
412.93	435.34
413.12	376.83
413.31	414.27
413.50	374.49
413.69	337.04
413.88	482.15
414.07	334.70
414.26	430.66
414.45	421.30
414.64	388.53
414.83	407.25
415.02	430.66
415.22	444.70
415.41	458.74
415.60	390.87
415.79	374.49
415.98	367.46
416.17	362.78
416.36	442.36
416.55	372.15
416.74	477.47
416.93	442.36
417.12	379.17
417.31	423.64
417.50	414.27
417.69	442.36
417.88	379.17
418.07	428.32
418.26	444.70
418.45	400.23
418.64	472.79
418.83	456.40
419.02	388.53
419.21	430.66
419.39	376.83
419.58	369.80
419.77	397.89
419.96	397.89
420.15	409.59
420.34	379.17
420.53	456.40
420.72	355.76
420.91	449.38
421.10	397.89
421.29	390.87
421.48	437.68
421.67	444.70
421.86	360.44
422.05	395.55
422.24	407.25
422.43	496.19
422.61	358.10
422.80	367.46
422.99	386.19
423.18	341.72
423.37	458.74
423.56	435.34
423.75	435.34
423.94	386.19
424.13	447.04
424.32	376.83
424.50	400.23
424.69	414.27
424.88	400.23
425.07	414.27
425.26	493.85
425.45	465.77
425.64	423.64
425.83	358.10
426.01	381.51
426.20	402.57
426.39	397.89
426.58	477.47
426.77	388.53
426.96	393.21
427.15	463.43
427.33	428.32
427.52	400.23
427.71	390.87
427.90	454.06
428.09	381.51
428.28	365.12
428.46	425.98
428.65	458.74
428.84	449.38
429.03	437.68
429.22	404.91
429.40	390.87
429.59	379.17
429.78	477.47
429.97	428.32
430.16	475.13
430.34	461.09
430.53	339.38
430.72	416.62
430.91	341.72
431.10	423.64
431.28	367.46
431.47	435.34
431.66	395.55
431.85	369.80
432.03	440.02
432.22	475.13
432.41	493.85
432.60	486.83
432.79	472.79
432.97	372.15
433.16	428.32
433.35	397.89
433.54	337.04
433.72	470.45
433.91	437.68
434.10	433.00
434.28	435.34
434.47	397.89
434.66	386.19
434.85	388.53
435.03	360.44
435.22	430.66
435.41	449.38
435.59	425.98
435.78	358.10
435.97	383.85
436.16	470.45
436.34	447.04
436.53	414.27
436.72	451.72
436.90	397.89
437.09	470.45
437.28	379.17
437.46	411.93
437.65	358.10
437.84	400.23
438.02	414.27
438.21	447.04
438.40	402.57
438.58	372.15
438.77	407.25
438.96	404.91
439.14	383.85
439.33	435.34
439.52	437.68
439.70	402.57
439.89	428.32
440.08	437.68
440.26	341.72
440.45	416.62
440.63	330.02
440.82	388.53
441.01	372.15
441.19	379.17
441.38	388.53
441.57	351.08
441.75	428.32
441.94	351.08
442.12	461.09
442.31	428.32
442.50	397.89
442.68	348.74
442.87	360.44
443.05	440.02
443.24	423.64
443.43	416.62
443.61	447.04
443.80	435.34
443.98	447.04
444.17	379.17
444.35	416.62
444.54	433.00
444.73	390.87
444.91	465.77
445.10	418.96
445.28	400.23
445.47	367.46
445.65	386.19
445.84	372.15
446.02	381.51
446.21	388.53
446.39	414.27
446.58	393.21
446.77	355.76
446.95	325.33
447.14	393.21
447.32	418.96
447.51	482.15
447.69	393.21
447.88	407.25
448.06	390.87
448.25	468.11
448.43	383.85
448.62	400.23
448.80	404.91
448.99	404.91
449.17	395.55
449.36	421.30
449.54	482.15
449.73	344.06
449.91	437.68
450.10	379.17
450.28	510.24
450.46	437.68
450.65	437.68
450.83	430.66
451.02	411.93
451.20	444.70
451.39	421.30
451.57	411.93
451.76	414.27
451.94	421.30
452.13	407.25
452.31	421.30
452.49	451.72
452.68	393.21
452.86	386.19
453.05	362.78
453.23	451.72
453.42	451.72
453.60	388.53
453.78	451.72
453.97	411.93
454.15	421.30
454.34	440.02
454.52	454.06
454.70	451.72
454.89	388.53
455.07	400.23
455.26	388.53
455.44	402.57
455.62	374.49
455.81	397.89
455.99	449.38
456.17	421.30
456.36	477.47
456.54	430.66
456.73	425.98
456.91	372.15
457.09	456.40
457.28	428.32
457.46	400.23
457.64	430.66
457.83	388.53
458.01	451.72
458.19	428.32
458.38	418.96
458.56	393.21
458.74	346.40
458.93	337.04
459.11	482.15
459.29	383.85
459.48	395.55
459.66	444.70
459.84	470.45
460.03	428.32
460.21	386.19
460.39	397.89
460.57	433.00
460.76	414.27
460.94	425.98
461.12	484.49
461.31	454.06
461.49	397.89
461.67	379.17
461.85	435.34
462.04	437.68
462.22	767.70
462.40	458.74
462.59	411.93
462.77	435.34
462.95	433.00
463.13	383.85
463.32	407.25
463.50	421.30
463.68	386.19
463.86	451.72
464.05	407.25
464.23	468.11
464.41	437.68
464.59	388.53
464.78	404.91
464.96	404.91
465.14	404.91
465.32	437.68
465.50	442.36
465.69	381.51
465.87	397.89
466.05	465.77
466.23	376.83
466.41	341.72
466.60	400.23
466.78	402.57
466.96	498.53
467.14	451.72
467.32	362.78
467.51	397.89
467.69	442.36
467.87	388.53
468.05	400.23
468.23	411.93
468.41	465.77
468.60	365.12
468.78	397.89
468.96	418.96
469.14	383.85
469.32	388.53
469.50	409.59
469.69	400.23
469.87	442.36
470.05	454.06
470.23	404.91
470.41	479.81
470.59	437.68
470.77	416.62
470.95	454.06
471.14	491.51
471.32	404.91
471.50	423.64
471.68	393.21
471.86	454.06
472.04	416.62
472.22	411.93
472.40	369.80
472.58	402.57
472.77	435.34
472.95	435.34
473.13	503.22
473.31	390.87
473.49	437.68
473.67	381.51
473.85	395.55
474.03	463.43
474.21	414.27
474.39	435.34
474.57	500.87
474.75	397.89
474.93	407.25
475.12	423.64
475.30	430.66
475.48	388.53
475.66	346.40
475.84	395.55
476.02	369.80
476.20	435.34
476.38	374.49
476.56	458.74
476.74	428.32
476.92	465.77
477.10	397.89
477.28	414.27
477.46	393.21
477.64	449.38
477.82	472.79
478.00	388.53
478.18	386.19
478.36	395.55
478.54	372.15
478.72	383.85
478.90	383.85
479.08	381.51
479.26	428.32
479.44	400.23
479.62	402.57
479.80	397.89
479.98	404.91
480.16	386.19
480.34	451.72
480.52	433.00
480.70	390.87
480.88	418.96
481.06	428.32
481.24	496.19
481.41	423.64
481.59	369.80
481.77	521.94
481.95	477.47
482.13	425.98
482.31	400.23
482.49	386.19
482.67	360.44
482.85	465.77
483.03	447.04
483.21	383.85
483.39	376.83
483.57	390.87
483.74	479.81
483.92	397.89
484.10	449.38
484.28	372.15
484.46	449.38
484.64	376.83
484.82	414.27
485.00	351.08
485.18	379.17
485.35	433.00
485.53	472.79
485.71	402.57
485.89	381.51
486.07	346.40
486.25	423.64
486.43	414.27
486.61	421.30
486.78	402.57
486.96	454.06
487.14	362.78
487.32	418.96
487.50	528.96
487.68	461.09
487.85	482.15
488.03	395.55
488.21	447.04
488.39	374.49
488.57	428.32
488.75	362.78
488.92	489.17
489.10	416.62
489.28	484.49
489.46	355.76
489.64	362.78
489.81	332.36
489.99	400.23
490.17	397.89
490.35	461.09
490.53	367.46
490.70	369.80
490.88	472.79
491.06	395.55
491.24	425.98
491.41	484.49
491.59	475.13
491.77	379.17
491.95	425.98
492.13	360.44
492.30	402.57
492.48	388.53
492.66	393.21
492.84	360.44
493.01	365.12
493.19	425.98
493.37	411.93
493.54	433.00
493.72	428.32
493.90	341.72
494.08	402.57
494.25	496.19
494.43	465.77
494.61	402.57
494.79	365.12
494.96	395.55
495.14	458.74
495.32	425.98
495.49	358.10
495.67	433.00
495.85	390.87
496.02	400.23
496.20	409.59
496.38	402.57
496.55	386.19
496.73	451.72
496.91	351.08
497.09	425.98
497.26	388.53
497.44	425.98
497.62	430.66
497.79	472.79
497.97	451.72
498.14	447.04
498.32	418.96
498.50	449.38
498.67	418.96
498.85	428.32
499.03	458.74
499.20	416.62
499.38	491.51
499.56	421.30
499.73	423.64
499.91	425.98
500.08	379.17
500.26	435.34
500.44	376.83
500.61	433.00
500.79	351.08
500.97	360.44
501.14	435.34
501.32	369.80
501.49	414.27
501.67	514.92
501.84	334.70
502.02	437.68
502.20	435.34
502.37	393.21
502.55	353.42
502.72	402.57
502.90	388.53
503.07	418.96
503.25	418.96
503.43	454.06
503.60	435.34
503.78	456.40
503.95	421.30
504.13	376.83
504.30	463.43
504.48	390.87
504.65	425.98
504.83	521.94
505.01	393.21
505.18	404.91
505.36	482.15
505.53	376.83
505.71	367.46
505.88	491.51
506.06	440.02
506.23	315.97
506.41	376.83
506.58	367.46
506.76	423.64
506.93	498.53
507.11	517.26
507.28	400.23
507.46	477.47
507.63	372.15
507.81	435.34
507.98	442.36
508.16	416.62
508.33	491.51
508.50	430.66
508.68	365.12
508.85	435.34
509.03	416.62
509.20	372.15
509.38	442.36
509.55	400.23
509.73	498.53
509.90	414.27
510.08	416.62
510.25	461.09
510.42	498.53
510.60	409.59
510.77	383.85
510.95	463.43
511.12	411.93
511.30	362.78
511.47	458.74
511.64	475.13
511.82	393.21
511.99	437.68
512.17	461.09
512.34	402.57
512.51	447.04
512.69	416.62
512.86	402.57
513.04	341.72
513.21	397.89
513.38	388.53
513.56	425.98
513.73	397.89
513.90	468.11
514.08	395.55
514.25	437.68
514.43	397.89
514.60	367.46
514.77	418.96
514.95	430.66
515.12	414.27
515.29	381.51
515.47	414.27
515.64	388.53
515.81	477.47
515.99	433.00
516.16	404.91
516.33	435.34
516.51	372.15
516.68	388.53
516.85	416.62
517.03	367.46
517.20	411.93
517.37	440.02
517.54	395.55
517.72	430.66
517.89	376.83
518.06	425.98
518.24	547.69
518.41	465.77
518.58	442.36
518.75	442.36
518.93	435.34
519.10	414.27
519.27	334.70
519.45	418.96
519.62	425.98
519.79	346.40
519.96	390.87
520.14	390.87
520.31	468.11
520.48	407.25
520.65	433.00
520.83	458.74
521.00	393.21
521.17	421.30
521.34	374.49
521.52	449.38
521.69	372.15
521.86	456.40
522.03	397.89
522.20	477.47
522.38	346.40
522.55	418.96
522.72	414.27
522.89	451.72
523.07	416.62
523.24	444.70
523.41	440.02
523.58	393.21
523.75	400.23
523.92	407.25
524.10	400.23
524.27	365.12
524.44	425.98
524.61	402.57
524.78	397.89
524.96	425.98
525.13	468.11
525.30	454.06
525.47	425.98
525.64	409.59
525.81	463.43
525.98	400.23
526.16	470.45
526.33	454.06
526.50	414.27
526.67	386.19
526.84	437.68
527.01	433.00
527.18	468.11
527.36	397.89
527.53	416.62
527.70	454.06
527.87	465.77
528.04	409.59
528.21	362.78
528.38	409.59
528.55	325.33
528.72	456.40
528.89	418.96
529.07	407.25
529.24	447.04
529.41	470.45
529.58	428.32
529.75	444.70
529.92	404.91
530.09	510.24
530.26	454.06
530.43	353.42
530.60	430.66
530.77	458.74
530.94	341.72
531.11	339.38
531.28	458.74
531.46	440.02
531.63	414.27
531.80	435.34
531.97	411.93
532.14	430.66
532.31	475.13
532.48	418.96
532.65	442.36
532.82	388.53
532.99	409.59
533.16	472.79
533.33	440.02
533.50	395.55
533.67	456.40
533.84	444.70
534.01	465.77
534.18	411.93
534.35	353.42
534.52	482.15
534.69	376.83
534.86	414.27
535.03	449.38
535.20	358.10
535.37	454.06
535.54	390.87
535.71	418.96
535.88	397.89
536.05	437.68
536.22	395.55
536.38	442.36
536.55	360.44
536.72	472.79
536.89	397.89
537.06	461.09
537.23	421.30
537.40	400.23
537.57	390.87
537.74	461.09
537.91	360.44
538.08	428.32
538.25	423.64
538.42	435.34
538.59	402.57
538.75	449.38
538.92	376.83
539.09	414.27
539.26	414.27
539.43	447.04
539.60	421.30
539.77	458.74
539.94	411.93
540.11	468.11
540.28	425.98
540.44	418.96
540.61	395.55
540.78	461.09
540.95	395.55
541.12	442.36
541.29	351.08
541.46	395.55
541.62	402.57
541.79	444.70
541.96	428.32
542.13	393.21
542.30	390.87
542.47	430.66
542.63	402.57
542.80	463.43
542.97	437.68
543.14	433.00
543.31	358.10
543.48	458.74
543.64	409.59
543.81	369.80
543.98	383.85
544.15	423.64
544.32	402.57
544.48	433.00
544.65	421.30
544.82	404.91
544.99	341.72
545.16	404.91
545.32	365.12
545.49	390.87
545.66	355.76
545.83	395.55
546.00	442.36
546.16	433.00
546.33	372.15
546.50	383.85
546.67	433.00
546.83	475.13
547.00	430.66
547.17	404.91
547.34	440.02
547.50	451.72
547.67	393.21
547.84	444.70
548.00	423.64
548.17	344.06
548.34	475.13
548.51	428.32
548.67	416.62
548.84	416.62
549.01	402.57
549.18	421.30
549.34	388.53
549.51	465.77
549.68	390.87
549.84	430.66
550.01	341.72
550.18	458.74
550.34	526.62
550.51	477.47
550.68	486.83
550.84	421.30
551.01	365.12
551.18	409.59
551.34	402.57
551.51	418.96
551.68	390.87
551.84	510.24
552.01	390.87
552.18	423.64
552.34	407.25
552.51	395.55
552.68	472.79
552.84	381.51
553.01	425.98
553.18	407.25
553.34	512.58
553.51	418.96
553.67	292.57
553.84	461.09
554.01	428.32
554.17	440.02
554.34	456.40
554.51	404.91
554.67	440.02
554.84	477.47
555.00	379.17
555.17	475.13
555.33	428.32
555.50	444.70
555.67	456.40
555.83	475.13
556.00	425.98
556.16	498.53
556.33	461.09
556.50	475.13
556.66	358.10
556.83	395.55
556.99	400.23
557.16	414.27
557.32	411.93
557.49	404.91
557.65	402.57
557.82	435.34
557.98	463.43
558.15	435.34
558.32	423.64
558.48	402.57
558.65	435.34
558.81	388.53
558.98	442.36
559.14	414.27
559.31	367.46
559.47	365.12
559.64	416.62
559.80	381.51
559.97	390.87
560.13	449.38
560.30	397.89
560.46	381.51
560.63	440.02
560.79	411.93
560.96	409.59
561.12	407.25
561.29	437.68
561.45	418.96
561.61	374.49
561.78	489.17
561.94	365.12
562.11	400.23
562.27	447.04
562.44	430.66
562.60	447.04
562.77	395.55
562.93	475.13
563.10	449.38
563.26	372.15
563.42	458.74
563.59	491.51
563.75	409.59
563.92	475.13
564.08	409.59
564.24	456.40
564.41	404.91
564.57	414.27
564.74	393.21
564.90	409.59
565.07	458.74
565.23	475.13
565.39	414.27
565.56	477.47
565.72	372.15
565.88	353.42
566.05	402.57
566.21	344.06
566.38	416.62
566.54	433.00
566.70	437.68
566.87	355.76
567.03	411.93
567.19	461.09
567.36	503.22
567.52	346.40
567.68	407.25
567.85	454.06
568.01	430.66
568.17	416.62
568.34	376.83
568.50	423.64
568.66	414.27
568.83	491.51
568.99	407.25
569.15	397.89
569.32	463.43
569.48	456.40
569.64	458.74
569.81	430.66
569.97	442.36
570.13	451.72
570.30	454.06
570.46	404.91
570.62	442.36
570.78	402.57
570.95	428.32
571.11	472.79
571.27	479.81
571.43	390.87
571.60	395.55
571.76	386.19
571.92	367.46
572.09	402.57
572.25	409.59
572.41	402.57
572.57	409.59
572.74	440.02
572.90	395.55
573.06	442.36
573.22	395.55
573.38	402.57
573.55	437.68
573.71	425.98
573.87	416.62
574.03	351.08
574.20	351.08
574.36	369.80
574.52	409.59
574.68	444.70
574.84	461.09
575.01	379.17
575.17	374.49
575.33	421.30
575.49	479.81
575.65	468.11
575.82	374.49
575.98	437.68
576.14	404.91
576.30	283.20
576.46	400.23
576.62	353.42
576.79	454.06
576.95	482.15
577.11	409.59
577.27	393.21
577.43	463.43
577.59	482.15
577.75	425.98
577.92	402.57
578.08	402.57
578.24	407.25
578.40	360.44
578.56	362.78
578.72	437.68
578.88	397.89
579.04	388.53
579.21	393.21
579.37	418.96
579.53	414.27
579.69	404.91
579.85	353.42
580.01	503.22
580.17	397.89
580.33	451.72
580.49	421.30
580.65	468.11
580.82	414.27
580.98	435.34
581.14	315.97
581.30	475.13
581.46	367.46
581.62	409.59
581.78	475.13
581.94	365.12
582.10	418.96
582.26	519.60
582.42	451.72
582.58	414.27
582.74	421.30
582.90	411.93
583.06	449.38
583.22	404.91
583.38	402.57
583.54	355.76
583.70	386.19
583.86	423.64
584.02	421.30
584.18	360.44
584.34	437.68
584.50	475.13
584.66	402.57
584.82	393.21
584.98	411.93
585.14	294.91
585.30	411.93
585.46	442.36
585.62	423.64
585.78	395.55
585.94	365.12
586.10	365.12
586.26	400.23
586.42	489.17
586.58	374.49
586.74	411.93
586.90	428.32
587.06	437.68
587.22	428.32
587.38	416.62
587.54	468.11
587.70	440.02
587.86	442.36
588.02	397.89
588.18	423.64
588.34	447.04
588.49	402.57
588.65	423.64
588.81	404.91
588.97	463.43
589.13	390.87
589.29	402.57
589.45	493.85
589.61	484.49
589.77	390.87
589.93	388.53
590.08	388.53
590.24	346.40
590.40	451.72
590.56	383.85
590.72	400.23
590.88	386.19
591.04	463.43
591.20	365.12
591.35	409.59
591.51	421.30
591.67	521.94
591.83	456.40
591.99	409.59
592.15	433.00
592.31	383.85
592.46	411.93
592.62	528.96
592.78	383.85
592.94	475.13
593.10	388.53
593.26	451.72
593.41	482.15
593.57	442.36
593.73	402.57
593.89	397.89
594.05	416.62
594.20	376.83
594.36	374.49
594.52	379.17
594.68	369.80
594.84	407.25
594.99	421.30
595.15	414.27
595.31	397.89
595.47	489.17
595.62	486.83
595.78	444.70
595.94	421.30
596.10	472.79
596.25	479.81
596.41	458.74
596.57	404.91
596.73	395.55
596.88	416.62
597.04	423.64
597.20	409.59
597.36	449.38
597.51	428.32
597.67	372.15
597.83	416.62
597.99	444.70
598.14	351.08
598.30	482.15
598.46	435.34
598.61	416.62
598.77	503.22
598.93	367.46
599.09	423.64
599.24	468.11
599.40	451.72
599.56	388.53
599.71	346.40
599.87	372.15
600.03	339.38
600.18	421.30
600.34	395.55
600.50	435.34
600.65	425.98
600.81	461.09
600.97	360.44
601.12	402.57
601.28	358.10
601.44	470.45
601.59	397.89
601.75	407.25
601.91	416.62
602.06	461.09
602.22	479.81
602.37	388.53
602.53	456.40
602.69	430.66
602.84	374.49
603.00	416.62
603.16	418.96
603.31	470.45
603.47	421.30
603.62	430.66
603.78	365.12
603.94	425.98
604.09	421.30
604.25	381.51
604.40	372.15
604.56	400.23
604.71	447.04
604.87	435.34
605.03	400.23
605.18	383.85
605.34	463.43
605.49	344.06
605.65	365.12
605.80	395.55
605.96	430.66
606.12	442.36
606.27	463.43
606.43	416.62
606.58	402.57
606.74	404.91
606.89	379.17
607.05	463.43
607.20	468.11
607.36	409.59
607.51	393.21
607.67	393.21
607.82	360.44
607.98	468.11
608.13	374.49
608.29	362.78
608.44	423.64
608.60	414.27
608.75	433.00
608.91	418.96
609.06	409.59
609.22	447.04
609.37	369.80
609.53	407.25
609.68	451.72
609.84	386.19
609.99	388.53
610.15	430.66
