SpectraSuite Data File
++++++++++++++++++++++++++++++++++++
Date: Fri Oct 25 12:10:21 EDT 2013
User: price-jones
Dark Spectrum Present: No
Reference Spectrum Present: No
Number of Sampled Component Spectra: 1
Spectrometers: USB2+H05261
Integration Time (usec): 100000 (USB2+H05261)
Spectra Averaged: 1 (USB2+H05261)
Boxcar Smoothing: 0 (USB2+H05261)
Correct for Electrical Dark: No (USB2+H05261)
Strobe/Lamp Enabled: No (USB2+H05261)
Correct for Detector Non-linearity: No (USB2+H05261)
Correct for Stray Light: No (USB2+H05261)
Number of Pixels in Processed Spectrum: 2048
>>>>>Begin Processed Spectral Data<<<<<
365.73	313.63
365.92	313.63
366.12	313.63
366.32	252.78
366.52	262.14
366.72	248.10
366.91	290.23
367.11	198.95
367.31	271.50
367.51	210.65
367.70	217.67
367.90	280.86
368.10	220.01
368.30	238.73
368.49	245.76
368.69	243.42
368.89	264.48
369.09	292.57
369.28	315.97
369.48	201.29
369.68	344.06
369.87	348.74
370.07	292.57
370.27	330.02
370.47	313.63
370.66	344.06
370.86	344.06
371.06	381.51
371.25	449.38
371.45	369.80
371.65	397.89
371.84	348.74
372.04	334.70
372.24	334.70
372.44	397.89
372.63	386.19
372.83	435.34
373.03	428.32
373.22	470.45
373.42	404.91
373.62	381.51
373.81	456.40
374.01	395.55
374.21	383.85
374.40	465.77
374.60	404.91
374.79	402.57
374.99	330.02
375.19	449.38
375.38	381.51
375.58	372.15
375.78	435.34
375.97	470.45
376.17	468.11
376.37	472.79
376.56	463.43
376.76	365.12
376.95	348.74
377.15	395.55
377.35	409.59
377.54	414.27
377.74	365.12
377.93	386.19
378.13	430.66
378.33	397.89
378.52	461.09
378.72	472.79
378.91	425.98
379.11	428.32
379.31	423.64
379.50	386.19
379.70	493.85
379.89	444.70
380.09	447.04
380.28	358.10
380.48	496.19
380.68	454.06
380.87	404.91
381.07	444.70
381.26	433.00
381.46	397.89
381.65	418.96
381.85	376.83
382.04	440.02
382.24	465.77
382.43	449.38
382.63	355.76
382.83	442.36
383.02	430.66
383.22	416.62
383.41	388.53
383.61	393.21
383.80	463.43
384.00	386.19
384.19	418.96
384.39	402.57
384.58	409.59
384.78	442.36
384.97	397.89
385.17	472.79
385.36	414.27
385.56	400.23
385.75	402.57
385.95	479.81
386.14	379.17
386.34	372.15
386.53	400.23
386.72	360.44
386.92	369.80
387.11	493.85
387.31	475.13
387.50	418.96
387.70	339.38
387.89	397.89
388.09	369.80
388.28	376.83
388.48	369.80
388.67	409.59
388.86	421.30
389.06	397.89
389.25	362.78
389.45	376.83
389.64	383.85
389.84	409.59
390.03	372.15
390.22	414.27
390.42	390.87
390.61	416.62
390.81	395.55
391.00	386.19
391.19	435.34
391.39	409.59
391.58	402.57
391.78	407.25
391.97	372.15
392.16	395.55
392.36	346.40
392.55	400.23
392.75	407.25
392.94	367.46
393.13	449.38
393.33	416.62
393.52	339.38
393.71	395.55
393.91	369.80
394.10	299.59
394.29	367.46
394.49	475.13
394.68	475.13
394.88	468.11
395.07	505.56
395.26	428.32
395.46	348.74
395.65	362.78
395.84	404.91
396.04	463.43
396.23	418.96
396.42	339.38
396.62	409.59
396.81	449.38
397.00	327.68
397.19	351.08
397.39	404.91
397.58	397.89
397.77	465.77
397.97	463.43
398.16	402.57
398.35	404.91
398.55	393.21
398.74	353.42
398.93	435.34
399.12	430.66
399.32	423.64
399.51	348.74
399.70	351.08
399.90	500.87
400.09	369.80
400.28	465.77
400.47	477.47
400.67	409.59
400.86	407.25
401.05	425.98
401.24	463.43
401.44	374.49
401.63	362.78
401.82	390.87
402.01	334.70
402.21	414.27
402.40	402.57
402.59	425.98
402.78	365.12
402.97	437.68
403.17	374.49
403.36	409.59
403.55	484.49
403.74	376.83
403.93	423.64
404.13	444.70
404.32	411.93
404.51	404.91
404.70	433.00
404.89	374.49
405.09	435.34
405.28	458.74
405.47	388.53
405.66	390.87
405.85	414.27
406.05	421.30
406.24	414.27
406.43	409.59
406.62	393.21
406.81	461.09
407.00	423.64
407.20	425.98
407.39	407.25
407.58	400.23
407.77	402.57
407.96	409.59
408.15	430.66
408.34	360.44
408.54	362.78
408.73	440.02
408.92	447.04
409.11	437.68
409.30	407.25
409.49	388.53
409.68	374.49
409.87	440.02
410.07	461.09
410.26	468.11
410.45	449.38
410.64	337.04
410.83	411.93
411.02	348.74
411.21	362.78
411.40	379.17
411.59	360.44
411.78	351.08
411.98	447.04
412.17	360.44
412.36	449.38
412.55	379.17
412.74	362.78
412.93	386.19
413.12	393.21
413.31	418.96
413.50	388.53
413.69	346.40
413.88	360.44
414.07	421.30
414.26	428.32
414.45	395.55
414.64	376.83
414.83	414.27
415.02	355.76
415.22	482.15
415.41	475.13
415.60	360.44
415.79	372.15
415.98	442.36
416.17	351.08
416.36	395.55
416.55	397.89
416.74	510.24
416.93	435.34
417.12	449.38
417.31	425.98
417.50	358.10
417.69	475.13
417.88	383.85
418.07	395.55
418.26	358.10
418.45	322.99
418.64	440.02
418.83	437.68
419.02	461.09
419.21	372.15
419.39	397.89
419.58	416.62
419.77	409.59
419.96	400.23
420.15	491.51
420.34	409.59
420.53	498.53
420.72	416.62
420.91	475.13
421.10	372.15
421.29	383.85
421.48	397.89
421.67	440.02
421.86	358.10
422.05	334.70
422.24	397.89
422.43	433.00
422.61	346.40
422.80	397.89
422.99	440.02
423.18	388.53
423.37	416.62
423.56	383.85
423.75	393.21
423.94	367.46
424.13	444.70
424.32	358.10
424.50	454.06
424.69	430.66
424.88	440.02
425.07	425.98
425.26	390.87
425.45	437.68
425.64	409.59
425.83	423.64
426.01	451.72
426.20	479.81
426.39	437.68
426.58	362.78
426.77	465.77
426.96	383.85
427.15	421.30
427.33	416.62
427.52	411.93
427.71	369.80
427.90	414.27
428.09	402.57
428.28	388.53
428.46	372.15
428.65	409.59
428.84	423.64
429.03	477.47
429.22	400.23
429.40	400.23
429.59	454.06
429.78	465.77
429.97	447.04
430.16	428.32
430.34	482.15
430.53	386.19
430.72	409.59
430.91	388.53
431.10	327.68
431.28	400.23
431.47	416.62
431.66	402.57
431.85	433.00
432.03	362.78
432.22	442.36
432.41	341.72
432.60	496.19
432.79	447.04
432.97	334.70
433.16	369.80
433.35	348.74
433.54	353.42
433.72	468.11
433.91	449.38
434.10	393.21
434.28	369.80
434.47	451.72
434.66	442.36
434.85	411.93
435.03	360.44
435.22	430.66
435.41	379.17
435.59	388.53
435.78	442.36
435.97	351.08
436.16	461.09
436.34	475.13
436.53	416.62
436.72	346.40
436.90	358.10
437.09	425.98
437.28	353.42
437.46	411.93
437.65	395.55
437.84	383.85
438.02	409.59
438.21	503.22
438.40	360.44
438.58	383.85
438.77	416.62
438.96	365.12
439.14	447.04
439.33	418.96
439.52	423.64
439.70	294.91
439.89	437.68
440.08	489.17
440.26	395.55
440.45	411.93
440.63	355.76
440.82	358.10
441.01	397.89
441.19	447.04
441.38	397.89
441.57	430.66
441.75	458.74
441.94	430.66
442.12	407.25
442.31	456.40
442.50	365.12
442.68	358.10
442.87	440.02
443.05	365.12
443.24	397.89
443.43	397.89
443.61	411.93
443.80	444.70
443.98	425.98
444.17	425.98
444.35	414.27
444.54	390.87
444.73	482.15
444.91	407.25
445.10	383.85
445.28	430.66
445.47	444.70
445.65	334.70
445.84	442.36
446.02	461.09
446.21	390.87
446.39	376.83
446.58	404.91
446.77	355.76
446.95	409.59
447.14	425.98
447.32	442.36
447.51	395.55
447.69	498.53
447.88	388.53
448.06	386.19
448.25	463.43
448.43	475.13
448.62	437.68
448.80	465.77
448.99	437.68
449.17	440.02
449.36	390.87
449.54	430.66
449.73	383.85
449.91	397.89
450.10	369.80
450.28	435.34
450.46	390.87
450.65	451.72
450.83	386.19
451.02	367.46
451.20	444.70
451.39	430.66
451.57	395.55
451.76	376.83
451.94	367.46
452.13	451.72
452.31	400.23
452.49	447.04
452.68	428.32
452.86	411.93
453.05	493.85
453.23	395.55
453.42	414.27
453.60	468.11
453.78	418.96
453.97	402.57
454.15	449.38
454.34	418.96
454.52	374.49
454.70	402.57
454.89	358.10
455.07	393.21
455.26	444.70
455.44	421.30
455.62	365.12
455.81	362.78
455.99	458.74
456.17	400.23
456.36	388.53
456.54	402.57
456.73	449.38
456.91	444.70
457.09	409.59
457.28	362.78
457.46	425.98
457.64	393.21
457.83	475.13
458.01	346.40
458.19	386.19
458.38	346.40
458.56	327.68
458.74	369.80
458.93	428.32
459.11	447.04
459.29	358.10
459.48	388.53
459.66	383.85
459.84	337.04
460.03	430.66
460.21	383.85
460.39	369.80
460.57	393.21
460.76	456.40
460.94	437.68
461.12	435.34
461.31	486.83
461.49	308.95
461.67	351.08
461.85	379.17
462.04	437.68
462.22	755.99
462.40	346.40
462.59	456.40
462.77	435.34
462.95	491.51
463.13	348.74
463.32	409.59
463.50	486.83
463.68	491.51
463.86	327.68
464.05	365.12
464.23	414.27
464.41	440.02
464.59	393.21
464.78	411.93
464.96	456.40
465.14	456.40
465.32	330.02
465.50	388.53
465.69	407.25
465.87	381.51
466.05	379.17
466.23	407.25
466.41	449.38
466.60	421.30
466.78	390.87
466.96	423.64
467.14	437.68
467.32	444.70
467.51	447.04
467.69	388.53
467.87	395.55
468.05	456.40
468.23	400.23
468.41	411.93
468.60	393.21
468.78	339.38
468.96	360.44
469.14	451.72
469.32	395.55
469.50	390.87
469.69	465.77
469.87	393.21
470.05	414.27
470.23	404.91
470.41	395.55
470.59	435.34
470.77	372.15
470.95	423.64
471.14	423.64
471.32	404.91
471.50	444.70
471.68	372.15
471.86	456.40
472.04	454.06
472.22	369.80
472.40	358.10
472.58	397.89
472.77	409.59
472.95	404.91
473.13	510.24
473.31	442.36
473.49	400.23
473.67	334.70
473.85	416.62
474.03	442.36
474.21	379.17
474.39	449.38
474.57	435.34
474.75	402.57
474.93	421.30
475.12	362.78
475.30	437.68
475.48	414.27
475.66	409.59
475.84	425.98
476.02	381.51
476.20	390.87
476.38	418.96
476.56	458.74
476.74	341.72
476.92	355.76
477.10	353.42
477.28	379.17
477.46	416.62
477.64	435.34
477.82	383.85
478.00	376.83
478.18	397.89
478.36	400.23
478.54	369.80
478.72	400.23
478.90	437.68
479.08	477.47
479.26	374.49
479.44	358.10
479.62	390.87
479.80	376.83
479.98	369.80
480.16	404.91
480.34	435.34
480.52	360.44
480.70	400.23
480.88	472.79
481.06	337.04
481.24	407.25
481.41	367.46
481.59	444.70
481.77	465.77
481.95	461.09
482.13	416.62
482.31	449.38
482.49	400.23
482.67	390.87
482.85	454.06
483.03	402.57
483.21	351.08
483.39	390.87
483.57	360.44
483.74	477.47
483.92	388.53
484.10	353.42
484.28	411.93
484.46	507.90
484.64	374.49
484.82	397.89
485.00	374.49
485.18	421.30
485.35	362.78
485.53	395.55
485.71	423.64
485.89	440.02
486.07	348.74
486.25	437.68
486.43	418.96
486.61	451.72
486.78	430.66
486.96	407.25
487.14	379.17
487.32	369.80
487.50	414.27
487.68	449.38
487.85	374.49
488.03	444.70
488.21	442.36
488.39	428.32
488.57	414.27
488.75	400.23
488.92	507.90
489.10	404.91
489.28	498.53
489.46	444.70
489.64	454.06
489.81	442.36
489.99	468.11
490.17	402.57
490.35	416.62
490.53	486.83
490.70	407.25
490.88	458.74
491.06	379.17
491.24	444.70
491.41	477.47
491.59	411.93
491.77	390.87
491.95	409.59
492.13	437.68
492.30	407.25
492.48	435.34
492.66	360.44
492.84	407.25
493.01	482.15
493.19	409.59
493.37	440.02
493.54	425.98
493.72	369.80
493.90	381.51
494.08	397.89
494.25	346.40
494.43	409.59
494.61	409.59
494.79	414.27
494.96	425.98
495.14	440.02
495.32	348.74
495.49	437.68
495.67	421.30
495.85	493.85
496.02	383.85
496.20	414.27
496.38	477.47
496.55	433.00
496.73	451.72
496.91	402.57
497.09	456.40
497.26	454.06
497.44	435.34
497.62	409.59
497.79	397.89
497.97	397.89
498.14	423.64
498.32	449.38
498.50	390.87
498.67	442.36
498.85	355.76
499.03	409.59
499.20	388.53
499.38	390.87
499.56	409.59
499.73	461.09
499.91	414.27
500.08	437.68
500.26	470.45
500.44	369.80
500.61	388.53
500.79	355.76
500.97	449.38
501.14	409.59
501.32	358.10
501.49	409.59
501.67	388.53
501.84	330.02
502.02	393.21
502.20	411.93
502.37	407.25
502.55	444.70
502.72	416.62
502.90	482.15
503.07	374.49
503.25	383.85
503.43	383.85
503.60	458.74
503.78	500.87
503.95	435.34
504.13	416.62
504.30	418.96
504.48	393.21
504.65	447.04
504.83	411.93
505.01	386.19
505.18	407.25
505.36	470.45
505.53	416.62
505.71	346.40
505.88	346.40
506.06	461.09
506.23	411.93
506.41	437.68
506.58	407.25
506.76	444.70
506.93	435.34
507.11	428.32
507.28	418.96
507.46	393.21
507.63	458.74
507.81	442.36
507.98	430.66
508.16	404.91
508.33	425.98
508.50	461.09
508.68	500.87
508.85	435.34
509.03	449.38
509.20	440.02
509.38	407.25
509.55	407.25
509.73	496.19
509.90	433.00
510.08	421.30
510.25	381.51
510.42	435.34
510.60	404.91
510.77	327.68
510.95	458.74
511.12	353.42
511.30	404.91
511.47	454.06
511.64	447.04
511.82	423.64
511.99	433.00
512.17	381.51
512.34	393.21
512.51	397.89
512.69	332.36
512.86	461.09
513.04	442.36
513.21	458.74
513.38	416.62
513.56	386.19
513.73	351.08
513.90	402.57
514.08	428.32
514.25	425.98
514.43	397.89
514.60	404.91
514.77	395.55
514.95	449.38
515.12	393.21
515.29	456.40
515.47	468.11
515.64	458.74
515.81	383.85
515.99	437.68
516.16	423.64
516.33	397.89
516.51	435.34
516.68	447.04
516.85	418.96
517.03	381.51
517.20	381.51
517.37	393.21
517.54	484.49
517.72	341.72
517.89	374.49
518.06	458.74
518.24	482.15
518.41	390.87
518.58	440.02
518.75	407.25
518.93	360.44
519.10	372.15
519.27	372.15
519.45	458.74
519.62	383.85
519.79	461.09
519.96	442.36
520.14	383.85
520.31	433.00
520.48	372.15
520.65	430.66
520.83	416.62
521.00	451.72
521.17	449.38
521.34	322.99
521.52	458.74
521.69	421.30
521.86	425.98
522.03	383.85
522.20	447.04
522.38	418.96
522.55	433.00
522.72	454.06
522.89	428.32
523.07	395.55
523.24	397.89
523.41	435.34
523.58	362.78
523.75	390.87
523.92	374.49
524.10	451.72
524.27	425.98
524.44	397.89
524.61	482.15
524.78	339.38
524.96	407.25
525.13	428.32
525.30	395.55
525.47	374.49
525.64	400.23
525.81	433.00
525.98	404.91
526.16	374.49
526.33	425.98
526.50	430.66
526.67	337.04
526.84	348.74
527.01	362.78
527.18	430.66
527.36	379.17
527.53	470.45
527.70	451.72
527.87	393.21
528.04	416.62
528.21	430.66
528.38	430.66
528.55	388.53
528.72	374.49
528.89	383.85
529.07	414.27
529.24	416.62
529.41	425.98
529.58	374.49
529.75	454.06
529.92	451.72
530.09	458.74
530.26	461.09
530.43	465.77
530.60	393.21
530.77	407.25
530.94	402.57
531.11	456.40
531.28	454.06
531.46	360.44
531.63	423.64
531.80	407.25
531.97	505.56
532.14	425.98
532.31	447.04
532.48	393.21
532.65	423.64
532.82	458.74
532.99	404.91
533.16	402.57
533.33	395.55
533.50	456.40
533.67	386.19
533.84	395.55
534.01	386.19
534.18	337.04
534.35	409.59
534.52	430.66
534.69	395.55
534.86	376.83
535.03	409.59
535.20	360.44
535.37	428.32
535.54	433.00
535.71	435.34
535.88	447.04
536.05	440.02
536.22	482.15
536.38	407.25
536.55	475.13
536.72	472.79
536.89	414.27
537.06	351.08
537.23	444.70
537.40	386.19
537.57	456.40
537.74	440.02
537.91	425.98
538.08	444.70
538.25	414.27
538.42	372.15
538.59	496.19
538.75	437.68
538.92	409.59
539.09	360.44
539.26	435.34
539.43	468.11
539.60	383.85
539.77	402.57
539.94	440.02
540.11	407.25
540.28	395.55
540.44	407.25
540.61	416.62
540.78	353.42
540.95	390.87
541.12	517.26
541.29	444.70
541.46	397.89
541.62	442.36
541.79	404.91
541.96	386.19
542.13	423.64
542.30	416.62
542.47	414.27
542.63	479.81
542.80	402.57
542.97	451.72
543.14	418.96
543.31	400.23
543.48	447.04
543.64	414.27
543.81	482.15
543.98	409.59
544.15	365.12
544.32	367.46
544.48	430.66
544.65	388.53
544.82	395.55
544.99	367.46
545.16	393.21
545.32	458.74
545.49	414.27
545.66	381.51
545.83	416.62
546.00	393.21
546.16	383.85
546.33	447.04
546.50	381.51
546.67	440.02
546.83	435.34
547.00	484.49
547.17	402.57
547.34	418.96
547.50	416.62
547.67	470.45
547.84	360.44
548.00	376.83
548.17	362.78
548.34	435.34
548.51	416.62
548.67	400.23
548.84	339.38
549.01	400.23
549.18	397.89
549.34	423.64
549.51	372.15
549.68	440.02
549.84	451.72
550.01	369.80
550.18	381.51
550.34	449.38
550.51	416.62
550.68	465.77
550.84	381.51
551.01	407.25
551.18	421.30
551.34	447.04
551.51	416.62
551.68	465.77
551.84	444.70
552.01	425.98
552.18	409.59
552.34	435.34
552.51	365.12
552.68	484.49
552.84	414.27
553.01	346.40
553.18	437.68
553.34	433.00
553.51	348.74
553.67	400.23
553.84	514.92
554.01	416.62
554.17	468.11
554.34	435.34
554.51	433.00
554.67	477.47
554.84	479.81
555.00	456.40
555.17	414.27
555.33	437.68
555.50	442.36
555.67	444.70
555.83	472.79
556.00	475.13
556.16	491.51
556.33	444.70
556.50	486.83
556.66	360.44
556.83	409.59
556.99	383.85
557.16	428.32
557.32	355.76
557.49	358.10
557.65	423.64
557.82	402.57
557.98	393.21
558.15	400.23
558.32	360.44
558.48	498.53
558.65	416.62
558.81	425.98
558.98	414.27
559.14	381.51
559.31	447.04
559.47	407.25
559.64	423.64
559.80	365.12
559.97	407.25
560.13	397.89
560.30	442.36
560.46	416.62
560.63	458.74
560.79	395.55
560.96	388.53
561.12	353.42
561.29	383.85
561.45	435.34
561.61	498.53
561.78	486.83
561.94	386.19
562.11	430.66
562.27	386.19
562.44	388.53
562.60	423.64
562.77	344.06
562.93	451.72
563.10	465.77
563.26	390.87
563.42	437.68
563.59	425.98
563.75	400.23
563.92	475.13
564.08	482.15
564.24	500.87
564.41	510.24
564.57	404.91
564.74	454.06
564.90	404.91
565.07	444.70
565.23	351.08
565.39	437.68
565.56	423.64
565.72	433.00
565.88	430.66
566.05	390.87
566.21	404.91
566.38	449.38
566.54	451.72
566.70	475.13
566.87	409.59
567.03	379.17
567.19	442.36
567.36	397.89
567.52	386.19
567.68	484.49
567.85	440.02
568.01	433.00
568.17	409.59
568.34	390.87
568.50	447.04
568.66	369.80
568.83	425.98
568.99	437.68
569.15	456.40
569.32	374.49
569.48	409.59
569.64	454.06
569.81	456.40
569.97	440.02
570.13	486.83
570.30	442.36
570.46	449.38
570.62	397.89
570.78	437.68
570.95	374.49
571.11	463.43
571.27	411.93
571.43	367.46
571.60	421.30
571.76	435.34
571.92	428.32
572.09	416.62
572.25	351.08
572.41	365.12
572.57	428.32
572.74	372.15
572.90	395.55
573.06	421.30
573.22	437.68
573.38	433.00
573.55	430.66
573.71	477.47
573.87	402.57
574.03	362.78
574.20	416.62
574.36	444.70
574.52	475.13
574.68	430.66
574.84	477.47
575.01	423.64
575.17	425.98
575.33	505.56
575.49	484.49
575.65	468.11
575.82	409.59
575.98	489.17
576.14	449.38
576.30	407.25
576.46	444.70
576.62	444.70
576.79	416.62
576.95	451.72
577.11	372.15
577.27	423.64
577.43	458.74
577.59	470.45
577.75	472.79
577.92	440.02
578.08	404.91
578.24	379.17
578.40	442.36
578.56	402.57
578.72	444.70
578.88	400.23
579.04	442.36
579.21	444.70
579.37	383.85
579.53	379.17
579.69	442.36
579.85	330.02
580.01	395.55
580.17	475.13
580.33	444.70
580.49	362.78
580.65	468.11
580.82	409.59
580.98	440.02
581.14	397.89
581.30	355.76
581.46	397.89
581.62	425.98
581.78	393.21
581.94	428.32
582.10	395.55
582.26	489.17
582.42	383.85
582.58	444.70
582.74	381.51
582.90	437.68
583.06	379.17
583.22	381.51
583.38	351.08
583.54	416.62
583.70	456.40
583.86	393.21
584.02	388.53
584.18	465.77
584.34	374.49
584.50	472.79
584.66	435.34
584.82	358.10
584.98	442.36
585.14	428.32
585.30	463.43
585.46	388.53
585.62	414.27
585.78	444.70
585.94	465.77
586.10	411.93
586.26	442.36
586.42	423.64
586.58	423.64
586.74	416.62
586.90	367.46
587.06	379.17
587.22	458.74
587.38	442.36
587.54	400.23
587.70	416.62
587.86	365.12
588.02	400.23
588.18	435.34
588.34	393.21
588.49	388.53
588.65	433.00
588.81	433.00
588.97	428.32
589.13	468.11
589.29	430.66
589.45	444.70
589.61	468.11
589.77	418.96
589.93	411.93
590.08	404.91
590.24	414.27
590.40	365.12
590.56	367.46
590.72	425.98
590.88	358.10
591.04	421.30
591.20	416.62
591.35	416.62
591.51	393.21
591.67	435.34
591.83	430.66
591.99	369.80
592.15	388.53
592.31	409.59
592.46	479.81
592.62	472.79
592.78	402.57
592.94	379.17
593.10	409.59
593.26	428.32
593.41	444.70
593.57	454.06
593.73	477.47
593.89	477.47
594.05	425.98
594.20	383.85
594.36	433.00
594.52	365.12
594.68	409.59
594.84	449.38
594.99	484.49
595.15	447.04
595.31	395.55
595.47	407.25
595.62	430.66
595.78	402.57
595.94	472.79
596.10	430.66
596.25	388.53
596.41	428.32
596.57	407.25
596.73	433.00
596.88	458.74
597.04	435.34
597.20	393.21
597.36	465.77
597.51	409.59
597.67	390.87
597.83	379.17
597.99	447.04
598.14	369.80
598.30	379.17
598.46	311.29
598.61	418.96
598.77	428.32
598.93	465.77
599.09	479.81
599.24	411.93
599.40	435.34
599.56	416.62
599.71	423.64
599.87	407.25
600.03	416.62
600.18	416.62
600.34	400.23
600.50	416.62
600.65	440.02
600.81	404.91
600.97	493.85
601.12	376.83
601.28	411.93
601.44	449.38
601.59	423.64
601.75	411.93
601.91	407.25
602.06	472.79
602.22	433.00
602.37	407.25
602.53	456.40
602.69	416.62
602.84	376.83
603.00	395.55
603.16	395.55
603.31	425.98
603.47	367.46
603.62	337.04
603.78	351.08
603.94	449.38
604.09	395.55
604.25	440.02
604.40	442.36
604.56	411.93
604.71	512.58
604.87	430.66
605.03	407.25
605.18	430.66
605.34	461.09
605.49	421.30
605.65	400.23
605.80	381.51
605.96	433.00
606.12	475.13
606.27	416.62
606.43	407.25
606.58	383.85
606.74	416.62
606.89	430.66
607.05	404.91
607.20	440.02
607.36	447.04
607.51	449.38
607.67	440.02
607.82	400.23
607.98	414.27
608.13	402.57
608.29	330.02
608.44	428.32
608.60	498.53
608.75	421.30
608.91	461.09
609.06	362.78
609.22	409.59
609.37	346.40
609.53	407.25
609.68	442.36
609.84	425.98
609.99	486.83
610.15	428.32
