SpectraSuite Data File
++++++++++++++++++++++++++++++++++++
Date: Fri Oct 25 12:11:47 EDT 2013
User: price-jones
Dark Spectrum Present: No
Reference Spectrum Present: No
Number of Sampled Component Spectra: 1
Spectrometers: USB2+H05261
Integration Time (usec): 100000 (USB2+H05261)
Spectra Averaged: 1 (USB2+H05261)
Boxcar Smoothing: 0 (USB2+H05261)
Correct for Electrical Dark: No (USB2+H05261)
Strobe/Lamp Enabled: No (USB2+H05261)
Correct for Detector Non-linearity: No (USB2+H05261)
Correct for Stray Light: No (USB2+H05261)
Number of Pixels in Processed Spectrum: 2048
>>>>>Begin Processed Spectral Data<<<<<
365.73	362.78
365.92	362.78
366.12	362.78
366.32	325.33
366.52	250.44
366.72	252.78
366.91	266.82
367.11	212.99
367.31	189.58
367.51	287.89
367.70	201.29
367.90	262.14
368.10	269.16
368.30	229.37
368.49	215.33
368.69	224.69
368.89	255.12
369.09	283.20
369.28	341.72
369.48	245.76
369.68	257.46
369.87	220.01
370.07	245.76
370.27	362.78
370.47	285.55
370.66	355.76
370.86	353.42
371.06	358.10
371.25	337.04
371.45	437.68
371.65	400.23
371.84	388.53
372.04	402.57
372.24	355.76
372.44	353.42
372.63	383.85
372.83	437.68
373.03	421.30
373.22	425.98
373.42	425.98
373.62	374.49
373.81	428.32
374.01	454.06
374.21	337.04
374.40	367.46
374.60	393.21
374.79	418.96
374.99	423.64
375.19	409.59
375.38	421.30
375.58	482.15
375.78	440.02
375.97	435.34
376.17	430.66
376.37	374.49
376.56	461.09
376.76	433.00
376.95	348.74
377.15	451.72
377.35	425.98
377.54	411.93
377.74	407.25
377.93	425.98
378.13	358.10
378.33	430.66
378.52	397.89
378.72	409.59
378.91	437.68
379.11	414.27
379.31	376.83
379.50	404.91
379.70	461.09
379.89	423.64
380.09	437.68
380.28	400.23
380.48	379.17
380.68	362.78
380.87	421.30
381.07	409.59
381.26	475.13
381.46	458.74
381.65	444.70
381.85	374.49
382.04	397.89
382.24	418.96
382.43	430.66
382.63	395.55
382.83	348.74
383.02	393.21
383.22	498.53
383.41	470.45
383.61	388.53
383.80	430.66
384.00	428.32
384.19	374.49
384.39	379.17
384.58	334.70
384.78	402.57
384.97	447.04
385.17	402.57
385.36	411.93
385.56	421.30
385.75	449.38
385.95	428.32
386.14	407.25
386.34	388.53
386.53	444.70
386.72	390.87
386.92	379.17
387.11	430.66
387.31	465.77
387.50	416.62
387.70	339.38
387.89	397.89
388.09	393.21
388.28	374.49
388.48	444.70
388.67	400.23
388.86	393.21
389.06	451.72
389.25	355.76
389.45	374.49
389.64	395.55
389.84	461.09
390.03	428.32
390.22	440.02
390.42	390.87
390.61	444.70
390.81	482.15
391.00	430.66
391.19	435.34
391.39	461.09
391.58	433.00
391.78	416.62
391.97	395.55
392.16	449.38
392.36	440.02
392.55	416.62
392.75	409.59
392.94	388.53
393.13	365.12
393.33	463.43
393.52	395.55
393.71	369.80
393.91	423.64
394.10	444.70
394.29	423.64
394.49	400.23
394.68	458.74
394.88	365.12
395.07	423.64
395.26	369.80
395.46	451.72
395.65	386.19
395.84	374.49
396.04	468.11
396.23	416.62
396.42	411.93
396.62	407.25
396.81	472.79
397.00	397.89
397.19	379.17
397.39	355.76
397.58	468.11
397.77	376.83
397.97	437.68
398.16	355.76
398.35	451.72
398.55	341.72
398.74	388.53
398.93	397.89
399.12	465.77
399.32	397.89
399.51	360.44
399.70	395.55
399.90	386.19
400.09	411.93
400.28	418.96
400.47	355.76
400.67	369.80
400.86	402.57
401.05	456.40
401.24	404.91
401.44	355.76
401.63	491.51
401.82	421.30
402.01	355.76
402.21	423.64
402.40	451.72
402.59	416.62
402.78	440.02
402.97	388.53
403.17	379.17
403.36	360.44
403.55	437.68
403.74	390.87
403.93	404.91
404.13	395.55
404.32	376.83
404.51	341.72
404.70	393.21
404.89	341.72
405.09	463.43
405.28	447.04
405.47	383.85
405.66	458.74
405.85	435.34
406.05	428.32
406.24	435.34
406.43	423.64
406.62	383.85
406.81	428.32
407.00	409.59
407.20	484.49
407.39	430.66
407.58	404.91
407.77	397.89
407.96	470.45
408.15	404.91
408.34	339.38
408.54	372.15
408.73	409.59
408.92	390.87
409.11	409.59
409.30	440.02
409.49	407.25
409.68	416.62
409.87	355.76
410.07	409.59
410.26	402.57
410.45	397.89
410.64	404.91
410.83	433.00
411.02	393.21
411.21	355.76
411.40	423.64
411.59	397.89
411.78	444.70
411.98	409.59
412.17	442.36
412.36	456.40
412.55	463.43
412.74	456.40
412.93	409.59
413.12	348.74
413.31	402.57
413.50	383.85
413.69	395.55
413.88	402.57
414.07	369.80
414.26	360.44
414.45	341.72
414.64	402.57
414.83	395.55
415.02	388.53
415.22	402.57
415.41	437.68
415.60	400.23
415.79	381.51
415.98	360.44
416.17	402.57
416.36	411.93
416.55	376.83
416.74	397.89
416.93	433.00
417.12	411.93
417.31	362.78
417.50	388.53
417.69	381.51
417.88	313.63
418.07	421.30
418.26	351.08
418.45	341.72
418.64	409.59
418.83	423.64
419.02	416.62
419.21	416.62
419.39	493.85
419.58	407.25
419.77	365.12
419.96	344.06
420.15	442.36
420.34	444.70
420.53	411.93
420.72	423.64
420.91	369.80
421.10	449.38
421.29	397.89
421.48	386.19
421.67	430.66
421.86	421.30
422.05	351.08
422.24	402.57
422.43	465.77
422.61	491.51
422.80	430.66
422.99	407.25
423.18	369.80
423.37	449.38
423.56	447.04
423.75	400.23
423.94	393.21
424.13	465.77
424.32	416.62
424.50	379.17
424.69	365.12
424.88	414.27
425.07	379.17
425.26	435.34
425.45	444.70
425.64	425.98
425.83	351.08
426.01	461.09
426.20	411.93
426.39	376.83
426.58	421.30
426.77	435.34
426.96	437.68
427.15	425.98
427.33	468.11
427.52	425.98
427.71	358.10
427.90	376.83
428.09	430.66
428.28	465.77
428.46	341.72
428.65	379.17
428.84	437.68
429.03	414.27
429.22	393.21
429.40	379.17
429.59	402.57
429.78	428.32
429.97	428.32
430.16	425.98
430.34	365.12
430.53	390.87
430.72	376.83
430.91	428.32
431.10	388.53
431.28	489.17
431.47	440.02
431.66	404.91
431.85	374.49
432.03	386.19
432.22	402.57
432.41	362.78
432.60	428.32
432.79	355.76
432.97	379.17
433.16	477.47
433.35	383.85
433.54	358.10
433.72	433.00
433.91	285.55
434.10	402.57
434.28	402.57
434.47	411.93
434.66	447.04
434.85	418.96
435.03	404.91
435.22	416.62
435.41	423.64
435.59	409.59
435.78	433.00
435.97	421.30
436.16	447.04
436.34	465.77
436.53	404.91
436.72	486.83
436.90	414.27
437.09	414.27
437.28	416.62
437.46	344.06
437.65	489.17
437.84	486.83
438.02	388.53
438.21	376.83
438.40	428.32
438.58	397.89
438.77	393.21
438.96	482.15
439.14	444.70
439.33	395.55
439.52	360.44
439.70	404.91
439.89	442.36
440.08	404.91
440.26	369.80
440.45	414.27
440.63	449.38
440.82	430.66
441.01	404.91
441.19	337.04
441.38	365.12
441.57	463.43
441.75	407.25
441.94	409.59
442.12	421.30
442.31	381.51
442.50	397.89
442.68	433.00
442.87	418.96
443.05	428.32
443.24	456.40
443.43	395.55
443.61	362.78
443.80	444.70
443.98	482.15
444.17	388.53
444.35	468.11
444.54	397.89
444.73	444.70
444.91	428.32
445.10	379.17
445.28	360.44
445.47	437.68
445.65	428.32
445.84	404.91
446.02	386.19
446.21	430.66
446.39	353.42
446.58	362.78
446.77	404.91
446.95	372.15
447.14	430.66
447.32	477.47
447.51	369.80
447.69	383.85
447.88	425.98
448.06	468.11
448.25	433.00
448.43	365.12
448.62	425.98
448.80	475.13
448.99	437.68
449.17	430.66
449.36	416.62
449.54	390.87
449.73	362.78
449.91	425.98
450.10	423.64
450.28	484.49
450.46	388.53
450.65	500.87
450.83	390.87
451.02	369.80
451.20	440.02
451.39	397.89
451.57	362.78
451.76	395.55
451.94	416.62
452.13	395.55
452.31	461.09
452.49	447.04
452.68	423.64
452.86	458.74
453.05	454.06
453.23	430.66
453.42	381.51
453.60	397.89
453.78	407.25
453.97	407.25
454.15	512.58
454.34	433.00
454.52	390.87
454.70	442.36
454.89	376.83
455.07	418.96
455.26	489.17
455.44	376.83
455.62	383.85
455.81	482.15
455.99	416.62
456.17	440.02
456.36	423.64
456.54	362.78
456.73	374.49
456.91	409.59
457.09	433.00
457.28	353.42
457.46	386.19
457.64	444.70
457.83	411.93
458.01	397.89
458.19	449.38
458.38	369.80
458.56	458.74
458.74	461.09
458.93	461.09
459.11	475.13
459.29	407.25
459.48	383.85
459.66	425.98
459.84	416.62
460.03	479.81
460.21	456.40
460.39	433.00
460.57	475.13
460.76	393.21
460.94	388.53
461.12	482.15
461.31	451.72
461.49	402.57
461.67	397.89
461.85	381.51
462.04	402.57
462.22	844.93
462.40	458.74
462.59	433.00
462.77	379.17
462.95	442.36
463.13	444.70
463.32	376.83
463.50	425.98
463.68	390.87
463.86	482.15
464.05	437.68
464.23	477.47
464.41	348.74
464.59	409.59
464.78	402.57
464.96	315.97
465.14	379.17
465.32	414.27
465.50	386.19
465.69	390.87
465.87	411.93
466.05	360.44
466.23	472.79
466.41	395.55
466.60	348.74
466.78	421.30
466.96	437.68
467.14	421.30
467.32	442.36
467.51	362.78
467.69	355.76
467.87	482.15
468.05	400.23
468.23	500.87
468.41	456.40
468.60	430.66
468.78	423.64
468.96	449.38
469.14	479.81
469.32	372.15
469.50	379.17
469.69	454.06
469.87	451.72
470.05	444.70
470.23	416.62
470.41	437.68
470.59	418.96
470.77	418.96
470.95	418.96
471.14	489.17
471.32	435.34
471.50	409.59
471.68	465.77
471.86	444.70
472.04	449.38
472.22	444.70
472.40	400.23
472.58	355.76
472.77	484.49
472.95	397.89
473.13	451.72
473.31	430.66
473.49	449.38
473.67	409.59
473.85	454.06
474.03	442.36
474.21	372.15
474.39	496.19
474.57	571.09
474.75	486.83
474.93	428.32
475.12	433.00
475.30	411.93
475.48	400.23
475.66	360.44
475.84	381.51
476.02	435.34
476.20	386.19
476.38	472.79
476.56	500.87
476.74	367.46
476.92	416.62
477.10	362.78
477.28	458.74
477.46	388.53
477.64	411.93
477.82	397.89
478.00	337.04
478.18	395.55
478.36	482.15
478.54	414.27
478.72	383.85
478.90	376.83
479.08	418.96
479.26	418.96
479.44	383.85
479.62	379.17
479.80	400.23
479.98	418.96
480.16	334.70
480.34	437.68
480.52	531.30
480.70	409.59
480.88	440.02
481.06	404.91
481.24	393.21
481.41	372.15
481.59	463.43
481.77	463.43
481.95	404.91
482.13	428.32
482.31	454.06
482.49	440.02
482.67	409.59
482.85	397.89
483.03	367.46
483.21	334.70
483.39	358.10
483.57	451.72
483.74	451.72
483.92	514.92
484.10	414.27
484.28	414.27
484.46	465.77
484.64	461.09
484.82	493.85
485.00	491.51
485.18	397.89
485.35	470.45
485.53	402.57
485.71	397.89
485.89	454.06
486.07	454.06
486.25	505.56
486.43	468.11
486.61	372.15
486.78	355.76
486.96	440.02
487.14	334.70
487.32	327.68
487.50	379.17
487.68	451.72
487.85	376.83
488.03	477.47
488.21	451.72
488.39	374.49
488.57	416.62
488.75	428.32
488.92	454.06
489.10	416.62
489.28	503.22
489.46	353.42
489.64	362.78
489.81	484.49
489.99	355.76
490.17	311.29
490.35	557.05
490.53	393.21
490.70	374.49
490.88	379.17
491.06	430.66
491.24	430.66
491.41	428.32
491.59	423.64
491.77	400.23
491.95	390.87
492.13	376.83
492.30	442.36
492.48	451.72
492.66	440.02
492.84	383.85
493.01	421.30
493.19	383.85
493.37	367.46
493.54	372.15
493.72	444.70
493.90	372.15
494.08	322.99
494.25	458.74
494.43	381.51
494.61	404.91
494.79	355.76
494.96	386.19
495.14	402.57
495.32	440.02
495.49	428.32
495.67	421.30
495.85	461.09
496.02	367.46
496.20	376.83
496.38	365.12
496.55	390.87
496.73	360.44
496.91	451.72
497.09	409.59
497.26	423.64
497.44	414.27
497.62	411.93
497.79	463.43
497.97	395.55
498.14	381.51
498.32	386.19
498.50	400.23
498.67	486.83
498.85	369.80
499.03	437.68
499.20	447.04
499.38	430.66
499.56	407.25
499.73	444.70
499.91	358.10
500.08	463.43
500.26	435.34
500.44	493.85
500.61	463.43
500.79	435.34
500.97	365.12
501.14	430.66
501.32	404.91
501.49	470.45
501.67	433.00
501.84	386.19
502.02	388.53
502.20	470.45
502.37	397.89
502.55	416.62
502.72	409.59
502.90	395.55
503.07	468.11
503.25	402.57
503.43	418.96
503.60	400.23
503.78	351.08
503.95	437.68
504.13	440.02
504.30	423.64
504.48	400.23
504.65	437.68
504.83	482.15
505.01	482.15
505.18	433.00
505.36	400.23
505.53	381.51
505.71	409.59
505.88	430.66
506.06	365.12
506.23	381.51
506.41	444.70
506.58	367.46
506.76	379.17
506.93	461.09
507.11	372.15
507.28	454.06
507.46	411.93
507.63	447.04
507.81	449.38
507.98	440.02
508.16	379.17
508.33	444.70
508.50	423.64
508.68	348.74
508.85	435.34
509.03	379.17
509.20	418.96
509.38	402.57
509.55	454.06
509.73	550.03
509.90	479.81
510.08	404.91
510.25	393.21
510.42	372.15
510.60	409.59
510.77	423.64
510.95	411.93
511.12	447.04
511.30	440.02
511.47	442.36
511.64	451.72
511.82	369.80
511.99	437.68
512.17	482.15
512.34	355.76
512.51	374.49
512.69	388.53
512.86	447.04
513.04	404.91
513.21	435.34
513.38	346.40
513.56	479.81
513.73	430.66
513.90	402.57
514.08	411.93
514.25	451.72
514.43	418.96
514.60	456.40
514.77	393.21
514.95	358.10
515.12	362.78
515.29	416.62
515.47	437.68
515.64	393.21
515.81	461.09
515.99	393.21
516.16	409.59
516.33	407.25
516.51	369.80
516.68	320.65
516.85	386.19
517.03	444.70
517.20	407.25
517.37	355.76
517.54	404.91
517.72	351.08
517.89	458.74
518.06	421.30
518.24	507.90
518.41	428.32
518.58	458.74
518.75	386.19
518.93	456.40
519.10	423.64
519.27	449.38
519.45	447.04
519.62	395.55
519.79	339.38
519.96	418.96
520.14	447.04
520.31	428.32
520.48	395.55
520.65	486.83
520.83	449.38
521.00	454.06
521.17	409.59
521.34	423.64
521.52	454.06
521.69	418.96
521.86	440.02
522.03	440.02
522.20	442.36
522.38	484.49
522.55	418.96
522.72	313.63
522.89	418.96
523.07	407.25
523.24	388.53
523.41	489.17
523.58	393.21
523.75	367.46
523.92	425.98
524.10	461.09
524.27	341.72
524.44	433.00
524.61	468.11
524.78	402.57
524.96	369.80
525.13	447.04
525.30	428.32
525.47	428.32
525.64	418.96
525.81	390.87
525.98	465.77
526.16	383.85
526.33	447.04
526.50	409.59
526.67	411.93
526.84	454.06
527.01	402.57
527.18	416.62
527.36	404.91
527.53	465.77
527.70	451.72
527.87	400.23
528.04	416.62
528.21	397.89
528.38	458.74
528.55	351.08
528.72	411.93
528.89	397.89
529.07	362.78
529.24	454.06
529.41	489.17
529.58	425.98
529.75	514.92
529.92	409.59
530.09	393.21
530.26	400.23
530.43	421.30
530.60	411.93
530.77	449.38
530.94	472.79
531.11	454.06
531.28	360.44
531.46	416.62
531.63	360.44
531.80	447.04
531.97	442.36
532.14	416.62
532.31	440.02
532.48	351.08
532.65	421.30
532.82	428.32
532.99	428.32
533.16	458.74
533.33	416.62
533.50	374.49
533.67	390.87
533.84	400.23
534.01	437.68
534.18	461.09
534.35	430.66
534.52	414.27
534.69	463.43
534.86	454.06
535.03	402.57
535.20	421.30
535.37	404.91
535.54	311.29
535.71	423.64
535.88	447.04
536.05	409.59
536.22	435.34
536.38	423.64
536.55	458.74
536.72	388.53
536.89	449.38
537.06	397.89
537.23	479.81
537.40	376.83
537.57	440.02
537.74	428.32
537.91	505.56
538.08	416.62
538.25	458.74
538.42	383.85
538.59	465.77
538.75	388.53
538.92	411.93
539.09	479.81
539.26	433.00
539.43	423.64
539.60	390.87
539.77	409.59
539.94	425.98
540.11	416.62
540.28	458.74
540.44	386.19
540.61	425.98
540.78	388.53
540.95	334.70
541.12	425.98
541.29	358.10
541.46	491.51
541.62	409.59
541.79	470.45
541.96	451.72
542.13	489.17
542.30	437.68
542.47	470.45
542.63	315.97
542.80	362.78
542.97	393.21
543.14	425.98
543.31	442.36
543.48	486.83
543.64	404.91
543.81	465.77
543.98	388.53
544.15	374.49
544.32	435.34
544.48	524.28
544.65	395.55
544.82	411.93
544.99	388.53
545.16	468.11
545.32	421.30
545.49	411.93
545.66	482.15
545.83	402.57
546.00	332.36
546.16	414.27
546.33	400.23
546.50	479.81
546.67	433.00
546.83	461.09
547.00	423.64
547.17	461.09
547.34	421.30
547.50	449.38
547.67	482.15
547.84	423.64
548.00	535.98
548.17	407.25
548.34	372.15
548.51	414.27
548.67	348.74
548.84	351.08
549.01	421.30
549.18	390.87
549.34	451.72
549.51	435.34
549.68	470.45
549.84	500.87
550.01	421.30
550.18	543.00
550.34	479.81
550.51	395.55
550.68	454.06
550.84	395.55
551.01	390.87
551.18	440.02
551.34	433.00
551.51	390.87
551.68	437.68
551.84	505.56
552.01	414.27
552.18	458.74
552.34	393.21
552.51	416.62
552.68	440.02
552.84	421.30
553.01	404.91
553.18	442.36
553.34	395.55
553.51	355.76
553.67	435.34
553.84	491.51
554.01	433.00
554.17	409.59
554.34	409.59
554.51	458.74
554.67	442.36
554.84	454.06
555.00	407.25
555.17	442.36
555.33	447.04
555.50	414.27
555.67	402.57
555.83	362.78
556.00	404.91
556.16	575.77
556.33	463.43
556.50	393.21
556.66	400.23
556.83	367.46
556.99	400.23
557.16	418.96
557.32	463.43
557.49	397.89
557.65	330.02
557.82	472.79
557.98	461.09
558.15	465.77
558.32	365.12
558.48	397.89
558.65	456.40
558.81	442.36
558.98	297.25
559.14	402.57
559.31	461.09
559.47	433.00
559.64	456.40
559.80	376.83
559.97	388.53
560.13	369.80
560.30	388.53
560.46	423.64
560.63	433.00
560.79	404.91
560.96	447.04
561.12	430.66
561.29	442.36
561.45	428.32
561.61	423.64
561.78	514.92
561.94	435.34
562.11	440.02
562.27	433.00
562.44	390.87
562.60	393.21
562.77	435.34
562.93	423.64
563.10	421.30
563.26	468.11
563.42	425.98
563.59	433.00
563.75	404.91
563.92	465.77
564.08	430.66
564.24	461.09
564.41	561.73
564.57	421.30
564.74	440.02
564.90	425.98
565.07	491.51
565.23	416.62
565.39	435.34
565.56	388.53
565.72	407.25
565.88	400.23
566.05	463.43
566.21	493.85
566.38	472.79
566.54	360.44
566.70	454.06
566.87	461.09
567.03	500.87
567.19	418.96
567.36	435.34
567.52	418.96
567.68	465.77
567.85	440.02
568.01	454.06
568.17	510.24
568.34	390.87
568.50	465.77
568.66	393.21
568.83	430.66
568.99	433.00
569.15	409.59
569.32	449.38
569.48	386.19
569.64	360.44
569.81	393.21
569.97	397.89
570.13	456.40
570.30	393.21
570.46	463.43
570.62	440.02
570.78	430.66
570.95	390.87
571.11	521.94
571.27	379.17
571.43	463.43
571.60	449.38
571.76	423.64
571.92	414.27
572.09	416.62
572.25	451.72
572.41	433.00
572.57	334.70
572.74	430.66
572.90	430.66
573.06	447.04
573.22	388.53
573.38	465.77
573.55	482.15
573.71	468.11
573.87	447.04
574.03	381.51
574.20	390.87
574.36	369.80
574.52	400.23
574.68	400.23
574.84	390.87
575.01	433.00
575.17	411.93
575.33	407.25
575.49	451.72
575.65	425.98
575.82	332.36
575.98	475.13
576.14	407.25
576.30	388.53
576.46	423.64
576.62	383.85
576.79	449.38
576.95	442.36
577.11	430.66
577.27	400.23
577.43	447.04
577.59	423.64
577.75	411.93
577.92	421.30
578.08	461.09
578.24	458.74
578.40	416.62
578.56	449.38
578.72	458.74
578.88	449.38
579.04	362.78
579.21	397.89
579.37	489.17
579.53	383.85
579.69	390.87
579.85	351.08
580.01	400.23
580.17	409.59
580.33	423.64
580.49	458.74
580.65	442.36
580.82	376.83
580.98	435.34
581.14	461.09
581.30	411.93
581.46	400.23
581.62	447.04
581.78	454.06
581.94	465.77
582.10	400.23
582.26	425.98
582.42	404.91
582.58	388.53
582.74	418.96
582.90	374.49
583.06	472.79
583.22	388.53
583.38	449.38
583.54	423.64
583.70	449.38
583.86	416.62
584.02	383.85
584.18	444.70
584.34	444.70
584.50	346.40
584.66	411.93
584.82	418.96
584.98	421.30
585.14	395.55
585.30	386.19
585.46	376.83
585.62	416.62
585.78	433.00
585.94	503.22
586.10	456.40
586.26	409.59
586.42	475.13
586.58	454.06
586.74	367.46
586.90	367.46
587.06	428.32
587.22	388.53
587.38	468.11
587.54	428.32
587.70	407.25
587.86	425.98
588.02	430.66
588.18	449.38
588.34	444.70
588.49	341.72
588.65	433.00
588.81	461.09
588.97	397.89
589.13	461.09
589.29	372.15
589.45	526.62
589.61	376.83
589.77	360.44
589.93	379.17
590.08	430.66
590.24	327.68
590.40	451.72
590.56	430.66
590.72	421.30
590.88	423.64
591.04	456.40
591.20	395.55
591.35	430.66
591.51	404.91
591.67	397.89
591.83	409.59
591.99	491.51
592.15	430.66
592.31	414.27
592.46	430.66
592.62	404.91
592.78	437.68
592.94	334.70
593.10	388.53
593.26	360.44
593.41	411.93
593.57	423.64
593.73	496.19
593.89	416.62
594.05	423.64
594.20	376.83
594.36	500.87
594.52	425.98
594.68	416.62
594.84	397.89
594.99	442.36
595.15	451.72
595.31	395.55
595.47	484.49
595.62	421.30
595.78	367.46
595.94	421.30
596.10	402.57
596.25	442.36
596.41	355.76
596.57	407.25
596.73	372.15
596.88	449.38
597.04	407.25
597.20	430.66
597.36	421.30
597.51	454.06
597.67	418.96
597.83	430.66
597.99	468.11
598.14	423.64
598.30	367.46
598.46	470.45
598.61	472.79
598.77	358.10
598.93	390.87
599.09	372.15
599.24	430.66
599.40	461.09
599.56	400.23
599.71	341.72
599.87	383.85
600.03	447.04
600.18	344.06
600.34	404.91
600.50	444.70
600.65	379.17
600.81	383.85
600.97	355.76
601.12	414.27
601.28	475.13
601.44	367.46
601.59	456.40
601.75	386.19
601.91	383.85
602.06	433.00
602.22	444.70
602.37	358.10
602.53	400.23
602.69	423.64
602.84	362.78
603.00	428.32
603.16	383.85
603.31	397.89
603.47	472.79
603.62	404.91
603.78	468.11
603.94	416.62
604.09	435.34
604.25	400.23
604.40	414.27
604.56	402.57
604.71	418.96
604.87	440.02
605.03	421.30
605.18	358.10
605.34	449.38
605.49	409.59
605.65	404.91
605.80	407.25
605.96	411.93
606.12	447.04
606.27	383.85
606.43	418.96
606.58	397.89
606.74	383.85
606.89	433.00
607.05	400.23
607.20	348.74
607.36	409.59
607.51	393.21
607.67	416.62
607.82	402.57
607.98	428.32
608.13	484.49
608.29	456.40
608.44	425.98
608.60	404.91
608.75	442.36
608.91	383.85
609.06	414.27
609.22	447.04
609.37	430.66
609.53	388.53
609.68	411.93
609.84	414.27
609.99	470.45
610.15	374.49
