SpectraSuite Data File
++++++++++++++++++++++++++++++++++++
Date: Fri Oct 25 12:11:24 EDT 2013
User: price-jones
Dark Spectrum Present: No
Reference Spectrum Present: No
Number of Sampled Component Spectra: 1
Spectrometers: USB2+H05261
Integration Time (usec): 100000 (USB2+H05261)
Spectra Averaged: 1 (USB2+H05261)
Boxcar Smoothing: 0 (USB2+H05261)
Correct for Electrical Dark: No (USB2+H05261)
Strobe/Lamp Enabled: No (USB2+H05261)
Correct for Detector Non-linearity: No (USB2+H05261)
Correct for Stray Light: No (USB2+H05261)
Number of Pixels in Processed Spectrum: 2048
>>>>>Begin Processed Spectral Data<<<<<
365.73	365.12
365.92	365.12
366.12	365.12
366.32	250.44
366.52	187.24
366.72	299.59
366.91	222.35
367.11	231.71
367.31	182.56
367.51	243.42
367.70	215.33
367.90	264.48
368.10	250.44
368.30	234.05
368.49	292.57
368.69	315.97
368.89	215.33
369.09	266.82
369.28	278.52
369.48	320.65
369.68	311.29
369.87	290.23
370.07	280.86
370.27	334.70
370.47	339.38
370.66	355.76
370.86	365.12
371.06	351.08
371.25	402.57
371.45	379.17
371.65	407.25
371.84	374.49
372.04	411.93
372.24	414.27
372.44	327.68
372.63	360.44
372.83	353.42
373.03	465.77
373.22	423.64
373.42	437.68
373.62	425.98
373.81	433.00
374.01	477.47
374.21	433.00
374.40	425.98
374.60	400.23
374.79	414.27
374.99	402.57
375.19	458.74
375.38	468.11
375.58	402.57
375.78	418.96
375.97	451.72
376.17	456.40
376.37	367.46
376.56	430.66
376.76	407.25
376.95	369.80
377.15	493.85
377.35	433.00
377.54	409.59
377.74	379.17
377.93	360.44
378.13	421.30
378.33	454.06
378.52	374.49
378.72	418.96
378.91	496.19
379.11	456.40
379.31	470.45
379.50	313.63
379.70	400.23
379.89	355.76
380.09	423.64
380.28	418.96
380.48	449.38
380.68	353.42
380.87	346.40
381.07	386.19
381.26	430.66
381.46	299.59
381.65	411.93
381.85	360.44
382.04	404.91
382.24	440.02
382.43	407.25
382.63	344.06
382.83	468.11
383.02	442.36
383.22	386.19
383.41	409.59
383.61	393.21
383.80	433.00
384.00	465.77
384.19	372.15
384.39	423.64
384.58	383.85
384.78	411.93
384.97	404.91
385.17	449.38
385.36	390.87
385.56	409.59
385.75	360.44
385.95	425.98
386.14	400.23
386.34	423.64
386.53	397.89
386.72	362.78
386.92	430.66
387.11	440.02
387.31	400.23
387.50	435.34
387.70	470.45
387.89	461.09
388.09	376.83
388.28	409.59
388.48	428.32
388.67	404.91
388.86	393.21
389.06	379.17
389.25	454.06
389.45	386.19
389.64	414.27
389.84	447.04
390.03	447.04
390.22	435.34
390.42	414.27
390.61	461.09
390.81	414.27
391.00	353.42
391.19	456.40
391.39	400.23
391.58	437.68
391.78	400.23
391.97	325.33
392.16	334.70
392.36	454.06
392.55	442.36
392.75	400.23
392.94	381.51
393.13	482.15
393.33	444.70
393.52	311.29
393.71	454.06
393.91	332.36
394.10	388.53
394.29	353.42
394.49	423.64
394.68	409.59
394.88	437.68
395.07	397.89
395.26	348.74
395.46	411.93
395.65	344.06
395.84	449.38
396.04	430.66
396.23	491.51
396.42	435.34
396.62	390.87
396.81	395.55
397.00	440.02
397.19	435.34
397.39	435.34
397.58	437.68
397.77	376.83
397.97	425.98
398.16	395.55
398.35	449.38
398.55	400.23
398.74	355.76
398.93	486.83
399.12	374.49
399.32	407.25
399.51	442.36
399.70	444.70
399.90	411.93
400.09	433.00
400.28	442.36
400.47	365.12
400.67	458.74
400.86	404.91
401.05	397.89
401.24	393.21
401.44	393.21
401.63	376.83
401.82	397.89
402.01	369.80
402.21	372.15
402.40	390.87
402.59	360.44
402.78	454.06
402.97	390.87
403.17	386.19
403.36	402.57
403.55	472.79
403.74	411.93
403.93	416.62
404.13	374.49
404.32	365.12
404.51	386.19
404.70	379.17
404.89	414.27
405.09	491.51
405.28	456.40
405.47	365.12
405.66	409.59
405.85	447.04
406.05	278.52
406.24	376.83
406.43	414.27
406.62	458.74
406.81	407.25
407.00	397.89
407.20	416.62
407.39	390.87
407.58	421.30
407.77	393.21
407.96	425.98
408.15	447.04
408.34	454.06
408.54	407.25
408.73	461.09
408.92	447.04
409.11	444.70
409.30	358.10
409.49	358.10
409.68	390.87
409.87	372.15
410.07	393.21
410.26	470.45
410.45	381.51
410.64	444.70
410.83	362.78
411.02	358.10
411.21	409.59
411.40	454.06
411.59	486.83
411.78	353.42
411.98	351.08
412.17	390.87
412.36	416.62
412.55	409.59
412.74	397.89
412.93	454.06
413.12	418.96
413.31	428.32
413.50	395.55
413.69	442.36
413.88	477.47
414.07	433.00
414.26	411.93
414.45	402.57
414.64	416.62
414.83	447.04
415.02	390.87
415.22	411.93
415.41	386.19
415.60	404.91
415.79	374.49
415.98	381.51
416.17	388.53
416.36	351.08
416.55	397.89
416.74	444.70
416.93	404.91
417.12	454.06
417.31	418.96
417.50	409.59
417.69	404.91
417.88	491.51
418.07	390.87
418.26	381.51
418.45	423.64
418.64	444.70
418.83	442.36
419.02	369.80
419.21	437.68
419.39	456.40
419.58	365.12
419.77	451.72
419.96	365.12
420.15	500.87
420.34	379.17
420.53	425.98
420.72	418.96
420.91	346.40
421.10	433.00
421.29	461.09
421.48	409.59
421.67	393.21
421.86	409.59
422.05	383.85
422.24	397.89
422.43	458.74
422.61	402.57
422.80	416.62
422.99	376.83
423.18	416.62
423.37	435.34
423.56	341.72
423.75	407.25
423.94	418.96
424.13	444.70
424.32	433.00
424.50	456.40
424.69	395.55
424.88	390.87
425.07	395.55
425.26	449.38
425.45	409.59
425.64	435.34
425.83	442.36
426.01	461.09
426.20	421.30
426.39	397.89
426.58	348.74
426.77	475.13
426.96	428.32
427.15	479.81
427.33	418.96
427.52	435.34
427.71	376.83
427.90	341.72
428.09	409.59
428.28	414.27
428.46	390.87
428.65	472.79
428.84	430.66
429.03	449.38
429.22	365.12
429.40	330.02
429.59	407.25
429.78	433.00
429.97	351.08
430.16	416.62
430.34	407.25
430.53	456.40
430.72	435.34
430.91	442.36
431.10	383.85
431.28	409.59
431.47	442.36
431.66	409.59
431.85	409.59
432.03	411.93
432.22	407.25
432.41	390.87
432.60	470.45
432.79	414.27
432.97	411.93
433.16	437.68
433.35	355.76
433.54	409.59
433.72	369.80
433.91	468.11
434.10	407.25
434.28	416.62
434.47	365.12
434.66	416.62
434.85	461.09
435.03	397.89
435.22	372.15
435.41	437.68
435.59	362.78
435.78	402.57
435.97	381.51
436.16	533.64
436.34	374.49
436.53	376.83
436.72	425.98
436.90	484.49
437.09	540.66
437.28	416.62
437.46	374.49
437.65	383.85
437.84	400.23
438.02	395.55
438.21	447.04
438.40	421.30
438.58	404.91
438.77	454.06
438.96	418.96
439.14	388.53
439.33	463.43
439.52	400.23
439.70	369.80
439.89	409.59
440.08	381.51
440.26	425.98
440.45	395.55
440.63	449.38
440.82	442.36
441.01	386.19
441.19	470.45
441.38	433.00
441.57	402.57
441.75	411.93
441.94	407.25
442.12	425.98
442.31	388.53
442.50	425.98
442.68	318.31
442.87	447.04
443.05	433.00
443.24	325.33
443.43	393.21
443.61	416.62
443.80	404.91
443.98	472.79
444.17	372.15
444.35	369.80
444.54	397.89
444.73	411.93
444.91	435.34
445.10	379.17
445.28	400.23
445.47	395.55
445.65	365.12
445.84	451.72
446.02	365.12
446.21	388.53
446.39	355.76
446.58	440.02
446.77	430.66
446.95	505.56
447.14	395.55
447.32	449.38
447.51	461.09
447.69	414.27
447.88	435.34
448.06	402.57
448.25	395.55
448.43	390.87
448.62	440.02
448.80	379.17
448.99	468.11
449.17	346.40
449.36	404.91
449.54	482.15
449.73	325.33
449.91	461.09
450.10	430.66
450.28	458.74
450.46	454.06
450.65	496.19
450.83	493.85
451.02	390.87
451.20	393.21
451.39	449.38
451.57	470.45
451.76	383.85
451.94	393.21
452.13	470.45
452.31	444.70
452.49	489.17
452.68	475.13
452.86	444.70
453.05	498.53
453.23	376.83
453.42	458.74
453.60	414.27
453.78	477.47
453.97	374.49
454.15	390.87
454.34	404.91
454.52	456.40
454.70	472.79
454.89	451.72
455.07	435.34
455.26	440.02
455.44	409.59
455.62	411.93
455.81	449.38
455.99	411.93
456.17	421.30
456.36	325.33
456.54	318.31
456.73	390.87
456.91	388.53
457.09	414.27
457.28	449.38
457.46	414.27
457.64	369.80
457.83	425.98
458.01	421.30
458.19	404.91
458.38	512.58
458.56	407.25
458.74	437.68
458.93	463.43
459.11	414.27
459.29	489.17
459.48	414.27
459.66	435.34
459.84	418.96
460.03	493.85
460.21	409.59
460.39	428.32
460.57	484.49
460.76	381.51
460.94	491.51
461.12	472.79
461.31	491.51
461.49	482.15
461.67	381.51
461.85	404.91
462.04	428.32
462.22	798.12
462.40	425.98
462.59	500.87
462.77	477.47
462.95	440.02
463.13	355.76
463.32	428.32
463.50	383.85
463.68	390.87
463.86	421.30
464.05	383.85
464.23	344.06
464.41	428.32
464.59	449.38
464.78	353.42
464.96	395.55
465.14	369.80
465.32	416.62
465.50	381.51
465.69	362.78
465.87	390.87
466.05	355.76
466.23	397.89
466.41	461.09
466.60	418.96
466.78	381.51
466.96	444.70
467.14	353.42
467.32	430.66
467.51	498.53
467.69	402.57
467.87	456.40
468.05	355.76
468.23	449.38
468.41	447.04
468.60	409.59
468.78	435.34
468.96	447.04
469.14	423.64
469.32	433.00
469.50	358.10
469.69	379.17
469.87	409.59
470.05	484.49
470.23	388.53
470.41	444.70
470.59	322.99
470.77	444.70
470.95	388.53
471.14	381.51
471.32	407.25
471.50	444.70
471.68	433.00
471.86	407.25
472.04	411.93
472.22	430.66
472.40	374.49
472.58	395.55
472.77	353.42
472.95	411.93
473.13	535.98
473.31	430.66
473.49	442.36
473.67	388.53
473.85	484.49
474.03	388.53
474.21	430.66
474.39	383.85
474.57	437.68
474.75	400.23
474.93	456.40
475.12	440.02
475.30	393.21
475.48	376.83
475.66	444.70
475.84	334.70
476.02	355.76
476.20	491.51
476.38	425.98
476.56	475.13
476.74	404.91
476.92	367.46
477.10	355.76
477.28	465.77
477.46	409.59
477.64	463.43
477.82	418.96
478.00	374.49
478.18	458.74
478.36	386.19
478.54	400.23
478.72	339.38
478.90	435.34
479.08	409.59
479.26	421.30
479.44	372.15
479.62	423.64
479.80	388.53
479.98	383.85
480.16	355.76
480.34	461.09
480.52	404.91
480.70	379.17
480.88	381.51
481.06	374.49
481.24	376.83
481.41	418.96
481.59	386.19
481.77	369.80
481.95	376.83
482.13	486.83
482.31	428.32
482.49	430.66
482.67	409.59
482.85	449.38
483.03	451.72
483.21	404.91
483.39	397.89
483.57	397.89
483.74	510.24
483.92	425.98
484.10	423.64
484.28	435.34
484.46	465.77
484.64	397.89
484.82	407.25
485.00	416.62
485.18	416.62
485.35	386.19
485.53	442.36
485.71	407.25
485.89	421.30
486.07	435.34
486.25	433.00
486.43	404.91
486.61	444.70
486.78	447.04
486.96	381.51
487.14	355.76
487.32	409.59
487.50	418.96
487.68	437.68
487.85	393.21
488.03	442.36
488.21	407.25
488.39	390.87
488.57	468.11
488.75	433.00
488.92	468.11
489.10	442.36
489.28	477.47
489.46	365.12
489.64	437.68
489.81	411.93
489.99	433.00
490.17	430.66
490.35	400.23
490.53	409.59
490.70	423.64
490.88	447.04
491.06	425.98
491.24	416.62
491.41	496.19
491.59	372.15
491.77	465.77
491.95	381.51
492.13	435.34
492.30	435.34
492.48	402.57
492.66	360.44
492.84	423.64
493.01	360.44
493.19	393.21
493.37	454.06
493.54	381.51
493.72	442.36
493.90	454.06
494.08	449.38
494.25	461.09
494.43	416.62
494.61	318.31
494.79	369.80
494.96	390.87
495.14	400.23
495.32	390.87
495.49	414.27
495.67	423.64
495.85	470.45
496.02	383.85
496.20	433.00
496.38	416.62
496.55	360.44
496.73	402.57
496.91	409.59
497.09	440.02
497.26	407.25
497.44	388.53
497.62	407.25
497.79	428.32
497.97	437.68
498.14	484.49
498.32	397.89
498.50	414.27
498.67	322.99
498.85	418.96
499.03	407.25
499.20	463.43
499.38	369.80
499.56	442.36
499.73	404.91
499.91	465.77
500.08	435.34
500.26	451.72
500.44	425.98
500.61	435.34
500.79	395.55
500.97	386.19
501.14	458.74
501.32	369.80
501.49	400.23
501.67	449.38
501.84	425.98
502.02	330.02
502.20	489.17
502.37	383.85
502.55	372.15
502.72	397.89
502.90	458.74
503.07	379.17
503.25	428.32
503.43	421.30
503.60	416.62
503.78	435.34
503.95	353.42
504.13	423.64
504.30	353.42
504.48	407.25
504.65	510.24
504.83	463.43
505.01	379.17
505.18	416.62
505.36	407.25
505.53	421.30
505.71	428.32
505.88	437.68
506.06	386.19
506.23	433.00
506.41	414.27
506.58	372.15
506.76	458.74
506.93	351.08
507.11	430.66
507.28	337.04
507.46	388.53
507.63	444.70
507.81	409.59
507.98	372.15
508.16	367.46
508.33	430.66
508.50	484.49
508.68	409.59
508.85	505.56
509.03	458.74
509.20	409.59
509.38	514.92
509.55	400.23
509.73	414.27
509.90	458.74
510.08	400.23
510.25	454.06
510.42	374.49
510.60	428.32
510.77	421.30
510.95	440.02
511.12	332.36
511.30	390.87
511.47	374.49
511.64	484.49
511.82	383.85
511.99	374.49
512.17	463.43
512.34	409.59
512.51	447.04
512.69	418.96
512.86	447.04
513.04	477.47
513.21	376.83
513.38	395.55
513.56	463.43
513.73	400.23
513.90	447.04
514.08	416.62
514.25	414.27
514.43	372.15
514.60	400.23
514.77	411.93
514.95	402.57
515.12	451.72
515.29	397.89
515.47	376.83
515.64	468.11
515.81	409.59
515.99	442.36
516.16	418.96
516.33	416.62
516.51	435.34
516.68	463.43
516.85	393.21
517.03	414.27
517.20	493.85
517.37	409.59
517.54	428.32
517.72	393.21
517.89	437.68
518.06	369.80
518.24	489.17
518.41	388.53
518.58	386.19
518.75	411.93
518.93	390.87
519.10	381.51
519.27	358.10
519.45	367.46
519.62	421.30
519.79	425.98
519.96	425.98
520.14	414.27
520.31	468.11
520.48	397.89
520.65	423.64
520.83	423.64
521.00	493.85
521.17	411.93
521.34	458.74
521.52	416.62
521.69	430.66
521.86	388.53
522.03	437.68
522.20	472.79
522.38	369.80
522.55	458.74
522.72	325.33
522.89	465.77
523.07	472.79
523.24	376.83
523.41	390.87
523.58	425.98
523.75	409.59
523.92	442.36
524.10	449.38
524.27	404.91
524.44	383.85
524.61	404.91
524.78	369.80
524.96	409.59
525.13	395.55
525.30	491.51
525.47	456.40
525.64	395.55
525.81	461.09
525.98	344.06
526.16	409.59
526.33	379.17
526.50	339.38
526.67	414.27
526.84	428.32
527.01	414.27
527.18	407.25
527.36	388.53
527.53	442.36
527.70	402.57
527.87	416.62
528.04	449.38
528.21	433.00
528.38	463.43
528.55	411.93
528.72	465.77
528.89	428.32
529.07	440.02
529.24	379.17
529.41	421.30
529.58	400.23
529.75	416.62
529.92	372.15
530.09	435.34
530.26	397.89
530.43	358.10
530.60	430.66
530.77	409.59
530.94	440.02
531.11	407.25
531.28	416.62
531.46	360.44
531.63	360.44
531.80	418.96
531.97	458.74
532.14	449.38
532.31	463.43
532.48	388.53
532.65	374.49
532.82	374.49
532.99	402.57
533.16	402.57
533.33	433.00
533.50	411.93
533.67	414.27
533.84	440.02
534.01	433.00
534.18	456.40
534.35	458.74
534.52	416.62
534.69	430.66
534.86	379.17
535.03	425.98
535.20	379.17
535.37	449.38
535.54	421.30
535.71	435.34
535.88	468.11
536.05	376.83
536.22	428.32
536.38	484.49
536.55	440.02
536.72	470.45
536.89	383.85
537.06	327.68
537.23	428.32
537.40	372.15
537.57	386.19
537.74	482.15
537.91	376.83
538.08	428.32
538.25	397.89
538.42	381.51
538.59	376.83
538.75	390.87
538.92	475.13
539.09	407.25
539.26	393.21
539.43	451.72
539.60	456.40
539.77	404.91
539.94	435.34
540.11	564.07
540.28	423.64
540.44	421.30
540.61	437.68
540.78	442.36
540.95	414.27
541.12	414.27
541.29	428.32
541.46	416.62
541.62	505.56
541.79	418.96
541.96	418.96
542.13	395.55
542.30	411.93
542.47	433.00
542.63	421.30
542.80	447.04
542.97	393.21
543.14	461.09
543.31	409.59
543.48	367.46
543.64	400.23
543.81	486.83
543.98	425.98
544.15	369.80
544.32	379.17
544.48	416.62
544.65	430.66
544.82	435.34
544.99	407.25
545.16	465.77
545.32	435.34
545.49	423.64
545.66	386.19
545.83	404.91
546.00	402.57
546.16	414.27
546.33	449.38
546.50	456.40
546.67	365.12
546.83	411.93
547.00	418.96
547.17	414.27
547.34	449.38
547.50	376.83
547.67	451.72
547.84	334.70
548.00	482.15
548.17	425.98
548.34	388.53
548.51	418.96
548.67	475.13
548.84	440.02
549.01	400.23
549.18	369.80
549.34	383.85
549.51	451.72
549.68	440.02
549.84	423.64
550.01	411.93
550.18	479.81
550.34	425.98
550.51	479.81
550.68	465.77
550.84	416.62
551.01	390.87
551.18	430.66
551.34	402.57
551.51	454.06
551.68	435.34
551.84	475.13
552.01	425.98
552.18	395.55
552.34	428.32
552.51	421.30
552.68	472.79
552.84	397.89
553.01	472.79
553.18	376.83
553.34	454.06
553.51	346.40
553.67	351.08
553.84	458.74
554.01	383.85
554.17	454.06
554.34	418.96
554.51	472.79
554.67	484.49
554.84	456.40
555.00	376.83
555.17	449.38
555.33	447.04
555.50	472.79
555.67	425.98
555.83	383.85
556.00	458.74
556.16	531.30
556.33	463.43
556.50	393.21
556.66	315.97
556.83	348.74
556.99	379.17
557.16	346.40
557.32	374.49
557.49	395.55
557.65	475.13
557.82	449.38
557.98	407.25
558.15	428.32
558.32	393.21
558.48	376.83
558.65	369.80
558.81	393.21
558.98	421.30
559.14	505.56
559.31	390.87
559.47	479.81
559.64	383.85
559.80	418.96
559.97	346.40
560.13	348.74
560.30	404.91
560.46	435.34
560.63	486.83
560.79	376.83
560.96	402.57
561.12	395.55
561.29	425.98
561.45	458.74
561.61	374.49
561.78	421.30
561.94	430.66
562.11	423.64
562.27	379.17
562.44	367.46
562.60	362.78
562.77	397.89
562.93	489.17
563.10	409.59
563.26	376.83
563.42	353.42
563.59	383.85
563.75	435.34
563.92	482.15
564.08	400.23
564.24	423.64
564.41	411.93
564.57	465.77
564.74	381.51
564.90	383.85
565.07	400.23
565.23	421.30
565.39	465.77
565.56	447.04
565.72	433.00
565.88	461.09
566.05	435.34
566.21	304.27
566.38	456.40
566.54	367.46
566.70	470.45
566.87	451.72
567.03	395.55
567.19	440.02
567.36	393.21
567.52	358.10
567.68	447.04
567.85	416.62
568.01	433.00
568.17	465.77
568.34	411.93
568.50	404.91
568.66	416.62
568.83	468.11
568.99	437.68
569.15	461.09
569.32	411.93
569.48	393.21
569.64	437.68
569.81	360.44
569.97	454.06
570.13	393.21
570.30	418.96
570.46	409.59
570.62	416.62
570.78	325.33
570.95	397.89
571.11	425.98
571.27	461.09
571.43	397.89
571.60	395.55
571.76	423.64
571.92	367.46
572.09	400.23
572.25	411.93
572.41	465.77
572.57	409.59
572.74	411.93
572.90	425.98
573.06	421.30
573.22	437.68
573.38	383.85
573.55	425.98
573.71	416.62
573.87	475.13
574.03	472.79
574.20	421.30
574.36	402.57
574.52	400.23
574.68	388.53
574.84	381.51
575.01	367.46
575.17	465.77
575.33	498.53
575.49	442.36
575.65	440.02
575.82	449.38
575.98	411.93
576.14	463.43
576.30	517.26
576.46	463.43
576.62	421.30
576.79	454.06
576.95	383.85
577.11	437.68
577.27	386.19
577.43	465.77
577.59	470.45
577.75	456.40
577.92	435.34
578.08	381.51
578.24	470.45
578.40	383.85
578.56	388.53
578.72	463.43
578.88	444.70
579.04	411.93
579.21	372.15
579.37	418.96
579.53	397.89
579.69	479.81
579.85	496.19
580.01	414.27
580.17	416.62
580.33	388.53
580.49	449.38
580.65	468.11
580.82	402.57
580.98	409.59
581.14	411.93
581.30	435.34
581.46	390.87
581.62	454.06
581.78	397.89
581.94	475.13
582.10	334.70
582.26	437.68
582.42	346.40
582.58	447.04
582.74	463.43
582.90	414.27
583.06	425.98
583.22	421.30
583.38	430.66
583.54	409.59
583.70	461.09
583.86	444.70
584.02	395.55
584.18	407.25
584.34	442.36
584.50	376.83
584.66	369.80
584.82	376.83
584.98	407.25
585.14	414.27
585.30	383.85
585.46	360.44
585.62	421.30
585.78	388.53
585.94	393.21
586.10	374.49
586.26	372.15
586.42	458.74
586.58	423.64
586.74	437.68
586.90	355.76
587.06	463.43
587.22	458.74
587.38	388.53
587.54	414.27
587.70	411.93
587.86	456.40
588.02	418.96
588.18	395.55
588.34	400.23
588.49	404.91
588.65	433.00
588.81	433.00
588.97	433.00
589.13	362.78
589.29	514.92
589.45	465.77
589.61	535.98
589.77	463.43
589.93	374.49
590.08	444.70
590.24	400.23
590.40	388.53
590.56	433.00
590.72	376.83
590.88	451.72
591.04	437.68
591.20	372.15
591.35	435.34
591.51	444.70
591.67	390.87
591.83	440.02
591.99	416.62
592.15	484.49
592.31	418.96
592.46	381.51
592.62	388.53
592.78	409.59
592.94	425.98
593.10	418.96
593.26	301.93
593.41	433.00
593.57	440.02
593.73	440.02
593.89	409.59
594.05	414.27
594.20	423.64
594.36	397.89
594.52	489.17
594.68	376.83
594.84	482.15
594.99	477.47
595.15	376.83
595.31	388.53
595.47	486.83
595.62	388.53
595.78	404.91
595.94	479.81
596.10	369.80
596.25	503.22
596.41	428.32
596.57	337.04
596.73	367.46
596.88	479.81
597.04	449.38
597.20	444.70
597.36	444.70
597.51	395.55
597.67	369.80
597.83	409.59
597.99	414.27
598.14	365.12
598.30	442.36
598.46	353.42
598.61	404.91
598.77	440.02
598.93	388.53
599.09	411.93
599.24	456.40
599.40	451.72
599.56	400.23
599.71	355.76
599.87	414.27
600.03	437.68
600.18	369.80
600.34	456.40
600.50	454.06
600.65	456.40
600.81	447.04
600.97	372.15
601.12	311.29
601.28	479.81
601.44	383.85
601.59	362.78
601.75	465.77
601.91	369.80
602.06	383.85
602.22	472.79
602.37	475.13
602.53	416.62
602.69	447.04
602.84	411.93
603.00	489.17
603.16	451.72
603.31	404.91
603.47	463.43
603.62	362.78
603.78	458.74
603.94	407.25
604.09	444.70
604.25	402.57
604.40	374.49
604.56	402.57
604.71	458.74
604.87	437.68
605.03	449.38
605.18	367.46
605.34	500.87
605.49	454.06
605.65	444.70
605.80	376.83
605.96	381.51
606.12	463.43
606.27	407.25
606.43	416.62
606.58	463.43
606.74	437.68
606.89	428.32
607.05	390.87
607.20	444.70
607.36	428.32
607.51	451.72
607.67	411.93
607.82	428.32
607.98	449.38
608.13	463.43
608.29	425.98
608.44	411.93
608.60	451.72
608.75	496.19
608.91	428.32
609.06	411.93
609.22	472.79
609.37	402.57
609.53	444.70
609.68	433.00
609.84	451.72
609.99	395.55
610.15	470.45
