SpectraSuite Data File
++++++++++++++++++++++++++++++++++++
Date: Fri Oct 25 12:10:09 EDT 2013
User: price-jones
Dark Spectrum Present: No
Reference Spectrum Present: No
Number of Sampled Component Spectra: 1
Spectrometers: USB2+H05261
Integration Time (usec): 100000 (USB2+H05261)
Spectra Averaged: 1 (USB2+H05261)
Boxcar Smoothing: 0 (USB2+H05261)
Correct for Electrical Dark: No (USB2+H05261)
Strobe/Lamp Enabled: No (USB2+H05261)
Correct for Detector Non-linearity: No (USB2+H05261)
Correct for Stray Light: No (USB2+H05261)
Number of Pixels in Processed Spectrum: 2048
>>>>>Begin Processed Spectral Data<<<<<
365.73	339.38
365.92	339.38
366.12	339.38
366.32	306.61
366.52	273.84
366.72	294.91
366.91	210.65
367.11	283.20
367.31	234.05
367.51	231.71
367.70	273.84
367.90	208.31
368.10	273.84
368.30	236.39
368.49	299.59
368.69	234.05
368.89	243.42
369.09	215.33
369.28	287.89
369.48	344.06
369.68	245.76
369.87	278.52
370.07	243.42
370.27	262.14
370.47	365.12
370.66	339.38
370.86	367.46
371.06	315.97
371.25	465.77
371.45	299.59
371.65	418.96
371.84	421.30
372.04	379.17
372.24	437.68
372.44	421.30
372.63	365.12
372.83	365.12
373.03	369.80
373.22	365.12
373.42	390.87
373.62	428.32
373.81	433.00
374.01	425.98
374.21	418.96
374.40	414.27
374.60	435.34
374.79	367.46
374.99	320.65
375.19	437.68
375.38	421.30
375.58	337.04
375.78	437.68
375.97	442.36
376.17	484.49
376.37	369.80
376.56	322.99
376.76	409.59
376.95	416.62
377.15	409.59
377.35	418.96
377.54	421.30
377.74	304.27
377.93	411.93
378.13	463.43
378.33	477.47
378.52	311.29
378.72	449.38
378.91	418.96
379.11	369.80
379.31	379.17
379.50	397.89
379.70	425.98
379.89	437.68
380.09	376.83
380.28	379.17
380.48	397.89
380.68	348.74
380.87	397.89
381.07	381.51
381.26	430.66
381.46	339.38
381.65	402.57
381.85	388.53
382.04	435.34
382.24	367.46
382.43	362.78
382.63	379.17
382.83	362.78
383.02	376.83
383.22	451.72
383.41	435.34
383.61	418.96
383.80	440.02
384.00	430.66
384.19	381.51
384.39	411.93
384.58	465.77
384.78	454.06
384.97	362.78
385.17	407.25
385.36	369.80
385.56	341.72
385.75	409.59
385.95	400.23
386.14	435.34
386.34	355.76
386.53	320.65
386.72	404.91
386.92	444.70
387.11	430.66
387.31	416.62
387.50	463.43
387.70	447.04
387.89	397.89
388.09	433.00
388.28	393.21
388.48	318.31
388.67	468.11
388.86	409.59
389.06	400.23
389.25	409.59
389.45	433.00
389.64	454.06
389.84	428.32
390.03	409.59
390.22	458.74
390.42	425.98
390.61	395.55
390.81	388.53
391.00	402.57
391.19	447.04
391.39	346.40
391.58	435.34
391.78	360.44
391.97	304.27
392.16	390.87
392.36	486.83
392.55	393.21
392.75	360.44
392.94	383.85
393.13	383.85
393.33	418.96
393.52	369.80
393.71	479.81
393.91	404.91
394.10	362.78
394.29	411.93
394.49	411.93
394.68	423.64
394.88	428.32
395.07	428.32
395.26	414.27
395.46	435.34
395.65	454.06
395.84	430.66
396.04	411.93
396.23	425.98
396.42	390.87
396.62	393.21
396.81	435.34
397.00	421.30
397.19	397.89
397.39	318.31
397.58	411.93
397.77	404.91
397.97	407.25
398.16	425.98
398.35	386.19
398.55	421.30
398.74	416.62
398.93	393.21
399.12	402.57
399.32	334.70
399.51	425.98
399.70	444.70
399.90	465.77
400.09	400.23
400.28	425.98
400.47	456.40
400.67	407.25
400.86	416.62
401.05	449.38
401.24	454.06
401.44	409.59
401.63	395.55
401.82	423.64
402.01	358.10
402.21	400.23
402.40	404.91
402.59	383.85
402.78	341.72
402.97	425.98
403.17	390.87
403.36	383.85
403.55	489.17
403.74	433.00
403.93	402.57
404.13	428.32
404.32	435.34
404.51	451.72
404.70	367.46
404.89	381.51
405.09	514.92
405.28	397.89
405.47	381.51
405.66	355.76
405.85	407.25
406.05	400.23
406.24	358.10
406.43	400.23
406.62	465.77
406.81	433.00
407.00	400.23
407.20	393.21
407.39	402.57
407.58	369.80
407.77	372.15
407.96	482.15
408.15	383.85
408.34	421.30
408.54	409.59
408.73	369.80
408.92	407.25
409.11	381.51
409.30	468.11
409.49	393.21
409.68	397.89
409.87	416.62
410.07	395.55
410.26	468.11
410.45	409.59
410.64	341.72
410.83	449.38
411.02	404.91
411.21	404.91
411.40	409.59
411.59	367.46
411.78	479.81
411.98	407.25
412.17	386.19
412.36	437.68
412.55	365.12
412.74	374.49
412.93	482.15
413.12	330.02
413.31	486.83
413.50	454.06
413.69	447.04
413.88	468.11
414.07	484.49
414.26	369.80
414.45	414.27
414.64	433.00
414.83	393.21
415.02	437.68
415.22	475.13
415.41	479.81
415.60	418.96
415.79	451.72
415.98	451.72
416.17	423.64
416.36	360.44
416.55	421.30
416.74	393.21
416.93	372.15
417.12	404.91
417.31	383.85
417.50	421.30
417.69	479.81
417.88	435.34
418.07	395.55
418.26	484.49
418.45	400.23
418.64	435.34
418.83	411.93
419.02	395.55
419.21	435.34
419.39	409.59
419.58	423.64
419.77	451.72
419.96	374.49
420.15	451.72
420.34	330.02
420.53	430.66
420.72	449.38
420.91	351.08
421.10	353.42
421.29	390.87
421.48	472.79
421.67	440.02
421.86	325.33
422.05	430.66
422.24	444.70
422.43	407.25
422.61	449.38
422.80	440.02
422.99	421.30
423.18	365.12
423.37	435.34
423.56	437.68
423.75	414.27
423.94	374.49
424.13	320.65
424.32	444.70
424.50	374.49
424.69	367.46
424.88	423.64
425.07	358.10
425.26	365.12
425.45	409.59
425.64	456.40
425.83	416.62
426.01	444.70
426.20	435.34
426.39	355.76
426.58	369.80
426.77	484.49
426.96	418.96
427.15	367.46
427.33	402.57
427.52	451.72
427.71	379.17
427.90	435.34
428.09	388.53
428.28	402.57
428.46	390.87
428.65	447.04
428.84	386.19
429.03	444.70
429.22	365.12
429.40	393.21
429.59	407.25
429.78	386.19
429.97	425.98
430.16	477.47
430.34	365.12
430.53	372.15
430.72	421.30
430.91	451.72
431.10	449.38
431.28	437.68
431.47	435.34
431.66	437.68
431.85	430.66
432.03	397.89
432.22	430.66
432.41	365.12
432.60	409.59
432.79	402.57
432.97	334.70
433.16	454.06
433.35	465.77
433.54	393.21
433.72	365.12
433.91	421.30
434.10	449.38
434.28	442.36
434.47	376.83
434.66	423.64
434.85	411.93
435.03	409.59
435.22	390.87
435.41	463.43
435.59	395.55
435.78	451.72
435.97	397.89
436.16	447.04
436.34	437.68
436.53	451.72
436.72	496.19
436.90	465.77
437.09	400.23
437.28	383.85
437.46	407.25
437.65	428.32
437.84	346.40
438.02	433.00
438.21	404.91
438.40	332.36
438.58	411.93
438.77	423.64
438.96	337.04
439.14	404.91
439.33	383.85
439.52	437.68
439.70	388.53
439.89	461.09
440.08	367.46
440.26	470.45
440.45	440.02
440.63	383.85
440.82	477.47
441.01	423.64
441.19	461.09
441.38	435.34
441.57	444.70
441.75	461.09
441.94	442.36
442.12	475.13
442.31	425.98
442.50	390.87
442.68	416.62
442.87	402.57
443.05	393.21
443.24	414.27
443.43	437.68
443.61	404.91
443.80	330.02
443.98	400.23
444.17	397.89
444.35	334.70
444.54	423.64
444.73	447.04
444.91	379.17
445.10	470.45
445.28	425.98
445.47	383.85
445.65	440.02
445.84	369.80
446.02	308.95
446.21	402.57
446.39	435.34
446.58	360.44
446.77	447.04
446.95	358.10
447.14	437.68
447.32	397.89
447.51	381.51
447.69	376.83
447.88	395.55
448.06	433.00
448.25	449.38
448.43	390.87
448.62	393.21
448.80	423.64
448.99	404.91
449.17	442.36
449.36	376.83
449.54	397.89
449.73	409.59
449.91	411.93
450.10	330.02
450.28	447.04
450.46	383.85
450.65	517.26
450.83	353.42
451.02	428.32
451.20	411.93
451.39	418.96
451.57	397.89
451.76	381.51
451.94	451.72
452.13	362.78
452.31	397.89
452.49	468.11
452.68	395.55
452.86	362.78
453.05	379.17
453.23	428.32
453.42	381.51
453.60	348.74
453.78	383.85
453.97	449.38
454.15	425.98
454.34	449.38
454.52	458.74
454.70	393.21
454.89	355.76
455.07	442.36
455.26	423.64
455.44	386.19
455.62	442.36
455.81	437.68
455.99	465.77
456.17	411.93
456.36	390.87
456.54	351.08
456.73	374.49
456.91	395.55
457.09	353.42
457.28	407.25
457.46	433.00
457.64	358.10
457.83	346.40
458.01	344.06
458.19	388.53
458.38	390.87
458.56	400.23
458.74	339.38
458.93	369.80
459.11	442.36
459.29	388.53
459.48	454.06
459.66	463.43
459.84	418.96
460.03	514.92
460.21	395.55
460.39	404.91
460.57	383.85
460.76	411.93
460.94	358.10
461.12	475.13
461.31	416.62
461.49	470.45
461.67	449.38
461.85	414.27
462.04	383.85
462.22	718.54
462.40	383.85
462.59	428.32
462.77	301.93
462.95	390.87
463.13	461.09
463.32	461.09
463.50	479.81
463.68	416.62
463.86	449.38
464.05	430.66
464.23	437.68
464.41	395.55
464.59	402.57
464.78	430.66
464.96	409.59
465.14	433.00
465.32	433.00
465.50	416.62
465.69	521.94
465.87	386.19
466.05	449.38
466.23	379.17
466.41	440.02
466.60	402.57
466.78	397.89
466.96	416.62
467.14	372.15
467.32	416.62
467.51	428.32
467.69	404.91
467.87	451.72
468.05	402.57
468.23	430.66
468.41	367.46
468.60	409.59
468.78	390.87
468.96	376.83
469.14	393.21
469.32	402.57
469.50	372.15
469.69	435.34
469.87	407.25
470.05	437.68
470.23	428.32
470.41	404.91
470.59	346.40
470.77	505.56
470.95	423.64
471.14	465.77
471.32	339.38
471.50	390.87
471.68	369.80
471.86	461.09
472.04	442.36
472.22	503.22
472.40	362.78
472.58	425.98
472.77	475.13
472.95	418.96
473.13	433.00
473.31	388.53
473.49	479.81
473.67	458.74
473.85	386.19
474.03	458.74
474.21	421.30
474.39	468.11
474.57	372.15
474.75	421.30
474.93	395.55
475.12	449.38
475.30	390.87
475.48	423.64
475.66	334.70
475.84	360.44
476.02	425.98
476.20	404.91
476.38	465.77
476.56	411.93
476.74	440.02
476.92	411.93
477.10	411.93
477.28	468.11
477.46	416.62
477.64	479.81
477.82	465.77
478.00	372.15
478.18	435.34
478.36	425.98
478.54	339.38
478.72	339.38
478.90	362.78
479.08	379.17
479.26	409.59
479.44	358.10
479.62	400.23
479.80	418.96
479.98	388.53
480.16	355.76
480.34	388.53
480.52	428.32
480.70	470.45
480.88	386.19
481.06	360.44
481.24	430.66
481.41	395.55
481.59	418.96
481.77	440.02
481.95	449.38
482.13	425.98
482.31	475.13
482.49	465.77
482.67	444.70
482.85	386.19
483.03	381.51
483.21	421.30
483.39	440.02
483.57	369.80
483.74	435.34
483.92	315.97
484.10	411.93
484.28	414.27
484.46	425.98
484.64	358.10
484.82	458.74
485.00	411.93
485.18	430.66
485.35	440.02
485.53	423.64
485.71	435.34
485.89	404.91
486.07	456.40
486.25	407.25
486.43	409.59
486.61	447.04
486.78	388.53
486.96	409.59
487.14	411.93
487.32	360.44
487.50	454.06
487.68	425.98
487.85	360.44
488.03	407.25
488.21	409.59
488.39	416.62
488.57	463.43
488.75	397.89
488.92	531.30
489.10	461.09
489.28	393.21
489.46	383.85
489.64	404.91
489.81	381.51
489.99	400.23
490.17	390.87
490.35	400.23
490.53	454.06
490.70	374.49
490.88	498.53
491.06	468.11
491.24	496.19
491.41	379.17
491.59	379.17
491.77	444.70
491.95	435.34
492.13	447.04
492.30	376.83
492.48	435.34
492.66	435.34
492.84	465.77
493.01	433.00
493.19	407.25
493.37	442.36
493.54	381.51
493.72	468.11
493.90	397.89
494.08	390.87
494.25	404.91
494.43	421.30
494.61	444.70
494.79	388.53
494.96	390.87
495.14	470.45
495.32	395.55
495.49	416.62
495.67	397.89
495.85	418.96
496.02	379.17
496.20	411.93
496.38	428.32
496.55	418.96
496.73	449.38
496.91	416.62
497.09	470.45
497.26	517.26
497.44	404.91
497.62	388.53
497.79	433.00
497.97	383.85
498.14	400.23
498.32	470.45
498.50	468.11
498.67	416.62
498.85	458.74
499.03	379.17
499.20	409.59
499.38	461.09
499.56	524.28
499.73	433.00
499.91	500.87
500.08	465.77
500.26	479.81
500.44	418.96
500.61	390.87
500.79	344.06
500.97	409.59
501.14	456.40
501.32	428.32
501.49	435.34
501.67	482.15
501.84	400.23
502.02	416.62
502.20	423.64
502.37	421.30
502.55	376.83
502.72	379.17
502.90	360.44
503.07	451.72
503.25	433.00
503.43	437.68
503.60	358.10
503.78	470.45
503.95	390.87
504.13	400.23
504.30	437.68
504.48	463.43
504.65	449.38
504.83	470.45
505.01	332.36
505.18	447.04
505.36	414.27
505.53	418.96
505.71	475.13
505.88	418.96
506.06	386.19
506.23	365.12
506.41	416.62
506.58	411.93
506.76	482.15
506.93	425.98
507.11	454.06
507.28	425.98
507.46	451.72
507.63	374.49
507.81	351.08
507.98	433.00
508.16	479.81
508.33	505.56
508.50	449.38
508.68	395.55
508.85	395.55
509.03	395.55
509.20	421.30
509.38	447.04
509.55	449.38
509.73	447.04
509.90	472.79
510.08	421.30
510.25	486.83
510.42	414.27
510.60	381.51
510.77	437.68
510.95	489.17
511.12	421.30
511.30	381.51
511.47	465.77
511.64	440.02
511.82	437.68
511.99	407.25
512.17	407.25
512.34	447.04
512.51	491.51
512.69	367.46
512.86	416.62
513.04	418.96
513.21	416.62
513.38	339.38
513.56	362.78
513.73	402.57
513.90	484.49
514.08	386.19
514.25	465.77
514.43	454.06
514.60	411.93
514.77	400.23
514.95	414.27
515.12	447.04
515.29	379.17
515.47	414.27
515.64	423.64
515.81	376.83
515.99	440.02
516.16	486.83
516.33	383.85
516.51	409.59
516.68	374.49
516.85	418.96
517.03	454.06
517.20	393.21
517.37	407.25
517.54	397.89
517.72	407.25
517.89	463.43
518.06	435.34
518.24	444.70
518.41	472.79
518.58	428.32
518.75	416.62
518.93	421.30
519.10	390.87
519.27	381.51
519.45	404.91
519.62	395.55
519.79	447.04
519.96	381.51
520.14	388.53
520.31	435.34
520.48	425.98
520.65	428.32
520.83	351.08
521.00	482.15
521.17	374.49
521.34	418.96
521.52	404.91
521.69	477.47
521.86	479.81
522.03	456.40
522.20	449.38
522.38	379.17
522.55	447.04
522.72	407.25
522.89	444.70
523.07	465.77
523.24	367.46
523.41	390.87
523.58	402.57
523.75	390.87
523.92	435.34
524.10	402.57
524.27	411.93
524.44	409.59
524.61	433.00
524.78	425.98
524.96	386.19
525.13	404.91
525.30	428.32
525.47	451.72
525.64	428.32
525.81	451.72
525.98	472.79
526.16	362.78
526.33	344.06
526.50	383.85
526.67	367.46
526.84	442.36
527.01	374.49
527.18	449.38
527.36	397.89
527.53	402.57
527.70	402.57
527.87	383.85
528.04	353.42
528.21	409.59
528.38	425.98
528.55	442.36
528.72	414.27
528.89	433.00
529.07	358.10
529.24	376.83
529.41	475.13
529.58	390.87
529.75	411.93
529.92	416.62
530.09	428.32
530.26	437.68
530.43	461.09
530.60	433.00
530.77	379.17
530.94	418.96
531.11	435.34
531.28	400.23
531.46	456.40
531.63	454.06
531.80	440.02
531.97	379.17
532.14	407.25
532.31	433.00
532.48	388.53
532.65	440.02
532.82	400.23
532.99	381.51
533.16	421.30
533.33	344.06
533.50	376.83
533.67	402.57
533.84	369.80
534.01	435.34
534.18	458.74
534.35	407.25
534.52	383.85
534.69	461.09
534.86	437.68
535.03	484.49
535.20	416.62
535.37	421.30
535.54	411.93
535.71	416.62
535.88	468.11
536.05	397.89
536.22	465.77
536.38	428.32
536.55	496.19
536.72	517.26
536.89	454.06
537.06	425.98
537.23	416.62
537.40	383.85
537.57	407.25
537.74	430.66
537.91	442.36
538.08	404.91
538.25	435.34
538.42	423.64
538.59	484.49
538.75	416.62
538.92	418.96
539.09	388.53
539.26	418.96
539.43	430.66
539.60	376.83
539.77	477.47
539.94	393.21
540.11	423.64
540.28	395.55
540.44	418.96
540.61	458.74
540.78	393.21
540.95	475.13
541.12	423.64
541.29	442.36
541.46	454.06
541.62	428.32
541.79	388.53
541.96	414.27
542.13	404.91
542.30	388.53
542.47	519.60
542.63	381.51
542.80	461.09
542.97	430.66
543.14	414.27
543.31	498.53
543.48	435.34
543.64	477.47
543.81	484.49
543.98	381.51
544.15	418.96
544.32	367.46
544.48	442.36
544.65	440.02
544.82	400.23
544.99	397.89
545.16	449.38
545.32	433.00
545.49	425.98
545.66	421.30
545.83	484.49
546.00	397.89
546.16	360.44
546.33	430.66
546.50	395.55
546.67	458.74
546.83	428.32
547.00	468.11
547.17	386.19
547.34	477.47
547.50	430.66
547.67	388.53
547.84	353.42
548.00	514.92
548.17	383.85
548.34	360.44
548.51	458.74
548.67	442.36
548.84	409.59
549.01	414.27
549.18	461.09
549.34	414.27
549.51	451.72
549.68	407.25
549.84	404.91
550.01	404.91
550.18	521.94
550.34	411.93
550.51	444.70
550.68	468.11
550.84	379.17
551.01	393.21
551.18	411.93
551.34	376.83
551.51	442.36
551.68	397.89
551.84	440.02
552.01	447.04
552.18	397.89
552.34	463.43
552.51	482.15
552.68	393.21
552.84	444.70
553.01	430.66
553.18	482.15
553.34	444.70
553.51	376.83
553.67	418.96
553.84	458.74
554.01	442.36
554.17	440.02
554.34	470.45
554.51	456.40
554.67	400.23
554.84	397.89
555.00	409.59
555.17	440.02
555.33	449.38
555.50	379.17
555.67	414.27
555.83	383.85
556.00	461.09
556.16	543.00
556.33	470.45
556.50	395.55
556.66	421.30
556.83	374.49
556.99	440.02
557.16	470.45
557.32	390.87
557.49	397.89
557.65	365.12
557.82	393.21
557.98	430.66
558.15	442.36
558.32	416.62
558.48	444.70
558.65	400.23
558.81	475.13
558.98	407.25
559.14	369.80
559.31	437.68
559.47	395.55
559.64	470.45
559.80	416.62
559.97	444.70
560.13	425.98
560.30	409.59
560.46	444.70
560.63	418.96
560.79	388.53
560.96	477.47
561.12	475.13
561.29	388.53
561.45	355.76
561.61	463.43
561.78	496.19
561.94	365.12
562.11	435.34
562.27	402.57
562.44	393.21
562.60	397.89
562.77	388.53
562.93	379.17
563.10	337.04
563.26	402.57
563.42	442.36
563.59	451.72
563.75	404.91
563.92	425.98
564.08	407.25
564.24	447.04
564.41	428.32
564.57	409.59
564.74	404.91
564.90	418.96
565.07	416.62
565.23	414.27
565.39	397.89
565.56	369.80
565.72	397.89
565.88	503.22
566.05	472.79
566.21	423.64
566.38	454.06
566.54	409.59
566.70	437.68
566.87	484.49
567.03	411.93
567.19	393.21
567.36	421.30
567.52	402.57
567.68	454.06
567.85	393.21
568.01	449.38
568.17	304.27
568.34	449.38
568.50	535.98
568.66	414.27
568.83	400.23
568.99	393.21
569.15	428.32
569.32	437.68
569.48	437.68
569.64	418.96
569.81	365.12
569.97	430.66
570.13	402.57
570.30	428.32
570.46	418.96
570.62	421.30
570.78	449.38
570.95	388.53
571.11	482.15
571.27	435.34
571.43	341.72
571.60	430.66
571.76	379.17
571.92	409.59
572.09	383.85
572.25	383.85
572.41	430.66
572.57	404.91
572.74	465.77
572.90	404.91
573.06	425.98
573.22	423.64
573.38	463.43
573.55	463.43
573.71	418.96
573.87	465.77
574.03	484.49
574.20	374.49
574.36	451.72
574.52	362.78
574.68	425.98
574.84	369.80
575.01	404.91
575.17	416.62
575.33	402.57
575.49	358.10
575.65	477.47
575.82	423.64
575.98	430.66
576.14	404.91
576.30	442.36
576.46	433.00
576.62	458.74
576.79	416.62
576.95	486.83
577.11	442.36
577.27	463.43
577.43	458.74
577.59	425.98
577.75	461.09
577.92	369.80
578.08	409.59
578.24	449.38
578.40	407.25
578.56	468.11
578.72	433.00
578.88	435.34
579.04	421.30
579.21	381.51
579.37	404.91
579.53	423.64
579.69	477.47
579.85	444.70
580.01	444.70
580.17	402.57
580.33	437.68
580.49	416.62
580.65	435.34
580.82	425.98
580.98	418.96
581.14	285.55
581.30	496.19
581.46	433.00
581.62	442.36
581.78	372.15
581.94	341.72
582.10	386.19
582.26	414.27
582.42	479.81
582.58	386.19
582.74	451.72
582.90	386.19
583.06	444.70
583.22	353.42
583.38	360.44
583.54	482.15
583.70	449.38
583.86	484.49
584.02	397.89
584.18	440.02
584.34	442.36
584.50	393.21
584.66	379.17
584.82	425.98
584.98	465.77
585.14	393.21
585.30	463.43
585.46	423.64
585.62	388.53
585.78	390.87
585.94	409.59
586.10	390.87
586.26	454.06
586.42	414.27
586.58	505.56
586.74	451.72
586.90	407.25
587.06	386.19
587.22	447.04
587.38	418.96
587.54	456.40
587.70	491.51
587.86	344.06
588.02	365.12
588.18	428.32
588.34	444.70
588.49	358.10
588.65	463.43
588.81	425.98
588.97	456.40
589.13	400.23
589.29	421.30
589.45	386.19
589.61	355.76
589.77	451.72
589.93	428.32
590.08	456.40
590.24	348.74
590.40	397.89
590.56	442.36
590.72	411.93
590.88	330.02
591.04	367.46
591.20	383.85
591.35	416.62
591.51	402.57
591.67	386.19
591.83	358.10
591.99	468.11
592.15	512.58
592.31	390.87
592.46	381.51
592.62	475.13
592.78	451.72
592.94	390.87
593.10	395.55
593.26	400.23
593.41	421.30
593.57	414.27
593.73	367.46
593.89	407.25
594.05	397.89
594.20	337.04
594.36	472.79
594.52	362.78
594.68	388.53
594.84	451.72
594.99	472.79
595.15	433.00
595.31	393.21
595.47	421.30
595.62	402.57
595.78	440.02
595.94	458.74
596.10	367.46
596.25	402.57
596.41	465.77
596.57	416.62
596.73	404.91
596.88	355.76
597.04	425.98
597.20	409.59
597.36	486.83
597.51	379.17
597.67	393.21
597.83	409.59
597.99	489.17
598.14	461.09
598.30	435.34
598.46	433.00
598.61	461.09
598.77	447.04
598.93	423.64
599.09	414.27
599.24	397.89
599.40	353.42
599.56	465.77
599.71	428.32
599.87	451.72
600.03	362.78
600.18	411.93
600.34	435.34
600.50	428.32
600.65	386.19
600.81	421.30
600.97	360.44
601.12	374.49
601.28	418.96
601.44	435.34
601.59	416.62
601.75	465.77
601.91	374.49
602.06	423.64
602.22	449.38
602.37	393.21
602.53	362.78
602.69	362.78
602.84	449.38
603.00	437.68
603.16	407.25
603.31	451.72
603.47	477.47
603.62	463.43
603.78	365.12
603.94	435.34
604.09	379.17
604.25	465.77
604.40	430.66
604.56	383.85
604.71	451.72
604.87	416.62
605.03	425.98
605.18	423.64
605.34	411.93
605.49	397.89
605.65	489.17
605.80	365.12
605.96	461.09
606.12	456.40
606.27	475.13
606.43	477.47
606.58	440.02
606.74	416.62
606.89	416.62
607.05	468.11
607.20	447.04
607.36	425.98
607.51	463.43
607.67	395.55
607.82	454.06
607.98	430.66
608.13	477.47
608.29	458.74
608.44	418.96
608.60	433.00
608.75	435.34
608.91	456.40
609.06	404.91
609.22	367.46
609.37	411.93
609.53	360.44
609.68	440.02
609.84	341.72
609.99	365.12
610.15	395.55
