SpectraSuite Data File
++++++++++++++++++++++++++++++++++++
Date: Fri Oct 25 12:10:50 EDT 2013
User: price-jones
Dark Spectrum Present: No
Reference Spectrum Present: No
Number of Sampled Component Spectra: 1
Spectrometers: USB2+H05261
Integration Time (usec): 100000 (USB2+H05261)
Spectra Averaged: 1 (USB2+H05261)
Boxcar Smoothing: 0 (USB2+H05261)
Correct for Electrical Dark: No (USB2+H05261)
Strobe/Lamp Enabled: No (USB2+H05261)
Correct for Detector Non-linearity: No (USB2+H05261)
Correct for Stray Light: No (USB2+H05261)
Number of Pixels in Processed Spectrum: 2048
>>>>>Begin Processed Spectral Data<<<<<
365.73	390.87
365.92	390.87
366.12	390.87
366.32	269.16
366.52	257.46
366.72	299.59
366.91	245.76
367.11	271.50
367.31	215.33
367.51	187.24
367.70	255.12
367.90	285.55
368.10	182.56
368.30	290.23
368.49	184.90
368.69	245.76
368.89	205.97
369.09	217.67
369.28	262.14
369.48	250.44
369.68	210.65
369.87	212.99
370.07	330.02
370.27	278.52
370.47	318.31
370.66	297.25
370.86	304.27
371.06	358.10
371.25	304.27
371.45	332.36
371.65	332.36
371.84	337.04
372.04	388.53
372.24	330.02
372.44	379.17
372.63	454.06
372.83	404.91
373.03	379.17
373.22	386.19
373.42	358.10
373.62	383.85
373.81	425.98
374.01	418.96
374.21	440.02
374.40	416.62
374.60	404.91
374.79	468.11
374.99	393.21
375.19	447.04
375.38	433.00
375.58	484.49
375.78	386.19
375.97	395.55
376.17	440.02
376.37	407.25
376.56	423.64
376.76	402.57
376.95	437.68
377.15	402.57
377.35	437.68
377.54	407.25
377.74	393.21
377.93	402.57
378.13	423.64
378.33	425.98
378.52	430.66
378.72	416.62
378.91	386.19
379.11	428.32
379.31	447.04
379.50	470.45
379.70	451.72
379.89	395.55
380.09	383.85
380.28	367.46
380.48	400.23
380.68	383.85
380.87	381.51
381.07	386.19
381.26	468.11
381.46	372.15
381.65	461.09
381.85	397.89
382.04	402.57
382.24	416.62
382.43	411.93
382.63	393.21
382.83	442.36
383.02	383.85
383.22	477.47
383.41	451.72
383.61	388.53
383.80	472.79
384.00	362.78
384.19	395.55
384.39	379.17
384.58	411.93
384.78	369.80
384.97	444.70
385.17	393.21
385.36	477.47
385.56	390.87
385.75	388.53
385.95	421.30
386.14	428.32
386.34	414.27
386.53	425.98
386.72	404.91
386.92	456.40
387.11	463.43
387.31	402.57
387.50	397.89
387.70	404.91
387.89	435.34
388.09	397.89
388.28	430.66
388.48	404.91
388.67	393.21
388.86	437.68
389.06	407.25
389.25	395.55
389.45	458.74
389.64	454.06
389.84	418.96
390.03	388.53
390.22	454.06
390.42	372.15
390.61	381.51
390.81	372.15
391.00	437.68
391.19	433.00
391.39	376.83
391.58	369.80
391.78	425.98
391.97	386.19
392.16	423.64
392.36	463.43
392.55	397.89
392.75	442.36
392.94	376.83
393.13	376.83
393.33	386.19
393.52	430.66
393.71	411.93
393.91	433.00
394.10	449.38
394.29	351.08
394.49	416.62
394.68	435.34
394.88	395.55
395.07	442.36
395.26	409.59
395.46	400.23
395.65	449.38
395.84	418.96
396.04	433.00
396.23	409.59
396.42	395.55
396.62	435.34
396.81	404.91
397.00	383.85
397.19	397.89
397.39	397.89
397.58	444.70
397.77	374.49
397.97	411.93
398.16	407.25
398.35	379.17
398.55	425.98
398.74	447.04
398.93	400.23
399.12	369.80
399.32	479.81
399.51	404.91
399.70	393.21
399.90	402.57
400.09	379.17
400.28	437.68
400.47	330.02
400.67	402.57
400.86	362.78
401.05	351.08
401.24	430.66
401.44	416.62
401.63	463.43
401.82	461.09
402.01	404.91
402.21	414.27
402.40	386.19
402.59	383.85
402.78	358.10
402.97	362.78
403.17	395.55
403.36	423.64
403.55	425.98
403.74	449.38
403.93	388.53
404.13	430.66
404.32	381.51
404.51	418.96
404.70	414.27
404.89	416.62
405.09	407.25
405.28	330.02
405.47	458.74
405.66	430.66
405.85	421.30
406.05	416.62
406.24	444.70
406.43	411.93
406.62	388.53
406.81	409.59
407.00	428.32
407.20	416.62
407.39	351.08
407.58	386.19
407.77	479.81
407.96	440.02
408.15	369.80
408.34	397.89
408.54	444.70
408.73	465.77
408.92	400.23
409.11	433.00
409.30	423.64
409.49	407.25
409.68	372.15
409.87	360.44
410.07	402.57
410.26	393.21
410.45	402.57
410.64	404.91
410.83	388.53
411.02	409.59
411.21	376.83
411.40	458.74
411.59	395.55
411.78	407.25
411.98	444.70
412.17	407.25
412.36	390.87
412.55	327.68
412.74	407.25
412.93	458.74
413.12	388.53
413.31	430.66
413.50	358.10
413.69	444.70
413.88	393.21
414.07	360.44
414.26	374.49
414.45	418.96
414.64	472.79
414.83	395.55
415.02	433.00
415.22	430.66
415.41	418.96
415.60	425.98
415.79	423.64
415.98	397.89
416.17	433.00
416.36	423.64
416.55	416.62
416.74	353.42
416.93	416.62
417.12	393.21
417.31	421.30
417.50	404.91
417.69	472.79
417.88	456.40
418.07	456.40
418.26	372.15
418.45	411.93
418.64	425.98
418.83	418.96
419.02	395.55
419.21	493.85
419.39	395.55
419.58	418.96
419.77	353.42
419.96	360.44
420.15	425.98
420.34	393.21
420.53	374.49
420.72	404.91
420.91	430.66
421.10	390.87
421.29	409.59
421.48	416.62
421.67	465.77
421.86	416.62
422.05	423.64
422.24	444.70
422.43	430.66
422.61	376.83
422.80	386.19
422.99	416.62
423.18	355.76
423.37	440.02
423.56	416.62
423.75	416.62
423.94	393.21
424.13	414.27
424.32	416.62
424.50	421.30
424.69	437.68
424.88	470.45
425.07	393.21
425.26	416.62
425.45	421.30
425.64	444.70
425.83	355.76
426.01	440.02
426.20	444.70
426.39	423.64
426.58	386.19
426.77	348.74
426.96	400.23
427.15	393.21
427.33	383.85
427.52	402.57
427.71	433.00
427.90	418.96
428.09	365.12
428.28	365.12
428.46	400.23
428.65	379.17
428.84	435.34
429.03	475.13
429.22	430.66
429.40	470.45
429.59	322.99
429.78	402.57
429.97	430.66
430.16	472.79
430.34	327.68
430.53	423.64
430.72	400.23
430.91	461.09
431.10	433.00
431.28	372.15
431.47	409.59
431.66	414.27
431.85	383.85
432.03	411.93
432.22	433.00
432.41	348.74
432.60	430.66
432.79	358.10
432.97	409.59
433.16	444.70
433.35	430.66
433.54	379.17
433.72	465.77
433.91	442.36
434.10	444.70
434.28	397.89
434.47	395.55
434.66	442.36
434.85	402.57
435.03	395.55
435.22	383.85
435.41	472.79
435.59	456.40
435.78	430.66
435.97	430.66
436.16	400.23
436.34	423.64
436.53	458.74
436.72	418.96
436.90	397.89
437.09	355.76
437.28	461.09
437.46	425.98
437.65	454.06
437.84	330.02
438.02	498.53
438.21	428.32
438.40	374.49
438.58	418.96
438.77	416.62
438.96	393.21
439.14	379.17
439.33	437.68
439.52	400.23
439.70	440.02
439.89	418.96
440.08	444.70
440.26	395.55
440.45	388.53
440.63	472.79
440.82	355.76
441.01	421.30
441.19	414.27
441.38	397.89
441.57	489.17
441.75	486.83
441.94	442.36
442.12	416.62
442.31	383.85
442.50	442.36
442.68	372.15
442.87	468.11
443.05	449.38
443.24	423.64
443.43	425.98
443.61	397.89
443.80	430.66
443.98	409.59
444.17	454.06
444.35	414.27
444.54	444.70
444.73	479.81
444.91	423.64
445.10	346.40
445.28	456.40
445.47	444.70
445.65	376.83
445.84	421.30
446.02	470.45
446.21	369.80
446.39	461.09
446.58	449.38
446.77	416.62
446.95	428.32
447.14	390.87
447.32	418.96
447.51	414.27
447.69	503.22
447.88	404.91
448.06	440.02
448.25	358.10
448.43	425.98
448.62	355.76
448.80	360.44
448.99	425.98
449.17	369.80
449.36	390.87
449.54	386.19
449.73	437.68
449.91	383.85
450.10	365.12
450.28	402.57
450.46	440.02
450.65	449.38
450.83	456.40
451.02	353.42
451.20	482.15
451.39	418.96
451.57	437.68
451.76	425.98
451.94	404.91
452.13	402.57
452.31	435.34
452.49	435.34
452.68	397.89
452.86	428.32
453.05	470.45
453.23	428.32
453.42	414.27
453.60	395.55
453.78	454.06
453.97	447.04
454.15	442.36
454.34	444.70
454.52	470.45
454.70	440.02
454.89	423.64
455.07	372.15
455.26	418.96
455.44	393.21
455.62	449.38
455.81	423.64
455.99	393.21
456.17	451.72
456.36	390.87
456.54	411.93
456.73	414.27
456.91	430.66
457.09	437.68
457.28	402.57
457.46	418.96
457.64	461.09
457.83	449.38
458.01	397.89
458.19	458.74
458.38	451.72
458.56	390.87
458.74	418.96
458.93	440.02
459.11	409.59
459.29	404.91
459.48	365.12
459.66	411.93
459.84	454.06
460.03	435.34
460.21	423.64
460.39	360.44
460.57	456.40
460.76	477.47
460.94	454.06
461.12	409.59
461.31	416.62
461.49	393.21
461.67	430.66
461.85	447.04
462.04	362.78
462.22	704.50
462.40	383.85
462.59	402.57
462.77	435.34
462.95	423.64
463.13	423.64
463.32	411.93
463.50	423.64
463.68	456.40
463.86	470.45
464.05	425.98
464.23	430.66
464.41	442.36
464.59	425.98
464.78	402.57
464.96	425.98
465.14	411.93
465.32	458.74
465.50	402.57
465.69	374.49
465.87	393.21
466.05	421.30
466.23	341.72
466.41	409.59
466.60	411.93
466.78	418.96
466.96	435.34
467.14	411.93
467.32	404.91
467.51	442.36
467.69	458.74
467.87	400.23
468.05	468.11
468.23	475.13
468.41	491.51
468.60	505.56
468.78	435.34
468.96	440.02
469.14	435.34
469.32	442.36
469.50	402.57
469.69	430.66
469.87	379.17
470.05	409.59
470.23	477.47
470.41	386.19
470.59	397.89
470.77	447.04
470.95	411.93
471.14	423.64
471.32	376.83
471.50	451.72
471.68	407.25
471.86	346.40
472.04	390.87
472.22	416.62
472.40	425.98
472.58	416.62
472.77	360.44
472.95	386.19
473.13	374.49
473.31	428.32
473.49	337.04
473.67	421.30
473.85	447.04
474.03	409.59
474.21	383.85
474.39	397.89
474.57	425.98
474.75	451.72
474.93	388.53
475.12	402.57
475.30	433.00
475.48	423.64
475.66	402.57
475.84	433.00
476.02	341.72
476.20	383.85
476.38	365.12
476.56	468.11
476.74	400.23
476.92	423.64
477.10	395.55
477.28	404.91
477.46	411.93
477.64	472.79
477.82	493.85
478.00	362.78
478.18	360.44
478.36	341.72
478.54	386.19
478.72	379.17
478.90	407.25
479.08	437.68
479.26	423.64
479.44	395.55
479.62	411.93
479.80	407.25
479.98	428.32
480.16	465.77
480.34	451.72
480.52	337.04
480.70	339.38
480.88	428.32
481.06	390.87
481.24	358.10
481.41	355.76
481.59	461.09
481.77	367.46
481.95	425.98
482.13	409.59
482.31	482.15
482.49	437.68
482.67	479.81
482.85	381.51
483.03	482.15
483.21	386.19
483.39	334.70
483.57	379.17
483.74	402.57
483.92	433.00
484.10	423.64
484.28	325.33
484.46	458.74
484.64	400.23
484.82	425.98
485.00	404.91
485.18	447.04
485.35	395.55
485.53	421.30
485.71	437.68
485.89	428.32
486.07	358.10
486.25	479.81
486.43	428.32
486.61	416.62
486.78	362.78
486.96	407.25
487.14	360.44
487.32	430.66
487.50	362.78
487.68	376.83
487.85	369.80
488.03	421.30
488.21	449.38
488.39	423.64
488.57	414.27
488.75	341.72
488.92	528.96
489.10	421.30
489.28	367.46
489.46	393.21
489.64	374.49
489.81	418.96
489.99	409.59
490.17	442.36
490.35	425.98
490.53	465.77
490.70	400.23
490.88	409.59
491.06	421.30
491.24	416.62
491.41	428.32
491.59	334.70
491.77	348.74
491.95	393.21
492.13	440.02
492.30	461.09
492.48	435.34
492.66	404.91
492.84	360.44
493.01	416.62
493.19	411.93
493.37	454.06
493.54	421.30
493.72	435.34
493.90	454.06
494.08	447.04
494.25	449.38
494.43	423.64
494.61	461.09
494.79	409.59
494.96	365.12
495.14	472.79
495.32	395.55
495.49	465.77
495.67	479.81
495.85	416.62
496.02	379.17
496.20	447.04
496.38	423.64
496.55	360.44
496.73	444.70
496.91	402.57
497.09	418.96
497.26	386.19
497.44	397.89
497.62	435.34
497.79	379.17
497.97	454.06
498.14	418.96
498.32	400.23
498.50	390.87
498.67	500.87
498.85	390.87
499.03	390.87
499.20	435.34
499.38	393.21
499.56	425.98
499.73	503.22
499.91	425.98
500.08	418.96
500.26	409.59
500.44	418.96
500.61	440.02
500.79	409.59
500.97	433.00
501.14	465.77
501.32	498.53
501.49	447.04
501.67	512.58
501.84	386.19
502.02	416.62
502.20	430.66
502.37	400.23
502.55	407.25
502.72	416.62
502.90	440.02
503.07	447.04
503.25	451.72
503.43	418.96
503.60	395.55
503.78	454.06
503.95	461.09
504.13	454.06
504.30	430.66
504.48	437.68
504.65	477.47
504.83	383.85
505.01	393.21
505.18	425.98
505.36	433.00
505.53	411.93
505.71	383.85
505.88	479.81
506.06	409.59
506.23	395.55
506.41	416.62
506.58	449.38
506.76	407.25
506.93	425.98
507.11	496.19
507.28	440.02
507.46	456.40
507.63	372.15
507.81	381.51
507.98	397.89
508.16	369.80
508.33	369.80
508.50	421.30
508.68	458.74
508.85	402.57
509.03	435.34
509.20	337.04
509.38	404.91
509.55	351.08
509.73	428.32
509.90	456.40
510.08	369.80
510.25	395.55
510.42	383.85
510.60	428.32
510.77	407.25
510.95	425.98
511.12	442.36
511.30	449.38
511.47	369.80
511.64	451.72
511.82	358.10
511.99	276.18
512.17	428.32
512.34	423.64
512.51	477.47
512.69	330.02
512.86	393.21
513.04	407.25
513.21	416.62
513.38	440.02
513.56	472.79
513.73	418.96
513.90	428.32
514.08	390.87
514.25	430.66
514.43	374.49
514.60	388.53
514.77	397.89
514.95	400.23
515.12	444.70
515.29	433.00
515.47	376.83
515.64	372.15
515.81	454.06
515.99	496.19
516.16	503.22
516.33	435.34
516.51	376.83
516.68	397.89
516.85	407.25
517.03	369.80
517.20	402.57
517.37	451.72
517.54	402.57
517.72	395.55
517.89	374.49
518.06	423.64
518.24	407.25
518.41	400.23
518.58	421.30
518.75	475.13
518.93	402.57
519.10	365.12
519.27	416.62
519.45	402.57
519.62	369.80
519.79	437.68
519.96	430.66
520.14	386.19
520.31	411.93
520.48	397.89
520.65	390.87
520.83	416.62
521.00	388.53
521.17	418.96
521.34	496.19
521.52	423.64
521.69	456.40
521.86	442.36
522.03	418.96
522.20	486.83
522.38	447.04
522.55	407.25
522.72	367.46
522.89	416.62
523.07	402.57
523.24	482.15
523.41	428.32
523.58	414.27
523.75	409.59
523.92	407.25
524.10	402.57
524.27	381.51
524.44	444.70
524.61	395.55
524.78	393.21
524.96	442.36
525.13	383.85
525.30	397.89
525.47	383.85
525.64	414.27
525.81	430.66
525.98	465.77
526.16	472.79
526.33	421.30
526.50	402.57
526.67	315.97
526.84	383.85
527.01	409.59
527.18	444.70
527.36	468.11
527.53	358.10
527.70	493.85
527.87	383.85
528.04	472.79
528.21	491.51
528.38	435.34
528.55	423.64
528.72	437.68
528.89	440.02
529.07	416.62
529.24	447.04
529.41	486.83
529.58	456.40
529.75	390.87
529.92	425.98
530.09	465.77
530.26	468.11
530.43	409.59
530.60	372.15
530.77	496.19
530.94	430.66
531.11	491.51
531.28	360.44
531.46	433.00
531.63	449.38
531.80	395.55
531.97	477.47
532.14	435.34
532.31	449.38
532.48	362.78
532.65	421.30
532.82	395.55
532.99	337.04
533.16	402.57
533.33	425.98
533.50	416.62
533.67	369.80
533.84	421.30
534.01	383.85
534.18	355.76
534.35	360.44
534.52	423.64
534.69	425.98
534.86	418.96
535.03	465.77
535.20	444.70
535.37	430.66
535.54	411.93
535.71	437.68
535.88	463.43
536.05	416.62
536.22	444.70
536.38	447.04
536.55	489.17
536.72	449.38
536.89	397.89
537.06	461.09
537.23	400.23
537.40	397.89
537.57	367.46
537.74	409.59
537.91	433.00
538.08	468.11
538.25	348.74
538.42	374.49
538.59	400.23
538.75	468.11
538.92	390.87
539.09	498.53
539.26	381.51
539.43	482.15
539.60	379.17
539.77	454.06
539.94	425.98
540.11	414.27
540.28	425.98
540.44	407.25
540.61	383.85
540.78	428.32
540.95	339.38
541.12	428.32
541.29	440.02
541.46	433.00
541.62	400.23
541.79	383.85
541.96	376.83
542.13	411.93
542.30	430.66
542.47	444.70
542.63	454.06
542.80	444.70
542.97	458.74
543.14	374.49
543.31	341.72
543.48	425.98
543.64	404.91
543.81	440.02
543.98	346.40
544.15	353.42
544.32	393.21
544.48	383.85
544.65	418.96
544.82	360.44
544.99	402.57
545.16	416.62
545.32	379.17
545.49	458.74
545.66	372.15
545.83	409.59
546.00	362.78
546.16	428.32
546.33	360.44
546.50	416.62
546.67	423.64
546.83	411.93
547.00	416.62
547.17	414.27
547.34	423.64
547.50	341.72
547.67	351.08
547.84	383.85
548.00	472.79
548.17	440.02
548.34	465.77
548.51	395.55
548.67	407.25
548.84	411.93
549.01	411.93
549.18	444.70
549.34	421.30
549.51	421.30
549.68	369.80
549.84	479.81
550.01	472.79
550.18	444.70
550.34	512.58
550.51	456.40
550.68	456.40
550.84	435.34
551.01	423.64
551.18	372.15
551.34	416.62
551.51	449.38
551.68	458.74
551.84	442.36
552.01	365.12
552.18	440.02
552.34	416.62
552.51	475.13
552.68	376.83
552.84	414.27
553.01	433.00
553.18	402.57
553.34	388.53
553.51	404.91
553.67	435.34
553.84	440.02
554.01	444.70
554.17	404.91
554.34	395.55
554.51	402.57
554.67	372.15
554.84	388.53
555.00	416.62
555.17	395.55
555.33	433.00
555.50	435.34
555.67	463.43
555.83	367.46
556.00	330.02
556.16	552.37
556.33	388.53
556.50	430.66
556.66	376.83
556.83	437.68
556.99	358.10
557.16	428.32
557.32	393.21
557.49	449.38
557.65	428.32
557.82	411.93
557.98	440.02
558.15	425.98
558.32	454.06
558.48	423.64
558.65	404.91
558.81	390.87
558.98	414.27
559.14	400.23
559.31	362.78
559.47	433.00
559.64	482.15
559.80	475.13
559.97	376.83
560.13	393.21
560.30	451.72
560.46	433.00
560.63	440.02
560.79	388.53
560.96	376.83
561.12	337.04
561.29	491.51
561.45	477.47
561.61	341.72
561.78	496.19
561.94	454.06
562.11	442.36
562.27	353.42
562.44	425.98
562.60	383.85
562.77	376.83
562.93	454.06
563.10	390.87
563.26	447.04
563.42	468.11
563.59	465.77
563.75	386.19
563.92	463.43
564.08	383.85
564.24	477.47
564.41	468.11
564.57	454.06
564.74	383.85
564.90	440.02
565.07	402.57
565.23	484.49
565.39	383.85
565.56	454.06
565.72	430.66
565.88	437.68
566.05	393.21
566.21	362.78
566.38	381.51
566.54	369.80
566.70	360.44
566.87	402.57
567.03	435.34
567.19	411.93
567.36	437.68
567.52	440.02
567.68	395.55
567.85	425.98
568.01	461.09
568.17	393.21
568.34	409.59
568.50	435.34
568.66	456.40
568.83	433.00
568.99	365.12
569.15	423.64
569.32	402.57
569.48	437.68
569.64	421.30
569.81	344.06
569.97	355.76
570.13	325.33
570.30	440.02
570.46	388.53
570.62	454.06
570.78	367.46
570.95	379.17
571.11	475.13
571.27	433.00
571.43	442.36
571.60	425.98
571.76	402.57
571.92	414.27
572.09	351.08
572.25	430.66
572.41	341.72
572.57	423.64
572.74	454.06
572.90	498.53
573.06	362.78
573.22	421.30
573.38	458.74
573.55	425.98
573.71	421.30
573.87	404.91
574.03	376.83
574.20	369.80
574.36	430.66
574.52	362.78
574.68	313.63
574.84	407.25
575.01	447.04
575.17	416.62
575.33	447.04
575.49	430.66
575.65	486.83
575.82	425.98
575.98	362.78
576.14	454.06
576.30	402.57
576.46	440.02
576.62	411.93
576.79	407.25
576.95	381.51
577.11	383.85
577.27	463.43
577.43	397.89
577.59	475.13
577.75	440.02
577.92	409.59
578.08	404.91
578.24	367.46
578.40	430.66
578.56	456.40
578.72	437.68
578.88	332.36
579.04	421.30
579.21	393.21
579.37	444.70
579.53	404.91
579.69	386.19
579.85	397.89
580.01	362.78
580.17	425.98
580.33	327.68
580.49	372.15
580.65	451.72
580.82	418.96
580.98	395.55
581.14	423.64
581.30	418.96
581.46	442.36
581.62	418.96
581.78	402.57
581.94	407.25
582.10	461.09
582.26	400.23
582.42	418.96
582.58	411.93
582.74	421.30
582.90	362.78
583.06	433.00
583.22	411.93
583.38	353.42
583.54	454.06
583.70	430.66
583.86	407.25
584.02	388.53
584.18	475.13
584.34	463.43
584.50	444.70
584.66	388.53
584.82	353.42
584.98	418.96
585.14	379.17
585.30	435.34
585.46	362.78
585.62	393.21
585.78	381.51
585.94	512.58
586.10	421.30
586.26	367.46
586.42	400.23
586.58	381.51
586.74	362.78
586.90	416.62
587.06	465.77
587.22	416.62
587.38	393.21
587.54	421.30
587.70	369.80
587.86	383.85
588.02	442.36
588.18	351.08
588.34	414.27
588.49	430.66
588.65	428.32
588.81	425.98
588.97	397.89
589.13	388.53
589.29	379.17
589.45	421.30
589.61	447.04
589.77	491.51
589.93	404.91
590.08	348.74
590.24	458.74
590.40	479.81
590.56	447.04
590.72	433.00
590.88	444.70
591.04	386.19
591.20	416.62
591.35	477.47
591.51	437.68
591.67	440.02
591.83	404.91
591.99	360.44
592.15	461.09
592.31	418.96
592.46	456.40
592.62	411.93
592.78	468.11
592.94	402.57
593.10	395.55
593.26	386.19
593.41	416.62
593.57	355.76
593.73	376.83
593.89	482.15
594.05	447.04
594.20	407.25
594.36	407.25
594.52	425.98
594.68	418.96
594.84	407.25
594.99	435.34
595.15	388.53
595.31	400.23
595.47	348.74
595.62	402.57
595.78	442.36
595.94	414.27
596.10	411.93
596.25	418.96
596.41	381.51
596.57	341.72
596.73	425.98
596.88	447.04
597.04	447.04
597.20	404.91
597.36	369.80
597.51	416.62
597.67	407.25
597.83	430.66
597.99	388.53
598.14	369.80
598.30	372.15
598.46	386.19
598.61	428.32
598.77	346.40
598.93	437.68
599.09	402.57
599.24	468.11
599.40	400.23
599.56	463.43
599.71	447.04
599.87	402.57
600.03	395.55
600.18	418.96
600.34	411.93
600.50	449.38
600.65	322.99
600.81	451.72
600.97	425.98
601.12	304.27
601.28	418.96
601.44	442.36
601.59	318.31
601.75	402.57
601.91	470.45
602.06	351.08
602.22	472.79
602.37	379.17
602.53	435.34
602.69	444.70
602.84	402.57
603.00	451.72
603.16	425.98
603.31	428.32
603.47	400.23
603.62	386.19
603.78	425.98
603.94	414.27
604.09	479.81
604.25	451.72
604.40	458.74
604.56	360.44
604.71	407.25
604.87	442.36
605.03	465.77
605.18	465.77
605.34	369.80
605.49	397.89
605.65	418.96
605.80	346.40
605.96	341.72
606.12	374.49
606.27	386.19
606.43	461.09
606.58	315.97
606.74	414.27
606.89	341.72
607.05	400.23
607.20	372.15
607.36	397.89
607.51	423.64
607.67	365.12
607.82	376.83
607.98	463.43
608.13	379.17
608.29	283.20
608.44	564.07
608.60	355.76
608.75	498.53
608.91	463.43
609.06	435.34
609.22	339.38
609.37	402.57
609.53	390.87
609.68	421.30
609.84	402.57
609.99	437.68
610.15	423.64
