SpectraSuite Data File
++++++++++++++++++++++++++++++++++++
Date: Fri Oct 25 12:11:03 EDT 2013
User: price-jones
Dark Spectrum Present: No
Reference Spectrum Present: No
Number of Sampled Component Spectra: 1
Spectrometers: USB2+H05261
Integration Time (usec): 100000 (USB2+H05261)
Spectra Averaged: 1 (USB2+H05261)
Boxcar Smoothing: 0 (USB2+H05261)
Correct for Electrical Dark: No (USB2+H05261)
Strobe/Lamp Enabled: No (USB2+H05261)
Correct for Detector Non-linearity: No (USB2+H05261)
Correct for Stray Light: No (USB2+H05261)
Number of Pixels in Processed Spectrum: 2048
>>>>>Begin Processed Spectral Data<<<<<
365.73	301.93
365.92	301.93
366.12	301.93
366.32	299.59
366.52	166.18
366.72	273.84
366.91	161.50
367.11	184.90
367.31	182.56
367.51	257.46
367.70	212.99
367.90	257.46
368.10	220.01
368.30	243.42
368.49	255.12
368.69	266.82
368.89	280.86
369.09	273.84
369.28	248.10
369.48	238.73
369.68	278.52
369.87	264.48
370.07	315.97
370.27	327.68
370.47	355.76
370.66	334.70
370.86	322.99
371.06	433.00
371.25	404.91
371.45	463.43
371.65	400.23
371.84	381.51
372.04	325.33
372.24	404.91
372.44	383.85
372.63	376.83
372.83	461.09
373.03	383.85
373.22	374.49
373.42	482.15
373.62	411.93
373.81	383.85
374.01	433.00
374.21	503.22
374.40	397.89
374.60	440.02
374.79	311.29
374.99	404.91
375.19	454.06
375.38	402.57
375.58	374.49
375.78	472.79
375.97	400.23
376.17	447.04
376.37	447.04
376.56	369.80
376.76	444.70
376.95	416.62
377.15	355.76
377.35	388.53
377.54	383.85
377.74	367.46
377.93	397.89
378.13	437.68
378.33	411.93
378.52	367.46
378.72	465.77
378.91	463.43
379.11	367.46
379.31	360.44
379.50	402.57
379.70	381.51
379.89	393.21
380.09	360.44
380.28	402.57
380.48	383.85
380.68	339.38
380.87	374.49
381.07	348.74
381.26	395.55
381.46	456.40
381.65	390.87
381.85	444.70
382.04	386.19
382.24	407.25
382.43	362.78
382.63	472.79
382.83	327.68
383.02	447.04
383.22	465.77
383.41	355.76
383.61	353.42
383.80	451.72
384.00	418.96
384.19	451.72
384.39	386.19
384.58	381.51
384.78	388.53
384.97	372.15
385.17	386.19
385.36	304.27
385.56	409.59
385.75	376.83
385.95	454.06
386.14	458.74
386.34	325.33
386.53	458.74
386.72	472.79
386.92	454.06
387.11	449.38
387.31	416.62
387.50	407.25
387.70	353.42
387.89	465.77
388.09	395.55
388.28	468.11
388.48	409.59
388.67	479.81
388.86	463.43
389.06	409.59
389.25	440.02
389.45	456.40
389.64	341.72
389.84	421.30
390.03	458.74
390.22	397.89
390.42	383.85
390.61	395.55
390.81	407.25
391.00	421.30
391.19	407.25
391.39	430.66
391.58	477.47
391.78	454.06
391.97	418.96
392.16	479.81
392.36	472.79
392.55	409.59
392.75	468.11
392.94	442.36
393.13	390.87
393.33	390.87
393.52	416.62
393.71	425.98
393.91	400.23
394.10	362.78
394.29	414.27
394.49	376.83
394.68	362.78
394.88	433.00
395.07	418.96
395.26	421.30
395.46	411.93
395.65	393.21
395.84	440.02
396.04	416.62
396.23	397.89
396.42	423.64
396.62	489.17
396.81	479.81
397.00	409.59
397.19	365.12
397.39	390.87
397.58	411.93
397.77	313.63
397.97	395.55
398.16	404.91
398.35	416.62
398.55	454.06
398.74	428.32
398.93	388.53
399.12	418.96
399.32	379.17
399.51	442.36
399.70	400.23
399.90	418.96
400.09	416.62
400.28	407.25
400.47	430.66
400.67	372.15
400.86	404.91
401.05	437.68
401.24	402.57
401.44	381.51
401.63	397.89
401.82	428.32
402.01	367.46
402.21	395.55
402.40	414.27
402.59	379.17
402.78	423.64
402.97	425.98
403.17	433.00
403.36	425.98
403.55	411.93
403.74	365.12
403.93	388.53
404.13	442.36
404.32	381.51
404.51	407.25
404.70	437.68
404.89	334.70
405.09	402.57
405.28	395.55
405.47	428.32
405.66	477.47
405.85	411.93
406.05	458.74
406.24	397.89
406.43	332.36
406.62	393.21
406.81	465.77
407.00	461.09
407.20	421.30
407.39	425.98
407.58	414.27
407.77	421.30
407.96	428.32
408.15	402.57
408.34	395.55
408.54	440.02
408.73	407.25
408.92	451.72
409.11	440.02
409.30	355.76
409.49	454.06
409.68	386.19
409.87	479.81
410.07	379.17
410.26	440.02
410.45	348.74
410.64	390.87
410.83	346.40
411.02	383.85
411.21	402.57
411.40	383.85
411.59	362.78
411.78	325.33
411.98	465.77
412.17	447.04
412.36	440.02
412.55	444.70
412.74	428.32
412.93	475.13
413.12	397.89
413.31	367.46
413.50	430.66
413.69	306.61
413.88	423.64
414.07	421.30
414.26	395.55
414.45	416.62
414.64	428.32
414.83	440.02
415.02	393.21
415.22	407.25
415.41	372.15
415.60	421.30
415.79	421.30
415.98	395.55
416.17	428.32
416.36	369.80
416.55	367.46
416.74	337.04
416.93	433.00
417.12	390.87
417.31	418.96
417.50	404.91
417.69	435.34
417.88	386.19
418.07	402.57
418.26	430.66
418.45	444.70
418.64	451.72
418.83	369.80
419.02	449.38
419.21	414.27
419.39	440.02
419.58	402.57
419.77	409.59
419.96	400.23
420.15	330.02
420.34	465.77
420.53	386.19
420.72	442.36
420.91	351.08
421.10	390.87
421.29	425.98
421.48	489.17
421.67	376.83
421.86	400.23
422.05	430.66
422.24	428.32
422.43	449.38
422.61	379.17
422.80	411.93
422.99	454.06
423.18	409.59
423.37	393.21
423.56	421.30
423.75	461.09
423.94	360.44
424.13	404.91
424.32	386.19
424.50	416.62
424.69	421.30
424.88	472.79
425.07	433.00
425.26	418.96
425.45	435.34
425.64	416.62
425.83	416.62
426.01	393.21
426.20	376.83
426.39	416.62
426.58	339.38
426.77	369.80
426.96	454.06
427.15	440.02
427.33	381.51
427.52	423.64
427.71	325.33
427.90	390.87
428.09	327.68
428.28	355.76
428.46	430.66
428.65	386.19
428.84	411.93
429.03	465.77
429.22	407.25
429.40	376.83
429.59	386.19
429.78	379.17
429.97	458.74
430.16	470.45
430.34	423.64
430.53	433.00
430.72	442.36
430.91	456.40
431.10	407.25
431.28	411.93
431.47	404.91
431.66	381.51
431.85	440.02
432.03	397.89
432.22	456.40
432.41	465.77
432.60	449.38
432.79	402.57
432.97	414.27
433.16	348.74
433.35	348.74
433.54	447.04
433.72	428.32
433.91	376.83
434.10	390.87
434.28	449.38
434.47	425.98
434.66	461.09
434.85	416.62
435.03	407.25
435.22	451.72
435.41	442.36
435.59	437.68
435.78	437.68
435.97	334.70
436.16	414.27
436.34	372.15
436.53	475.13
436.72	395.55
436.90	435.34
437.09	454.06
437.28	423.64
437.46	440.02
437.65	418.96
437.84	470.45
438.02	423.64
438.21	386.19
438.40	435.34
438.58	390.87
438.77	440.02
438.96	322.99
439.14	418.96
439.33	411.93
439.52	348.74
439.70	421.30
439.89	397.89
440.08	395.55
440.26	400.23
440.45	416.62
440.63	430.66
440.82	470.45
441.01	367.46
441.19	355.76
441.38	447.04
441.57	322.99
441.75	416.62
441.94	440.02
442.12	423.64
442.31	397.89
442.50	437.68
442.68	416.62
442.87	414.27
443.05	461.09
443.24	393.21
443.43	407.25
443.61	428.32
443.80	404.91
443.98	409.59
444.17	440.02
444.35	447.04
444.54	425.98
444.73	442.36
444.91	425.98
445.10	418.96
445.28	425.98
445.47	358.10
445.65	442.36
445.84	414.27
446.02	470.45
446.21	388.53
446.39	376.83
446.58	433.00
446.77	376.83
446.95	433.00
447.14	437.68
447.32	425.98
447.51	477.47
447.69	428.32
447.88	388.53
448.06	376.83
448.25	425.98
448.43	409.59
448.62	362.78
448.80	435.34
448.99	505.56
449.17	367.46
449.36	456.40
449.54	355.76
449.73	362.78
449.91	454.06
450.10	388.53
450.28	379.17
450.46	449.38
450.65	416.62
450.83	507.90
451.02	416.62
451.20	423.64
451.39	397.89
451.57	447.04
451.76	411.93
451.94	407.25
452.13	369.80
452.31	416.62
452.49	409.59
452.68	414.27
452.86	461.09
453.05	442.36
453.23	421.30
453.42	440.02
453.60	379.17
453.78	393.21
453.97	376.83
454.15	379.17
454.34	374.49
454.52	362.78
454.70	472.79
454.89	435.34
455.07	418.96
455.26	465.77
455.44	472.79
455.62	416.62
455.81	430.66
455.99	428.32
456.17	430.66
456.36	416.62
456.54	482.15
456.73	402.57
456.91	369.80
457.09	397.89
457.28	337.04
457.46	367.46
457.64	486.83
457.83	386.19
458.01	372.15
458.19	444.70
458.38	365.12
458.56	369.80
458.74	416.62
458.93	454.06
459.11	327.68
459.29	409.59
459.48	386.19
459.66	477.47
459.84	416.62
460.03	449.38
460.21	402.57
460.39	337.04
460.57	430.66
460.76	428.32
460.94	421.30
461.12	411.93
461.31	430.66
461.49	517.26
461.67	418.96
461.85	451.72
462.04	376.83
462.22	755.99
462.40	440.02
462.59	383.85
462.77	346.40
462.95	451.72
463.13	402.57
463.32	449.38
463.50	458.74
463.68	458.74
463.86	472.79
464.05	390.87
464.23	423.64
464.41	437.68
464.59	414.27
464.78	416.62
464.96	418.96
465.14	461.09
465.32	423.64
465.50	433.00
465.69	416.62
465.87	351.08
466.05	428.32
466.23	421.30
466.41	414.27
466.60	430.66
466.78	367.46
466.96	430.66
467.14	475.13
467.32	458.74
467.51	395.55
467.69	496.19
467.87	496.19
468.05	482.15
468.23	447.04
468.41	440.02
468.60	421.30
468.78	381.51
468.96	430.66
469.14	428.32
469.32	414.27
469.50	465.77
469.69	437.68
469.87	369.80
470.05	428.32
470.23	407.25
470.41	383.85
470.59	374.49
470.77	435.34
470.95	383.85
471.14	402.57
471.32	390.87
471.50	372.15
471.68	404.91
471.86	449.38
472.04	425.98
472.22	414.27
472.40	393.21
472.58	390.87
472.77	440.02
472.95	365.12
473.13	468.11
473.31	430.66
473.49	400.23
473.67	379.17
473.85	416.62
474.03	472.79
474.21	388.53
474.39	421.30
474.57	526.62
474.75	475.13
474.93	418.96
475.12	362.78
475.30	444.70
475.48	372.15
475.66	402.57
475.84	372.15
476.02	397.89
476.20	468.11
476.38	430.66
476.56	397.89
476.74	456.40
476.92	428.32
477.10	472.79
477.28	404.91
477.46	411.93
477.64	463.43
477.82	451.72
478.00	482.15
478.18	477.47
478.36	400.23
478.54	325.33
478.72	437.68
478.90	383.85
479.08	442.36
479.26	463.43
479.44	400.23
479.62	404.91
479.80	337.04
479.98	379.17
480.16	430.66
480.34	430.66
480.52	383.85
480.70	397.89
480.88	404.91
481.06	353.42
481.24	393.21
481.41	456.40
481.59	430.66
481.77	379.17
481.95	367.46
482.13	435.34
482.31	388.53
482.49	351.08
482.67	395.55
482.85	376.83
483.03	339.38
483.21	418.96
483.39	374.49
483.57	461.09
483.74	449.38
483.92	430.66
484.10	393.21
484.28	465.77
484.46	482.15
484.64	372.15
484.82	454.06
485.00	440.02
485.18	386.19
485.35	393.21
485.53	374.49
485.71	386.19
485.89	390.87
486.07	381.51
486.25	454.06
486.43	449.38
486.61	507.90
486.78	437.68
486.96	447.04
487.14	390.87
487.32	440.02
487.50	423.64
487.68	397.89
487.85	362.78
488.03	416.62
488.21	468.11
488.39	435.34
488.57	461.09
488.75	372.15
488.92	521.94
489.10	418.96
489.28	404.91
489.46	339.38
489.64	503.22
489.81	475.13
489.99	418.96
490.17	365.12
490.35	489.17
490.53	374.49
490.70	425.98
490.88	358.10
491.06	397.89
491.24	390.87
491.41	491.51
491.59	514.92
491.77	397.89
491.95	402.57
492.13	407.25
492.30	402.57
492.48	425.98
492.66	477.47
492.84	440.02
493.01	442.36
493.19	421.30
493.37	519.60
493.54	367.46
493.72	400.23
493.90	423.64
494.08	388.53
494.25	402.57
494.43	362.78
494.61	416.62
494.79	379.17
494.96	479.81
495.14	346.40
495.32	332.36
495.49	416.62
495.67	358.10
495.85	428.32
496.02	484.49
496.20	468.11
496.38	458.74
496.55	393.21
496.73	456.40
496.91	402.57
497.09	489.17
497.26	355.76
497.44	458.74
497.62	397.89
497.79	421.30
497.97	418.96
498.14	428.32
498.32	463.43
498.50	376.83
498.67	397.89
498.85	430.66
499.03	411.93
499.20	409.59
499.38	397.89
499.56	456.40
499.73	379.17
499.91	454.06
500.08	416.62
500.26	383.85
500.44	365.12
500.61	376.83
500.79	421.30
500.97	400.23
501.14	414.27
501.32	454.06
501.49	489.17
501.67	404.91
501.84	346.40
502.02	393.21
502.20	456.40
502.37	374.49
502.55	376.83
502.72	372.15
502.90	346.40
503.07	421.30
503.25	346.40
503.43	428.32
503.60	456.40
503.78	454.06
503.95	299.59
504.13	430.66
504.30	465.77
504.48	423.64
504.65	454.06
504.83	425.98
505.01	447.04
505.18	451.72
505.36	386.19
505.53	404.91
505.71	395.55
505.88	470.45
506.06	397.89
506.23	400.23
506.41	327.68
506.58	465.77
506.76	477.47
506.93	411.93
507.11	423.64
507.28	369.80
507.46	407.25
507.63	397.89
507.81	381.51
507.98	351.08
508.16	400.23
508.33	386.19
508.50	386.19
508.68	482.15
508.85	355.76
509.03	430.66
509.20	444.70
509.38	458.74
509.55	430.66
509.73	461.09
509.90	430.66
510.08	334.70
510.25	442.36
510.42	468.11
510.60	472.79
510.77	397.89
510.95	428.32
511.12	461.09
511.30	372.15
511.47	404.91
511.64	477.47
511.82	461.09
511.99	440.02
512.17	421.30
512.34	400.23
512.51	421.30
512.69	360.44
512.86	447.04
513.04	383.85
513.21	407.25
513.38	379.17
513.56	444.70
513.73	402.57
513.90	355.76
514.08	437.68
514.25	449.38
514.43	437.68
514.60	461.09
514.77	344.06
514.95	379.17
515.12	437.68
515.29	425.98
515.47	400.23
515.64	425.98
515.81	379.17
515.99	435.34
516.16	468.11
516.33	514.92
516.51	407.25
516.68	386.19
516.85	430.66
517.03	332.36
517.20	440.02
517.37	465.77
517.54	430.66
517.72	404.91
517.89	355.76
518.06	334.70
518.24	447.04
518.41	468.11
518.58	418.96
518.75	449.38
518.93	388.53
519.10	337.04
519.27	397.89
519.45	425.98
519.62	379.17
519.79	479.81
519.96	409.59
520.14	449.38
520.31	456.40
520.48	395.55
520.65	386.19
520.83	484.49
521.00	395.55
521.17	442.36
521.34	369.80
521.52	346.40
521.69	388.53
521.86	428.32
522.03	418.96
522.20	386.19
522.38	428.32
522.55	433.00
522.72	365.12
522.89	423.64
523.07	456.40
523.24	444.70
523.41	425.98
523.58	374.49
523.75	404.91
523.92	339.38
524.10	430.66
524.27	463.43
524.44	372.15
524.61	397.89
524.78	388.53
524.96	440.02
525.13	449.38
525.30	440.02
525.47	404.91
525.64	402.57
525.81	437.68
525.98	475.13
526.16	418.96
526.33	376.83
526.50	386.19
526.67	411.93
526.84	461.09
527.01	386.19
527.18	423.64
527.36	381.51
527.53	362.78
527.70	400.23
527.87	402.57
528.04	468.11
528.21	407.25
528.38	423.64
528.55	472.79
528.72	442.36
528.89	498.53
529.07	402.57
529.24	376.83
529.41	449.38
529.58	390.87
529.75	430.66
529.92	435.34
530.09	393.21
530.26	486.83
530.43	472.79
530.60	477.47
530.77	454.06
530.94	411.93
531.11	500.87
531.28	423.64
531.46	395.55
531.63	461.09
531.80	407.25
531.97	386.19
532.14	365.12
532.31	407.25
532.48	433.00
532.65	435.34
532.82	421.30
532.99	482.15
533.16	454.06
533.33	411.93
533.50	404.91
533.67	428.32
533.84	400.23
534.01	388.53
534.18	374.49
534.35	418.96
534.52	383.85
534.69	414.27
534.86	388.53
535.03	407.25
535.20	411.93
535.37	486.83
535.54	386.19
535.71	397.89
535.88	444.70
536.05	393.21
536.22	404.91
536.38	449.38
536.55	407.25
536.72	440.02
536.89	430.66
537.06	433.00
537.23	397.89
537.40	477.47
537.57	374.49
537.74	414.27
537.91	423.64
538.08	397.89
538.25	360.44
538.42	393.21
538.59	397.89
538.75	330.02
538.92	454.06
539.09	491.51
539.26	437.68
539.43	500.87
539.60	423.64
539.77	430.66
539.94	395.55
540.11	465.77
540.28	444.70
540.44	348.74
540.61	444.70
540.78	428.32
540.95	414.27
541.12	440.02
541.29	337.04
541.46	470.45
541.62	418.96
541.79	402.57
541.96	351.08
542.13	348.74
542.30	402.57
542.47	507.90
542.63	461.09
542.80	386.19
542.97	465.77
543.14	388.53
543.31	409.59
543.48	388.53
543.64	425.98
543.81	463.43
543.98	416.62
544.15	374.49
544.32	393.21
544.48	376.83
544.65	390.87
544.82	390.87
544.99	428.32
545.16	418.96
545.32	313.63
545.49	444.70
545.66	402.57
545.83	409.59
546.00	315.97
546.16	435.34
546.33	486.83
546.50	437.68
546.67	444.70
546.83	493.85
547.00	442.36
547.17	437.68
547.34	414.27
547.50	411.93
547.67	423.64
547.84	505.56
548.00	386.19
548.17	372.15
548.34	400.23
548.51	397.89
548.67	388.53
548.84	416.62
549.01	486.83
549.18	444.70
549.34	374.49
549.51	409.59
549.68	454.06
549.84	456.40
550.01	372.15
550.18	526.62
550.34	479.81
550.51	486.83
550.68	414.27
550.84	442.36
551.01	463.43
551.18	447.04
551.34	416.62
551.51	451.72
551.68	418.96
551.84	388.53
552.01	461.09
552.18	362.78
552.34	475.13
552.51	374.49
552.68	411.93
552.84	262.14
553.01	393.21
553.18	528.96
553.34	404.91
553.51	491.51
553.67	475.13
553.84	428.32
554.01	430.66
554.17	397.89
554.34	362.78
554.51	416.62
554.67	400.23
554.84	465.77
555.00	458.74
555.17	465.77
555.33	390.87
555.50	430.66
555.67	531.30
555.83	294.91
556.00	486.83
556.16	479.81
556.33	449.38
556.50	409.59
556.66	397.89
556.83	468.11
556.99	425.98
557.16	418.96
557.32	454.06
557.49	376.83
557.65	433.00
557.82	372.15
557.98	365.12
558.15	404.91
558.32	400.23
558.48	402.57
558.65	505.56
558.81	425.98
558.98	390.87
559.14	500.87
559.31	433.00
559.47	374.49
559.64	337.04
559.80	414.27
559.97	433.00
560.13	451.72
560.30	444.70
560.46	407.25
560.63	395.55
560.79	393.21
560.96	393.21
561.12	411.93
561.29	470.45
561.45	409.59
561.61	400.23
561.78	411.93
561.94	346.40
562.11	388.53
562.27	470.45
562.44	461.09
562.60	414.27
562.77	416.62
562.93	463.43
563.10	428.32
563.26	360.44
563.42	402.57
563.59	423.64
563.75	390.87
563.92	489.17
564.08	437.68
564.24	491.51
564.41	503.22
564.57	449.38
564.74	470.45
564.90	379.17
565.07	346.40
565.23	456.40
565.39	421.30
565.56	463.43
565.72	425.98
565.88	477.47
566.05	425.98
566.21	395.55
566.38	444.70
566.54	433.00
566.70	369.80
566.87	463.43
567.03	433.00
567.19	379.17
567.36	496.19
567.52	411.93
567.68	418.96
567.85	458.74
568.01	409.59
568.17	390.87
568.34	402.57
568.50	451.72
568.66	395.55
568.83	435.34
568.99	475.13
569.15	437.68
569.32	390.87
569.48	386.19
569.64	402.57
569.81	393.21
569.97	374.49
570.13	440.02
570.30	430.66
570.46	430.66
570.62	421.30
570.78	393.21
570.95	397.89
571.11	437.68
571.27	423.64
571.43	344.06
571.60	351.08
571.76	454.06
571.92	421.30
572.09	416.62
572.25	428.32
572.41	388.53
572.57	451.72
572.74	496.19
572.90	423.64
573.06	400.23
573.22	409.59
573.38	461.09
573.55	440.02
573.71	423.64
573.87	418.96
574.03	470.45
574.20	428.32
574.36	367.46
574.52	381.51
574.68	376.83
574.84	414.27
575.01	430.66
575.17	493.85
575.33	407.25
575.49	491.51
575.65	404.91
575.82	351.08
575.98	440.02
576.14	383.85
576.30	388.53
576.46	433.00
576.62	440.02
576.79	367.46
576.95	451.72
577.11	374.49
577.27	404.91
577.43	411.93
577.59	409.59
577.75	456.40
577.92	463.43
578.08	404.91
578.24	344.06
578.40	379.17
578.56	421.30
578.72	428.32
578.88	486.83
579.04	390.87
579.21	440.02
579.37	430.66
579.53	386.19
579.69	386.19
579.85	409.59
580.01	440.02
580.17	390.87
580.33	430.66
580.49	416.62
580.65	376.83
580.82	428.32
580.98	472.79
581.14	418.96
581.30	437.68
581.46	407.25
581.62	425.98
581.78	454.06
581.94	475.13
582.10	440.02
582.26	379.17
582.42	456.40
582.58	390.87
582.74	444.70
582.90	411.93
583.06	517.26
583.22	388.53
583.38	468.11
583.54	397.89
583.70	421.30
583.86	409.59
584.02	365.12
584.18	461.09
584.34	486.83
584.50	414.27
584.66	451.72
584.82	449.38
584.98	414.27
585.14	390.87
585.30	416.62
585.46	388.53
585.62	409.59
585.78	409.59
585.94	451.72
586.10	367.46
586.26	390.87
586.42	395.55
586.58	454.06
586.74	428.32
586.90	461.09
587.06	468.11
587.22	440.02
587.38	390.87
587.54	407.25
587.70	433.00
587.86	451.72
588.02	409.59
588.18	367.46
588.34	369.80
588.49	365.12
588.65	393.21
588.81	414.27
588.97	447.04
589.13	414.27
589.29	447.04
589.45	456.40
589.61	369.80
589.77	442.36
589.93	437.68
590.08	416.62
590.24	376.83
590.40	456.40
590.56	421.30
590.72	362.78
590.88	365.12
591.04	402.57
591.20	407.25
591.35	390.87
591.51	465.77
591.67	444.70
591.83	383.85
591.99	514.92
592.15	505.56
592.31	423.64
592.46	437.68
592.62	456.40
592.78	344.06
592.94	367.46
593.10	423.64
593.26	397.89
593.41	414.27
593.57	400.23
593.73	430.66
593.89	411.93
594.05	423.64
594.20	402.57
594.36	402.57
594.52	409.59
594.68	404.91
594.84	519.60
594.99	425.98
595.15	423.64
595.31	402.57
595.47	491.51
595.62	451.72
595.78	435.34
595.94	425.98
596.10	411.93
596.25	430.66
596.41	395.55
596.57	355.76
596.73	454.06
596.88	472.79
597.04	421.30
597.20	409.59
597.36	496.19
597.51	470.45
597.67	407.25
597.83	395.55
597.99	411.93
598.14	416.62
598.30	435.34
598.46	409.59
598.61	418.96
598.77	470.45
598.93	479.81
599.09	379.17
599.24	430.66
599.40	458.74
599.56	404.91
599.71	348.74
599.87	402.57
600.03	409.59
600.18	437.68
600.34	456.40
600.50	372.15
600.65	444.70
600.81	379.17
600.97	414.27
601.12	365.12
601.28	423.64
601.44	433.00
601.59	444.70
601.75	468.11
601.91	409.59
602.06	411.93
602.22	479.81
602.37	397.89
602.53	407.25
602.69	390.87
602.84	411.93
603.00	484.49
603.16	475.13
603.31	397.89
603.47	472.79
603.62	390.87
603.78	425.98
603.94	402.57
604.09	435.34
604.25	425.98
604.40	454.06
604.56	418.96
604.71	435.34
604.87	435.34
605.03	433.00
605.18	477.47
605.34	400.23
605.49	362.78
605.65	397.89
605.80	444.70
605.96	449.38
606.12	461.09
606.27	400.23
606.43	374.49
606.58	400.23
606.74	416.62
606.89	454.06
607.05	447.04
607.20	435.34
607.36	500.87
607.51	355.76
607.67	400.23
607.82	437.68
607.98	376.83
608.13	418.96
608.29	418.96
608.44	395.55
608.60	407.25
608.75	479.81
608.91	442.36
609.06	458.74
609.22	411.93
609.37	362.78
609.53	421.30
609.68	397.89
609.84	425.98
609.99	514.92
610.15	416.62
