SpectraSuite Data File
++++++++++++++++++++++++++++++++++++
Date: Fri Oct 25 12:11:38 EDT 2013
User: price-jones
Dark Spectrum Present: No
Reference Spectrum Present: No
Number of Sampled Component Spectra: 1
Spectrometers: USB2+H05261
Integration Time (usec): 100000 (USB2+H05261)
Spectra Averaged: 1 (USB2+H05261)
Boxcar Smoothing: 0 (USB2+H05261)
Correct for Electrical Dark: No (USB2+H05261)
Strobe/Lamp Enabled: No (USB2+H05261)
Correct for Detector Non-linearity: No (USB2+H05261)
Correct for Stray Light: No (USB2+H05261)
Number of Pixels in Processed Spectrum: 2048
>>>>>Begin Processed Spectral Data<<<<<
365.73	351.08
365.92	351.08
366.12	351.08
366.32	276.18
366.52	241.08
366.72	173.20
366.91	276.18
367.11	248.10
367.31	271.50
367.51	238.73
367.70	196.60
367.90	266.82
368.10	187.24
368.30	266.82
368.49	262.14
368.69	315.97
368.89	243.42
369.09	198.95
369.28	255.12
369.48	292.57
369.68	294.91
369.87	294.91
370.07	205.97
370.27	327.68
370.47	313.63
370.66	315.97
370.86	358.10
371.06	414.27
371.25	402.57
371.45	390.87
371.65	341.72
371.84	313.63
372.04	428.32
372.24	322.99
372.44	346.40
372.63	381.51
372.83	421.30
373.03	468.11
373.22	404.91
373.42	390.87
373.62	383.85
373.81	393.21
374.01	470.45
374.21	386.19
374.40	404.91
374.60	451.72
374.79	442.36
374.99	421.30
375.19	418.96
375.38	449.38
375.58	442.36
375.78	416.62
375.97	449.38
376.17	440.02
376.37	479.81
376.56	372.15
376.76	402.57
376.95	425.98
377.15	468.11
377.35	407.25
377.54	442.36
377.74	355.76
377.93	433.00
378.13	404.91
378.33	456.40
378.52	337.04
378.72	430.66
378.91	440.02
379.11	402.57
379.31	425.98
379.50	327.68
379.70	444.70
379.89	386.19
380.09	402.57
380.28	383.85
380.48	414.27
380.68	430.66
380.87	397.89
381.07	421.30
381.26	397.89
381.46	449.38
381.65	351.08
381.85	404.91
382.04	423.64
382.24	372.15
382.43	425.98
382.63	451.72
382.83	397.89
383.02	423.64
383.22	386.19
383.41	404.91
383.61	482.15
383.80	482.15
384.00	418.96
384.19	376.83
384.39	330.02
384.58	437.68
384.78	430.66
384.97	437.68
385.17	444.70
385.36	463.43
385.56	484.49
385.75	353.42
385.95	428.32
386.14	416.62
386.34	463.43
386.53	409.59
386.72	433.00
386.92	404.91
387.11	421.30
387.31	421.30
387.50	388.53
387.70	414.27
387.89	407.25
388.09	444.70
388.28	402.57
388.48	409.59
388.67	362.78
388.86	365.12
389.06	414.27
389.25	390.87
389.45	407.25
389.64	421.30
389.84	442.36
390.03	521.94
390.22	433.00
390.42	358.10
390.61	461.09
390.81	339.38
391.00	444.70
391.19	367.46
391.39	428.32
391.58	414.27
391.78	346.40
391.97	402.57
392.16	423.64
392.36	470.45
392.55	454.06
392.75	390.87
392.94	355.76
393.13	449.38
393.33	381.51
393.52	348.74
393.71	440.02
393.91	388.53
394.10	442.36
394.29	496.19
394.49	344.06
394.68	330.02
394.88	430.66
395.07	379.17
395.26	409.59
395.46	414.27
395.65	440.02
395.84	386.19
396.04	447.04
396.23	425.98
396.42	388.53
396.62	383.85
396.81	433.00
397.00	381.51
397.19	475.13
397.39	341.72
397.58	409.59
397.77	407.25
397.97	404.91
398.16	297.25
398.35	435.34
398.55	388.53
398.74	383.85
398.93	393.21
399.12	365.12
399.32	430.66
399.51	386.19
399.70	423.64
399.90	397.89
400.09	491.51
400.28	418.96
400.47	362.78
400.67	444.70
400.86	383.85
401.05	402.57
401.24	430.66
401.44	423.64
401.63	393.21
401.82	423.64
402.01	475.13
402.21	449.38
402.40	414.27
402.59	468.11
402.78	402.57
402.97	425.98
403.17	353.42
403.36	386.19
403.55	430.66
403.74	418.96
403.93	414.27
404.13	449.38
404.32	376.83
404.51	465.77
404.70	402.57
404.89	423.64
405.09	393.21
405.28	390.87
405.47	360.44
405.66	435.34
405.85	397.89
406.05	465.77
406.24	421.30
406.43	414.27
406.62	411.93
406.81	514.92
407.00	440.02
407.20	447.04
407.39	411.93
407.58	411.93
407.77	414.27
407.96	400.23
408.15	407.25
408.34	376.83
408.54	393.21
408.73	411.93
408.92	339.38
409.11	411.93
409.30	444.70
409.49	440.02
409.68	365.12
409.87	423.64
410.07	353.42
410.26	440.02
410.45	369.80
410.64	369.80
410.83	421.30
411.02	449.38
411.21	414.27
411.40	484.49
411.59	484.49
411.78	491.51
411.98	430.66
412.17	442.36
412.36	353.42
412.55	386.19
412.74	379.17
412.93	505.56
413.12	416.62
413.31	440.02
413.50	421.30
413.69	341.72
413.88	435.34
414.07	390.87
414.26	369.80
414.45	393.21
414.64	395.55
414.83	496.19
415.02	365.12
415.22	421.30
415.41	418.96
415.60	433.00
415.79	353.42
415.98	395.55
416.17	390.87
416.36	365.12
416.55	395.55
416.74	407.25
416.93	430.66
417.12	428.32
417.31	400.23
417.50	397.89
417.69	418.96
417.88	465.77
418.07	400.23
418.26	402.57
418.45	376.83
418.64	451.72
418.83	393.21
419.02	400.23
419.21	416.62
419.39	437.68
419.58	397.89
419.77	423.64
419.96	421.30
420.15	458.74
420.34	491.51
420.53	355.76
420.72	449.38
420.91	362.78
421.10	463.43
421.29	404.91
421.48	409.59
421.67	365.12
421.86	339.38
422.05	411.93
422.24	430.66
422.43	395.55
422.61	372.15
422.80	416.62
422.99	423.64
423.18	402.57
423.37	369.80
423.56	458.74
423.75	435.34
423.94	374.49
424.13	409.59
424.32	425.98
424.50	463.43
424.69	383.85
424.88	458.74
425.07	425.98
425.26	451.72
425.45	400.23
425.64	421.30
425.83	458.74
426.01	507.90
426.20	472.79
426.39	433.00
426.58	400.23
426.77	442.36
426.96	440.02
427.15	402.57
427.33	379.17
427.52	449.38
427.71	451.72
427.90	365.12
428.09	388.53
428.28	437.68
428.46	404.91
428.65	440.02
428.84	341.72
429.03	444.70
429.22	397.89
429.40	407.25
429.59	449.38
429.78	418.96
429.97	433.00
430.16	407.25
430.34	454.06
430.53	386.19
430.72	418.96
430.91	416.62
431.10	393.21
431.28	428.32
431.47	475.13
431.66	430.66
431.85	388.53
432.03	409.59
432.22	404.91
432.41	372.15
432.60	435.34
432.79	369.80
432.97	416.62
433.16	433.00
433.35	388.53
433.54	479.81
433.72	404.91
433.91	407.25
434.10	388.53
434.28	458.74
434.47	381.51
434.66	444.70
434.85	423.64
435.03	428.32
435.22	444.70
435.41	503.22
435.59	425.98
435.78	512.58
435.97	376.83
436.16	463.43
436.34	381.51
436.53	482.15
436.72	493.85
436.90	390.87
437.09	341.72
437.28	421.30
437.46	447.04
437.65	428.32
437.84	388.53
438.02	418.96
438.21	416.62
438.40	372.15
438.58	341.72
438.77	409.59
438.96	447.04
439.14	402.57
439.33	465.77
439.52	440.02
439.70	449.38
439.89	505.56
440.08	386.19
440.26	381.51
440.45	386.19
440.63	472.79
440.82	425.98
441.01	404.91
441.19	456.40
441.38	404.91
441.57	388.53
441.75	463.43
441.94	411.93
442.12	416.62
442.31	463.43
442.50	430.66
442.68	451.72
442.87	444.70
443.05	430.66
443.24	360.44
443.43	409.59
443.61	465.77
443.80	369.80
443.98	402.57
444.17	409.59
444.35	461.09
444.54	514.92
444.73	505.56
444.91	416.62
445.10	367.46
445.28	386.19
445.47	386.19
445.65	433.00
445.84	372.15
446.02	351.08
446.21	404.91
446.39	458.74
446.58	383.85
446.77	388.53
446.95	444.70
447.14	360.44
447.32	397.89
447.51	407.25
447.69	374.49
447.88	393.21
448.06	423.64
448.25	383.85
448.43	346.40
448.62	353.42
448.80	348.74
448.99	440.02
449.17	367.46
449.36	402.57
449.54	388.53
449.73	374.49
449.91	428.32
450.10	435.34
450.28	463.43
450.46	421.30
450.65	505.56
450.83	376.83
451.02	451.72
451.20	407.25
451.39	404.91
451.57	402.57
451.76	393.21
451.94	358.10
452.13	468.11
452.31	437.68
452.49	381.51
452.68	514.92
452.86	440.02
453.05	444.70
453.23	376.83
453.42	376.83
453.60	407.25
453.78	430.66
453.97	423.64
454.15	383.85
454.34	425.98
454.52	402.57
454.70	484.49
454.89	386.19
455.07	390.87
455.26	414.27
455.44	433.00
455.62	421.30
455.81	404.91
455.99	421.30
456.17	379.17
456.36	318.31
456.54	388.53
456.73	383.85
456.91	372.15
457.09	428.32
457.28	470.45
457.46	435.34
457.64	433.00
457.83	451.72
458.01	449.38
458.19	337.04
458.38	425.98
458.56	418.96
458.74	428.32
458.93	390.87
459.11	407.25
459.29	451.72
459.48	367.46
459.66	477.47
459.84	390.87
460.03	528.96
460.21	458.74
460.39	414.27
460.57	362.78
460.76	395.55
460.94	362.78
461.12	440.02
461.31	451.72
461.49	404.91
461.67	449.38
461.85	461.09
462.04	482.15
462.22	833.23
462.40	475.13
462.59	430.66
462.77	430.66
462.95	416.62
463.13	428.32
463.32	472.79
463.50	463.43
463.68	358.10
463.86	465.77
464.05	484.49
464.23	465.77
464.41	390.87
464.59	374.49
464.78	470.45
464.96	353.42
465.14	454.06
465.32	332.36
465.50	372.15
465.69	351.08
465.87	411.93
466.05	411.93
466.23	407.25
466.41	484.49
466.60	414.27
466.78	437.68
466.96	433.00
467.14	468.11
467.32	416.62
467.51	461.09
467.69	444.70
467.87	416.62
468.05	423.64
468.23	493.85
468.41	423.64
468.60	386.19
468.78	423.64
468.96	475.13
469.14	470.45
469.32	402.57
469.50	416.62
469.69	409.59
469.87	327.68
470.05	388.53
470.23	416.62
470.41	374.49
470.59	386.19
470.77	442.36
470.95	409.59
471.14	493.85
471.32	409.59
471.50	456.40
471.68	390.87
471.86	407.25
472.04	395.55
472.22	395.55
472.40	390.87
472.58	456.40
472.77	444.70
472.95	388.53
473.13	519.60
473.31	402.57
473.49	423.64
473.67	386.19
473.85	411.93
474.03	397.89
474.21	390.87
474.39	383.85
474.57	383.85
474.75	407.25
474.93	369.80
475.12	416.62
475.30	440.02
475.48	418.96
475.66	388.53
475.84	379.17
476.02	411.93
476.20	428.32
476.38	519.60
476.56	454.06
476.74	414.27
476.92	454.06
477.10	411.93
477.28	407.25
477.46	479.81
477.64	463.43
477.82	379.17
478.00	430.66
478.18	348.74
478.36	454.06
478.54	393.21
478.72	433.00
478.90	430.66
479.08	393.21
479.26	390.87
479.44	444.70
479.62	388.53
479.80	402.57
479.98	465.77
480.16	454.06
480.34	449.38
480.52	435.34
480.70	533.64
480.88	430.66
481.06	440.02
481.24	411.93
481.41	456.40
481.59	372.15
481.77	428.32
481.95	341.72
482.13	444.70
482.31	365.12
482.49	381.51
482.67	472.79
482.85	535.98
483.03	414.27
483.21	393.21
483.39	379.17
483.57	390.87
483.74	489.17
483.92	449.38
484.10	433.00
484.28	461.09
484.46	447.04
484.64	388.53
484.82	416.62
485.00	454.06
485.18	444.70
485.35	362.78
485.53	411.93
485.71	418.96
485.89	404.91
486.07	472.79
486.25	458.74
486.43	404.91
486.61	346.40
486.78	379.17
486.96	411.93
487.14	423.64
487.32	442.36
487.50	402.57
487.68	369.80
487.85	344.06
488.03	365.12
488.21	512.58
488.39	374.49
488.57	461.09
488.75	376.83
488.92	430.66
489.10	395.55
489.28	433.00
489.46	390.87
489.64	423.64
489.81	470.45
489.99	465.77
490.17	409.59
490.35	430.66
490.53	416.62
490.70	449.38
490.88	458.74
491.06	395.55
491.24	402.57
491.41	400.23
491.59	440.02
491.77	369.80
491.95	430.66
492.13	397.89
492.30	411.93
492.48	376.83
492.66	367.46
492.84	404.91
493.01	404.91
493.19	428.32
493.37	463.43
493.54	372.15
493.72	400.23
493.90	437.68
494.08	386.19
494.25	360.44
494.43	440.02
494.61	433.00
494.79	365.12
494.96	404.91
495.14	486.83
495.32	514.92
495.49	411.93
495.67	353.42
495.85	428.32
496.02	440.02
496.20	376.83
496.38	463.43
496.55	404.91
496.73	477.47
496.91	339.38
497.09	418.96
497.26	472.79
497.44	372.15
497.62	379.17
497.79	433.00
497.97	425.98
498.14	388.53
498.32	388.53
498.50	428.32
498.67	369.80
498.85	437.68
499.03	395.55
499.20	425.98
499.38	374.49
499.56	433.00
499.73	416.62
499.91	430.66
500.08	447.04
500.26	411.93
500.44	369.80
500.61	409.59
500.79	390.87
500.97	388.53
501.14	425.98
501.32	458.74
501.49	491.51
501.67	365.12
501.84	425.98
502.02	344.06
502.20	458.74
502.37	395.55
502.55	388.53
502.72	444.70
502.90	421.30
503.07	449.38
503.25	461.09
503.43	482.15
503.60	435.34
503.78	463.43
503.95	418.96
504.13	372.15
504.30	447.04
504.48	486.83
504.65	442.36
504.83	409.59
505.01	437.68
505.18	390.87
505.36	437.68
505.53	463.43
505.71	358.10
505.88	514.92
506.06	416.62
506.23	407.25
506.41	383.85
506.58	397.89
506.76	388.53
506.93	390.87
507.11	402.57
507.28	491.51
507.46	325.33
507.63	423.64
507.81	402.57
507.98	472.79
508.16	414.27
508.33	470.45
508.50	411.93
508.68	393.21
508.85	444.70
509.03	372.15
509.20	416.62
509.38	444.70
509.55	372.15
509.73	407.25
509.90	477.47
510.08	465.77
510.25	463.43
510.42	418.96
510.60	486.83
510.77	437.68
510.95	430.66
511.12	397.89
511.30	360.44
511.47	407.25
511.64	416.62
511.82	362.78
511.99	393.21
512.17	479.81
512.34	383.85
512.51	353.42
512.69	421.30
512.86	428.32
513.04	416.62
513.21	400.23
513.38	397.89
513.56	482.15
513.73	430.66
513.90	362.78
514.08	440.02
514.25	447.04
514.43	393.21
514.60	369.80
514.77	367.46
514.95	407.25
515.12	372.15
515.29	416.62
515.47	404.91
515.64	334.70
515.81	388.53
515.99	458.74
516.16	435.34
516.33	407.25
516.51	411.93
516.68	358.10
516.85	425.98
517.03	468.11
517.20	372.15
517.37	386.19
517.54	334.70
517.72	428.32
517.89	383.85
518.06	437.68
518.24	449.38
518.41	447.04
518.58	400.23
518.75	425.98
518.93	430.66
519.10	367.46
519.27	414.27
519.45	423.64
519.62	393.21
519.79	435.34
519.96	397.89
520.14	416.62
520.31	454.06
520.48	393.21
520.65	440.02
520.83	500.87
521.00	435.34
521.17	402.57
521.34	447.04
521.52	374.49
521.69	367.46
521.86	327.68
522.03	449.38
522.20	433.00
522.38	442.36
522.55	442.36
522.72	479.81
522.89	414.27
523.07	418.96
523.24	386.19
523.41	334.70
523.58	362.78
523.75	400.23
523.92	421.30
524.10	425.98
524.27	435.34
524.44	374.49
524.61	423.64
524.78	395.55
524.96	454.06
525.13	454.06
525.30	395.55
525.47	421.30
525.64	440.02
525.81	381.51
525.98	402.57
526.16	393.21
526.33	444.70
526.50	414.27
526.67	355.76
526.84	475.13
527.01	346.40
527.18	372.15
527.36	444.70
527.53	376.83
527.70	475.13
527.87	379.17
528.04	386.19
528.21	397.89
528.38	400.23
528.55	421.30
528.72	346.40
528.89	463.43
529.07	388.53
529.24	451.72
529.41	498.53
529.58	470.45
529.75	444.70
529.92	360.44
530.09	510.24
530.26	496.19
530.43	421.30
530.60	418.96
530.77	433.00
530.94	411.93
531.11	393.21
531.28	353.42
531.46	411.93
531.63	447.04
531.80	517.26
531.97	430.66
532.14	421.30
532.31	414.27
532.48	447.04
532.65	409.59
532.82	376.83
532.99	374.49
533.16	409.59
533.33	421.30
533.50	437.68
533.67	365.12
533.84	463.43
534.01	360.44
534.18	482.15
534.35	397.89
534.52	414.27
534.69	430.66
534.86	383.85
535.03	451.72
535.20	477.47
535.37	383.85
535.54	430.66
535.71	517.26
535.88	479.81
536.05	388.53
536.22	454.06
536.38	414.27
536.55	400.23
536.72	475.13
536.89	416.62
537.06	402.57
537.23	449.38
537.40	358.10
537.57	344.06
537.74	463.43
537.91	351.08
538.08	435.34
538.25	430.66
538.42	388.53
538.59	407.25
538.75	440.02
538.92	428.32
539.09	425.98
539.26	395.55
539.43	479.81
539.60	428.32
539.77	367.46
539.94	414.27
540.11	404.91
540.28	489.17
540.44	477.47
540.61	397.89
540.78	404.91
540.95	416.62
541.12	428.32
541.29	440.02
541.46	423.64
541.62	470.45
541.79	444.70
541.96	407.25
542.13	383.85
542.30	379.17
542.47	475.13
542.63	423.64
542.80	475.13
542.97	493.85
543.14	400.23
543.31	505.56
543.48	465.77
543.64	409.59
543.81	440.02
543.98	461.09
544.15	458.74
544.32	407.25
544.48	416.62
544.65	416.62
544.82	437.68
544.99	416.62
545.16	402.57
545.32	411.93
545.49	402.57
545.66	372.15
545.83	390.87
546.00	411.93
546.16	397.89
546.33	416.62
546.50	465.77
546.67	489.17
546.83	353.42
547.00	397.89
547.17	430.66
547.34	454.06
547.50	433.00
547.67	449.38
547.84	444.70
548.00	437.68
548.17	402.57
548.34	402.57
548.51	381.51
548.67	397.89
548.84	416.62
549.01	442.36
549.18	528.96
549.34	430.66
549.51	421.30
549.68	433.00
549.84	414.27
550.01	367.46
550.18	475.13
550.34	472.79
550.51	451.72
550.68	468.11
550.84	411.93
551.01	386.19
551.18	437.68
551.34	362.78
551.51	369.80
551.68	355.76
551.84	409.59
552.01	437.68
552.18	433.00
552.34	440.02
552.51	477.47
552.68	447.04
552.84	442.36
553.01	435.34
553.18	468.11
553.34	458.74
553.51	442.36
553.67	411.93
553.84	442.36
554.01	330.02
554.17	437.68
554.34	414.27
554.51	404.91
554.67	440.02
554.84	425.98
555.00	395.55
555.17	358.10
555.33	472.79
555.50	440.02
555.67	379.17
555.83	428.32
556.00	444.70
556.16	519.60
556.33	451.72
556.50	435.34
556.66	416.62
556.83	428.32
556.99	418.96
557.16	372.15
557.32	421.30
557.49	454.06
557.65	360.44
557.82	411.93
557.98	409.59
558.15	386.19
558.32	395.55
558.48	400.23
558.65	402.57
558.81	463.43
558.98	388.53
559.14	395.55
559.31	414.27
559.47	416.62
559.64	414.27
559.80	491.51
559.97	367.46
560.13	411.93
560.30	416.62
560.46	437.68
560.63	402.57
560.79	472.79
560.96	454.06
561.12	418.96
561.29	416.62
561.45	437.68
561.61	461.09
561.78	493.85
561.94	451.72
562.11	456.40
562.27	461.09
562.44	440.02
562.60	409.59
562.77	437.68
562.93	397.89
563.10	465.77
563.26	362.78
563.42	479.81
563.59	423.64
563.75	435.34
563.92	407.25
564.08	430.66
564.24	416.62
564.41	447.04
564.57	397.89
564.74	409.59
564.90	444.70
565.07	430.66
565.23	421.30
565.39	442.36
565.56	374.49
565.72	318.31
565.88	376.83
566.05	458.74
566.21	442.36
566.38	437.68
566.54	477.47
566.70	365.12
566.87	341.72
567.03	475.13
567.19	425.98
567.36	418.96
567.52	365.12
567.68	428.32
567.85	437.68
568.01	407.25
568.17	367.46
568.34	390.87
568.50	348.74
568.66	402.57
568.83	461.09
568.99	341.72
569.15	447.04
569.32	430.66
569.48	400.23
569.64	397.89
569.81	362.78
569.97	411.93
570.13	358.10
570.30	346.40
570.46	400.23
570.62	454.06
570.78	367.46
570.95	435.34
571.11	475.13
571.27	428.32
571.43	376.83
571.60	468.11
571.76	470.45
571.92	421.30
572.09	330.02
572.25	367.46
572.41	381.51
572.57	395.55
572.74	454.06
572.90	447.04
573.06	418.96
573.22	454.06
573.38	442.36
573.55	454.06
573.71	484.49
573.87	472.79
574.03	393.21
574.20	327.68
574.36	409.59
574.52	463.43
574.68	430.66
574.84	383.85
575.01	425.98
575.17	428.32
575.33	397.89
575.49	421.30
575.65	435.34
575.82	475.13
575.98	390.87
576.14	437.68
576.30	404.91
576.46	379.17
576.62	423.64
576.79	472.79
576.95	409.59
577.11	409.59
577.27	393.21
577.43	514.92
577.59	404.91
577.75	486.83
577.92	423.64
578.08	411.93
578.24	365.12
578.40	397.89
578.56	475.13
578.72	423.64
578.88	388.53
579.04	397.89
579.21	451.72
579.37	437.68
579.53	440.02
579.69	440.02
579.85	395.55
580.01	418.96
580.17	479.81
580.33	440.02
580.49	421.30
580.65	456.40
580.82	411.93
580.98	381.51
581.14	468.11
581.30	393.21
581.46	395.55
581.62	437.68
581.78	475.13
581.94	369.80
582.10	388.53
582.26	346.40
582.42	435.34
582.58	454.06
582.74	456.40
582.90	440.02
583.06	414.27
583.22	475.13
583.38	461.09
583.54	444.70
583.70	383.85
583.86	409.59
584.02	327.68
584.18	404.91
584.34	383.85
584.50	435.34
584.66	437.68
584.82	416.62
584.98	435.34
585.14	442.36
585.30	507.90
585.46	397.89
585.62	428.32
585.78	477.47
585.94	386.19
586.10	390.87
586.26	428.32
586.42	435.34
586.58	447.04
586.74	407.25
586.90	360.44
587.06	435.34
587.22	442.36
587.38	402.57
587.54	411.93
587.70	463.43
587.86	449.38
588.02	414.27
588.18	449.38
588.34	477.47
588.49	444.70
588.65	404.91
588.81	433.00
588.97	360.44
589.13	407.25
589.29	433.00
589.45	475.13
589.61	491.51
589.77	379.17
589.93	500.87
590.08	435.34
590.24	374.49
590.40	400.23
590.56	409.59
590.72	482.15
590.88	433.00
591.04	414.27
591.20	444.70
591.35	456.40
591.51	400.23
591.67	395.55
591.83	411.93
591.99	379.17
592.15	381.51
592.31	447.04
592.46	400.23
592.62	397.89
592.78	425.98
592.94	454.06
593.10	458.74
593.26	440.02
593.41	458.74
593.57	442.36
593.73	454.06
593.89	423.64
594.05	423.64
594.20	468.11
594.36	416.62
594.52	437.68
594.68	449.38
594.84	491.51
594.99	423.64
595.15	442.36
595.31	414.27
595.47	454.06
595.62	355.76
595.78	416.62
595.94	435.34
596.10	383.85
596.25	381.51
596.41	484.49
596.57	393.21
596.73	330.02
596.88	437.68
597.04	444.70
597.20	348.74
597.36	397.89
597.51	442.36
597.67	358.10
597.83	372.15
597.99	433.00
598.14	400.23
598.30	440.02
598.46	407.25
598.61	449.38
598.77	397.89
598.93	367.46
599.09	381.51
599.24	386.19
599.40	435.34
599.56	454.06
599.71	404.91
599.87	425.98
600.03	411.93
600.18	388.53
600.34	407.25
600.50	404.91
600.65	407.25
600.81	454.06
600.97	447.04
601.12	397.89
601.28	430.66
601.44	416.62
601.59	421.30
601.75	505.56
601.91	447.04
602.06	489.17
602.22	440.02
602.37	444.70
602.53	493.85
602.69	444.70
602.84	437.68
603.00	409.59
603.16	451.72
603.31	496.19
603.47	489.17
603.62	437.68
603.78	344.06
603.94	360.44
604.09	365.12
604.25	421.30
604.40	470.45
604.56	454.06
604.71	425.98
604.87	437.68
605.03	383.85
605.18	458.74
605.34	468.11
605.49	461.09
605.65	418.96
605.80	353.42
605.96	367.46
606.12	468.11
606.27	524.28
606.43	400.23
606.58	482.15
606.74	440.02
606.89	425.98
607.05	454.06
607.20	414.27
607.36	400.23
607.51	425.98
607.67	409.59
607.82	447.04
607.98	374.49
608.13	428.32
608.29	390.87
608.44	428.32
608.60	444.70
608.75	395.55
608.91	379.17
609.06	531.30
609.22	449.38
609.37	411.93
609.53	451.72
609.68	411.93
609.84	334.70
609.99	454.06
610.15	416.62
