SpectraSuite Data File
++++++++++++++++++++++++++++++++++++
Date: Fri Oct 25 12:10:20 EDT 2013
User: price-jones
Dark Spectrum Present: No
Reference Spectrum Present: No
Number of Sampled Component Spectra: 1
Spectrometers: USB2+H05261
Integration Time (usec): 100000 (USB2+H05261)
Spectra Averaged: 1 (USB2+H05261)
Boxcar Smoothing: 0 (USB2+H05261)
Correct for Electrical Dark: No (USB2+H05261)
Strobe/Lamp Enabled: No (USB2+H05261)
Correct for Detector Non-linearity: No (USB2+H05261)
Correct for Stray Light: No (USB2+H05261)
Number of Pixels in Processed Spectrum: 2048
>>>>>Begin Processed Spectral Data<<<<<
365.73	337.04
365.92	337.04
366.12	337.04
366.32	325.33
366.52	220.01
366.72	257.46
366.91	203.63
367.11	313.63
367.31	236.39
367.51	138.09
367.70	191.92
367.90	313.63
368.10	297.25
368.30	227.03
368.49	245.76
368.69	278.52
368.89	252.78
369.09	196.60
369.28	271.50
369.48	215.33
369.68	348.74
369.87	259.80
370.07	294.91
370.27	248.10
370.47	283.20
370.66	257.46
370.86	304.27
371.06	484.49
371.25	374.49
371.45	374.49
371.65	348.74
371.84	386.19
372.04	358.10
372.24	330.02
372.44	376.83
372.63	442.36
372.83	404.91
373.03	360.44
373.22	397.89
373.42	442.36
373.62	358.10
373.81	461.09
374.01	458.74
374.21	372.15
374.40	374.49
374.60	393.21
374.79	365.12
374.99	404.91
375.19	440.02
375.38	486.83
375.58	376.83
375.78	393.21
375.97	447.04
376.17	458.74
376.37	379.17
376.56	411.93
376.76	484.49
376.95	381.51
377.15	414.27
377.35	374.49
377.54	337.04
377.74	400.23
377.93	353.42
378.13	383.85
378.33	411.93
378.52	421.30
378.72	416.62
378.91	433.00
379.11	374.49
379.31	376.83
379.50	308.95
379.70	407.25
379.89	433.00
380.09	383.85
380.28	447.04
380.48	423.64
380.68	409.59
380.87	383.85
381.07	402.57
381.26	475.13
381.46	365.12
381.65	428.32
381.85	344.06
382.04	418.96
382.24	381.51
382.43	337.04
382.63	470.45
382.83	440.02
383.02	372.15
383.22	381.51
383.41	411.93
383.61	421.30
383.80	409.59
384.00	404.91
384.19	376.83
384.39	407.25
384.58	411.93
384.78	397.89
384.97	362.78
385.17	425.98
385.36	425.98
385.56	433.00
385.75	381.51
385.95	475.13
386.14	379.17
386.34	433.00
386.53	362.78
386.72	386.19
386.92	442.36
387.11	423.64
387.31	414.27
387.50	404.91
387.70	393.21
387.89	416.62
388.09	458.74
388.28	379.17
388.48	374.49
388.67	421.30
388.86	374.49
389.06	428.32
389.25	407.25
389.45	409.59
389.64	465.77
389.84	451.72
390.03	484.49
390.22	355.76
390.42	435.34
390.61	425.98
390.81	397.89
391.00	358.10
391.19	414.27
391.39	404.91
391.58	348.74
391.78	404.91
391.97	414.27
392.16	330.02
392.36	362.78
392.55	365.12
392.75	400.23
392.94	315.97
393.13	456.40
393.33	341.72
393.52	423.64
393.71	484.49
393.91	381.51
394.10	425.98
394.29	344.06
394.49	411.93
394.68	393.21
394.88	318.31
395.07	423.64
395.26	381.51
395.46	425.98
395.65	404.91
395.84	428.32
396.04	524.28
396.23	386.19
396.42	402.57
396.62	351.08
396.81	360.44
397.00	472.79
397.19	376.83
397.39	379.17
397.58	411.93
397.77	465.77
397.97	400.23
398.16	411.93
398.35	400.23
398.55	402.57
398.74	264.48
398.93	465.77
399.12	411.93
399.32	433.00
399.51	383.85
399.70	397.89
399.90	379.17
400.09	367.46
400.28	428.32
400.47	344.06
400.67	376.83
400.86	461.09
401.05	393.21
401.24	437.68
401.44	444.70
401.63	397.89
401.82	383.85
402.01	407.25
402.21	390.87
402.40	337.04
402.59	325.33
402.78	339.38
402.97	383.85
403.17	411.93
403.36	411.93
403.55	435.34
403.74	404.91
403.93	404.91
404.13	458.74
404.32	442.36
404.51	348.74
404.70	409.59
404.89	425.98
405.09	407.25
405.28	388.53
405.47	337.04
405.66	374.49
405.85	489.17
406.05	451.72
406.24	421.30
406.43	411.93
406.62	456.40
406.81	456.40
407.00	372.15
407.20	409.59
407.39	372.15
407.58	344.06
407.77	327.68
407.96	428.32
408.15	395.55
408.34	369.80
408.54	397.89
408.73	454.06
408.92	367.46
409.11	435.34
409.30	433.00
409.49	395.55
409.68	433.00
409.87	381.51
410.07	416.62
410.26	411.93
410.45	374.49
410.64	362.78
410.83	484.49
411.02	313.63
411.21	458.74
411.40	433.00
411.59	430.66
411.78	407.25
411.98	376.83
412.17	400.23
412.36	337.04
412.55	365.12
412.74	411.93
412.93	442.36
413.12	393.21
413.31	404.91
413.50	379.17
413.69	381.51
413.88	365.12
414.07	421.30
414.26	397.89
414.45	435.34
414.64	374.49
414.83	442.36
415.02	458.74
415.22	360.44
415.41	472.79
415.60	444.70
415.79	393.21
415.98	376.83
416.17	393.21
416.36	423.64
416.55	435.34
416.74	418.96
416.93	409.59
417.12	393.21
417.31	425.98
417.50	435.34
417.69	498.53
417.88	430.66
418.07	421.30
418.26	421.30
418.45	379.17
418.64	386.19
418.83	500.87
419.02	470.45
419.21	376.83
419.39	386.19
419.58	383.85
419.77	435.34
419.96	386.19
420.15	442.36
420.34	435.34
420.53	414.27
420.72	433.00
420.91	397.89
421.10	409.59
421.29	407.25
421.48	437.68
421.67	409.59
421.86	444.70
422.05	454.06
422.24	407.25
422.43	456.40
422.61	337.04
422.80	454.06
422.99	369.80
423.18	393.21
423.37	517.26
423.56	416.62
423.75	491.51
423.94	367.46
424.13	369.80
424.32	449.38
424.50	482.15
424.69	428.32
424.88	386.19
425.07	428.32
425.26	440.02
425.45	425.98
425.64	449.38
425.83	416.62
426.01	475.13
426.20	463.43
426.39	421.30
426.58	390.87
426.77	411.93
426.96	517.26
427.15	435.34
427.33	400.23
427.52	411.93
427.71	402.57
427.90	465.77
428.09	400.23
428.28	425.98
428.46	381.51
428.65	411.93
428.84	395.55
429.03	447.04
429.22	362.78
429.40	397.89
429.59	416.62
429.78	444.70
429.97	407.25
430.16	414.27
430.34	447.04
430.53	444.70
430.72	411.93
430.91	463.43
431.10	400.23
431.28	418.96
431.47	383.85
431.66	440.02
431.85	444.70
432.03	456.40
432.22	442.36
432.41	376.83
432.60	486.83
432.79	402.57
432.97	355.76
433.16	430.66
433.35	372.15
433.54	407.25
433.72	440.02
433.91	388.53
434.10	376.83
434.28	447.04
434.47	444.70
434.66	428.32
434.85	386.19
435.03	360.44
435.22	440.02
435.41	428.32
435.59	447.04
435.78	374.49
435.97	479.81
436.16	402.57
436.34	367.46
436.53	365.12
436.72	416.62
436.90	404.91
437.09	479.81
437.28	404.91
437.46	461.09
437.65	421.30
437.84	433.00
438.02	395.55
438.21	498.53
438.40	388.53
438.58	404.91
438.77	400.23
438.96	437.68
439.14	376.83
439.33	409.59
439.52	486.83
439.70	411.93
439.89	393.21
440.08	447.04
440.26	379.17
440.45	423.64
440.63	428.32
440.82	449.38
441.01	482.15
441.19	395.55
441.38	407.25
441.57	423.64
441.75	479.81
441.94	395.55
442.12	461.09
442.31	395.55
442.50	425.98
442.68	374.49
442.87	376.83
443.05	388.53
443.24	402.57
443.43	393.21
443.61	395.55
443.80	351.08
443.98	390.87
444.17	433.00
444.35	400.23
444.54	430.66
444.73	386.19
444.91	463.43
445.10	423.64
445.28	430.66
445.47	365.12
445.65	395.55
445.84	367.46
446.02	379.17
446.21	433.00
446.39	341.72
446.58	414.27
446.77	379.17
446.95	442.36
447.14	404.91
447.32	442.36
447.51	416.62
447.69	411.93
447.88	313.63
448.06	397.89
448.25	444.70
448.43	465.77
448.62	383.85
448.80	418.96
448.99	440.02
449.17	404.91
449.36	322.99
449.54	407.25
449.73	421.30
449.91	386.19
450.10	402.57
450.28	430.66
450.46	451.72
450.65	437.68
450.83	327.68
451.02	327.68
451.20	388.53
451.39	407.25
451.57	390.87
451.76	416.62
451.94	400.23
452.13	386.19
452.31	423.64
452.49	430.66
452.68	365.12
452.86	379.17
453.05	484.49
453.23	416.62
453.42	440.02
453.60	393.21
453.78	376.83
453.97	355.76
454.15	414.27
454.34	376.83
454.52	402.57
454.70	479.81
454.89	416.62
455.07	386.19
455.26	386.19
455.44	442.36
455.62	407.25
455.81	423.64
455.99	423.64
456.17	451.72
456.36	447.04
456.54	491.51
456.73	381.51
456.91	374.49
457.09	465.77
457.28	491.51
457.46	482.15
457.64	400.23
457.83	407.25
458.01	416.62
458.19	379.17
458.38	447.04
458.56	421.30
458.74	397.89
458.93	423.64
459.11	381.51
459.29	353.42
459.48	463.43
459.66	311.29
459.84	451.72
460.03	477.47
460.21	437.68
460.39	386.19
460.57	362.78
460.76	437.68
460.94	414.27
461.12	472.79
461.31	454.06
461.49	362.78
461.67	409.59
461.85	402.57
462.04	372.15
462.22	760.67
462.40	418.96
462.59	425.98
462.77	362.78
462.95	423.64
463.13	440.02
463.32	400.23
463.50	411.93
463.68	449.38
463.86	362.78
464.05	442.36
464.23	440.02
464.41	407.25
464.59	456.40
464.78	388.53
464.96	409.59
465.14	332.36
465.32	414.27
465.50	428.32
465.69	477.47
465.87	407.25
466.05	374.49
466.23	388.53
466.41	425.98
466.60	433.00
466.78	388.53
466.96	414.27
467.14	383.85
467.32	386.19
467.51	437.68
467.69	411.93
467.87	456.40
468.05	430.66
468.23	411.93
468.41	493.85
468.60	425.98
468.78	437.68
468.96	451.72
469.14	362.78
469.32	454.06
469.50	327.68
469.69	383.85
469.87	409.59
470.05	444.70
470.23	372.15
470.41	428.32
470.59	451.72
470.77	388.53
470.95	402.57
471.14	491.51
471.32	461.09
471.50	463.43
471.68	409.59
471.86	449.38
472.04	435.34
472.22	360.44
472.40	414.27
472.58	400.23
472.77	400.23
472.95	397.89
473.13	393.21
473.31	393.21
473.49	318.31
473.67	416.62
473.85	416.62
474.03	456.40
474.21	397.89
474.39	414.27
474.57	428.32
474.75	454.06
474.93	435.34
475.12	381.51
475.30	477.47
475.48	386.19
475.66	388.53
475.84	369.80
476.02	414.27
476.20	402.57
476.38	332.36
476.56	468.11
476.74	554.71
476.92	423.64
477.10	351.08
477.28	400.23
477.46	365.12
477.64	397.89
477.82	435.34
478.00	423.64
478.18	442.36
478.36	409.59
478.54	402.57
478.72	409.59
478.90	383.85
479.08	461.09
479.26	379.17
479.44	451.72
479.62	330.02
479.80	409.59
479.98	411.93
480.16	379.17
480.34	416.62
480.52	463.43
480.70	470.45
480.88	393.21
481.06	400.23
481.24	442.36
481.41	327.68
481.59	433.00
481.77	409.59
481.95	325.33
482.13	404.91
482.31	400.23
482.49	409.59
482.67	465.77
482.85	379.17
483.03	423.64
483.21	411.93
483.39	433.00
483.57	428.32
483.74	367.46
483.92	475.13
484.10	407.25
484.28	449.38
484.46	468.11
484.64	409.59
484.82	465.77
485.00	369.80
485.18	435.34
485.35	407.25
485.53	395.55
485.71	451.72
485.89	358.10
486.07	430.66
486.25	433.00
486.43	444.70
486.61	388.53
486.78	376.83
486.96	407.25
487.14	430.66
487.32	447.04
487.50	425.98
487.68	421.30
487.85	341.72
488.03	407.25
488.21	433.00
488.39	435.34
488.57	444.70
488.75	374.49
488.92	585.13
489.10	463.43
489.28	468.11
489.46	442.36
489.64	421.30
489.81	411.93
489.99	447.04
490.17	393.21
490.35	454.06
490.53	428.32
490.70	440.02
490.88	348.74
491.06	379.17
491.24	447.04
491.41	519.60
491.59	400.23
491.77	411.93
491.95	344.06
492.13	404.91
492.30	374.49
492.48	386.19
492.66	393.21
492.84	444.70
493.01	437.68
493.19	519.60
493.37	451.72
493.54	491.51
493.72	421.30
493.90	383.85
494.08	376.83
494.25	449.38
494.43	358.10
494.61	360.44
494.79	428.32
494.96	369.80
495.14	468.11
495.32	442.36
495.49	435.34
495.67	393.21
495.85	435.34
496.02	416.62
496.20	402.57
496.38	369.80
496.55	397.89
496.73	421.30
496.91	374.49
497.09	447.04
497.26	437.68
497.44	447.04
497.62	435.34
497.79	388.53
497.97	461.09
498.14	451.72
498.32	395.55
498.50	344.06
498.67	418.96
498.85	404.91
499.03	367.46
499.20	423.64
499.38	386.19
499.56	374.49
499.73	414.27
499.91	472.79
500.08	423.64
500.26	372.15
500.44	435.34
500.61	393.21
500.79	355.76
500.97	442.36
501.14	456.40
501.32	433.00
501.49	397.89
501.67	390.87
501.84	435.34
502.02	407.25
502.20	503.22
502.37	383.85
502.55	437.68
502.72	355.76
502.90	393.21
503.07	440.02
503.25	416.62
503.43	383.85
503.60	383.85
503.78	444.70
503.95	400.23
504.13	414.27
504.30	402.57
504.48	421.30
504.65	376.83
504.83	418.96
505.01	402.57
505.18	498.53
505.36	414.27
505.53	374.49
505.71	376.83
505.88	449.38
506.06	486.83
506.23	423.64
506.41	315.97
506.58	414.27
506.76	390.87
506.93	407.25
507.11	482.15
507.28	337.04
507.46	379.17
507.63	376.83
507.81	400.23
507.98	372.15
508.16	458.74
508.33	425.98
508.50	437.68
508.68	374.49
508.85	414.27
509.03	374.49
509.20	421.30
509.38	444.70
509.55	435.34
509.73	393.21
509.90	493.85
510.08	362.78
510.25	390.87
510.42	322.99
510.60	493.85
510.77	489.17
510.95	444.70
511.12	367.46
511.30	447.04
511.47	430.66
511.64	440.02
511.82	379.17
511.99	369.80
512.17	435.34
512.34	411.93
512.51	409.59
512.69	433.00
512.86	528.96
513.04	383.85
513.21	477.47
513.38	430.66
513.56	458.74
513.73	444.70
513.90	393.21
514.08	440.02
514.25	365.12
514.43	402.57
514.60	337.04
514.77	383.85
514.95	440.02
515.12	409.59
515.29	430.66
515.47	435.34
515.64	362.78
515.81	402.57
515.99	379.17
516.16	437.68
516.33	416.62
516.51	437.68
516.68	430.66
516.85	407.25
517.03	433.00
517.20	388.53
517.37	428.32
517.54	395.55
517.72	390.87
517.89	386.19
518.06	435.34
518.24	344.06
518.41	404.91
518.58	447.04
518.75	407.25
518.93	386.19
519.10	428.32
519.27	430.66
519.45	437.68
519.62	395.55
519.79	428.32
519.96	519.60
520.14	465.77
520.31	463.43
520.48	458.74
520.65	372.15
520.83	428.32
521.00	423.64
521.17	388.53
521.34	365.12
521.52	423.64
521.69	348.74
521.86	362.78
522.03	414.27
522.20	449.38
522.38	414.27
522.55	430.66
522.72	444.70
522.89	400.23
523.07	451.72
523.24	430.66
523.41	435.34
523.58	404.91
523.75	449.38
523.92	463.43
524.10	449.38
524.27	456.40
524.44	484.49
524.61	442.36
524.78	397.89
524.96	416.62
525.13	461.09
525.30	397.89
525.47	372.15
525.64	379.17
525.81	369.80
525.98	346.40
526.16	400.23
526.33	393.21
526.50	402.57
526.67	388.53
526.84	407.25
527.01	430.66
527.18	351.08
527.36	390.87
527.53	407.25
527.70	463.43
527.87	458.74
528.04	447.04
528.21	388.53
528.38	421.30
528.55	449.38
528.72	416.62
528.89	472.79
529.07	416.62
529.24	428.32
529.41	505.56
529.58	458.74
529.75	414.27
529.92	433.00
530.09	355.76
530.26	451.72
530.43	428.32
530.60	463.43
530.77	468.11
530.94	393.21
531.11	376.83
531.28	383.85
531.46	418.96
531.63	437.68
531.80	414.27
531.97	423.64
532.14	416.62
532.31	421.30
532.48	362.78
532.65	437.68
532.82	418.96
532.99	386.19
533.16	388.53
533.33	393.21
533.50	428.32
533.67	376.83
533.84	454.06
534.01	451.72
534.18	400.23
534.35	433.00
534.52	362.78
534.69	461.09
534.86	421.30
535.03	414.27
535.20	423.64
535.37	409.59
535.54	428.32
535.71	430.66
535.88	397.89
536.05	362.78
536.22	395.55
536.38	383.85
536.55	369.80
536.72	458.74
536.89	430.66
537.06	437.68
537.23	465.77
537.40	407.25
537.57	458.74
537.74	521.94
537.91	395.55
538.08	437.68
538.25	388.53
538.42	428.32
538.59	395.55
538.75	395.55
538.92	461.09
539.09	388.53
539.26	475.13
539.43	421.30
539.60	353.42
539.77	416.62
539.94	444.70
540.11	400.23
540.28	416.62
540.44	395.55
540.61	365.12
540.78	397.89
540.95	414.27
541.12	390.87
541.29	393.21
541.46	486.83
541.62	341.72
541.79	430.66
541.96	435.34
542.13	360.44
542.30	379.17
542.47	482.15
542.63	458.74
542.80	400.23
542.97	468.11
543.14	379.17
543.31	395.55
543.48	500.87
543.64	451.72
543.81	383.85
543.98	367.46
544.15	381.51
544.32	308.95
544.48	414.27
544.65	493.85
544.82	491.51
544.99	437.68
545.16	390.87
545.32	414.27
545.49	447.04
545.66	468.11
545.83	353.42
546.00	390.87
546.16	451.72
546.33	458.74
546.50	472.79
546.67	395.55
546.83	407.25
547.00	521.94
547.17	400.23
547.34	447.04
547.50	348.74
547.67	430.66
547.84	379.17
548.00	470.45
548.17	423.64
548.34	507.90
548.51	496.19
548.67	386.19
548.84	444.70
549.01	404.91
549.18	444.70
549.34	465.77
549.51	379.17
549.68	418.96
549.84	423.64
550.01	400.23
550.18	517.26
550.34	468.11
550.51	423.64
550.68	463.43
550.84	407.25
551.01	458.74
551.18	421.30
551.34	407.25
551.51	404.91
551.68	315.97
551.84	425.98
552.01	407.25
552.18	440.02
552.34	393.21
552.51	451.72
552.68	362.78
552.84	372.15
553.01	433.00
553.18	430.66
553.34	454.06
553.51	479.81
553.67	339.38
553.84	465.77
554.01	416.62
554.17	440.02
554.34	407.25
554.51	447.04
554.67	430.66
554.84	381.51
555.00	498.53
555.17	327.68
555.33	372.15
555.50	428.32
555.67	425.98
555.83	376.83
556.00	393.21
556.16	533.64
556.33	470.45
556.50	397.89
556.66	409.59
556.83	418.96
556.99	400.23
557.16	472.79
557.32	437.68
557.49	400.23
557.65	404.91
557.82	472.79
557.98	409.59
558.15	447.04
558.32	484.49
558.48	461.09
558.65	454.06
558.81	451.72
558.98	395.55
559.14	393.21
559.31	414.27
559.47	409.59
559.64	428.32
559.80	411.93
559.97	355.76
560.13	404.91
560.30	395.55
560.46	465.77
560.63	437.68
560.79	395.55
560.96	440.02
561.12	379.17
561.29	409.59
561.45	423.64
561.61	447.04
561.78	500.87
561.94	388.53
562.11	374.49
562.27	404.91
562.44	360.44
562.60	444.70
562.77	402.57
562.93	458.74
563.10	397.89
563.26	465.77
563.42	416.62
563.59	430.66
563.75	386.19
563.92	421.30
564.08	414.27
564.24	442.36
564.41	440.02
564.57	440.02
564.74	353.42
564.90	395.55
565.07	428.32
565.23	447.04
565.39	393.21
565.56	393.21
565.72	435.34
565.88	442.36
566.05	376.83
566.21	379.17
566.38	440.02
566.54	404.91
566.70	393.21
566.87	428.32
567.03	379.17
567.19	393.21
567.36	402.57
567.52	397.89
567.68	454.06
567.85	409.59
568.01	414.27
568.17	379.17
568.34	409.59
568.50	470.45
568.66	425.98
568.83	519.60
568.99	388.53
569.15	440.02
569.32	386.19
569.48	442.36
569.64	369.80
569.81	411.93
569.97	444.70
570.13	430.66
570.30	418.96
570.46	374.49
570.62	444.70
570.78	381.51
570.95	449.38
571.11	463.43
571.27	390.87
571.43	393.21
571.60	447.04
571.76	435.34
571.92	451.72
572.09	425.98
572.25	404.91
572.41	477.47
572.57	372.15
572.74	465.77
572.90	461.09
573.06	442.36
573.22	472.79
573.38	411.93
573.55	472.79
573.71	489.17
573.87	463.43
574.03	503.22
574.20	440.02
574.36	395.55
574.52	430.66
574.68	393.21
574.84	416.62
575.01	404.91
575.17	416.62
575.33	402.57
575.49	339.38
575.65	491.51
575.82	414.27
575.98	395.55
576.14	465.77
576.30	449.38
576.46	456.40
576.62	447.04
576.79	376.83
576.95	461.09
577.11	428.32
577.27	414.27
577.43	449.38
577.59	423.64
577.75	421.30
577.92	465.77
578.08	411.93
578.24	409.59
578.40	435.34
578.56	395.55
578.72	465.77
578.88	475.13
579.04	409.59
579.21	411.93
579.37	461.09
579.53	404.91
579.69	416.62
579.85	442.36
580.01	358.10
580.17	367.46
580.33	381.51
580.49	447.04
580.65	423.64
580.82	388.53
580.98	421.30
581.14	400.23
581.30	395.55
581.46	404.91
581.62	386.19
581.78	447.04
581.94	484.49
582.10	418.96
582.26	428.32
582.42	435.34
582.58	416.62
582.74	383.85
582.90	374.49
583.06	430.66
583.22	425.98
583.38	379.17
583.54	369.80
583.70	425.98
583.86	397.89
584.02	400.23
584.18	435.34
584.34	397.89
584.50	409.59
584.66	416.62
584.82	369.80
584.98	390.87
585.14	358.10
585.30	435.34
585.46	358.10
585.62	423.64
585.78	463.43
585.94	475.13
586.10	360.44
586.26	395.55
586.42	458.74
586.58	456.40
586.74	409.59
586.90	458.74
587.06	435.34
587.22	442.36
587.38	409.59
587.54	358.10
587.70	421.30
587.86	351.08
588.02	367.46
588.18	435.34
588.34	369.80
588.49	379.17
588.65	376.83
588.81	411.93
588.97	386.19
589.13	376.83
589.29	428.32
589.45	475.13
589.61	433.00
589.77	447.04
589.93	484.49
590.08	388.53
590.24	444.70
590.40	437.68
590.56	362.78
590.72	437.68
590.88	369.80
591.04	407.25
591.20	381.51
591.35	468.11
591.51	433.00
591.67	428.32
591.83	390.87
591.99	456.40
592.15	475.13
592.31	458.74
592.46	461.09
592.62	402.57
592.78	374.49
592.94	334.70
593.10	411.93
593.26	360.44
593.41	376.83
593.57	416.62
593.73	353.42
593.89	444.70
594.05	430.66
594.20	383.85
594.36	430.66
594.52	449.38
594.68	390.87
594.84	404.91
594.99	409.59
595.15	311.29
595.31	428.32
595.47	449.38
595.62	428.32
595.78	332.36
595.94	411.93
596.10	475.13
596.25	393.21
596.41	400.23
596.57	393.21
596.73	353.42
596.88	386.19
597.04	379.17
597.20	376.83
597.36	369.80
597.51	346.40
597.67	402.57
597.83	512.58
597.99	440.02
598.14	414.27
598.30	449.38
598.46	393.21
598.61	442.36
598.77	421.30
598.93	386.19
599.09	423.64
599.24	421.30
599.40	468.11
599.56	416.62
599.71	440.02
599.87	318.31
600.03	437.68
600.18	442.36
600.34	376.83
600.50	390.87
600.65	367.46
600.81	463.43
600.97	365.12
601.12	369.80
601.28	393.21
601.44	463.43
601.59	372.15
601.75	402.57
601.91	397.89
602.06	411.93
602.22	470.45
602.37	414.27
602.53	425.98
602.69	409.59
602.84	337.04
603.00	414.27
603.16	435.34
603.31	437.68
603.47	479.81
603.62	379.17
603.78	390.87
603.94	484.49
604.09	379.17
604.25	383.85
604.40	458.74
604.56	463.43
604.71	325.33
604.87	390.87
605.03	428.32
605.18	447.04
605.34	437.68
605.49	444.70
605.65	418.96
605.80	435.34
605.96	433.00
606.12	374.49
606.27	416.62
606.43	437.68
606.58	463.43
606.74	379.17
606.89	409.59
607.05	372.15
607.20	463.43
607.36	451.72
607.51	379.17
607.67	428.32
607.82	465.77
607.98	482.15
608.13	388.53
608.29	449.38
608.44	409.59
608.60	400.23
608.75	404.91
608.91	430.66
609.06	397.89
609.22	477.47
609.37	463.43
609.53	381.51
609.68	355.76
609.84	337.04
609.99	365.12
610.15	440.02
