SpectraSuite Data File
++++++++++++++++++++++++++++++++++++
Date: Fri Oct 25 12:11:43 EDT 2013
User: price-jones
Dark Spectrum Present: No
Reference Spectrum Present: No
Number of Sampled Component Spectra: 1
Spectrometers: USB2+H05261
Integration Time (usec): 100000 (USB2+H05261)
Spectra Averaged: 1 (USB2+H05261)
Boxcar Smoothing: 0 (USB2+H05261)
Correct for Electrical Dark: No (USB2+H05261)
Strobe/Lamp Enabled: No (USB2+H05261)
Correct for Detector Non-linearity: No (USB2+H05261)
Correct for Stray Light: No (USB2+H05261)
Number of Pixels in Processed Spectrum: 2048
>>>>>Begin Processed Spectral Data<<<<<
365.73	348.74
365.92	348.74
366.12	348.74
366.32	224.69
366.52	229.37
366.72	231.71
366.91	285.55
367.11	248.10
367.31	273.84
367.51	287.89
367.70	205.97
367.90	304.27
368.10	156.82
368.30	212.99
368.49	252.78
368.69	287.89
368.89	142.77
369.09	304.27
369.28	250.44
369.48	271.50
369.68	276.18
369.87	346.40
370.07	264.48
370.27	344.06
370.47	339.38
370.66	311.29
370.86	306.61
371.06	379.17
371.25	365.12
371.45	421.30
371.65	351.08
371.84	330.02
372.04	332.36
372.24	423.64
372.44	442.36
372.63	402.57
372.83	437.68
373.03	461.09
373.22	409.59
373.42	451.72
373.62	383.85
373.81	416.62
374.01	449.38
374.21	416.62
374.40	407.25
374.60	393.21
374.79	435.34
374.99	425.98
375.19	423.64
375.38	407.25
375.58	376.83
375.78	362.78
375.97	470.45
376.17	482.15
376.37	418.96
376.56	444.70
376.76	388.53
376.95	395.55
377.15	369.80
377.35	463.43
377.54	407.25
377.74	486.83
377.93	409.59
378.13	437.68
378.33	400.23
378.52	416.62
378.72	404.91
378.91	409.59
379.11	407.25
379.31	386.19
379.50	388.53
379.70	428.32
379.89	442.36
380.09	344.06
380.28	388.53
380.48	416.62
380.68	418.96
380.87	355.76
381.07	369.80
381.26	440.02
381.46	383.85
381.65	437.68
381.85	425.98
382.04	404.91
382.24	435.34
382.43	397.89
382.63	430.66
382.83	372.15
383.02	411.93
383.22	430.66
383.41	376.83
383.61	435.34
383.80	507.90
384.00	397.89
384.19	351.08
384.39	430.66
384.58	418.96
384.78	390.87
384.97	449.38
385.17	444.70
385.36	437.68
385.56	395.55
385.75	379.17
385.95	503.22
386.14	449.38
386.34	423.64
386.53	454.06
386.72	355.76
386.92	421.30
387.11	416.62
387.31	458.74
387.50	374.49
387.70	423.64
387.89	358.10
388.09	325.33
388.28	386.19
388.48	449.38
388.67	362.78
388.86	435.34
389.06	365.12
389.25	351.08
389.45	416.62
389.64	318.31
389.84	369.80
390.03	383.85
390.22	348.74
390.42	425.98
390.61	376.83
390.81	390.87
391.00	470.45
391.19	447.04
391.39	374.49
391.58	411.93
391.78	327.68
391.97	374.49
392.16	390.87
392.36	428.32
392.55	433.00
392.75	451.72
392.94	360.44
393.13	482.15
393.33	332.36
393.52	395.55
393.71	489.17
393.91	388.53
394.10	383.85
394.29	437.68
394.49	425.98
394.68	393.21
394.88	465.77
395.07	414.27
395.26	449.38
395.46	348.74
395.65	444.70
395.84	414.27
396.04	468.11
396.23	461.09
396.42	411.93
396.62	486.83
396.81	379.17
397.00	390.87
397.19	479.81
397.39	379.17
397.58	425.98
397.77	435.34
397.97	360.44
398.16	362.78
398.35	372.15
398.55	451.72
398.74	407.25
398.93	503.22
399.12	451.72
399.32	416.62
399.51	390.87
399.70	468.11
399.90	397.89
400.09	461.09
400.28	395.55
400.47	388.53
400.67	418.96
400.86	451.72
401.05	418.96
401.24	425.98
401.44	437.68
401.63	353.42
401.82	437.68
402.01	440.02
402.21	348.74
402.40	428.32
402.59	400.23
402.78	379.17
402.97	423.64
403.17	383.85
403.36	428.32
403.55	451.72
403.74	430.66
403.93	475.13
404.13	475.13
404.32	344.06
404.51	425.98
404.70	390.87
404.89	390.87
405.09	421.30
405.28	477.47
405.47	409.59
405.66	414.27
405.85	411.93
406.05	449.38
406.24	304.27
406.43	404.91
406.62	451.72
406.81	463.43
407.00	451.72
407.20	411.93
407.39	414.27
407.58	414.27
407.77	449.38
407.96	383.85
408.15	442.36
408.34	456.40
408.54	348.74
408.73	388.53
408.92	393.21
409.11	365.12
409.30	393.21
409.49	435.34
409.68	433.00
409.87	442.36
410.07	367.46
410.26	428.32
410.45	367.46
410.64	360.44
410.83	395.55
411.02	381.51
411.21	372.15
411.40	444.70
411.59	346.40
411.78	372.15
411.98	414.27
412.17	425.98
412.36	409.59
412.55	383.85
412.74	407.25
412.93	449.38
413.12	472.79
413.31	360.44
413.50	353.42
413.69	447.04
413.88	409.59
414.07	451.72
414.26	386.19
414.45	454.06
414.64	444.70
414.83	416.62
415.02	435.34
415.22	440.02
415.41	374.49
415.60	400.23
415.79	491.51
415.98	451.72
416.17	365.12
416.36	447.04
416.55	463.43
416.74	444.70
416.93	444.70
417.12	425.98
417.31	444.70
417.50	463.43
417.69	393.21
417.88	449.38
418.07	423.64
418.26	376.83
418.45	365.12
418.64	409.59
418.83	388.53
419.02	444.70
419.21	355.76
419.39	437.68
419.58	447.04
419.77	407.25
419.96	423.64
420.15	465.77
420.34	365.12
420.53	442.36
420.72	484.49
420.91	400.23
421.10	355.76
421.29	404.91
421.48	447.04
421.67	404.91
421.86	372.15
422.05	442.36
422.24	430.66
422.43	348.74
422.61	355.76
422.80	430.66
422.99	402.57
423.18	369.80
423.37	430.66
423.56	435.34
423.75	454.06
423.94	404.91
424.13	416.62
424.32	507.90
424.50	367.46
424.69	379.17
424.88	482.15
425.07	472.79
425.26	414.27
425.45	435.34
425.64	407.25
425.83	449.38
426.01	360.44
426.20	454.06
426.39	400.23
426.58	425.98
426.77	355.76
426.96	442.36
427.15	397.89
427.33	313.63
427.52	425.98
427.71	409.59
427.90	463.43
428.09	451.72
428.28	440.02
428.46	418.96
428.65	451.72
428.84	360.44
429.03	454.06
429.22	418.96
429.40	414.27
429.59	456.40
429.78	442.36
429.97	447.04
430.16	339.38
430.34	400.23
430.53	358.10
430.72	388.53
430.91	395.55
431.10	409.59
431.28	355.76
431.47	400.23
431.66	400.23
431.85	400.23
432.03	428.32
432.22	440.02
432.41	369.80
432.60	386.19
432.79	376.83
432.97	341.72
433.16	351.08
433.35	421.30
433.54	414.27
433.72	360.44
433.91	442.36
434.10	449.38
434.28	407.25
434.47	397.89
434.66	440.02
434.85	334.70
435.03	400.23
435.22	475.13
435.41	362.78
435.59	451.72
435.78	425.98
435.97	404.91
436.16	402.57
436.34	416.62
436.53	437.68
436.72	517.26
436.90	444.70
437.09	414.27
437.28	367.46
437.46	339.38
437.65	461.09
437.84	425.98
438.02	428.32
438.21	411.93
438.40	402.57
438.58	409.59
438.77	444.70
438.96	444.70
439.14	454.06
439.33	472.79
439.52	393.21
439.70	400.23
439.89	430.66
440.08	447.04
440.26	407.25
440.45	407.25
440.63	423.64
440.82	449.38
441.01	390.87
441.19	430.66
441.38	451.72
441.57	456.40
441.75	430.66
441.94	465.77
442.12	395.55
442.31	442.36
442.50	477.47
442.68	400.23
442.87	353.42
443.05	430.66
443.24	407.25
443.43	395.55
443.61	423.64
443.80	435.34
443.98	423.64
444.17	407.25
444.35	475.13
444.54	404.91
444.73	393.21
444.91	489.17
445.10	454.06
445.28	332.36
445.47	390.87
445.65	425.98
445.84	411.93
446.02	374.49
446.21	369.80
446.39	360.44
446.58	390.87
446.77	407.25
446.95	386.19
447.14	468.11
447.32	421.30
447.51	409.59
447.69	407.25
447.88	395.55
448.06	458.74
448.25	362.78
448.43	379.17
448.62	332.36
448.80	425.98
448.99	418.96
449.17	423.64
449.36	440.02
449.54	362.78
449.73	437.68
449.91	400.23
450.10	381.51
450.28	479.81
450.46	486.83
450.65	407.25
450.83	355.76
451.02	393.21
451.20	430.66
451.39	435.34
451.57	383.85
451.76	334.70
451.94	416.62
452.13	376.83
452.31	372.15
452.49	379.17
452.68	414.27
452.86	386.19
453.05	437.68
453.23	442.36
453.42	454.06
453.60	447.04
453.78	416.62
453.97	414.27
454.15	369.80
454.34	449.38
454.52	404.91
454.70	472.79
454.89	390.87
455.07	442.36
455.26	411.93
455.44	458.74
455.62	390.87
455.81	418.96
455.99	388.53
456.17	442.36
456.36	456.40
456.54	461.09
456.73	440.02
456.91	379.17
457.09	358.10
457.28	386.19
457.46	346.40
457.64	409.59
457.83	411.93
458.01	409.59
458.19	461.09
458.38	390.87
458.56	433.00
458.74	381.51
458.93	468.11
459.11	390.87
459.29	372.15
459.48	425.98
459.66	463.43
459.84	402.57
460.03	477.47
460.21	456.40
460.39	440.02
460.57	407.25
460.76	379.17
460.94	451.72
461.12	491.51
461.31	416.62
461.49	411.93
461.67	433.00
461.85	442.36
462.04	365.12
462.22	795.78
462.40	402.57
462.59	404.91
462.77	418.96
462.95	437.68
463.13	449.38
463.32	390.87
463.50	454.06
463.68	393.21
463.86	435.34
464.05	362.78
464.23	435.34
464.41	444.70
464.59	475.13
464.78	510.24
464.96	404.91
465.14	404.91
465.32	440.02
465.50	409.59
465.69	444.70
465.87	337.04
466.05	428.32
466.23	414.27
466.41	416.62
466.60	444.70
466.78	348.74
466.96	397.89
467.14	411.93
467.32	486.83
467.51	437.68
467.69	468.11
467.87	472.79
468.05	416.62
468.23	463.43
468.41	447.04
468.60	433.00
468.78	407.25
468.96	423.64
469.14	435.34
469.32	395.55
469.50	376.83
469.69	402.57
469.87	437.68
470.05	472.79
470.23	468.11
470.41	355.76
470.59	393.21
470.77	425.98
470.95	435.34
471.14	437.68
471.32	386.19
471.50	472.79
471.68	365.12
471.86	421.30
472.04	468.11
472.22	376.83
472.40	374.49
472.58	444.70
472.77	416.62
472.95	393.21
473.13	435.34
473.31	425.98
473.49	397.89
473.67	418.96
473.85	435.34
474.03	437.68
474.21	437.68
474.39	402.57
474.57	456.40
474.75	444.70
474.93	400.23
475.12	433.00
475.30	447.04
475.48	425.98
475.66	435.34
475.84	463.43
476.02	337.04
476.20	365.12
476.38	456.40
476.56	496.19
476.74	372.15
476.92	379.17
477.10	440.02
477.28	411.93
477.46	433.00
477.64	411.93
477.82	393.21
478.00	388.53
478.18	430.66
478.36	381.51
478.54	376.83
478.72	374.49
478.90	418.96
479.08	355.76
479.26	379.17
479.44	390.87
479.62	425.98
479.80	440.02
479.98	397.89
480.16	407.25
480.34	444.70
480.52	386.19
480.70	463.43
480.88	430.66
481.06	447.04
481.24	390.87
481.41	341.72
481.59	451.72
481.77	423.64
481.95	437.68
482.13	458.74
482.31	421.30
482.49	409.59
482.67	395.55
482.85	402.57
483.03	393.21
483.21	374.49
483.39	421.30
483.57	463.43
483.74	528.96
483.92	339.38
484.10	390.87
484.28	425.98
484.46	486.83
484.64	435.34
484.82	444.70
485.00	411.93
485.18	393.21
485.35	444.70
485.53	437.68
485.71	411.93
485.89	402.57
486.07	393.21
486.25	465.77
486.43	442.36
486.61	458.74
486.78	418.96
486.96	330.02
487.14	418.96
487.32	477.47
487.50	397.89
487.68	411.93
487.85	447.04
488.03	386.19
488.21	430.66
488.39	390.87
488.57	442.36
488.75	425.98
488.92	461.09
489.10	376.83
489.28	477.47
489.46	418.96
489.64	367.46
489.81	475.13
489.99	435.34
490.17	454.06
490.35	440.02
490.53	423.64
490.70	421.30
490.88	388.53
491.06	381.51
491.24	423.64
491.41	442.36
491.59	472.79
491.77	395.55
491.95	442.36
492.13	437.68
492.30	369.80
492.48	418.96
492.66	458.74
492.84	442.36
493.01	461.09
493.19	386.19
493.37	486.83
493.54	465.77
493.72	390.87
493.90	372.15
494.08	440.02
494.25	430.66
494.43	421.30
494.61	404.91
494.79	388.53
494.96	433.00
495.14	416.62
495.32	400.23
495.49	395.55
495.67	421.30
495.85	409.59
496.02	334.70
496.20	442.36
496.38	444.70
496.55	449.38
496.73	414.27
496.91	409.59
497.09	456.40
497.26	430.66
497.44	447.04
497.62	388.53
497.79	409.59
497.97	344.06
498.14	379.17
498.32	435.34
498.50	425.98
498.67	442.36
498.85	425.98
499.03	397.89
499.20	435.34
499.38	418.96
499.56	456.40
499.73	449.38
499.91	386.19
500.08	444.70
500.26	365.12
500.44	360.44
500.61	472.79
500.79	444.70
500.97	379.17
501.14	409.59
501.32	381.51
501.49	388.53
501.67	435.34
501.84	397.89
502.02	367.46
502.20	472.79
502.37	411.93
502.55	400.23
502.72	416.62
502.90	404.91
503.07	358.10
503.25	423.64
503.43	409.59
503.60	407.25
503.78	421.30
503.95	390.87
504.13	397.89
504.30	409.59
504.48	484.49
504.65	465.77
504.83	456.40
505.01	458.74
505.18	435.34
505.36	365.12
505.53	449.38
505.71	360.44
505.88	440.02
506.06	404.91
506.23	386.19
506.41	404.91
506.58	320.65
506.76	334.70
506.93	379.17
507.11	423.64
507.28	451.72
507.46	411.93
507.63	430.66
507.81	397.89
507.98	418.96
508.16	465.77
508.33	395.55
508.50	461.09
508.68	423.64
508.85	353.42
509.03	428.32
509.20	402.57
509.38	425.98
509.55	393.21
509.73	491.51
509.90	430.66
510.08	397.89
510.25	383.85
510.42	458.74
510.60	374.49
510.77	379.17
510.95	393.21
511.12	395.55
511.30	435.34
511.47	484.49
511.64	482.15
511.82	390.87
511.99	416.62
512.17	440.02
512.34	416.62
512.51	355.76
512.69	486.83
512.86	390.87
513.04	411.93
513.21	416.62
513.38	440.02
513.56	442.36
513.73	400.23
513.90	454.06
514.08	388.53
514.25	330.02
514.43	421.30
514.60	355.76
514.77	397.89
514.95	395.55
515.12	386.19
515.29	390.87
515.47	428.32
515.64	409.59
515.81	411.93
515.99	404.91
516.16	472.79
516.33	381.51
516.51	381.51
516.68	383.85
516.85	351.08
517.03	341.72
517.20	404.91
517.37	369.80
517.54	468.11
517.72	430.66
517.89	465.77
518.06	393.21
518.24	496.19
518.41	435.34
518.58	383.85
518.75	388.53
518.93	456.40
519.10	421.30
519.27	477.47
519.45	362.78
519.62	451.72
519.79	402.57
519.96	386.19
520.14	449.38
520.31	421.30
520.48	393.21
520.65	362.78
520.83	407.25
521.00	430.66
521.17	379.17
521.34	325.33
521.52	418.96
521.69	407.25
521.86	407.25
522.03	421.30
522.20	379.17
522.38	468.11
522.55	402.57
522.72	477.47
522.89	411.93
523.07	379.17
523.24	407.25
523.41	477.47
523.58	430.66
523.75	425.98
523.92	425.98
524.10	390.87
524.27	390.87
524.44	423.64
524.61	395.55
524.78	435.34
524.96	454.06
525.13	421.30
525.30	433.00
525.47	451.72
525.64	383.85
525.81	355.76
525.98	423.64
526.16	346.40
526.33	411.93
526.50	393.21
526.67	395.55
526.84	444.70
527.01	386.19
527.18	437.68
527.36	430.66
527.53	428.32
527.70	390.87
527.87	407.25
528.04	334.70
528.21	372.15
528.38	388.53
528.55	416.62
528.72	440.02
528.89	372.15
529.07	458.74
529.24	472.79
529.41	423.64
529.58	414.27
529.75	444.70
529.92	449.38
530.09	388.53
530.26	496.19
530.43	470.45
530.60	360.44
530.77	465.77
530.94	470.45
531.11	425.98
531.28	367.46
531.46	465.77
531.63	397.89
531.80	423.64
531.97	428.32
532.14	440.02
532.31	409.59
532.48	470.45
532.65	458.74
532.82	461.09
532.99	397.89
533.16	395.55
533.33	395.55
533.50	440.02
533.67	414.27
533.84	402.57
534.01	454.06
534.18	407.25
534.35	475.13
534.52	414.27
534.69	496.19
534.86	397.89
535.03	404.91
535.20	404.91
535.37	407.25
535.54	393.21
535.71	372.15
535.88	435.34
536.05	372.15
536.22	416.62
536.38	421.30
536.55	411.93
536.72	407.25
536.89	360.44
537.06	425.98
537.23	386.19
537.40	386.19
537.57	379.17
537.74	442.36
537.91	400.23
538.08	486.83
538.25	468.11
538.42	411.93
538.59	442.36
538.75	489.17
538.92	376.83
539.09	411.93
539.26	351.08
539.43	437.68
539.60	355.76
539.77	381.51
539.94	395.55
540.11	416.62
540.28	400.23
540.44	482.15
540.61	435.34
540.78	395.55
540.95	454.06
541.12	482.15
541.29	381.51
541.46	482.15
541.62	437.68
541.79	468.11
541.96	400.23
542.13	372.15
542.30	369.80
542.47	428.32
542.63	414.27
542.80	411.93
542.97	451.72
543.14	379.17
543.31	390.87
543.48	397.89
543.64	421.30
543.81	407.25
543.98	369.80
544.15	360.44
544.32	440.02
544.48	393.21
544.65	376.83
544.82	337.04
544.99	365.12
545.16	416.62
545.32	477.47
545.49	461.09
545.66	507.90
545.83	388.53
546.00	447.04
546.16	409.59
546.33	407.25
546.50	444.70
546.67	414.27
546.83	440.02
547.00	376.83
547.17	407.25
547.34	322.99
547.50	433.00
547.67	414.27
547.84	414.27
548.00	449.38
548.17	444.70
548.34	404.91
548.51	442.36
548.67	456.40
548.84	493.85
549.01	414.27
549.18	365.12
549.34	447.04
549.51	428.32
549.68	409.59
549.84	416.62
550.01	423.64
550.18	510.24
550.34	430.66
550.51	360.44
550.68	454.06
550.84	351.08
551.01	456.40
551.18	437.68
551.34	407.25
551.51	444.70
551.68	397.89
551.84	442.36
552.01	477.47
552.18	383.85
552.34	449.38
552.51	458.74
552.68	397.89
552.84	423.64
553.01	447.04
553.18	449.38
553.34	454.06
553.51	362.78
553.67	451.72
553.84	458.74
554.01	393.21
554.17	376.83
554.34	367.46
554.51	395.55
554.67	423.64
554.84	418.96
555.00	418.96
555.17	449.38
555.33	444.70
555.50	454.06
555.67	444.70
555.83	421.30
556.00	414.27
556.16	592.16
556.33	428.32
556.50	369.80
556.66	418.96
556.83	379.17
556.99	442.36
557.16	440.02
557.32	475.13
557.49	390.87
557.65	304.27
557.82	395.55
557.98	379.17
558.15	447.04
558.32	402.57
558.48	440.02
558.65	374.49
558.81	393.21
558.98	404.91
559.14	404.91
559.31	367.46
559.47	465.77
559.64	402.57
559.80	355.76
559.97	411.93
560.13	381.51
560.30	435.34
560.46	425.98
560.63	360.44
560.79	423.64
560.96	390.87
561.12	400.23
561.29	388.53
561.45	416.62
561.61	428.32
561.78	454.06
561.94	339.38
562.11	418.96
562.27	376.83
562.44	425.98
562.60	376.83
562.77	447.04
562.93	484.49
563.10	428.32
563.26	395.55
563.42	470.45
563.59	414.27
563.75	414.27
563.92	468.11
564.08	461.09
564.24	423.64
564.41	440.02
564.57	411.93
564.74	414.27
564.90	435.34
565.07	470.45
565.23	393.21
565.39	404.91
565.56	395.55
565.72	425.98
565.88	435.34
566.05	390.87
566.21	437.68
566.38	472.79
566.54	411.93
566.70	444.70
566.87	440.02
567.03	449.38
567.19	355.76
567.36	397.89
567.52	351.08
567.68	451.72
567.85	433.00
568.01	414.27
568.17	402.57
568.34	409.59
568.50	444.70
568.66	353.42
568.83	489.17
568.99	381.51
569.15	381.51
569.32	376.83
569.48	433.00
569.64	421.30
569.81	423.64
569.97	393.21
570.13	475.13
570.30	397.89
570.46	425.98
570.62	367.46
570.78	372.15
570.95	407.25
571.11	451.72
571.27	514.92
571.43	449.38
571.60	395.55
571.76	390.87
571.92	383.85
572.09	433.00
572.25	440.02
572.41	423.64
572.57	325.33
572.74	463.43
572.90	479.81
573.06	423.64
573.22	411.93
573.38	425.98
573.55	365.12
573.71	383.85
573.87	407.25
574.03	393.21
574.20	425.98
574.36	421.30
574.52	430.66
574.68	416.62
574.84	465.77
575.01	386.19
575.17	472.79
575.33	435.34
575.49	444.70
575.65	409.59
575.82	358.10
575.98	388.53
576.14	437.68
576.30	390.87
576.46	400.23
576.62	428.32
576.79	393.21
576.95	397.89
577.11	435.34
577.27	379.17
577.43	397.89
577.59	404.91
577.75	484.49
577.92	379.17
578.08	400.23
578.24	440.02
578.40	402.57
578.56	456.40
578.72	409.59
578.88	437.68
579.04	428.32
579.21	381.51
579.37	390.87
579.53	444.70
579.69	428.32
579.85	386.19
580.01	414.27
580.17	425.98
580.33	447.04
580.49	390.87
580.65	393.21
580.82	355.76
580.98	400.23
581.14	402.57
581.30	418.96
581.46	475.13
581.62	454.06
581.78	355.76
581.94	402.57
582.10	477.47
582.26	423.64
582.42	397.89
582.58	402.57
582.74	369.80
582.90	468.11
583.06	477.47
583.22	421.30
583.38	418.96
583.54	423.64
583.70	383.85
583.86	409.59
584.02	435.34
584.18	433.00
584.34	456.40
584.50	442.36
584.66	367.46
584.82	444.70
584.98	484.49
585.14	435.34
585.30	493.85
585.46	383.85
585.62	449.38
585.78	428.32
585.94	362.78
586.10	409.59
586.26	430.66
586.42	425.98
586.58	507.90
586.74	409.59
586.90	393.21
587.06	376.83
587.22	379.17
587.38	395.55
587.54	393.21
587.70	428.32
587.86	482.15
588.02	425.98
588.18	416.62
588.34	440.02
588.49	435.34
588.65	353.42
588.81	468.11
588.97	348.74
589.13	430.66
589.29	458.74
589.45	449.38
589.61	447.04
589.77	383.85
589.93	393.21
590.08	421.30
590.24	486.83
590.40	437.68
590.56	449.38
590.72	477.47
590.88	451.72
591.04	440.02
591.20	400.23
591.35	430.66
591.51	414.27
591.67	360.44
591.83	409.59
591.99	430.66
592.15	456.40
592.31	402.57
592.46	493.85
592.62	475.13
592.78	358.10
592.94	421.30
593.10	374.49
593.26	346.40
593.41	503.22
593.57	409.59
593.73	451.72
593.89	358.10
594.05	416.62
594.20	390.87
594.36	374.49
594.52	390.87
594.68	418.96
594.84	433.00
594.99	383.85
595.15	411.93
595.31	404.91
595.47	498.53
595.62	444.70
595.78	409.59
595.94	425.98
596.10	404.91
596.25	433.00
596.41	435.34
596.57	414.27
596.73	437.68
596.88	327.68
597.04	428.32
597.20	390.87
597.36	442.36
597.51	390.87
597.67	444.70
597.83	418.96
597.99	433.00
598.14	404.91
598.30	454.06
598.46	383.85
598.61	479.81
598.77	381.51
598.93	367.46
599.09	404.91
599.24	435.34
599.40	479.81
599.56	447.04
599.71	388.53
599.87	425.98
600.03	423.64
600.18	376.83
600.34	433.00
600.50	461.09
600.65	411.93
600.81	430.66
600.97	411.93
601.12	477.47
601.28	395.55
601.44	482.15
601.59	421.30
601.75	404.91
601.91	397.89
602.06	463.43
602.22	414.27
602.37	369.80
602.53	376.83
602.69	393.21
602.84	393.21
603.00	393.21
603.16	423.64
603.31	435.34
603.47	374.49
603.62	369.80
603.78	402.57
603.94	416.62
604.09	379.17
604.25	409.59
604.40	437.68
604.56	465.77
604.71	468.11
604.87	400.23
605.03	381.51
605.18	409.59
605.34	475.13
605.49	470.45
605.65	416.62
605.80	414.27
605.96	421.30
606.12	421.30
606.27	449.38
606.43	489.17
606.58	447.04
606.74	393.21
606.89	449.38
607.05	475.13
607.20	362.78
607.36	409.59
607.51	393.21
607.67	421.30
607.82	416.62
607.98	416.62
608.13	465.77
608.29	433.00
608.44	449.38
608.60	414.27
608.75	475.13
608.91	430.66
609.06	400.23
609.22	463.43
609.37	407.25
609.53	372.15
609.68	418.96
609.84	369.80
609.99	376.83
610.15	416.62
