SpectraSuite Data File
++++++++++++++++++++++++++++++++++++
Date: Fri Oct 25 12:11:29 EDT 2013
User: price-jones
Dark Spectrum Present: No
Reference Spectrum Present: No
Number of Sampled Component Spectra: 1
Spectrometers: USB2+H05261
Integration Time (usec): 100000 (USB2+H05261)
Spectra Averaged: 1 (USB2+H05261)
Boxcar Smoothing: 0 (USB2+H05261)
Correct for Electrical Dark: No (USB2+H05261)
Strobe/Lamp Enabled: No (USB2+H05261)
Correct for Detector Non-linearity: No (USB2+H05261)
Correct for Stray Light: No (USB2+H05261)
Number of Pixels in Processed Spectrum: 2048
>>>>>Begin Processed Spectral Data<<<<<
365.73	374.49
365.92	374.49
366.12	374.49
366.32	287.89
366.52	236.39
366.72	259.80
366.91	212.99
367.11	250.44
367.31	236.39
367.51	283.20
367.70	229.37
367.90	306.61
368.10	224.69
368.30	234.05
368.49	250.44
368.69	243.42
368.89	198.95
369.09	241.08
369.28	229.37
369.48	252.78
369.68	250.44
369.87	341.72
370.07	372.15
370.27	306.61
370.47	306.61
370.66	341.72
370.86	320.65
371.06	348.74
371.25	395.55
371.45	332.36
371.65	428.32
371.84	388.53
372.04	379.17
372.24	428.32
372.44	407.25
372.63	404.91
372.83	376.83
373.03	390.87
373.22	463.43
373.42	414.27
373.62	402.57
373.81	468.11
374.01	475.13
374.21	456.40
374.40	372.15
374.60	484.49
374.79	379.17
374.99	463.43
375.19	433.00
375.38	430.66
375.58	463.43
375.78	437.68
375.97	416.62
376.17	463.43
376.37	400.23
376.56	461.09
376.76	376.83
376.95	393.21
377.15	493.85
377.35	430.66
377.54	423.64
377.74	381.51
377.93	362.78
378.13	416.62
378.33	482.15
378.52	404.91
378.72	409.59
378.91	395.55
379.11	400.23
379.31	451.72
379.50	369.80
379.70	416.62
379.89	418.96
380.09	390.87
380.28	430.66
380.48	383.85
380.68	383.85
380.87	386.19
381.07	433.00
381.26	397.89
381.46	444.70
381.65	414.27
381.85	395.55
382.04	430.66
382.24	390.87
382.43	416.62
382.63	320.65
382.83	442.36
383.02	435.34
383.22	465.77
383.41	437.68
383.61	428.32
383.80	472.79
384.00	395.55
384.19	365.12
384.39	353.42
384.58	341.72
384.78	425.98
384.97	369.80
385.17	344.06
385.36	341.72
385.56	402.57
385.75	414.27
385.95	367.46
386.14	416.62
386.34	414.27
386.53	437.68
386.72	411.93
386.92	465.77
387.11	379.17
387.31	428.32
387.50	374.49
387.70	430.66
387.89	468.11
388.09	353.42
388.28	409.59
388.48	388.53
388.67	416.62
388.86	404.91
389.06	400.23
389.25	318.31
389.45	435.34
389.64	395.55
389.84	407.25
390.03	404.91
390.22	447.04
390.42	437.68
390.61	379.17
390.81	381.51
391.00	456.40
391.19	402.57
391.39	447.04
391.58	397.89
391.78	421.30
391.97	470.45
392.16	416.62
392.36	428.32
392.55	465.77
392.75	411.93
392.94	404.91
393.13	423.64
393.33	433.00
393.52	416.62
393.71	416.62
393.91	435.34
394.10	297.25
394.29	348.74
394.49	407.25
394.68	358.10
394.88	437.68
395.07	397.89
395.26	374.49
395.46	390.87
395.65	463.43
395.84	503.22
396.04	444.70
396.23	348.74
396.42	386.19
396.62	493.85
396.81	411.93
397.00	425.98
397.19	365.12
397.39	341.72
397.58	489.17
397.77	374.49
397.97	404.91
398.16	372.15
398.35	411.93
398.55	400.23
398.74	404.91
398.93	379.17
399.12	468.11
399.32	437.68
399.51	423.64
399.70	374.49
399.90	437.68
400.09	430.66
400.28	414.27
400.47	341.72
400.67	451.72
400.86	337.04
401.05	390.87
401.24	400.23
401.44	423.64
401.63	477.47
401.82	486.83
402.01	362.78
402.21	388.53
402.40	414.27
402.59	393.21
402.78	386.19
402.97	372.15
403.17	449.38
403.36	404.91
403.55	397.89
403.74	482.15
403.93	414.27
404.13	404.91
404.32	362.78
404.51	341.72
404.70	390.87
404.89	372.15
405.09	404.91
405.28	421.30
405.47	463.43
405.66	397.89
405.85	395.55
406.05	376.83
406.24	351.08
406.43	362.78
406.62	318.31
406.81	465.77
407.00	383.85
407.20	444.70
407.39	456.40
407.58	404.91
407.77	442.36
407.96	479.81
408.15	433.00
408.34	503.22
408.54	395.55
408.73	423.64
408.92	440.02
409.11	383.85
409.30	390.87
409.49	407.25
409.68	374.49
409.87	437.68
410.07	381.51
410.26	407.25
410.45	407.25
410.64	421.30
410.83	449.38
411.02	418.96
411.21	451.72
411.40	421.30
411.59	346.40
411.78	383.85
411.98	477.47
412.17	440.02
412.36	376.83
412.55	428.32
412.74	315.97
412.93	449.38
413.12	395.55
413.31	423.64
413.50	442.36
413.69	409.59
413.88	475.13
414.07	376.83
414.26	430.66
414.45	425.98
414.64	437.68
414.83	390.87
415.02	430.66
415.22	437.68
415.41	416.62
415.60	327.68
415.79	447.04
415.98	390.87
416.17	409.59
416.36	463.43
416.55	458.74
416.74	421.30
416.93	433.00
417.12	444.70
417.31	383.85
417.50	442.36
417.69	409.59
417.88	386.19
418.07	388.53
418.26	351.08
418.45	416.62
418.64	423.64
418.83	442.36
419.02	339.38
419.21	325.33
419.39	442.36
419.58	390.87
419.77	404.91
419.96	456.40
420.15	458.74
420.34	344.06
420.53	402.57
420.72	414.27
420.91	322.99
421.10	400.23
421.29	423.64
421.48	393.21
421.67	390.87
421.86	358.10
422.05	482.15
422.24	447.04
422.43	416.62
422.61	461.09
422.80	409.59
422.99	344.06
423.18	381.51
423.37	468.11
423.56	376.83
423.75	416.62
423.94	418.96
424.13	362.78
424.32	393.21
424.50	388.53
424.69	484.49
424.88	449.38
425.07	379.17
425.26	367.46
425.45	376.83
425.64	402.57
425.83	388.53
426.01	470.45
426.20	411.93
426.39	365.12
426.58	454.06
426.77	400.23
426.96	449.38
427.15	447.04
427.33	451.72
427.52	299.59
427.71	346.40
427.90	362.78
428.09	440.02
428.28	409.59
428.46	374.49
428.65	437.68
428.84	393.21
429.03	411.93
429.22	404.91
429.40	390.87
429.59	376.83
429.78	395.55
429.97	402.57
430.16	435.34
430.34	381.51
430.53	339.38
430.72	423.64
430.91	365.12
431.10	411.93
431.28	397.89
431.47	306.61
431.66	411.93
431.85	451.72
432.03	400.23
432.22	477.47
432.41	402.57
432.60	418.96
432.79	381.51
432.97	374.49
433.16	451.72
433.35	435.34
433.54	367.46
433.72	411.93
433.91	388.53
434.10	458.74
434.28	388.53
434.47	397.89
434.66	383.85
434.85	444.70
435.03	444.70
435.22	442.36
435.41	390.87
435.59	393.21
435.78	423.64
435.97	383.85
436.16	381.51
436.34	449.38
436.53	395.55
436.72	423.64
436.90	414.27
437.09	433.00
437.28	411.93
437.46	414.27
437.65	407.25
437.84	416.62
438.02	397.89
438.21	374.49
438.40	381.51
438.58	482.15
438.77	442.36
438.96	402.57
439.14	376.83
439.33	386.19
439.52	374.49
439.70	442.36
439.89	348.74
440.08	372.15
440.26	395.55
440.45	416.62
440.63	433.00
440.82	416.62
441.01	416.62
441.19	447.04
441.38	423.64
441.57	372.15
441.75	440.02
441.94	440.02
442.12	402.57
442.31	402.57
442.50	379.17
442.68	369.80
442.87	353.42
443.05	421.30
443.24	425.98
443.43	393.21
443.61	421.30
443.80	463.43
443.98	355.76
444.17	433.00
444.35	390.87
444.54	444.70
444.73	517.26
444.91	435.34
445.10	379.17
445.28	442.36
445.47	407.25
445.65	449.38
445.84	395.55
446.02	414.27
446.21	383.85
446.39	479.81
446.58	379.17
446.77	435.34
446.95	423.64
447.14	463.43
447.32	456.40
447.51	388.53
447.69	423.64
447.88	388.53
448.06	489.17
448.25	423.64
448.43	430.66
448.62	440.02
448.80	332.36
448.99	435.34
449.17	423.64
449.36	414.27
449.54	388.53
449.73	376.83
449.91	456.40
450.10	306.61
450.28	383.85
450.46	479.81
450.65	465.77
450.83	411.93
451.02	390.87
451.20	381.51
451.39	444.70
451.57	395.55
451.76	433.00
451.94	421.30
452.13	411.93
452.31	351.08
452.49	397.89
452.68	381.51
452.86	393.21
453.05	435.34
453.23	444.70
453.42	421.30
453.60	433.00
453.78	472.79
453.97	346.40
454.15	404.91
454.34	414.27
454.52	390.87
454.70	365.12
454.89	493.85
455.07	440.02
455.26	437.68
455.44	447.04
455.62	395.55
455.81	388.53
455.99	402.57
456.17	416.62
456.36	437.68
456.54	402.57
456.73	393.21
456.91	404.91
457.09	395.55
457.28	491.51
457.46	411.93
457.64	435.34
457.83	409.59
458.01	411.93
458.19	369.80
458.38	404.91
458.56	430.66
458.74	402.57
458.93	402.57
459.11	421.30
459.29	430.66
459.48	353.42
459.66	451.72
459.84	416.62
460.03	447.04
460.21	433.00
460.39	390.87
460.57	472.79
460.76	463.43
460.94	414.27
461.12	393.21
461.31	414.27
461.49	477.47
461.67	482.15
461.85	458.74
462.04	435.34
462.22	727.91
462.40	388.53
462.59	465.77
462.77	437.68
462.95	442.36
463.13	458.74
463.32	379.17
463.50	440.02
463.68	381.51
463.86	390.87
464.05	365.12
464.23	409.59
464.41	395.55
464.59	379.17
464.78	421.30
464.96	339.38
465.14	376.83
465.32	407.25
465.50	367.46
465.69	421.30
465.87	402.57
466.05	442.36
466.23	390.87
466.41	418.96
466.60	479.81
466.78	470.45
466.96	435.34
467.14	442.36
467.32	435.34
467.51	409.59
467.69	348.74
467.87	444.70
468.05	327.68
468.23	418.96
468.41	437.68
468.60	425.98
468.78	409.59
468.96	418.96
469.14	386.19
469.32	409.59
469.50	379.17
469.69	374.49
469.87	456.40
470.05	428.32
470.23	400.23
470.41	444.70
470.59	404.91
470.77	449.38
470.95	379.17
471.14	421.30
471.32	477.47
471.50	425.98
471.68	390.87
471.86	407.25
472.04	440.02
472.22	400.23
472.40	400.23
472.58	360.44
472.77	400.23
472.95	449.38
473.13	404.91
473.31	465.77
473.49	409.59
473.67	334.70
473.85	414.27
474.03	393.21
474.21	397.89
474.39	442.36
474.57	414.27
474.75	414.27
474.93	433.00
475.12	386.19
475.30	454.06
475.48	365.12
475.66	454.06
475.84	454.06
476.02	451.72
476.20	456.40
476.38	430.66
476.56	519.60
476.74	416.62
476.92	423.64
477.10	479.81
477.28	388.53
477.46	428.32
477.64	440.02
477.82	486.83
478.00	400.23
478.18	454.06
478.36	507.90
478.54	447.04
478.72	414.27
478.90	468.11
479.08	395.55
479.26	386.19
479.44	440.02
479.62	388.53
479.80	379.17
479.98	472.79
480.16	404.91
480.34	418.96
480.52	411.93
480.70	456.40
480.88	362.78
481.06	407.25
481.24	491.51
481.41	386.19
481.59	390.87
481.77	425.98
481.95	355.76
482.13	433.00
482.31	411.93
482.49	416.62
482.67	393.21
482.85	468.11
483.03	428.32
483.21	404.91
483.39	428.32
483.57	383.85
483.74	416.62
483.92	351.08
484.10	468.11
484.28	437.68
484.46	376.83
484.64	395.55
484.82	433.00
485.00	442.36
485.18	372.15
485.35	414.27
485.53	468.11
485.71	440.02
485.89	313.63
486.07	454.06
486.25	442.36
486.43	425.98
486.61	519.60
486.78	447.04
486.96	451.72
487.14	372.15
487.32	428.32
487.50	437.68
487.68	414.27
487.85	367.46
488.03	407.25
488.21	451.72
488.39	421.30
488.57	447.04
488.75	437.68
488.92	493.85
489.10	322.99
489.28	496.19
489.46	407.25
489.64	404.91
489.81	414.27
489.99	395.55
490.17	367.46
490.35	514.92
490.53	404.91
490.70	355.76
490.88	519.60
491.06	369.80
491.24	390.87
491.41	461.09
491.59	365.12
491.77	395.55
491.95	440.02
492.13	334.70
492.30	418.96
492.48	381.51
492.66	442.36
492.84	386.19
493.01	390.87
493.19	428.32
493.37	388.53
493.54	390.87
493.72	444.70
493.90	421.30
494.08	407.25
494.25	404.91
494.43	482.15
494.61	428.32
494.79	320.65
494.96	411.93
495.14	465.77
495.32	372.15
495.49	386.19
495.67	409.59
495.85	454.06
496.02	411.93
496.20	428.32
496.38	470.45
496.55	433.00
496.73	425.98
496.91	400.23
497.09	372.15
497.26	416.62
497.44	388.53
497.62	379.17
497.79	430.66
497.97	400.23
498.14	313.63
498.32	390.87
498.50	428.32
498.67	442.36
498.85	388.53
499.03	437.68
499.20	437.68
499.38	468.11
499.56	402.57
499.73	458.74
499.91	376.83
500.08	404.91
500.26	320.65
500.44	428.32
500.61	376.83
500.79	402.57
500.97	360.44
501.14	458.74
501.32	421.30
501.49	451.72
501.67	442.36
501.84	414.27
502.02	397.89
502.20	449.38
502.37	421.30
502.55	362.78
502.72	325.33
502.90	458.74
503.07	482.15
503.25	470.45
503.43	311.29
503.60	411.93
503.78	411.93
503.95	461.09
504.13	416.62
504.30	468.11
504.48	458.74
504.65	486.83
504.83	442.36
505.01	475.13
505.18	449.38
505.36	428.32
505.53	442.36
505.71	400.23
505.88	400.23
506.06	510.24
506.23	430.66
506.41	390.87
506.58	383.85
506.76	418.96
506.93	355.76
507.11	442.36
507.28	372.15
507.46	400.23
507.63	386.19
507.81	404.91
507.98	454.06
508.16	388.53
508.33	367.46
508.50	437.68
508.68	435.34
508.85	421.30
509.03	400.23
509.20	425.98
509.38	365.12
509.55	503.22
509.73	395.55
509.90	463.43
510.08	425.98
510.25	486.83
510.42	486.83
510.60	416.62
510.77	332.36
510.95	493.85
511.12	411.93
511.30	437.68
511.47	477.47
511.64	454.06
511.82	428.32
511.99	409.59
512.17	437.68
512.34	447.04
512.51	449.38
512.69	367.46
512.86	458.74
513.04	461.09
513.21	482.15
513.38	447.04
513.56	447.04
513.73	428.32
513.90	369.80
514.08	411.93
514.25	505.56
514.43	402.57
514.60	442.36
514.77	379.17
514.95	381.51
515.12	367.46
515.29	407.25
515.47	468.11
515.64	454.06
515.81	475.13
515.99	503.22
516.16	433.00
516.33	423.64
516.51	386.19
516.68	430.66
516.85	360.44
517.03	477.47
517.20	458.74
517.37	388.53
517.54	454.06
517.72	486.83
517.89	395.55
518.06	407.25
518.24	449.38
518.41	493.85
518.58	444.70
518.75	442.36
518.93	472.79
519.10	435.34
519.27	395.55
519.45	416.62
519.62	451.72
519.79	433.00
519.96	411.93
520.14	374.49
520.31	393.21
520.48	451.72
520.65	397.89
520.83	416.62
521.00	383.85
521.17	390.87
521.34	433.00
521.52	425.98
521.69	397.89
521.86	362.78
522.03	383.85
522.20	496.19
522.38	475.13
522.55	353.42
522.72	418.96
522.89	407.25
523.07	456.40
523.24	409.59
523.41	458.74
523.58	367.46
523.75	404.91
523.92	447.04
524.10	411.93
524.27	486.83
524.44	374.49
524.61	470.45
524.78	411.93
524.96	428.32
525.13	461.09
525.30	402.57
525.47	437.68
525.64	397.89
525.81	430.66
525.98	428.32
526.16	390.87
526.33	374.49
526.50	390.87
526.67	383.85
526.84	435.34
527.01	393.21
527.18	416.62
527.36	423.64
527.53	423.64
527.70	468.11
527.87	449.38
528.04	505.56
528.21	433.00
528.38	414.27
528.55	423.64
528.72	470.45
528.89	500.87
529.07	454.06
529.24	411.93
529.41	404.91
529.58	425.98
529.75	418.96
529.92	383.85
530.09	433.00
530.26	411.93
530.43	379.17
530.60	386.19
530.77	423.64
530.94	472.79
531.11	500.87
531.28	411.93
531.46	407.25
531.63	447.04
531.80	367.46
531.97	416.62
532.14	447.04
532.31	465.77
532.48	414.27
532.65	456.40
532.82	390.87
532.99	411.93
533.16	465.77
533.33	400.23
533.50	404.91
533.67	404.91
533.84	374.49
534.01	400.23
534.18	458.74
534.35	404.91
534.52	454.06
534.69	477.47
534.86	456.40
535.03	437.68
535.20	360.44
535.37	440.02
535.54	444.70
535.71	386.19
535.88	463.43
536.05	346.40
536.22	416.62
536.38	418.96
536.55	461.09
536.72	383.85
536.89	421.30
537.06	397.89
537.23	437.68
537.40	416.62
537.57	468.11
537.74	479.81
537.91	496.19
538.08	351.08
538.25	348.74
538.42	388.53
538.59	400.23
538.75	503.22
538.92	442.36
539.09	444.70
539.26	451.72
539.43	402.57
539.60	402.57
539.77	372.15
539.94	428.32
540.11	465.77
540.28	477.47
540.44	456.40
540.61	454.06
540.78	379.17
540.95	514.92
541.12	475.13
541.29	390.87
541.46	456.40
541.62	339.38
541.79	332.36
541.96	390.87
542.13	362.78
542.30	397.89
542.47	493.85
542.63	482.15
542.80	383.85
542.97	397.89
543.14	430.66
543.31	425.98
543.48	423.64
543.64	400.23
543.81	421.30
543.98	416.62
544.15	421.30
544.32	353.42
544.48	362.78
544.65	425.98
544.82	390.87
544.99	512.58
545.16	444.70
545.32	346.40
545.49	388.53
545.66	409.59
545.83	414.27
546.00	423.64
546.16	444.70
546.33	456.40
546.50	470.45
546.67	402.57
546.83	411.93
547.00	451.72
547.17	421.30
547.34	407.25
547.50	414.27
547.67	437.68
547.84	388.53
548.00	465.77
548.17	407.25
548.34	365.12
548.51	437.68
548.67	409.59
548.84	362.78
549.01	479.81
549.18	411.93
549.34	470.45
549.51	444.70
549.68	404.91
549.84	425.98
550.01	402.57
550.18	479.81
550.34	505.56
550.51	440.02
550.68	425.98
550.84	435.34
551.01	461.09
551.18	444.70
551.34	500.87
551.51	367.46
551.68	355.76
551.84	418.96
552.01	423.64
552.18	493.85
552.34	362.78
552.51	400.23
552.68	489.17
552.84	423.64
553.01	465.77
553.18	454.06
553.34	454.06
553.51	433.00
553.67	425.98
553.84	451.72
554.01	404.91
554.17	400.23
554.34	449.38
554.51	423.64
554.67	425.98
554.84	454.06
555.00	423.64
555.17	423.64
555.33	470.45
555.50	402.57
555.67	461.09
555.83	390.87
556.00	379.17
556.16	489.17
556.33	454.06
556.50	386.19
556.66	376.83
556.83	397.89
556.99	360.44
557.16	411.93
557.32	430.66
557.49	418.96
557.65	435.34
557.82	372.15
557.98	449.38
558.15	486.83
558.32	437.68
558.48	358.10
558.65	440.02
558.81	435.34
558.98	402.57
559.14	463.43
559.31	447.04
559.47	461.09
559.64	416.62
559.80	388.53
559.97	379.17
560.13	461.09
560.30	447.04
560.46	369.80
560.63	442.36
560.79	414.27
560.96	369.80
561.12	383.85
561.29	409.59
561.45	435.34
561.61	400.23
561.78	491.51
561.94	421.30
562.11	393.21
562.27	477.47
562.44	404.91
562.60	395.55
562.77	421.30
562.93	465.77
563.10	414.27
563.26	358.10
563.42	463.43
563.59	416.62
563.75	369.80
563.92	477.47
564.08	379.17
564.24	454.06
564.41	477.47
564.57	402.57
564.74	493.85
564.90	418.96
565.07	411.93
565.23	425.98
565.39	440.02
565.56	379.17
565.72	423.64
565.88	442.36
566.05	421.30
566.21	369.80
566.38	369.80
566.54	430.66
566.70	458.74
566.87	442.36
567.03	348.74
567.19	425.98
567.36	409.59
567.52	374.49
567.68	493.85
567.85	477.47
568.01	358.10
568.17	437.68
568.34	409.59
568.50	388.53
568.66	369.80
568.83	409.59
568.99	409.59
569.15	353.42
569.32	411.93
569.48	362.78
569.64	383.85
569.81	454.06
569.97	393.21
570.13	486.83
570.30	461.09
570.46	400.23
570.62	440.02
570.78	355.76
570.95	442.36
571.11	397.89
571.27	470.45
571.43	428.32
571.60	395.55
571.76	461.09
571.92	395.55
572.09	465.77
572.25	376.83
572.41	440.02
572.57	437.68
572.74	430.66
572.90	372.15
573.06	402.57
573.22	421.30
573.38	461.09
573.55	447.04
573.71	393.21
573.87	440.02
574.03	437.68
574.20	442.36
574.36	437.68
574.52	379.17
574.68	388.53
574.84	418.96
575.01	400.23
575.17	477.47
575.33	404.91
575.49	397.89
575.65	383.85
575.82	440.02
575.98	435.34
576.14	475.13
576.30	397.89
576.46	437.68
576.62	517.26
576.79	456.40
576.95	395.55
577.11	433.00
577.27	383.85
577.43	451.72
577.59	463.43
577.75	451.72
577.92	423.64
578.08	418.96
578.24	447.04
578.40	365.12
578.56	482.15
578.72	421.30
578.88	388.53
579.04	395.55
579.21	447.04
579.37	463.43
579.53	430.66
579.69	458.74
579.85	372.15
580.01	444.70
580.17	376.83
580.33	430.66
580.49	449.38
580.65	486.83
580.82	454.06
580.98	418.96
581.14	435.34
581.30	402.57
581.46	547.69
581.62	386.19
581.78	367.46
581.94	479.81
582.10	411.93
582.26	360.44
582.42	379.17
582.58	435.34
582.74	409.59
582.90	461.09
583.06	484.49
583.22	360.44
583.38	402.57
583.54	374.49
583.70	463.43
583.86	409.59
584.02	425.98
584.18	444.70
584.34	430.66
584.50	526.62
584.66	463.43
584.82	451.72
584.98	386.19
585.14	423.64
585.30	451.72
585.46	409.59
585.62	411.93
585.78	355.76
585.94	425.98
586.10	395.55
586.26	358.10
586.42	442.36
586.58	444.70
586.74	404.91
586.90	379.17
587.06	369.80
587.22	435.34
587.38	458.74
587.54	390.87
587.70	447.04
587.86	449.38
588.02	421.30
588.18	421.30
588.34	461.09
588.49	433.00
588.65	430.66
588.81	440.02
588.97	358.10
589.13	468.11
589.29	470.45
589.45	437.68
589.61	491.51
589.77	388.53
589.93	365.12
590.08	400.23
590.24	423.64
590.40	449.38
590.56	503.22
590.72	416.62
590.88	447.04
591.04	470.45
591.20	332.36
591.35	414.27
591.51	461.09
591.67	414.27
591.83	458.74
591.99	421.30
592.15	381.51
592.31	407.25
592.46	355.76
592.62	437.68
592.78	395.55
592.94	372.15
593.10	402.57
593.26	414.27
593.41	433.00
593.57	365.12
593.73	433.00
593.89	475.13
594.05	386.19
594.20	411.93
594.36	404.91
594.52	395.55
594.68	428.32
594.84	404.91
594.99	454.06
595.15	430.66
595.31	538.32
595.47	447.04
595.62	496.19
595.78	411.93
595.94	416.62
596.10	418.96
596.25	411.93
596.41	409.59
596.57	388.53
596.73	395.55
596.88	463.43
597.04	440.02
597.20	388.53
597.36	458.74
597.51	451.72
597.67	365.12
597.83	430.66
597.99	444.70
598.14	454.06
598.30	510.24
598.46	435.34
598.61	451.72
598.77	447.04
598.93	437.68
599.09	430.66
599.24	348.74
599.40	414.27
599.56	449.38
599.71	355.76
599.87	423.64
600.03	334.70
600.18	388.53
600.34	451.72
600.50	423.64
600.65	372.15
600.81	461.09
600.97	442.36
601.12	365.12
601.28	475.13
601.44	421.30
601.59	409.59
601.75	365.12
601.91	407.25
602.06	442.36
602.22	421.30
602.37	430.66
602.53	395.55
602.69	388.53
602.84	425.98
603.00	374.49
603.16	479.81
603.31	407.25
603.47	430.66
603.62	477.47
603.78	461.09
603.94	456.40
604.09	463.43
604.25	449.38
604.40	454.06
604.56	411.93
604.71	428.32
604.87	428.32
605.03	404.91
605.18	449.38
605.34	458.74
605.49	407.25
605.65	360.44
605.80	402.57
605.96	397.89
606.12	451.72
606.27	433.00
606.43	369.80
606.58	360.44
606.74	367.46
606.89	425.98
607.05	383.85
607.20	484.49
607.36	346.40
607.51	306.61
607.67	442.36
607.82	423.64
607.98	465.77
608.13	444.70
608.29	486.83
608.44	454.06
608.60	346.40
608.75	454.06
608.91	374.49
609.06	421.30
609.22	423.64
609.37	388.53
609.53	297.25
609.68	372.15
609.84	400.23
609.99	433.00
610.15	395.55
