SpectraSuite Data File
++++++++++++++++++++++++++++++++++++
Date: Fri Oct 25 12:10:41 EDT 2013
User: price-jones
Dark Spectrum Present: No
Reference Spectrum Present: No
Number of Sampled Component Spectra: 1
Spectrometers: USB2+H05261
Integration Time (usec): 100000 (USB2+H05261)
Spectra Averaged: 1 (USB2+H05261)
Boxcar Smoothing: 0 (USB2+H05261)
Correct for Electrical Dark: No (USB2+H05261)
Strobe/Lamp Enabled: No (USB2+H05261)
Correct for Detector Non-linearity: No (USB2+H05261)
Correct for Stray Light: No (USB2+H05261)
Number of Pixels in Processed Spectrum: 2048
>>>>>Begin Processed Spectral Data<<<<<
365.73	360.44
365.92	360.44
366.12	360.44
366.32	250.44
366.52	252.78
366.72	252.78
366.91	243.42
367.11	276.18
367.31	201.29
367.51	264.48
367.70	210.65
367.90	255.12
368.10	175.54
368.30	266.82
368.49	259.80
368.69	234.05
368.89	229.37
369.09	273.84
369.28	243.42
369.48	215.33
369.68	220.01
369.87	306.61
370.07	301.93
370.27	301.93
370.47	334.70
370.66	395.55
370.86	402.57
371.06	423.64
371.25	362.78
371.45	418.96
371.65	367.46
371.84	360.44
372.04	425.98
372.24	358.10
372.44	339.38
372.63	402.57
372.83	379.17
373.03	318.31
373.22	362.78
373.42	360.44
373.62	463.43
373.81	411.93
374.01	376.83
374.21	390.87
374.40	507.90
374.60	435.34
374.79	348.74
374.99	388.53
375.19	421.30
375.38	418.96
375.58	395.55
375.78	444.70
375.97	440.02
376.17	381.51
376.37	435.34
376.56	365.12
376.76	360.44
376.95	330.02
377.15	451.72
377.35	365.12
377.54	388.53
377.74	407.25
377.93	386.19
378.13	458.74
378.33	386.19
378.52	400.23
378.72	454.06
378.91	409.59
379.11	449.38
379.31	395.55
379.50	454.06
379.70	409.59
379.89	390.87
380.09	379.17
380.28	400.23
380.48	379.17
380.68	353.42
380.87	348.74
381.07	407.25
381.26	372.15
381.46	440.02
381.65	381.51
381.85	451.72
382.04	400.23
382.24	353.42
382.43	393.21
382.63	409.59
382.83	409.59
383.02	458.74
383.22	388.53
383.41	393.21
383.61	355.76
383.80	430.66
384.00	400.23
384.19	381.51
384.39	397.89
384.58	362.78
384.78	421.30
384.97	437.68
385.17	355.76
385.36	449.38
385.56	374.49
385.75	393.21
385.95	351.08
386.14	404.91
386.34	390.87
386.53	428.32
386.72	414.27
386.92	379.17
387.11	379.17
387.31	315.97
387.50	409.59
387.70	376.83
387.89	458.74
388.09	393.21
388.28	341.72
388.48	369.80
388.67	409.59
388.86	407.25
389.06	449.38
389.25	369.80
389.45	437.68
389.64	461.09
389.84	372.15
390.03	454.06
390.22	362.78
390.42	369.80
390.61	381.51
390.81	430.66
391.00	470.45
391.19	437.68
391.39	351.08
391.58	360.44
391.78	409.59
391.97	369.80
392.16	451.72
392.36	428.32
392.55	409.59
392.75	386.19
392.94	388.53
393.13	416.62
393.33	407.25
393.52	402.57
393.71	433.00
393.91	395.55
394.10	409.59
394.29	388.53
394.49	393.21
394.68	407.25
394.88	449.38
395.07	386.19
395.26	421.30
395.46	376.83
395.65	444.70
395.84	409.59
396.04	507.90
396.23	411.93
396.42	376.83
396.62	409.59
396.81	491.51
397.00	423.64
397.19	447.04
397.39	383.85
397.58	468.11
397.77	444.70
397.97	425.98
398.16	407.25
398.35	423.64
398.55	320.65
398.74	386.19
398.93	428.32
399.12	388.53
399.32	418.96
399.51	404.91
399.70	425.98
399.90	465.77
400.09	435.34
400.28	433.00
400.47	449.38
400.67	472.79
400.86	339.38
401.05	376.83
401.24	362.78
401.44	461.09
401.63	451.72
401.82	372.15
402.01	386.19
402.21	386.19
402.40	442.36
402.59	437.68
402.78	433.00
402.97	372.15
403.17	433.00
403.36	365.12
403.55	437.68
403.74	421.30
403.93	409.59
404.13	376.83
404.32	390.87
404.51	418.96
404.70	409.59
404.89	339.38
405.09	442.36
405.28	421.30
405.47	428.32
405.66	383.85
405.85	397.89
406.05	463.43
406.24	454.06
406.43	435.34
406.62	423.64
406.81	447.04
407.00	440.02
407.20	360.44
407.39	315.97
407.58	379.17
407.77	425.98
407.96	444.70
408.15	374.49
408.34	393.21
408.54	444.70
408.73	414.27
408.92	348.74
409.11	444.70
409.30	437.68
409.49	393.21
409.68	425.98
409.87	407.25
410.07	381.51
410.26	381.51
410.45	440.02
410.64	386.19
410.83	411.93
411.02	411.93
411.21	479.81
411.40	402.57
411.59	456.40
411.78	435.34
411.98	444.70
412.17	444.70
412.36	381.51
412.55	390.87
412.74	383.85
412.93	468.11
413.12	407.25
413.31	470.45
413.50	341.72
413.69	400.23
413.88	449.38
414.07	465.77
414.26	358.10
414.45	322.99
414.64	442.36
414.83	360.44
415.02	397.89
415.22	444.70
415.41	475.13
415.60	402.57
415.79	402.57
415.98	367.46
416.17	423.64
416.36	440.02
416.55	351.08
416.74	393.21
416.93	397.89
417.12	414.27
417.31	337.04
417.50	482.15
417.69	386.19
417.88	454.06
418.07	418.96
418.26	365.12
418.45	425.98
418.64	461.09
418.83	428.32
419.02	465.77
419.21	383.85
419.39	440.02
419.58	435.34
419.77	369.80
419.96	395.55
420.15	437.68
420.34	458.74
420.53	411.93
420.72	372.15
420.91	454.06
421.10	411.93
421.29	334.70
421.48	365.12
421.67	402.57
421.86	397.89
422.05	433.00
422.24	386.19
422.43	400.23
422.61	404.91
422.80	416.62
422.99	395.55
423.18	454.06
423.37	454.06
423.56	437.68
423.75	468.11
423.94	440.02
424.13	454.06
424.32	449.38
424.50	440.02
424.69	341.72
424.88	402.57
425.07	353.42
425.26	353.42
425.45	360.44
425.64	395.55
425.83	430.66
426.01	397.89
426.20	425.98
426.39	461.09
426.58	454.06
426.77	447.04
426.96	400.23
427.15	456.40
427.33	425.98
427.52	430.66
427.71	435.34
427.90	442.36
428.09	351.08
428.28	414.27
428.46	388.53
428.65	418.96
428.84	362.78
429.03	437.68
429.22	365.12
429.40	409.59
429.59	414.27
429.78	435.34
429.97	386.19
430.16	484.49
430.34	400.23
430.53	414.27
430.72	376.83
430.91	477.47
431.10	433.00
431.28	440.02
431.47	395.55
431.66	402.57
431.85	397.89
432.03	418.96
432.22	383.85
432.41	390.87
432.60	433.00
432.79	430.66
432.97	381.51
433.16	442.36
433.35	379.17
433.54	416.62
433.72	449.38
433.91	386.19
434.10	393.21
434.28	447.04
434.47	477.47
434.66	428.32
434.85	468.11
435.03	376.83
435.22	435.34
435.41	475.13
435.59	388.53
435.78	440.02
435.97	362.78
436.16	428.32
436.34	423.64
436.53	411.93
436.72	440.02
436.90	454.06
437.09	468.11
437.28	454.06
437.46	379.17
437.65	414.27
437.84	372.15
438.02	437.68
438.21	423.64
438.40	437.68
438.58	374.49
438.77	489.17
438.96	358.10
439.14	440.02
439.33	407.25
439.52	346.40
439.70	379.17
439.89	440.02
440.08	400.23
440.26	395.55
440.45	397.89
440.63	367.46
440.82	395.55
441.01	430.66
441.19	374.49
441.38	379.17
441.57	379.17
441.75	360.44
441.94	402.57
442.12	400.23
442.31	381.51
442.50	362.78
442.68	421.30
442.87	362.78
443.05	418.96
443.24	416.62
443.43	411.93
443.61	465.77
443.80	444.70
443.98	372.15
444.17	409.59
444.35	425.98
444.54	440.02
444.73	447.04
444.91	442.36
445.10	355.76
445.28	423.64
445.47	400.23
445.65	397.89
445.84	461.09
446.02	407.25
446.21	407.25
446.39	383.85
446.58	379.17
446.77	442.36
446.95	411.93
447.14	435.34
447.32	411.93
447.51	433.00
447.69	362.78
447.88	421.30
448.06	507.90
448.25	465.77
448.43	358.10
448.62	440.02
448.80	376.83
448.99	425.98
449.17	390.87
449.36	339.38
449.54	414.27
449.73	416.62
449.91	456.40
450.10	409.59
450.28	468.11
450.46	416.62
450.65	425.98
450.83	355.76
451.02	444.70
451.20	339.38
451.39	367.46
451.57	425.98
451.76	444.70
451.94	456.40
452.13	407.25
452.31	367.46
452.49	332.36
452.68	388.53
452.86	362.78
453.05	442.36
453.23	479.81
453.42	374.49
453.60	423.64
453.78	400.23
453.97	402.57
454.15	355.76
454.34	395.55
454.52	428.32
454.70	421.30
454.89	395.55
455.07	433.00
455.26	390.87
455.44	414.27
455.62	470.45
455.81	402.57
455.99	456.40
456.17	479.81
456.36	404.91
456.54	367.46
456.73	372.15
456.91	418.96
457.09	440.02
457.28	433.00
457.46	482.15
457.64	433.00
457.83	421.30
458.01	428.32
458.19	475.13
458.38	484.49
458.56	341.72
458.74	397.89
458.93	402.57
459.11	397.89
459.29	381.51
459.48	383.85
459.66	465.77
459.84	400.23
460.03	547.69
460.21	402.57
460.39	402.57
460.57	421.30
460.76	388.53
460.94	386.19
461.12	393.21
461.31	437.68
461.49	444.70
461.67	365.12
461.85	381.51
462.04	372.15
462.22	706.84
462.40	433.00
462.59	526.62
462.77	395.55
462.95	400.23
463.13	458.74
463.32	414.27
463.50	383.85
463.68	367.46
463.86	369.80
464.05	433.00
464.23	491.51
464.41	397.89
464.59	433.00
464.78	414.27
464.96	416.62
465.14	287.89
465.32	404.91
465.50	390.87
465.69	461.09
465.87	381.51
466.05	442.36
466.23	390.87
466.41	386.19
466.60	397.89
466.78	358.10
466.96	379.17
467.14	433.00
467.32	386.19
467.51	447.04
467.69	369.80
467.87	458.74
468.05	433.00
468.23	463.43
468.41	416.62
468.60	418.96
468.78	449.38
468.96	430.66
469.14	500.87
469.32	355.76
469.50	437.68
469.69	372.15
469.87	404.91
470.05	337.04
470.23	381.51
470.41	458.74
470.59	409.59
470.77	463.43
470.95	318.31
471.14	390.87
471.32	418.96
471.50	458.74
471.68	395.55
471.86	440.02
472.04	442.36
472.22	339.38
472.40	440.02
472.58	442.36
472.77	383.85
472.95	454.06
473.13	552.37
473.31	430.66
473.49	372.15
473.67	407.25
473.85	512.58
474.03	440.02
474.21	475.13
474.39	491.51
474.57	425.98
474.75	440.02
474.93	407.25
475.12	360.44
475.30	409.59
475.48	458.74
475.66	393.21
475.84	407.25
476.02	416.62
476.20	404.91
476.38	428.32
476.56	465.77
476.74	365.12
476.92	393.21
477.10	468.11
477.28	454.06
477.46	369.80
477.64	367.46
477.82	362.78
478.00	444.70
478.18	400.23
478.36	425.98
478.54	348.74
478.72	383.85
478.90	425.98
479.08	418.96
479.26	423.64
479.44	430.66
479.62	435.34
479.80	409.59
479.98	437.68
480.16	510.24
480.34	421.30
480.52	355.76
480.70	423.64
480.88	416.62
481.06	372.15
481.24	367.46
481.41	381.51
481.59	395.55
481.77	421.30
481.95	421.30
482.13	456.40
482.31	416.62
482.49	339.38
482.67	435.34
482.85	397.89
483.03	430.66
483.21	454.06
483.39	388.53
483.57	414.27
483.74	418.96
483.92	393.21
484.10	390.87
484.28	451.72
484.46	421.30
484.64	395.55
484.82	395.55
485.00	451.72
485.18	486.83
485.35	379.17
485.53	411.93
485.71	451.72
485.89	355.76
486.07	383.85
486.25	388.53
486.43	404.91
486.61	355.76
486.78	416.62
486.96	383.85
487.14	407.25
487.32	318.31
487.50	416.62
487.68	447.04
487.85	379.17
488.03	468.11
488.21	437.68
488.39	407.25
488.57	407.25
488.75	369.80
488.92	552.37
489.10	435.34
489.28	435.34
489.46	414.27
489.64	400.23
489.81	540.66
489.99	433.00
490.17	404.91
490.35	447.04
490.53	351.08
490.70	388.53
490.88	470.45
491.06	330.02
491.24	440.02
491.41	463.43
491.59	369.80
491.77	458.74
491.95	430.66
492.13	414.27
492.30	437.68
492.48	400.23
492.66	458.74
492.84	425.98
493.01	404.91
493.19	430.66
493.37	430.66
493.54	437.68
493.72	418.96
493.90	358.10
494.08	355.76
494.25	393.21
494.43	395.55
494.61	334.70
494.79	440.02
494.96	421.30
495.14	435.34
495.32	365.12
495.49	395.55
495.67	386.19
495.85	409.59
496.02	425.98
496.20	484.49
496.38	477.47
496.55	470.45
496.73	423.64
496.91	414.27
497.09	500.87
497.26	421.30
497.44	388.53
497.62	381.51
497.79	416.62
497.97	409.59
498.14	440.02
498.32	498.53
498.50	433.00
498.67	451.72
498.85	388.53
499.03	320.65
499.20	442.36
499.38	435.34
499.56	433.00
499.73	407.25
499.91	383.85
500.08	468.11
500.26	402.57
500.44	339.38
500.61	407.25
500.79	416.62
500.97	458.74
501.14	465.77
501.32	402.57
501.49	425.98
501.67	416.62
501.84	421.30
502.02	353.42
502.20	372.15
502.37	407.25
502.55	372.15
502.72	367.46
502.90	430.66
503.07	425.98
503.25	435.34
503.43	397.89
503.60	400.23
503.78	444.70
503.95	418.96
504.13	477.47
504.30	444.70
504.48	479.81
504.65	454.06
504.83	395.55
505.01	440.02
505.18	451.72
505.36	374.49
505.53	407.25
505.71	397.89
505.88	437.68
506.06	482.15
506.23	416.62
506.41	470.45
506.58	409.59
506.76	416.62
506.93	374.49
507.11	376.83
507.28	425.98
507.46	365.12
507.63	386.19
507.81	430.66
507.98	374.49
508.16	451.72
508.33	397.89
508.50	468.11
508.68	437.68
508.85	416.62
509.03	348.74
509.20	393.21
509.38	479.81
509.55	435.34
509.73	444.70
509.90	407.25
510.08	381.51
510.25	430.66
510.42	421.30
510.60	386.19
510.77	449.38
510.95	421.30
511.12	376.83
511.30	447.04
511.47	374.49
511.64	407.25
511.82	449.38
511.99	374.49
512.17	435.34
512.34	400.23
512.51	358.10
512.69	440.02
512.86	456.40
513.04	472.79
513.21	400.23
513.38	425.98
513.56	369.80
513.73	414.27
513.90	409.59
514.08	402.57
514.25	390.87
514.43	358.10
514.60	379.17
514.77	393.21
514.95	404.91
515.12	407.25
515.29	381.51
515.47	414.27
515.64	451.72
515.81	393.21
515.99	507.90
516.16	400.23
516.33	468.11
516.51	463.43
516.68	355.76
516.85	428.32
517.03	421.30
517.20	376.83
517.37	407.25
517.54	388.53
517.72	440.02
517.89	372.15
518.06	341.72
518.24	425.98
518.41	381.51
518.58	449.38
518.75	449.38
518.93	411.93
519.10	489.17
519.27	407.25
519.45	358.10
519.62	449.38
519.79	367.46
519.96	416.62
520.14	416.62
520.31	435.34
520.48	381.51
520.65	409.59
520.83	351.08
521.00	353.42
521.17	365.12
521.34	407.25
521.52	404.91
521.69	409.59
521.86	383.85
522.03	383.85
522.20	447.04
522.38	365.12
522.55	379.17
522.72	383.85
522.89	414.27
523.07	402.57
523.24	430.66
523.41	386.19
523.58	379.17
523.75	440.02
523.92	404.91
524.10	348.74
524.27	468.11
524.44	425.98
524.61	430.66
524.78	393.21
524.96	355.76
525.13	449.38
525.30	421.30
525.47	463.43
525.64	442.36
525.81	418.96
525.98	367.46
526.16	416.62
526.33	416.62
526.50	444.70
526.67	400.23
526.84	383.85
527.01	416.62
527.18	465.77
527.36	510.24
527.53	407.25
527.70	444.70
527.87	365.12
528.04	456.40
528.21	423.64
528.38	463.43
528.55	463.43
528.72	379.17
528.89	451.72
529.07	351.08
529.24	416.62
529.41	524.28
529.58	442.36
529.75	435.34
529.92	381.51
530.09	346.40
530.26	440.02
530.43	461.09
530.60	421.30
530.77	465.77
530.94	402.57
531.11	348.74
531.28	327.68
531.46	393.21
531.63	435.34
531.80	376.83
531.97	388.53
532.14	435.34
532.31	411.93
532.48	421.30
532.65	421.30
532.82	416.62
532.99	369.80
533.16	388.53
533.33	397.89
533.50	372.15
533.67	428.32
533.84	449.38
534.01	344.06
534.18	456.40
534.35	421.30
534.52	390.87
534.69	416.62
534.86	374.49
535.03	451.72
535.20	397.89
535.37	433.00
535.54	404.91
535.71	463.43
535.88	437.68
536.05	444.70
536.22	440.02
536.38	383.85
536.55	409.59
536.72	451.72
536.89	397.89
537.06	435.34
537.23	444.70
537.40	383.85
537.57	463.43
537.74	512.58
537.91	404.91
538.08	330.02
538.25	447.04
538.42	395.55
538.59	383.85
538.75	484.49
538.92	407.25
539.09	442.36
539.26	475.13
539.43	475.13
539.60	489.17
539.77	400.23
539.94	414.27
540.11	334.70
540.28	454.06
540.44	479.81
540.61	416.62
540.78	404.91
540.95	428.32
541.12	430.66
541.29	390.87
541.46	433.00
541.62	472.79
541.79	428.32
541.96	414.27
542.13	355.76
542.30	393.21
542.47	416.62
542.63	365.12
542.80	440.02
542.97	500.87
543.14	433.00
543.31	454.06
543.48	400.23
543.64	418.96
543.81	404.91
543.98	390.87
544.15	381.51
544.32	388.53
544.48	421.30
544.65	379.17
544.82	325.33
544.99	465.77
545.16	440.02
545.32	421.30
545.49	402.57
545.66	402.57
545.83	414.27
546.00	409.59
546.16	386.19
546.33	421.30
546.50	416.62
546.67	461.09
546.83	376.83
547.00	454.06
547.17	369.80
547.34	402.57
547.50	442.36
547.67	433.00
547.84	416.62
548.00	402.57
548.17	437.68
548.34	442.36
548.51	444.70
548.67	372.15
548.84	456.40
549.01	381.51
549.18	416.62
549.34	491.51
549.51	477.47
549.68	348.74
549.84	372.15
550.01	395.55
550.18	440.02
550.34	418.96
550.51	397.89
550.68	505.56
550.84	465.77
551.01	454.06
551.18	437.68
551.34	418.96
551.51	451.72
551.68	404.91
551.84	425.98
552.01	388.53
552.18	390.87
552.34	390.87
552.51	444.70
552.68	430.66
552.84	395.55
553.01	433.00
553.18	418.96
553.34	428.32
553.51	404.91
553.67	470.45
553.84	454.06
554.01	440.02
554.17	404.91
554.34	447.04
554.51	484.49
554.67	407.25
554.84	414.27
555.00	428.32
555.17	486.83
555.33	428.32
555.50	442.36
555.67	397.89
555.83	409.59
556.00	449.38
556.16	547.69
556.33	449.38
556.50	372.15
556.66	444.70
556.83	393.21
556.99	451.72
557.16	341.72
557.32	381.51
557.49	428.32
557.65	421.30
557.82	482.15
557.98	416.62
558.15	334.70
558.32	390.87
558.48	388.53
558.65	486.83
558.81	440.02
558.98	411.93
559.14	433.00
559.31	463.43
559.47	498.53
559.64	454.06
559.80	411.93
559.97	339.38
560.13	397.89
560.30	360.44
560.46	416.62
560.63	440.02
560.79	351.08
560.96	388.53
561.12	416.62
561.29	418.96
561.45	430.66
561.61	444.70
561.78	428.32
561.94	454.06
562.11	425.98
562.27	447.04
562.44	475.13
562.60	332.36
562.77	414.27
562.93	454.06
563.10	472.79
563.26	379.17
563.42	451.72
563.59	414.27
563.75	409.59
563.92	444.70
564.08	468.11
564.24	425.98
564.41	444.70
564.57	500.87
564.74	353.42
564.90	425.98
565.07	400.23
565.23	416.62
565.39	374.49
565.56	482.15
565.72	397.89
565.88	414.27
566.05	428.32
566.21	365.12
566.38	376.83
566.54	430.66
566.70	390.87
566.87	397.89
567.03	454.06
567.19	409.59
567.36	400.23
567.52	433.00
567.68	435.34
567.85	381.51
568.01	407.25
568.17	468.11
568.34	393.21
568.50	442.36
568.66	414.27
568.83	507.90
568.99	383.85
569.15	416.62
569.32	423.64
569.48	355.76
569.64	353.42
569.81	451.72
569.97	454.06
570.13	425.98
570.30	404.91
570.46	465.77
570.62	369.80
570.78	444.70
570.95	489.17
571.11	388.53
571.27	383.85
571.43	407.25
571.60	365.12
571.76	358.10
571.92	379.17
572.09	447.04
572.25	430.66
572.41	458.74
572.57	447.04
572.74	503.22
572.90	451.72
573.06	451.72
573.22	397.89
573.38	414.27
573.55	433.00
573.71	435.34
573.87	435.34
574.03	390.87
574.20	395.55
574.36	407.25
574.52	374.49
574.68	400.23
574.84	470.45
575.01	458.74
575.17	430.66
575.33	360.44
575.49	383.85
575.65	437.68
575.82	463.43
575.98	287.89
576.14	374.49
576.30	475.13
576.46	435.34
576.62	369.80
576.79	374.49
576.95	418.96
577.11	461.09
577.27	346.40
577.43	479.81
577.59	416.62
577.75	449.38
577.92	440.02
578.08	416.62
578.24	369.80
578.40	416.62
578.56	386.19
578.72	414.27
578.88	418.96
579.04	416.62
579.21	430.66
579.37	372.15
579.53	381.51
579.69	397.89
579.85	411.93
580.01	444.70
580.17	355.76
580.33	416.62
580.49	444.70
580.65	449.38
580.82	409.59
580.98	360.44
581.14	379.17
581.30	435.34
581.46	421.30
581.62	458.74
581.78	390.87
581.94	407.25
582.10	348.74
582.26	479.81
582.42	435.34
582.58	440.02
582.74	358.10
582.90	440.02
583.06	386.19
583.22	372.15
583.38	411.93
583.54	409.59
583.70	388.53
583.86	404.91
584.02	393.21
584.18	491.51
584.34	451.72
584.50	451.72
584.66	418.96
584.82	458.74
584.98	386.19
585.14	400.23
585.30	402.57
585.46	416.62
585.62	447.04
585.78	440.02
585.94	416.62
586.10	376.83
586.26	400.23
586.42	470.45
586.58	332.36
586.74	383.85
586.90	435.34
587.06	493.85
587.22	475.13
587.38	423.64
587.54	402.57
587.70	468.11
587.86	418.96
588.02	416.62
588.18	400.23
588.34	346.40
588.49	395.55
588.65	416.62
588.81	433.00
588.97	390.87
589.13	355.76
589.29	416.62
589.45	430.66
589.61	421.30
589.77	421.30
589.93	388.53
590.08	397.89
590.24	416.62
590.40	390.87
590.56	393.21
590.72	346.40
590.88	334.70
591.04	442.36
591.20	458.74
591.35	440.02
591.51	365.12
591.67	423.64
591.83	411.93
591.99	433.00
592.15	472.79
592.31	435.34
592.46	414.27
592.62	421.30
592.78	372.15
592.94	421.30
593.10	393.21
593.26	402.57
593.41	433.00
593.57	423.64
593.73	400.23
593.89	386.19
594.05	404.91
594.20	372.15
594.36	395.55
594.52	388.53
594.68	416.62
594.84	465.77
594.99	414.27
595.15	397.89
595.31	503.22
595.47	465.77
595.62	425.98
595.78	355.76
595.94	468.11
596.10	386.19
596.25	404.91
596.41	367.46
596.57	351.08
596.73	454.06
596.88	414.27
597.04	414.27
597.20	423.64
597.36	451.72
597.51	386.19
597.67	404.91
597.83	461.09
597.99	416.62
598.14	435.34
598.30	461.09
598.46	468.11
598.61	498.53
598.77	491.51
598.93	428.32
599.09	407.25
599.24	430.66
599.40	449.38
599.56	374.49
599.71	456.40
599.87	362.78
600.03	416.62
600.18	418.96
600.34	472.79
600.50	395.55
600.65	369.80
600.81	418.96
600.97	383.85
601.12	451.72
601.28	414.27
601.44	400.23
601.59	346.40
601.75	428.32
601.91	411.93
602.06	397.89
602.22	435.34
602.37	435.34
602.53	470.45
602.69	538.32
602.84	320.65
603.00	456.40
603.16	468.11
603.31	372.15
603.47	400.23
603.62	358.10
603.78	440.02
603.94	477.47
604.09	402.57
604.25	376.83
604.40	423.64
604.56	433.00
604.71	456.40
604.87	435.34
605.03	411.93
605.18	409.59
605.34	477.47
605.49	456.40
605.65	416.62
605.80	407.25
605.96	386.19
606.12	395.55
606.27	407.25
606.43	348.74
606.58	437.68
606.74	416.62
606.89	430.66
607.05	442.36
607.20	514.92
607.36	444.70
607.51	440.02
607.67	409.59
607.82	374.49
607.98	404.91
608.13	416.62
608.29	416.62
608.44	395.55
608.60	444.70
608.75	512.58
608.91	409.59
609.06	510.24
609.22	428.32
609.37	444.70
609.53	325.33
609.68	437.68
609.84	433.00
609.99	369.80
610.15	421.30
