SpectraSuite Data File
++++++++++++++++++++++++++++++++++++
Date: Fri Oct 25 12:11:44 EDT 2013
User: price-jones
Dark Spectrum Present: No
Reference Spectrum Present: No
Number of Sampled Component Spectra: 1
Spectrometers: USB2+H05261
Integration Time (usec): 100000 (USB2+H05261)
Spectra Averaged: 1 (USB2+H05261)
Boxcar Smoothing: 0 (USB2+H05261)
Correct for Electrical Dark: No (USB2+H05261)
Strobe/Lamp Enabled: No (USB2+H05261)
Correct for Detector Non-linearity: No (USB2+H05261)
Correct for Stray Light: No (USB2+H05261)
Number of Pixels in Processed Spectrum: 2048
>>>>>Begin Processed Spectral Data<<<<<
365.73	313.63
365.92	313.63
366.12	313.63
366.32	283.20
366.52	222.35
366.72	280.86
366.91	220.01
367.11	241.08
367.31	217.67
367.51	175.54
367.70	255.12
367.90	222.35
368.10	266.82
368.30	269.16
368.49	294.91
368.69	238.73
368.89	308.95
369.09	259.80
369.28	245.76
369.48	280.86
369.68	266.82
369.87	285.55
370.07	224.69
370.27	388.53
370.47	355.76
370.66	294.91
370.86	290.23
371.06	374.49
371.25	379.17
371.45	367.46
371.65	393.21
371.84	346.40
372.04	383.85
372.24	418.96
372.44	388.53
372.63	411.93
372.83	379.17
373.03	404.91
373.22	362.78
373.42	353.42
373.62	440.02
373.81	404.91
374.01	484.49
374.21	433.00
374.40	369.80
374.60	383.85
374.79	435.34
374.99	348.74
375.19	381.51
375.38	521.94
375.58	512.58
375.78	428.32
375.97	397.89
376.17	493.85
376.37	418.96
376.56	493.85
376.76	395.55
376.95	386.19
377.15	411.93
377.35	435.34
377.54	449.38
377.74	451.72
377.93	365.12
378.13	327.68
378.33	486.83
378.52	437.68
378.72	411.93
378.91	334.70
379.11	344.06
379.31	451.72
379.50	423.64
379.70	372.15
379.89	425.98
380.09	414.27
380.28	409.59
380.48	526.62
380.68	346.40
380.87	351.08
381.07	437.68
381.26	442.36
381.46	498.53
381.65	383.85
381.85	444.70
382.04	339.38
382.24	468.11
382.43	390.87
382.63	393.21
382.83	461.09
383.02	409.59
383.22	449.38
383.41	402.57
383.61	444.70
383.80	409.59
384.00	468.11
384.19	425.98
384.39	383.85
384.58	477.47
384.78	451.72
384.97	407.25
385.17	353.42
385.36	400.23
385.56	390.87
385.75	362.78
385.95	330.02
386.14	421.30
386.34	449.38
386.53	372.15
386.72	355.76
386.92	484.49
387.11	395.55
387.31	390.87
387.50	421.30
387.70	365.12
387.89	365.12
388.09	381.51
388.28	400.23
388.48	365.12
388.67	374.49
388.86	383.85
389.06	397.89
389.25	423.64
389.45	447.04
389.64	430.66
389.84	393.21
390.03	369.80
390.22	479.81
390.42	489.17
390.61	425.98
390.81	425.98
391.00	435.34
391.19	411.93
391.39	386.19
391.58	416.62
391.78	414.27
391.97	409.59
392.16	463.43
392.36	442.36
392.55	411.93
392.75	393.21
392.94	433.00
393.13	451.72
393.33	400.23
393.52	411.93
393.71	390.87
393.91	390.87
394.10	388.53
394.29	435.34
394.49	433.00
394.68	470.45
394.88	400.23
395.07	400.23
395.26	430.66
395.46	318.31
395.65	409.59
395.84	435.34
396.04	465.77
396.23	458.74
396.42	423.64
396.62	433.00
396.81	365.12
397.00	395.55
397.19	409.59
397.39	369.80
397.58	402.57
397.77	395.55
397.97	437.68
398.16	437.68
398.35	390.87
398.55	332.36
398.74	402.57
398.93	451.72
399.12	461.09
399.32	393.21
399.51	369.80
399.70	449.38
399.90	402.57
400.09	440.02
400.28	379.17
400.47	367.46
400.67	346.40
400.86	320.65
401.05	374.49
401.24	374.49
401.44	442.36
401.63	428.32
401.82	425.98
402.01	425.98
402.21	388.53
402.40	461.09
402.59	388.53
402.78	411.93
402.97	381.51
403.17	393.21
403.36	379.17
403.55	411.93
403.74	358.10
403.93	444.70
404.13	414.27
404.32	372.15
404.51	423.64
404.70	404.91
404.89	416.62
405.09	461.09
405.28	381.51
405.47	437.68
405.66	437.68
405.85	393.21
406.05	386.19
406.24	388.53
406.43	402.57
406.62	449.38
406.81	404.91
407.00	447.04
407.20	379.17
407.39	425.98
407.58	365.12
407.77	449.38
407.96	430.66
408.15	430.66
408.34	360.44
408.54	433.00
408.73	423.64
408.92	346.40
409.11	451.72
409.30	442.36
409.49	430.66
409.68	477.47
409.87	395.55
410.07	409.59
410.26	383.85
410.45	374.49
410.64	414.27
410.83	433.00
411.02	482.15
411.21	505.56
411.40	402.57
411.59	433.00
411.78	449.38
411.98	444.70
412.17	435.34
412.36	449.38
412.55	351.08
412.74	388.53
412.93	440.02
413.12	358.10
413.31	397.89
413.50	372.15
413.69	465.77
413.88	489.17
414.07	437.68
414.26	395.55
414.45	428.32
414.64	393.21
414.83	388.53
415.02	407.25
415.22	416.62
415.41	393.21
415.60	390.87
415.79	369.80
415.98	400.23
416.17	388.53
416.36	409.59
416.55	409.59
416.74	379.17
416.93	393.21
417.12	454.06
417.31	395.55
417.50	386.19
417.69	402.57
417.88	437.68
418.07	447.04
418.26	367.46
418.45	428.32
418.64	421.30
418.83	341.72
419.02	463.43
419.21	411.93
419.39	430.66
419.58	397.89
419.77	416.62
419.96	442.36
420.15	409.59
420.34	440.02
420.53	489.17
420.72	395.55
420.91	447.04
421.10	407.25
421.29	372.15
421.48	386.19
421.67	447.04
421.86	376.83
422.05	416.62
422.24	428.32
422.43	390.87
422.61	421.30
422.80	472.79
422.99	409.59
423.18	451.72
423.37	421.30
423.56	418.96
423.75	416.62
423.94	468.11
424.13	437.68
424.32	470.45
424.50	393.21
424.69	437.68
424.88	421.30
425.07	437.68
425.26	421.30
425.45	423.64
425.64	404.91
425.83	437.68
426.01	404.91
426.20	500.87
426.39	437.68
426.58	397.89
426.77	367.46
426.96	369.80
427.15	435.34
427.33	456.40
427.52	411.93
427.71	360.44
427.90	444.70
428.09	407.25
428.28	397.89
428.46	421.30
428.65	395.55
428.84	376.83
429.03	449.38
429.22	409.59
429.40	379.17
429.59	416.62
429.78	463.43
429.97	404.91
430.16	367.46
430.34	402.57
430.53	402.57
430.72	402.57
430.91	402.57
431.10	440.02
431.28	421.30
431.47	430.66
431.66	358.10
431.85	383.85
432.03	437.68
432.22	521.94
432.41	454.06
432.60	433.00
432.79	358.10
432.97	425.98
433.16	449.38
433.35	362.78
433.54	418.96
433.72	395.55
433.91	388.53
434.10	440.02
434.28	425.98
434.47	365.12
434.66	437.68
434.85	409.59
435.03	390.87
435.22	404.91
435.41	360.44
435.59	411.93
435.78	465.77
435.97	390.87
436.16	463.43
436.34	369.80
436.53	505.56
436.72	430.66
436.90	423.64
437.09	395.55
437.28	486.83
437.46	449.38
437.65	435.34
437.84	411.93
438.02	444.70
438.21	465.77
438.40	456.40
438.58	425.98
438.77	358.10
438.96	308.95
439.14	395.55
439.33	428.32
439.52	353.42
439.70	442.36
439.89	407.25
440.08	449.38
440.26	444.70
440.45	472.79
440.63	372.15
440.82	428.32
441.01	395.55
441.19	418.96
441.38	425.98
441.57	440.02
441.75	418.96
441.94	475.13
442.12	358.10
442.31	402.57
442.50	386.19
442.68	409.59
442.87	383.85
443.05	454.06
443.24	388.53
443.43	395.55
443.61	463.43
443.80	362.78
443.98	393.21
444.17	421.30
444.35	442.36
444.54	484.49
444.73	489.17
444.91	404.91
445.10	447.04
445.28	418.96
445.47	430.66
445.65	447.04
445.84	397.89
446.02	423.64
446.21	407.25
446.39	407.25
446.58	330.02
446.77	367.46
446.95	423.64
447.14	414.27
447.32	437.68
447.51	404.91
447.69	456.40
447.88	388.53
448.06	456.40
448.25	379.17
448.43	430.66
448.62	411.93
448.80	428.32
448.99	451.72
449.17	404.91
449.36	348.74
449.54	407.25
449.73	440.02
449.91	353.42
450.10	383.85
450.28	416.62
450.46	493.85
450.65	435.34
450.83	547.69
451.02	388.53
451.20	444.70
451.39	421.30
451.57	440.02
451.76	414.27
451.94	451.72
452.13	449.38
452.31	369.80
452.49	355.76
452.68	472.79
452.86	414.27
453.05	430.66
453.23	365.12
453.42	430.66
453.60	367.46
453.78	440.02
453.97	376.83
454.15	414.27
454.34	430.66
454.52	379.17
454.70	444.70
454.89	479.81
455.07	386.19
455.26	409.59
455.44	390.87
455.62	376.83
455.81	447.04
455.99	355.76
456.17	358.10
456.36	404.91
456.54	381.51
456.73	505.56
456.91	369.80
457.09	435.34
457.28	468.11
457.46	400.23
457.64	423.64
457.83	416.62
458.01	400.23
458.19	425.98
458.38	404.91
458.56	463.43
458.74	475.13
458.93	372.15
459.11	430.66
459.29	388.53
459.48	447.04
459.66	397.89
459.84	451.72
460.03	498.53
460.21	376.83
460.39	383.85
460.57	428.32
460.76	447.04
460.94	374.49
461.12	437.68
461.31	418.96
461.49	379.17
461.67	449.38
461.85	397.89
462.04	395.55
462.22	807.48
462.40	437.68
462.59	463.43
462.77	407.25
462.95	428.32
463.13	433.00
463.32	456.40
463.50	388.53
463.68	447.04
463.86	435.34
464.05	465.77
464.23	423.64
464.41	477.47
464.59	402.57
464.78	397.89
464.96	423.64
465.14	400.23
465.32	454.06
465.50	353.42
465.69	341.72
465.87	475.13
466.05	491.51
466.23	400.23
466.41	416.62
466.60	433.00
466.78	395.55
466.96	458.74
467.14	454.06
467.32	449.38
467.51	531.30
467.69	470.45
467.87	524.28
468.05	416.62
468.23	386.19
468.41	421.30
468.60	411.93
468.78	435.34
468.96	451.72
469.14	425.98
469.32	395.55
469.50	402.57
469.69	425.98
469.87	409.59
470.05	407.25
470.23	369.80
470.41	383.85
470.59	395.55
470.77	379.17
470.95	404.91
471.14	430.66
471.32	397.89
471.50	433.00
471.68	435.34
471.86	456.40
472.04	341.72
472.22	458.74
472.40	414.27
472.58	348.74
472.77	416.62
472.95	379.17
473.13	468.11
473.31	472.79
473.49	449.38
473.67	339.38
473.85	395.55
474.03	390.87
474.21	442.36
474.39	451.72
474.57	447.04
474.75	444.70
474.93	386.19
475.12	367.46
475.30	404.91
475.48	404.91
475.66	404.91
475.84	397.89
476.02	458.74
476.20	383.85
476.38	477.47
476.56	447.04
476.74	362.78
476.92	444.70
477.10	416.62
477.28	390.87
477.46	423.64
477.64	402.57
477.82	451.72
478.00	386.19
478.18	461.09
478.36	421.30
478.54	383.85
478.72	444.70
478.90	397.89
479.08	491.51
479.26	463.43
479.44	381.51
479.62	294.91
479.80	411.93
479.98	486.83
480.16	367.46
480.34	437.68
480.52	400.23
480.70	351.08
480.88	409.59
481.06	358.10
481.24	372.15
481.41	442.36
481.59	428.32
481.77	440.02
481.95	433.00
482.13	442.36
482.31	437.68
482.49	428.32
482.67	463.43
482.85	388.53
483.03	425.98
483.21	491.51
483.39	414.27
483.57	407.25
483.74	489.17
483.92	468.11
484.10	425.98
484.28	376.83
484.46	442.36
484.64	416.62
484.82	386.19
485.00	418.96
485.18	435.34
485.35	407.25
485.53	416.62
485.71	477.47
485.89	465.77
486.07	475.13
486.25	442.36
486.43	444.70
486.61	400.23
486.78	449.38
486.96	372.15
487.14	425.98
487.32	416.62
487.50	344.06
487.68	447.04
487.85	428.32
488.03	447.04
488.21	428.32
488.39	423.64
488.57	414.27
488.75	404.91
488.92	479.81
489.10	334.70
489.28	409.59
489.46	421.30
489.64	395.55
489.81	390.87
489.99	400.23
490.17	421.30
490.35	489.17
490.53	421.30
490.70	411.93
490.88	472.79
491.06	407.25
491.24	440.02
491.41	463.43
491.59	475.13
491.77	386.19
491.95	372.15
492.13	404.91
492.30	362.78
492.48	407.25
492.66	383.85
492.84	407.25
493.01	402.57
493.19	411.93
493.37	449.38
493.54	423.64
493.72	376.83
493.90	435.34
494.08	404.91
494.25	407.25
494.43	404.91
494.61	388.53
494.79	348.74
494.96	428.32
495.14	475.13
495.32	416.62
495.49	449.38
495.67	454.06
495.85	400.23
496.02	383.85
496.20	468.11
496.38	395.55
496.55	395.55
496.73	461.09
496.91	393.21
497.09	404.91
497.26	451.72
497.44	402.57
497.62	423.64
497.79	425.98
497.97	374.49
498.14	395.55
498.32	418.96
498.50	374.49
498.67	327.68
498.85	381.51
499.03	449.38
499.20	435.34
499.38	456.40
499.56	390.87
499.73	433.00
499.91	479.81
500.08	393.21
500.26	421.30
500.44	369.80
500.61	416.62
500.79	386.19
500.97	414.27
501.14	400.23
501.32	379.17
501.49	435.34
501.67	381.51
501.84	381.51
502.02	395.55
502.20	468.11
502.37	418.96
502.55	362.78
502.72	423.64
502.90	461.09
503.07	442.36
503.25	425.98
503.43	372.15
503.60	360.44
503.78	414.27
503.95	407.25
504.13	414.27
504.30	416.62
504.48	348.74
504.65	435.34
504.83	367.46
505.01	421.30
505.18	411.93
505.36	376.83
505.53	393.21
505.71	425.98
505.88	440.02
506.06	421.30
506.23	421.30
506.41	390.87
506.58	416.62
506.76	376.83
506.93	435.34
507.11	463.43
507.28	425.98
507.46	353.42
507.63	435.34
507.81	390.87
507.98	407.25
508.16	397.89
508.33	435.34
508.50	472.79
508.68	433.00
508.85	430.66
509.03	414.27
509.20	416.62
509.38	447.04
509.55	468.11
509.73	458.74
509.90	449.38
510.08	458.74
510.25	437.68
510.42	327.68
510.60	465.77
510.77	451.72
510.95	451.72
511.12	386.19
511.30	400.23
511.47	484.49
511.64	451.72
511.82	337.04
511.99	437.68
512.17	416.62
512.34	423.64
512.51	461.09
512.69	409.59
512.86	442.36
513.04	395.55
513.21	479.81
513.38	388.53
513.56	479.81
513.73	444.70
513.90	437.68
514.08	367.46
514.25	395.55
514.43	390.87
514.60	390.87
514.77	470.45
514.95	362.78
515.12	489.17
515.29	402.57
515.47	360.44
515.64	393.21
515.81	418.96
515.99	416.62
516.16	402.57
516.33	479.81
516.51	353.42
516.68	379.17
516.85	442.36
517.03	402.57
517.20	475.13
517.37	402.57
517.54	404.91
517.72	430.66
517.89	383.85
518.06	451.72
518.24	400.23
518.41	435.34
518.58	423.64
518.75	447.04
518.93	433.00
519.10	447.04
519.27	404.91
519.45	407.25
519.62	400.23
519.79	334.70
519.96	376.83
520.14	437.68
520.31	479.81
520.48	397.89
520.65	437.68
520.83	423.64
521.00	472.79
521.17	442.36
521.34	425.98
521.52	463.43
521.69	484.49
521.86	484.49
522.03	407.25
522.20	451.72
522.38	362.78
522.55	477.47
522.72	449.38
522.89	358.10
523.07	442.36
523.24	472.79
523.41	433.00
523.58	386.19
523.75	407.25
523.92	372.15
524.10	416.62
524.27	484.49
524.44	400.23
524.61	390.87
524.78	444.70
524.96	435.34
525.13	390.87
525.30	433.00
525.47	512.58
525.64	470.45
525.81	456.40
525.98	437.68
526.16	498.53
526.33	376.83
526.50	409.59
526.67	379.17
526.84	411.93
527.01	374.49
527.18	379.17
527.36	397.89
527.53	407.25
527.70	489.17
527.87	479.81
528.04	411.93
528.21	376.83
528.38	416.62
528.55	428.32
528.72	395.55
528.89	332.36
529.07	411.93
529.24	388.53
529.41	437.68
529.58	444.70
529.75	421.30
529.92	374.49
530.09	423.64
530.26	428.32
530.43	402.57
530.60	383.85
530.77	418.96
530.94	365.12
531.11	472.79
531.28	393.21
531.46	376.83
531.63	390.87
531.80	407.25
531.97	491.51
532.14	383.85
532.31	379.17
532.48	372.15
532.65	402.57
532.82	393.21
532.99	421.30
533.16	465.77
533.33	423.64
533.50	407.25
533.67	388.53
533.84	458.74
534.01	346.40
534.18	360.44
534.35	435.34
534.52	444.70
534.69	402.57
534.86	376.83
535.03	390.87
535.20	421.30
535.37	463.43
535.54	428.32
535.71	433.00
535.88	435.34
536.05	355.76
536.22	433.00
536.38	416.62
536.55	442.36
536.72	454.06
536.89	472.79
537.06	435.34
537.23	402.57
537.40	407.25
537.57	351.08
537.74	498.53
537.91	418.96
538.08	395.55
538.25	454.06
538.42	430.66
538.59	425.98
538.75	425.98
538.92	463.43
539.09	475.13
539.26	430.66
539.43	437.68
539.60	425.98
539.77	430.66
539.94	346.40
540.11	395.55
540.28	334.70
540.44	440.02
540.61	440.02
540.78	430.66
540.95	381.51
541.12	341.72
541.29	355.76
541.46	472.79
541.62	390.87
541.79	358.10
541.96	383.85
542.13	376.83
542.30	428.32
542.47	430.66
542.63	407.25
542.80	411.93
542.97	444.70
543.14	367.46
543.31	374.49
543.48	465.77
543.64	414.27
543.81	428.32
543.98	322.99
544.15	351.08
544.32	454.06
544.48	404.91
544.65	465.77
544.82	348.74
544.99	451.72
545.16	498.53
545.32	449.38
545.49	397.89
545.66	430.66
545.83	393.21
546.00	425.98
546.16	395.55
546.33	402.57
546.50	416.62
546.67	402.57
546.83	535.98
547.00	458.74
547.17	353.42
547.34	407.25
547.50	411.93
547.67	486.83
547.84	402.57
548.00	442.36
548.17	355.76
548.34	416.62
548.51	482.15
548.67	444.70
548.84	402.57
549.01	414.27
549.18	440.02
549.34	423.64
549.51	477.47
549.68	416.62
549.84	390.87
550.01	402.57
550.18	491.51
550.34	498.53
550.51	440.02
550.68	463.43
550.84	369.80
551.01	449.38
551.18	397.89
551.34	416.62
551.51	360.44
551.68	411.93
551.84	416.62
552.01	421.30
552.18	454.06
552.34	477.47
552.51	423.64
552.68	416.62
552.84	425.98
553.01	379.17
553.18	344.06
553.34	325.33
553.51	388.53
553.67	437.68
553.84	390.87
554.01	461.09
554.17	414.27
554.34	376.83
554.51	442.36
554.67	425.98
554.84	442.36
555.00	376.83
555.17	437.68
555.33	390.87
555.50	409.59
555.67	435.34
555.83	456.40
556.00	379.17
556.16	592.16
556.33	528.96
556.50	444.70
556.66	416.62
556.83	351.08
556.99	411.93
557.16	421.30
557.32	414.27
557.49	409.59
557.65	304.27
557.82	404.91
557.98	461.09
558.15	358.10
558.32	400.23
558.48	414.27
558.65	425.98
558.81	477.47
558.98	449.38
559.14	390.87
559.31	383.85
559.47	367.46
559.64	402.57
559.80	395.55
559.97	430.66
560.13	379.17
560.30	374.49
560.46	411.93
560.63	383.85
560.79	404.91
560.96	388.53
561.12	425.98
561.29	433.00
561.45	463.43
561.61	409.59
561.78	496.19
561.94	421.30
562.11	367.46
562.27	404.91
562.44	393.21
562.60	374.49
562.77	400.23
562.93	461.09
563.10	372.15
563.26	493.85
563.42	400.23
563.59	425.98
563.75	397.89
563.92	404.91
564.08	416.62
564.24	442.36
564.41	475.13
564.57	404.91
564.74	442.36
564.90	395.55
565.07	430.66
565.23	526.62
565.39	395.55
565.56	472.79
565.72	437.68
565.88	416.62
566.05	393.21
566.21	376.83
566.38	461.09
566.54	458.74
566.70	411.93
566.87	425.98
567.03	320.65
567.19	388.53
567.36	435.34
567.52	327.68
567.68	437.68
567.85	407.25
568.01	414.27
568.17	397.89
568.34	430.66
568.50	440.02
568.66	409.59
568.83	430.66
568.99	414.27
569.15	449.38
569.32	435.34
569.48	454.06
569.64	367.46
569.81	416.62
569.97	341.72
570.13	414.27
570.30	388.53
570.46	414.27
570.62	440.02
570.78	397.89
570.95	386.19
571.11	456.40
571.27	472.79
571.43	435.34
571.60	437.68
571.76	440.02
571.92	447.04
572.09	416.62
572.25	409.59
572.41	383.85
572.57	461.09
572.74	510.24
572.90	465.77
573.06	379.17
573.22	409.59
573.38	421.30
573.55	451.72
573.71	414.27
573.87	425.98
574.03	393.21
574.20	468.11
574.36	430.66
574.52	456.40
574.68	416.62
574.84	425.98
575.01	463.43
575.17	447.04
575.33	383.85
575.49	440.02
575.65	433.00
575.82	465.77
575.98	414.27
576.14	475.13
576.30	397.89
576.46	447.04
576.62	430.66
576.79	428.32
576.95	418.96
577.11	411.93
577.27	369.80
577.43	444.70
577.59	414.27
577.75	351.08
577.92	421.30
578.08	390.87
578.24	418.96
578.40	437.68
578.56	383.85
578.72	496.19
578.88	437.68
579.04	402.57
579.21	517.26
579.37	360.44
579.53	428.32
579.69	449.38
579.85	447.04
580.01	353.42
580.17	449.38
580.33	444.70
580.49	451.72
580.65	519.60
580.82	390.87
580.98	360.44
581.14	416.62
581.30	440.02
581.46	454.06
581.62	353.42
581.78	379.17
581.94	388.53
582.10	407.25
582.26	447.04
582.42	416.62
582.58	451.72
582.74	334.70
582.90	353.42
583.06	395.55
583.22	411.93
583.38	388.53
583.54	428.32
583.70	425.98
583.86	407.25
584.02	444.70
584.18	477.47
584.34	421.30
584.50	442.36
584.66	526.62
584.82	397.89
584.98	416.62
585.14	390.87
585.30	421.30
585.46	454.06
585.62	337.04
585.78	451.72
585.94	447.04
586.10	369.80
586.26	362.78
586.42	402.57
586.58	444.70
586.74	390.87
586.90	362.78
587.06	491.51
587.22	428.32
587.38	374.49
587.54	372.15
587.70	421.30
587.86	458.74
588.02	437.68
588.18	421.30
588.34	383.85
588.49	472.79
588.65	409.59
588.81	428.32
588.97	372.15
589.13	372.15
589.29	491.51
589.45	381.51
589.61	404.91
589.77	421.30
589.93	367.46
590.08	355.76
590.24	461.09
590.40	435.34
590.56	458.74
590.72	475.13
590.88	416.62
591.04	390.87
591.20	421.30
591.35	510.24
591.51	486.83
591.67	390.87
591.83	421.30
591.99	435.34
592.15	465.77
592.31	440.02
592.46	402.57
592.62	428.32
592.78	423.64
592.94	416.62
593.10	449.38
593.26	463.43
593.41	442.36
593.57	454.06
593.73	423.64
593.89	395.55
594.05	421.30
594.20	390.87
594.36	451.72
594.52	393.21
594.68	400.23
594.84	421.30
594.99	407.25
595.15	440.02
595.31	507.90
595.47	418.96
595.62	482.15
595.78	435.34
595.94	409.59
596.10	437.68
596.25	379.17
596.41	437.68
596.57	379.17
596.73	397.89
596.88	423.64
597.04	395.55
597.20	355.76
597.36	435.34
597.51	414.27
597.67	397.89
597.83	414.27
597.99	468.11
598.14	393.21
598.30	404.91
598.46	444.70
598.61	386.19
598.77	428.32
598.93	344.06
599.09	402.57
599.24	337.04
599.40	390.87
599.56	440.02
599.71	468.11
599.87	414.27
600.03	379.17
600.18	395.55
600.34	421.30
600.50	447.04
600.65	388.53
600.81	454.06
600.97	379.17
601.12	486.83
601.28	510.24
601.44	430.66
601.59	440.02
601.75	379.17
601.91	395.55
602.06	486.83
602.22	423.64
602.37	395.55
602.53	388.53
602.69	468.11
602.84	381.51
603.00	397.89
603.16	451.72
603.31	444.70
603.47	334.70
603.62	437.68
603.78	449.38
603.94	486.83
604.09	472.79
604.25	463.43
604.40	433.00
604.56	421.30
604.71	418.96
604.87	372.15
605.03	379.17
605.18	376.83
605.34	418.96
605.49	433.00
605.65	428.32
605.80	442.36
605.96	416.62
606.12	447.04
606.27	400.23
606.43	409.59
606.58	465.77
606.74	374.49
606.89	418.96
607.05	479.81
607.20	381.51
607.36	423.64
607.51	411.93
607.67	379.17
607.82	411.93
607.98	430.66
608.13	416.62
608.29	400.23
608.44	472.79
608.60	407.25
608.75	433.00
608.91	416.62
609.06	475.13
609.22	395.55
609.37	470.45
609.53	416.62
609.68	383.85
609.84	374.49
609.99	407.25
610.15	428.32
