SpectraSuite Data File
++++++++++++++++++++++++++++++++++++
Date: Fri Oct 25 12:10:32 EDT 2013
User: price-jones
Dark Spectrum Present: No
Reference Spectrum Present: No
Number of Sampled Component Spectra: 1
Spectrometers: USB2+H05261
Integration Time (usec): 100000 (USB2+H05261)
Spectra Averaged: 1 (USB2+H05261)
Boxcar Smoothing: 0 (USB2+H05261)
Correct for Electrical Dark: No (USB2+H05261)
Strobe/Lamp Enabled: No (USB2+H05261)
Correct for Detector Non-linearity: No (USB2+H05261)
Correct for Stray Light: No (USB2+H05261)
Number of Pixels in Processed Spectrum: 2048
>>>>>Begin Processed Spectral Data<<<<<
365.73	381.51
365.92	381.51
366.12	381.51
366.32	236.39
366.52	227.03
366.72	222.35
366.91	255.12
367.11	257.46
367.31	222.35
367.51	273.84
367.70	220.01
367.90	320.65
368.10	205.97
368.30	243.42
368.49	276.18
368.69	257.46
368.89	292.57
369.09	294.91
369.28	252.78
369.48	245.76
369.68	318.31
369.87	297.25
370.07	348.74
370.27	313.63
370.47	311.29
370.66	330.02
370.86	358.10
371.06	367.46
371.25	458.74
371.45	365.12
371.65	360.44
371.84	386.19
372.04	369.80
372.24	447.04
372.44	383.85
372.63	327.68
372.83	409.59
373.03	465.77
373.22	444.70
373.42	416.62
373.62	416.62
373.81	383.85
374.01	440.02
374.21	409.59
374.40	395.55
374.60	461.09
374.79	430.66
374.99	458.74
375.19	414.27
375.38	404.91
375.58	407.25
375.78	435.34
375.97	444.70
376.17	454.06
376.37	447.04
376.56	414.27
376.76	423.64
376.95	407.25
377.15	395.55
377.35	397.89
377.54	390.87
377.74	437.68
377.93	318.31
378.13	395.55
378.33	463.43
378.52	374.49
378.72	447.04
378.91	395.55
379.11	372.15
379.31	376.83
379.50	421.30
379.70	447.04
379.89	440.02
380.09	388.53
380.28	447.04
380.48	407.25
380.68	425.98
380.87	393.21
381.07	360.44
381.26	348.74
381.46	430.66
381.65	449.38
381.85	376.83
382.04	430.66
382.24	367.46
382.43	421.30
382.63	425.98
382.83	362.78
383.02	407.25
383.22	407.25
383.41	400.23
383.61	341.72
383.80	411.93
384.00	416.62
384.19	425.98
384.39	430.66
384.58	376.83
384.78	418.96
384.97	414.27
385.17	430.66
385.36	468.11
385.56	418.96
385.75	402.57
385.95	402.57
386.14	437.68
386.34	465.77
386.53	444.70
386.72	435.34
386.92	425.98
387.11	367.46
387.31	360.44
387.50	341.72
387.70	322.99
387.89	379.17
388.09	409.59
388.28	344.06
388.48	407.25
388.67	397.89
388.86	440.02
389.06	454.06
389.25	411.93
389.45	458.74
389.64	339.38
389.84	458.74
390.03	379.17
390.22	454.06
390.42	416.62
390.61	374.49
390.81	362.78
391.00	367.46
391.19	468.11
391.39	360.44
391.58	355.76
391.78	402.57
391.97	353.42
392.16	388.53
392.36	383.85
392.55	402.57
392.75	376.83
392.94	374.49
393.13	479.81
393.33	341.72
393.52	430.66
393.71	421.30
393.91	409.59
394.10	407.25
394.29	358.10
394.49	386.19
394.68	379.17
394.88	337.04
395.07	423.64
395.26	358.10
395.46	407.25
395.65	414.27
395.84	390.87
396.04	468.11
396.23	407.25
396.42	400.23
396.62	414.27
396.81	409.59
397.00	428.32
397.19	503.22
397.39	386.19
397.58	425.98
397.77	388.53
397.97	428.32
398.16	362.78
398.35	402.57
398.55	388.53
398.74	416.62
398.93	404.91
399.12	379.17
399.32	442.36
399.51	402.57
399.70	390.87
399.90	402.57
400.09	411.93
400.28	468.11
400.47	418.96
400.67	423.64
400.86	421.30
401.05	346.40
401.24	411.93
401.44	425.98
401.63	433.00
401.82	407.25
402.01	421.30
402.21	346.40
402.40	386.19
402.59	351.08
402.78	402.57
402.97	447.04
403.17	411.93
403.36	463.43
403.55	379.17
403.74	437.68
403.93	376.83
404.13	433.00
404.32	414.27
404.51	397.89
404.70	435.34
404.89	435.34
405.09	435.34
405.28	393.21
405.47	479.81
405.66	444.70
405.85	367.46
406.05	409.59
406.24	397.89
406.43	491.51
406.62	428.32
406.81	458.74
407.00	407.25
407.20	395.55
407.39	414.27
407.58	388.53
407.77	433.00
407.96	393.21
408.15	430.66
408.34	386.19
408.54	433.00
408.73	449.38
408.92	379.17
409.11	463.43
409.30	482.15
409.49	322.99
409.68	433.00
409.87	421.30
410.07	416.62
410.26	456.40
410.45	386.19
410.64	428.32
410.83	355.76
411.02	407.25
411.21	369.80
411.40	388.53
411.59	430.66
411.78	393.21
411.98	416.62
412.17	393.21
412.36	355.76
412.55	355.76
412.74	407.25
412.93	372.15
413.12	365.12
413.31	423.64
413.50	425.98
413.69	433.00
413.88	463.43
414.07	332.36
414.26	407.25
414.45	435.34
414.64	428.32
414.83	447.04
415.02	390.87
415.22	381.51
415.41	442.36
415.60	475.13
415.79	425.98
415.98	395.55
416.17	414.27
416.36	418.96
416.55	313.63
416.74	381.51
416.93	395.55
417.12	355.76
417.31	383.85
417.50	383.85
417.69	388.53
417.88	388.53
418.07	376.83
418.26	365.12
418.45	411.93
418.64	388.53
418.83	341.72
419.02	383.85
419.21	479.81
419.39	393.21
419.58	395.55
419.77	409.59
419.96	395.55
420.15	437.68
420.34	437.68
420.53	409.59
420.72	468.11
420.91	379.17
421.10	409.59
421.29	341.72
421.48	454.06
421.67	447.04
421.86	374.49
422.05	433.00
422.24	395.55
422.43	407.25
422.61	433.00
422.80	418.96
422.99	397.89
423.18	423.64
423.37	407.25
423.56	416.62
423.75	423.64
423.94	374.49
424.13	440.02
424.32	397.89
424.50	423.64
424.69	390.87
424.88	435.34
425.07	393.21
425.26	430.66
425.45	402.57
425.64	386.19
425.83	404.91
426.01	372.15
426.20	451.72
426.39	428.32
426.58	407.25
426.77	433.00
426.96	360.44
427.15	435.34
427.33	393.21
427.52	367.46
427.71	414.27
427.90	407.25
428.09	362.78
428.28	374.49
428.46	402.57
428.65	397.89
428.84	383.85
429.03	475.13
429.22	414.27
429.40	423.64
429.59	346.40
429.78	458.74
429.97	393.21
430.16	348.74
430.34	388.53
430.53	395.55
430.72	437.68
430.91	395.55
431.10	428.32
431.28	430.66
431.47	416.62
431.66	479.81
431.85	400.23
432.03	416.62
432.22	449.38
432.41	433.00
432.60	461.09
432.79	395.55
432.97	348.74
433.16	404.91
433.35	402.57
433.54	379.17
433.72	388.53
433.91	393.21
434.10	418.96
434.28	423.64
434.47	409.59
434.66	433.00
434.85	435.34
435.03	374.49
435.22	496.19
435.41	458.74
435.59	397.89
435.78	402.57
435.97	402.57
436.16	409.59
436.34	353.42
436.53	388.53
436.72	407.25
436.90	402.57
437.09	395.55
437.28	449.38
437.46	449.38
437.65	395.55
437.84	442.36
438.02	440.02
438.21	411.93
438.40	425.98
438.58	407.25
438.77	383.85
438.96	500.87
439.14	421.30
439.33	421.30
439.52	428.32
439.70	341.72
439.89	421.30
440.08	383.85
440.26	348.74
440.45	435.34
440.63	447.04
440.82	351.08
441.01	468.11
441.19	463.43
441.38	367.46
441.57	486.83
441.75	393.21
441.94	423.64
442.12	376.83
442.31	337.04
442.50	409.59
442.68	367.46
442.87	337.04
443.05	430.66
443.24	449.38
443.43	484.49
443.61	383.85
443.80	346.40
443.98	428.32
444.17	400.23
444.35	407.25
444.54	444.70
444.73	369.80
444.91	372.15
445.10	362.78
445.28	395.55
445.47	351.08
445.65	374.49
445.84	362.78
446.02	472.79
446.21	440.02
446.39	397.89
446.58	437.68
446.77	409.59
446.95	383.85
447.14	393.21
447.32	397.89
447.51	379.17
447.69	365.12
447.88	435.34
448.06	409.59
448.25	470.45
448.43	440.02
448.62	463.43
448.80	421.30
448.99	456.40
449.17	367.46
449.36	423.64
449.54	468.11
449.73	458.74
449.91	383.85
450.10	418.96
450.28	430.66
450.46	402.57
450.65	355.76
450.83	449.38
451.02	315.97
451.20	341.72
451.39	388.53
451.57	418.96
451.76	428.32
451.94	463.43
452.13	334.70
452.31	500.87
452.49	404.91
452.68	386.19
452.86	454.06
453.05	428.32
453.23	393.21
453.42	475.13
453.60	461.09
453.78	437.68
453.97	390.87
454.15	449.38
454.34	390.87
454.52	435.34
454.70	435.34
454.89	404.91
455.07	393.21
455.26	402.57
455.44	479.81
455.62	404.91
455.81	397.89
455.99	458.74
456.17	482.15
456.36	411.93
456.54	402.57
456.73	383.85
456.91	367.46
457.09	442.36
457.28	407.25
457.46	388.53
457.64	418.96
457.83	411.93
458.01	411.93
458.19	362.78
458.38	421.30
458.56	383.85
458.74	320.65
458.93	423.64
459.11	402.57
459.29	447.04
459.48	418.96
459.66	477.47
459.84	477.47
460.03	496.19
460.21	411.93
460.39	407.25
460.57	421.30
460.76	421.30
460.94	435.34
461.12	416.62
461.31	397.89
461.49	376.83
461.67	430.66
461.85	400.23
462.04	374.49
462.22	823.87
462.40	449.38
462.59	454.06
462.77	390.87
462.95	418.96
463.13	414.27
463.32	409.59
463.50	433.00
463.68	374.49
463.86	409.59
464.05	355.76
464.23	435.34
464.41	456.40
464.59	402.57
464.78	376.83
464.96	423.64
465.14	400.23
465.32	395.55
465.50	449.38
465.69	411.93
465.87	327.68
466.05	404.91
466.23	442.36
466.41	393.21
466.60	369.80
466.78	477.47
466.96	449.38
467.14	402.57
467.32	416.62
467.51	484.49
467.69	472.79
467.87	400.23
468.05	421.30
468.23	470.45
468.41	402.57
468.60	395.55
468.78	411.93
468.96	447.04
469.14	430.66
469.32	400.23
469.50	355.76
469.69	390.87
469.87	404.91
470.05	440.02
470.23	475.13
470.41	400.23
470.59	381.51
470.77	337.04
470.95	299.59
471.14	414.27
471.32	402.57
471.50	470.45
471.68	444.70
471.86	386.19
472.04	379.17
472.22	418.96
472.40	386.19
472.58	400.23
472.77	444.70
472.95	383.85
473.13	414.27
473.31	425.98
473.49	393.21
473.67	411.93
473.85	444.70
474.03	407.25
474.21	379.17
474.39	454.06
474.57	372.15
474.75	484.49
474.93	463.43
475.12	390.87
475.30	383.85
475.48	388.53
475.66	369.80
475.84	341.72
476.02	400.23
476.20	367.46
476.38	425.98
476.56	447.04
476.74	353.42
476.92	402.57
477.10	402.57
477.28	435.34
477.46	353.42
477.64	449.38
477.82	339.38
478.00	393.21
478.18	400.23
478.36	386.19
478.54	430.66
478.72	435.34
478.90	433.00
479.08	458.74
479.26	411.93
479.44	447.04
479.62	423.64
479.80	435.34
479.98	386.19
480.16	388.53
480.34	461.09
480.52	411.93
480.70	454.06
480.88	468.11
481.06	449.38
481.24	440.02
481.41	388.53
481.59	430.66
481.77	428.32
481.95	444.70
482.13	425.98
482.31	444.70
482.49	449.38
482.67	449.38
482.85	372.15
483.03	472.79
483.21	395.55
483.39	416.62
483.57	409.59
483.74	425.98
483.92	421.30
484.10	318.31
484.28	358.10
484.46	491.51
484.64	435.34
484.82	383.85
485.00	320.65
485.18	440.02
485.35	407.25
485.53	402.57
485.71	425.98
485.89	407.25
486.07	327.68
486.25	435.34
486.43	433.00
486.61	407.25
486.78	437.68
486.96	414.27
487.14	414.27
487.32	437.68
487.50	435.34
487.68	395.55
487.85	472.79
488.03	477.47
488.21	440.02
488.39	430.66
488.57	484.49
488.75	414.27
488.92	519.60
489.10	465.77
489.28	416.62
489.46	381.51
489.64	379.17
489.81	447.04
489.99	390.87
490.17	404.91
490.35	416.62
490.53	400.23
490.70	428.32
490.88	395.55
491.06	423.64
491.24	404.91
491.41	425.98
491.59	435.34
491.77	430.66
491.95	449.38
492.13	416.62
492.30	414.27
492.48	428.32
492.66	386.19
492.84	372.15
493.01	404.91
493.19	461.09
493.37	489.17
493.54	400.23
493.72	440.02
493.90	407.25
494.08	411.93
494.25	411.93
494.43	440.02
494.61	456.40
494.79	383.85
494.96	411.93
495.14	435.34
495.32	414.27
495.49	355.76
495.67	390.87
495.85	294.91
496.02	369.80
496.20	440.02
496.38	409.59
496.55	409.59
496.73	337.04
496.91	397.89
497.09	381.51
497.26	407.25
497.44	409.59
497.62	369.80
497.79	388.53
497.97	411.93
498.14	435.34
498.32	430.66
498.50	479.81
498.67	360.44
498.85	402.57
499.03	407.25
499.20	381.51
499.38	423.64
499.56	465.77
499.73	444.70
499.91	411.93
500.08	507.90
500.26	402.57
500.44	402.57
500.61	388.53
500.79	447.04
500.97	468.11
501.14	468.11
501.32	393.21
501.49	505.56
501.67	402.57
501.84	423.64
502.02	484.49
502.20	451.72
502.37	435.34
502.55	388.53
502.72	381.51
502.90	425.98
503.07	332.36
503.25	341.72
503.43	320.65
503.60	358.10
503.78	451.72
503.95	433.00
504.13	355.76
504.30	416.62
504.48	390.87
504.65	442.36
504.83	433.00
505.01	461.09
505.18	418.96
505.36	369.80
505.53	402.57
505.71	444.70
505.88	390.87
506.06	411.93
506.23	388.53
506.41	341.72
506.58	379.17
506.76	433.00
506.93	454.06
507.11	409.59
507.28	430.66
507.46	418.96
507.63	421.30
507.81	470.45
507.98	388.53
508.16	451.72
508.33	388.53
508.50	454.06
508.68	428.32
508.85	454.06
509.03	358.10
509.20	395.55
509.38	472.79
509.55	414.27
509.73	423.64
509.90	444.70
510.08	414.27
510.25	435.34
510.42	381.51
510.60	379.17
510.77	454.06
510.95	358.10
511.12	402.57
511.30	461.09
511.47	449.38
511.64	409.59
511.82	397.89
511.99	411.93
512.17	395.55
512.34	374.49
512.51	381.51
512.69	327.68
512.86	437.68
513.04	416.62
513.21	430.66
513.38	472.79
513.56	423.64
513.73	404.91
513.90	402.57
514.08	449.38
514.25	425.98
514.43	465.77
514.60	416.62
514.77	482.15
514.95	423.64
515.12	381.51
515.29	409.59
515.47	456.40
515.64	402.57
515.81	362.78
515.99	435.34
516.16	458.74
516.33	493.85
516.51	421.30
516.68	486.83
516.85	374.49
517.03	479.81
517.20	407.25
517.37	461.09
517.54	411.93
517.72	456.40
517.89	416.62
518.06	486.83
518.24	454.06
518.41	449.38
518.58	435.34
518.75	454.06
518.93	395.55
519.10	456.40
519.27	358.10
519.45	440.02
519.62	475.13
519.79	416.62
519.96	414.27
520.14	407.25
520.31	463.43
520.48	435.34
520.65	407.25
520.83	477.47
521.00	425.98
521.17	411.93
521.34	376.83
521.52	339.38
521.69	395.55
521.86	376.83
522.03	416.62
522.20	411.93
522.38	393.21
522.55	465.77
522.72	390.87
522.89	414.27
523.07	465.77
523.24	458.74
523.41	407.25
523.58	383.85
523.75	447.04
523.92	337.04
524.10	395.55
524.27	355.76
524.44	416.62
524.61	397.89
524.78	339.38
524.96	404.91
525.13	381.51
525.30	372.15
525.47	376.83
525.64	421.30
525.81	425.98
525.98	404.91
526.16	367.46
526.33	397.89
526.50	433.00
526.67	486.83
526.84	416.62
527.01	400.23
527.18	449.38
527.36	421.30
527.53	407.25
527.70	365.12
527.87	407.25
528.04	411.93
528.21	428.32
528.38	409.59
528.55	489.17
528.72	425.98
528.89	433.00
529.07	463.43
529.24	430.66
529.41	393.21
529.58	437.68
529.75	418.96
529.92	358.10
530.09	442.36
530.26	332.36
530.43	388.53
530.60	388.53
530.77	376.83
530.94	444.70
531.11	435.34
531.28	411.93
531.46	351.08
531.63	393.21
531.80	369.80
531.97	386.19
532.14	376.83
532.31	463.43
532.48	411.93
532.65	381.51
532.82	456.40
532.99	416.62
533.16	444.70
533.33	390.87
533.50	402.57
533.67	386.19
533.84	440.02
534.01	435.34
534.18	449.38
534.35	360.44
534.52	348.74
534.69	374.49
534.86	465.77
535.03	393.21
535.20	358.10
535.37	510.24
535.54	440.02
535.71	376.83
535.88	414.27
536.05	416.62
536.22	484.49
536.38	479.81
536.55	416.62
536.72	423.64
536.89	421.30
537.06	362.78
537.23	430.66
537.40	416.62
537.57	423.64
537.74	400.23
537.91	381.51
538.08	458.74
538.25	409.59
538.42	425.98
538.59	341.72
538.75	325.33
538.92	421.30
539.09	458.74
539.26	411.93
539.43	440.02
539.60	449.38
539.77	414.27
539.94	388.53
540.11	353.42
540.28	435.34
540.44	379.17
540.61	374.49
540.78	407.25
540.95	386.19
541.12	458.74
541.29	416.62
541.46	418.96
541.62	393.21
541.79	409.59
541.96	344.06
542.13	374.49
542.30	388.53
542.47	362.78
542.63	435.34
542.80	400.23
542.97	393.21
543.14	397.89
543.31	393.21
543.48	421.30
543.64	533.64
543.81	411.93
543.98	355.76
544.15	400.23
544.32	451.72
544.48	463.43
544.65	383.85
544.82	404.91
544.99	440.02
545.16	519.60
545.32	435.34
545.49	425.98
545.66	383.85
545.83	386.19
546.00	418.96
546.16	400.23
546.33	395.55
546.50	433.00
546.67	430.66
546.83	372.15
547.00	397.89
547.17	379.17
547.34	327.68
547.50	374.49
547.67	402.57
547.84	393.21
548.00	397.89
548.17	458.74
548.34	451.72
548.51	447.04
548.67	402.57
548.84	393.21
549.01	400.23
549.18	353.42
549.34	433.00
549.51	475.13
549.68	430.66
549.84	433.00
550.01	418.96
550.18	447.04
550.34	486.83
550.51	416.62
550.68	437.68
550.84	433.00
551.01	475.13
551.18	428.32
551.34	449.38
551.51	395.55
551.68	433.00
551.84	411.93
552.01	369.80
552.18	407.25
552.34	456.40
552.51	397.89
552.68	475.13
552.84	390.87
553.01	418.96
553.18	491.51
553.34	404.91
553.51	418.96
553.67	447.04
553.84	475.13
554.01	409.59
554.17	400.23
554.34	465.77
554.51	358.10
554.67	367.46
554.84	435.34
555.00	444.70
555.17	400.23
555.33	449.38
555.50	421.30
555.67	372.15
555.83	402.57
556.00	362.78
556.16	594.50
556.33	393.21
556.50	355.76
556.66	447.04
556.83	433.00
556.99	440.02
557.16	393.21
557.32	358.10
557.49	428.32
557.65	341.72
557.82	463.43
557.98	379.17
558.15	416.62
558.32	409.59
558.48	428.32
558.65	484.49
558.81	423.64
558.98	428.32
559.14	407.25
559.31	397.89
559.47	416.62
559.64	425.98
559.80	479.81
559.97	407.25
560.13	477.47
560.30	409.59
560.46	416.62
560.63	418.96
560.79	454.06
560.96	456.40
561.12	341.72
561.29	381.51
561.45	407.25
561.61	437.68
561.78	547.69
561.94	355.76
562.11	414.27
562.27	423.64
562.44	372.15
562.60	327.68
562.77	449.38
562.93	479.81
563.10	433.00
563.26	456.40
563.42	447.04
563.59	449.38
563.75	411.93
563.92	416.62
564.08	407.25
564.24	423.64
564.41	475.13
564.57	409.59
564.74	367.46
564.90	395.55
565.07	437.68
565.23	454.06
565.39	376.83
565.56	407.25
565.72	407.25
565.88	397.89
566.05	407.25
566.21	383.85
566.38	348.74
566.54	376.83
566.70	444.70
566.87	442.36
567.03	440.02
567.19	386.19
567.36	386.19
567.52	374.49
567.68	435.34
567.85	449.38
568.01	388.53
568.17	381.51
568.34	433.00
568.50	454.06
568.66	430.66
568.83	433.00
568.99	348.74
569.15	456.40
569.32	440.02
569.48	500.87
569.64	414.27
569.81	418.96
569.97	374.49
570.13	430.66
570.30	472.79
570.46	386.19
570.62	407.25
570.78	437.68
570.95	402.57
571.11	472.79
571.27	433.00
571.43	386.19
571.60	423.64
571.76	442.36
571.92	418.96
572.09	374.49
572.25	386.19
572.41	425.98
572.57	409.59
572.74	463.43
572.90	482.15
573.06	400.23
573.22	526.62
573.38	470.45
573.55	437.68
573.71	404.91
573.87	440.02
574.03	393.21
574.20	404.91
574.36	505.56
574.52	418.96
574.68	360.44
574.84	414.27
575.01	447.04
575.17	472.79
575.33	425.98
575.49	353.42
575.65	416.62
575.82	437.68
575.98	437.68
576.14	482.15
576.30	400.23
576.46	463.43
576.62	472.79
576.79	374.49
576.95	456.40
577.11	383.85
577.27	344.06
577.43	472.79
577.59	442.36
577.75	451.72
577.92	449.38
578.08	411.93
578.24	351.08
578.40	500.87
578.56	472.79
578.72	500.87
578.88	386.19
579.04	395.55
579.21	430.66
579.37	414.27
579.53	535.98
579.69	402.57
579.85	409.59
580.01	470.45
580.17	390.87
580.33	456.40
580.49	414.27
580.65	409.59
580.82	402.57
580.98	437.68
581.14	461.09
581.30	402.57
581.46	430.66
581.62	397.89
581.78	465.77
581.94	393.21
582.10	346.40
582.26	358.10
582.42	369.80
582.58	322.99
582.74	440.02
582.90	435.34
583.06	444.70
583.22	365.12
583.38	407.25
583.54	500.87
583.70	430.66
583.86	475.13
584.02	386.19
584.18	409.59
584.34	430.66
584.50	442.36
584.66	409.59
584.82	461.09
584.98	482.15
585.14	425.98
585.30	482.15
585.46	383.85
585.62	393.21
585.78	421.30
585.94	400.23
586.10	409.59
586.26	437.68
586.42	447.04
586.58	381.51
586.74	409.59
586.90	390.87
587.06	421.30
587.22	393.21
587.38	409.59
587.54	414.27
587.70	465.77
587.86	414.27
588.02	388.53
588.18	475.13
588.34	430.66
588.49	407.25
588.65	418.96
588.81	456.40
588.97	430.66
589.13	454.06
589.29	414.27
589.45	437.68
589.61	416.62
589.77	430.66
589.93	376.83
590.08	475.13
590.24	418.96
590.40	463.43
590.56	393.21
590.72	465.77
590.88	379.17
591.04	374.49
591.20	341.72
591.35	458.74
591.51	440.02
591.67	465.77
591.83	425.98
591.99	430.66
592.15	433.00
592.31	425.98
592.46	449.38
592.62	388.53
592.78	437.68
592.94	428.32
593.10	381.51
593.26	407.25
593.41	440.02
593.57	351.08
593.73	437.68
593.89	414.27
594.05	407.25
594.20	442.36
594.36	414.27
594.52	421.30
594.68	437.68
594.84	465.77
594.99	470.45
595.15	407.25
595.31	404.91
595.47	461.09
595.62	395.55
595.78	416.62
595.94	433.00
596.10	435.34
596.25	435.34
596.41	425.98
596.57	428.32
596.73	500.87
596.88	395.55
597.04	407.25
597.20	458.74
597.36	461.09
597.51	433.00
597.67	421.30
597.83	397.89
597.99	456.40
598.14	430.66
598.30	507.90
598.46	423.64
598.61	334.70
598.77	381.51
598.93	444.70
599.09	320.65
599.24	440.02
599.40	482.15
599.56	395.55
599.71	381.51
599.87	388.53
600.03	430.66
600.18	430.66
600.34	421.30
600.50	414.27
600.65	428.32
600.81	409.59
600.97	395.55
601.12	456.40
601.28	393.21
601.44	468.11
601.59	400.23
601.75	416.62
601.91	440.02
602.06	402.57
602.22	470.45
602.37	472.79
602.53	304.27
602.69	449.38
602.84	386.19
603.00	390.87
603.16	381.51
603.31	409.59
603.47	425.98
603.62	322.99
603.78	414.27
603.94	430.66
604.09	369.80
604.25	418.96
604.40	442.36
604.56	421.30
604.71	463.43
604.87	451.72
605.03	390.87
605.18	353.42
605.34	447.04
605.49	348.74
605.65	388.53
605.80	395.55
605.96	440.02
606.12	444.70
606.27	334.70
606.43	374.49
606.58	526.62
606.74	416.62
606.89	475.13
607.05	407.25
607.20	433.00
607.36	397.89
607.51	393.21
607.67	397.89
607.82	395.55
607.98	451.72
608.13	433.00
608.29	393.21
608.44	355.76
608.60	447.04
608.75	376.83
608.91	409.59
609.06	369.80
609.22	451.72
609.37	414.27
609.53	430.66
609.68	463.43
609.84	402.57
609.99	383.85
610.15	393.21
