SpectraSuite Data File
++++++++++++++++++++++++++++++++++++
Date: Fri Oct 25 12:10:38 EDT 2013
User: price-jones
Dark Spectrum Present: No
Reference Spectrum Present: No
Number of Sampled Component Spectra: 1
Spectrometers: USB2+H05261
Integration Time (usec): 100000 (USB2+H05261)
Spectra Averaged: 1 (USB2+H05261)
Boxcar Smoothing: 0 (USB2+H05261)
Correct for Electrical Dark: No (USB2+H05261)
Strobe/Lamp Enabled: No (USB2+H05261)
Correct for Detector Non-linearity: No (USB2+H05261)
Correct for Stray Light: No (USB2+H05261)
Number of Pixels in Processed Spectrum: 2048
>>>>>Begin Processed Spectral Data<<<<<
365.73	297.25
365.92	297.25
366.12	297.25
366.32	229.37
366.52	227.03
366.72	273.84
366.91	175.54
367.11	269.16
367.31	266.82
367.51	198.95
367.70	205.97
367.90	355.76
368.10	252.78
368.30	266.82
368.49	234.05
368.69	231.71
368.89	217.67
369.09	198.95
369.28	182.56
369.48	245.76
369.68	227.03
369.87	330.02
370.07	308.95
370.27	320.65
370.47	327.68
370.66	297.25
370.86	301.93
371.06	355.76
371.25	372.15
371.45	372.15
371.65	425.98
371.84	341.72
372.04	379.17
372.24	402.57
372.44	369.80
372.63	414.27
372.83	404.91
373.03	393.21
373.22	425.98
373.42	435.34
373.62	435.34
373.81	437.68
374.01	383.85
374.21	451.72
374.40	374.49
374.60	397.89
374.79	416.62
374.99	407.25
375.19	428.32
375.38	423.64
375.58	409.59
375.78	456.40
375.97	449.38
376.17	416.62
376.37	376.83
376.56	468.11
376.76	402.57
376.95	416.62
377.15	418.96
377.35	407.25
377.54	388.53
377.74	414.27
377.93	437.68
378.13	430.66
378.33	414.27
378.52	372.15
378.72	386.19
378.91	411.93
379.11	381.51
379.31	395.55
379.50	390.87
379.70	433.00
379.89	440.02
380.09	447.04
380.28	388.53
380.48	397.89
380.68	381.51
380.87	397.89
381.07	430.66
381.26	479.81
381.46	374.49
381.65	433.00
381.85	418.96
382.04	402.57
382.24	374.49
382.43	421.30
382.63	383.85
382.83	484.49
383.02	395.55
383.22	395.55
383.41	454.06
383.61	379.17
383.80	458.74
384.00	447.04
384.19	414.27
384.39	416.62
384.58	461.09
384.78	416.62
384.97	393.21
385.17	433.00
385.36	404.91
385.56	440.02
385.75	348.74
385.95	369.80
386.14	449.38
386.34	369.80
386.53	369.80
386.72	411.93
386.92	409.59
387.11	386.19
387.31	376.83
387.50	337.04
387.70	416.62
387.89	386.19
388.09	454.06
388.28	379.17
388.48	351.08
388.67	447.04
388.86	360.44
389.06	423.64
389.25	390.87
389.45	341.72
389.64	376.83
389.84	383.85
390.03	407.25
390.22	407.25
390.42	386.19
390.61	358.10
390.81	376.83
391.00	411.93
391.19	409.59
391.39	344.06
391.58	421.30
391.78	395.55
391.97	435.34
392.16	304.27
392.36	341.72
392.55	423.64
392.75	409.59
392.94	468.11
393.13	428.32
393.33	365.12
393.52	440.02
393.71	442.36
393.91	423.64
394.10	379.17
394.29	458.74
394.49	407.25
394.68	397.89
394.88	414.27
395.07	400.23
395.26	402.57
395.46	376.83
395.65	435.34
395.84	414.27
396.04	470.45
396.23	423.64
396.42	411.93
396.62	449.38
396.81	355.76
397.00	416.62
397.19	383.85
397.39	414.27
397.58	404.91
397.77	383.85
397.97	463.43
398.16	409.59
398.35	330.02
398.55	407.25
398.74	444.70
398.93	433.00
399.12	397.89
399.32	414.27
399.51	447.04
399.70	414.27
399.90	367.46
400.09	496.19
400.28	409.59
400.47	386.19
400.67	339.38
400.86	376.83
401.05	461.09
401.24	435.34
401.44	390.87
401.63	451.72
401.82	381.51
402.01	400.23
402.21	407.25
402.40	444.70
402.59	404.91
402.78	390.87
402.97	362.78
403.17	423.64
403.36	456.40
403.55	425.98
403.74	423.64
403.93	376.83
404.13	461.09
404.32	416.62
404.51	425.98
404.70	390.87
404.89	400.23
405.09	386.19
405.28	447.04
405.47	379.17
405.66	409.59
405.85	395.55
406.05	383.85
406.24	416.62
406.43	407.25
406.62	437.68
406.81	472.79
407.00	470.45
407.20	365.12
407.39	472.79
407.58	402.57
407.77	393.21
407.96	407.25
408.15	379.17
408.34	440.02
408.54	451.72
408.73	393.21
408.92	386.19
409.11	442.36
409.30	526.62
409.49	404.91
409.68	355.76
409.87	341.72
410.07	421.30
410.26	447.04
410.45	372.15
410.64	334.70
410.83	402.57
411.02	402.57
411.21	360.44
411.40	395.55
411.59	437.68
411.78	404.91
411.98	418.96
412.17	334.70
412.36	383.85
412.55	411.93
412.74	442.36
412.93	386.19
413.12	454.06
413.31	353.42
413.50	433.00
413.69	463.43
413.88	451.72
414.07	428.32
414.26	393.21
414.45	435.34
414.64	451.72
414.83	421.30
415.02	451.72
415.22	414.27
415.41	486.83
415.60	437.68
415.79	409.59
415.98	482.15
416.17	411.93
416.36	430.66
416.55	456.40
416.74	414.27
416.93	475.13
417.12	428.32
417.31	479.81
417.50	381.51
417.69	491.51
417.88	421.30
418.07	437.68
418.26	421.30
418.45	358.10
418.64	461.09
418.83	407.25
419.02	386.19
419.21	404.91
419.39	437.68
419.58	348.74
419.77	372.15
419.96	402.57
420.15	442.36
420.34	409.59
420.53	430.66
420.72	475.13
420.91	393.21
421.10	393.21
421.29	376.83
421.48	461.09
421.67	411.93
421.86	395.55
422.05	414.27
422.24	411.93
422.43	414.27
422.61	421.30
422.80	430.66
422.99	458.74
423.18	383.85
423.37	397.89
423.56	362.78
423.75	472.79
423.94	447.04
424.13	414.27
424.32	423.64
424.50	358.10
424.69	376.83
424.88	379.17
425.07	421.30
425.26	369.80
425.45	421.30
425.64	395.55
425.83	337.04
426.01	435.34
426.20	458.74
426.39	440.02
426.58	437.68
426.77	433.00
426.96	374.49
427.15	337.04
427.33	383.85
427.52	468.11
427.71	374.49
427.90	435.34
428.09	400.23
428.28	418.96
428.46	369.80
428.65	442.36
428.84	428.32
429.03	383.85
429.22	456.40
429.40	433.00
429.59	358.10
429.78	416.62
429.97	423.64
430.16	440.02
430.34	395.55
430.53	463.43
430.72	400.23
430.91	362.78
431.10	404.91
431.28	395.55
431.47	489.17
431.66	442.36
431.85	374.49
432.03	365.12
432.22	484.49
432.41	414.27
432.60	461.09
432.79	362.78
432.97	414.27
433.16	425.98
433.35	428.32
433.54	374.49
433.72	442.36
433.91	435.34
434.10	428.32
434.28	367.46
434.47	404.91
434.66	440.02
434.85	444.70
435.03	397.89
435.22	470.45
435.41	447.04
435.59	449.38
435.78	456.40
435.97	411.93
436.16	458.74
436.34	416.62
436.53	440.02
436.72	425.98
436.90	421.30
437.09	458.74
437.28	400.23
437.46	358.10
437.65	411.93
437.84	444.70
438.02	507.90
438.21	428.32
438.40	397.89
438.58	463.43
438.77	404.91
438.96	484.49
439.14	433.00
439.33	390.87
439.52	414.27
439.70	470.45
439.89	437.68
440.08	383.85
440.26	381.51
440.45	383.85
440.63	379.17
440.82	404.91
441.01	416.62
441.19	404.91
441.38	482.15
441.57	454.06
441.75	428.32
441.94	463.43
442.12	393.21
442.31	418.96
442.50	409.59
442.68	416.62
442.87	379.17
443.05	423.64
443.24	458.74
443.43	421.30
443.61	393.21
443.80	418.96
443.98	421.30
444.17	362.78
444.35	463.43
444.54	390.87
444.73	433.00
444.91	383.85
445.10	442.36
445.28	365.12
445.47	470.45
445.65	355.76
445.84	428.32
446.02	451.72
446.21	353.42
446.39	463.43
446.58	486.83
446.77	404.91
446.95	447.04
447.14	433.00
447.32	411.93
447.51	423.64
447.69	447.04
447.88	358.10
448.06	449.38
448.25	411.93
448.43	407.25
448.62	407.25
448.80	456.40
448.99	351.08
449.17	355.76
449.36	395.55
449.54	461.09
449.73	400.23
449.91	388.53
450.10	379.17
450.28	395.55
450.46	524.28
450.65	435.34
450.83	402.57
451.02	376.83
451.20	421.30
451.39	428.32
451.57	379.17
451.76	435.34
451.94	430.66
452.13	409.59
452.31	355.76
452.49	407.25
452.68	402.57
452.86	416.62
453.05	505.56
453.23	379.17
453.42	367.46
453.60	472.79
453.78	456.40
453.97	414.27
454.15	421.30
454.34	388.53
454.52	374.49
454.70	449.38
454.89	493.85
455.07	395.55
455.26	442.36
455.44	423.64
455.62	458.74
455.81	447.04
455.99	430.66
456.17	397.89
456.36	372.15
456.54	376.83
456.73	475.13
456.91	425.98
457.09	425.98
457.28	414.27
457.46	372.15
457.64	425.98
457.83	430.66
458.01	402.57
458.19	397.89
458.38	449.38
458.56	351.08
458.74	381.51
458.93	465.77
459.11	395.55
459.29	346.40
459.48	433.00
459.66	433.00
459.84	404.91
460.03	409.59
460.21	414.27
460.39	475.13
460.57	393.21
460.76	409.59
460.94	440.02
461.12	390.87
461.31	468.11
461.49	407.25
461.67	465.77
461.85	456.40
462.04	463.43
462.22	814.51
462.40	393.21
462.59	430.66
462.77	458.74
462.95	411.93
463.13	393.21
463.32	372.15
463.50	393.21
463.68	430.66
463.86	449.38
464.05	395.55
464.23	411.93
464.41	379.17
464.59	484.49
464.78	442.36
464.96	367.46
465.14	402.57
465.32	437.68
465.50	388.53
465.69	381.51
465.87	470.45
466.05	461.09
466.23	355.76
466.41	421.30
466.60	447.04
466.78	400.23
466.96	423.64
467.14	404.91
467.32	407.25
467.51	369.80
467.69	414.27
467.87	475.13
468.05	458.74
468.23	416.62
468.41	390.87
468.60	383.85
468.78	409.59
468.96	489.17
469.14	444.70
469.32	437.68
469.50	360.44
469.69	379.17
469.87	390.87
470.05	425.98
470.23	397.89
470.41	414.27
470.59	444.70
470.77	346.40
470.95	341.72
471.14	430.66
471.32	374.49
471.50	430.66
471.68	402.57
471.86	428.32
472.04	360.44
472.22	423.64
472.40	379.17
472.58	442.36
472.77	418.96
472.95	449.38
473.13	400.23
473.31	451.72
473.49	383.85
473.67	451.72
473.85	407.25
474.03	418.96
474.21	454.06
474.39	444.70
474.57	454.06
474.75	388.53
474.93	393.21
475.12	308.95
475.30	383.85
475.48	395.55
475.66	372.15
475.84	435.34
476.02	458.74
476.20	444.70
476.38	402.57
476.56	421.30
476.74	451.72
476.92	390.87
477.10	435.34
477.28	447.04
477.46	451.72
477.64	442.36
477.82	463.43
478.00	423.64
478.18	442.36
478.36	407.25
478.54	383.85
478.72	393.21
478.90	379.17
479.08	388.53
479.26	379.17
479.44	376.83
479.62	397.89
479.80	395.55
479.98	472.79
480.16	425.98
480.34	407.25
480.52	428.32
480.70	390.87
480.88	437.68
481.06	374.49
481.24	423.64
481.41	421.30
481.59	390.87
481.77	449.38
481.95	351.08
482.13	454.06
482.31	442.36
482.49	407.25
482.67	386.19
482.85	489.17
483.03	416.62
483.21	444.70
483.39	433.00
483.57	456.40
483.74	369.80
483.92	383.85
484.10	372.15
484.28	440.02
484.46	484.49
484.64	458.74
484.82	435.34
485.00	334.70
485.18	409.59
485.35	379.17
485.53	379.17
485.71	397.89
485.89	421.30
486.07	461.09
486.25	477.47
486.43	404.91
486.61	433.00
486.78	372.15
486.96	390.87
487.14	320.65
487.32	477.47
487.50	444.70
487.68	365.12
487.85	449.38
488.03	402.57
488.21	423.64
488.39	465.77
488.57	442.36
488.75	449.38
488.92	498.53
489.10	430.66
489.28	404.91
489.46	411.93
489.64	388.53
489.81	433.00
489.99	395.55
490.17	397.89
490.35	435.34
490.53	390.87
490.70	425.98
490.88	491.51
491.06	393.21
491.24	395.55
491.41	449.38
491.59	388.53
491.77	362.78
491.95	379.17
492.13	379.17
492.30	318.31
492.48	416.62
492.66	386.19
492.84	379.17
493.01	411.93
493.19	355.76
493.37	428.32
493.54	458.74
493.72	409.59
493.90	372.15
494.08	318.31
494.25	484.49
494.43	409.59
494.61	386.19
494.79	369.80
494.96	395.55
495.14	388.53
495.32	421.30
495.49	472.79
495.67	433.00
495.85	388.53
496.02	372.15
496.20	393.21
496.38	395.55
496.55	353.42
496.73	463.43
496.91	376.83
497.09	475.13
497.26	428.32
497.44	430.66
497.62	369.80
497.79	435.34
497.97	386.19
498.14	376.83
498.32	454.06
498.50	379.17
498.67	421.30
498.85	433.00
499.03	362.78
499.20	440.02
499.38	372.15
499.56	421.30
499.73	374.49
499.91	386.19
500.08	442.36
500.26	437.68
500.44	374.49
500.61	423.64
500.79	355.76
500.97	374.49
501.14	435.34
501.32	383.85
501.49	449.38
501.67	395.55
501.84	461.09
502.02	397.89
502.20	418.96
502.37	475.13
502.55	395.55
502.72	390.87
502.90	404.91
503.07	458.74
503.25	393.21
503.43	433.00
503.60	505.56
503.78	351.08
503.95	411.93
504.13	379.17
504.30	383.85
504.48	400.23
504.65	348.74
504.83	327.68
505.01	430.66
505.18	346.40
505.36	425.98
505.53	430.66
505.71	484.49
505.88	468.11
506.06	393.21
506.23	423.64
506.41	496.19
506.58	421.30
506.76	470.45
506.93	402.57
507.11	351.08
507.28	458.74
507.46	388.53
507.63	428.32
507.81	440.02
507.98	372.15
508.16	390.87
508.33	416.62
508.50	482.15
508.68	442.36
508.85	437.68
509.03	395.55
509.20	348.74
509.38	360.44
509.55	442.36
509.73	425.98
509.90	437.68
510.08	402.57
510.25	390.87
510.42	404.91
510.60	404.91
510.77	388.53
510.95	374.49
511.12	379.17
511.30	407.25
511.47	451.72
511.64	428.32
511.82	355.76
511.99	493.85
512.17	379.17
512.34	372.15
512.51	416.62
512.69	402.57
512.86	442.36
513.04	362.78
513.21	428.32
513.38	383.85
513.56	447.04
513.73	449.38
513.90	402.57
514.08	355.76
514.25	400.23
514.43	409.59
514.60	437.68
514.77	416.62
514.95	334.70
515.12	381.51
515.29	381.51
515.47	428.32
515.64	425.98
515.81	386.19
515.99	386.19
516.16	353.42
516.33	372.15
516.51	454.06
516.68	386.19
516.85	418.96
517.03	353.42
517.20	433.00
517.37	421.30
517.54	414.27
517.72	402.57
517.89	397.89
518.06	404.91
518.24	475.13
518.41	442.36
518.58	418.96
518.75	409.59
518.93	449.38
519.10	362.78
519.27	395.55
519.45	386.19
519.62	489.17
519.79	376.83
519.96	489.17
520.14	444.70
520.31	414.27
520.48	451.72
520.65	470.45
520.83	386.19
521.00	447.04
521.17	409.59
521.34	484.49
521.52	428.32
521.69	362.78
521.86	409.59
522.03	447.04
522.20	423.64
522.38	367.46
522.55	430.66
522.72	404.91
522.89	409.59
523.07	428.32
523.24	374.49
523.41	442.36
523.58	362.78
523.75	493.85
523.92	379.17
524.10	360.44
524.27	407.25
524.44	374.49
524.61	468.11
524.78	390.87
524.96	461.09
525.13	381.51
525.30	409.59
525.47	486.83
525.64	355.76
525.81	465.77
525.98	414.27
526.16	407.25
526.33	447.04
526.50	447.04
526.67	484.49
526.84	376.83
527.01	400.23
527.18	383.85
527.36	393.21
527.53	379.17
527.70	430.66
527.87	451.72
528.04	496.19
528.21	395.55
528.38	425.98
528.55	486.83
528.72	505.56
528.89	470.45
529.07	365.12
529.24	428.32
529.41	449.38
529.58	477.47
529.75	355.76
529.92	411.93
530.09	397.89
530.26	451.72
530.43	362.78
530.60	383.85
530.77	430.66
530.94	447.04
531.11	454.06
531.28	390.87
531.46	472.79
531.63	407.25
531.80	463.43
531.97	500.87
532.14	468.11
532.31	404.91
532.48	386.19
532.65	397.89
532.82	339.38
532.99	423.64
533.16	447.04
533.33	418.96
533.50	451.72
533.67	376.83
533.84	397.89
534.01	402.57
534.18	433.00
534.35	421.30
534.52	344.06
534.69	454.06
534.86	430.66
535.03	421.30
535.20	423.64
535.37	337.04
535.54	477.47
535.71	484.49
535.88	505.56
536.05	461.09
536.22	414.27
536.38	388.53
536.55	388.53
536.72	411.93
536.89	365.12
537.06	428.32
537.23	498.53
537.40	379.17
537.57	430.66
537.74	433.00
537.91	395.55
538.08	388.53
538.25	397.89
538.42	393.21
538.59	339.38
538.75	414.27
538.92	461.09
539.09	505.56
539.26	393.21
539.43	374.49
539.60	447.04
539.77	390.87
539.94	470.45
540.11	451.72
540.28	374.49
540.44	463.43
540.61	440.02
540.78	519.60
540.95	435.34
541.12	475.13
541.29	330.02
541.46	407.25
541.62	461.09
541.79	423.64
541.96	351.08
542.13	369.80
542.30	416.62
542.47	465.77
542.63	409.59
542.80	435.34
542.97	428.32
543.14	416.62
543.31	437.68
543.48	409.59
543.64	409.59
543.81	325.33
543.98	397.89
544.15	407.25
544.32	402.57
544.48	409.59
544.65	400.23
544.82	311.29
544.99	416.62
545.16	451.72
545.32	433.00
545.49	456.40
545.66	456.40
545.83	433.00
546.00	346.40
546.16	479.81
546.33	449.38
546.50	454.06
546.67	442.36
546.83	442.36
547.00	365.12
547.17	393.21
547.34	383.85
547.50	383.85
547.67	414.27
547.84	407.25
548.00	425.98
548.17	341.72
548.34	353.42
548.51	557.05
548.67	451.72
548.84	372.15
549.01	433.00
549.18	407.25
549.34	381.51
549.51	491.51
549.68	437.68
549.84	393.21
550.01	409.59
550.18	496.19
550.34	489.17
550.51	449.38
550.68	402.57
550.84	369.80
551.01	433.00
551.18	447.04
551.34	425.98
551.51	477.47
551.68	425.98
551.84	440.02
552.01	430.66
552.18	433.00
552.34	430.66
552.51	425.98
552.68	442.36
552.84	376.83
553.01	376.83
553.18	379.17
553.34	423.64
553.51	428.32
553.67	465.77
553.84	475.13
554.01	428.32
554.17	411.93
554.34	367.46
554.51	360.44
554.67	500.87
554.84	440.02
555.00	433.00
555.17	435.34
555.33	425.98
555.50	458.74
555.67	400.23
555.83	418.96
556.00	383.85
556.16	521.94
556.33	418.96
556.50	442.36
556.66	388.53
556.83	374.49
556.99	404.91
557.16	418.96
557.32	409.59
557.49	381.51
557.65	437.68
557.82	489.17
557.98	435.34
558.15	421.30
558.32	433.00
558.48	484.49
558.65	418.96
558.81	404.91
558.98	379.17
559.14	456.40
559.31	440.02
559.47	430.66
559.64	379.17
559.80	416.62
559.97	362.78
560.13	484.49
560.30	416.62
560.46	367.46
560.63	393.21
560.79	362.78
560.96	440.02
561.12	465.77
561.29	442.36
561.45	461.09
561.61	411.93
561.78	517.26
561.94	437.68
562.11	421.30
562.27	428.32
562.44	388.53
562.60	393.21
562.77	411.93
562.93	430.66
563.10	435.34
563.26	388.53
563.42	430.66
563.59	351.08
563.75	440.02
563.92	416.62
564.08	475.13
564.24	418.96
564.41	447.04
564.57	404.91
564.74	395.55
564.90	390.87
565.07	454.06
565.23	447.04
565.39	397.89
565.56	435.34
565.72	383.85
565.88	379.17
566.05	409.59
566.21	451.72
566.38	454.06
566.54	491.51
566.70	407.25
566.87	416.62
567.03	407.25
567.19	407.25
567.36	454.06
567.52	430.66
567.68	433.00
567.85	383.85
568.01	416.62
568.17	404.91
568.34	442.36
568.50	503.22
568.66	397.89
568.83	449.38
568.99	397.89
569.15	430.66
569.32	346.40
569.48	411.93
569.64	374.49
569.81	475.13
569.97	367.46
570.13	388.53
570.30	355.76
570.46	428.32
570.62	421.30
570.78	358.10
570.95	372.15
571.11	444.70
571.27	465.77
571.43	397.89
571.60	365.12
571.76	409.59
571.92	353.42
572.09	395.55
572.25	414.27
572.41	458.74
572.57	404.91
572.74	440.02
572.90	402.57
573.06	458.74
573.22	461.09
573.38	482.15
573.55	477.47
573.71	404.91
573.87	390.87
574.03	397.89
574.20	388.53
574.36	367.46
574.52	344.06
574.68	435.34
574.84	395.55
575.01	393.21
575.17	493.85
575.33	360.44
575.49	472.79
575.65	449.38
575.82	465.77
575.98	456.40
576.14	353.42
576.30	484.49
576.46	390.87
576.62	402.57
576.79	475.13
576.95	444.70
577.11	301.93
577.27	386.19
577.43	393.21
577.59	428.32
577.75	433.00
577.92	339.38
578.08	393.21
578.24	411.93
578.40	388.53
578.56	433.00
578.72	463.43
578.88	440.02
579.04	433.00
579.21	421.30
579.37	418.96
579.53	418.96
579.69	407.25
579.85	428.32
580.01	475.13
580.17	484.49
580.33	334.70
580.49	444.70
580.65	374.49
580.82	425.98
580.98	428.32
581.14	409.59
581.30	458.74
581.46	468.11
581.62	428.32
581.78	477.47
581.94	374.49
582.10	386.19
582.26	395.55
582.42	425.98
582.58	465.77
582.74	374.49
582.90	411.93
583.06	414.27
583.22	435.34
583.38	411.93
583.54	411.93
583.70	435.34
583.86	435.34
584.02	379.17
584.18	414.27
584.34	421.30
584.50	404.91
584.66	428.32
584.82	409.59
584.98	416.62
585.14	409.59
585.30	463.43
585.46	465.77
585.62	472.79
585.78	409.59
585.94	402.57
586.10	458.74
586.26	379.17
586.42	435.34
586.58	369.80
586.74	393.21
586.90	442.36
587.06	402.57
587.22	458.74
587.38	416.62
587.54	442.36
587.70	418.96
587.86	397.89
588.02	376.83
588.18	416.62
588.34	517.26
588.49	379.17
588.65	395.55
588.81	344.06
588.97	503.22
589.13	404.91
589.29	353.42
589.45	440.02
589.61	388.53
589.77	416.62
589.93	430.66
590.08	416.62
590.24	411.93
590.40	365.12
590.56	479.81
590.72	414.27
590.88	461.09
591.04	428.32
591.20	414.27
591.35	451.72
591.51	400.23
591.67	416.62
591.83	400.23
591.99	418.96
592.15	444.70
592.31	404.91
592.46	402.57
592.62	421.30
592.78	386.19
592.94	472.79
593.10	411.93
593.26	402.57
593.41	348.74
593.57	451.72
593.73	428.32
593.89	404.91
594.05	421.30
594.20	372.15
594.36	418.96
594.52	388.53
594.68	472.79
594.84	440.02
594.99	402.57
595.15	383.85
595.31	416.62
595.47	468.11
595.62	416.62
595.78	341.72
595.94	458.74
596.10	524.28
596.25	514.92
596.41	332.36
596.57	337.04
596.73	395.55
596.88	379.17
597.04	411.93
597.20	402.57
597.36	428.32
597.51	414.27
597.67	444.70
597.83	393.21
597.99	381.51
598.14	425.98
598.30	456.40
598.46	470.45
598.61	423.64
598.77	374.49
598.93	372.15
599.09	409.59
599.24	430.66
599.40	461.09
599.56	416.62
599.71	430.66
599.87	444.70
600.03	414.27
600.18	367.46
600.34	423.64
600.50	409.59
600.65	433.00
600.81	390.87
600.97	365.12
601.12	367.46
601.28	428.32
601.44	444.70
601.59	404.91
601.75	454.06
601.91	425.98
602.06	383.85
602.22	461.09
602.37	402.57
602.53	325.33
602.69	411.93
602.84	444.70
603.00	418.96
603.16	428.32
603.31	411.93
603.47	435.34
603.62	416.62
603.78	414.27
603.94	339.38
604.09	383.85
604.25	433.00
604.40	449.38
604.56	447.04
604.71	376.83
604.87	470.45
605.03	374.49
605.18	414.27
605.34	386.19
605.49	491.51
605.65	360.44
605.80	278.52
605.96	482.15
606.12	362.78
606.27	369.80
606.43	367.46
606.58	416.62
606.74	355.76
606.89	358.10
607.05	418.96
607.20	388.53
607.36	414.27
607.51	369.80
607.67	444.70
607.82	423.64
607.98	442.36
608.13	383.85
608.29	454.06
608.44	470.45
608.60	397.89
608.75	407.25
608.91	430.66
609.06	435.34
609.22	470.45
609.37	409.59
609.53	379.17
609.68	416.62
609.84	353.42
609.99	395.55
610.15	409.59
