SpectraSuite Data File
++++++++++++++++++++++++++++++++++++
Date: Fri Oct 25 12:11:11 EDT 2013
User: price-jones
Dark Spectrum Present: No
Reference Spectrum Present: No
Number of Sampled Component Spectra: 1
Spectrometers: USB2+H05261
Integration Time (usec): 100000 (USB2+H05261)
Spectra Averaged: 1 (USB2+H05261)
Boxcar Smoothing: 0 (USB2+H05261)
Correct for Electrical Dark: No (USB2+H05261)
Strobe/Lamp Enabled: No (USB2+H05261)
Correct for Detector Non-linearity: No (USB2+H05261)
Correct for Stray Light: No (USB2+H05261)
Number of Pixels in Processed Spectrum: 2048
>>>>>Begin Processed Spectral Data<<<<<
365.73	294.91
365.92	294.91
366.12	294.91
366.32	257.46
366.52	297.25
366.72	315.97
366.91	306.61
367.11	250.44
367.31	187.24
367.51	252.78
367.70	173.20
367.90	194.26
368.10	250.44
368.30	222.35
368.49	280.86
368.69	271.50
368.89	259.80
369.09	205.97
369.28	252.78
369.48	208.31
369.68	346.40
369.87	306.61
370.07	266.82
370.27	315.97
370.47	318.31
370.66	285.55
370.86	351.08
371.06	369.80
371.25	440.02
371.45	322.99
371.65	369.80
371.84	388.53
372.04	358.10
372.24	447.04
372.44	344.06
372.63	381.51
372.83	437.68
373.03	465.77
373.22	383.85
373.42	409.59
373.62	334.70
373.81	383.85
374.01	414.27
374.21	451.72
374.40	440.02
374.60	404.91
374.79	402.57
374.99	383.85
375.19	430.66
375.38	477.47
375.58	374.49
375.78	407.25
375.97	465.77
376.17	491.51
376.37	351.08
376.56	444.70
376.76	421.30
376.95	386.19
377.15	451.72
377.35	416.62
377.54	444.70
377.74	416.62
377.93	444.70
378.13	393.21
378.33	472.79
378.52	402.57
378.72	414.27
378.91	411.93
379.11	341.72
379.31	383.85
379.50	339.38
379.70	411.93
379.89	353.42
380.09	425.98
380.28	365.12
380.48	360.44
380.68	400.23
380.87	381.51
381.07	423.64
381.26	372.15
381.46	397.89
381.65	355.76
381.85	393.21
382.04	362.78
382.24	376.83
382.43	454.06
382.63	489.17
382.83	409.59
383.02	348.74
383.22	372.15
383.41	367.46
383.61	404.91
383.80	376.83
384.00	388.53
384.19	430.66
384.39	393.21
384.58	388.53
384.78	397.89
384.97	390.87
385.17	383.85
385.36	374.49
385.56	395.55
385.75	379.17
385.95	418.96
386.14	491.51
386.34	400.23
386.53	409.59
386.72	400.23
386.92	353.42
387.11	379.17
387.31	482.15
387.50	395.55
387.70	374.49
387.89	400.23
388.09	351.08
388.28	395.55
388.48	407.25
388.67	435.34
388.86	397.89
389.06	369.80
389.25	428.32
389.45	486.83
389.64	402.57
389.84	386.19
390.03	418.96
390.22	526.62
390.42	358.10
390.61	421.30
390.81	346.40
391.00	400.23
391.19	444.70
391.39	463.43
391.58	395.55
391.78	348.74
391.97	465.77
392.16	425.98
392.36	435.34
392.55	421.30
392.75	376.83
392.94	369.80
393.13	423.64
393.33	404.91
393.52	435.34
393.71	416.62
393.91	435.34
394.10	456.40
394.29	407.25
394.49	346.40
394.68	395.55
394.88	395.55
395.07	395.55
395.26	493.85
395.46	409.59
395.65	351.08
395.84	418.96
396.04	440.02
396.23	409.59
396.42	433.00
396.62	430.66
396.81	409.59
397.00	400.23
397.19	404.91
397.39	425.98
397.58	379.17
397.77	311.29
397.97	442.36
398.16	407.25
398.35	414.27
398.55	376.83
398.74	381.51
398.93	435.34
399.12	428.32
399.32	433.00
399.51	428.32
399.70	388.53
399.90	397.89
400.09	437.68
400.28	369.80
400.47	388.53
400.67	465.77
400.86	339.38
401.05	395.55
401.24	386.19
401.44	397.89
401.63	404.91
401.82	376.83
402.01	355.76
402.21	428.32
402.40	381.51
402.59	369.80
402.78	425.98
402.97	388.53
403.17	437.68
403.36	414.27
403.55	325.33
403.74	430.66
403.93	416.62
404.13	374.49
404.32	435.34
404.51	386.19
404.70	411.93
404.89	463.43
405.09	383.85
405.28	400.23
405.47	393.21
405.66	397.89
405.85	447.04
406.05	411.93
406.24	416.62
406.43	372.15
406.62	449.38
406.81	416.62
407.00	400.23
407.20	437.68
407.39	376.83
407.58	379.17
407.77	423.64
407.96	451.72
408.15	414.27
408.34	433.00
408.54	440.02
408.73	386.19
408.92	341.72
409.11	379.17
409.30	402.57
409.49	372.15
409.68	418.96
409.87	393.21
410.07	409.59
410.26	451.72
410.45	369.80
410.64	416.62
410.83	442.36
411.02	463.43
411.21	418.96
411.40	451.72
411.59	355.76
411.78	444.70
411.98	365.12
412.17	325.33
412.36	400.23
412.55	348.74
412.74	444.70
412.93	421.30
413.12	407.25
413.31	418.96
413.50	367.46
413.69	395.55
413.88	379.17
414.07	409.59
414.26	416.62
414.45	425.98
414.64	409.59
414.83	477.47
415.02	395.55
415.22	421.30
415.41	449.38
415.60	435.34
415.79	358.10
415.98	451.72
416.17	416.62
416.36	454.06
416.55	346.40
416.74	407.25
416.93	437.68
417.12	379.17
417.31	433.00
417.50	454.06
417.69	484.49
417.88	409.59
418.07	360.44
418.26	395.55
418.45	381.51
418.64	397.89
418.83	407.25
419.02	407.25
419.21	409.59
419.39	414.27
419.58	341.72
419.77	379.17
419.96	444.70
420.15	341.72
420.34	440.02
420.53	454.06
420.72	475.13
420.91	381.51
421.10	334.70
421.29	355.76
421.48	444.70
421.67	458.74
421.86	365.12
422.05	433.00
422.24	428.32
422.43	395.55
422.61	362.78
422.80	393.21
422.99	395.55
423.18	360.44
423.37	390.87
423.56	449.38
423.75	433.00
423.94	334.70
424.13	416.62
424.32	407.25
424.50	358.10
424.69	444.70
424.88	463.43
425.07	477.47
425.26	472.79
425.45	418.96
425.64	421.30
425.83	362.78
426.01	461.09
426.20	442.36
426.39	388.53
426.58	362.78
426.77	320.65
426.96	409.59
427.15	402.57
427.33	418.96
427.52	411.93
427.71	440.02
427.90	430.66
428.09	393.21
428.28	388.53
428.46	470.45
428.65	367.46
428.84	383.85
429.03	421.30
429.22	418.96
429.40	425.98
429.59	362.78
429.78	435.34
429.97	397.89
430.16	472.79
430.34	365.12
430.53	402.57
430.72	425.98
430.91	447.04
431.10	400.23
431.28	358.10
431.47	414.27
431.66	442.36
431.85	400.23
432.03	390.87
432.22	489.17
432.41	425.98
432.60	475.13
432.79	339.38
432.97	322.99
433.16	421.30
433.35	409.59
433.54	456.40
433.72	386.19
433.91	433.00
434.10	435.34
434.28	428.32
434.47	402.57
434.66	444.70
434.85	388.53
435.03	388.53
435.22	339.38
435.41	435.34
435.59	435.34
435.78	407.25
435.97	395.55
436.16	386.19
436.34	411.93
436.53	400.23
436.72	421.30
436.90	442.36
437.09	400.23
437.28	397.89
437.46	397.89
437.65	416.62
437.84	435.34
438.02	447.04
438.21	411.93
438.40	358.10
438.58	367.46
438.77	395.55
438.96	465.77
439.14	414.27
439.33	465.77
439.52	449.38
439.70	407.25
439.89	435.34
440.08	479.81
440.26	500.87
440.45	458.74
440.63	397.89
440.82	433.00
441.01	351.08
441.19	355.76
441.38	418.96
441.57	344.06
441.75	390.87
441.94	430.66
442.12	388.53
442.31	421.30
442.50	411.93
442.68	374.49
442.87	421.30
443.05	461.09
443.24	435.34
443.43	477.47
443.61	409.59
443.80	444.70
443.98	358.10
444.17	397.89
444.35	400.23
444.54	433.00
444.73	404.91
444.91	425.98
445.10	409.59
445.28	339.38
445.47	416.62
445.65	362.78
445.84	374.49
446.02	435.34
446.21	355.76
446.39	400.23
446.58	388.53
446.77	330.02
446.95	383.85
447.14	393.21
447.32	404.91
447.51	402.57
447.69	337.04
447.88	421.30
448.06	437.68
448.25	437.68
448.43	430.66
448.62	337.04
448.80	362.78
448.99	451.72
449.17	491.51
449.36	430.66
449.54	456.40
449.73	390.87
449.91	411.93
450.10	533.64
450.28	411.93
450.46	440.02
450.65	430.66
450.83	383.85
451.02	407.25
451.20	383.85
451.39	386.19
451.57	521.94
451.76	402.57
451.94	423.64
452.13	458.74
452.31	472.79
452.49	451.72
452.68	379.17
452.86	418.96
453.05	367.46
453.23	393.21
453.42	456.40
453.60	383.85
453.78	458.74
453.97	456.40
454.15	381.51
454.34	299.59
454.52	442.36
454.70	362.78
454.89	461.09
455.07	402.57
455.26	505.56
455.44	447.04
455.62	372.15
455.81	402.57
455.99	400.23
456.17	437.68
456.36	463.43
456.54	374.49
456.73	402.57
456.91	367.46
457.09	404.91
457.28	430.66
457.46	458.74
457.64	381.51
457.83	386.19
458.01	374.49
458.19	421.30
458.38	386.19
458.56	383.85
458.74	407.25
458.93	386.19
459.11	409.59
459.29	395.55
459.48	430.66
459.66	449.38
459.84	461.09
460.03	456.40
460.21	395.55
460.39	437.68
460.57	379.17
460.76	404.91
460.94	381.51
461.12	425.98
461.31	444.70
461.49	390.87
461.67	449.38
461.85	461.09
462.04	447.04
462.22	748.97
462.40	454.06
462.59	397.89
462.77	414.27
462.95	456.40
463.13	395.55
463.32	472.79
463.50	444.70
463.68	479.81
463.86	428.32
464.05	421.30
464.23	444.70
464.41	437.68
464.59	372.15
464.78	348.74
464.96	418.96
465.14	435.34
465.32	407.25
465.50	358.10
465.69	383.85
465.87	393.21
466.05	435.34
466.23	418.96
466.41	475.13
466.60	400.23
466.78	386.19
466.96	449.38
467.14	360.44
467.32	458.74
467.51	402.57
467.69	407.25
467.87	416.62
468.05	369.80
468.23	465.77
468.41	395.55
468.60	369.80
468.78	435.34
468.96	444.70
469.14	444.70
469.32	383.85
469.50	437.68
469.69	421.30
469.87	421.30
470.05	507.90
470.23	381.51
470.41	402.57
470.59	372.15
470.77	411.93
470.95	425.98
471.14	461.09
471.32	362.78
471.50	465.77
471.68	393.21
471.86	341.72
472.04	421.30
472.22	374.49
472.40	444.70
472.58	477.47
472.77	411.93
472.95	472.79
473.13	430.66
473.31	407.25
473.49	421.30
473.67	404.91
473.85	376.83
474.03	425.98
474.21	386.19
474.39	425.98
474.57	421.30
474.75	402.57
474.93	390.87
475.12	376.83
475.30	402.57
475.48	411.93
475.66	346.40
475.84	358.10
476.02	416.62
476.20	428.32
476.38	423.64
476.56	454.06
476.74	428.32
476.92	493.85
477.10	390.87
477.28	442.36
477.46	386.19
477.64	451.72
477.82	435.34
478.00	416.62
478.18	433.00
478.36	444.70
478.54	355.76
478.72	404.91
478.90	374.49
479.08	411.93
479.26	486.83
479.44	353.42
479.62	465.77
479.80	475.13
479.98	418.96
480.16	414.27
480.34	402.57
480.52	409.59
480.70	414.27
480.88	353.42
481.06	428.32
481.24	404.91
481.41	395.55
481.59	376.83
481.77	416.62
481.95	395.55
482.13	447.04
482.31	437.68
482.49	395.55
482.67	468.11
482.85	433.00
483.03	418.96
483.21	486.83
483.39	430.66
483.57	437.68
483.74	411.93
483.92	367.46
484.10	418.96
484.28	393.21
484.46	477.47
484.64	416.62
484.82	393.21
485.00	355.76
485.18	360.44
485.35	390.87
485.53	414.27
485.71	456.40
485.89	332.36
486.07	414.27
486.25	528.96
486.43	437.68
486.61	442.36
486.78	362.78
486.96	320.65
487.14	472.79
487.32	332.36
487.50	397.89
487.68	500.87
487.85	423.64
488.03	421.30
488.21	451.72
488.39	383.85
488.57	409.59
488.75	383.85
488.92	528.96
489.10	437.68
489.28	409.59
489.46	381.51
489.64	475.13
489.81	294.91
489.99	479.81
490.17	388.53
490.35	435.34
490.53	433.00
490.70	411.93
490.88	400.23
491.06	381.51
491.24	409.59
491.41	358.10
491.59	397.89
491.77	451.72
491.95	360.44
492.13	433.00
492.30	470.45
492.48	437.68
492.66	421.30
492.84	372.15
493.01	470.45
493.19	465.77
493.37	458.74
493.54	461.09
493.72	400.23
493.90	400.23
494.08	388.53
494.25	447.04
494.43	463.43
494.61	362.78
494.79	341.72
494.96	362.78
495.14	507.90
495.32	442.36
495.49	414.27
495.67	360.44
495.85	402.57
496.02	430.66
496.20	407.25
496.38	435.34
496.55	484.49
496.73	479.81
496.91	414.27
497.09	400.23
497.26	411.93
497.44	449.38
497.62	404.91
497.79	475.13
497.97	346.40
498.14	512.58
498.32	454.06
498.50	454.06
498.67	418.96
498.85	470.45
499.03	390.87
499.20	440.02
499.38	395.55
499.56	365.12
499.73	442.36
499.91	435.34
500.08	400.23
500.26	482.15
500.44	367.46
500.61	444.70
500.79	468.11
500.97	393.21
501.14	425.98
501.32	372.15
501.49	437.68
501.67	440.02
501.84	411.93
502.02	369.80
502.20	411.93
502.37	353.42
502.55	381.51
502.72	355.76
502.90	430.66
503.07	355.76
503.25	337.04
503.43	423.64
503.60	393.21
503.78	470.45
503.95	379.17
504.13	393.21
504.30	404.91
504.48	425.98
504.65	395.55
504.83	404.91
505.01	397.89
505.18	386.19
505.36	475.13
505.53	489.17
505.71	414.27
505.88	440.02
506.06	346.40
506.23	393.21
506.41	407.25
506.58	339.38
506.76	400.23
506.93	383.85
507.11	388.53
507.28	411.93
507.46	393.21
507.63	381.51
507.81	332.36
507.98	367.46
508.16	376.83
508.33	428.32
508.50	454.06
508.68	447.04
508.85	461.09
509.03	447.04
509.20	362.78
509.38	344.06
509.55	381.51
509.73	407.25
509.90	433.00
510.08	409.59
510.25	456.40
510.42	376.83
510.60	327.68
510.77	407.25
510.95	430.66
511.12	458.74
511.30	402.57
511.47	388.53
511.64	514.92
511.82	353.42
511.99	484.49
512.17	400.23
512.34	397.89
512.51	437.68
512.69	393.21
512.86	486.83
513.04	454.06
513.21	409.59
513.38	379.17
513.56	440.02
513.73	444.70
513.90	496.19
514.08	369.80
514.25	435.34
514.43	484.49
514.60	442.36
514.77	430.66
514.95	409.59
515.12	423.64
515.29	395.55
515.47	409.59
515.64	440.02
515.81	428.32
515.99	433.00
516.16	402.57
516.33	482.15
516.51	372.15
516.68	388.53
516.85	397.89
517.03	421.30
517.20	393.21
517.37	428.32
517.54	383.85
517.72	470.45
517.89	435.34
518.06	381.51
518.24	435.34
518.41	472.79
518.58	332.36
518.75	379.17
518.93	404.91
519.10	353.42
519.27	440.02
519.45	456.40
519.62	433.00
519.79	416.62
519.96	397.89
520.14	407.25
520.31	449.38
520.48	372.15
520.65	416.62
520.83	456.40
521.00	388.53
521.17	411.93
521.34	325.33
521.52	386.19
521.69	369.80
521.86	397.89
522.03	393.21
522.20	430.66
522.38	414.27
522.55	402.57
522.72	358.10
522.89	425.98
523.07	367.46
523.24	374.49
523.41	369.80
523.58	388.53
523.75	393.21
523.92	421.30
524.10	344.06
524.27	383.85
524.44	475.13
524.61	414.27
524.78	400.23
524.96	447.04
525.13	383.85
525.30	425.98
525.47	402.57
525.64	404.91
525.81	404.91
525.98	421.30
526.16	470.45
526.33	409.59
526.50	418.96
526.67	332.36
526.84	395.55
527.01	416.62
527.18	351.08
527.36	423.64
527.53	390.87
527.70	388.53
527.87	423.64
528.04	421.30
528.21	433.00
528.38	376.83
528.55	477.47
528.72	400.23
528.89	440.02
529.07	381.51
529.24	374.49
529.41	433.00
529.58	433.00
529.75	383.85
529.92	381.51
530.09	447.04
530.26	390.87
530.43	425.98
530.60	423.64
530.77	421.30
530.94	388.53
531.11	407.25
531.28	404.91
531.46	407.25
531.63	454.06
531.80	393.21
531.97	423.64
532.14	479.81
532.31	475.13
532.48	435.34
532.65	351.08
532.82	397.89
532.99	414.27
533.16	430.66
533.33	372.15
533.50	395.55
533.67	379.17
533.84	414.27
534.01	409.59
534.18	369.80
534.35	440.02
534.52	397.89
534.69	465.77
534.86	379.17
535.03	402.57
535.20	407.25
535.37	407.25
535.54	383.85
535.71	461.09
535.88	456.40
536.05	430.66
536.22	449.38
536.38	402.57
536.55	496.19
536.72	491.51
536.89	442.36
537.06	418.96
537.23	449.38
537.40	409.59
537.57	444.70
537.74	433.00
537.91	402.57
538.08	414.27
538.25	442.36
538.42	416.62
538.59	433.00
538.75	390.87
538.92	386.19
539.09	444.70
539.26	465.77
539.43	421.30
539.60	440.02
539.77	479.81
539.94	477.47
540.11	456.40
540.28	449.38
540.44	458.74
540.61	489.17
540.78	351.08
540.95	404.91
541.12	477.47
541.29	428.32
541.46	435.34
541.62	454.06
541.79	409.59
541.96	414.27
542.13	418.96
542.30	383.85
542.47	479.81
542.63	425.98
542.80	418.96
542.97	393.21
543.14	433.00
543.31	409.59
543.48	437.68
543.64	407.25
543.81	395.55
543.98	423.64
544.15	393.21
544.32	425.98
544.48	435.34
544.65	416.62
544.82	390.87
544.99	376.83
545.16	456.40
545.32	379.17
545.49	409.59
545.66	381.51
545.83	414.27
546.00	386.19
546.16	346.40
546.33	341.72
546.50	411.93
546.67	383.85
546.83	388.53
547.00	369.80
547.17	376.83
547.34	440.02
547.50	421.30
547.67	423.64
547.84	383.85
548.00	402.57
548.17	402.57
548.34	435.34
548.51	444.70
548.67	414.27
548.84	402.57
549.01	404.91
549.18	372.15
549.34	379.17
549.51	449.38
549.68	418.96
549.84	425.98
550.01	407.25
550.18	442.36
550.34	458.74
550.51	421.30
550.68	358.10
550.84	433.00
551.01	440.02
551.18	348.74
551.34	404.91
551.51	404.91
551.68	418.96
551.84	414.27
552.01	400.23
552.18	348.74
552.34	353.42
552.51	369.80
552.68	400.23
552.84	447.04
553.01	421.30
553.18	425.98
553.34	376.83
553.51	397.89
553.67	496.19
553.84	470.45
554.01	465.77
554.17	395.55
554.34	458.74
554.51	400.23
554.67	360.44
554.84	440.02
555.00	388.53
555.17	393.21
555.33	411.93
555.50	414.27
555.67	393.21
555.83	507.90
556.00	388.53
556.16	624.92
556.33	428.32
556.50	409.59
556.66	486.83
556.83	372.15
556.99	358.10
557.16	383.85
557.32	437.68
557.49	411.93
557.65	486.83
557.82	411.93
557.98	430.66
558.15	444.70
558.32	440.02
558.48	437.68
558.65	407.25
558.81	376.83
558.98	395.55
559.14	425.98
559.31	449.38
559.47	428.32
559.64	468.11
559.80	496.19
559.97	407.25
560.13	404.91
560.30	367.46
560.46	400.23
560.63	498.53
560.79	402.57
560.96	365.12
561.12	433.00
561.29	435.34
561.45	390.87
561.61	414.27
561.78	463.43
561.94	465.77
562.11	435.34
562.27	416.62
562.44	365.12
562.60	390.87
562.77	486.83
562.93	423.64
563.10	414.27
563.26	404.91
563.42	486.83
563.59	468.11
563.75	358.10
563.92	416.62
564.08	423.64
564.24	362.78
564.41	451.72
564.57	365.12
564.74	388.53
564.90	465.77
565.07	449.38
565.23	365.12
565.39	433.00
565.56	444.70
565.72	376.83
565.88	346.40
566.05	444.70
566.21	428.32
566.38	472.79
566.54	372.15
566.70	428.32
566.87	416.62
567.03	386.19
567.19	430.66
567.36	458.74
567.52	390.87
567.68	435.34
567.85	421.30
568.01	409.59
568.17	402.57
568.34	418.96
568.50	428.32
568.66	386.19
568.83	461.09
568.99	393.21
569.15	489.17
569.32	430.66
569.48	409.59
569.64	395.55
569.81	430.66
569.97	358.10
570.13	447.04
570.30	440.02
570.46	393.21
570.62	362.78
570.78	395.55
570.95	465.77
571.11	458.74
571.27	372.15
571.43	409.59
571.60	531.30
571.76	362.78
571.92	435.34
572.09	374.49
572.25	400.23
572.41	433.00
572.57	409.59
572.74	388.53
572.90	390.87
573.06	475.13
573.22	423.64
573.38	468.11
573.55	433.00
573.71	428.32
573.87	383.85
574.03	386.19
574.20	379.17
574.36	421.30
574.52	418.96
574.68	411.93
574.84	416.62
575.01	418.96
575.17	383.85
575.33	411.93
575.49	451.72
575.65	430.66
575.82	362.78
575.98	395.55
576.14	454.06
576.30	400.23
576.46	486.83
576.62	428.32
576.79	355.76
576.95	416.62
577.11	425.98
577.27	404.91
577.43	575.77
577.59	472.79
577.75	332.36
577.92	395.55
578.08	465.77
578.24	421.30
578.40	442.36
578.56	449.38
578.72	390.87
578.88	409.59
579.04	411.93
579.21	416.62
579.37	425.98
579.53	461.09
579.69	447.04
579.85	388.53
580.01	421.30
580.17	369.80
580.33	435.34
580.49	407.25
580.65	472.79
580.82	423.64
580.98	472.79
581.14	367.46
581.30	355.76
581.46	393.21
581.62	458.74
581.78	365.12
581.94	360.44
582.10	454.06
582.26	414.27
582.42	369.80
582.58	383.85
582.74	393.21
582.90	440.02
583.06	437.68
583.22	390.87
583.38	339.38
583.54	411.93
583.70	461.09
583.86	486.83
584.02	411.93
584.18	468.11
584.34	395.55
584.50	353.42
584.66	379.17
584.82	360.44
584.98	442.36
585.14	461.09
585.30	437.68
585.46	416.62
585.62	421.30
585.78	468.11
585.94	402.57
586.10	409.59
586.26	365.12
586.42	458.74
586.58	418.96
586.74	418.96
586.90	433.00
587.06	418.96
587.22	454.06
587.38	468.11
587.54	444.70
587.70	440.02
587.86	418.96
588.02	414.27
588.18	428.32
588.34	472.79
588.49	386.19
588.65	402.57
588.81	447.04
588.97	442.36
589.13	400.23
589.29	418.96
589.45	442.36
589.61	461.09
589.77	458.74
589.93	414.27
590.08	470.45
590.24	425.98
590.40	374.49
590.56	423.64
590.72	337.04
590.88	402.57
591.04	318.31
591.20	442.36
591.35	442.36
591.51	440.02
591.67	437.68
591.83	365.12
591.99	383.85
592.15	402.57
592.31	395.55
592.46	400.23
592.62	393.21
592.78	402.57
592.94	388.53
593.10	484.49
593.26	397.89
593.41	404.91
593.57	381.51
593.73	437.68
593.89	468.11
594.05	393.21
594.20	360.44
594.36	456.40
594.52	430.66
594.68	388.53
594.84	418.96
594.99	465.77
595.15	395.55
595.31	447.04
595.47	451.72
595.62	383.85
595.78	390.87
595.94	348.74
596.10	463.43
596.25	379.17
596.41	379.17
596.57	447.04
596.73	395.55
596.88	397.89
597.04	451.72
597.20	407.25
597.36	337.04
597.51	409.59
597.67	397.89
597.83	451.72
597.99	472.79
598.14	433.00
598.30	440.02
598.46	367.46
598.61	381.51
598.77	425.98
598.93	404.91
599.09	435.34
599.24	430.66
599.40	407.25
599.56	437.68
599.71	421.30
599.87	430.66
600.03	358.10
600.18	433.00
600.34	409.59
600.50	372.15
600.65	395.55
600.81	341.72
600.97	425.98
601.12	468.11
601.28	390.87
601.44	414.27
601.59	397.89
601.75	425.98
601.91	383.85
602.06	327.68
602.22	505.56
602.37	360.44
602.53	442.36
602.69	437.68
602.84	374.49
603.00	390.87
603.16	496.19
603.31	442.36
603.47	397.89
603.62	367.46
603.78	386.19
603.94	454.06
604.09	416.62
604.25	440.02
604.40	334.70
604.56	461.09
604.71	386.19
604.87	470.45
605.03	400.23
605.18	442.36
605.34	444.70
605.49	430.66
605.65	433.00
605.80	411.93
605.96	468.11
606.12	440.02
606.27	510.24
606.43	407.25
606.58	369.80
606.74	411.93
606.89	440.02
607.05	421.30
607.20	411.93
607.36	409.59
607.51	351.08
607.67	383.85
607.82	433.00
607.98	461.09
608.13	465.77
608.29	458.74
608.44	461.09
608.60	414.27
608.75	386.19
608.91	416.62
609.06	423.64
609.22	416.62
609.37	362.78
609.53	397.89
609.68	388.53
609.84	437.68
609.99	393.21
610.15	428.32
