SpectraSuite Data File
++++++++++++++++++++++++++++++++++++
Date: Fri Oct 25 12:10:28 EDT 2013
User: price-jones
Dark Spectrum Present: No
Reference Spectrum Present: No
Number of Sampled Component Spectra: 1
Spectrometers: USB2+H05261
Integration Time (usec): 100000 (USB2+H05261)
Spectra Averaged: 1 (USB2+H05261)
Boxcar Smoothing: 0 (USB2+H05261)
Correct for Electrical Dark: No (USB2+H05261)
Strobe/Lamp Enabled: No (USB2+H05261)
Correct for Detector Non-linearity: No (USB2+H05261)
Correct for Stray Light: No (USB2+H05261)
Number of Pixels in Processed Spectrum: 2048
>>>>>Begin Processed Spectral Data<<<<<
365.73	262.14
365.92	262.14
366.12	262.14
366.32	292.57
366.52	264.48
366.72	264.48
366.91	278.52
367.11	229.37
367.31	173.20
367.51	231.71
367.70	220.01
367.90	266.82
368.10	297.25
368.30	290.23
368.49	208.31
368.69	262.14
368.89	273.84
369.09	259.80
369.28	334.70
369.48	262.14
369.68	269.16
369.87	322.99
370.07	259.80
370.27	308.95
370.47	294.91
370.66	355.76
370.86	365.12
371.06	351.08
371.25	442.36
371.45	355.76
371.65	327.68
371.84	414.27
372.04	315.97
372.24	397.89
372.44	395.55
372.63	463.43
372.83	451.72
373.03	423.64
373.22	414.27
373.42	514.92
373.62	416.62
373.81	381.51
374.01	484.49
374.21	489.17
374.40	362.78
374.60	411.93
374.79	402.57
374.99	444.70
375.19	393.21
375.38	397.89
375.58	423.64
375.78	451.72
375.97	425.98
376.17	451.72
376.37	409.59
376.56	409.59
376.76	395.55
376.95	402.57
377.15	433.00
377.35	372.15
377.54	447.04
377.74	388.53
377.93	402.57
378.13	440.02
378.33	423.64
378.52	390.87
378.72	416.62
378.91	451.72
379.11	425.98
379.31	360.44
379.50	341.72
379.70	395.55
379.89	484.49
380.09	418.96
380.28	355.76
380.48	327.68
380.68	330.02
380.87	383.85
381.07	404.91
381.26	442.36
381.46	418.96
381.65	376.83
381.85	374.49
382.04	379.17
382.24	393.21
382.43	425.98
382.63	400.23
382.83	407.25
383.02	404.91
383.22	418.96
383.41	496.19
383.61	437.68
383.80	465.77
384.00	418.96
384.19	346.40
384.39	465.77
384.58	362.78
384.78	402.57
384.97	395.55
385.17	447.04
385.36	416.62
385.56	440.02
385.75	381.51
385.95	454.06
386.14	372.15
386.34	423.64
386.53	447.04
386.72	372.15
386.92	393.21
387.11	430.66
387.31	421.30
387.50	397.89
387.70	376.83
387.89	351.08
388.09	456.40
388.28	379.17
388.48	381.51
388.67	472.79
388.86	402.57
389.06	435.34
389.25	395.55
389.45	393.21
389.64	465.77
389.84	400.23
390.03	362.78
390.22	348.74
390.42	402.57
390.61	379.17
390.81	390.87
391.00	442.36
391.19	400.23
391.39	372.15
391.58	428.32
391.78	400.23
391.97	362.78
392.16	430.66
392.36	463.43
392.55	454.06
392.75	388.53
392.94	346.40
393.13	430.66
393.33	390.87
393.52	402.57
393.71	444.70
393.91	353.42
394.10	358.10
394.29	369.80
394.49	383.85
394.68	369.80
394.88	442.36
395.07	416.62
395.26	425.98
395.46	400.23
395.65	404.91
395.84	437.68
396.04	435.34
396.23	411.93
396.42	425.98
396.62	388.53
396.81	421.30
397.00	435.34
397.19	421.30
397.39	428.32
397.58	390.87
397.77	355.76
397.97	414.27
398.16	365.12
398.35	358.10
398.55	341.72
398.74	437.68
398.93	362.78
399.12	374.49
399.32	390.87
399.51	348.74
399.70	428.32
399.90	437.68
400.09	397.89
400.28	404.91
400.47	388.53
400.67	470.45
400.86	348.74
401.05	409.59
401.24	400.23
401.44	444.70
401.63	397.89
401.82	397.89
402.01	400.23
402.21	376.83
402.40	423.64
402.59	383.85
402.78	355.76
402.97	353.42
403.17	486.83
403.36	407.25
403.55	386.19
403.74	404.91
403.93	435.34
404.13	468.11
404.32	416.62
404.51	440.02
404.70	433.00
404.89	390.87
405.09	468.11
405.28	442.36
405.47	393.21
405.66	409.59
405.85	454.06
406.05	411.93
406.24	425.98
406.43	339.38
406.62	409.59
406.81	461.09
407.00	386.19
407.20	493.85
407.39	369.80
407.58	397.89
407.77	381.51
407.96	444.70
408.15	442.36
408.34	437.68
408.54	325.33
408.73	447.04
408.92	374.49
409.11	430.66
409.30	411.93
409.49	365.12
409.68	299.59
409.87	383.85
410.07	379.17
410.26	444.70
410.45	437.68
410.64	447.04
410.83	409.59
411.02	393.21
411.21	400.23
411.40	421.30
411.59	416.62
411.78	393.21
411.98	458.74
412.17	390.87
412.36	353.42
412.55	379.17
412.74	425.98
412.93	425.98
413.12	425.98
413.31	442.36
413.50	428.32
413.69	397.89
413.88	402.57
414.07	428.32
414.26	414.27
414.45	362.78
414.64	442.36
414.83	414.27
415.02	496.19
415.22	465.77
415.41	404.91
415.60	365.12
415.79	358.10
415.98	461.09
416.17	444.70
416.36	400.23
416.55	379.17
416.74	395.55
416.93	442.36
417.12	386.19
417.31	376.83
417.50	416.62
417.69	489.17
417.88	418.96
418.07	402.57
418.26	379.17
418.45	454.06
418.64	444.70
418.83	437.68
419.02	444.70
419.21	390.87
419.39	430.66
419.58	430.66
419.77	449.38
419.96	449.38
420.15	400.23
420.34	428.32
420.53	470.45
420.72	421.30
420.91	458.74
421.10	442.36
421.29	379.17
421.48	423.64
421.67	447.04
421.86	353.42
422.05	369.80
422.24	430.66
422.43	409.59
422.61	341.72
422.80	390.87
422.99	379.17
423.18	369.80
423.37	421.30
423.56	435.34
423.75	456.40
423.94	390.87
424.13	404.91
424.32	411.93
424.50	374.49
424.69	402.57
424.88	402.57
425.07	362.78
425.26	428.32
425.45	430.66
425.64	386.19
425.83	390.87
426.01	372.15
426.20	425.98
426.39	390.87
426.58	334.70
426.77	451.72
426.96	430.66
427.15	372.15
427.33	449.38
427.52	423.64
427.71	386.19
427.90	390.87
428.09	411.93
428.28	409.59
428.46	444.70
428.65	383.85
428.84	407.25
429.03	440.02
429.22	479.81
429.40	486.83
429.59	475.13
429.78	409.59
429.97	423.64
430.16	437.68
430.34	416.62
430.53	383.85
430.72	409.59
430.91	444.70
431.10	409.59
431.28	341.72
431.47	374.49
431.66	423.64
431.85	365.12
432.03	449.38
432.22	531.30
432.41	458.74
432.60	411.93
432.79	404.91
432.97	442.36
433.16	440.02
433.35	428.32
433.54	423.64
433.72	404.91
433.91	433.00
434.10	435.34
434.28	423.64
434.47	461.09
434.66	461.09
434.85	423.64
435.03	416.62
435.22	393.21
435.41	463.43
435.59	416.62
435.78	423.64
435.97	400.23
436.16	489.17
436.34	407.25
436.53	365.12
436.72	425.98
436.90	425.98
437.09	470.45
437.28	393.21
437.46	393.21
437.65	409.59
437.84	383.85
438.02	519.60
438.21	428.32
438.40	416.62
438.58	409.59
438.77	435.34
438.96	421.30
439.14	425.98
439.33	407.25
439.52	381.51
439.70	346.40
439.89	444.70
440.08	433.00
440.26	400.23
440.45	456.40
440.63	484.49
440.82	423.64
441.01	341.72
441.19	383.85
441.38	449.38
441.57	442.36
441.75	435.34
441.94	407.25
442.12	433.00
442.31	430.66
442.50	372.15
442.68	388.53
442.87	397.89
443.05	440.02
443.24	472.79
443.43	421.30
443.61	451.72
443.80	454.06
443.98	421.30
444.17	451.72
444.35	400.23
444.54	425.98
444.73	463.43
444.91	449.38
445.10	395.55
445.28	355.76
445.47	376.83
445.65	440.02
445.84	440.02
446.02	437.68
446.21	360.44
446.39	433.00
446.58	425.98
446.77	402.57
446.95	411.93
447.14	411.93
447.32	477.47
447.51	355.76
447.69	362.78
447.88	470.45
448.06	430.66
448.25	355.76
448.43	444.70
448.62	367.46
448.80	521.94
448.99	500.87
449.17	496.19
449.36	395.55
449.54	409.59
449.73	388.53
449.91	407.25
450.10	435.34
450.28	465.77
450.46	437.68
450.65	393.21
450.83	414.27
451.02	447.04
451.20	369.80
451.39	425.98
451.57	362.78
451.76	416.62
451.94	395.55
452.13	390.87
452.31	428.32
452.49	409.59
452.68	414.27
452.86	437.68
453.05	442.36
453.23	409.59
453.42	402.57
453.60	440.02
453.78	428.32
453.97	404.91
454.15	449.38
454.34	421.30
454.52	423.64
454.70	397.89
454.89	479.81
455.07	379.17
455.26	404.91
455.44	383.85
455.62	383.85
455.81	447.04
455.99	365.12
456.17	421.30
456.36	353.42
456.54	400.23
456.73	418.96
456.91	400.23
457.09	381.51
457.28	493.85
457.46	374.49
457.64	507.90
457.83	388.53
458.01	390.87
458.19	407.25
458.38	421.30
458.56	353.42
458.74	409.59
458.93	442.36
459.11	430.66
459.29	468.11
459.48	479.81
459.66	472.79
459.84	456.40
460.03	550.03
460.21	414.27
460.39	447.04
460.57	421.30
460.76	442.36
460.94	444.70
461.12	435.34
461.31	428.32
461.49	362.78
461.67	360.44
461.85	440.02
462.04	428.32
462.22	753.65
462.40	447.04
462.59	454.06
462.77	362.78
462.95	465.77
463.13	411.93
463.32	484.49
463.50	458.74
463.68	348.74
463.86	407.25
464.05	451.72
464.23	454.06
464.41	444.70
464.59	400.23
464.78	346.40
464.96	404.91
465.14	395.55
465.32	421.30
465.50	383.85
465.69	418.96
465.87	418.96
466.05	440.02
466.23	381.51
466.41	440.02
466.60	470.45
466.78	390.87
466.96	374.49
467.14	421.30
467.32	428.32
467.51	388.53
467.69	414.27
467.87	461.09
468.05	348.74
468.23	393.21
468.41	447.04
468.60	437.68
468.78	491.51
468.96	444.70
469.14	416.62
469.32	386.19
469.50	395.55
469.69	411.93
469.87	437.68
470.05	407.25
470.23	421.30
470.41	365.12
470.59	376.83
470.77	369.80
470.95	458.74
471.14	416.62
471.32	418.96
471.50	390.87
471.68	379.17
471.86	409.59
472.04	353.42
472.22	407.25
472.40	400.23
472.58	440.02
472.77	372.15
472.95	414.27
473.13	463.43
473.31	498.53
473.49	376.83
473.67	390.87
473.85	388.53
474.03	397.89
474.21	428.32
474.39	475.13
474.57	421.30
474.75	374.49
474.93	386.19
475.12	365.12
475.30	421.30
475.48	358.10
475.66	360.44
475.84	374.49
476.02	407.25
476.20	491.51
476.38	383.85
476.56	461.09
476.74	407.25
476.92	440.02
477.10	407.25
477.28	365.12
477.46	414.27
477.64	367.46
477.82	400.23
478.00	416.62
478.18	449.38
478.36	477.47
478.54	423.64
478.72	442.36
478.90	468.11
479.08	400.23
479.26	372.15
479.44	395.55
479.62	376.83
479.80	395.55
479.98	372.15
480.16	442.36
480.34	437.68
480.52	397.89
480.70	451.72
480.88	416.62
481.06	355.76
481.24	388.53
481.41	421.30
481.59	444.70
481.77	423.64
481.95	404.91
482.13	425.98
482.31	435.34
482.49	425.98
482.67	444.70
482.85	433.00
483.03	444.70
483.21	411.93
483.39	400.23
483.57	353.42
483.74	433.00
483.92	425.98
484.10	351.08
484.28	433.00
484.46	486.83
484.64	430.66
484.82	400.23
485.00	353.42
485.18	423.64
485.35	376.83
485.53	362.78
485.71	433.00
485.89	430.66
486.07	411.93
486.25	533.64
486.43	379.17
486.61	444.70
486.78	390.87
486.96	390.87
487.14	353.42
487.32	395.55
487.50	393.21
487.68	400.23
487.85	393.21
488.03	428.32
488.21	433.00
488.39	428.32
488.57	425.98
488.75	397.89
488.92	463.43
489.10	411.93
489.28	484.49
489.46	355.76
489.64	381.51
489.81	447.04
489.99	393.21
490.17	421.30
490.35	444.70
490.53	414.27
490.70	365.12
490.88	369.80
491.06	395.55
491.24	409.59
491.41	470.45
491.59	409.59
491.77	425.98
491.95	397.89
492.13	425.98
492.30	402.57
492.48	435.34
492.66	409.59
492.84	463.43
493.01	444.70
493.19	430.66
493.37	451.72
493.54	458.74
493.72	395.55
493.90	407.25
494.08	381.51
494.25	458.74
494.43	346.40
494.61	367.46
494.79	355.76
494.96	461.09
495.14	402.57
495.32	414.27
495.49	351.08
495.67	461.09
495.85	379.17
496.02	418.96
496.20	456.40
496.38	414.27
496.55	491.51
496.73	447.04
496.91	416.62
497.09	451.72
497.26	407.25
497.44	313.63
497.62	374.49
497.79	463.43
497.97	435.34
498.14	433.00
498.32	435.34
498.50	482.15
498.67	386.19
498.85	402.57
499.03	393.21
499.20	440.02
499.38	407.25
499.56	456.40
499.73	463.43
499.91	451.72
500.08	379.17
500.26	423.64
500.44	454.06
500.61	407.25
500.79	416.62
500.97	395.55
501.14	374.49
501.32	367.46
501.49	482.15
501.67	421.30
501.84	395.55
502.02	435.34
502.20	416.62
502.37	444.70
502.55	388.53
502.72	447.04
502.90	463.43
503.07	428.32
503.25	475.13
503.43	423.64
503.60	386.19
503.78	388.53
503.95	423.64
504.13	440.02
504.30	451.72
504.48	365.12
504.65	421.30
504.83	442.36
505.01	404.91
505.18	425.98
505.36	395.55
505.53	416.62
505.71	344.06
505.88	449.38
506.06	393.21
506.23	395.55
506.41	369.80
506.58	437.68
506.76	381.51
506.93	447.04
507.11	407.25
507.28	414.27
507.46	386.19
507.63	430.66
507.81	404.91
507.98	411.93
508.16	470.45
508.33	369.80
508.50	374.49
508.68	322.99
508.85	388.53
509.03	423.64
509.20	437.68
509.38	437.68
509.55	477.47
509.73	423.64
509.90	386.19
510.08	433.00
510.25	358.10
510.42	430.66
510.60	402.57
510.77	425.98
510.95	442.36
511.12	451.72
511.30	458.74
511.47	440.02
511.64	407.25
511.82	404.91
511.99	437.68
512.17	379.17
512.34	407.25
512.51	449.38
512.69	418.96
512.86	425.98
513.04	437.68
513.21	414.27
513.38	437.68
513.56	390.87
513.73	451.72
513.90	369.80
514.08	423.64
514.25	449.38
514.43	425.98
514.60	449.38
514.77	468.11
514.95	463.43
515.12	414.27
515.29	425.98
515.47	430.66
515.64	390.87
515.81	440.02
515.99	437.68
516.16	416.62
516.33	400.23
516.51	428.32
516.68	376.83
516.85	397.89
517.03	430.66
517.20	479.81
517.37	400.23
517.54	435.34
517.72	386.19
517.89	435.34
518.06	461.09
518.24	454.06
518.41	489.17
518.58	475.13
518.75	475.13
518.93	395.55
519.10	416.62
519.27	397.89
519.45	430.66
519.62	498.53
519.79	465.77
519.96	425.98
520.14	468.11
520.31	496.19
520.48	402.57
520.65	409.59
520.83	421.30
521.00	383.85
521.17	402.57
521.34	449.38
521.52	404.91
521.69	437.68
521.86	472.79
522.03	421.30
522.20	407.25
522.38	465.77
522.55	400.23
522.72	327.68
522.89	430.66
523.07	395.55
523.24	404.91
523.41	400.23
523.58	322.99
523.75	334.70
523.92	444.70
524.10	393.21
524.27	411.93
524.44	433.00
524.61	416.62
524.78	393.21
524.96	379.17
525.13	390.87
525.30	456.40
525.47	475.13
525.64	395.55
525.81	383.85
525.98	425.98
526.16	334.70
526.33	362.78
526.50	444.70
526.67	507.90
526.84	355.76
527.01	414.27
527.18	470.45
527.36	402.57
527.53	388.53
527.70	407.25
527.87	425.98
528.04	456.40
528.21	411.93
528.38	334.70
528.55	440.02
528.72	437.68
528.89	402.57
529.07	505.56
529.24	444.70
529.41	458.74
529.58	379.17
529.75	393.21
529.92	435.34
530.09	383.85
530.26	433.00
530.43	381.51
530.60	348.74
530.77	463.43
530.94	418.96
531.11	423.64
531.28	400.23
531.46	386.19
531.63	442.36
531.80	440.02
531.97	447.04
532.14	440.02
532.31	423.64
532.48	332.36
532.65	493.85
532.82	416.62
532.99	414.27
533.16	355.76
533.33	421.30
533.50	423.64
533.67	372.15
533.84	397.89
534.01	416.62
534.18	430.66
534.35	383.85
534.52	470.45
534.69	433.00
534.86	355.76
535.03	325.33
535.20	397.89
535.37	470.45
535.54	374.49
535.71	376.83
535.88	463.43
536.05	442.36
536.22	454.06
536.38	444.70
536.55	430.66
536.72	418.96
536.89	388.53
537.06	407.25
537.23	397.89
537.40	423.64
537.57	381.51
537.74	472.79
537.91	435.34
538.08	433.00
538.25	372.15
538.42	463.43
538.59	369.80
538.75	402.57
538.92	397.89
539.09	414.27
539.26	458.74
539.43	418.96
539.60	435.34
539.77	458.74
539.94	418.96
540.11	353.42
540.28	437.68
540.44	454.06
540.61	421.30
540.78	372.15
540.95	400.23
541.12	430.66
541.29	362.78
541.46	484.49
541.62	437.68
541.79	444.70
541.96	430.66
542.13	374.49
542.30	447.04
542.47	491.51
542.63	407.25
542.80	395.55
542.97	416.62
543.14	416.62
543.31	414.27
543.48	402.57
543.64	442.36
543.81	456.40
543.98	353.42
544.15	444.70
544.32	372.15
544.48	435.34
544.65	390.87
544.82	428.32
544.99	374.49
545.16	458.74
545.32	433.00
545.49	386.19
545.66	339.38
545.83	449.38
546.00	440.02
546.16	402.57
546.33	330.02
546.50	428.32
546.67	444.70
546.83	440.02
547.00	423.64
547.17	374.49
547.34	393.21
547.50	428.32
547.67	409.59
547.84	430.66
548.00	433.00
548.17	402.57
548.34	346.40
548.51	463.43
548.67	435.34
548.84	411.93
549.01	435.34
549.18	458.74
549.34	416.62
549.51	491.51
549.68	395.55
549.84	416.62
550.01	376.83
550.18	489.17
550.34	472.79
550.51	402.57
550.68	423.64
550.84	423.64
551.01	425.98
551.18	360.44
551.34	440.02
551.51	449.38
551.68	425.98
551.84	456.40
552.01	367.46
552.18	348.74
552.34	379.17
552.51	308.95
552.68	376.83
552.84	435.34
553.01	411.93
553.18	454.06
553.34	390.87
553.51	454.06
553.67	470.45
553.84	440.02
554.01	437.68
554.17	433.00
554.34	442.36
554.51	425.98
554.67	428.32
554.84	433.00
555.00	449.38
555.17	465.77
555.33	442.36
555.50	376.83
555.67	425.98
555.83	353.42
556.00	451.72
556.16	477.47
556.33	381.51
556.50	397.89
556.66	414.27
556.83	451.72
556.99	447.04
557.16	425.98
557.32	430.66
557.49	437.68
557.65	456.40
557.82	430.66
557.98	421.30
558.15	444.70
558.32	395.55
558.48	367.46
558.65	411.93
558.81	472.79
558.98	390.87
559.14	407.25
559.31	404.91
559.47	416.62
559.64	362.78
559.80	484.49
559.97	411.93
560.13	386.19
560.30	379.17
560.46	409.59
560.63	451.72
560.79	458.74
560.96	468.11
561.12	376.83
561.29	400.23
561.45	430.66
561.61	395.55
561.78	477.47
561.94	430.66
562.11	425.98
562.27	472.79
562.44	407.25
562.60	400.23
562.77	451.72
562.93	496.19
563.10	433.00
563.26	463.43
563.42	435.34
563.59	411.93
563.75	430.66
563.92	451.72
564.08	475.13
564.24	484.49
564.41	505.56
564.57	418.96
564.74	409.59
564.90	458.74
565.07	444.70
565.23	475.13
565.39	477.47
565.56	393.21
565.72	444.70
565.88	358.10
566.05	379.17
566.21	425.98
566.38	425.98
566.54	458.74
566.70	482.15
566.87	468.11
567.03	397.89
567.19	449.38
567.36	425.98
567.52	435.34
567.68	437.68
567.85	393.21
568.01	435.34
568.17	421.30
568.34	402.57
568.50	435.34
568.66	395.55
568.83	535.98
568.99	423.64
569.15	498.53
569.32	430.66
569.48	409.59
569.64	404.91
569.81	421.30
569.97	423.64
570.13	423.64
570.30	444.70
570.46	400.23
570.62	440.02
570.78	386.19
570.95	463.43
571.11	421.30
571.27	503.22
571.43	388.53
571.60	386.19
571.76	414.27
571.92	414.27
572.09	390.87
572.25	404.91
572.41	397.89
572.57	383.85
572.74	454.06
572.90	484.49
573.06	484.49
573.22	395.55
573.38	411.93
573.55	397.89
573.71	411.93
573.87	433.00
574.03	421.30
574.20	395.55
574.36	409.59
574.52	447.04
574.68	414.27
574.84	416.62
575.01	456.40
575.17	404.91
575.33	428.32
575.49	461.09
575.65	435.34
575.82	416.62
575.98	386.19
576.14	472.79
576.30	369.80
576.46	409.59
576.62	451.72
576.79	444.70
576.95	416.62
577.11	390.87
577.27	421.30
577.43	435.34
577.59	454.06
577.75	447.04
577.92	433.00
578.08	376.83
578.24	400.23
578.40	461.09
578.56	451.72
578.72	423.64
578.88	411.93
579.04	428.32
579.21	468.11
579.37	421.30
579.53	425.98
579.69	411.93
579.85	461.09
580.01	409.59
580.17	425.98
580.33	351.08
580.49	386.19
580.65	374.49
580.82	404.91
580.98	407.25
581.14	330.02
581.30	489.17
581.46	390.87
581.62	449.38
581.78	423.64
581.94	430.66
582.10	407.25
582.26	458.74
582.42	428.32
582.58	397.89
582.74	337.04
582.90	454.06
583.06	461.09
583.22	348.74
583.38	386.19
583.54	355.76
583.70	458.74
583.86	402.57
584.02	444.70
584.18	414.27
584.34	418.96
584.50	414.27
584.66	428.32
584.82	447.04
584.98	437.68
585.14	409.59
585.30	395.55
585.46	365.12
585.62	421.30
585.78	367.46
585.94	402.57
586.10	372.15
586.26	444.70
586.42	433.00
586.58	411.93
586.74	400.23
586.90	404.91
587.06	423.64
587.22	362.78
587.38	374.49
587.54	430.66
587.70	383.85
587.86	451.72
588.02	444.70
588.18	407.25
588.34	383.85
588.49	454.06
588.65	386.19
588.81	372.15
588.97	360.44
589.13	458.74
589.29	482.15
589.45	449.38
589.61	390.87
589.77	365.12
589.93	437.68
590.08	442.36
590.24	397.89
590.40	458.74
590.56	470.45
590.72	435.34
590.88	447.04
591.04	407.25
591.20	346.40
591.35	407.25
591.51	388.53
591.67	318.31
591.83	393.21
591.99	416.62
592.15	421.30
592.31	440.02
592.46	404.91
592.62	444.70
592.78	416.62
592.94	449.38
593.10	449.38
593.26	451.72
593.41	428.32
593.57	454.06
593.73	308.95
593.89	416.62
594.05	470.45
594.20	423.64
594.36	388.53
594.52	390.87
594.68	369.80
594.84	418.96
594.99	414.27
595.15	437.68
595.31	447.04
595.47	449.38
595.62	393.21
595.78	407.25
595.94	397.89
596.10	365.12
596.25	327.68
596.41	393.21
596.57	395.55
596.73	449.38
596.88	442.36
597.04	409.59
597.20	430.66
597.36	465.77
597.51	451.72
597.67	402.57
597.83	353.42
597.99	444.70
598.14	423.64
598.30	517.26
598.46	395.55
598.61	430.66
598.77	447.04
598.93	437.68
599.09	428.32
599.24	397.89
599.40	442.36
599.56	493.85
599.71	374.49
599.87	428.32
600.03	444.70
600.18	475.13
600.34	397.89
600.50	383.85
600.65	425.98
600.81	430.66
600.97	358.10
601.12	418.96
601.28	423.64
601.44	362.78
601.59	428.32
601.75	409.59
601.91	416.62
602.06	411.93
602.22	409.59
602.37	395.55
602.53	404.91
602.69	433.00
602.84	407.25
603.00	435.34
603.16	402.57
603.31	463.43
603.47	418.96
603.62	418.96
603.78	418.96
603.94	428.32
604.09	425.98
604.25	442.36
604.40	404.91
604.56	395.55
604.71	423.64
604.87	374.49
605.03	451.72
605.18	442.36
605.34	456.40
605.49	353.42
605.65	360.44
605.80	407.25
605.96	341.72
606.12	475.13
606.27	404.91
606.43	447.04
606.58	463.43
606.74	416.62
606.89	428.32
607.05	449.38
607.20	397.89
607.36	472.79
607.51	440.02
607.67	496.19
607.82	400.23
607.98	470.45
608.13	374.49
608.29	390.87
608.44	484.49
608.60	369.80
608.75	458.74
608.91	341.72
609.06	468.11
609.22	475.13
609.37	358.10
609.53	442.36
609.68	449.38
609.84	386.19
609.99	416.62
610.15	433.00
