SpectraSuite Data File
++++++++++++++++++++++++++++++++++++
Date: Fri Oct 25 12:10:57 EDT 2013
User: price-jones
Dark Spectrum Present: No
Reference Spectrum Present: No
Number of Sampled Component Spectra: 1
Spectrometers: USB2+H05261
Integration Time (usec): 100000 (USB2+H05261)
Spectra Averaged: 1 (USB2+H05261)
Boxcar Smoothing: 0 (USB2+H05261)
Correct for Electrical Dark: No (USB2+H05261)
Strobe/Lamp Enabled: No (USB2+H05261)
Correct for Detector Non-linearity: No (USB2+H05261)
Correct for Stray Light: No (USB2+H05261)
Number of Pixels in Processed Spectrum: 2048
>>>>>Begin Processed Spectral Data<<<<<
365.73	325.33
365.92	325.33
366.12	325.33
366.32	215.33
366.52	220.01
366.72	189.58
366.91	224.69
367.11	184.90
367.31	196.60
367.51	215.33
367.70	184.90
367.90	255.12
368.10	229.37
368.30	262.14
368.49	238.73
368.69	217.67
368.89	227.03
369.09	201.29
369.28	294.91
369.48	334.70
369.68	318.31
369.87	304.27
370.07	269.16
370.27	297.25
370.47	360.44
370.66	315.97
370.86	353.42
371.06	383.85
371.25	435.34
371.45	388.53
371.65	374.49
371.84	388.53
372.04	381.51
372.24	414.27
372.44	397.89
372.63	339.38
372.83	348.74
373.03	479.81
373.22	346.40
373.42	442.36
373.62	397.89
373.81	484.49
374.01	444.70
374.21	428.32
374.40	475.13
374.60	435.34
374.79	444.70
374.99	514.92
375.19	484.49
375.38	346.40
375.58	397.89
375.78	386.19
375.97	421.30
376.17	397.89
376.37	362.78
376.56	407.25
376.76	463.43
376.95	447.04
377.15	447.04
377.35	421.30
377.54	379.17
377.74	440.02
377.93	414.27
378.13	428.32
378.33	479.81
378.52	444.70
378.72	437.68
378.91	346.40
379.11	447.04
379.31	397.89
379.50	407.25
379.70	418.96
379.89	386.19
380.09	430.66
380.28	454.06
380.48	393.21
380.68	430.66
380.87	390.87
381.07	388.53
381.26	470.45
381.46	411.93
381.65	433.00
381.85	421.30
382.04	411.93
382.24	360.44
382.43	404.91
382.63	425.98
382.83	358.10
383.02	381.51
383.22	327.68
383.41	430.66
383.61	416.62
383.80	416.62
384.00	451.72
384.19	404.91
384.39	353.42
384.58	388.53
384.78	381.51
384.97	444.70
385.17	374.49
385.36	465.77
385.56	414.27
385.75	381.51
385.95	346.40
386.14	449.38
386.34	472.79
386.53	428.32
386.72	397.89
386.92	437.68
387.11	454.06
387.31	383.85
387.50	346.40
387.70	416.62
387.89	367.46
388.09	395.55
388.28	444.70
388.48	491.51
388.67	402.57
388.86	374.49
389.06	411.93
389.25	425.98
389.45	430.66
389.64	388.53
389.84	416.62
390.03	418.96
390.22	456.40
390.42	407.25
390.61	355.76
390.81	407.25
391.00	332.36
391.19	470.45
391.39	456.40
391.58	463.43
391.78	440.02
391.97	454.06
392.16	397.89
392.36	409.59
392.55	430.66
392.75	346.40
392.94	456.40
393.13	444.70
393.33	339.38
393.52	451.72
393.71	372.15
393.91	440.02
394.10	397.89
394.29	330.02
394.49	388.53
394.68	468.11
394.88	374.49
395.07	416.62
395.26	423.64
395.46	358.10
395.65	362.78
395.84	393.21
396.04	451.72
396.23	397.89
396.42	409.59
396.62	519.60
396.81	470.45
397.00	437.68
397.19	418.96
397.39	414.27
397.58	421.30
397.77	451.72
397.97	477.47
398.16	456.40
398.35	477.47
398.55	400.23
398.74	428.32
398.93	376.83
399.12	411.93
399.32	437.68
399.51	447.04
399.70	400.23
399.90	463.43
400.09	472.79
400.28	388.53
400.47	479.81
400.67	416.62
400.86	353.42
401.05	379.17
401.24	407.25
401.44	404.91
401.63	306.61
401.82	390.87
402.01	313.63
402.21	386.19
402.40	358.10
402.59	395.55
402.78	388.53
402.97	407.25
403.17	402.57
403.36	360.44
403.55	423.64
403.74	444.70
403.93	498.53
404.13	442.36
404.32	414.27
404.51	365.12
404.70	397.89
404.89	379.17
405.09	369.80
405.28	365.12
405.47	475.13
405.66	367.46
405.85	379.17
406.05	428.32
406.24	444.70
406.43	425.98
406.62	433.00
406.81	524.28
407.00	358.10
407.20	374.49
407.39	376.83
407.58	341.72
407.77	397.89
407.96	451.72
408.15	468.11
408.34	362.78
408.54	339.38
408.73	451.72
408.92	411.93
409.11	390.87
409.30	447.04
409.49	407.25
409.68	395.55
409.87	393.21
410.07	411.93
410.26	379.17
410.45	454.06
410.64	449.38
410.83	414.27
411.02	433.00
411.21	451.72
411.40	456.40
411.59	360.44
411.78	390.87
411.98	423.64
412.17	367.46
412.36	442.36
412.55	440.02
412.74	477.47
412.93	393.21
413.12	447.04
413.31	468.11
413.50	390.87
413.69	428.32
413.88	404.91
414.07	433.00
414.26	486.83
414.45	411.93
414.64	416.62
414.83	423.64
415.02	456.40
415.22	425.98
415.41	496.19
415.60	346.40
415.79	365.12
415.98	400.23
416.17	362.78
416.36	325.33
416.55	395.55
416.74	489.17
416.93	397.89
417.12	437.68
417.31	418.96
417.50	451.72
417.69	468.11
417.88	430.66
418.07	402.57
418.26	430.66
418.45	414.27
418.64	433.00
418.83	400.23
419.02	454.06
419.21	367.46
419.39	442.36
419.58	369.80
419.77	360.44
419.96	425.98
420.15	416.62
420.34	449.38
420.53	440.02
420.72	407.25
420.91	435.34
421.10	381.51
421.29	360.44
421.48	318.31
421.67	451.72
421.86	470.45
422.05	395.55
422.24	383.85
422.43	463.43
422.61	442.36
422.80	393.21
422.99	400.23
423.18	456.40
423.37	411.93
423.56	407.25
423.75	451.72
423.94	463.43
424.13	423.64
424.32	393.21
424.50	346.40
424.69	454.06
424.88	414.27
425.07	409.59
425.26	425.98
425.45	369.80
425.64	444.70
425.83	346.40
426.01	430.66
426.20	411.93
426.39	402.57
426.58	404.91
426.77	440.02
426.96	465.77
427.15	482.15
427.33	425.98
427.52	409.59
427.71	376.83
427.90	397.89
428.09	372.15
428.28	369.80
428.46	437.68
428.65	409.59
428.84	383.85
429.03	444.70
429.22	444.70
429.40	390.87
429.59	386.19
429.78	440.02
429.97	414.27
430.16	468.11
430.34	482.15
430.53	351.08
430.72	330.02
430.91	447.04
431.10	400.23
431.28	423.64
431.47	437.68
431.66	400.23
431.85	402.57
432.03	423.64
432.22	475.13
432.41	383.85
432.60	475.13
432.79	402.57
432.97	369.80
433.16	381.51
433.35	421.30
433.54	365.12
433.72	414.27
433.91	433.00
434.10	437.68
434.28	470.45
434.47	315.97
434.66	444.70
434.85	416.62
435.03	425.98
435.22	468.11
435.41	372.15
435.59	355.76
435.78	475.13
435.97	418.96
436.16	379.17
436.34	379.17
436.53	372.15
436.72	390.87
436.90	372.15
437.09	435.34
437.28	416.62
437.46	451.72
437.65	454.06
437.84	444.70
438.02	395.55
438.21	463.43
438.40	447.04
438.58	390.87
438.77	421.30
438.96	395.55
439.14	418.96
439.33	381.51
439.52	393.21
439.70	425.98
439.89	393.21
440.08	395.55
440.26	442.36
440.45	376.83
440.63	440.02
440.82	388.53
441.01	435.34
441.19	423.64
441.38	395.55
441.57	339.38
441.75	423.64
441.94	461.09
442.12	482.15
442.31	397.89
442.50	397.89
442.68	435.34
442.87	428.32
443.05	442.36
443.24	468.11
443.43	470.45
443.61	416.62
443.80	482.15
443.98	428.32
444.17	400.23
444.35	526.62
444.54	337.04
444.73	402.57
444.91	444.70
445.10	386.19
445.28	477.47
445.47	421.30
445.65	411.93
445.84	379.17
446.02	383.85
446.21	425.98
446.39	381.51
446.58	393.21
446.77	421.30
446.95	437.68
447.14	449.38
447.32	442.36
447.51	369.80
447.69	468.11
447.88	397.89
448.06	433.00
448.25	463.43
448.43	468.11
448.62	351.08
448.80	414.27
448.99	433.00
449.17	411.93
449.36	472.79
449.54	482.15
449.73	440.02
449.91	416.62
450.10	407.25
450.28	458.74
450.46	519.60
450.65	379.17
450.83	428.32
451.02	409.59
451.20	402.57
451.39	449.38
451.57	505.56
451.76	390.87
451.94	397.89
452.13	374.49
452.31	397.89
452.49	402.57
452.68	390.87
452.86	393.21
453.05	418.96
453.23	477.47
453.42	421.30
453.60	395.55
453.78	400.23
453.97	416.62
454.15	348.74
454.34	454.06
454.52	414.27
454.70	418.96
454.89	442.36
455.07	411.93
455.26	454.06
455.44	435.34
455.62	414.27
455.81	386.19
455.99	365.12
456.17	423.64
456.36	489.17
456.54	433.00
456.73	458.74
456.91	341.72
457.09	444.70
457.28	458.74
457.46	411.93
457.64	400.23
457.83	388.53
458.01	414.27
458.19	461.09
458.38	374.49
458.56	435.34
458.74	395.55
458.93	407.25
459.11	362.78
459.29	416.62
459.48	423.64
459.66	447.04
459.84	449.38
460.03	440.02
460.21	404.91
460.39	381.51
460.57	440.02
460.76	442.36
460.94	381.51
461.12	475.13
461.31	472.79
461.49	465.77
461.67	360.44
461.85	468.11
462.04	341.72
462.22	807.48
462.40	451.72
462.59	458.74
462.77	442.36
462.95	376.83
463.13	379.17
463.32	376.83
463.50	416.62
463.68	437.68
463.86	435.34
464.05	454.06
464.23	397.89
464.41	386.19
464.59	362.78
464.78	416.62
464.96	435.34
465.14	472.79
465.32	463.43
465.50	400.23
465.69	449.38
465.87	454.06
466.05	414.27
466.23	425.98
466.41	433.00
466.60	498.53
466.78	414.27
466.96	414.27
467.14	400.23
467.32	379.17
467.51	402.57
467.69	355.76
467.87	461.09
468.05	386.19
468.23	390.87
468.41	458.74
468.60	416.62
468.78	388.53
468.96	386.19
469.14	444.70
469.32	395.55
469.50	388.53
469.69	402.57
469.87	414.27
470.05	407.25
470.23	451.72
470.41	430.66
470.59	421.30
470.77	351.08
470.95	435.34
471.14	348.74
471.32	393.21
471.50	496.19
471.68	367.46
471.86	400.23
472.04	435.34
472.22	461.09
472.40	440.02
472.58	409.59
472.77	402.57
472.95	411.93
473.13	526.62
473.31	430.66
473.49	400.23
473.67	447.04
473.85	425.98
474.03	447.04
474.21	395.55
474.39	390.87
474.57	390.87
474.75	421.30
474.93	351.08
475.12	423.64
475.30	388.53
475.48	409.59
475.66	379.17
475.84	395.55
476.02	447.04
476.20	374.49
476.38	381.51
476.56	465.77
476.74	444.70
476.92	362.78
477.10	393.21
477.28	402.57
477.46	416.62
477.64	381.51
477.82	393.21
478.00	388.53
478.18	425.98
478.36	416.62
478.54	404.91
478.72	365.12
478.90	397.89
479.08	402.57
479.26	489.17
479.44	416.62
479.62	444.70
479.80	435.34
479.98	468.11
480.16	447.04
480.34	430.66
480.52	411.93
480.70	423.64
480.88	355.76
481.06	386.19
481.24	381.51
481.41	449.38
481.59	465.77
481.77	339.38
481.95	306.61
482.13	425.98
482.31	397.89
482.49	425.98
482.67	418.96
482.85	421.30
483.03	451.72
483.21	411.93
483.39	358.10
483.57	440.02
483.74	512.58
483.92	388.53
484.10	341.72
484.28	362.78
484.46	393.21
484.64	360.44
484.82	386.19
485.00	374.49
485.18	444.70
485.35	442.36
485.53	381.51
485.71	470.45
485.89	397.89
486.07	428.32
486.25	411.93
486.43	442.36
486.61	428.32
486.78	456.40
486.96	395.55
487.14	416.62
487.32	407.25
487.50	418.96
487.68	407.25
487.85	388.53
488.03	447.04
488.21	416.62
488.39	367.46
488.57	440.02
488.75	470.45
488.92	533.64
489.10	430.66
489.28	437.68
489.46	386.19
489.64	430.66
489.81	428.32
489.99	433.00
490.17	430.66
490.35	449.38
490.53	411.93
490.70	381.51
490.88	482.15
491.06	461.09
491.24	416.62
491.41	458.74
491.59	491.51
491.77	395.55
491.95	355.76
492.13	463.43
492.30	423.64
492.48	367.46
492.66	449.38
492.84	362.78
493.01	372.15
493.19	407.25
493.37	383.85
493.54	388.53
493.72	458.74
493.90	423.64
494.08	430.66
494.25	411.93
494.43	449.38
494.61	421.30
494.79	503.22
494.96	358.10
495.14	435.34
495.32	430.66
495.49	388.53
495.67	402.57
495.85	437.68
496.02	425.98
496.20	435.34
496.38	470.45
496.55	407.25
496.73	411.93
496.91	386.19
497.09	423.64
497.26	381.51
497.44	428.32
497.62	423.64
497.79	421.30
497.97	444.70
498.14	440.02
498.32	444.70
498.50	470.45
498.67	477.47
498.85	395.55
499.03	442.36
499.20	435.34
499.38	423.64
499.56	395.55
499.73	402.57
499.91	444.70
500.08	414.27
500.26	383.85
500.44	414.27
500.61	381.51
500.79	416.62
500.97	451.72
501.14	444.70
501.32	461.09
501.49	411.93
501.67	477.47
501.84	367.46
502.02	451.72
502.20	456.40
502.37	390.87
502.55	475.13
502.72	388.53
502.90	407.25
503.07	327.68
503.25	454.06
503.43	404.91
503.60	442.36
503.78	437.68
503.95	365.12
504.13	451.72
504.30	414.27
504.48	507.90
504.65	463.43
504.83	430.66
505.01	381.51
505.18	418.96
505.36	421.30
505.53	444.70
505.71	425.98
505.88	454.06
506.06	383.85
506.23	402.57
506.41	376.83
506.58	482.15
506.76	433.00
506.93	397.89
507.11	449.38
507.28	463.43
507.46	435.34
507.63	376.83
507.81	409.59
507.98	407.25
508.16	369.80
508.33	411.93
508.50	425.98
508.68	486.83
508.85	472.79
509.03	433.00
509.20	381.51
509.38	381.51
509.55	409.59
509.73	451.72
509.90	437.68
510.08	388.53
510.25	325.33
510.42	372.15
510.60	395.55
510.77	433.00
510.95	425.98
511.12	386.19
511.30	430.66
511.47	435.34
511.64	543.00
511.82	383.85
511.99	444.70
512.17	433.00
512.34	365.12
512.51	411.93
512.69	414.27
512.86	433.00
513.04	393.21
513.21	465.77
513.38	489.17
513.56	447.04
513.73	393.21
513.90	435.34
514.08	386.19
514.25	442.36
514.43	475.13
514.60	360.44
514.77	388.53
514.95	383.85
515.12	402.57
515.29	435.34
515.47	468.11
515.64	409.59
515.81	484.49
515.99	435.34
516.16	451.72
516.33	414.27
516.51	379.17
516.68	484.49
516.85	367.46
517.03	379.17
517.20	440.02
517.37	440.02
517.54	470.45
517.72	327.68
517.89	365.12
518.06	461.09
518.24	512.58
518.41	454.06
518.58	461.09
518.75	440.02
518.93	428.32
519.10	451.72
519.27	360.44
519.45	411.93
519.62	386.19
519.79	430.66
519.96	418.96
520.14	409.59
520.31	386.19
520.48	421.30
520.65	418.96
520.83	507.90
521.00	372.15
521.17	388.53
521.34	435.34
521.52	365.12
521.69	409.59
521.86	411.93
522.03	461.09
522.20	404.91
522.38	428.32
522.55	395.55
522.72	353.42
522.89	451.72
523.07	433.00
523.24	470.45
523.41	311.29
523.58	425.98
523.75	433.00
523.92	435.34
524.10	402.57
524.27	388.53
524.44	393.21
524.61	470.45
524.78	400.23
524.96	442.36
525.13	449.38
525.30	454.06
525.47	397.89
525.64	386.19
525.81	430.66
525.98	442.36
526.16	381.51
526.33	423.64
526.50	440.02
526.67	447.04
526.84	425.98
527.01	388.53
527.18	491.51
527.36	386.19
527.53	395.55
527.70	437.68
527.87	414.27
528.04	444.70
528.21	365.12
528.38	411.93
528.55	376.83
528.72	414.27
528.89	484.49
529.07	400.23
529.24	369.80
529.41	397.89
529.58	418.96
529.75	404.91
529.92	512.58
530.09	416.62
530.26	479.81
530.43	416.62
530.60	409.59
530.77	402.57
530.94	475.13
531.11	444.70
531.28	400.23
531.46	416.62
531.63	416.62
531.80	423.64
531.97	437.68
532.14	491.51
532.31	416.62
532.48	362.78
532.65	360.44
532.82	421.30
532.99	362.78
533.16	376.83
533.33	465.77
533.50	365.12
533.67	484.49
533.84	355.76
534.01	313.63
534.18	428.32
534.35	414.27
534.52	416.62
534.69	447.04
534.86	407.25
535.03	372.15
535.20	428.32
535.37	440.02
535.54	435.34
535.71	430.66
535.88	402.57
536.05	475.13
536.22	390.87
536.38	463.43
536.55	402.57
536.72	486.83
536.89	407.25
537.06	402.57
537.23	404.91
537.40	372.15
537.57	411.93
537.74	517.26
537.91	470.45
538.08	484.49
538.25	411.93
538.42	449.38
538.59	365.12
538.75	376.83
538.92	402.57
539.09	463.43
539.26	477.47
539.43	409.59
539.60	369.80
539.77	411.93
539.94	428.32
540.11	484.49
540.28	442.36
540.44	425.98
540.61	411.93
540.78	451.72
540.95	414.27
541.12	510.24
541.29	365.12
541.46	486.83
541.62	388.53
541.79	409.59
541.96	449.38
542.13	365.12
542.30	472.79
542.47	376.83
542.63	461.09
542.80	404.91
542.97	435.34
543.14	421.30
543.31	444.70
543.48	407.25
543.64	397.89
543.81	430.66
543.98	379.17
544.15	407.25
544.32	421.30
544.48	404.91
544.65	430.66
544.82	454.06
544.99	414.27
545.16	498.53
545.32	362.78
545.49	376.83
545.66	435.34
545.83	402.57
546.00	454.06
546.16	353.42
546.33	325.33
546.50	374.49
546.67	468.11
546.83	428.32
547.00	404.91
547.17	433.00
547.34	395.55
547.50	400.23
547.67	409.59
547.84	477.47
548.00	484.49
548.17	388.53
548.34	367.46
548.51	472.79
548.67	358.10
548.84	411.93
549.01	482.15
549.18	411.93
549.34	369.80
549.51	442.36
549.68	372.15
549.84	400.23
550.01	374.49
550.18	524.28
550.34	397.89
550.51	444.70
550.68	491.51
550.84	360.44
551.01	489.17
551.18	475.13
551.34	444.70
551.51	409.59
551.68	435.34
551.84	440.02
552.01	435.34
552.18	456.40
552.34	383.85
552.51	458.74
552.68	475.13
552.84	386.19
553.01	390.87
553.18	437.68
553.34	383.85
553.51	418.96
553.67	456.40
553.84	430.66
554.01	437.68
554.17	451.72
554.34	397.89
554.51	451.72
554.67	491.51
554.84	386.19
555.00	479.81
555.17	430.66
555.33	458.74
555.50	454.06
555.67	376.83
555.83	437.68
556.00	404.91
556.16	582.79
556.33	491.51
556.50	461.09
556.66	393.21
556.83	433.00
556.99	433.00
557.16	458.74
557.32	330.02
557.49	435.34
557.65	367.46
557.82	433.00
557.98	437.68
558.15	433.00
558.32	390.87
558.48	425.98
558.65	376.83
558.81	418.96
558.98	440.02
559.14	421.30
559.31	454.06
559.47	421.30
559.64	470.45
559.80	421.30
559.97	397.89
560.13	409.59
560.30	456.40
560.46	381.51
560.63	367.46
560.79	395.55
560.96	449.38
561.12	475.13
561.29	444.70
561.45	395.55
561.61	477.47
561.78	458.74
561.94	416.62
562.11	379.17
562.27	411.93
562.44	416.62
562.60	430.66
562.77	449.38
562.93	461.09
563.10	404.91
563.26	423.64
563.42	472.79
563.59	404.91
563.75	381.51
563.92	461.09
564.08	524.28
564.24	383.85
564.41	430.66
564.57	447.04
564.74	404.91
564.90	423.64
565.07	463.43
565.23	512.58
565.39	449.38
565.56	416.62
565.72	409.59
565.88	425.98
566.05	395.55
566.21	437.68
566.38	456.40
566.54	449.38
566.70	425.98
566.87	458.74
567.03	372.15
567.19	418.96
567.36	454.06
567.52	367.46
567.68	414.27
567.85	418.96
568.01	369.80
568.17	374.49
568.34	376.83
568.50	472.79
568.66	425.98
568.83	479.81
568.99	414.27
569.15	421.30
569.32	330.02
569.48	418.96
569.64	355.76
569.81	440.02
569.97	493.85
570.13	456.40
570.30	388.53
570.46	421.30
570.62	423.64
570.78	395.55
570.95	390.87
571.11	468.11
571.27	418.96
571.43	372.15
571.60	425.98
571.76	355.76
571.92	486.83
572.09	381.51
572.25	503.22
572.41	365.12
572.57	381.51
572.74	484.49
572.90	430.66
573.06	444.70
573.22	470.45
573.38	449.38
573.55	435.34
573.71	437.68
573.87	456.40
574.03	369.80
574.20	395.55
574.36	407.25
574.52	372.15
574.68	367.46
574.84	411.93
575.01	428.32
575.17	437.68
575.33	416.62
575.49	407.25
575.65	437.68
575.82	379.17
575.98	435.34
576.14	325.33
576.30	428.32
576.46	407.25
576.62	423.64
576.79	383.85
576.95	433.00
577.11	447.04
577.27	381.51
577.43	442.36
577.59	449.38
577.75	456.40
577.92	425.98
578.08	369.80
578.24	468.11
578.40	369.80
578.56	388.53
578.72	425.98
578.88	397.89
579.04	379.17
579.21	489.17
579.37	395.55
579.53	407.25
579.69	496.19
579.85	444.70
580.01	461.09
580.17	547.69
580.33	402.57
580.49	477.47
580.65	472.79
580.82	379.17
580.98	437.68
581.14	456.40
581.30	428.32
581.46	425.98
581.62	461.09
581.78	418.96
581.94	437.68
582.10	388.53
582.26	447.04
582.42	416.62
582.58	400.23
582.74	360.44
582.90	437.68
583.06	465.77
583.22	402.57
583.38	362.78
583.54	355.76
583.70	507.90
583.86	367.46
584.02	318.31
584.18	465.77
584.34	369.80
584.50	395.55
584.66	442.36
584.82	447.04
584.98	442.36
585.14	381.51
585.30	421.30
585.46	402.57
585.62	465.77
585.78	400.23
585.94	425.98
586.10	374.49
586.26	362.78
586.42	437.68
586.58	397.89
586.74	447.04
586.90	365.12
587.06	468.11
587.22	397.89
587.38	442.36
587.54	433.00
587.70	411.93
587.86	440.02
588.02	402.57
588.18	423.64
588.34	404.91
588.49	407.25
588.65	367.46
588.81	510.24
588.97	365.12
589.13	503.22
589.29	435.34
589.45	383.85
589.61	418.96
589.77	430.66
589.93	500.87
590.08	428.32
590.24	451.72
590.40	395.55
590.56	500.87
590.72	454.06
590.88	428.32
591.04	442.36
591.20	425.98
591.35	503.22
591.51	397.89
591.67	381.51
591.83	376.83
591.99	383.85
592.15	393.21
592.31	418.96
592.46	421.30
592.62	379.17
592.78	383.85
592.94	512.58
593.10	395.55
593.26	388.53
593.41	397.89
593.57	461.09
593.73	414.27
593.89	472.79
594.05	468.11
594.20	442.36
594.36	430.66
594.52	397.89
594.68	423.64
594.84	400.23
594.99	472.79
595.15	449.38
595.31	461.09
595.47	447.04
595.62	407.25
595.78	521.94
595.94	423.64
596.10	458.74
596.25	379.17
596.41	456.40
596.57	425.98
596.73	407.25
596.88	362.78
597.04	390.87
597.20	470.45
597.36	500.87
597.51	425.98
597.67	376.83
597.83	425.98
597.99	440.02
598.14	444.70
598.30	456.40
598.46	449.38
598.61	435.34
598.77	404.91
598.93	397.89
599.09	444.70
599.24	390.87
599.40	437.68
599.56	547.69
599.71	451.72
599.87	418.96
600.03	407.25
600.18	423.64
600.34	444.70
600.50	400.23
600.65	390.87
600.81	376.83
600.97	390.87
601.12	400.23
601.28	468.11
601.44	447.04
601.59	355.76
601.75	407.25
601.91	337.04
602.06	379.17
602.22	531.30
602.37	421.30
602.53	395.55
602.69	461.09
602.84	376.83
603.00	449.38
603.16	496.19
603.31	451.72
603.47	425.98
603.62	339.38
603.78	477.47
603.94	472.79
604.09	423.64
604.25	423.64
604.40	479.81
604.56	463.43
604.71	390.87
604.87	451.72
605.03	409.59
605.18	353.42
605.34	472.79
605.49	334.70
605.65	379.17
605.80	402.57
605.96	430.66
606.12	404.91
606.27	332.36
606.43	421.30
606.58	421.30
606.74	393.21
606.89	421.30
607.05	395.55
607.20	397.89
607.36	425.98
607.51	409.59
607.67	334.70
607.82	360.44
607.98	404.91
608.13	449.38
608.29	465.77
608.44	447.04
608.60	435.34
608.75	390.87
608.91	461.09
609.06	362.78
609.22	409.59
609.37	444.70
609.53	393.21
609.68	442.36
609.84	411.93
609.99	402.57
610.15	517.26
