SpectraSuite Data File
++++++++++++++++++++++++++++++++++++
Date: Fri Oct 25 12:11:10 EDT 2013
User: price-jones
Dark Spectrum Present: No
Reference Spectrum Present: No
Number of Sampled Component Spectra: 1
Spectrometers: USB2+H05261
Integration Time (usec): 100000 (USB2+H05261)
Spectra Averaged: 1 (USB2+H05261)
Boxcar Smoothing: 0 (USB2+H05261)
Correct for Electrical Dark: No (USB2+H05261)
Strobe/Lamp Enabled: No (USB2+H05261)
Correct for Detector Non-linearity: No (USB2+H05261)
Correct for Stray Light: No (USB2+H05261)
Number of Pixels in Processed Spectrum: 2048
>>>>>Begin Processed Spectral Data<<<<<
365.73	365.12
365.92	365.12
366.12	365.12
366.32	273.84
366.52	262.14
366.72	327.68
366.91	234.05
367.11	238.73
367.31	210.65
367.51	189.58
367.70	271.50
367.90	273.84
368.10	257.46
368.30	194.26
368.49	229.37
368.69	238.73
368.89	238.73
369.09	191.92
369.28	273.84
369.48	276.18
369.68	294.91
369.87	285.55
370.07	318.31
370.27	346.40
370.47	315.97
370.66	276.18
370.86	351.08
371.06	351.08
371.25	369.80
371.45	290.23
371.65	386.19
371.84	348.74
372.04	388.53
372.24	365.12
372.44	390.87
372.63	447.04
372.83	360.44
373.03	421.30
373.22	397.89
373.42	358.10
373.62	484.49
373.81	472.79
374.01	416.62
374.21	447.04
374.40	383.85
374.60	348.74
374.79	390.87
374.99	433.00
375.19	411.93
375.38	404.91
375.58	447.04
375.78	344.06
375.97	425.98
376.17	416.62
376.37	465.77
376.56	418.96
376.76	416.62
376.95	456.40
377.15	430.66
377.35	430.66
377.54	407.25
377.74	423.64
377.93	402.57
378.13	360.44
378.33	465.77
378.52	379.17
378.72	418.96
378.91	421.30
379.11	409.59
379.31	390.87
379.50	372.15
379.70	416.62
379.89	416.62
380.09	381.51
380.28	425.98
380.48	400.23
380.68	411.93
380.87	346.40
381.07	369.80
381.26	437.68
381.46	362.78
381.65	358.10
381.85	390.87
382.04	404.91
382.24	447.04
382.43	404.91
382.63	379.17
382.83	374.49
383.02	472.79
383.22	376.83
383.41	369.80
383.61	402.57
383.80	404.91
384.00	397.89
384.19	475.13
384.39	353.42
384.58	418.96
384.78	468.11
384.97	393.21
385.17	372.15
385.36	428.32
385.56	449.38
385.75	407.25
385.95	322.99
386.14	423.64
386.34	407.25
386.53	397.89
386.72	376.83
386.92	447.04
387.11	390.87
387.31	379.17
387.50	376.83
387.70	411.93
387.89	365.12
388.09	447.04
388.28	491.51
388.48	447.04
388.67	418.96
388.86	402.57
389.06	400.23
389.25	428.32
389.45	400.23
389.64	369.80
389.84	360.44
390.03	421.30
390.22	498.53
390.42	442.36
390.61	376.83
390.81	353.42
391.00	435.34
391.19	456.40
391.39	421.30
391.58	414.27
391.78	407.25
391.97	346.40
392.16	395.55
392.36	397.89
392.55	484.49
392.75	383.85
392.94	374.49
393.13	393.21
393.33	447.04
393.52	435.34
393.71	400.23
393.91	404.91
394.10	409.59
394.29	372.15
394.49	409.59
394.68	414.27
394.88	390.87
395.07	383.85
395.26	372.15
395.46	423.64
395.65	463.43
395.84	451.72
396.04	447.04
396.23	358.10
396.42	451.72
396.62	383.85
396.81	444.70
397.00	374.49
397.19	393.21
397.39	402.57
397.58	433.00
397.77	442.36
397.97	486.83
398.16	353.42
398.35	416.62
398.55	411.93
398.74	367.46
398.93	388.53
399.12	388.53
399.32	437.68
399.51	437.68
399.70	456.40
399.90	440.02
400.09	383.85
400.28	470.45
400.47	430.66
400.67	418.96
400.86	421.30
401.05	423.64
401.24	458.74
401.44	425.98
401.63	423.64
401.82	376.83
402.01	393.21
402.21	425.98
402.40	414.27
402.59	421.30
402.78	454.06
402.97	425.98
403.17	383.85
403.36	423.64
403.55	383.85
403.74	355.76
403.93	407.25
404.13	430.66
404.32	374.49
404.51	407.25
404.70	440.02
404.89	400.23
405.09	409.59
405.28	393.21
405.47	475.13
405.66	421.30
405.85	482.15
406.05	416.62
406.24	390.87
406.43	383.85
406.62	397.89
406.81	463.43
407.00	397.89
407.20	421.30
407.39	388.53
407.58	402.57
407.77	393.21
407.96	435.34
408.15	484.49
408.34	397.89
408.54	374.49
408.73	365.12
408.92	416.62
409.11	400.23
409.30	437.68
409.49	418.96
409.68	397.89
409.87	468.11
410.07	418.96
410.26	444.70
410.45	390.87
410.64	386.19
410.83	369.80
411.02	341.72
411.21	510.24
411.40	337.04
411.59	395.55
411.78	484.49
411.98	369.80
412.17	404.91
412.36	388.53
412.55	322.99
412.74	379.17
412.93	402.57
413.12	414.27
413.31	402.57
413.50	437.68
413.69	440.02
413.88	447.04
414.07	411.93
414.26	372.15
414.45	360.44
414.64	423.64
414.83	482.15
415.02	395.55
415.22	376.83
415.41	465.77
415.60	404.91
415.79	435.34
415.98	475.13
416.17	444.70
416.36	430.66
416.55	362.78
416.74	390.87
416.93	447.04
417.12	411.93
417.31	386.19
417.50	451.72
417.69	421.30
417.88	379.17
418.07	440.02
418.26	440.02
418.45	461.09
418.64	447.04
418.83	449.38
419.02	393.21
419.21	400.23
419.39	374.49
419.58	402.57
419.77	411.93
419.96	407.25
420.15	437.68
420.34	454.06
420.53	409.59
420.72	425.98
420.91	376.83
421.10	372.15
421.29	421.30
421.48	430.66
421.67	425.98
421.86	362.78
422.05	374.49
422.24	433.00
422.43	454.06
422.61	435.34
422.80	414.27
422.99	442.36
423.18	418.96
423.37	421.30
423.56	404.91
423.75	402.57
423.94	435.34
424.13	421.30
424.32	451.72
424.50	421.30
424.69	362.78
424.88	433.00
425.07	421.30
425.26	400.23
425.45	433.00
425.64	395.55
425.83	456.40
426.01	388.53
426.20	358.10
426.39	418.96
426.58	433.00
426.77	484.49
426.96	407.25
427.15	393.21
427.33	477.47
427.52	369.80
427.71	409.59
427.90	447.04
428.09	444.70
428.28	393.21
428.46	386.19
428.65	428.32
428.84	425.98
429.03	395.55
429.22	421.30
429.40	390.87
429.59	379.17
429.78	482.15
429.97	414.27
430.16	376.83
430.34	423.64
430.53	437.68
430.72	374.49
430.91	416.62
431.10	372.15
431.28	390.87
431.47	381.51
431.66	433.00
431.85	414.27
432.03	362.78
432.22	414.27
432.41	346.40
432.60	496.19
432.79	397.89
432.97	468.11
433.16	379.17
433.35	360.44
433.54	421.30
433.72	421.30
433.91	376.83
434.10	369.80
434.28	430.66
434.47	404.91
434.66	418.96
434.85	423.64
435.03	337.04
435.22	425.98
435.41	451.72
435.59	397.89
435.78	383.85
435.97	374.49
436.16	433.00
436.34	416.62
436.53	418.96
436.72	407.25
436.90	428.32
437.09	397.89
437.28	414.27
437.46	416.62
437.65	388.53
437.84	376.83
438.02	358.10
438.21	440.02
438.40	440.02
438.58	404.91
438.77	376.83
438.96	414.27
439.14	418.96
439.33	449.38
439.52	463.43
439.70	433.00
439.89	454.06
440.08	451.72
440.26	327.68
440.45	430.66
440.63	404.91
440.82	463.43
441.01	402.57
441.19	388.53
441.38	372.15
441.57	428.32
441.75	444.70
441.94	428.32
442.12	447.04
442.31	454.06
442.50	409.59
442.68	383.85
442.87	376.83
443.05	444.70
443.24	498.53
443.43	407.25
443.61	458.74
443.80	482.15
443.98	416.62
444.17	409.59
444.35	477.47
444.54	397.89
444.73	454.06
444.91	486.83
445.10	437.68
445.28	390.87
445.47	383.85
445.65	465.77
445.84	379.17
446.02	461.09
446.21	402.57
446.39	322.99
446.58	407.25
446.77	374.49
446.95	390.87
447.14	386.19
447.32	381.51
447.51	353.42
447.69	433.00
447.88	461.09
448.06	418.96
448.25	376.83
448.43	353.42
448.62	435.34
448.80	386.19
448.99	435.34
449.17	400.23
449.36	440.02
449.54	344.06
449.73	388.53
449.91	418.96
450.10	376.83
450.28	472.79
450.46	435.34
450.65	425.98
450.83	411.93
451.02	468.11
451.20	395.55
451.39	383.85
451.57	447.04
451.76	425.98
451.94	409.59
452.13	454.06
452.31	491.51
452.49	449.38
452.68	428.32
452.86	442.36
453.05	475.13
453.23	388.53
453.42	383.85
453.60	393.21
453.78	346.40
453.97	404.91
454.15	362.78
454.34	334.70
454.52	376.83
454.70	463.43
454.89	472.79
455.07	454.06
455.26	411.93
455.44	407.25
455.62	425.98
455.81	367.46
455.99	409.59
456.17	465.77
456.36	440.02
456.54	367.46
456.73	433.00
456.91	447.04
457.09	400.23
457.28	411.93
457.46	369.80
457.64	341.72
457.83	444.70
458.01	395.55
458.19	360.44
458.38	390.87
458.56	402.57
458.74	404.91
458.93	402.57
459.11	449.38
459.29	414.27
459.48	477.47
459.66	322.99
459.84	463.43
460.03	472.79
460.21	414.27
460.39	397.89
460.57	393.21
460.76	379.17
460.94	369.80
461.12	484.49
461.31	425.98
461.49	435.34
461.67	425.98
461.85	372.15
462.04	416.62
462.22	772.38
462.40	407.25
462.59	447.04
462.77	400.23
462.95	409.59
463.13	313.63
463.32	372.15
463.50	407.25
463.68	376.83
463.86	454.06
464.05	381.51
464.23	440.02
464.41	407.25
464.59	442.36
464.78	442.36
464.96	444.70
465.14	330.02
465.32	465.77
465.50	444.70
465.69	418.96
465.87	388.53
466.05	440.02
466.23	388.53
466.41	435.34
466.60	458.74
466.78	449.38
466.96	409.59
467.14	447.04
467.32	437.68
467.51	344.06
467.69	503.22
467.87	470.45
468.05	454.06
468.23	447.04
468.41	423.64
468.60	414.27
468.78	367.46
468.96	388.53
469.14	447.04
469.32	435.34
469.50	425.98
469.69	482.15
469.87	414.27
470.05	456.40
470.23	423.64
470.41	395.55
470.59	425.98
470.77	535.98
470.95	393.21
471.14	444.70
471.32	500.87
471.50	395.55
471.68	386.19
471.86	358.10
472.04	402.57
472.22	355.76
472.40	369.80
472.58	451.72
472.77	416.62
472.95	379.17
473.13	418.96
473.31	470.45
473.49	341.72
473.67	461.09
473.85	365.12
474.03	397.89
474.21	437.68
474.39	479.81
474.57	437.68
474.75	461.09
474.93	407.25
475.12	402.57
475.30	374.49
475.48	390.87
475.66	404.91
475.84	376.83
476.02	414.27
476.20	341.72
476.38	407.25
476.56	390.87
476.74	388.53
476.92	402.57
477.10	435.34
477.28	437.68
477.46	411.93
477.64	409.59
477.82	435.34
478.00	395.55
478.18	397.89
478.36	386.19
478.54	407.25
478.72	421.30
478.90	397.89
479.08	440.02
479.26	411.93
479.44	376.83
479.62	393.21
479.80	416.62
479.98	456.40
480.16	440.02
480.34	479.81
480.52	367.46
480.70	367.46
480.88	414.27
481.06	360.44
481.24	386.19
481.41	416.62
481.59	388.53
481.77	376.83
481.95	416.62
482.13	402.57
482.31	444.70
482.49	372.15
482.67	451.72
482.85	395.55
483.03	383.85
483.21	442.36
483.39	325.33
483.57	409.59
483.74	482.15
483.92	425.98
484.10	390.87
484.28	442.36
484.46	437.68
484.64	430.66
484.82	447.04
485.00	400.23
485.18	416.62
485.35	369.80
485.53	358.10
485.71	503.22
485.89	479.81
486.07	449.38
486.25	479.81
486.43	414.27
486.61	393.21
486.78	407.25
486.96	524.28
487.14	465.77
487.32	409.59
487.50	440.02
487.68	393.21
487.85	418.96
488.03	388.53
488.21	425.98
488.39	402.57
488.57	376.83
488.75	367.46
488.92	526.62
489.10	416.62
489.28	484.49
489.46	430.66
489.64	395.55
489.81	374.49
489.99	496.19
490.17	367.46
490.35	521.94
490.53	421.30
490.70	430.66
490.88	369.80
491.06	299.59
491.24	414.27
491.41	423.64
491.59	454.06
491.77	362.78
491.95	351.08
492.13	435.34
492.30	433.00
492.48	416.62
492.66	404.91
492.84	344.06
493.01	423.64
493.19	383.85
493.37	435.34
493.54	440.02
493.72	470.45
493.90	386.19
494.08	407.25
494.25	407.25
494.43	397.89
494.61	362.78
494.79	362.78
494.96	461.09
495.14	447.04
495.32	425.98
495.49	379.17
495.67	416.62
495.85	379.17
496.02	372.15
496.20	393.21
496.38	475.13
496.55	418.96
496.73	418.96
496.91	397.89
497.09	400.23
497.26	458.74
497.44	369.80
497.62	414.27
497.79	423.64
497.97	421.30
498.14	451.72
498.32	425.98
498.50	376.83
498.67	409.59
498.85	381.51
499.03	388.53
499.20	337.04
499.38	430.66
499.56	330.02
499.73	407.25
499.91	440.02
500.08	433.00
500.26	421.30
500.44	468.11
500.61	440.02
500.79	374.49
500.97	486.83
501.14	411.93
501.32	416.62
501.49	430.66
501.67	437.68
501.84	456.40
502.02	409.59
502.20	463.43
502.37	428.32
502.55	482.15
502.72	407.25
502.90	458.74
503.07	500.87
503.25	447.04
503.43	367.46
503.60	400.23
503.78	430.66
503.95	341.72
504.13	442.36
504.30	433.00
504.48	430.66
504.65	454.06
504.83	472.79
505.01	475.13
505.18	418.96
505.36	435.34
505.53	397.89
505.71	383.85
505.88	447.04
506.06	360.44
506.23	451.72
506.41	409.59
506.58	458.74
506.76	397.89
506.93	428.32
507.11	388.53
507.28	433.00
507.46	496.19
507.63	433.00
507.81	404.91
507.98	442.36
508.16	416.62
508.33	465.77
508.50	379.17
508.68	470.45
508.85	411.93
509.03	330.02
509.20	409.59
509.38	433.00
509.55	404.91
509.73	503.22
509.90	440.02
510.08	440.02
510.25	463.43
510.42	407.25
510.60	404.91
510.77	444.70
510.95	461.09
511.12	381.51
511.30	470.45
511.47	454.06
511.64	482.15
511.82	365.12
511.99	430.66
512.17	337.04
512.34	393.21
512.51	351.08
512.69	400.23
512.86	472.79
513.04	430.66
513.21	372.15
513.38	372.15
513.56	367.46
513.73	395.55
513.90	416.62
514.08	369.80
514.25	414.27
514.43	423.64
514.60	400.23
514.77	407.25
514.95	430.66
515.12	435.34
515.29	409.59
515.47	442.36
515.64	390.87
515.81	339.38
515.99	407.25
516.16	479.81
516.33	493.85
516.51	435.34
516.68	362.78
516.85	393.21
517.03	395.55
517.20	430.66
517.37	461.09
517.54	440.02
517.72	507.90
517.89	351.08
518.06	407.25
518.24	442.36
518.41	482.15
518.58	458.74
518.75	421.30
518.93	507.90
519.10	397.89
519.27	479.81
519.45	381.51
519.62	388.53
519.79	346.40
519.96	330.02
520.14	376.83
520.31	404.91
520.48	465.77
520.65	491.51
520.83	440.02
521.00	393.21
521.17	461.09
521.34	433.00
521.52	393.21
521.69	472.79
521.86	409.59
522.03	390.87
522.20	390.87
522.38	421.30
522.55	428.32
522.72	454.06
522.89	418.96
523.07	475.13
523.24	374.49
523.41	433.00
523.58	374.49
523.75	456.40
523.92	374.49
524.10	472.79
524.27	493.85
524.44	402.57
524.61	435.34
524.78	390.87
524.96	421.30
525.13	376.83
525.30	463.43
525.47	404.91
525.64	430.66
525.81	437.68
525.98	390.87
526.16	470.45
526.33	451.72
526.50	407.25
526.67	435.34
526.84	454.06
527.01	313.63
527.18	447.04
527.36	498.53
527.53	393.21
527.70	393.21
527.87	409.59
528.04	414.27
528.21	411.93
528.38	461.09
528.55	418.96
528.72	411.93
528.89	477.47
529.07	332.36
529.24	414.27
529.41	444.70
529.58	414.27
529.75	433.00
529.92	423.64
530.09	423.64
530.26	358.10
530.43	360.44
530.60	447.04
530.77	393.21
530.94	381.51
531.11	482.15
531.28	449.38
531.46	390.87
531.63	437.68
531.80	395.55
531.97	514.92
532.14	477.47
532.31	383.85
532.48	374.49
532.65	479.81
532.82	395.55
532.99	334.70
533.16	435.34
533.33	390.87
533.50	482.15
533.67	423.64
533.84	461.09
534.01	411.93
534.18	402.57
534.35	381.51
534.52	402.57
534.69	341.72
534.86	376.83
535.03	421.30
535.20	376.83
535.37	425.98
535.54	425.98
535.71	421.30
535.88	423.64
536.05	404.91
536.22	379.17
536.38	409.59
536.55	430.66
536.72	428.32
536.89	381.51
537.06	409.59
537.23	367.46
537.40	428.32
537.57	404.91
537.74	430.66
537.91	449.38
538.08	397.89
538.25	395.55
538.42	437.68
538.59	386.19
538.75	418.96
538.92	454.06
539.09	414.27
539.26	470.45
539.43	414.27
539.60	461.09
539.77	407.25
539.94	395.55
540.11	397.89
540.28	411.93
540.44	428.32
540.61	402.57
540.78	416.62
540.95	423.64
541.12	416.62
541.29	379.17
541.46	423.64
541.62	433.00
541.79	416.62
541.96	332.36
542.13	416.62
542.30	444.70
542.47	437.68
542.63	440.02
542.80	346.40
542.97	458.74
543.14	433.00
543.31	484.49
543.48	425.98
543.64	374.49
543.81	372.15
543.98	421.30
544.15	458.74
544.32	390.87
544.48	393.21
544.65	388.53
544.82	369.80
544.99	421.30
545.16	454.06
545.32	411.93
545.49	425.98
545.66	463.43
545.83	470.45
546.00	421.30
546.16	374.49
546.33	372.15
546.50	402.57
546.67	449.38
546.83	440.02
547.00	400.23
547.17	397.89
547.34	433.00
547.50	442.36
547.67	514.92
547.84	414.27
548.00	484.49
548.17	297.25
548.34	425.98
548.51	442.36
548.67	407.25
548.84	414.27
549.01	400.23
549.18	425.98
549.34	416.62
549.51	416.62
549.68	493.85
549.84	411.93
550.01	425.98
550.18	414.27
550.34	465.77
550.51	486.83
550.68	418.96
550.84	402.57
551.01	418.96
551.18	423.64
551.34	390.87
551.51	435.34
551.68	383.85
551.84	461.09
552.01	409.59
552.18	440.02
552.34	400.23
552.51	447.04
552.68	442.36
552.84	470.45
553.01	402.57
553.18	430.66
553.34	346.40
553.51	381.51
553.67	449.38
553.84	433.00
554.01	461.09
554.17	425.98
554.34	418.96
554.51	433.00
554.67	433.00
554.84	402.57
555.00	390.87
555.17	365.12
555.33	400.23
555.50	479.81
555.67	381.51
555.83	395.55
556.00	400.23
556.16	608.54
556.33	498.53
556.50	416.62
556.66	465.77
556.83	430.66
556.99	416.62
557.16	444.70
557.32	423.64
557.49	435.34
557.65	355.76
557.82	358.10
557.98	411.93
558.15	414.27
558.32	379.17
558.48	402.57
558.65	416.62
558.81	400.23
558.98	444.70
559.14	454.06
559.31	461.09
559.47	437.68
559.64	423.64
559.80	423.64
559.97	454.06
560.13	470.45
560.30	428.32
560.46	444.70
560.63	470.45
560.79	486.83
560.96	400.23
561.12	355.76
561.29	463.43
561.45	442.36
561.61	505.56
561.78	528.96
561.94	430.66
562.11	428.32
562.27	484.49
562.44	369.80
562.60	440.02
562.77	372.15
562.93	458.74
563.10	428.32
563.26	393.21
563.42	393.21
563.59	423.64
563.75	383.85
563.92	465.77
564.08	435.34
564.24	444.70
564.41	451.72
564.57	477.47
564.74	400.23
564.90	407.25
565.07	449.38
565.23	533.64
565.39	362.78
565.56	433.00
565.72	393.21
565.88	470.45
566.05	456.40
566.21	386.19
566.38	418.96
566.54	472.79
566.70	416.62
566.87	402.57
567.03	379.17
567.19	411.93
567.36	407.25
567.52	395.55
567.68	393.21
567.85	421.30
568.01	461.09
568.17	402.57
568.34	449.38
568.50	430.66
568.66	411.93
568.83	472.79
568.99	423.64
569.15	507.90
569.32	395.55
569.48	468.11
569.64	397.89
569.81	386.19
569.97	451.72
570.13	444.70
570.30	388.53
570.46	449.38
570.62	451.72
570.78	428.32
570.95	479.81
571.11	433.00
571.27	442.36
571.43	386.19
571.60	362.78
571.76	386.19
571.92	440.02
572.09	421.30
572.25	430.66
572.41	374.49
572.57	442.36
572.74	465.77
572.90	433.00
573.06	437.68
573.22	414.27
573.38	374.49
573.55	425.98
573.71	475.13
573.87	400.23
574.03	421.30
574.20	402.57
574.36	482.15
574.52	369.80
574.68	414.27
574.84	465.77
575.01	416.62
575.17	397.89
575.33	381.51
575.49	430.66
575.65	435.34
575.82	461.09
575.98	489.17
576.14	472.79
576.30	397.89
576.46	416.62
576.62	416.62
576.79	388.53
576.95	472.79
577.11	393.21
577.27	442.36
577.43	397.89
577.59	416.62
577.75	430.66
577.92	355.76
578.08	395.55
578.24	379.17
578.40	449.38
578.56	461.09
578.72	477.47
578.88	418.96
579.04	425.98
579.21	442.36
579.37	416.62
579.53	477.47
579.69	435.34
579.85	435.34
580.01	472.79
580.17	428.32
580.33	447.04
580.49	379.17
580.65	428.32
580.82	463.43
580.98	435.34
581.14	479.81
581.30	449.38
581.46	479.81
581.62	447.04
581.78	437.68
581.94	451.72
582.10	353.42
582.26	449.38
582.42	433.00
582.58	456.40
582.74	451.72
582.90	404.91
583.06	423.64
583.22	379.17
583.38	447.04
583.54	332.36
583.70	493.85
583.86	428.32
584.02	444.70
584.18	409.59
584.34	428.32
584.50	386.19
584.66	461.09
584.82	421.30
584.98	517.26
585.14	449.38
585.30	425.98
585.46	428.32
585.62	390.87
585.78	437.68
585.94	444.70
586.10	376.83
586.26	404.91
586.42	379.17
586.58	402.57
586.74	435.34
586.90	404.91
587.06	395.55
587.22	372.15
587.38	463.43
587.54	465.77
587.70	425.98
587.86	514.92
588.02	383.85
588.18	430.66
588.34	470.45
588.49	388.53
588.65	447.04
588.81	444.70
588.97	374.49
589.13	425.98
589.29	468.11
589.45	330.02
589.61	360.44
589.77	437.68
589.93	390.87
590.08	437.68
590.24	428.32
590.40	489.17
590.56	428.32
590.72	425.98
590.88	430.66
591.04	381.51
591.20	435.34
591.35	507.90
591.51	435.34
591.67	414.27
591.83	414.27
591.99	435.34
592.15	458.74
592.31	372.15
592.46	421.30
592.62	470.45
592.78	411.93
592.94	414.27
593.10	428.32
593.26	482.15
593.41	414.27
593.57	337.04
593.73	348.74
593.89	451.72
594.05	475.13
594.20	376.83
594.36	440.02
594.52	437.68
594.68	388.53
594.84	400.23
594.99	404.91
595.15	447.04
595.31	486.83
595.47	428.32
595.62	435.34
595.78	404.91
595.94	334.70
596.10	409.59
596.25	416.62
596.41	388.53
596.57	353.42
596.73	449.38
596.88	379.17
597.04	383.85
597.20	421.30
597.36	519.60
597.51	397.89
597.67	346.40
597.83	491.51
597.99	381.51
598.14	358.10
598.30	414.27
598.46	458.74
598.61	442.36
598.77	421.30
598.93	390.87
599.09	369.80
599.24	454.06
599.40	454.06
599.56	444.70
599.71	369.80
599.87	449.38
600.03	449.38
600.18	519.60
600.34	393.21
600.50	461.09
600.65	425.98
600.81	437.68
600.97	425.98
601.12	411.93
601.28	409.59
601.44	411.93
601.59	404.91
601.75	493.85
601.91	454.06
602.06	437.68
602.22	468.11
602.37	454.06
602.53	416.62
602.69	393.21
602.84	381.51
603.00	397.89
603.16	472.79
603.31	353.42
603.47	369.80
603.62	386.19
603.78	454.06
603.94	463.43
604.09	475.13
604.25	428.32
604.40	402.57
604.56	358.10
604.71	383.85
604.87	407.25
605.03	430.66
605.18	433.00
605.34	390.87
605.49	409.59
605.65	418.96
605.80	362.78
605.96	407.25
606.12	395.55
606.27	423.64
606.43	440.02
606.58	440.02
606.74	388.53
606.89	400.23
607.05	465.77
607.20	414.27
607.36	402.57
607.51	383.85
607.67	390.87
607.82	383.85
607.98	428.32
608.13	444.70
608.29	465.77
608.44	461.09
608.60	360.44
608.75	449.38
608.91	376.83
609.06	425.98
609.22	468.11
609.37	451.72
609.53	461.09
609.68	461.09
609.84	400.23
609.99	395.55
610.15	411.93
