SpectraSuite Data File
++++++++++++++++++++++++++++++++++++
Date: Fri Oct 25 12:11:30 EDT 2013
User: price-jones
Dark Spectrum Present: No
Reference Spectrum Present: No
Number of Sampled Component Spectra: 1
Spectrometers: USB2+H05261
Integration Time (usec): 100000 (USB2+H05261)
Spectra Averaged: 1 (USB2+H05261)
Boxcar Smoothing: 0 (USB2+H05261)
Correct for Electrical Dark: No (USB2+H05261)
Strobe/Lamp Enabled: No (USB2+H05261)
Correct for Detector Non-linearity: No (USB2+H05261)
Correct for Stray Light: No (USB2+H05261)
Number of Pixels in Processed Spectrum: 2048
>>>>>Begin Processed Spectral Data<<<<<
365.73	355.76
365.92	355.76
366.12	355.76
366.32	290.23
366.52	224.69
366.72	252.78
366.91	220.01
367.11	259.80
367.31	231.71
367.51	227.03
367.70	236.39
367.90	212.99
368.10	266.82
368.30	294.91
368.49	238.73
368.69	245.76
368.89	255.12
369.09	250.44
369.28	320.65
369.48	231.71
369.68	252.78
369.87	325.33
370.07	341.72
370.27	313.63
370.47	339.38
370.66	433.00
370.86	334.70
371.06	339.38
371.25	386.19
371.45	362.78
371.65	440.02
371.84	330.02
372.04	421.30
372.24	341.72
372.44	346.40
372.63	414.27
372.83	414.27
373.03	428.32
373.22	372.15
373.42	379.17
373.62	411.93
373.81	423.64
374.01	437.68
374.21	402.57
374.40	404.91
374.60	447.04
374.79	355.76
374.99	493.85
375.19	404.91
375.38	395.55
375.58	435.34
375.78	440.02
375.97	425.98
376.17	409.59
376.37	400.23
376.56	435.34
376.76	444.70
376.95	458.74
377.15	388.53
377.35	381.51
377.54	383.85
377.74	374.49
377.93	369.80
378.13	440.02
378.33	437.68
378.52	372.15
378.72	425.98
378.91	402.57
379.11	353.42
379.31	365.12
379.50	388.53
379.70	430.66
379.89	393.21
380.09	409.59
380.28	423.64
380.48	451.72
380.68	416.62
380.87	367.46
381.07	416.62
381.26	400.23
381.46	468.11
381.65	402.57
381.85	372.15
382.04	383.85
382.24	430.66
382.43	402.57
382.63	388.53
382.83	358.10
383.02	386.19
383.22	376.83
383.41	421.30
383.61	404.91
383.80	477.47
384.00	503.22
384.19	414.27
384.39	390.87
384.58	416.62
384.78	388.53
384.97	423.64
385.17	411.93
385.36	454.06
385.56	393.21
385.75	351.08
385.95	444.70
386.14	355.76
386.34	365.12
386.53	433.00
386.72	386.19
386.92	447.04
387.11	447.04
387.31	397.89
387.50	330.02
387.70	365.12
387.89	351.08
388.09	360.44
388.28	411.93
388.48	472.79
388.67	395.55
388.86	444.70
389.06	381.51
389.25	411.93
389.45	454.06
389.64	395.55
389.84	407.25
390.03	435.34
390.22	404.91
390.42	372.15
390.61	358.10
390.81	383.85
391.00	358.10
391.19	400.23
391.39	397.89
391.58	367.46
391.78	374.49
391.97	442.36
392.16	390.87
392.36	425.98
392.55	475.13
392.75	407.25
392.94	388.53
393.13	461.09
393.33	400.23
393.52	407.25
393.71	416.62
393.91	493.85
394.10	367.46
394.29	365.12
394.49	407.25
394.68	381.51
394.88	430.66
395.07	407.25
395.26	411.93
395.46	367.46
395.65	411.93
395.84	409.59
396.04	409.59
396.23	449.38
396.42	442.36
396.62	407.25
396.81	339.38
397.00	430.66
397.19	407.25
397.39	383.85
397.58	344.06
397.77	374.49
397.97	372.15
398.16	365.12
398.35	388.53
398.55	428.32
398.74	447.04
398.93	397.89
399.12	390.87
399.32	512.58
399.51	421.30
399.70	428.32
399.90	362.78
400.09	390.87
400.28	365.12
400.47	468.11
400.67	440.02
400.86	318.31
401.05	355.76
401.24	400.23
401.44	411.93
401.63	437.68
401.82	379.17
402.01	383.85
402.21	334.70
402.40	400.23
402.59	369.80
402.78	365.12
402.97	395.55
403.17	367.46
403.36	379.17
403.55	393.21
403.74	416.62
403.93	458.74
404.13	360.44
404.32	341.72
404.51	365.12
404.70	500.87
404.89	400.23
405.09	496.19
405.28	461.09
405.47	369.80
405.66	440.02
405.85	407.25
406.05	421.30
406.24	475.13
406.43	395.55
406.62	379.17
406.81	472.79
407.00	458.74
407.20	397.89
407.39	411.93
407.58	433.00
407.77	433.00
407.96	465.77
408.15	353.42
408.34	395.55
408.54	411.93
408.73	400.23
408.92	411.93
409.11	440.02
409.30	395.55
409.49	355.76
409.68	379.17
409.87	358.10
410.07	475.13
410.26	400.23
410.45	409.59
410.64	407.25
410.83	428.32
411.02	414.27
411.21	374.49
411.40	470.45
411.59	411.93
411.78	449.38
411.98	433.00
412.17	421.30
412.36	402.57
412.55	351.08
412.74	418.96
412.93	496.19
413.12	440.02
413.31	386.19
413.50	409.59
413.69	407.25
413.88	315.97
414.07	423.64
414.26	383.85
414.45	351.08
414.64	456.40
414.83	369.80
415.02	411.93
415.22	341.72
415.41	425.98
415.60	437.68
415.79	402.57
415.98	397.89
416.17	376.83
416.36	395.55
416.55	411.93
416.74	489.17
416.93	402.57
417.12	421.30
417.31	355.76
417.50	351.08
417.69	404.91
417.88	479.81
418.07	330.02
418.26	449.38
418.45	416.62
418.64	465.77
418.83	388.53
419.02	381.51
419.21	362.78
419.39	423.64
419.58	425.98
419.77	344.06
419.96	472.79
420.15	402.57
420.34	402.57
420.53	489.17
420.72	470.45
420.91	388.53
421.10	402.57
421.29	397.89
421.48	451.72
421.67	418.96
421.86	346.40
422.05	379.17
422.24	423.64
422.43	423.64
422.61	400.23
422.80	428.32
422.99	315.97
423.18	444.70
423.37	458.74
423.56	463.43
423.75	470.45
423.94	440.02
424.13	402.57
424.32	400.23
424.50	346.40
424.69	358.10
424.88	355.76
425.07	468.11
425.26	407.25
425.45	421.30
425.64	411.93
425.83	372.15
426.01	407.25
426.20	397.89
426.39	383.85
426.58	456.40
426.77	418.96
426.96	437.68
427.15	381.51
427.33	397.89
427.52	451.72
427.71	411.93
427.90	411.93
428.09	374.49
428.28	456.40
428.46	449.38
428.65	486.83
428.84	358.10
429.03	418.96
429.22	348.74
429.40	369.80
429.59	397.89
429.78	416.62
429.97	381.51
430.16	421.30
430.34	397.89
430.53	430.66
430.72	374.49
430.91	440.02
431.10	372.15
431.28	374.49
431.47	489.17
431.66	461.09
431.85	442.36
432.03	397.89
432.22	414.27
432.41	402.57
432.60	440.02
432.79	365.12
432.97	440.02
433.16	416.62
433.35	449.38
433.54	451.72
433.72	435.34
433.91	376.83
434.10	440.02
434.28	393.21
434.47	383.85
434.66	407.25
434.85	421.30
435.03	489.17
435.22	458.74
435.41	430.66
435.59	397.89
435.78	456.40
435.97	393.21
436.16	440.02
436.34	397.89
436.53	397.89
436.72	381.51
436.90	486.83
437.09	388.53
437.28	414.27
437.46	423.64
437.65	381.51
437.84	362.78
438.02	334.70
438.21	437.68
438.40	365.12
438.58	423.64
438.77	400.23
438.96	479.81
439.14	339.38
439.33	362.78
439.52	404.91
439.70	386.19
439.89	461.09
440.08	437.68
440.26	397.89
440.45	397.89
440.63	468.11
440.82	482.15
441.01	402.57
441.19	402.57
441.38	395.55
441.57	491.51
441.75	395.55
441.94	470.45
442.12	355.76
442.31	407.25
442.50	355.76
442.68	449.38
442.87	425.98
443.05	407.25
443.24	386.19
443.43	461.09
443.61	397.89
443.80	437.68
443.98	421.30
444.17	383.85
444.35	435.34
444.54	449.38
444.73	395.55
444.91	437.68
445.10	358.10
445.28	397.89
445.47	341.72
445.65	442.36
445.84	390.87
446.02	381.51
446.21	400.23
446.39	435.34
446.58	351.08
446.77	409.59
446.95	423.64
447.14	383.85
447.32	451.72
447.51	414.27
447.69	393.21
447.88	386.19
448.06	383.85
448.25	489.17
448.43	442.36
448.62	425.98
448.80	456.40
448.99	407.25
449.17	383.85
449.36	451.72
449.54	423.64
449.73	425.98
449.91	330.02
450.10	430.66
450.28	414.27
450.46	416.62
450.65	416.62
450.83	404.91
451.02	411.93
451.20	397.89
451.39	442.36
451.57	397.89
451.76	470.45
451.94	472.79
452.13	428.32
452.31	381.51
452.49	411.93
452.68	449.38
452.86	484.49
453.05	421.30
453.23	414.27
453.42	421.30
453.60	404.91
453.78	442.36
453.97	482.15
454.15	463.43
454.34	458.74
454.52	397.89
454.70	477.47
454.89	496.19
455.07	367.46
455.26	390.87
455.44	444.70
455.62	327.68
455.81	313.63
455.99	433.00
456.17	442.36
456.36	430.66
456.54	425.98
456.73	388.53
456.91	456.40
457.09	358.10
457.28	376.83
457.46	379.17
457.64	421.30
457.83	407.25
458.01	386.19
458.19	358.10
458.38	428.32
458.56	409.59
458.74	341.72
458.93	355.76
459.11	393.21
459.29	416.62
459.48	447.04
459.66	484.49
459.84	479.81
460.03	512.58
460.21	409.59
460.39	367.46
460.57	409.59
460.76	404.91
460.94	372.15
461.12	411.93
461.31	454.06
461.49	397.89
461.67	505.56
461.85	428.32
462.04	390.87
462.22	802.80
462.40	461.09
462.59	442.36
462.77	395.55
462.95	414.27
463.13	411.93
463.32	355.76
463.50	465.77
463.68	442.36
463.86	367.46
464.05	374.49
464.23	414.27
464.41	442.36
464.59	381.51
464.78	449.38
464.96	383.85
465.14	393.21
465.32	395.55
465.50	442.36
465.69	411.93
465.87	402.57
466.05	372.15
466.23	409.59
466.41	402.57
466.60	376.83
466.78	423.64
466.96	442.36
467.14	404.91
467.32	423.64
467.51	397.89
467.69	376.83
467.87	449.38
468.05	416.62
468.23	386.19
468.41	458.74
468.60	353.42
468.78	472.79
468.96	493.85
469.14	400.23
469.32	369.80
469.50	404.91
469.69	407.25
469.87	489.17
470.05	360.44
470.23	454.06
470.41	374.49
470.59	379.17
470.77	409.59
470.95	407.25
471.14	383.85
471.32	358.10
471.50	447.04
471.68	418.96
471.86	395.55
472.04	404.91
472.22	463.43
472.40	421.30
472.58	320.65
472.77	425.98
472.95	362.78
473.13	486.83
473.31	440.02
473.49	386.19
473.67	479.81
473.85	397.89
474.03	339.38
474.21	449.38
474.39	381.51
474.57	411.93
474.75	461.09
474.93	449.38
475.12	440.02
475.30	381.51
475.48	374.49
475.66	430.66
475.84	423.64
476.02	360.44
476.20	456.40
476.38	463.43
476.56	540.66
476.74	402.57
476.92	348.74
477.10	430.66
477.28	479.81
477.46	435.34
477.64	407.25
477.82	369.80
478.00	440.02
478.18	360.44
478.36	433.00
478.54	358.10
478.72	416.62
478.90	449.38
479.08	397.89
479.26	486.83
479.44	449.38
479.62	442.36
479.80	327.68
479.98	411.93
480.16	435.34
480.34	500.87
480.52	425.98
480.70	374.49
480.88	414.27
481.06	451.72
481.24	395.55
481.41	458.74
481.59	407.25
481.77	367.46
481.95	440.02
482.13	433.00
482.31	388.53
482.49	444.70
482.67	444.70
482.85	383.85
483.03	346.40
483.21	411.93
483.39	411.93
483.57	414.27
483.74	437.68
483.92	425.98
484.10	397.89
484.28	449.38
484.46	482.15
484.64	365.12
484.82	425.98
485.00	437.68
485.18	397.89
485.35	444.70
485.53	409.59
485.71	386.19
485.89	442.36
486.07	351.08
486.25	411.93
486.43	440.02
486.61	381.51
486.78	393.21
486.96	402.57
487.14	416.62
487.32	379.17
487.50	393.21
487.68	402.57
487.85	447.04
488.03	386.19
488.21	430.66
488.39	423.64
488.57	341.72
488.75	390.87
488.92	465.77
489.10	383.85
489.28	425.98
489.46	390.87
489.64	386.19
489.81	449.38
489.99	437.68
490.17	379.17
490.35	465.77
490.53	414.27
490.70	379.17
490.88	451.72
491.06	395.55
491.24	433.00
491.41	395.55
491.59	493.85
491.77	365.12
491.95	390.87
492.13	423.64
492.30	404.91
492.48	411.93
492.66	425.98
492.84	418.96
493.01	454.06
493.19	390.87
493.37	444.70
493.54	390.87
493.72	428.32
493.90	388.53
494.08	369.80
494.25	355.76
494.43	484.49
494.61	416.62
494.79	449.38
494.96	367.46
495.14	411.93
495.32	397.89
495.49	468.11
495.67	388.53
495.85	416.62
496.02	428.32
496.20	486.83
496.38	423.64
496.55	414.27
496.73	372.15
496.91	423.64
497.09	397.89
497.26	374.49
497.44	397.89
497.62	470.45
497.79	454.06
497.97	454.06
498.14	496.19
498.32	456.40
498.50	433.00
498.67	407.25
498.85	390.87
499.03	367.46
499.20	442.36
499.38	393.21
499.56	479.81
499.73	442.36
499.91	449.38
500.08	440.02
500.26	428.32
500.44	449.38
500.61	463.43
500.79	411.93
500.97	425.98
501.14	430.66
501.32	425.98
501.49	397.89
501.67	404.91
501.84	482.15
502.02	430.66
502.20	477.47
502.37	407.25
502.55	430.66
502.72	376.83
502.90	510.24
503.07	411.93
503.25	423.64
503.43	374.49
503.60	379.17
503.78	395.55
503.95	447.04
504.13	440.02
504.30	447.04
504.48	433.00
504.65	435.34
504.83	458.74
505.01	479.81
505.18	479.81
505.36	418.96
505.53	358.10
505.71	379.17
505.88	423.64
506.06	348.74
506.23	454.06
506.41	397.89
506.58	411.93
506.76	355.76
506.93	425.98
507.11	505.56
507.28	397.89
507.46	402.57
507.63	383.85
507.81	330.02
507.98	404.91
508.16	430.66
508.33	404.91
508.50	369.80
508.68	404.91
508.85	425.98
509.03	339.38
509.20	379.17
509.38	390.87
509.55	454.06
509.73	444.70
509.90	395.55
510.08	454.06
510.25	458.74
510.42	421.30
510.60	400.23
510.77	369.80
510.95	411.93
511.12	397.89
511.30	435.34
511.47	524.28
511.64	498.53
511.82	442.36
511.99	402.57
512.17	425.98
512.34	447.04
512.51	400.23
512.69	348.74
512.86	475.13
513.04	414.27
513.21	416.62
513.38	482.15
513.56	381.51
513.73	348.74
513.90	365.12
514.08	402.57
514.25	444.70
514.43	381.51
514.60	472.79
514.77	409.59
514.95	411.93
515.12	365.12
515.29	411.93
515.47	376.83
515.64	414.27
515.81	437.68
515.99	395.55
516.16	390.87
516.33	409.59
516.51	402.57
516.68	468.11
516.85	465.77
517.03	341.72
517.20	435.34
517.37	435.34
517.54	376.83
517.72	423.64
517.89	348.74
518.06	341.72
518.24	475.13
518.41	440.02
518.58	449.38
518.75	472.79
518.93	367.46
519.10	383.85
519.27	379.17
519.45	362.78
519.62	444.70
519.79	458.74
519.96	423.64
520.14	496.19
520.31	433.00
520.48	425.98
520.65	468.11
520.83	425.98
521.00	400.23
521.17	381.51
521.34	435.34
521.52	444.70
521.69	411.93
521.86	404.91
522.03	409.59
522.20	414.27
522.38	383.85
522.55	449.38
522.72	425.98
522.89	451.72
523.07	395.55
523.24	442.36
523.41	409.59
523.58	421.30
523.75	381.51
523.92	379.17
524.10	418.96
524.27	435.34
524.44	421.30
524.61	442.36
524.78	425.98
524.96	444.70
525.13	411.93
525.30	475.13
525.47	454.06
525.64	376.83
525.81	486.83
525.98	435.34
526.16	465.77
526.33	337.04
526.50	442.36
526.67	416.62
526.84	348.74
527.01	388.53
527.18	400.23
527.36	472.79
527.53	458.74
527.70	491.51
527.87	400.23
528.04	447.04
528.21	386.19
528.38	470.45
528.55	472.79
528.72	479.81
528.89	369.80
529.07	409.59
529.24	381.51
529.41	425.98
529.58	341.72
529.75	444.70
529.92	465.77
530.09	484.49
530.26	425.98
530.43	437.68
530.60	383.85
530.77	411.93
530.94	423.64
531.11	416.62
531.28	451.72
531.46	388.53
531.63	461.09
531.80	409.59
531.97	388.53
532.14	433.00
532.31	428.32
532.48	418.96
532.65	372.15
532.82	404.91
532.99	381.51
533.16	339.38
533.33	381.51
533.50	447.04
533.67	386.19
533.84	353.42
534.01	393.21
534.18	353.42
534.35	447.04
534.52	404.91
534.69	442.36
534.86	390.87
535.03	388.53
535.20	402.57
535.37	404.91
535.54	379.17
535.71	425.98
535.88	404.91
536.05	447.04
536.22	461.09
536.38	388.53
536.55	465.77
536.72	433.00
536.89	430.66
537.06	390.87
537.23	386.19
537.40	332.36
537.57	400.23
537.74	477.47
537.91	519.60
538.08	379.17
538.25	402.57
538.42	411.93
538.59	374.49
538.75	409.59
538.92	416.62
539.09	449.38
539.26	365.12
539.43	463.43
539.60	425.98
539.77	505.56
539.94	435.34
540.11	454.06
540.28	411.93
540.44	416.62
540.61	461.09
540.78	400.23
540.95	383.85
541.12	493.85
541.29	383.85
541.46	430.66
541.62	400.23
541.79	372.15
541.96	423.64
542.13	414.27
542.30	470.45
542.47	475.13
542.63	447.04
542.80	386.19
542.97	411.93
543.14	437.68
543.31	458.74
543.48	407.25
543.64	514.92
543.81	393.21
543.98	393.21
544.15	442.36
544.32	418.96
544.48	411.93
544.65	369.80
544.82	362.78
544.99	524.28
545.16	456.40
545.32	435.34
545.49	397.89
545.66	451.72
545.83	435.34
546.00	407.25
546.16	386.19
546.33	362.78
546.50	409.59
546.67	433.00
546.83	414.27
547.00	383.85
547.17	367.46
547.34	423.64
547.50	477.47
547.67	433.00
547.84	421.30
548.00	395.55
548.17	372.15
548.34	440.02
548.51	461.09
548.67	404.91
548.84	395.55
549.01	411.93
549.18	451.72
549.34	444.70
549.51	341.72
549.68	367.46
549.84	414.27
550.01	409.59
550.18	540.66
550.34	468.11
550.51	409.59
550.68	404.91
550.84	395.55
551.01	503.22
551.18	407.25
551.34	411.93
551.51	407.25
551.68	409.59
551.84	386.19
552.01	423.64
552.18	358.10
552.34	393.21
552.51	404.91
552.68	416.62
552.84	395.55
553.01	503.22
553.18	496.19
553.34	458.74
553.51	418.96
553.67	482.15
553.84	479.81
554.01	435.34
554.17	430.66
554.34	402.57
554.51	411.93
554.67	463.43
554.84	451.72
555.00	451.72
555.17	456.40
555.33	454.06
555.50	465.77
555.67	433.00
555.83	463.43
556.00	444.70
556.16	592.16
556.33	475.13
556.50	367.46
556.66	397.89
556.83	433.00
556.99	402.57
557.16	428.32
557.32	318.31
557.49	339.38
557.65	433.00
557.82	393.21
557.98	395.55
558.15	449.38
558.32	351.08
558.48	463.43
558.65	496.19
558.81	484.49
558.98	421.30
559.14	491.51
559.31	442.36
559.47	418.96
559.64	435.34
559.80	428.32
559.97	465.77
560.13	425.98
560.30	367.46
560.46	428.32
560.63	393.21
560.79	421.30
560.96	372.15
561.12	360.44
561.29	442.36
561.45	442.36
561.61	362.78
561.78	489.17
561.94	451.72
562.11	372.15
562.27	442.36
562.44	388.53
562.60	411.93
562.77	475.13
562.93	475.13
563.10	477.47
563.26	430.66
563.42	465.77
563.59	414.27
563.75	393.21
563.92	358.10
564.08	421.30
564.24	463.43
564.41	449.38
564.57	430.66
564.74	414.27
564.90	383.85
565.07	442.36
565.23	395.55
565.39	433.00
565.56	425.98
565.72	503.22
565.88	346.40
566.05	440.02
566.21	458.74
566.38	472.79
566.54	351.08
566.70	376.83
566.87	397.89
567.03	425.98
567.19	482.15
567.36	503.22
567.52	414.27
567.68	423.64
567.85	414.27
568.01	341.72
568.17	390.87
568.34	423.64
568.50	435.34
568.66	442.36
568.83	472.79
568.99	433.00
569.15	437.68
569.32	425.98
569.48	444.70
569.64	404.91
569.81	416.62
569.97	355.76
570.13	449.38
570.30	411.93
570.46	416.62
570.62	456.40
570.78	463.43
570.95	341.72
571.11	465.77
571.27	430.66
571.43	442.36
571.60	454.06
571.76	379.17
571.92	337.04
572.09	442.36
572.25	428.32
572.41	489.17
572.57	435.34
572.74	447.04
572.90	468.11
573.06	430.66
573.22	498.53
573.38	409.59
573.55	374.49
573.71	421.30
573.87	463.43
574.03	414.27
574.20	383.85
574.36	402.57
574.52	433.00
574.68	411.93
574.84	388.53
575.01	372.15
575.17	358.10
575.33	521.94
575.49	437.68
575.65	435.34
575.82	404.91
575.98	454.06
576.14	395.55
576.30	395.55
576.46	407.25
576.62	409.59
576.79	397.89
576.95	444.70
577.11	454.06
577.27	442.36
577.43	402.57
577.59	470.45
577.75	433.00
577.92	407.25
578.08	379.17
578.24	400.23
578.40	470.45
578.56	463.43
578.72	386.19
578.88	388.53
579.04	367.46
579.21	325.33
579.37	397.89
579.53	489.17
579.69	423.64
579.85	411.93
580.01	423.64
580.17	456.40
580.33	341.72
580.49	463.43
580.65	393.21
580.82	423.64
580.98	404.91
581.14	421.30
581.30	468.11
581.46	379.17
581.62	456.40
581.78	393.21
581.94	447.04
582.10	372.15
582.26	428.32
582.42	414.27
582.58	465.77
582.74	430.66
582.90	440.02
583.06	517.26
583.22	360.44
583.38	393.21
583.54	386.19
583.70	409.59
583.86	442.36
584.02	390.87
584.18	442.36
584.34	444.70
584.50	458.74
584.66	442.36
584.82	383.85
584.98	433.00
585.14	430.66
585.30	454.06
585.46	348.74
585.62	355.76
585.78	400.23
585.94	437.68
586.10	456.40
586.26	332.36
586.42	386.19
586.58	416.62
586.74	423.64
586.90	421.30
587.06	447.04
587.22	388.53
587.38	442.36
587.54	376.83
587.70	496.19
587.86	496.19
588.02	367.46
588.18	470.45
588.34	447.04
588.49	463.43
588.65	449.38
588.81	456.40
588.97	416.62
589.13	409.59
589.29	461.09
589.45	472.79
589.61	444.70
589.77	404.91
589.93	337.04
590.08	428.32
590.24	409.59
590.40	458.74
590.56	339.38
590.72	404.91
590.88	369.80
591.04	414.27
591.20	407.25
591.35	447.04
591.51	416.62
591.67	425.98
591.83	463.43
591.99	397.89
592.15	414.27
592.31	444.70
592.46	428.32
592.62	433.00
592.78	386.19
592.94	433.00
593.10	433.00
593.26	381.51
593.41	421.30
593.57	496.19
593.73	341.72
593.89	463.43
594.05	411.93
594.20	400.23
594.36	533.64
594.52	442.36
594.68	362.78
594.84	528.96
594.99	477.47
595.15	430.66
595.31	409.59
595.47	463.43
595.62	381.51
595.78	379.17
595.94	437.68
596.10	425.98
596.25	425.98
596.41	468.11
596.57	411.93
596.73	348.74
596.88	388.53
597.04	369.80
597.20	397.89
597.36	383.85
597.51	397.89
597.67	447.04
597.83	404.91
597.99	479.81
598.14	372.15
598.30	479.81
598.46	379.17
598.61	465.77
598.77	388.53
598.93	416.62
599.09	456.40
599.24	383.85
599.40	407.25
599.56	456.40
599.71	433.00
599.87	397.89
600.03	428.32
600.18	393.21
600.34	465.77
600.50	407.25
600.65	433.00
600.81	454.06
600.97	409.59
601.12	395.55
601.28	372.15
601.44	414.27
601.59	388.53
601.75	489.17
601.91	421.30
602.06	404.91
602.22	500.87
602.37	416.62
602.53	416.62
602.69	407.25
602.84	435.34
603.00	397.89
603.16	517.26
603.31	496.19
603.47	425.98
603.62	393.21
603.78	444.70
603.94	458.74
604.09	393.21
604.25	388.53
604.40	425.98
604.56	428.32
604.71	411.93
604.87	421.30
605.03	425.98
605.18	458.74
605.34	411.93
605.49	355.76
605.65	421.30
605.80	402.57
605.96	461.09
606.12	458.74
606.27	447.04
606.43	421.30
606.58	367.46
606.74	454.06
606.89	423.64
607.05	430.66
607.20	411.93
607.36	400.23
607.51	393.21
607.67	433.00
607.82	456.40
607.98	435.34
608.13	395.55
608.29	355.76
608.44	381.51
608.60	376.83
608.75	470.45
608.91	411.93
609.06	458.74
609.22	458.74
609.37	367.46
609.53	365.12
609.68	379.17
609.84	456.40
609.99	489.17
610.15	383.85
