SpectraSuite Data File
++++++++++++++++++++++++++++++++++++
Date: Fri Oct 25 12:10:49 EDT 2013
User: price-jones
Dark Spectrum Present: No
Reference Spectrum Present: No
Number of Sampled Component Spectra: 1
Spectrometers: USB2+H05261
Integration Time (usec): 100000 (USB2+H05261)
Spectra Averaged: 1 (USB2+H05261)
Boxcar Smoothing: 0 (USB2+H05261)
Correct for Electrical Dark: No (USB2+H05261)
Strobe/Lamp Enabled: No (USB2+H05261)
Correct for Detector Non-linearity: No (USB2+H05261)
Correct for Stray Light: No (USB2+H05261)
Number of Pixels in Processed Spectrum: 2048
>>>>>Begin Processed Spectral Data<<<<<
365.73	320.65
365.92	320.65
366.12	320.65
366.32	227.03
366.52	287.89
366.72	229.37
366.91	187.24
367.11	234.05
367.31	243.42
367.51	306.61
367.70	271.50
367.90	311.29
368.10	227.03
368.30	236.39
368.49	205.97
368.69	238.73
368.89	222.35
369.09	259.80
369.28	294.91
369.48	217.67
369.68	290.23
369.87	351.08
370.07	217.67
370.27	332.36
370.47	322.99
370.66	360.44
370.86	351.08
371.06	461.09
371.25	447.04
371.45	353.42
371.65	437.68
371.84	388.53
372.04	386.19
372.24	421.30
372.44	428.32
372.63	451.72
372.83	454.06
373.03	440.02
373.22	402.57
373.42	421.30
373.62	362.78
373.81	437.68
374.01	418.96
374.21	449.38
374.40	435.34
374.60	409.59
374.79	409.59
374.99	416.62
375.19	425.98
375.38	418.96
375.58	477.47
375.78	379.17
375.97	498.53
376.17	428.32
376.37	456.40
376.56	390.87
376.76	388.53
376.95	388.53
377.15	383.85
377.35	421.30
377.54	425.98
377.74	421.30
377.93	393.21
378.13	372.15
378.33	430.66
378.52	421.30
378.72	400.23
378.91	454.06
379.11	397.89
379.31	486.83
379.50	400.23
379.70	390.87
379.89	430.66
380.09	404.91
380.28	393.21
380.48	404.91
380.68	437.68
380.87	383.85
381.07	393.21
381.26	409.59
381.46	386.19
381.65	339.38
381.85	416.62
382.04	449.38
382.24	381.51
382.43	409.59
382.63	327.68
382.83	437.68
383.02	400.23
383.22	475.13
383.41	379.17
383.61	461.09
383.80	428.32
384.00	400.23
384.19	428.32
384.39	358.10
384.58	435.34
384.78	355.76
384.97	444.70
385.17	425.98
385.36	411.93
385.56	318.31
385.75	400.23
385.95	369.80
386.14	416.62
386.34	425.98
386.53	369.80
386.72	409.59
386.92	423.64
387.11	430.66
387.31	444.70
387.50	397.89
387.70	451.72
387.89	360.44
388.09	397.89
388.28	437.68
388.48	358.10
388.67	430.66
388.86	381.51
389.06	299.59
389.25	437.68
389.45	468.11
389.64	355.76
389.84	444.70
390.03	433.00
390.22	379.17
390.42	404.91
390.61	381.51
390.81	367.46
391.00	395.55
391.19	409.59
391.39	463.43
391.58	423.64
391.78	395.55
391.97	451.72
392.16	397.89
392.36	444.70
392.55	454.06
392.75	397.89
392.94	390.87
393.13	393.21
393.33	367.46
393.52	411.93
393.71	404.91
393.91	395.55
394.10	402.57
394.29	409.59
394.49	383.85
394.68	404.91
394.88	400.23
395.07	402.57
395.26	416.62
395.46	372.15
395.65	440.02
395.84	407.25
396.04	491.51
396.23	402.57
396.42	402.57
396.62	444.70
396.81	381.51
397.00	433.00
397.19	458.74
397.39	381.51
397.58	416.62
397.77	372.15
397.97	362.78
398.16	355.76
398.35	416.62
398.55	451.72
398.74	332.36
398.93	458.74
399.12	393.21
399.32	442.36
399.51	430.66
399.70	365.12
399.90	430.66
400.09	444.70
400.28	458.74
400.47	411.93
400.67	358.10
400.86	423.64
401.05	458.74
401.24	463.43
401.44	496.19
401.63	383.85
401.82	400.23
402.01	447.04
402.21	461.09
402.40	381.51
402.59	407.25
402.78	379.17
402.97	425.98
403.17	388.53
403.36	381.51
403.55	411.93
403.74	383.85
403.93	418.96
404.13	402.57
404.32	395.55
404.51	414.27
404.70	369.80
404.89	376.83
405.09	475.13
405.28	472.79
405.47	386.19
405.66	440.02
405.85	393.21
406.05	409.59
406.24	339.38
406.43	430.66
406.62	404.91
406.81	411.93
407.00	418.96
407.20	456.40
407.39	411.93
407.58	383.85
407.77	421.30
407.96	386.19
408.15	369.80
408.34	425.98
408.54	388.53
408.73	402.57
408.92	421.30
409.11	409.59
409.30	315.97
409.49	372.15
409.68	440.02
409.87	416.62
410.07	421.30
410.26	440.02
410.45	376.83
410.64	461.09
410.83	423.64
411.02	365.12
411.21	360.44
411.40	421.30
411.59	402.57
411.78	367.46
411.98	430.66
412.17	400.23
412.36	362.78
412.55	423.64
412.74	411.93
412.93	479.81
413.12	404.91
413.31	423.64
413.50	402.57
413.69	386.19
413.88	311.29
414.07	461.09
414.26	372.15
414.45	372.15
414.64	374.49
414.83	461.09
415.02	315.97
415.22	428.32
415.41	451.72
415.60	456.40
415.79	423.64
415.98	421.30
416.17	484.49
416.36	397.89
416.55	353.42
416.74	435.34
416.93	444.70
417.12	397.89
417.31	346.40
417.50	409.59
417.69	435.34
417.88	458.74
418.07	433.00
418.26	430.66
418.45	430.66
418.64	444.70
418.83	444.70
419.02	397.89
419.21	372.15
419.39	418.96
419.58	411.93
419.77	351.08
419.96	447.04
420.15	447.04
420.34	400.23
420.53	351.08
420.72	430.66
420.91	421.30
421.10	416.62
421.29	456.40
421.48	395.55
421.67	421.30
421.86	418.96
422.05	458.74
422.24	409.59
422.43	447.04
422.61	332.36
422.80	461.09
422.99	423.64
423.18	425.98
423.37	484.49
423.56	367.46
423.75	421.30
423.94	337.04
424.13	372.15
424.32	437.68
424.50	423.64
424.69	484.49
424.88	400.23
425.07	428.32
425.26	428.32
425.45	383.85
425.64	397.89
425.83	449.38
426.01	379.17
426.20	353.42
426.39	430.66
426.58	390.87
426.77	440.02
426.96	440.02
427.15	400.23
427.33	407.25
427.52	491.51
427.71	435.34
427.90	449.38
428.09	390.87
428.28	411.93
428.46	416.62
428.65	365.12
428.84	388.53
429.03	449.38
429.22	468.11
429.40	404.91
429.59	390.87
429.78	407.25
429.97	393.21
430.16	465.77
430.34	372.15
430.53	358.10
430.72	425.98
430.91	442.36
431.10	362.78
431.28	440.02
431.47	416.62
431.66	379.17
431.85	404.91
432.03	456.40
432.22	479.81
432.41	383.85
432.60	496.19
432.79	402.57
432.97	465.77
433.16	465.77
433.35	454.06
433.54	367.46
433.72	444.70
433.91	451.72
434.10	447.04
434.28	425.98
434.47	390.87
434.66	400.23
434.85	383.85
435.03	376.83
435.22	454.06
435.41	358.10
435.59	458.74
435.78	402.57
435.97	397.89
436.16	444.70
436.34	463.43
436.53	404.91
436.72	365.12
436.90	414.27
437.09	423.64
437.28	374.49
437.46	416.62
437.65	430.66
437.84	409.59
438.02	311.29
438.21	402.57
438.40	409.59
438.58	374.49
438.77	470.45
438.96	355.76
439.14	402.57
439.33	416.62
439.52	409.59
439.70	393.21
439.89	435.34
440.08	404.91
440.26	386.19
440.45	388.53
440.63	346.40
440.82	442.36
441.01	372.15
441.19	414.27
441.38	416.62
441.57	390.87
441.75	435.34
441.94	489.17
442.12	414.27
442.31	477.47
442.50	444.70
442.68	337.04
442.87	386.19
443.05	379.17
443.24	414.27
443.43	440.02
443.61	425.98
443.80	407.25
443.98	369.80
444.17	428.32
444.35	463.43
444.54	386.19
444.73	407.25
444.91	491.51
445.10	435.34
445.28	348.74
445.47	411.93
445.65	388.53
445.84	358.10
446.02	447.04
446.21	383.85
446.39	437.68
446.58	421.30
446.77	407.25
446.95	461.09
447.14	433.00
447.32	414.27
447.51	353.42
447.69	353.42
447.88	416.62
448.06	510.24
448.25	379.17
448.43	442.36
448.62	440.02
448.80	444.70
448.99	470.45
449.17	430.66
449.36	482.15
449.54	519.60
449.73	486.83
449.91	348.74
450.10	381.51
450.28	435.34
450.46	444.70
450.65	400.23
450.83	435.34
451.02	458.74
451.20	376.83
451.39	407.25
451.57	416.62
451.76	400.23
451.94	416.62
452.13	400.23
452.31	456.40
452.49	440.02
452.68	440.02
452.86	493.85
453.05	437.68
453.23	376.83
453.42	416.62
453.60	411.93
453.78	409.59
453.97	379.17
454.15	346.40
454.34	395.55
454.52	334.70
454.70	383.85
454.89	442.36
455.07	388.53
455.26	355.76
455.44	440.02
455.62	472.79
455.81	379.17
455.99	421.30
456.17	390.87
456.36	411.93
456.54	369.80
456.73	416.62
456.91	372.15
457.09	458.74
457.28	348.74
457.46	418.96
457.64	456.40
457.83	402.57
458.01	409.59
458.19	390.87
458.38	416.62
458.56	428.32
458.74	416.62
458.93	416.62
459.11	411.93
459.29	437.68
459.48	451.72
459.66	435.34
459.84	407.25
460.03	449.38
460.21	409.59
460.39	374.49
460.57	393.21
460.76	519.60
460.94	358.10
461.12	379.17
461.31	435.34
461.49	388.53
461.67	386.19
461.85	381.51
462.04	440.02
462.22	683.44
462.40	358.10
462.59	386.19
462.77	397.89
462.95	430.66
463.13	416.62
463.32	440.02
463.50	435.34
463.68	498.53
463.86	341.72
464.05	404.91
464.23	447.04
464.41	397.89
464.59	407.25
464.78	407.25
464.96	440.02
465.14	456.40
465.32	416.62
465.50	327.68
465.69	423.64
465.87	341.72
466.05	458.74
466.23	425.98
466.41	383.85
466.60	383.85
466.78	327.68
466.96	416.62
467.14	435.34
467.32	442.36
467.51	444.70
467.69	468.11
467.87	479.81
468.05	430.66
468.23	358.10
468.41	383.85
468.60	456.40
468.78	409.59
468.96	393.21
469.14	379.17
469.32	409.59
469.50	381.51
469.69	463.43
469.87	407.25
470.05	390.87
470.23	442.36
470.41	379.17
470.59	428.32
470.77	404.91
470.95	337.04
471.14	519.60
471.32	409.59
471.50	442.36
471.68	407.25
471.86	484.49
472.04	395.55
472.22	468.11
472.40	397.89
472.58	344.06
472.77	442.36
472.95	337.04
473.13	451.72
473.31	430.66
473.49	414.27
473.67	388.53
473.85	456.40
474.03	409.59
474.21	514.92
474.39	428.32
474.57	454.06
474.75	456.40
474.93	346.40
475.12	362.78
475.30	374.49
475.48	428.32
475.66	374.49
475.84	381.51
476.02	421.30
476.20	407.25
476.38	442.36
476.56	463.43
476.74	418.96
476.92	442.36
477.10	421.30
477.28	404.91
477.46	397.89
477.64	437.68
477.82	437.68
478.00	425.98
478.18	409.59
478.36	409.59
478.54	365.12
478.72	433.00
478.90	402.57
479.08	390.87
479.26	447.04
479.44	411.93
479.62	334.70
479.80	454.06
479.98	414.27
480.16	433.00
480.34	383.85
480.52	404.91
480.70	421.30
480.88	407.25
481.06	390.87
481.24	463.43
481.41	402.57
481.59	409.59
481.77	447.04
481.95	414.27
482.13	395.55
482.31	430.66
482.49	348.74
482.67	442.36
482.85	425.98
483.03	376.83
483.21	416.62
483.39	358.10
483.57	362.78
483.74	411.93
483.92	381.51
484.10	458.74
484.28	395.55
484.46	428.32
484.64	421.30
484.82	472.79
485.00	390.87
485.18	386.19
485.35	386.19
485.53	379.17
485.71	393.21
485.89	461.09
486.07	428.32
486.25	491.51
486.43	416.62
486.61	517.26
486.78	440.02
486.96	442.36
487.14	440.02
487.32	407.25
487.50	416.62
487.68	362.78
487.85	423.64
488.03	386.19
488.21	463.43
488.39	400.23
488.57	444.70
488.75	463.43
488.92	512.58
489.10	472.79
489.28	442.36
489.46	358.10
489.64	374.49
489.81	465.77
489.99	428.32
490.17	390.87
490.35	463.43
490.53	407.25
490.70	433.00
490.88	454.06
491.06	395.55
491.24	477.47
491.41	451.72
491.59	447.04
491.77	407.25
491.95	372.15
492.13	381.51
492.30	468.11
492.48	365.12
492.66	447.04
492.84	435.34
493.01	395.55
493.19	425.98
493.37	430.66
493.54	465.77
493.72	449.38
493.90	365.12
494.08	411.93
494.25	425.98
494.43	451.72
494.61	383.85
494.79	465.77
494.96	367.46
495.14	386.19
495.32	409.59
495.49	430.66
495.67	376.83
495.85	503.22
496.02	383.85
496.20	489.17
496.38	407.25
496.55	383.85
496.73	414.27
496.91	423.64
497.09	442.36
497.26	362.78
497.44	395.55
497.62	421.30
497.79	360.44
497.97	374.49
498.14	402.57
498.32	418.96
498.50	423.64
498.67	437.68
498.85	414.27
499.03	461.09
499.20	402.57
499.38	454.06
499.56	428.32
499.73	479.81
499.91	486.83
500.08	435.34
500.26	433.00
500.44	447.04
500.61	407.25
500.79	404.91
500.97	451.72
501.14	430.66
501.32	433.00
501.49	409.59
501.67	416.62
501.84	425.98
502.02	360.44
502.20	437.68
502.37	344.06
502.55	454.06
502.72	461.09
502.90	470.45
503.07	472.79
503.25	451.72
503.43	428.32
503.60	379.17
503.78	374.49
503.95	414.27
504.13	416.62
504.30	479.81
504.48	437.68
504.65	463.43
504.83	442.36
505.01	416.62
505.18	407.25
505.36	388.53
505.53	393.21
505.71	390.87
505.88	503.22
506.06	379.17
506.23	409.59
506.41	381.51
506.58	425.98
506.76	367.46
506.93	433.00
507.11	409.59
507.28	486.83
507.46	381.51
507.63	442.36
507.81	386.19
507.98	475.13
508.16	465.77
508.33	447.04
508.50	423.64
508.68	390.87
508.85	458.74
509.03	374.49
509.20	421.30
509.38	433.00
509.55	482.15
509.73	440.02
509.90	456.40
510.08	379.17
510.25	381.51
510.42	393.21
510.60	383.85
510.77	430.66
510.95	444.70
511.12	433.00
511.30	449.38
511.47	461.09
511.64	435.34
511.82	458.74
511.99	435.34
512.17	360.44
512.34	414.27
512.51	388.53
512.69	397.89
512.86	414.27
513.04	484.49
513.21	468.11
513.38	379.17
513.56	369.80
513.73	358.10
513.90	435.34
514.08	379.17
514.25	383.85
514.43	428.32
514.60	404.91
514.77	383.85
514.95	430.66
515.12	421.30
515.29	421.30
515.47	440.02
515.64	449.38
515.81	521.94
515.99	397.89
516.16	470.45
516.33	433.00
516.51	416.62
516.68	416.62
516.85	451.72
517.03	404.91
517.20	404.91
517.37	388.53
517.54	430.66
517.72	367.46
517.89	418.96
518.06	458.74
518.24	512.58
518.41	456.40
518.58	388.53
518.75	465.77
518.93	435.34
519.10	484.49
519.27	421.30
519.45	442.36
519.62	416.62
519.79	386.19
519.96	348.74
520.14	400.23
520.31	463.43
520.48	433.00
520.65	383.85
520.83	409.59
521.00	416.62
521.17	421.30
521.34	456.40
521.52	409.59
521.69	456.40
521.86	437.68
522.03	414.27
522.20	397.89
522.38	376.83
522.55	362.78
522.72	395.55
522.89	482.15
523.07	468.11
523.24	425.98
523.41	404.91
523.58	418.96
523.75	395.55
523.92	430.66
524.10	414.27
524.27	411.93
524.44	416.62
524.61	423.64
524.78	444.70
524.96	442.36
525.13	421.30
525.30	402.57
525.47	458.74
525.64	423.64
525.81	461.09
525.98	533.64
526.16	447.04
526.33	428.32
526.50	365.12
526.67	346.40
526.84	393.21
527.01	369.80
527.18	479.81
527.36	402.57
527.53	409.59
527.70	397.89
527.87	430.66
528.04	416.62
528.21	407.25
528.38	430.66
528.55	454.06
528.72	397.89
528.89	397.89
529.07	463.43
529.24	390.87
529.41	498.53
529.58	407.25
529.75	449.38
529.92	454.06
530.09	376.83
530.26	430.66
530.43	449.38
530.60	369.80
530.77	409.59
530.94	428.32
531.11	440.02
531.28	381.51
531.46	402.57
531.63	379.17
531.80	451.72
531.97	367.46
532.14	451.72
532.31	465.77
532.48	477.47
532.65	470.45
532.82	416.62
532.99	440.02
533.16	374.49
533.33	414.27
533.50	386.19
533.67	390.87
533.84	435.34
534.01	367.46
534.18	409.59
534.35	456.40
534.52	393.21
534.69	449.38
534.86	381.51
535.03	425.98
535.20	334.70
535.37	372.15
535.54	390.87
535.71	397.89
535.88	458.74
536.05	435.34
536.22	486.83
536.38	428.32
536.55	397.89
536.72	383.85
536.89	425.98
537.06	390.87
537.23	330.02
537.40	388.53
537.57	425.98
537.74	369.80
537.91	505.56
538.08	423.64
538.25	409.59
538.42	423.64
538.59	397.89
538.75	505.56
538.92	404.91
539.09	435.34
539.26	379.17
539.43	472.79
539.60	449.38
539.77	430.66
539.94	400.23
540.11	428.32
540.28	369.80
540.44	451.72
540.61	390.87
540.78	435.34
540.95	414.27
541.12	395.55
541.29	411.93
541.46	477.47
541.62	428.32
541.79	433.00
541.96	402.57
542.13	381.51
542.30	421.30
542.47	433.00
542.63	430.66
542.80	365.12
542.97	400.23
543.14	430.66
543.31	411.93
543.48	468.11
543.64	435.34
543.81	409.59
543.98	477.47
544.15	369.80
544.32	367.46
544.48	372.15
544.65	397.89
544.82	416.62
544.99	435.34
545.16	470.45
545.32	416.62
545.49	414.27
545.66	461.09
545.83	447.04
546.00	337.04
546.16	353.42
546.33	456.40
546.50	376.83
546.67	430.66
546.83	461.09
547.00	423.64
547.17	404.91
547.34	374.49
547.50	440.02
547.67	411.93
547.84	358.10
548.00	437.68
548.17	440.02
548.34	454.06
548.51	433.00
548.67	395.55
548.84	444.70
549.01	444.70
549.18	421.30
549.34	360.44
549.51	346.40
549.68	407.25
549.84	388.53
550.01	395.55
550.18	442.36
550.34	428.32
550.51	454.06
550.68	477.47
550.84	416.62
551.01	386.19
551.18	437.68
551.34	372.15
551.51	465.77
551.68	454.06
551.84	416.62
552.01	367.46
552.18	468.11
552.34	411.93
552.51	444.70
552.68	393.21
552.84	444.70
553.01	475.13
553.18	379.17
553.34	433.00
553.51	367.46
553.67	386.19
553.84	500.87
554.01	489.17
554.17	421.30
554.34	430.66
554.51	383.85
554.67	472.79
554.84	454.06
555.00	437.68
555.17	440.02
555.33	437.68
555.50	418.96
555.67	353.42
555.83	379.17
556.00	449.38
556.16	528.96
556.33	447.04
556.50	465.77
556.66	489.17
556.83	383.85
556.99	404.91
557.16	435.34
557.32	465.77
557.49	440.02
557.65	386.19
557.82	468.11
557.98	362.78
558.15	437.68
558.32	393.21
558.48	447.04
558.65	376.83
558.81	372.15
558.98	397.89
559.14	484.49
559.31	390.87
559.47	454.06
559.64	379.17
559.80	425.98
559.97	430.66
560.13	503.22
560.30	379.17
560.46	428.32
560.63	390.87
560.79	339.38
560.96	444.70
561.12	353.42
561.29	416.62
561.45	374.49
561.61	388.53
561.78	486.83
561.94	465.77
562.11	344.06
562.27	358.10
562.44	409.59
562.60	484.49
562.77	407.25
562.93	456.40
563.10	395.55
563.26	440.02
563.42	465.77
563.59	489.17
563.75	437.68
563.92	433.00
564.08	393.21
564.24	433.00
564.41	456.40
564.57	421.30
564.74	437.68
564.90	400.23
565.07	407.25
565.23	454.06
565.39	465.77
565.56	433.00
565.72	479.81
565.88	433.00
566.05	407.25
566.21	376.83
566.38	463.43
566.54	433.00
566.70	381.51
566.87	423.64
567.03	461.09
567.19	435.34
567.36	435.34
567.52	402.57
567.68	404.91
567.85	433.00
568.01	409.59
568.17	430.66
568.34	341.72
568.50	355.76
568.66	402.57
568.83	491.51
568.99	411.93
569.15	433.00
569.32	418.96
569.48	458.74
569.64	369.80
569.81	461.09
569.97	414.27
570.13	449.38
570.30	360.44
570.46	416.62
570.62	402.57
570.78	528.96
570.95	435.34
571.11	458.74
571.27	402.57
571.43	465.77
571.60	418.96
571.76	386.19
571.92	397.89
572.09	512.58
572.25	390.87
572.41	325.33
572.57	435.34
572.74	463.43
572.90	456.40
573.06	463.43
573.22	414.27
573.38	383.85
573.55	358.10
573.71	388.53
573.87	440.02
574.03	435.34
574.20	404.91
574.36	425.98
574.52	348.74
574.68	400.23
574.84	374.49
575.01	430.66
575.17	444.70
575.33	491.51
575.49	456.40
575.65	437.68
575.82	400.23
575.98	428.32
576.14	454.06
576.30	386.19
576.46	498.53
576.62	381.51
576.79	416.62
576.95	372.15
577.11	425.98
577.27	402.57
577.43	458.74
577.59	437.68
577.75	416.62
577.92	425.98
578.08	444.70
578.24	430.66
578.40	425.98
578.56	465.77
578.72	458.74
578.88	381.51
579.04	416.62
579.21	407.25
579.37	402.57
579.53	381.51
579.69	458.74
579.85	418.96
580.01	407.25
580.17	376.83
580.33	372.15
580.49	442.36
580.65	428.32
580.82	404.91
580.98	341.72
581.14	423.64
581.30	430.66
581.46	402.57
581.62	451.72
581.78	440.02
581.94	418.96
582.10	379.17
582.26	351.08
582.42	409.59
582.58	365.12
582.74	379.17
582.90	409.59
583.06	484.49
583.22	393.21
583.38	430.66
583.54	395.55
583.70	341.72
583.86	430.66
584.02	311.29
584.18	479.81
584.34	353.42
584.50	353.42
584.66	423.64
584.82	337.04
584.98	416.62
585.14	435.34
585.30	472.79
585.46	418.96
585.62	414.27
585.78	407.25
585.94	435.34
586.10	390.87
586.26	330.02
586.42	524.28
586.58	397.89
586.74	390.87
586.90	386.19
587.06	463.43
587.22	369.80
587.38	404.91
587.54	484.49
587.70	433.00
587.86	449.38
588.02	404.91
588.18	437.68
588.34	477.47
588.49	397.89
588.65	372.15
588.81	442.36
588.97	454.06
589.13	383.85
589.29	376.83
589.45	433.00
589.61	433.00
589.77	440.02
589.93	348.74
590.08	470.45
590.24	374.49
590.40	477.47
590.56	386.19
590.72	390.87
590.88	437.68
591.04	365.12
591.20	447.04
591.35	404.91
591.51	411.93
591.67	421.30
591.83	484.49
591.99	395.55
592.15	444.70
592.31	374.49
592.46	369.80
592.62	449.38
592.78	372.15
592.94	423.64
593.10	435.34
593.26	388.53
593.41	425.98
593.57	411.93
593.73	381.51
593.89	353.42
594.05	421.30
594.20	479.81
594.36	421.30
594.52	393.21
594.68	404.91
594.84	454.06
594.99	447.04
595.15	475.13
595.31	435.34
595.47	435.34
595.62	435.34
595.78	365.12
595.94	381.51
596.10	414.27
596.25	425.98
596.41	390.87
596.57	400.23
596.73	454.06
596.88	383.85
597.04	461.09
597.20	451.72
597.36	451.72
597.51	404.91
597.67	418.96
597.83	351.08
597.99	465.77
598.14	435.34
598.30	386.19
598.46	430.66
598.61	355.76
598.77	339.38
598.93	423.64
599.09	379.17
599.24	358.10
599.40	477.47
599.56	442.36
599.71	456.40
599.87	510.24
600.03	449.38
600.18	383.85
600.34	454.06
600.50	430.66
600.65	407.25
600.81	421.30
600.97	411.93
601.12	409.59
601.28	397.89
601.44	388.53
601.59	322.99
601.75	414.27
601.91	416.62
602.06	437.68
602.22	465.77
602.37	414.27
602.53	402.57
602.69	456.40
602.84	395.55
603.00	337.04
603.16	433.00
603.31	414.27
603.47	444.70
603.62	376.83
603.78	442.36
603.94	451.72
604.09	428.32
604.25	433.00
604.40	435.34
604.56	381.51
604.71	372.15
604.87	407.25
605.03	355.76
605.18	390.87
605.34	400.23
605.49	386.19
605.65	444.70
605.80	360.44
605.96	355.76
606.12	430.66
606.27	425.98
606.43	367.46
606.58	463.43
606.74	346.40
606.89	390.87
607.05	402.57
607.20	351.08
607.36	409.59
607.51	383.85
607.67	404.91
607.82	463.43
607.98	358.10
608.13	435.34
608.29	395.55
608.44	437.68
608.60	442.36
608.75	472.79
608.91	463.43
609.06	360.44
609.22	454.06
609.37	390.87
609.53	390.87
609.68	430.66
609.84	416.62
609.99	430.66
610.15	369.80
