SpectraSuite Data File
++++++++++++++++++++++++++++++++++++
Date: Fri Oct 25 12:11:38 EDT 2013
User: price-jones
Dark Spectrum Present: No
Reference Spectrum Present: No
Number of Sampled Component Spectra: 1
Spectrometers: USB2+H05261
Integration Time (usec): 100000 (USB2+H05261)
Spectra Averaged: 1 (USB2+H05261)
Boxcar Smoothing: 0 (USB2+H05261)
Correct for Electrical Dark: No (USB2+H05261)
Strobe/Lamp Enabled: No (USB2+H05261)
Correct for Detector Non-linearity: No (USB2+H05261)
Correct for Stray Light: No (USB2+H05261)
Number of Pixels in Processed Spectrum: 2048
>>>>>Begin Processed Spectral Data<<<<<
365.73	306.61
365.92	306.61
366.12	306.61
366.32	245.76
366.52	255.12
366.72	217.67
366.91	229.37
367.11	238.73
367.31	318.31
367.51	252.78
367.70	227.03
367.90	201.29
368.10	264.48
368.30	290.23
368.49	257.46
368.69	250.44
368.89	297.25
369.09	243.42
369.28	243.42
369.48	273.84
369.68	201.29
369.87	294.91
370.07	241.08
370.27	346.40
370.47	358.10
370.66	341.72
370.86	327.68
371.06	428.32
371.25	418.96
371.45	304.27
371.65	397.89
371.84	390.87
372.04	339.38
372.24	332.36
372.44	418.96
372.63	451.72
372.83	381.51
373.03	386.19
373.22	451.72
373.42	351.08
373.62	390.87
373.81	505.56
374.01	489.17
374.21	428.32
374.40	404.91
374.60	482.15
374.79	383.85
374.99	428.32
375.19	418.96
375.38	470.45
375.58	437.68
375.78	458.74
375.97	411.93
376.17	482.15
376.37	430.66
376.56	400.23
376.76	456.40
376.95	376.83
377.15	386.19
377.35	407.25
377.54	409.59
377.74	292.57
377.93	454.06
378.13	339.38
378.33	435.34
378.52	386.19
378.72	484.49
378.91	479.81
379.11	346.40
379.31	379.17
379.50	393.21
379.70	433.00
379.89	493.85
380.09	404.91
380.28	390.87
380.48	451.72
380.68	393.21
380.87	423.64
381.07	416.62
381.26	486.83
381.46	416.62
381.65	367.46
381.85	376.83
382.04	262.14
382.24	388.53
382.43	397.89
382.63	351.08
382.83	397.89
383.02	418.96
383.22	451.72
383.41	346.40
383.61	416.62
383.80	393.21
384.00	400.23
384.19	358.10
384.39	409.59
384.58	440.02
384.78	418.96
384.97	355.76
385.17	414.27
385.36	388.53
385.56	463.43
385.75	393.21
385.95	402.57
386.14	447.04
386.34	374.49
386.53	351.08
386.72	390.87
386.92	388.53
387.11	458.74
387.31	472.79
387.50	400.23
387.70	421.30
387.89	393.21
388.09	372.15
388.28	386.19
388.48	369.80
388.67	407.25
388.86	360.44
389.06	423.64
389.25	435.34
389.45	381.51
389.64	367.46
389.84	411.93
390.03	397.89
390.22	454.06
390.42	344.06
390.61	341.72
390.81	383.85
391.00	447.04
391.19	393.21
391.39	416.62
391.58	379.17
391.78	409.59
391.97	425.98
392.16	418.96
392.36	475.13
392.55	444.70
392.75	437.68
392.94	472.79
393.13	341.72
393.33	360.44
393.52	433.00
393.71	505.56
393.91	442.36
394.10	421.30
394.29	372.15
394.49	414.27
394.68	411.93
394.88	416.62
395.07	454.06
395.26	276.18
395.46	381.51
395.65	362.78
395.84	365.12
396.04	409.59
396.23	388.53
396.42	444.70
396.62	461.09
396.81	411.93
397.00	397.89
397.19	369.80
397.39	414.27
397.58	451.72
397.77	411.93
397.97	416.62
398.16	411.93
398.35	454.06
398.55	400.23
398.74	376.83
398.93	472.79
399.12	360.44
399.32	437.68
399.51	449.38
399.70	395.55
399.90	299.59
400.09	404.91
400.28	479.81
400.47	411.93
400.67	409.59
400.86	320.65
401.05	374.49
401.24	376.83
401.44	444.70
401.63	461.09
401.82	409.59
402.01	353.42
402.21	409.59
402.40	456.40
402.59	397.89
402.78	444.70
402.97	388.53
403.17	510.24
403.36	404.91
403.55	414.27
403.74	393.21
403.93	447.04
404.13	451.72
404.32	348.74
404.51	404.91
404.70	416.62
404.89	386.19
405.09	407.25
405.28	428.32
405.47	395.55
405.66	388.53
405.85	393.21
406.05	379.17
406.24	379.17
406.43	397.89
406.62	428.32
406.81	461.09
407.00	447.04
407.20	402.57
407.39	451.72
407.58	397.89
407.77	404.91
407.96	470.45
408.15	341.72
408.34	440.02
408.54	437.68
408.73	479.81
408.92	351.08
409.11	430.66
409.30	435.34
409.49	346.40
409.68	437.68
409.87	430.66
410.07	376.83
410.26	395.55
410.45	339.38
410.64	440.02
410.83	369.80
411.02	388.53
411.21	423.64
411.40	428.32
411.59	404.91
411.78	461.09
411.98	414.27
412.17	355.76
412.36	461.09
412.55	425.98
412.74	465.77
412.93	456.40
413.12	404.91
413.31	395.55
413.50	372.15
413.69	397.89
413.88	454.06
414.07	402.57
414.26	397.89
414.45	456.40
414.64	334.70
414.83	381.51
415.02	402.57
415.22	404.91
415.41	369.80
415.60	421.30
415.79	395.55
415.98	381.51
416.17	421.30
416.36	400.23
416.55	430.66
416.74	454.06
416.93	444.70
417.12	404.91
417.31	404.91
417.50	475.13
417.69	468.11
417.88	423.64
418.07	383.85
418.26	353.42
418.45	402.57
418.64	425.98
418.83	414.27
419.02	447.04
419.21	442.36
419.39	346.40
419.58	437.68
419.77	425.98
419.96	463.43
420.15	433.00
420.34	456.40
420.53	393.21
420.72	463.43
420.91	379.17
421.10	397.89
421.29	369.80
421.48	379.17
421.67	379.17
421.86	393.21
422.05	465.77
422.24	425.98
422.43	411.93
422.61	433.00
422.80	433.00
422.99	358.10
423.18	348.74
423.37	409.59
423.56	393.21
423.75	475.13
423.94	383.85
424.13	402.57
424.32	423.64
424.50	423.64
424.69	425.98
424.88	447.04
425.07	411.93
425.26	404.91
425.45	397.89
425.64	404.91
425.83	390.87
426.01	395.55
426.20	390.87
426.39	404.91
426.58	393.21
426.77	416.62
426.96	379.17
427.15	463.43
427.33	468.11
427.52	416.62
427.71	397.89
427.90	409.59
428.09	320.65
428.28	440.02
428.46	383.85
428.65	416.62
428.84	381.51
429.03	383.85
429.22	372.15
429.40	449.38
429.59	447.04
429.78	433.00
429.97	411.93
430.16	388.53
430.34	395.55
430.53	425.98
430.72	423.64
430.91	456.40
431.10	353.42
431.28	362.78
431.47	397.89
431.66	381.51
431.85	409.59
432.03	430.66
432.22	526.62
432.41	437.68
432.60	428.32
432.79	388.53
432.97	428.32
433.16	470.45
433.35	332.36
433.54	444.70
433.72	418.96
433.91	397.89
434.10	362.78
434.28	416.62
434.47	484.49
434.66	472.79
434.85	397.89
435.03	416.62
435.22	421.30
435.41	442.36
435.59	451.72
435.78	344.06
435.97	409.59
436.16	423.64
436.34	447.04
436.53	479.81
436.72	411.93
436.90	390.87
437.09	454.06
437.28	341.72
437.46	430.66
437.65	362.78
437.84	407.25
438.02	503.22
438.21	358.10
438.40	428.32
438.58	442.36
438.77	322.99
438.96	322.99
439.14	444.70
439.33	444.70
439.52	360.44
439.70	348.74
439.89	400.23
440.08	379.17
440.26	458.74
440.45	423.64
440.63	449.38
440.82	461.09
441.01	346.40
441.19	428.32
441.38	334.70
441.57	472.79
441.75	411.93
441.94	421.30
442.12	414.27
442.31	414.27
442.50	341.72
442.68	435.34
442.87	388.53
443.05	402.57
443.24	390.87
443.43	449.38
443.61	376.83
443.80	449.38
443.98	433.00
444.17	423.64
444.35	428.32
444.54	299.59
444.73	409.59
444.91	440.02
445.10	381.51
445.28	428.32
445.47	404.91
445.65	428.32
445.84	428.32
446.02	463.43
446.21	341.72
446.39	463.43
446.58	369.80
446.77	444.70
446.95	437.68
447.14	369.80
447.32	430.66
447.51	425.98
447.69	433.00
447.88	458.74
448.06	458.74
448.25	451.72
448.43	430.66
448.62	372.15
448.80	414.27
448.99	395.55
449.17	416.62
449.36	447.04
449.54	430.66
449.73	458.74
449.91	411.93
450.10	418.96
450.28	463.43
450.46	458.74
450.65	421.30
450.83	496.19
451.02	397.89
451.20	362.78
451.39	388.53
451.57	421.30
451.76	395.55
451.94	461.09
452.13	404.91
452.31	330.02
452.49	510.24
452.68	369.80
452.86	397.89
453.05	400.23
453.23	407.25
453.42	400.23
453.60	421.30
453.78	430.66
453.97	402.57
454.15	416.62
454.34	402.57
454.52	407.25
454.70	451.72
454.89	449.38
455.07	411.93
455.26	372.15
455.44	503.22
455.62	402.57
455.81	454.06
455.99	440.02
456.17	414.27
456.36	416.62
456.54	365.12
456.73	400.23
456.91	388.53
457.09	418.96
457.28	374.49
457.46	440.02
457.64	416.62
457.83	355.76
458.01	440.02
458.19	519.60
458.38	414.27
458.56	454.06
458.74	428.32
458.93	461.09
459.11	435.34
459.29	449.38
459.48	388.53
459.66	456.40
459.84	440.02
460.03	456.40
460.21	388.53
460.39	437.68
460.57	454.06
460.76	374.49
460.94	451.72
461.12	550.03
461.31	402.57
461.49	451.72
461.67	402.57
461.85	437.68
462.04	442.36
462.22	758.33
462.40	416.62
462.59	440.02
462.77	465.77
462.95	418.96
463.13	442.36
463.32	456.40
463.50	423.64
463.68	400.23
463.86	444.70
464.05	402.57
464.23	461.09
464.41	430.66
464.59	414.27
464.78	386.19
464.96	411.93
465.14	367.46
465.32	390.87
465.50	442.36
465.69	351.08
465.87	372.15
466.05	388.53
466.23	362.78
466.41	423.64
466.60	332.36
466.78	395.55
466.96	444.70
467.14	383.85
467.32	454.06
467.51	360.44
467.69	390.87
467.87	486.83
468.05	430.66
468.23	486.83
468.41	400.23
468.60	353.42
468.78	489.17
468.96	416.62
469.14	472.79
469.32	444.70
469.50	402.57
469.69	409.59
469.87	418.96
470.05	433.00
470.23	388.53
470.41	318.31
470.59	444.70
470.77	477.47
470.95	397.89
471.14	425.98
471.32	318.31
471.50	400.23
471.68	428.32
471.86	374.49
472.04	437.68
472.22	379.17
472.40	414.27
472.58	458.74
472.77	386.19
472.95	386.19
473.13	435.34
473.31	442.36
473.49	393.21
473.67	454.06
473.85	390.87
474.03	395.55
474.21	447.04
474.39	423.64
474.57	351.08
474.75	477.47
474.93	475.13
475.12	379.17
475.30	402.57
475.48	367.46
475.66	437.68
475.84	379.17
476.02	435.34
476.20	440.02
476.38	414.27
476.56	411.93
476.74	421.30
476.92	437.68
477.10	468.11
477.28	442.36
477.46	365.12
477.64	367.46
477.82	402.57
478.00	395.55
478.18	409.59
478.36	435.34
478.54	365.12
478.72	482.15
478.90	440.02
479.08	444.70
479.26	421.30
479.44	411.93
479.62	395.55
479.80	393.21
479.98	388.53
480.16	456.40
480.34	376.83
480.52	365.12
480.70	411.93
480.88	388.53
481.06	449.38
481.24	404.91
481.41	416.62
481.59	402.57
481.77	428.32
481.95	472.79
482.13	404.91
482.31	332.36
482.49	383.85
482.67	451.72
482.85	435.34
483.03	409.59
483.21	477.47
483.39	437.68
483.57	388.53
483.74	409.59
483.92	458.74
484.10	386.19
484.28	388.53
484.46	477.47
484.64	341.72
484.82	451.72
485.00	447.04
485.18	404.91
485.35	397.89
485.53	367.46
485.71	475.13
485.89	425.98
486.07	440.02
486.25	496.19
486.43	388.53
486.61	425.98
486.78	423.64
486.96	388.53
487.14	372.15
487.32	449.38
487.50	393.21
487.68	454.06
487.85	334.70
488.03	451.72
488.21	437.68
488.39	421.30
488.57	369.80
488.75	404.91
488.92	514.92
489.10	414.27
489.28	414.27
489.46	395.55
489.64	360.44
489.81	468.11
489.99	449.38
490.17	433.00
490.35	507.90
490.53	428.32
490.70	423.64
490.88	512.58
491.06	365.12
491.24	433.00
491.41	402.57
491.59	461.09
491.77	393.21
491.95	334.70
492.13	383.85
492.30	400.23
492.48	442.36
492.66	386.19
492.84	409.59
493.01	416.62
493.19	402.57
493.37	505.56
493.54	367.46
493.72	407.25
493.90	428.32
494.08	449.38
494.25	402.57
494.43	393.21
494.61	376.83
494.79	444.70
494.96	381.51
495.14	451.72
495.32	395.55
495.49	414.27
495.67	440.02
495.85	416.62
496.02	367.46
496.20	376.83
496.38	463.43
496.55	416.62
496.73	402.57
496.91	400.23
497.09	465.77
497.26	491.51
497.44	447.04
497.62	381.51
497.79	442.36
497.97	472.79
498.14	388.53
498.32	383.85
498.50	411.93
498.67	477.47
498.85	381.51
499.03	409.59
499.20	414.27
499.38	465.77
499.56	442.36
499.73	386.19
499.91	402.57
500.08	379.17
500.26	369.80
500.44	404.91
500.61	402.57
500.79	367.46
500.97	456.40
501.14	519.60
501.32	414.27
501.49	505.56
501.67	425.98
501.84	358.10
502.02	400.23
502.20	468.11
502.37	440.02
502.55	458.74
502.72	411.93
502.90	409.59
503.07	355.76
503.25	491.51
503.43	407.25
503.60	468.11
503.78	437.68
503.95	425.98
504.13	416.62
504.30	440.02
504.48	386.19
504.65	433.00
504.83	468.11
505.01	379.17
505.18	447.04
505.36	447.04
505.53	414.27
505.71	379.17
505.88	435.34
506.06	414.27
506.23	451.72
506.41	423.64
506.58	383.85
506.76	414.27
506.93	397.89
507.11	444.70
507.28	421.30
507.46	351.08
507.63	330.02
507.81	362.78
507.98	402.57
508.16	514.92
508.33	428.32
508.50	411.93
508.68	447.04
508.85	442.36
509.03	383.85
509.20	421.30
509.38	440.02
509.55	404.91
509.73	470.45
509.90	456.40
510.08	416.62
510.25	414.27
510.42	454.06
510.60	458.74
510.77	428.32
510.95	442.36
511.12	423.64
511.30	407.25
511.47	386.19
511.64	531.30
511.82	400.23
511.99	332.36
512.17	409.59
512.34	339.38
512.51	299.59
512.69	381.51
512.86	451.72
513.04	372.15
513.21	397.89
513.38	388.53
513.56	393.21
513.73	418.96
513.90	376.83
514.08	416.62
514.25	383.85
514.43	430.66
514.60	388.53
514.77	386.19
514.95	428.32
515.12	400.23
515.29	407.25
515.47	458.74
515.64	397.89
515.81	383.85
515.99	322.99
516.16	411.93
516.33	444.70
516.51	414.27
516.68	393.21
516.85	404.91
517.03	402.57
517.20	395.55
517.37	425.98
517.54	409.59
517.72	451.72
517.89	365.12
518.06	440.02
518.24	451.72
518.41	433.00
518.58	454.06
518.75	397.89
518.93	416.62
519.10	456.40
519.27	379.17
519.45	386.19
519.62	374.49
519.79	479.81
519.96	404.91
520.14	381.51
520.31	421.30
520.48	468.11
520.65	402.57
520.83	411.93
521.00	423.64
521.17	489.17
521.34	367.46
521.52	468.11
521.69	486.83
521.86	409.59
522.03	379.17
522.20	447.04
522.38	435.34
522.55	437.68
522.72	418.96
522.89	414.27
523.07	463.43
523.24	428.32
523.41	421.30
523.58	325.33
523.75	433.00
523.92	360.44
524.10	430.66
524.27	465.77
524.44	430.66
524.61	454.06
524.78	454.06
524.96	484.49
525.13	428.32
525.30	430.66
525.47	449.38
525.64	454.06
525.81	425.98
525.98	381.51
526.16	390.87
526.33	358.10
526.50	372.15
526.67	395.55
526.84	423.64
527.01	390.87
527.18	433.00
527.36	423.64
527.53	388.53
527.70	447.04
527.87	353.42
528.04	409.59
528.21	414.27
528.38	379.17
528.55	383.85
528.72	402.57
528.89	463.43
529.07	451.72
529.24	374.49
529.41	463.43
529.58	433.00
529.75	463.43
529.92	456.40
530.09	414.27
530.26	400.23
530.43	449.38
530.60	388.53
530.77	339.38
530.94	402.57
531.11	489.17
531.28	465.77
531.46	440.02
531.63	430.66
531.80	423.64
531.97	442.36
532.14	409.59
532.31	482.15
532.48	496.19
532.65	414.27
532.82	402.57
532.99	393.21
533.16	442.36
533.33	379.17
533.50	355.76
533.67	374.49
533.84	362.78
534.01	493.85
534.18	496.19
534.35	442.36
534.52	440.02
534.69	421.30
534.86	374.49
535.03	475.13
535.20	423.64
535.37	498.53
535.54	418.96
535.71	365.12
535.88	451.72
536.05	407.25
536.22	447.04
536.38	451.72
536.55	418.96
536.72	456.40
536.89	374.49
537.06	381.51
537.23	400.23
537.40	442.36
537.57	465.77
537.74	463.43
537.91	409.59
538.08	393.21
538.25	409.59
538.42	444.70
538.59	407.25
538.75	421.30
538.92	454.06
539.09	447.04
539.26	418.96
539.43	461.09
539.60	334.70
539.77	372.15
539.94	414.27
540.11	517.26
540.28	458.74
540.44	561.73
540.61	395.55
540.78	449.38
540.95	297.25
541.12	470.45
541.29	486.83
541.46	383.85
541.62	362.78
541.79	449.38
541.96	475.13
542.13	465.77
542.30	341.72
542.47	500.87
542.63	489.17
542.80	451.72
542.97	498.53
543.14	442.36
543.31	437.68
543.48	397.89
543.64	409.59
543.81	437.68
543.98	456.40
544.15	454.06
544.32	440.02
544.48	447.04
544.65	423.64
544.82	433.00
544.99	376.83
545.16	416.62
545.32	388.53
545.49	395.55
545.66	346.40
545.83	306.61
546.00	447.04
546.16	437.68
546.33	376.83
546.50	393.21
546.67	465.77
546.83	463.43
547.00	402.57
547.17	449.38
547.34	425.98
547.50	447.04
547.67	423.64
547.84	425.98
548.00	472.79
548.17	458.74
548.34	402.57
548.51	430.66
548.67	346.40
548.84	444.70
549.01	444.70
549.18	409.59
549.34	423.64
549.51	435.34
549.68	425.98
549.84	395.55
550.01	451.72
550.18	449.38
550.34	470.45
550.51	400.23
550.68	435.34
550.84	447.04
551.01	418.96
551.18	402.57
551.34	360.44
551.51	397.89
551.68	404.91
551.84	444.70
552.01	486.83
552.18	402.57
552.34	355.76
552.51	383.85
552.68	407.25
552.84	379.17
553.01	465.77
553.18	418.96
553.34	358.10
553.51	393.21
553.67	346.40
553.84	440.02
554.01	454.06
554.17	428.32
554.34	512.58
554.51	414.27
554.67	362.78
554.84	505.56
555.00	486.83
555.17	376.83
555.33	458.74
555.50	489.17
555.67	365.12
555.83	376.83
556.00	390.87
556.16	550.03
556.33	454.06
556.50	348.74
556.66	395.55
556.83	407.25
556.99	390.87
557.16	416.62
557.32	374.49
557.49	486.83
557.65	402.57
557.82	442.36
557.98	454.06
558.15	442.36
558.32	404.91
558.48	344.06
558.65	461.09
558.81	449.38
558.98	414.27
559.14	498.53
559.31	416.62
559.47	404.91
559.64	353.42
559.80	440.02
559.97	454.06
560.13	423.64
560.30	390.87
560.46	444.70
560.63	404.91
560.79	451.72
560.96	402.57
561.12	390.87
561.29	468.11
561.45	418.96
561.61	425.98
561.78	463.43
561.94	386.19
562.11	414.27
562.27	428.32
562.44	283.20
562.60	379.17
562.77	470.45
562.93	564.07
563.10	451.72
563.26	416.62
563.42	486.83
563.59	416.62
563.75	479.81
563.92	407.25
564.08	433.00
564.24	433.00
564.41	489.17
564.57	386.19
564.74	484.49
564.90	400.23
565.07	409.59
565.23	451.72
565.39	355.76
565.56	402.57
565.72	402.57
565.88	383.85
566.05	451.72
566.21	393.21
566.38	440.02
566.54	456.40
566.70	402.57
566.87	444.70
567.03	388.53
567.19	416.62
567.36	330.02
567.52	362.78
567.68	381.51
567.85	444.70
568.01	381.51
568.17	411.93
568.34	407.25
568.50	454.06
568.66	430.66
568.83	463.43
568.99	430.66
569.15	386.19
569.32	475.13
569.48	437.68
569.64	388.53
569.81	397.89
569.97	341.72
570.13	433.00
570.30	411.93
570.46	423.64
570.62	491.51
570.78	414.27
570.95	416.62
571.11	418.96
571.27	470.45
571.43	397.89
571.60	498.53
571.76	402.57
571.92	397.89
572.09	437.68
572.25	428.32
572.41	402.57
572.57	351.08
572.74	503.22
572.90	500.87
573.06	468.11
573.22	416.62
573.38	507.90
573.55	447.04
573.71	397.89
573.87	435.34
574.03	386.19
574.20	440.02
574.36	435.34
574.52	379.17
574.68	444.70
574.84	409.59
575.01	435.34
575.17	428.32
575.33	388.53
575.49	395.55
575.65	498.53
575.82	418.96
575.98	409.59
576.14	435.34
576.30	482.15
576.46	440.02
576.62	430.66
576.79	411.93
576.95	451.72
577.11	451.72
577.27	390.87
577.43	454.06
577.59	496.19
577.75	456.40
577.92	402.57
578.08	409.59
578.24	435.34
578.40	435.34
578.56	433.00
578.72	524.28
578.88	386.19
579.04	365.12
579.21	383.85
579.37	372.15
579.53	381.51
579.69	433.00
579.85	381.51
580.01	416.62
580.17	449.38
580.33	442.36
580.49	353.42
580.65	430.66
580.82	414.27
580.98	416.62
581.14	484.49
581.30	510.24
581.46	449.38
581.62	414.27
581.78	447.04
581.94	433.00
582.10	440.02
582.26	418.96
582.42	400.23
582.58	409.59
582.74	348.74
582.90	423.64
583.06	414.27
583.22	493.85
583.38	484.49
583.54	449.38
583.70	425.98
583.86	418.96
584.02	498.53
584.18	470.45
584.34	423.64
584.50	444.70
584.66	390.87
584.82	404.91
584.98	430.66
585.14	402.57
585.30	430.66
585.46	411.93
585.62	472.79
585.78	475.13
585.94	444.70
586.10	400.23
586.26	428.32
586.42	498.53
586.58	447.04
586.74	456.40
586.90	397.89
587.06	418.96
587.22	470.45
587.38	397.89
587.54	433.00
587.70	393.21
587.86	468.11
588.02	416.62
588.18	451.72
588.34	430.66
588.49	493.85
588.65	404.91
588.81	416.62
588.97	402.57
589.13	341.72
589.29	365.12
589.45	493.85
589.61	465.77
589.77	454.06
589.93	456.40
590.08	374.49
590.24	395.55
590.40	421.30
590.56	388.53
590.72	381.51
590.88	388.53
591.04	449.38
591.20	414.27
591.35	433.00
591.51	404.91
591.67	360.44
591.83	428.32
591.99	393.21
592.15	383.85
592.31	421.30
592.46	407.25
592.62	477.47
592.78	456.40
592.94	442.36
593.10	388.53
593.26	379.17
593.41	463.43
593.57	454.06
593.73	383.85
593.89	393.21
594.05	407.25
594.20	376.83
594.36	400.23
594.52	334.70
594.68	444.70
594.84	397.89
594.99	409.59
595.15	418.96
595.31	435.34
595.47	475.13
595.62	470.45
595.78	334.70
595.94	463.43
596.10	381.51
596.25	381.51
596.41	433.00
596.57	386.19
596.73	355.76
596.88	423.64
597.04	365.12
597.20	407.25
597.36	437.68
597.51	411.93
597.67	397.89
597.83	409.59
597.99	404.91
598.14	503.22
598.30	437.68
598.46	425.98
598.61	416.62
598.77	428.32
598.93	381.51
599.09	397.89
599.24	414.27
599.40	393.21
599.56	414.27
599.71	383.85
599.87	395.55
600.03	470.45
600.18	416.62
600.34	388.53
600.50	327.68
600.65	421.30
600.81	430.66
600.97	414.27
601.12	395.55
601.28	360.44
601.44	435.34
601.59	397.89
601.75	407.25
601.91	393.21
602.06	369.80
602.22	496.19
602.37	414.27
602.53	367.46
602.69	421.30
602.84	409.59
603.00	442.36
603.16	442.36
603.31	400.23
603.47	454.06
603.62	376.83
603.78	418.96
603.94	435.34
604.09	430.66
604.25	423.64
604.40	416.62
604.56	411.93
604.71	404.91
604.87	362.78
605.03	423.64
605.18	367.46
605.34	428.32
605.49	358.10
605.65	440.02
605.80	449.38
605.96	442.36
606.12	383.85
606.27	442.36
606.43	393.21
606.58	461.09
606.74	463.43
606.89	451.72
607.05	454.06
607.20	437.68
607.36	404.91
607.51	458.74
607.67	390.87
607.82	433.00
607.98	470.45
608.13	425.98
608.29	442.36
608.44	451.72
608.60	442.36
608.75	404.91
608.91	451.72
609.06	404.91
609.22	416.62
609.37	393.21
609.53	344.06
609.68	390.87
609.84	337.04
609.99	437.68
610.15	468.11
