SpectraSuite Data File
++++++++++++++++++++++++++++++++++++
Date: Fri Oct 25 12:11:44 EDT 2013
User: price-jones
Dark Spectrum Present: No
Reference Spectrum Present: No
Number of Sampled Component Spectra: 1
Spectrometers: USB2+H05261
Integration Time (usec): 100000 (USB2+H05261)
Spectra Averaged: 1 (USB2+H05261)
Boxcar Smoothing: 0 (USB2+H05261)
Correct for Electrical Dark: No (USB2+H05261)
Strobe/Lamp Enabled: No (USB2+H05261)
Correct for Detector Non-linearity: No (USB2+H05261)
Correct for Stray Light: No (USB2+H05261)
Number of Pixels in Processed Spectrum: 2048
>>>>>Begin Processed Spectral Data<<<<<
365.73	372.15
365.92	372.15
366.12	372.15
366.32	287.89
366.52	245.76
366.72	238.73
366.91	227.03
367.11	220.01
367.31	215.33
367.51	285.55
367.70	257.46
367.90	266.82
368.10	173.20
368.30	184.90
368.49	283.20
368.69	259.80
368.89	271.50
369.09	276.18
369.28	264.48
369.48	299.59
369.68	351.08
369.87	346.40
370.07	243.42
370.27	315.97
370.47	418.96
370.66	287.89
370.86	339.38
371.06	365.12
371.25	388.53
371.45	372.15
371.65	297.25
371.84	339.38
372.04	320.65
372.24	435.34
372.44	355.76
372.63	369.80
372.83	341.72
373.03	447.04
373.22	414.27
373.42	444.70
373.62	461.09
373.81	383.85
374.01	430.66
374.21	489.17
374.40	372.15
374.60	456.40
374.79	386.19
374.99	456.40
375.19	491.51
375.38	395.55
375.58	374.49
375.78	414.27
375.97	416.62
376.17	472.79
376.37	374.49
376.56	395.55
376.76	409.59
376.95	440.02
377.15	430.66
377.35	397.89
377.54	418.96
377.74	489.17
377.93	393.21
378.13	313.63
378.33	428.32
378.52	395.55
378.72	409.59
378.91	393.21
379.11	418.96
379.31	355.76
379.50	397.89
379.70	454.06
379.89	484.49
380.09	397.89
380.28	428.32
380.48	433.00
380.68	423.64
380.87	341.72
381.07	365.12
381.26	414.27
381.46	449.38
381.65	388.53
381.85	348.74
382.04	421.30
382.24	442.36
382.43	409.59
382.63	440.02
382.83	395.55
383.02	402.57
383.22	468.11
383.41	402.57
383.61	423.64
383.80	447.04
384.00	442.36
384.19	376.83
384.39	381.51
384.58	409.59
384.78	376.83
384.97	360.44
385.17	435.34
385.36	465.77
385.56	397.89
385.75	369.80
385.95	395.55
386.14	447.04
386.34	454.06
386.53	353.42
386.72	449.38
386.92	433.00
387.11	428.32
387.31	433.00
387.50	425.98
387.70	379.17
387.89	404.91
388.09	376.83
388.28	381.51
388.48	425.98
388.67	402.57
388.86	423.64
389.06	339.38
389.25	411.93
389.45	388.53
389.64	402.57
389.84	458.74
390.03	362.78
390.22	437.68
390.42	390.87
390.61	400.23
390.81	390.87
391.00	414.27
391.19	435.34
391.39	430.66
391.58	383.85
391.78	400.23
391.97	395.55
392.16	407.25
392.36	489.17
392.55	463.43
392.75	444.70
392.94	428.32
393.13	428.32
393.33	381.51
393.52	472.79
393.71	472.79
393.91	472.79
394.10	418.96
394.29	365.12
394.49	320.65
394.68	395.55
394.88	444.70
395.07	456.40
395.26	411.93
395.46	397.89
395.65	444.70
395.84	435.34
396.04	390.87
396.23	418.96
396.42	416.62
396.62	440.02
396.81	428.32
397.00	332.36
397.19	414.27
397.39	416.62
397.58	383.85
397.77	447.04
397.97	463.43
398.16	367.46
398.35	461.09
398.55	416.62
398.74	355.76
398.93	416.62
399.12	437.68
399.32	348.74
399.51	458.74
399.70	330.02
399.90	407.25
400.09	475.13
400.28	461.09
400.47	388.53
400.67	397.89
400.86	381.51
401.05	414.27
401.24	440.02
401.44	395.55
401.63	395.55
401.82	397.89
402.01	386.19
402.21	402.57
402.40	409.59
402.59	404.91
402.78	344.06
402.97	430.66
403.17	425.98
403.36	440.02
403.55	414.27
403.74	383.85
403.93	428.32
404.13	388.53
404.32	374.49
404.51	418.96
404.70	376.83
404.89	486.83
405.09	437.68
405.28	444.70
405.47	388.53
405.66	428.32
405.85	428.32
406.05	433.00
406.24	440.02
406.43	372.15
406.62	418.96
406.81	479.81
407.00	482.15
407.20	444.70
407.39	400.23
407.58	400.23
407.77	390.87
407.96	404.91
408.15	404.91
408.34	465.77
408.54	423.64
408.73	463.43
408.92	400.23
409.11	423.64
409.30	454.06
409.49	407.25
409.68	416.62
409.87	500.87
410.07	383.85
410.26	372.15
410.45	388.53
410.64	327.68
410.83	374.49
411.02	404.91
411.21	383.85
411.40	444.70
411.59	440.02
411.78	437.68
411.98	468.11
412.17	348.74
412.36	409.59
412.55	416.62
412.74	512.58
412.93	489.17
413.12	386.19
413.31	428.32
413.50	388.53
413.69	395.55
413.88	421.30
414.07	341.72
414.26	435.34
414.45	407.25
414.64	435.34
414.83	414.27
415.02	400.23
415.22	407.25
415.41	400.23
415.60	374.49
415.79	330.02
415.98	463.43
416.17	440.02
416.36	386.19
416.55	437.68
416.74	376.83
416.93	414.27
417.12	458.74
417.31	456.40
417.50	411.93
417.69	484.49
417.88	395.55
418.07	383.85
418.26	416.62
418.45	428.32
418.64	383.85
418.83	397.89
419.02	379.17
419.21	447.04
419.39	388.53
419.58	362.78
419.77	397.89
419.96	477.47
420.15	458.74
420.34	433.00
420.53	386.19
420.72	428.32
420.91	454.06
421.10	461.09
421.29	383.85
421.48	379.17
421.67	479.81
421.86	388.53
422.05	404.91
422.24	475.13
422.43	425.98
422.61	461.09
422.80	376.83
422.99	409.59
423.18	423.64
423.37	477.47
423.56	383.85
423.75	421.30
423.94	355.76
424.13	416.62
424.32	444.70
424.50	402.57
424.69	437.68
424.88	402.57
425.07	327.68
425.26	440.02
425.45	440.02
425.64	444.70
425.83	390.87
426.01	355.76
426.20	407.25
426.39	365.12
426.58	447.04
426.77	451.72
426.96	374.49
427.15	416.62
427.33	358.10
427.52	376.83
427.71	437.68
427.90	491.51
428.09	376.83
428.28	440.02
428.46	402.57
428.65	416.62
428.84	423.64
429.03	425.98
429.22	360.44
429.40	376.83
429.59	390.87
429.78	454.06
429.97	411.93
430.16	458.74
430.34	397.89
430.53	470.45
430.72	390.87
430.91	383.85
431.10	402.57
431.28	397.89
431.47	496.19
431.66	367.46
431.85	402.57
432.03	407.25
432.22	547.69
432.41	440.02
432.60	512.58
432.79	491.51
432.97	447.04
433.16	407.25
433.35	339.38
433.54	332.36
433.72	418.96
433.91	404.91
434.10	355.76
434.28	449.38
434.47	400.23
434.66	400.23
434.85	390.87
435.03	355.76
435.22	477.47
435.41	454.06
435.59	433.00
435.78	395.55
435.97	369.80
436.16	472.79
436.34	437.68
436.53	393.21
436.72	447.04
436.90	402.57
437.09	416.62
437.28	451.72
437.46	454.06
437.65	416.62
437.84	433.00
438.02	409.59
438.21	477.47
438.40	428.32
438.58	348.74
438.77	461.09
438.96	433.00
439.14	449.38
439.33	404.91
439.52	451.72
439.70	407.25
439.89	465.77
440.08	447.04
440.26	409.59
440.45	444.70
440.63	454.06
440.82	418.96
441.01	440.02
441.19	423.64
441.38	449.38
441.57	449.38
441.75	482.15
441.94	468.11
442.12	442.36
442.31	421.30
442.50	409.59
442.68	435.34
442.87	472.79
443.05	447.04
443.24	430.66
443.43	430.66
443.61	451.72
443.80	400.23
443.98	442.36
444.17	447.04
444.35	390.87
444.54	367.46
444.73	461.09
444.91	458.74
445.10	465.77
445.28	390.87
445.47	397.89
445.65	449.38
445.84	414.27
446.02	414.27
446.21	393.21
446.39	423.64
446.58	433.00
446.77	524.28
446.95	397.89
447.14	456.40
447.32	433.00
447.51	433.00
447.69	376.83
447.88	386.19
448.06	407.25
448.25	449.38
448.43	416.62
448.62	348.74
448.80	458.74
448.99	435.34
449.17	339.38
449.36	397.89
449.54	407.25
449.73	390.87
449.91	390.87
450.10	383.85
450.28	463.43
450.46	376.83
450.65	416.62
450.83	444.70
451.02	423.64
451.20	496.19
451.39	407.25
451.57	402.57
451.76	397.89
451.94	383.85
452.13	395.55
452.31	423.64
452.49	451.72
452.68	430.66
452.86	376.83
453.05	477.47
453.23	461.09
453.42	386.19
453.60	386.19
453.78	456.40
453.97	414.27
454.15	458.74
454.34	346.40
454.52	404.91
454.70	414.27
454.89	388.53
455.07	358.10
455.26	454.06
455.44	409.59
455.62	507.90
455.81	411.93
455.99	397.89
456.17	388.53
456.36	374.49
456.54	376.83
456.73	433.00
456.91	344.06
457.09	372.15
457.28	395.55
457.46	411.93
457.64	470.45
457.83	414.27
458.01	374.49
458.19	433.00
458.38	386.19
458.56	404.91
458.74	440.02
458.93	404.91
459.11	482.15
459.29	376.83
459.48	451.72
459.66	461.09
459.84	386.19
460.03	463.43
460.21	381.51
460.39	430.66
460.57	411.93
460.76	397.89
460.94	463.43
461.12	388.53
461.31	433.00
461.49	433.00
461.67	360.44
461.85	379.17
462.04	374.49
462.22	702.16
462.40	433.00
462.59	374.49
462.77	451.72
462.95	449.38
463.13	414.27
463.32	440.02
463.50	404.91
463.68	470.45
463.86	379.17
464.05	425.98
464.23	400.23
464.41	374.49
464.59	313.63
464.78	421.30
464.96	402.57
465.14	437.68
465.32	454.06
465.50	421.30
465.69	400.23
465.87	435.34
466.05	433.00
466.23	374.49
466.41	390.87
466.60	454.06
466.78	440.02
466.96	475.13
467.14	390.87
467.32	423.64
467.51	379.17
467.69	444.70
467.87	383.85
468.05	411.93
468.23	411.93
468.41	451.72
468.60	402.57
468.78	369.80
468.96	435.34
469.14	372.15
469.32	395.55
469.50	381.51
469.69	451.72
469.87	442.36
470.05	402.57
470.23	454.06
470.41	418.96
470.59	404.91
470.77	421.30
470.95	397.89
471.14	428.32
471.32	472.79
471.50	475.13
471.68	383.85
471.86	430.66
472.04	365.12
472.22	416.62
472.40	428.32
472.58	365.12
472.77	425.98
472.95	400.23
473.13	355.76
473.31	430.66
473.49	400.23
473.67	344.06
473.85	404.91
474.03	365.12
474.21	456.40
474.39	435.34
474.57	479.81
474.75	475.13
474.93	386.19
475.12	372.15
475.30	390.87
475.48	454.06
475.66	421.30
475.84	360.44
476.02	353.42
476.20	454.06
476.38	388.53
476.56	442.36
476.74	376.83
476.92	411.93
477.10	355.76
477.28	411.93
477.46	428.32
477.64	430.66
477.82	454.06
478.00	409.59
478.18	400.23
478.36	355.76
478.54	404.91
478.72	435.34
478.90	372.15
479.08	351.08
479.26	409.59
479.44	404.91
479.62	395.55
479.80	465.77
479.98	423.64
480.16	421.30
480.34	444.70
480.52	461.09
480.70	418.96
480.88	435.34
481.06	407.25
481.24	393.21
481.41	498.53
481.59	372.15
481.77	451.72
481.95	425.98
482.13	400.23
482.31	430.66
482.49	395.55
482.67	407.25
482.85	458.74
483.03	362.78
483.21	435.34
483.39	409.59
483.57	416.62
483.74	423.64
483.92	409.59
484.10	409.59
484.28	468.11
484.46	425.98
484.64	337.04
484.82	397.89
485.00	388.53
485.18	388.53
485.35	400.23
485.53	362.78
485.71	491.51
485.89	430.66
486.07	367.46
486.25	393.21
486.43	440.02
486.61	430.66
486.78	411.93
486.96	409.59
487.14	414.27
487.32	390.87
487.50	423.64
487.68	454.06
487.85	440.02
488.03	484.49
488.21	463.43
488.39	414.27
488.57	423.64
488.75	407.25
488.92	540.66
489.10	337.04
489.28	442.36
489.46	388.53
489.64	425.98
489.81	416.62
489.99	411.93
490.17	397.89
490.35	500.87
490.53	458.74
490.70	393.21
490.88	447.04
491.06	421.30
491.24	435.34
491.41	449.38
491.59	454.06
491.77	402.57
491.95	472.79
492.13	421.30
492.30	538.32
492.48	472.79
492.66	425.98
492.84	353.42
493.01	442.36
493.19	451.72
493.37	454.06
493.54	493.85
493.72	423.64
493.90	428.32
494.08	400.23
494.25	411.93
494.43	388.53
494.61	407.25
494.79	390.87
494.96	435.34
495.14	346.40
495.32	381.51
495.49	404.91
495.67	496.19
495.85	337.04
496.02	397.89
496.20	425.98
496.38	397.89
496.55	454.06
496.73	425.98
496.91	362.78
497.09	358.10
497.26	337.04
497.44	383.85
497.62	397.89
497.79	477.47
497.97	428.32
498.14	430.66
498.32	440.02
498.50	388.53
498.67	367.46
498.85	486.83
499.03	435.34
499.20	360.44
499.38	454.06
499.56	465.77
499.73	461.09
499.91	475.13
500.08	397.89
500.26	397.89
500.44	440.02
500.61	393.21
500.79	425.98
500.97	465.77
501.14	437.68
501.32	386.19
501.49	465.77
501.67	414.27
501.84	428.32
502.02	402.57
502.20	491.51
502.37	411.93
502.55	395.55
502.72	451.72
502.90	393.21
503.07	388.53
503.25	486.83
503.43	442.36
503.60	470.45
503.78	395.55
503.95	339.38
504.13	397.89
504.30	447.04
504.48	465.77
504.65	458.74
504.83	458.74
505.01	400.23
505.18	416.62
505.36	390.87
505.53	388.53
505.71	437.68
505.88	470.45
506.06	379.17
506.23	393.21
506.41	322.99
506.58	482.15
506.76	437.68
506.93	468.11
507.11	430.66
507.28	395.55
507.46	428.32
507.63	322.99
507.81	461.09
507.98	383.85
508.16	407.25
508.33	423.64
508.50	456.40
508.68	379.17
508.85	393.21
509.03	423.64
509.20	421.30
509.38	470.45
509.55	421.30
509.73	472.79
509.90	447.04
510.08	381.51
510.25	435.34
510.42	428.32
510.60	414.27
510.77	339.38
510.95	437.68
511.12	358.10
511.30	482.15
511.47	435.34
511.64	470.45
511.82	442.36
511.99	372.15
512.17	393.21
512.34	437.68
512.51	360.44
512.69	423.64
512.86	407.25
513.04	409.59
513.21	444.70
513.38	433.00
513.56	402.57
513.73	400.23
513.90	383.85
514.08	435.34
514.25	517.26
514.43	411.93
514.60	402.57
514.77	493.85
514.95	409.59
515.12	358.10
515.29	475.13
515.47	395.55
515.64	423.64
515.81	463.43
515.99	442.36
516.16	454.06
516.33	449.38
516.51	430.66
516.68	386.19
516.85	437.68
517.03	428.32
517.20	475.13
517.37	393.21
517.54	355.76
517.72	332.36
517.89	388.53
518.06	360.44
518.24	433.00
518.41	395.55
518.58	379.17
518.75	388.53
518.93	440.02
519.10	386.19
519.27	372.15
519.45	489.17
519.62	423.64
519.79	418.96
519.96	400.23
520.14	423.64
520.31	437.68
520.48	437.68
520.65	376.83
520.83	407.25
521.00	374.49
521.17	451.72
521.34	332.36
521.52	442.36
521.69	477.47
521.86	440.02
522.03	418.96
522.20	503.22
522.38	381.51
522.55	423.64
522.72	390.87
522.89	414.27
523.07	425.98
523.24	360.44
523.41	367.46
523.58	468.11
523.75	454.06
523.92	437.68
524.10	407.25
524.27	428.32
524.44	425.98
524.61	379.17
524.78	430.66
524.96	470.45
525.13	379.17
525.30	430.66
525.47	414.27
525.64	414.27
525.81	484.49
525.98	362.78
526.16	369.80
526.33	421.30
526.50	379.17
526.67	451.72
526.84	418.96
527.01	425.98
527.18	376.83
527.36	430.66
527.53	381.51
527.70	468.11
527.87	400.23
528.04	400.23
528.21	440.02
528.38	477.47
528.55	479.81
528.72	416.62
528.89	433.00
529.07	477.47
529.24	383.85
529.41	454.06
529.58	397.89
529.75	362.78
529.92	407.25
530.09	374.49
530.26	447.04
530.43	421.30
530.60	451.72
530.77	458.74
530.94	437.68
531.11	440.02
531.28	437.68
531.46	414.27
531.63	372.15
531.80	416.62
531.97	479.81
532.14	407.25
532.31	409.59
532.48	416.62
532.65	390.87
532.82	461.09
532.99	379.17
533.16	409.59
533.33	470.45
533.50	430.66
533.67	362.78
533.84	430.66
534.01	334.70
534.18	379.17
534.35	468.11
534.52	374.49
534.69	414.27
534.86	425.98
535.03	451.72
535.20	440.02
535.37	383.85
535.54	393.21
535.71	468.11
535.88	381.51
536.05	411.93
536.22	421.30
536.38	428.32
536.55	397.89
536.72	374.49
536.89	423.64
537.06	475.13
537.23	451.72
537.40	428.32
537.57	397.89
537.74	418.96
537.91	416.62
538.08	411.93
538.25	435.34
538.42	383.85
538.59	447.04
538.75	477.47
538.92	404.91
539.09	444.70
539.26	386.19
539.43	465.77
539.60	386.19
539.77	397.89
539.94	358.10
540.11	454.06
540.28	369.80
540.44	479.81
540.61	461.09
540.78	461.09
540.95	461.09
541.12	400.23
541.29	425.98
541.46	430.66
541.62	423.64
541.79	418.96
541.96	447.04
542.13	397.89
542.30	339.38
542.47	428.32
542.63	461.09
542.80	440.02
542.97	456.40
543.14	428.32
543.31	360.44
543.48	369.80
543.64	437.68
543.81	428.32
543.98	379.17
544.15	454.06
544.32	402.57
544.48	440.02
544.65	465.77
544.82	430.66
544.99	372.15
545.16	433.00
545.32	435.34
545.49	393.21
545.66	440.02
545.83	381.51
546.00	425.98
546.16	442.36
546.33	454.06
546.50	456.40
546.67	507.90
546.83	418.96
547.00	381.51
547.17	379.17
547.34	397.89
547.50	372.15
547.67	437.68
547.84	362.78
548.00	379.17
548.17	383.85
548.34	428.32
548.51	430.66
548.67	425.98
548.84	465.77
549.01	402.57
549.18	404.91
549.34	465.77
549.51	449.38
549.68	475.13
549.84	418.96
550.01	376.83
550.18	449.38
550.34	407.25
550.51	400.23
550.68	409.59
550.84	447.04
551.01	379.17
551.18	463.43
551.34	440.02
551.51	393.21
551.68	416.62
551.84	479.81
552.01	454.06
552.18	433.00
552.34	458.74
552.51	411.93
552.68	428.32
552.84	367.46
553.01	409.59
553.18	423.64
553.34	440.02
553.51	435.34
553.67	421.30
553.84	470.45
554.01	482.15
554.17	425.98
554.34	409.59
554.51	447.04
554.67	442.36
554.84	442.36
555.00	425.98
555.17	428.32
555.33	390.87
555.50	418.96
555.67	451.72
555.83	379.17
556.00	393.21
556.16	554.71
556.33	451.72
556.50	409.59
556.66	423.64
556.83	430.66
556.99	475.13
557.16	386.19
557.32	440.02
557.49	376.83
557.65	346.40
557.82	407.25
557.98	395.55
558.15	437.68
558.32	376.83
558.48	482.15
558.65	425.98
558.81	397.89
558.98	447.04
559.14	440.02
559.31	379.17
559.47	437.68
559.64	374.49
559.80	369.80
559.97	418.96
560.13	393.21
560.30	418.96
560.46	397.89
560.63	428.32
560.79	365.12
560.96	402.57
561.12	447.04
561.29	435.34
561.45	418.96
561.61	437.68
561.78	433.00
561.94	447.04
562.11	416.62
562.27	423.64
562.44	372.15
562.60	451.72
562.77	339.38
562.93	477.47
563.10	404.91
563.26	428.32
563.42	397.89
563.59	470.45
563.75	440.02
563.92	395.55
564.08	440.02
564.24	468.11
564.41	362.78
564.57	397.89
564.74	428.32
564.90	369.80
565.07	484.49
565.23	397.89
565.39	369.80
565.56	376.83
565.72	440.02
565.88	430.66
566.05	433.00
566.21	362.78
566.38	418.96
566.54	383.85
566.70	402.57
566.87	428.32
567.03	449.38
567.19	353.42
567.36	428.32
567.52	400.23
567.68	404.91
567.85	479.81
568.01	472.79
568.17	425.98
568.34	444.70
568.50	397.89
568.66	414.27
568.83	477.47
568.99	397.89
569.15	425.98
569.32	500.87
569.48	425.98
569.64	435.34
569.81	479.81
569.97	433.00
570.13	449.38
570.30	407.25
570.46	402.57
570.62	435.34
570.78	433.00
570.95	411.93
571.11	379.17
571.27	507.90
571.43	402.57
571.60	411.93
571.76	395.55
571.92	430.66
572.09	379.17
572.25	414.27
572.41	358.10
572.57	395.55
572.74	442.36
572.90	435.34
573.06	514.92
573.22	433.00
573.38	428.32
573.55	454.06
573.71	440.02
573.87	468.11
574.03	393.21
574.20	365.12
574.36	456.40
574.52	449.38
574.68	421.30
574.84	339.38
575.01	440.02
575.17	451.72
575.33	400.23
575.49	503.22
575.65	454.06
575.82	416.62
575.98	411.93
576.14	374.49
576.30	402.57
576.46	435.34
576.62	437.68
576.79	369.80
576.95	433.00
577.11	437.68
577.27	383.85
577.43	444.70
577.59	411.93
577.75	449.38
577.92	430.66
578.08	411.93
578.24	400.23
578.40	425.98
578.56	425.98
578.72	507.90
578.88	461.09
579.04	444.70
579.21	383.85
579.37	383.85
579.53	411.93
579.69	409.59
579.85	425.98
580.01	358.10
580.17	433.00
580.33	418.96
580.49	437.68
580.65	388.53
580.82	456.40
580.98	402.57
581.14	442.36
581.30	479.81
581.46	395.55
581.62	437.68
581.78	390.87
581.94	395.55
582.10	344.06
582.26	421.30
582.42	400.23
582.58	437.68
582.74	444.70
582.90	449.38
583.06	418.96
583.22	423.64
583.38	360.44
583.54	402.57
583.70	510.24
583.86	407.25
584.02	454.06
584.18	477.47
584.34	407.25
584.50	440.02
584.66	369.80
584.82	463.43
584.98	372.15
585.14	425.98
585.30	486.83
585.46	379.17
585.62	411.93
585.78	442.36
585.94	421.30
586.10	482.15
586.26	458.74
586.42	470.45
586.58	337.04
586.74	390.87
586.90	393.21
587.06	475.13
587.22	444.70
587.38	376.83
587.54	461.09
587.70	395.55
587.86	437.68
588.02	379.17
588.18	465.77
588.34	437.68
588.49	353.42
588.65	507.90
588.81	344.06
588.97	334.70
589.13	402.57
589.29	407.25
589.45	428.32
589.61	435.34
589.77	489.17
589.93	430.66
590.08	425.98
590.24	402.57
590.40	397.89
590.56	428.32
590.72	407.25
590.88	414.27
591.04	449.38
591.20	393.21
591.35	423.64
591.51	451.72
591.67	414.27
591.83	395.55
591.99	414.27
592.15	442.36
592.31	376.83
592.46	411.93
592.62	369.80
592.78	440.02
592.94	320.65
593.10	386.19
593.26	416.62
593.41	425.98
593.57	365.12
593.73	388.53
593.89	407.25
594.05	383.85
594.20	472.79
594.36	458.74
594.52	425.98
594.68	397.89
594.84	437.68
594.99	463.43
595.15	477.47
595.31	437.68
595.47	479.81
595.62	381.51
595.78	402.57
595.94	428.32
596.10	402.57
596.25	390.87
596.41	407.25
596.57	444.70
596.73	397.89
596.88	409.59
597.04	386.19
597.20	409.59
597.36	435.34
597.51	381.51
597.67	407.25
597.83	381.51
597.99	400.23
598.14	400.23
598.30	409.59
598.46	437.68
598.61	400.23
598.77	454.06
598.93	447.04
599.09	411.93
599.24	442.36
599.40	477.47
599.56	416.62
599.71	444.70
599.87	402.57
600.03	411.93
600.18	395.55
600.34	411.93
600.50	482.15
600.65	353.42
600.81	425.98
600.97	355.76
601.12	379.17
601.28	372.15
601.44	442.36
601.59	374.49
601.75	351.08
601.91	430.66
602.06	428.32
602.22	484.49
602.37	456.40
602.53	409.59
602.69	393.21
602.84	355.76
603.00	400.23
603.16	484.49
603.31	428.32
603.47	423.64
603.62	351.08
603.78	404.91
603.94	383.85
604.09	400.23
604.25	440.02
604.40	442.36
604.56	475.13
604.71	395.55
604.87	353.42
605.03	358.10
605.18	458.74
605.34	477.47
605.49	423.64
605.65	397.89
605.80	428.32
605.96	428.32
606.12	372.15
606.27	411.93
606.43	402.57
606.58	437.68
606.74	442.36
606.89	407.25
607.05	358.10
607.20	421.30
607.36	444.70
607.51	376.83
607.67	360.44
607.82	428.32
607.98	482.15
608.13	451.72
608.29	386.19
608.44	468.11
608.60	463.43
608.75	433.00
608.91	421.30
609.06	437.68
609.22	437.68
609.37	374.49
609.53	454.06
609.68	376.83
609.84	425.98
609.99	374.49
610.15	458.74
