SpectraSuite Data File
++++++++++++++++++++++++++++++++++++
Date: Fri Oct 25 12:11:40 EDT 2013
User: price-jones
Dark Spectrum Present: No
Reference Spectrum Present: No
Number of Sampled Component Spectra: 1
Spectrometers: USB2+H05261
Integration Time (usec): 100000 (USB2+H05261)
Spectra Averaged: 1 (USB2+H05261)
Boxcar Smoothing: 0 (USB2+H05261)
Correct for Electrical Dark: No (USB2+H05261)
Strobe/Lamp Enabled: No (USB2+H05261)
Correct for Detector Non-linearity: No (USB2+H05261)
Correct for Stray Light: No (USB2+H05261)
Number of Pixels in Processed Spectrum: 2048
>>>>>Begin Processed Spectral Data<<<<<
365.73	353.42
365.92	353.42
366.12	353.42
366.32	248.10
366.52	259.80
366.72	255.12
366.91	271.50
367.11	220.01
367.31	252.78
367.51	243.42
367.70	259.80
367.90	212.99
368.10	234.05
368.30	294.91
368.49	203.63
368.69	236.39
368.89	315.97
369.09	276.18
369.28	308.95
369.48	231.71
369.68	266.82
369.87	301.93
370.07	269.16
370.27	262.14
370.47	308.95
370.66	355.76
370.86	339.38
371.06	348.74
371.25	395.55
371.45	409.59
371.65	407.25
371.84	421.30
372.04	421.30
372.24	425.98
372.44	411.93
372.63	477.47
372.83	397.89
373.03	430.66
373.22	433.00
373.42	416.62
373.62	397.89
373.81	393.21
374.01	418.96
374.21	367.46
374.40	372.15
374.60	423.64
374.79	449.38
374.99	414.27
375.19	400.23
375.38	454.06
375.58	423.64
375.78	444.70
375.97	423.64
376.17	437.68
376.37	447.04
376.56	437.68
376.76	400.23
376.95	421.30
377.15	437.68
377.35	390.87
377.54	386.19
377.74	430.66
377.93	428.32
378.13	444.70
378.33	484.49
378.52	425.98
378.72	418.96
378.91	440.02
379.11	449.38
379.31	407.25
379.50	423.64
379.70	440.02
379.89	428.32
380.09	416.62
380.28	402.57
380.48	486.83
380.68	297.25
380.87	376.83
381.07	372.15
381.26	442.36
381.46	395.55
381.65	381.51
381.85	355.76
382.04	374.49
382.24	423.64
382.43	337.04
382.63	390.87
382.83	360.44
383.02	402.57
383.22	397.89
383.41	383.85
383.61	379.17
383.80	423.64
384.00	435.34
384.19	386.19
384.39	449.38
384.58	414.27
384.78	442.36
384.97	390.87
385.17	381.51
385.36	416.62
385.56	397.89
385.75	386.19
385.95	442.36
386.14	440.02
386.34	358.10
386.53	437.68
386.72	381.51
386.92	545.34
387.11	465.77
387.31	390.87
387.50	315.97
387.70	379.17
387.89	472.79
388.09	362.78
388.28	435.34
388.48	374.49
388.67	416.62
388.86	468.11
389.06	348.74
389.25	390.87
389.45	379.17
389.64	383.85
389.84	440.02
390.03	418.96
390.22	372.15
390.42	425.98
390.61	428.32
390.81	393.21
391.00	365.12
391.19	409.59
391.39	318.31
391.58	400.23
391.78	414.27
391.97	407.25
392.16	383.85
392.36	437.68
392.55	430.66
392.75	421.30
392.94	393.21
393.13	407.25
393.33	425.98
393.52	444.70
393.71	484.49
393.91	390.87
394.10	433.00
394.29	397.89
394.49	388.53
394.68	425.98
394.88	454.06
395.07	402.57
395.26	463.43
395.46	381.51
395.65	411.93
395.84	447.04
396.04	564.07
396.23	479.81
396.42	365.12
396.62	433.00
396.81	355.76
397.00	395.55
397.19	409.59
397.39	348.74
397.58	397.89
397.77	421.30
397.97	416.62
398.16	444.70
398.35	409.59
398.55	491.51
398.74	433.00
398.93	397.89
399.12	444.70
399.32	425.98
399.51	400.23
399.70	449.38
399.90	397.89
400.09	416.62
400.28	423.64
400.47	486.83
400.67	463.43
400.86	409.59
401.05	388.53
401.24	437.68
401.44	344.06
401.63	433.00
401.82	404.91
402.01	400.23
402.21	353.42
402.40	362.78
402.59	374.49
402.78	400.23
402.97	388.53
403.17	334.70
403.36	334.70
403.55	369.80
403.74	383.85
403.93	407.25
404.13	449.38
404.32	372.15
404.51	444.70
404.70	484.49
404.89	397.89
405.09	475.13
405.28	397.89
405.47	383.85
405.66	383.85
405.85	449.38
406.05	442.36
406.24	454.06
406.43	409.59
406.62	423.64
406.81	407.25
407.00	458.74
407.20	456.40
407.39	416.62
407.58	325.33
407.77	383.85
407.96	423.64
408.15	468.11
408.34	433.00
408.54	390.87
408.73	390.87
408.92	407.25
409.11	423.64
409.30	465.77
409.49	416.62
409.68	421.30
409.87	418.96
410.07	390.87
410.26	458.74
410.45	330.02
410.64	428.32
410.83	414.27
411.02	390.87
411.21	330.02
411.40	411.93
411.59	437.68
411.78	395.55
411.98	442.36
412.17	341.72
412.36	477.47
412.55	425.98
412.74	388.53
412.93	461.09
413.12	437.68
413.31	418.96
413.50	440.02
413.69	454.06
413.88	390.87
414.07	344.06
414.26	360.44
414.45	425.98
414.64	423.64
414.83	484.49
415.02	470.45
415.22	400.23
415.41	390.87
415.60	397.89
415.79	362.78
415.98	440.02
416.17	425.98
416.36	301.93
416.55	451.72
416.74	383.85
416.93	493.85
417.12	397.89
417.31	472.79
417.50	461.09
417.69	458.74
417.88	465.77
418.07	421.30
418.26	423.64
418.45	360.44
418.64	416.62
418.83	404.91
419.02	416.62
419.21	397.89
419.39	374.49
419.58	372.15
419.77	404.91
419.96	386.19
420.15	425.98
420.34	393.21
420.53	383.85
420.72	470.45
420.91	400.23
421.10	458.74
421.29	353.42
421.48	440.02
421.67	449.38
421.86	397.89
422.05	414.27
422.24	395.55
422.43	404.91
422.61	425.98
422.80	374.49
422.99	437.68
423.18	388.53
423.37	430.66
423.56	477.47
423.75	372.15
423.94	414.27
424.13	421.30
424.32	358.10
424.50	414.27
424.69	386.19
424.88	437.68
425.07	442.36
425.26	482.15
425.45	451.72
425.64	444.70
425.83	313.63
426.01	390.87
426.20	470.45
426.39	465.77
426.58	393.21
426.77	425.98
426.96	479.81
427.15	433.00
427.33	337.04
427.52	330.02
427.71	379.17
427.90	386.19
428.09	414.27
428.28	411.93
428.46	447.04
428.65	374.49
428.84	395.55
429.03	421.30
429.22	437.68
429.40	376.83
429.59	390.87
429.78	404.91
429.97	402.57
430.16	376.83
430.34	358.10
430.53	402.57
430.72	381.51
430.91	435.34
431.10	381.51
431.28	451.72
431.47	411.93
431.66	411.93
431.85	355.76
432.03	442.36
432.22	454.06
432.41	404.91
432.60	479.81
432.79	411.93
432.97	447.04
433.16	358.10
433.35	440.02
433.54	444.70
433.72	468.11
433.91	395.55
434.10	327.68
434.28	397.89
434.47	362.78
434.66	388.53
434.85	367.46
435.03	437.68
435.22	376.83
435.41	409.59
435.59	379.17
435.78	388.53
435.97	421.30
436.16	456.40
436.34	409.59
436.53	454.06
436.72	411.93
436.90	470.45
437.09	390.87
437.28	425.98
437.46	393.21
437.65	379.17
437.84	463.43
438.02	374.49
438.21	430.66
438.40	402.57
438.58	411.93
438.77	416.62
438.96	423.64
439.14	365.12
439.33	400.23
439.52	484.49
439.70	496.19
439.89	430.66
440.08	409.59
440.26	325.33
440.45	393.21
440.63	376.83
440.82	430.66
441.01	458.74
441.19	407.25
441.38	425.98
441.57	472.79
441.75	416.62
441.94	442.36
442.12	442.36
442.31	425.98
442.50	390.87
442.68	362.78
442.87	365.12
443.05	367.46
443.24	393.21
443.43	428.32
443.61	433.00
443.80	381.51
443.98	423.64
444.17	440.02
444.35	454.06
444.54	442.36
444.73	418.96
444.91	510.24
445.10	454.06
445.28	360.44
445.47	449.38
445.65	397.89
445.84	337.04
446.02	433.00
446.21	423.64
446.39	374.49
446.58	418.96
446.77	362.78
446.95	425.98
447.14	421.30
447.32	472.79
447.51	421.30
447.69	411.93
447.88	435.34
448.06	395.55
448.25	461.09
448.43	407.25
448.62	407.25
448.80	339.38
448.99	505.56
449.17	348.74
449.36	374.49
449.54	362.78
449.73	388.53
449.91	442.36
450.10	400.23
450.28	475.13
450.46	430.66
450.65	440.02
450.83	353.42
451.02	440.02
451.20	428.32
451.39	437.68
451.57	463.43
451.76	442.36
451.94	409.59
452.13	383.85
452.31	489.17
452.49	435.34
452.68	430.66
452.86	463.43
453.05	454.06
453.23	386.19
453.42	458.74
453.60	367.46
453.78	388.53
453.97	376.83
454.15	416.62
454.34	407.25
454.52	365.12
454.70	348.74
454.89	339.38
455.07	449.38
455.26	411.93
455.44	472.79
455.62	468.11
455.81	437.68
455.99	418.96
456.17	423.64
456.36	444.70
456.54	454.06
456.73	397.89
456.91	374.49
457.09	355.76
457.28	418.96
457.46	428.32
457.64	416.62
457.83	440.02
458.01	435.34
458.19	458.74
458.38	390.87
458.56	440.02
458.74	320.65
458.93	440.02
459.11	451.72
459.29	395.55
459.48	477.47
459.66	416.62
459.84	465.77
460.03	493.85
460.21	388.53
460.39	355.76
460.57	421.30
460.76	491.51
460.94	440.02
461.12	418.96
461.31	418.96
461.49	400.23
461.67	477.47
461.85	407.25
462.04	404.91
462.22	683.44
462.40	428.32
462.59	428.32
462.77	411.93
462.95	444.70
463.13	402.57
463.32	407.25
463.50	416.62
463.68	362.78
463.86	421.30
464.05	451.72
464.23	397.89
464.41	456.40
464.59	433.00
464.78	358.10
464.96	367.46
465.14	402.57
465.32	301.93
465.50	416.62
465.69	440.02
465.87	463.43
466.05	425.98
466.23	433.00
466.41	463.43
466.60	423.64
466.78	330.02
466.96	435.34
467.14	421.30
467.32	470.45
467.51	409.59
467.69	421.30
467.87	365.12
468.05	447.04
468.23	454.06
468.41	437.68
468.60	376.83
468.78	397.89
468.96	440.02
469.14	372.15
469.32	315.97
469.50	393.21
469.69	416.62
469.87	451.72
470.05	428.32
470.23	454.06
470.41	482.15
470.59	409.59
470.77	411.93
470.95	433.00
471.14	411.93
471.32	393.21
471.50	402.57
471.68	395.55
471.86	390.87
472.04	402.57
472.22	414.27
472.40	428.32
472.58	346.40
472.77	458.74
472.95	437.68
473.13	451.72
473.31	411.93
473.49	425.98
473.67	397.89
473.85	468.11
474.03	397.89
474.21	454.06
474.39	503.22
474.57	404.91
474.75	451.72
474.93	507.90
475.12	447.04
475.30	407.25
475.48	423.64
475.66	414.27
475.84	425.98
476.02	475.13
476.20	416.62
476.38	486.83
476.56	489.17
476.74	433.00
476.92	423.64
477.10	355.76
477.28	400.23
477.46	425.98
477.64	435.34
477.82	484.49
478.00	414.27
478.18	425.98
478.36	451.72
478.54	437.68
478.72	411.93
478.90	411.93
479.08	472.79
479.26	416.62
479.44	353.42
479.62	409.59
479.80	444.70
479.98	416.62
480.16	411.93
480.34	395.55
480.52	346.40
480.70	362.78
480.88	402.57
481.06	411.93
481.24	451.72
481.41	458.74
481.59	407.25
481.77	400.23
481.95	376.83
482.13	442.36
482.31	407.25
482.49	437.68
482.67	430.66
482.85	430.66
483.03	400.23
483.21	367.46
483.39	428.32
483.57	416.62
483.74	496.19
483.92	409.59
484.10	367.46
484.28	449.38
484.46	411.93
484.64	428.32
484.82	449.38
485.00	402.57
485.18	367.46
485.35	428.32
485.53	482.15
485.71	407.25
485.89	418.96
486.07	444.70
486.25	472.79
486.43	433.00
486.61	477.47
486.78	411.93
486.96	416.62
487.14	411.93
487.32	402.57
487.50	451.72
487.68	337.04
487.85	402.57
488.03	428.32
488.21	451.72
488.39	404.91
488.57	472.79
488.75	447.04
488.92	482.15
489.10	414.27
489.28	418.96
489.46	397.89
489.64	468.11
489.81	425.98
489.99	411.93
490.17	411.93
490.35	491.51
490.53	404.91
490.70	365.12
490.88	416.62
491.06	407.25
491.24	430.66
491.41	416.62
491.59	407.25
491.77	358.10
491.95	400.23
492.13	416.62
492.30	390.87
492.48	409.59
492.66	437.68
492.84	353.42
493.01	386.19
493.19	416.62
493.37	404.91
493.54	456.40
493.72	411.93
493.90	421.30
494.08	430.66
494.25	409.59
494.43	416.62
494.61	421.30
494.79	369.80
494.96	449.38
495.14	447.04
495.32	447.04
495.49	437.68
495.67	437.68
495.85	404.91
496.02	390.87
496.20	418.96
496.38	437.68
496.55	442.36
496.73	449.38
496.91	388.53
497.09	479.81
497.26	458.74
497.44	367.46
497.62	402.57
497.79	360.44
497.97	379.17
498.14	472.79
498.32	386.19
498.50	461.09
498.67	451.72
498.85	383.85
499.03	423.64
499.20	416.62
499.38	517.26
499.56	369.80
499.73	423.64
499.91	320.65
500.08	414.27
500.26	367.46
500.44	383.85
500.61	416.62
500.79	428.32
500.97	421.30
501.14	425.98
501.32	409.59
501.49	400.23
501.67	397.89
501.84	397.89
502.02	367.46
502.20	470.45
502.37	423.64
502.55	404.91
502.72	418.96
502.90	409.59
503.07	397.89
503.25	416.62
503.43	334.70
503.60	425.98
503.78	440.02
503.95	409.59
504.13	425.98
504.30	386.19
504.48	388.53
504.65	449.38
504.83	486.83
505.01	444.70
505.18	313.63
505.36	367.46
505.53	444.70
505.71	430.66
505.88	435.34
506.06	362.78
506.23	477.47
506.41	435.34
506.58	395.55
506.76	341.72
506.93	376.83
507.11	409.59
507.28	425.98
507.46	416.62
507.63	463.43
507.81	444.70
507.98	430.66
508.16	425.98
508.33	430.66
508.50	418.96
508.68	423.64
508.85	423.64
509.03	428.32
509.20	447.04
509.38	430.66
509.55	521.94
509.73	440.02
509.90	470.45
510.08	456.40
510.25	360.44
510.42	416.62
510.60	463.43
510.77	489.17
510.95	500.87
511.12	461.09
511.30	421.30
511.47	500.87
511.64	433.00
511.82	388.53
511.99	411.93
512.17	360.44
512.34	425.98
512.51	456.40
512.69	351.08
512.86	416.62
513.04	423.64
513.21	435.34
513.38	358.10
513.56	456.40
513.73	428.32
513.90	376.83
514.08	416.62
514.25	411.93
514.43	416.62
514.60	393.21
514.77	440.02
514.95	411.93
515.12	393.21
515.29	416.62
515.47	409.59
515.64	442.36
515.81	402.57
515.99	454.06
516.16	400.23
516.33	404.91
516.51	491.51
516.68	440.02
516.85	402.57
517.03	311.29
517.20	416.62
517.37	428.32
517.54	404.91
517.72	472.79
517.89	444.70
518.06	444.70
518.24	440.02
518.41	472.79
518.58	489.17
518.75	388.53
518.93	461.09
519.10	444.70
519.27	435.34
519.45	418.96
519.62	330.02
519.79	425.98
519.96	358.10
520.14	463.43
520.31	444.70
520.48	397.89
520.65	447.04
520.83	454.06
521.00	482.15
521.17	376.83
521.34	414.27
521.52	479.81
521.69	362.78
521.86	416.62
522.03	402.57
522.20	425.98
522.38	456.40
522.55	409.59
522.72	451.72
522.89	468.11
523.07	442.36
523.24	433.00
523.41	322.99
523.58	397.89
523.75	421.30
523.92	465.77
524.10	430.66
524.27	458.74
524.44	414.27
524.61	397.89
524.78	416.62
524.96	423.64
525.13	397.89
525.30	400.23
525.47	407.25
525.64	416.62
525.81	386.19
525.98	407.25
526.16	425.98
526.33	465.77
526.50	362.78
526.67	383.85
526.84	297.25
527.01	421.30
527.18	358.10
527.36	421.30
527.53	362.78
527.70	435.34
527.87	428.32
528.04	449.38
528.21	395.55
528.38	393.21
528.55	437.68
528.72	437.68
528.89	472.79
529.07	500.87
529.24	482.15
529.41	414.27
529.58	449.38
529.75	430.66
529.92	411.93
530.09	416.62
530.26	418.96
530.43	430.66
530.60	348.74
530.77	411.93
530.94	451.72
531.11	381.51
531.28	423.64
531.46	430.66
531.63	433.00
531.80	482.15
531.97	470.45
532.14	447.04
532.31	428.32
532.48	414.27
532.65	397.89
532.82	433.00
532.99	390.87
533.16	409.59
533.33	372.15
533.50	416.62
533.67	393.21
533.84	421.30
534.01	365.12
534.18	454.06
534.35	421.30
534.52	444.70
534.69	449.38
534.86	418.96
535.03	379.17
535.20	416.62
535.37	468.11
535.54	400.23
535.71	393.21
535.88	440.02
536.05	348.74
536.22	409.59
536.38	339.38
536.55	397.89
536.72	416.62
536.89	409.59
537.06	393.21
537.23	390.87
537.40	440.02
537.57	418.96
537.74	362.78
537.91	421.30
538.08	425.98
538.25	437.68
538.42	404.91
538.59	411.93
538.75	428.32
538.92	421.30
539.09	486.83
539.26	442.36
539.43	451.72
539.60	465.77
539.77	388.53
539.94	430.66
540.11	407.25
540.28	435.34
540.44	423.64
540.61	425.98
540.78	320.65
540.95	411.93
541.12	425.98
541.29	425.98
541.46	440.02
541.62	430.66
541.79	465.77
541.96	402.57
542.13	458.74
542.30	409.59
542.47	423.64
542.63	388.53
542.80	367.46
542.97	486.83
543.14	346.40
543.31	447.04
543.48	444.70
543.64	465.77
543.81	369.80
543.98	388.53
544.15	362.78
544.32	444.70
544.48	428.32
544.65	397.89
544.82	388.53
544.99	400.23
545.16	367.46
545.32	416.62
545.49	395.55
545.66	477.47
545.83	414.27
546.00	458.74
546.16	451.72
546.33	346.40
546.50	489.17
546.67	454.06
546.83	407.25
547.00	402.57
547.17	393.21
547.34	407.25
547.50	400.23
547.67	465.77
547.84	454.06
548.00	477.47
548.17	442.36
548.34	379.17
548.51	435.34
548.67	479.81
548.84	505.56
549.01	425.98
549.18	386.19
549.34	404.91
549.51	407.25
549.68	444.70
549.84	395.55
550.01	402.57
550.18	493.85
550.34	433.00
550.51	449.38
550.68	395.55
550.84	447.04
551.01	353.42
551.18	407.25
551.34	458.74
551.51	435.34
551.68	320.65
551.84	496.19
552.01	402.57
552.18	376.83
552.34	423.64
552.51	454.06
552.68	421.30
552.84	458.74
553.01	491.51
553.18	470.45
553.34	346.40
553.51	379.17
553.67	355.76
553.84	390.87
554.01	407.25
554.17	397.89
554.34	383.85
554.51	409.59
554.67	395.55
554.84	383.85
555.00	358.10
555.17	397.89
555.33	402.57
555.50	482.15
555.67	486.83
555.83	374.49
556.00	416.62
556.16	538.32
556.33	454.06
556.50	400.23
556.66	383.85
556.83	390.87
556.99	390.87
557.16	428.32
557.32	390.87
557.49	379.17
557.65	390.87
557.82	430.66
557.98	421.30
558.15	383.85
558.32	456.40
558.48	409.59
558.65	440.02
558.81	517.26
558.98	397.89
559.14	444.70
559.31	447.04
559.47	454.06
559.64	482.15
559.80	447.04
559.97	435.34
560.13	421.30
560.30	372.15
560.46	447.04
560.63	351.08
560.79	449.38
560.96	407.25
561.12	463.43
561.29	428.32
561.45	444.70
561.61	365.12
561.78	500.87
561.94	449.38
562.11	404.91
562.27	435.34
562.44	367.46
562.60	479.81
562.77	437.68
562.93	454.06
563.10	383.85
563.26	390.87
563.42	458.74
563.59	521.94
563.75	451.72
563.92	416.62
564.08	388.53
564.24	456.40
564.41	512.58
564.57	402.57
564.74	416.62
564.90	456.40
565.07	479.81
565.23	393.21
565.39	442.36
565.56	472.79
565.72	430.66
565.88	416.62
566.05	435.34
566.21	449.38
566.38	400.23
566.54	411.93
566.70	362.78
566.87	395.55
567.03	381.51
567.19	386.19
567.36	507.90
567.52	472.79
567.68	428.32
567.85	400.23
568.01	388.53
568.17	365.12
568.34	374.49
568.50	423.64
568.66	433.00
568.83	547.69
568.99	435.34
569.15	404.91
569.32	355.76
569.48	472.79
569.64	428.32
569.81	395.55
569.97	393.21
570.13	465.77
570.30	379.17
570.46	379.17
570.62	444.70
570.78	428.32
570.95	388.53
571.11	409.59
571.27	454.06
571.43	390.87
571.60	360.44
571.76	379.17
571.92	388.53
572.09	442.36
572.25	440.02
572.41	463.43
572.57	414.27
572.74	468.11
572.90	421.30
573.06	458.74
573.22	409.59
573.38	472.79
573.55	423.64
573.71	423.64
573.87	512.58
574.03	372.15
574.20	414.27
574.36	423.64
574.52	468.11
574.68	362.78
574.84	383.85
575.01	418.96
575.17	388.53
575.33	425.98
575.49	435.34
575.65	468.11
575.82	503.22
575.98	505.56
576.14	461.09
576.30	425.98
576.46	423.64
576.62	433.00
576.79	395.55
576.95	447.04
577.11	484.49
577.27	468.11
577.43	400.23
577.59	482.15
577.75	416.62
577.92	440.02
578.08	372.15
578.24	484.49
578.40	365.12
578.56	425.98
578.72	425.98
578.88	454.06
579.04	397.89
579.21	430.66
579.37	397.89
579.53	381.51
579.69	400.23
579.85	313.63
580.01	383.85
580.17	379.17
580.33	435.34
580.49	435.34
580.65	470.45
580.82	491.51
580.98	451.72
581.14	428.32
581.30	454.06
581.46	444.70
581.62	447.04
581.78	381.51
581.94	362.78
582.10	379.17
582.26	447.04
582.42	442.36
582.58	456.40
582.74	414.27
582.90	437.68
583.06	395.55
583.22	365.12
583.38	404.91
583.54	327.68
583.70	463.43
583.86	369.80
584.02	386.19
584.18	461.09
584.34	388.53
584.50	463.43
584.66	407.25
584.82	372.15
584.98	409.59
585.14	411.93
585.30	442.36
585.46	411.93
585.62	362.78
585.78	482.15
585.94	454.06
586.10	411.93
586.26	442.36
586.42	475.13
586.58	400.23
586.74	388.53
586.90	461.09
587.06	404.91
587.22	402.57
587.38	381.51
587.54	411.93
587.70	454.06
587.86	395.55
588.02	423.64
588.18	468.11
588.34	442.36
588.49	351.08
588.65	367.46
588.81	454.06
588.97	404.91
589.13	428.32
589.29	421.30
589.45	512.58
589.61	416.62
589.77	503.22
589.93	458.74
590.08	383.85
590.24	425.98
590.40	365.12
590.56	339.38
590.72	395.55
590.88	355.76
591.04	423.64
591.20	393.21
591.35	449.38
591.51	416.62
591.67	407.25
591.83	423.64
591.99	444.70
592.15	433.00
592.31	430.66
592.46	400.23
592.62	430.66
592.78	479.81
592.94	407.25
593.10	325.33
593.26	423.64
593.41	393.21
593.57	397.89
593.73	449.38
593.89	437.68
594.05	418.96
594.20	409.59
594.36	454.06
594.52	425.98
594.68	411.93
594.84	472.79
594.99	407.25
595.15	437.68
595.31	430.66
595.47	463.43
595.62	404.91
595.78	414.27
595.94	386.19
596.10	465.77
596.25	393.21
596.41	379.17
596.57	430.66
596.73	404.91
596.88	358.10
597.04	374.49
597.20	388.53
597.36	430.66
597.51	421.30
597.67	451.72
597.83	402.57
597.99	486.83
598.14	421.30
598.30	489.17
598.46	402.57
598.61	428.32
598.77	341.72
598.93	428.32
599.09	433.00
599.24	484.49
599.40	369.80
599.56	355.76
599.71	360.44
599.87	414.27
600.03	425.98
600.18	442.36
600.34	397.89
600.50	404.91
600.65	393.21
600.81	430.66
600.97	400.23
601.12	381.51
601.28	379.17
601.44	447.04
601.59	430.66
601.75	482.15
601.91	369.80
602.06	461.09
602.22	468.11
602.37	465.77
602.53	425.98
602.69	386.19
602.84	430.66
603.00	358.10
603.16	397.89
603.31	425.98
603.47	414.27
603.62	344.06
603.78	411.93
603.94	423.64
604.09	430.66
604.25	416.62
604.40	421.30
604.56	444.70
604.71	444.70
604.87	463.43
605.03	416.62
605.18	402.57
605.34	463.43
605.49	440.02
605.65	423.64
605.80	376.83
605.96	397.89
606.12	440.02
606.27	425.98
606.43	442.36
606.58	409.59
606.74	435.34
606.89	484.49
607.05	372.15
607.20	454.06
607.36	433.00
607.51	437.68
607.67	374.49
607.82	369.80
607.98	421.30
608.13	395.55
608.29	451.72
608.44	430.66
608.60	449.38
608.75	468.11
608.91	454.06
609.06	482.15
609.22	498.53
609.37	418.96
609.53	402.57
609.68	437.68
609.84	381.51
609.99	416.62
610.15	367.46
