SpectraSuite Data File
++++++++++++++++++++++++++++++++++++
Date: Fri Oct 25 12:10:15 EDT 2013
User: price-jones
Dark Spectrum Present: No
Reference Spectrum Present: No
Number of Sampled Component Spectra: 1
Spectrometers: USB2+H05261
Integration Time (usec): 100000 (USB2+H05261)
Spectra Averaged: 1 (USB2+H05261)
Boxcar Smoothing: 0 (USB2+H05261)
Correct for Electrical Dark: No (USB2+H05261)
Strobe/Lamp Enabled: No (USB2+H05261)
Correct for Detector Non-linearity: No (USB2+H05261)
Correct for Stray Light: No (USB2+H05261)
Number of Pixels in Processed Spectrum: 2048
>>>>>Begin Processed Spectral Data<<<<<
365.73	325.33
365.92	325.33
366.12	325.33
366.32	285.55
366.52	196.60
366.72	276.18
366.91	222.35
367.11	212.99
367.31	266.82
367.51	203.63
367.70	229.37
367.90	203.63
368.10	215.33
368.30	250.44
368.49	201.29
368.69	266.82
368.89	273.84
369.09	236.39
369.28	259.80
369.48	255.12
369.68	318.31
369.87	243.42
370.07	212.99
370.27	273.84
370.47	278.52
370.66	351.08
370.86	351.08
371.06	425.98
371.25	341.72
371.45	360.44
371.65	386.19
371.84	351.08
372.04	381.51
372.24	447.04
372.44	315.97
372.63	362.78
372.83	404.91
373.03	388.53
373.22	454.06
373.42	470.45
373.62	456.40
373.81	407.25
374.01	484.49
374.21	393.21
374.40	404.91
374.60	535.98
374.79	465.77
374.99	383.85
375.19	376.83
375.38	451.72
375.58	409.59
375.78	449.38
375.97	402.57
376.17	395.55
376.37	437.68
376.56	425.98
376.76	311.29
376.95	388.53
377.15	428.32
377.35	388.53
377.54	470.45
377.74	468.11
377.93	388.53
378.13	479.81
378.33	400.23
378.52	395.55
378.72	449.38
378.91	425.98
379.11	395.55
379.31	390.87
379.50	390.87
379.70	374.49
379.89	423.64
380.09	416.62
380.28	320.65
380.48	418.96
380.68	369.80
380.87	388.53
381.07	465.77
381.26	360.44
381.46	409.59
381.65	470.45
381.85	414.27
382.04	381.51
382.24	482.15
382.43	383.85
382.63	407.25
382.83	379.17
383.02	430.66
383.22	491.51
383.41	330.02
383.61	379.17
383.80	475.13
384.00	416.62
384.19	383.85
384.39	402.57
384.58	369.80
384.78	442.36
384.97	442.36
385.17	425.98
385.36	411.93
385.56	444.70
385.75	365.12
385.95	451.72
386.14	435.34
386.34	470.45
386.53	444.70
386.72	304.27
386.92	440.02
387.11	456.40
387.31	362.78
387.50	376.83
387.70	376.83
387.89	332.36
388.09	339.38
388.28	337.04
388.48	416.62
388.67	433.00
388.86	409.59
389.06	423.64
389.25	479.81
389.45	407.25
389.64	407.25
389.84	376.83
390.03	383.85
390.22	411.93
390.42	390.87
390.61	346.40
390.81	376.83
391.00	376.83
391.19	393.21
391.39	418.96
391.58	414.27
391.78	393.21
391.97	444.70
392.16	414.27
392.36	447.04
392.55	451.72
392.75	416.62
392.94	379.17
393.13	444.70
393.33	416.62
393.52	388.53
393.71	402.57
393.91	367.46
394.10	367.46
394.29	369.80
394.49	437.68
394.68	477.47
394.88	421.30
395.07	430.66
395.26	353.42
395.46	411.93
395.65	353.42
395.84	437.68
396.04	411.93
396.23	479.81
396.42	397.89
396.62	339.38
396.81	346.40
397.00	437.68
397.19	397.89
397.39	390.87
397.58	465.77
397.77	365.12
397.97	344.06
398.16	402.57
398.35	423.64
398.55	489.17
398.74	407.25
398.93	449.38
399.12	360.44
399.32	393.21
399.51	376.83
399.70	451.72
399.90	465.77
400.09	475.13
400.28	381.51
400.47	416.62
400.67	470.45
400.86	372.15
401.05	418.96
401.24	411.93
401.44	435.34
401.63	449.38
401.82	444.70
402.01	402.57
402.21	486.83
402.40	486.83
402.59	416.62
402.78	407.25
402.97	409.59
403.17	404.91
403.36	397.89
403.55	414.27
403.74	362.78
403.93	372.15
404.13	477.47
404.32	423.64
404.51	393.21
404.70	465.77
404.89	440.02
405.09	428.32
405.28	397.89
405.47	411.93
405.66	393.21
405.85	388.53
406.05	435.34
406.24	306.61
406.43	395.55
406.62	416.62
406.81	400.23
407.00	407.25
407.20	430.66
407.39	461.09
407.58	386.19
407.77	404.91
407.96	407.25
408.15	397.89
408.34	407.25
408.54	407.25
408.73	428.32
408.92	416.62
409.11	397.89
409.30	477.47
409.49	414.27
409.68	386.19
409.87	330.02
410.07	451.72
410.26	430.66
410.45	411.93
410.64	358.10
410.83	395.55
411.02	388.53
411.21	435.34
411.40	475.13
411.59	428.32
411.78	383.85
411.98	454.06
412.17	376.83
412.36	428.32
412.55	365.12
412.74	433.00
412.93	407.25
413.12	414.27
413.31	479.81
413.50	383.85
413.69	374.49
413.88	454.06
414.07	409.59
414.26	332.36
414.45	425.98
414.64	428.32
414.83	374.49
415.02	353.42
415.22	437.68
415.41	456.40
415.60	418.96
415.79	400.23
415.98	463.43
416.17	430.66
416.36	411.93
416.55	458.74
416.74	472.79
416.93	351.08
417.12	472.79
417.31	388.53
417.50	433.00
417.69	423.64
417.88	409.59
418.07	372.15
418.26	416.62
418.45	362.78
418.64	442.36
418.83	479.81
419.02	442.36
419.21	381.51
419.39	311.29
419.58	421.30
419.77	404.91
419.96	407.25
420.15	435.34
420.34	437.68
420.53	360.44
420.72	407.25
420.91	341.72
421.10	351.08
421.29	489.17
421.48	400.23
421.67	327.68
421.86	449.38
422.05	404.91
422.24	416.62
422.43	390.87
422.61	428.32
422.80	477.47
422.99	425.98
423.18	440.02
423.37	414.27
423.56	435.34
423.75	376.83
423.94	358.10
424.13	358.10
424.32	414.27
424.50	430.66
424.69	358.10
424.88	348.74
425.07	404.91
425.26	461.09
425.45	407.25
425.64	411.93
425.83	496.19
426.01	409.59
426.20	418.96
426.39	437.68
426.58	390.87
426.77	425.98
426.96	449.38
427.15	358.10
427.33	374.49
427.52	337.04
427.71	379.17
427.90	351.08
428.09	425.98
428.28	416.62
428.46	400.23
428.65	428.32
428.84	437.68
429.03	486.83
429.22	411.93
429.40	456.40
429.59	461.09
429.78	388.53
429.97	386.19
430.16	407.25
430.34	416.62
430.53	425.98
430.72	346.40
430.91	386.19
431.10	322.99
431.28	437.68
431.47	472.79
431.66	482.15
431.85	344.06
432.03	430.66
432.22	425.98
432.41	470.45
432.60	465.77
432.79	416.62
432.97	465.77
433.16	355.76
433.35	409.59
433.54	418.96
433.72	444.70
433.91	395.55
434.10	390.87
434.28	395.55
434.47	402.57
434.66	456.40
434.85	388.53
435.03	376.83
435.22	454.06
435.41	416.62
435.59	390.87
435.78	482.15
435.97	388.53
436.16	447.04
436.34	454.06
436.53	414.27
436.72	461.09
436.90	430.66
437.09	379.17
437.28	433.00
437.46	416.62
437.65	381.51
437.84	411.93
438.02	435.34
438.21	428.32
438.40	433.00
438.58	416.62
438.77	463.43
438.96	376.83
439.14	294.91
439.33	388.53
439.52	423.64
439.70	409.59
439.89	393.21
440.08	351.08
440.26	416.62
440.45	395.55
440.63	393.21
440.82	379.17
441.01	430.66
441.19	418.96
441.38	409.59
441.57	322.99
441.75	442.36
441.94	407.25
442.12	451.72
442.31	374.49
442.50	383.85
442.68	369.80
442.87	367.46
443.05	416.62
443.24	425.98
443.43	390.87
443.61	416.62
443.80	374.49
443.98	447.04
444.17	404.91
444.35	334.70
444.54	484.49
444.73	390.87
444.91	440.02
445.10	365.12
445.28	451.72
445.47	376.83
445.65	468.11
445.84	468.11
446.02	442.36
446.21	425.98
446.39	440.02
446.58	353.42
446.77	423.64
446.95	409.59
447.14	395.55
447.32	449.38
447.51	491.51
447.69	325.33
447.88	437.68
448.06	411.93
448.25	433.00
448.43	468.11
448.62	383.85
448.80	440.02
448.99	386.19
449.17	358.10
449.36	393.21
449.54	388.53
449.73	411.93
449.91	486.83
450.10	421.30
450.28	479.81
450.46	414.27
450.65	379.17
450.83	428.32
451.02	447.04
451.20	379.17
451.39	437.68
451.57	386.19
451.76	493.85
451.94	315.97
452.13	390.87
452.31	458.74
452.49	454.06
452.68	388.53
452.86	423.64
453.05	393.21
453.23	435.34
453.42	409.59
453.60	421.30
453.78	376.83
453.97	383.85
454.15	344.06
454.34	355.76
454.52	421.30
454.70	440.02
454.89	379.17
455.07	451.72
455.26	376.83
455.44	519.60
455.62	421.30
455.81	313.63
455.99	468.11
456.17	379.17
456.36	414.27
456.54	409.59
456.73	294.91
456.91	423.64
457.09	456.40
457.28	435.34
457.46	416.62
457.64	374.49
457.83	383.85
458.01	421.30
458.19	386.19
458.38	451.72
458.56	414.27
458.74	353.42
458.93	388.53
459.11	433.00
459.29	383.85
459.48	451.72
459.66	423.64
459.84	491.51
460.03	500.87
460.21	355.76
460.39	400.23
460.57	437.68
460.76	395.55
460.94	418.96
461.12	435.34
461.31	449.38
461.49	374.49
461.67	404.91
461.85	484.49
462.04	491.51
462.22	720.88
462.40	386.19
462.59	433.00
462.77	444.70
462.95	362.78
463.13	367.46
463.32	390.87
463.50	362.78
463.68	435.34
463.86	425.98
464.05	383.85
464.23	475.13
464.41	472.79
464.59	440.02
464.78	418.96
464.96	418.96
465.14	437.68
465.32	353.42
465.50	421.30
465.69	411.93
465.87	397.89
466.05	404.91
466.23	388.53
466.41	444.70
466.60	407.25
466.78	437.68
466.96	416.62
467.14	374.49
467.32	491.51
467.51	430.66
467.69	397.89
467.87	418.96
468.05	393.21
468.23	428.32
468.41	365.12
468.60	381.51
468.78	514.92
468.96	461.09
469.14	386.19
469.32	400.23
469.50	421.30
469.69	472.79
469.87	372.15
470.05	435.34
470.23	479.81
470.41	423.64
470.59	407.25
470.77	435.34
470.95	388.53
471.14	425.98
471.32	388.53
471.50	433.00
471.68	397.89
471.86	360.44
472.04	388.53
472.22	437.68
472.40	414.27
472.58	418.96
472.77	376.83
472.95	397.89
473.13	482.15
473.31	428.32
473.49	337.04
473.67	433.00
473.85	440.02
474.03	449.38
474.21	411.93
474.39	430.66
474.57	458.74
474.75	430.66
474.93	351.08
475.12	376.83
475.30	383.85
475.48	465.77
475.66	454.06
475.84	496.19
476.02	456.40
476.20	402.57
476.38	444.70
476.56	433.00
476.74	322.99
476.92	440.02
477.10	425.98
477.28	402.57
477.46	386.19
477.64	404.91
477.82	454.06
478.00	407.25
478.18	330.02
478.36	435.34
478.54	404.91
478.72	458.74
478.90	423.64
479.08	395.55
479.26	337.04
479.44	348.74
479.62	440.02
479.80	393.21
479.98	437.68
480.16	425.98
480.34	456.40
480.52	428.32
480.70	463.43
480.88	374.49
481.06	463.43
481.24	437.68
481.41	421.30
481.59	379.17
481.77	414.27
481.95	416.62
482.13	449.38
482.31	447.04
482.49	402.57
482.67	430.66
482.85	442.36
483.03	397.89
483.21	505.56
483.39	386.19
483.57	442.36
483.74	435.34
483.92	332.36
484.10	407.25
484.28	425.98
484.46	468.11
484.64	414.27
484.82	442.36
485.00	381.51
485.18	395.55
485.35	451.72
485.53	397.89
485.71	430.66
485.89	411.93
486.07	402.57
486.25	545.34
486.43	390.87
486.61	414.27
486.78	322.99
486.96	374.49
487.14	383.85
487.32	360.44
487.50	409.59
487.68	521.94
487.85	374.49
488.03	390.87
488.21	397.89
488.39	393.21
488.57	458.74
488.75	395.55
488.92	531.30
489.10	430.66
489.28	425.98
489.46	390.87
489.64	416.62
489.81	418.96
489.99	500.87
490.17	400.23
490.35	468.11
490.53	437.68
490.70	411.93
490.88	414.27
491.06	390.87
491.24	386.19
491.41	500.87
491.59	482.15
491.77	407.25
491.95	400.23
492.13	416.62
492.30	447.04
492.48	367.46
492.66	447.04
492.84	362.78
493.01	362.78
493.19	358.10
493.37	451.72
493.54	379.17
493.72	451.72
493.90	397.89
494.08	435.34
494.25	470.45
494.43	407.25
494.61	465.77
494.79	404.91
494.96	407.25
495.14	428.32
495.32	411.93
495.49	482.15
495.67	444.70
495.85	367.46
496.02	433.00
496.20	395.55
496.38	381.51
496.55	400.23
496.73	402.57
496.91	437.68
497.09	428.32
497.26	447.04
497.44	479.81
497.62	468.11
497.79	383.85
497.97	418.96
498.14	428.32
498.32	468.11
498.50	376.83
498.67	454.06
498.85	355.76
499.03	353.42
499.20	535.98
499.38	407.25
499.56	400.23
499.73	435.34
499.91	367.46
500.08	416.62
500.26	423.64
500.44	409.59
500.61	379.17
500.79	383.85
500.97	440.02
501.14	451.72
501.32	372.15
501.49	418.96
501.67	395.55
501.84	437.68
502.02	299.59
502.20	440.02
502.37	423.64
502.55	381.51
502.72	393.21
502.90	367.46
503.07	376.83
503.25	449.38
503.43	365.12
503.60	454.06
503.78	486.83
503.95	416.62
504.13	418.96
504.30	444.70
504.48	376.83
504.65	404.91
504.83	400.23
505.01	379.17
505.18	430.66
505.36	372.15
505.53	454.06
505.71	355.76
505.88	444.70
506.06	346.40
506.23	411.93
506.41	440.02
506.58	400.23
506.76	442.36
506.93	428.32
507.11	475.13
507.28	334.70
507.46	402.57
507.63	423.64
507.81	400.23
507.98	409.59
508.16	376.83
508.33	482.15
508.50	461.09
508.68	355.76
508.85	416.62
509.03	383.85
509.20	388.53
509.38	416.62
509.55	395.55
509.73	449.38
509.90	414.27
510.08	346.40
510.25	407.25
510.42	383.85
510.60	418.96
510.77	433.00
510.95	447.04
511.12	379.17
511.30	423.64
511.47	451.72
511.64	430.66
511.82	388.53
511.99	416.62
512.17	407.25
512.34	428.32
512.51	372.15
512.69	437.68
512.86	393.21
513.04	444.70
513.21	404.91
513.38	425.98
513.56	409.59
513.73	383.85
513.90	411.93
514.08	421.30
514.25	479.81
514.43	390.87
514.60	407.25
514.77	383.85
514.95	491.51
515.12	498.53
515.29	414.27
515.47	444.70
515.64	388.53
515.81	379.17
515.99	477.47
516.16	409.59
516.33	418.96
516.51	435.34
516.68	411.93
516.85	348.74
517.03	416.62
517.20	355.76
517.37	437.68
517.54	468.11
517.72	407.25
517.89	376.83
518.06	369.80
518.24	496.19
518.41	491.51
518.58	437.68
518.75	369.80
518.93	369.80
519.10	486.83
519.27	433.00
519.45	407.25
519.62	444.70
519.79	428.32
519.96	376.83
520.14	482.15
520.31	440.02
520.48	407.25
520.65	482.15
520.83	360.44
521.00	475.13
521.17	414.27
521.34	383.85
521.52	393.21
521.69	433.00
521.86	395.55
522.03	430.66
522.20	505.56
522.38	428.32
522.55	367.46
522.72	395.55
522.89	416.62
523.07	503.22
523.24	367.46
523.41	418.96
523.58	365.12
523.75	404.91
523.92	404.91
524.10	390.87
524.27	416.62
524.44	433.00
524.61	435.34
524.78	428.32
524.96	430.66
525.13	395.55
525.30	397.89
525.47	437.68
525.64	407.25
525.81	407.25
525.98	404.91
526.16	379.17
526.33	367.46
526.50	414.27
526.67	383.85
526.84	393.21
527.01	411.93
527.18	451.72
527.36	397.89
527.53	341.72
527.70	484.49
527.87	411.93
528.04	472.79
528.21	407.25
528.38	449.38
528.55	428.32
528.72	421.30
528.89	444.70
529.07	425.98
529.24	402.57
529.41	376.83
529.58	290.23
529.75	402.57
529.92	397.89
530.09	418.96
530.26	369.80
530.43	376.83
530.60	416.62
530.77	337.04
530.94	454.06
531.11	397.89
531.28	468.11
531.46	411.93
531.63	444.70
531.80	418.96
531.97	484.49
532.14	444.70
532.31	486.83
532.48	477.47
532.65	507.90
532.82	393.21
532.99	449.38
533.16	397.89
533.33	402.57
533.50	400.23
533.67	369.80
533.84	468.11
534.01	418.96
534.18	379.17
534.35	407.25
534.52	353.42
534.69	411.93
534.86	437.68
535.03	437.68
535.20	381.51
535.37	454.06
535.54	449.38
535.71	397.89
535.88	404.91
536.05	362.78
536.22	388.53
536.38	414.27
536.55	454.06
536.72	454.06
536.89	484.49
537.06	411.93
537.23	407.25
537.40	479.81
537.57	304.27
537.74	407.25
537.91	449.38
538.08	454.06
538.25	454.06
538.42	463.43
538.59	358.10
538.75	428.32
538.92	353.42
539.09	421.30
539.26	423.64
539.43	381.51
539.60	421.30
539.77	414.27
539.94	386.19
540.11	404.91
540.28	470.45
540.44	397.89
540.61	416.62
540.78	451.72
540.95	430.66
541.12	489.17
541.29	423.64
541.46	456.40
541.62	491.51
541.79	404.91
541.96	428.32
542.13	351.08
542.30	423.64
542.47	444.70
542.63	395.55
542.80	458.74
542.97	461.09
543.14	517.26
543.31	456.40
543.48	355.76
543.64	353.42
543.81	402.57
543.98	470.45
544.15	400.23
544.32	423.64
544.48	435.34
544.65	435.34
544.82	383.85
544.99	423.64
545.16	407.25
545.32	430.66
545.49	444.70
545.66	430.66
545.83	374.49
546.00	421.30
546.16	433.00
546.33	444.70
546.50	376.83
546.67	390.87
546.83	372.15
547.00	416.62
547.17	456.40
547.34	493.85
547.50	461.09
547.67	353.42
547.84	454.06
548.00	451.72
548.17	451.72
548.34	430.66
548.51	348.74
548.67	390.87
548.84	393.21
549.01	440.02
549.18	458.74
549.34	386.19
549.51	374.49
549.68	475.13
549.84	416.62
550.01	397.89
550.18	503.22
550.34	463.43
550.51	402.57
550.68	475.13
550.84	461.09
551.01	409.59
551.18	367.46
551.34	458.74
551.51	416.62
551.68	379.17
551.84	435.34
552.01	456.40
552.18	355.76
552.34	449.38
552.51	454.06
552.68	472.79
552.84	437.68
553.01	498.53
553.18	477.47
553.34	461.09
553.51	407.25
553.67	454.06
553.84	444.70
554.01	376.83
554.17	379.17
554.34	425.98
554.51	372.15
554.67	414.27
554.84	395.55
555.00	400.23
555.17	416.62
555.33	510.24
555.50	411.93
555.67	430.66
555.83	409.59
556.00	447.04
556.16	557.05
556.33	468.11
556.50	430.66
556.66	454.06
556.83	418.96
556.99	451.72
557.16	381.51
557.32	395.55
557.49	433.00
557.65	421.30
557.82	407.25
557.98	358.10
558.15	397.89
558.32	362.78
558.48	374.49
558.65	360.44
558.81	435.34
558.98	360.44
559.14	442.36
559.31	407.25
559.47	393.21
559.64	355.76
559.80	433.00
559.97	451.72
560.13	472.79
560.30	456.40
560.46	458.74
560.63	414.27
560.79	376.83
560.96	379.17
561.12	365.12
561.29	477.47
561.45	388.53
561.61	454.06
561.78	503.22
561.94	390.87
562.11	374.49
562.27	500.87
562.44	414.27
562.60	409.59
562.77	372.15
562.93	491.51
563.10	402.57
563.26	447.04
563.42	463.43
563.59	397.89
563.75	449.38
563.92	397.89
564.08	397.89
564.24	486.83
564.41	493.85
564.57	454.06
564.74	369.80
564.90	489.17
565.07	402.57
565.23	393.21
565.39	393.21
565.56	402.57
565.72	369.80
565.88	430.66
566.05	425.98
566.21	374.49
566.38	372.15
566.54	465.77
566.70	414.27
566.87	447.04
567.03	339.38
567.19	383.85
567.36	440.02
567.52	416.62
567.68	456.40
567.85	381.51
568.01	390.87
568.17	421.30
568.34	402.57
568.50	475.13
568.66	393.21
568.83	430.66
568.99	463.43
569.15	425.98
569.32	400.23
569.48	362.78
569.64	397.89
569.81	430.66
569.97	423.64
570.13	421.30
570.30	379.17
570.46	468.11
570.62	449.38
570.78	390.87
570.95	416.62
571.11	418.96
571.27	437.68
571.43	376.83
571.60	379.17
571.76	400.23
571.92	449.38
572.09	409.59
572.25	409.59
572.41	430.66
572.57	379.17
572.74	433.00
572.90	470.45
573.06	437.68
573.22	376.83
573.38	533.64
573.55	388.53
573.71	440.02
573.87	430.66
574.03	444.70
574.20	440.02
574.36	407.25
574.52	367.46
574.68	484.49
574.84	409.59
575.01	400.23
575.17	463.43
575.33	454.06
575.49	428.32
575.65	500.87
575.82	458.74
575.98	433.00
576.14	381.51
576.30	411.93
576.46	463.43
576.62	519.60
576.79	475.13
576.95	418.96
577.11	458.74
577.27	355.76
577.43	468.11
577.59	414.27
577.75	512.58
577.92	418.96
578.08	449.38
578.24	390.87
578.40	397.89
578.56	437.68
578.72	421.30
578.88	435.34
579.04	348.74
579.21	411.93
579.37	390.87
579.53	360.44
579.69	440.02
579.85	461.09
580.01	491.51
580.17	395.55
580.33	388.53
580.49	358.10
580.65	470.45
580.82	472.79
580.98	362.78
581.14	369.80
581.30	486.83
581.46	404.91
581.62	414.27
581.78	433.00
581.94	454.06
582.10	367.46
582.26	339.38
582.42	447.04
582.58	355.76
582.74	348.74
582.90	400.23
583.06	437.68
583.22	395.55
583.38	341.72
583.54	514.92
583.70	500.87
583.86	390.87
584.02	372.15
584.18	407.25
584.34	414.27
584.50	491.51
584.66	402.57
584.82	430.66
584.98	454.06
585.14	454.06
585.30	397.89
585.46	395.55
585.62	458.74
585.78	379.17
585.94	374.49
586.10	381.51
586.26	435.34
586.42	491.51
586.58	465.77
586.74	428.32
586.90	428.32
587.06	404.91
587.22	456.40
587.38	315.97
587.54	421.30
587.70	477.47
587.86	451.72
588.02	449.38
588.18	442.36
588.34	362.78
588.49	388.53
588.65	379.17
588.81	435.34
588.97	376.83
589.13	386.19
589.29	461.09
589.45	423.64
589.61	418.96
589.77	414.27
589.93	428.32
590.08	386.19
590.24	407.25
590.40	407.25
590.56	435.34
590.72	444.70
590.88	355.76
591.04	386.19
591.20	372.15
591.35	430.66
591.51	444.70
591.67	353.42
591.83	383.85
591.99	341.72
592.15	383.85
592.31	411.93
592.46	433.00
592.62	386.19
592.78	409.59
592.94	451.72
593.10	388.53
593.26	400.23
593.41	442.36
593.57	447.04
593.73	449.38
593.89	414.27
594.05	379.17
594.20	393.21
594.36	456.40
594.52	425.98
594.68	414.27
594.84	433.00
594.99	418.96
595.15	468.11
595.31	430.66
595.47	447.04
595.62	491.51
595.78	461.09
595.94	428.32
596.10	418.96
596.25	449.38
596.41	397.89
596.57	465.77
596.73	430.66
596.88	440.02
597.04	421.30
597.20	444.70
597.36	444.70
597.51	423.64
597.67	486.83
597.83	433.00
597.99	440.02
598.14	381.51
598.30	437.68
598.46	433.00
598.61	355.76
598.77	414.27
598.93	449.38
599.09	458.74
599.24	409.59
599.40	418.96
599.56	418.96
599.71	456.40
599.87	418.96
600.03	367.46
600.18	367.46
600.34	442.36
600.50	353.42
600.65	404.91
600.81	379.17
600.97	435.34
601.12	376.83
601.28	407.25
601.44	440.02
601.59	437.68
601.75	411.93
601.91	416.62
602.06	463.43
602.22	496.19
602.37	402.57
602.53	407.25
602.69	468.11
602.84	430.66
603.00	416.62
603.16	433.00
603.31	414.27
603.47	468.11
603.62	461.09
603.78	358.10
603.94	444.70
604.09	416.62
604.25	442.36
604.40	395.55
604.56	461.09
604.71	447.04
604.87	386.19
605.03	440.02
605.18	351.08
605.34	449.38
605.49	395.55
605.65	418.96
605.80	381.51
605.96	332.36
606.12	409.59
606.27	442.36
606.43	400.23
606.58	435.34
606.74	444.70
606.89	397.89
607.05	409.59
607.20	362.78
607.36	418.96
607.51	416.62
607.67	458.74
607.82	418.96
607.98	482.15
608.13	395.55
608.29	421.30
608.44	397.89
608.60	463.43
608.75	470.45
608.91	409.59
609.06	365.12
609.22	430.66
609.37	404.91
609.53	411.93
609.68	421.30
609.84	437.68
609.99	376.83
610.15	409.59
