SpectraSuite Data File
++++++++++++++++++++++++++++++++++++
Date: Fri Oct 25 12:10:50 EDT 2013
User: price-jones
Dark Spectrum Present: No
Reference Spectrum Present: No
Number of Sampled Component Spectra: 1
Spectrometers: USB2+H05261
Integration Time (usec): 100000 (USB2+H05261)
Spectra Averaged: 1 (USB2+H05261)
Boxcar Smoothing: 0 (USB2+H05261)
Correct for Electrical Dark: No (USB2+H05261)
Strobe/Lamp Enabled: No (USB2+H05261)
Correct for Detector Non-linearity: No (USB2+H05261)
Correct for Stray Light: No (USB2+H05261)
Number of Pixels in Processed Spectrum: 2048
>>>>>Begin Processed Spectral Data<<<<<
365.73	383.85
365.92	383.85
366.12	383.85
366.32	269.16
366.52	205.97
366.72	259.80
366.91	222.35
367.11	222.35
367.31	229.37
367.51	241.08
367.70	241.08
367.90	262.14
368.10	236.39
368.30	227.03
368.49	266.82
368.69	285.55
368.89	229.37
369.09	273.84
369.28	234.05
369.48	292.57
369.68	287.89
369.87	304.27
370.07	264.48
370.27	276.18
370.47	236.39
370.66	353.42
370.86	388.53
371.06	379.17
371.25	402.57
371.45	339.38
371.65	379.17
371.84	355.76
372.04	348.74
372.24	358.10
372.44	330.02
372.63	411.93
372.83	491.51
373.03	355.76
373.22	395.55
373.42	430.66
373.62	372.15
373.81	393.21
374.01	414.27
374.21	393.21
374.40	379.17
374.60	482.15
374.79	468.11
374.99	418.96
375.19	386.19
375.38	425.98
375.58	425.98
375.78	425.98
375.97	414.27
376.17	388.53
376.37	416.62
376.56	400.23
376.76	461.09
376.95	351.08
377.15	353.42
377.35	397.89
377.54	482.15
377.74	435.34
377.93	365.12
378.13	402.57
378.33	484.49
378.52	374.49
378.72	397.89
378.91	374.49
379.11	428.32
379.31	390.87
379.50	341.72
379.70	381.51
379.89	414.27
380.09	428.32
380.28	477.47
380.48	475.13
380.68	381.51
380.87	458.74
381.07	423.64
381.26	409.59
381.46	374.49
381.65	386.19
381.85	379.17
382.04	404.91
382.24	433.00
382.43	442.36
382.63	376.83
382.83	395.55
383.02	397.89
383.22	369.80
383.41	433.00
383.61	435.34
383.80	421.30
384.00	393.21
384.19	425.98
384.39	386.19
384.58	381.51
384.78	411.93
384.97	430.66
385.17	388.53
385.36	374.49
385.56	397.89
385.75	433.00
385.95	365.12
386.14	423.64
386.34	430.66
386.53	465.77
386.72	332.36
386.92	360.44
387.11	449.38
387.31	404.91
387.50	388.53
387.70	388.53
387.89	421.30
388.09	400.23
388.28	386.19
388.48	435.34
388.67	414.27
388.86	418.96
389.06	416.62
389.25	411.93
389.45	386.19
389.64	437.68
389.84	407.25
390.03	404.91
390.22	416.62
390.42	393.21
390.61	421.30
390.81	330.02
391.00	458.74
391.19	369.80
391.39	379.17
391.58	362.78
391.78	395.55
391.97	395.55
392.16	383.85
392.36	411.93
392.55	360.44
392.75	383.85
392.94	397.89
393.13	433.00
393.33	379.17
393.52	383.85
393.71	430.66
393.91	379.17
394.10	393.21
394.29	433.00
394.49	484.49
394.68	379.17
394.88	402.57
395.07	411.93
395.26	348.74
395.46	430.66
395.65	465.77
395.84	400.23
396.04	437.68
396.23	381.51
396.42	421.30
396.62	411.93
396.81	374.49
397.00	386.19
397.19	470.45
397.39	437.68
397.58	409.59
397.77	463.43
397.97	365.12
398.16	411.93
398.35	402.57
398.55	451.72
398.74	379.17
398.93	407.25
399.12	468.11
399.32	465.77
399.51	360.44
399.70	442.36
399.90	390.87
400.09	393.21
400.28	444.70
400.47	402.57
400.67	461.09
400.86	348.74
401.05	423.64
401.24	383.85
401.44	477.47
401.63	454.06
401.82	409.59
402.01	379.17
402.21	423.64
402.40	440.02
402.59	430.66
402.78	442.36
402.97	425.98
403.17	414.27
403.36	372.15
403.55	402.57
403.74	362.78
403.93	397.89
404.13	454.06
404.32	379.17
404.51	390.87
404.70	313.63
404.89	400.23
405.09	456.40
405.28	470.45
405.47	428.32
405.66	411.93
405.85	468.11
406.05	369.80
406.24	440.02
406.43	442.36
406.62	430.66
406.81	454.06
407.00	472.79
407.20	435.34
407.39	416.62
407.58	369.80
407.77	411.93
407.96	388.53
408.15	388.53
408.34	411.93
408.54	418.96
408.73	346.40
408.92	351.08
409.11	362.78
409.30	425.98
409.49	351.08
409.68	383.85
409.87	407.25
410.07	360.44
410.26	369.80
410.45	372.15
410.64	376.83
410.83	512.58
411.02	416.62
411.21	442.36
411.40	376.83
411.59	404.91
411.78	444.70
411.98	362.78
412.17	444.70
412.36	440.02
412.55	472.79
412.74	383.85
412.93	430.66
413.12	444.70
413.31	454.06
413.50	337.04
413.69	418.96
413.88	362.78
414.07	346.40
414.26	372.15
414.45	400.23
414.64	332.36
414.83	442.36
415.02	376.83
415.22	430.66
415.41	395.55
415.60	451.72
415.79	442.36
415.98	430.66
416.17	425.98
416.36	390.87
416.55	475.13
416.74	468.11
416.93	458.74
417.12	365.12
417.31	400.23
417.50	390.87
417.69	437.68
417.88	444.70
418.07	369.80
418.26	404.91
418.45	433.00
418.64	433.00
418.83	397.89
419.02	388.53
419.21	404.91
419.39	388.53
419.58	423.64
419.77	369.80
419.96	395.55
420.15	442.36
420.34	346.40
420.53	402.57
420.72	414.27
420.91	386.19
421.10	376.83
421.29	330.02
421.48	358.10
421.67	390.87
421.86	414.27
422.05	353.42
422.24	388.53
422.43	388.53
422.61	465.77
422.80	414.27
422.99	395.55
423.18	447.04
423.37	451.72
423.56	388.53
423.75	404.91
423.94	348.74
424.13	381.51
424.32	388.53
424.50	411.93
424.69	437.68
424.88	416.62
425.07	369.80
425.26	470.45
425.45	372.15
425.64	465.77
425.83	402.57
426.01	407.25
426.20	423.64
426.39	428.32
426.58	362.78
426.77	400.23
426.96	454.06
427.15	402.57
427.33	397.89
427.52	421.30
427.71	402.57
427.90	395.55
428.09	463.43
428.28	341.72
428.46	440.02
428.65	381.51
428.84	468.11
429.03	395.55
429.22	411.93
429.40	461.09
429.59	428.32
429.78	491.51
429.97	400.23
430.16	461.09
430.34	461.09
430.53	472.79
430.72	390.87
430.91	498.53
431.10	414.27
431.28	491.51
431.47	425.98
431.66	393.21
431.85	425.98
432.03	491.51
432.22	472.79
432.41	414.27
432.60	388.53
432.79	402.57
432.97	440.02
433.16	465.77
433.35	444.70
433.54	400.23
433.72	421.30
433.91	444.70
434.10	437.68
434.28	423.64
434.47	322.99
434.66	395.55
434.85	390.87
435.03	351.08
435.22	423.64
435.41	421.30
435.59	390.87
435.78	477.47
435.97	397.89
436.16	402.57
436.34	400.23
436.53	451.72
436.72	425.98
436.90	440.02
437.09	404.91
437.28	358.10
437.46	383.85
437.65	402.57
437.84	407.25
438.02	386.19
438.21	465.77
438.40	404.91
438.58	461.09
438.77	393.21
438.96	383.85
439.14	430.66
439.33	435.34
439.52	440.02
439.70	498.53
439.89	486.83
440.08	393.21
440.26	409.59
440.45	437.68
440.63	407.25
440.82	430.66
441.01	346.40
441.19	397.89
441.38	409.59
441.57	421.30
441.75	458.74
441.94	411.93
442.12	400.23
442.31	402.57
442.50	444.70
442.68	388.53
442.87	456.40
443.05	381.51
443.24	400.23
443.43	461.09
443.61	440.02
443.80	362.78
443.98	421.30
444.17	451.72
444.35	409.59
444.54	425.98
444.73	435.34
444.91	400.23
445.10	379.17
445.28	381.51
445.47	390.87
445.65	416.62
445.84	477.47
446.02	505.56
446.21	390.87
446.39	421.30
446.58	435.34
446.77	437.68
446.95	461.09
447.14	484.49
447.32	423.64
447.51	496.19
447.69	465.77
447.88	386.19
448.06	327.68
448.25	437.68
448.43	390.87
448.62	358.10
448.80	395.55
448.99	421.30
449.17	388.53
449.36	430.66
449.54	444.70
449.73	393.21
449.91	440.02
450.10	379.17
450.28	461.09
450.46	451.72
450.65	320.65
450.83	442.36
451.02	395.55
451.20	447.04
451.39	393.21
451.57	400.23
451.76	449.38
451.94	430.66
452.13	381.51
452.31	402.57
452.49	397.89
452.68	407.25
452.86	372.15
453.05	416.62
453.23	407.25
453.42	390.87
453.60	379.17
453.78	411.93
453.97	381.51
454.15	362.78
454.34	362.78
454.52	442.36
454.70	472.79
454.89	360.44
455.07	353.42
455.26	372.15
455.44	383.85
455.62	407.25
455.81	465.77
455.99	423.64
456.17	388.53
456.36	482.15
456.54	510.24
456.73	435.34
456.91	395.55
457.09	458.74
457.28	418.96
457.46	430.66
457.64	372.15
457.83	369.80
458.01	358.10
458.19	447.04
458.38	444.70
458.56	402.57
458.74	447.04
458.93	376.83
459.11	423.64
459.29	381.51
459.48	430.66
459.66	388.53
459.84	397.89
460.03	404.91
460.21	411.93
460.39	372.15
460.57	442.36
460.76	423.64
460.94	411.93
461.12	397.89
461.31	463.43
461.49	381.51
461.67	433.00
461.85	402.57
462.04	407.25
462.22	784.08
462.40	447.04
462.59	414.27
462.77	367.46
462.95	372.15
463.13	386.19
463.32	414.27
463.50	327.68
463.68	428.32
463.86	407.25
464.05	472.79
464.23	388.53
464.41	346.40
464.59	379.17
464.78	421.30
464.96	433.00
465.14	437.68
465.32	381.51
465.50	479.81
465.69	351.08
465.87	444.70
466.05	479.81
466.23	397.89
466.41	433.00
466.60	325.33
466.78	444.70
466.96	423.64
467.14	435.34
467.32	470.45
467.51	411.93
467.69	477.47
467.87	444.70
468.05	449.38
468.23	451.72
468.41	500.87
468.60	416.62
468.78	447.04
468.96	411.93
469.14	409.59
469.32	369.80
469.50	367.46
469.69	425.98
469.87	472.79
470.05	383.85
470.23	374.49
470.41	430.66
470.59	407.25
470.77	423.64
470.95	444.70
471.14	395.55
471.32	416.62
471.50	435.34
471.68	355.76
471.86	430.66
472.04	428.32
472.22	383.85
472.40	421.30
472.58	400.23
472.77	386.19
472.95	414.27
473.13	477.47
473.31	456.40
473.49	416.62
473.67	428.32
473.85	393.21
474.03	397.89
474.21	353.42
474.39	388.53
474.57	433.00
474.75	444.70
474.93	440.02
475.12	435.34
475.30	414.27
475.48	442.36
475.66	437.68
475.84	334.70
476.02	409.59
476.20	425.98
476.38	397.89
476.56	421.30
476.74	411.93
476.92	411.93
477.10	402.57
477.28	463.43
477.46	390.87
477.64	355.76
477.82	400.23
478.00	390.87
478.18	428.32
478.36	430.66
478.54	388.53
478.72	437.68
478.90	376.83
479.08	423.64
479.26	358.10
479.44	376.83
479.62	397.89
479.80	381.51
479.98	400.23
480.16	447.04
480.34	381.51
480.52	472.79
480.70	456.40
480.88	440.02
481.06	372.15
481.24	440.02
481.41	397.89
481.59	407.25
481.77	383.85
481.95	337.04
482.13	477.47
482.31	418.96
482.49	411.93
482.67	416.62
482.85	411.93
483.03	402.57
483.21	397.89
483.39	330.02
483.57	388.53
483.74	390.87
483.92	416.62
484.10	393.21
484.28	360.44
484.46	440.02
484.64	418.96
484.82	411.93
485.00	397.89
485.18	414.27
485.35	411.93
485.53	374.49
485.71	381.51
485.89	337.04
486.07	376.83
486.25	435.34
486.43	430.66
486.61	435.34
486.78	402.57
486.96	388.53
487.14	447.04
487.32	442.36
487.50	421.30
487.68	418.96
487.85	425.98
488.03	465.77
488.21	379.17
488.39	421.30
488.57	374.49
488.75	411.93
488.92	550.03
489.10	435.34
489.28	423.64
489.46	418.96
489.64	397.89
489.81	447.04
489.99	379.17
490.17	433.00
490.35	514.92
490.53	421.30
490.70	402.57
490.88	428.32
491.06	449.38
491.24	365.12
491.41	470.45
491.59	402.57
491.77	390.87
491.95	365.12
492.13	372.15
492.30	402.57
492.48	437.68
492.66	433.00
492.84	397.89
493.01	425.98
493.19	416.62
493.37	334.70
493.54	400.23
493.72	376.83
493.90	337.04
494.08	407.25
494.25	442.36
494.43	430.66
494.61	458.74
494.79	411.93
494.96	449.38
495.14	456.40
495.32	358.10
495.49	372.15
495.67	388.53
495.85	444.70
496.02	402.57
496.20	407.25
496.38	449.38
496.55	397.89
496.73	430.66
496.91	463.43
497.09	381.51
497.26	416.62
497.44	407.25
497.62	414.27
497.79	440.02
497.97	538.32
498.14	428.32
498.32	444.70
498.50	383.85
498.67	428.32
498.85	430.66
499.03	472.79
499.20	421.30
499.38	381.51
499.56	383.85
499.73	365.12
499.91	423.64
500.08	423.64
500.26	400.23
500.44	414.27
500.61	397.89
500.79	472.79
500.97	409.59
501.14	437.68
501.32	395.55
501.49	400.23
501.67	362.78
501.84	301.93
502.02	365.12
502.20	456.40
502.37	477.47
502.55	409.59
502.72	423.64
502.90	404.91
503.07	339.38
503.25	325.33
503.43	374.49
503.60	447.04
503.78	409.59
503.95	423.64
504.13	451.72
504.30	358.10
504.48	465.77
504.65	430.66
504.83	437.68
505.01	369.80
505.18	423.64
505.36	393.21
505.53	428.32
505.71	414.27
505.88	376.83
506.06	348.74
506.23	365.12
506.41	346.40
506.58	423.64
506.76	447.04
506.93	461.09
507.11	449.38
507.28	433.00
507.46	400.23
507.63	435.34
507.81	404.91
507.98	447.04
508.16	395.55
508.33	365.12
508.50	393.21
508.68	461.09
508.85	423.64
509.03	390.87
509.20	433.00
509.38	393.21
509.55	416.62
509.73	393.21
509.90	449.38
510.08	358.10
510.25	411.93
510.42	442.36
510.60	404.91
510.77	472.79
510.95	388.53
511.12	458.74
511.30	411.93
511.47	348.74
511.64	440.02
511.82	376.83
511.99	416.62
512.17	346.40
512.34	433.00
512.51	409.59
512.69	484.49
512.86	409.59
513.04	390.87
513.21	461.09
513.38	393.21
513.56	418.96
513.73	425.98
513.90	386.19
514.08	409.59
514.25	404.91
514.43	348.74
514.60	425.98
514.77	379.17
514.95	421.30
515.12	409.59
515.29	414.27
515.47	393.21
515.64	435.34
515.81	449.38
515.99	395.55
516.16	454.06
516.33	416.62
516.51	447.04
516.68	433.00
516.85	447.04
517.03	365.12
517.20	444.70
517.37	414.27
517.54	482.15
517.72	425.98
517.89	451.72
518.06	430.66
518.24	440.02
518.41	449.38
518.58	454.06
518.75	437.68
518.93	383.85
519.10	437.68
519.27	383.85
519.45	411.93
519.62	287.89
519.79	416.62
519.96	425.98
520.14	355.76
520.31	447.04
520.48	400.23
520.65	463.43
520.83	444.70
521.00	444.70
521.17	358.10
521.34	390.87
521.52	442.36
521.69	430.66
521.86	470.45
522.03	451.72
522.20	393.21
522.38	348.74
522.55	418.96
522.72	390.87
522.89	386.19
523.07	486.83
523.24	421.30
523.41	407.25
523.58	435.34
523.75	402.57
523.92	409.59
524.10	388.53
524.27	351.08
524.44	475.13
524.61	456.40
524.78	425.98
524.96	362.78
525.13	418.96
525.30	425.98
525.47	409.59
525.64	435.34
525.81	381.51
525.98	451.72
526.16	372.15
526.33	425.98
526.50	430.66
526.67	444.70
526.84	358.10
527.01	433.00
527.18	407.25
527.36	409.59
527.53	414.27
527.70	313.63
527.87	411.93
528.04	456.40
528.21	437.68
528.38	440.02
528.55	372.15
528.72	418.96
528.89	421.30
529.07	421.30
529.24	463.43
529.41	409.59
529.58	458.74
529.75	393.21
529.92	435.34
530.09	393.21
530.26	404.91
530.43	435.34
530.60	404.91
530.77	421.30
530.94	449.38
531.11	416.62
531.28	428.32
531.46	344.06
531.63	428.32
531.80	425.98
531.97	407.25
532.14	421.30
532.31	409.59
532.48	425.98
532.65	425.98
532.82	376.83
532.99	395.55
533.16	369.80
533.33	456.40
533.50	404.91
533.67	388.53
533.84	458.74
534.01	433.00
534.18	423.64
534.35	393.21
534.52	454.06
534.69	402.57
534.86	456.40
535.03	442.36
535.20	435.34
535.37	383.85
535.54	416.62
535.71	425.98
535.88	444.70
536.05	381.51
536.22	421.30
536.38	430.66
536.55	414.27
536.72	407.25
536.89	400.23
537.06	440.02
537.23	444.70
537.40	435.34
537.57	454.06
537.74	470.45
537.91	454.06
538.08	388.53
538.25	428.32
538.42	397.89
538.59	430.66
538.75	447.04
538.92	418.96
539.09	379.17
539.26	533.64
539.43	400.23
539.60	425.98
539.77	393.21
539.94	376.83
540.11	444.70
540.28	423.64
540.44	482.15
540.61	400.23
540.78	386.19
540.95	381.51
541.12	470.45
541.29	374.49
541.46	372.15
541.62	444.70
541.79	397.89
541.96	430.66
542.13	358.10
542.30	390.87
542.47	491.51
542.63	433.00
542.80	430.66
542.97	451.72
543.14	400.23
543.31	477.47
543.48	470.45
543.64	428.32
543.81	390.87
543.98	369.80
544.15	362.78
544.32	414.27
544.48	463.43
544.65	449.38
544.82	447.04
544.99	411.93
545.16	451.72
545.32	402.57
545.49	369.80
545.66	437.68
545.83	447.04
546.00	447.04
546.16	437.68
546.33	437.68
546.50	433.00
546.67	458.74
546.83	468.11
547.00	395.55
547.17	416.62
547.34	407.25
547.50	456.40
547.67	369.80
547.84	388.53
548.00	421.30
548.17	456.40
548.34	367.46
548.51	465.77
548.67	482.15
548.84	390.87
549.01	411.93
549.18	421.30
549.34	449.38
549.51	372.15
549.68	409.59
549.84	470.45
550.01	451.72
550.18	496.19
550.34	400.23
550.51	430.66
550.68	444.70
550.84	451.72
551.01	376.83
551.18	519.60
551.34	400.23
551.51	428.32
551.68	437.68
551.84	507.90
552.01	390.87
552.18	411.93
552.34	414.27
552.51	503.22
552.68	477.47
552.84	437.68
553.01	454.06
553.18	421.30
553.34	341.72
553.51	423.64
553.67	416.62
553.84	512.58
554.01	414.27
554.17	416.62
554.34	353.42
554.51	423.64
554.67	421.30
554.84	425.98
555.00	456.40
555.17	477.47
555.33	421.30
555.50	365.12
555.67	341.72
555.83	379.17
556.00	409.59
556.16	479.81
556.33	418.96
556.50	397.89
556.66	423.64
556.83	449.38
556.99	346.40
557.16	440.02
557.32	402.57
557.49	414.27
557.65	468.11
557.82	386.19
557.98	369.80
558.15	449.38
558.32	416.62
558.48	461.09
558.65	444.70
558.81	428.32
558.98	393.21
559.14	362.78
559.31	425.98
559.47	416.62
559.64	449.38
559.80	393.21
559.97	510.24
560.13	409.59
560.30	430.66
560.46	351.08
560.63	418.96
560.79	369.80
560.96	461.09
561.12	461.09
561.29	423.64
561.45	423.64
561.61	381.51
561.78	456.40
561.94	463.43
562.11	418.96
562.27	388.53
562.44	322.99
562.60	339.38
562.77	423.64
562.93	503.22
563.10	430.66
563.26	411.93
563.42	451.72
563.59	395.55
563.75	402.57
563.92	414.27
564.08	381.51
564.24	468.11
564.41	346.40
564.57	407.25
564.74	330.02
564.90	365.12
565.07	437.68
565.23	451.72
565.39	407.25
565.56	423.64
565.72	374.49
565.88	517.26
566.05	346.40
566.21	423.64
566.38	400.23
566.54	327.68
566.70	468.11
566.87	437.68
567.03	430.66
567.19	402.57
567.36	393.21
567.52	341.72
567.68	442.36
567.85	433.00
568.01	538.32
568.17	423.64
568.34	442.36
568.50	430.66
568.66	458.74
568.83	444.70
568.99	416.62
569.15	442.36
569.32	479.81
569.48	402.57
569.64	444.70
569.81	465.77
569.97	500.87
570.13	409.59
570.30	477.47
570.46	425.98
570.62	407.25
570.78	470.45
570.95	325.33
571.11	449.38
571.27	479.81
571.43	383.85
571.60	353.42
571.76	367.46
571.92	393.21
572.09	383.85
572.25	379.17
572.41	416.62
572.57	409.59
572.74	437.68
572.90	409.59
573.06	372.15
573.22	425.98
573.38	407.25
573.55	437.68
573.71	423.64
573.87	440.02
574.03	393.21
574.20	465.77
574.36	503.22
574.52	383.85
574.68	395.55
574.84	388.53
575.01	393.21
575.17	435.34
575.33	416.62
575.49	409.59
575.65	339.38
575.82	454.06
575.98	425.98
576.14	390.87
576.30	421.30
576.46	386.19
576.62	404.91
576.79	369.80
576.95	416.62
577.11	411.93
577.27	437.68
577.43	524.28
577.59	519.60
577.75	395.55
577.92	383.85
578.08	358.10
578.24	379.17
578.40	421.30
578.56	381.51
578.72	397.89
578.88	369.80
579.04	416.62
579.21	430.66
579.37	461.09
579.53	388.53
579.69	440.02
579.85	463.43
580.01	397.89
580.17	362.78
580.33	372.15
580.49	472.79
580.65	421.30
580.82	393.21
580.98	341.72
581.14	414.27
581.30	456.40
581.46	404.91
581.62	425.98
581.78	430.66
581.94	381.51
582.10	386.19
582.26	362.78
582.42	402.57
582.58	447.04
582.74	397.89
582.90	482.15
583.06	486.83
583.22	414.27
583.38	463.43
583.54	383.85
583.70	451.72
583.86	414.27
584.02	430.66
584.18	456.40
584.34	451.72
584.50	430.66
584.66	440.02
584.82	454.06
584.98	442.36
585.14	447.04
585.30	407.25
585.46	383.85
585.62	447.04
585.78	421.30
585.94	437.68
586.10	449.38
586.26	440.02
586.42	454.06
586.58	416.62
586.74	454.06
586.90	440.02
587.06	435.34
587.22	353.42
587.38	397.89
587.54	404.91
587.70	447.04
587.86	428.32
588.02	344.06
588.18	414.27
588.34	470.45
588.49	386.19
588.65	418.96
588.81	372.15
588.97	376.83
589.13	442.36
589.29	376.83
589.45	440.02
589.61	367.46
589.77	479.81
589.93	440.02
590.08	374.49
590.24	397.89
590.40	442.36
590.56	379.17
590.72	383.85
590.88	388.53
591.04	470.45
591.20	369.80
591.35	433.00
591.51	421.30
591.67	374.49
591.83	458.74
591.99	461.09
592.15	498.53
592.31	395.55
592.46	435.34
592.62	407.25
592.78	390.87
592.94	381.51
593.10	440.02
593.26	362.78
593.41	390.87
593.57	404.91
593.73	365.12
593.89	365.12
594.05	489.17
594.20	395.55
594.36	477.47
594.52	416.62
594.68	341.72
594.84	423.64
594.99	447.04
595.15	435.34
595.31	390.87
595.47	486.83
595.62	472.79
595.78	369.80
595.94	325.33
596.10	430.66
596.25	447.04
596.41	409.59
596.57	425.98
596.73	411.93
596.88	430.66
597.04	372.15
597.20	397.89
597.36	346.40
597.51	402.57
597.67	447.04
597.83	440.02
597.99	411.93
598.14	444.70
598.30	477.47
598.46	411.93
598.61	449.38
598.77	386.19
598.93	456.40
599.09	465.77
599.24	433.00
599.40	472.79
599.56	444.70
599.71	433.00
599.87	447.04
600.03	374.49
600.18	409.59
600.34	407.25
600.50	414.27
600.65	407.25
600.81	423.64
600.97	449.38
601.12	388.53
601.28	360.44
601.44	395.55
601.59	404.91
601.75	425.98
601.91	437.68
602.06	444.70
602.22	461.09
602.37	456.40
602.53	449.38
602.69	416.62
602.84	383.85
603.00	425.98
603.16	425.98
603.31	435.34
603.47	456.40
603.62	386.19
603.78	395.55
603.94	425.98
604.09	414.27
604.25	428.32
604.40	472.79
604.56	400.23
604.71	484.49
604.87	433.00
605.03	433.00
605.18	437.68
605.34	482.15
605.49	414.27
605.65	416.62
605.80	355.76
605.96	418.96
606.12	442.36
606.27	395.55
606.43	463.43
606.58	418.96
606.74	428.32
606.89	430.66
607.05	444.70
607.20	407.25
607.36	428.32
607.51	463.43
607.67	404.91
607.82	372.15
607.98	365.12
608.13	475.13
608.29	444.70
608.44	409.59
608.60	421.30
608.75	458.74
608.91	470.45
609.06	465.77
609.22	397.89
609.37	437.68
609.53	344.06
609.68	376.83
609.84	386.19
609.99	365.12
610.15	372.15
