SpectraSuite Data File
++++++++++++++++++++++++++++++++++++
Date: Fri Oct 25 12:10:47 EDT 2013
User: price-jones
Dark Spectrum Present: No
Reference Spectrum Present: No
Number of Sampled Component Spectra: 1
Spectrometers: USB2+H05261
Integration Time (usec): 100000 (USB2+H05261)
Spectra Averaged: 1 (USB2+H05261)
Boxcar Smoothing: 0 (USB2+H05261)
Correct for Electrical Dark: No (USB2+H05261)
Strobe/Lamp Enabled: No (USB2+H05261)
Correct for Detector Non-linearity: No (USB2+H05261)
Correct for Stray Light: No (USB2+H05261)
Number of Pixels in Processed Spectrum: 2048
>>>>>Begin Processed Spectral Data<<<<<
365.73	330.02
365.92	330.02
366.12	330.02
366.32	262.14
366.52	287.89
366.72	292.57
366.91	227.03
367.11	205.97
367.31	196.60
367.51	257.46
367.70	236.39
367.90	287.89
368.10	191.92
368.30	236.39
368.49	250.44
368.69	252.78
368.89	259.80
369.09	236.39
369.28	297.25
369.48	264.48
369.68	297.25
369.87	276.18
370.07	327.68
370.27	285.55
370.47	276.18
370.66	348.74
370.86	341.72
371.06	304.27
371.25	367.46
371.45	386.19
371.65	353.42
371.84	400.23
372.04	374.49
372.24	418.96
372.44	409.59
372.63	374.49
372.83	351.08
373.03	503.22
373.22	383.85
373.42	402.57
373.62	341.72
373.81	421.30
374.01	489.17
374.21	379.17
374.40	465.77
374.60	423.64
374.79	475.13
374.99	386.19
375.19	428.32
375.38	374.49
375.58	418.96
375.78	470.45
375.97	472.79
376.17	475.13
376.37	440.02
376.56	341.72
376.76	404.91
376.95	393.21
377.15	435.34
377.35	411.93
377.54	409.59
377.74	393.21
377.93	437.68
378.13	344.06
378.33	404.91
378.52	353.42
378.72	411.93
378.91	437.68
379.11	395.55
379.31	407.25
379.50	374.49
379.70	430.66
379.89	425.98
380.09	362.78
380.28	421.30
380.48	355.76
380.68	430.66
380.87	430.66
381.07	440.02
381.26	428.32
381.46	374.49
381.65	388.53
381.85	351.08
382.04	390.87
382.24	362.78
382.43	451.72
382.63	383.85
382.83	437.68
383.02	461.09
383.22	442.36
383.41	430.66
383.61	365.12
383.80	428.32
384.00	451.72
384.19	383.85
384.39	390.87
384.58	388.53
384.78	440.02
384.97	379.17
385.17	386.19
385.36	379.17
385.56	402.57
385.75	409.59
385.95	482.15
386.14	447.04
386.34	390.87
386.53	388.53
386.72	381.51
386.92	461.09
387.11	365.12
387.31	379.17
387.50	348.74
387.70	402.57
387.89	437.68
388.09	379.17
388.28	461.09
388.48	318.31
388.67	388.53
388.86	437.68
389.06	447.04
389.25	355.76
389.45	315.97
389.64	407.25
389.84	414.27
390.03	367.46
390.22	437.68
390.42	402.57
390.61	376.83
390.81	423.64
391.00	425.98
391.19	344.06
391.39	381.51
391.58	379.17
391.78	374.49
391.97	477.47
392.16	421.30
392.36	411.93
392.55	444.70
392.75	470.45
392.94	381.51
393.13	458.74
393.33	367.46
393.52	458.74
393.71	407.25
393.91	355.76
394.10	404.91
394.29	451.72
394.49	372.15
394.68	418.96
394.88	414.27
395.07	451.72
395.26	454.06
395.46	383.85
395.65	458.74
395.84	388.53
396.04	463.43
396.23	374.49
396.42	393.21
396.62	423.64
396.81	397.89
397.00	383.85
397.19	451.72
397.39	393.21
397.58	454.06
397.77	402.57
397.97	341.72
398.16	383.85
398.35	379.17
398.55	390.87
398.74	458.74
398.93	386.19
399.12	397.89
399.32	400.23
399.51	475.13
399.70	404.91
399.90	390.87
400.09	388.53
400.28	433.00
400.47	404.91
400.67	409.59
400.86	418.96
401.05	365.12
401.24	367.46
401.44	416.62
401.63	402.57
401.82	444.70
402.01	433.00
402.21	421.30
402.40	404.91
402.59	404.91
402.78	430.66
402.97	397.89
403.17	404.91
403.36	458.74
403.55	362.78
403.74	458.74
403.93	381.51
404.13	477.47
404.32	404.91
404.51	372.15
404.70	313.63
404.89	428.32
405.09	404.91
405.28	491.51
405.47	365.12
405.66	437.68
405.85	416.62
406.05	388.53
406.24	355.76
406.43	444.70
406.62	381.51
406.81	451.72
407.00	369.80
407.20	461.09
407.39	416.62
407.58	383.85
407.77	393.21
407.96	449.38
408.15	433.00
408.34	381.51
408.54	416.62
408.73	390.87
408.92	367.46
409.11	421.30
409.30	386.19
409.49	416.62
409.68	411.93
409.87	440.02
410.07	456.40
410.26	306.61
410.45	456.40
410.64	414.27
410.83	451.72
411.02	383.85
411.21	416.62
411.40	430.66
411.59	409.59
411.78	383.85
411.98	381.51
412.17	381.51
412.36	369.80
412.55	393.21
412.74	437.68
412.93	440.02
413.12	400.23
413.31	430.66
413.50	510.24
413.69	353.42
413.88	461.09
414.07	360.44
414.26	416.62
414.45	468.11
414.64	449.38
414.83	451.72
415.02	416.62
415.22	411.93
415.41	435.34
415.60	421.30
415.79	421.30
415.98	358.10
416.17	358.10
416.36	442.36
416.55	449.38
416.74	461.09
416.93	388.53
417.12	360.44
417.31	367.46
417.50	433.00
417.69	479.81
417.88	404.91
418.07	393.21
418.26	390.87
418.45	383.85
418.64	449.38
418.83	355.76
419.02	409.59
419.21	379.17
419.39	416.62
419.58	397.89
419.77	458.74
419.96	437.68
420.15	451.72
420.34	404.91
420.53	449.38
420.72	475.13
420.91	444.70
421.10	379.17
421.29	358.10
421.48	491.51
421.67	447.04
421.86	393.21
422.05	383.85
422.24	367.46
422.43	423.64
422.61	451.72
422.80	346.40
422.99	465.77
423.18	409.59
423.37	437.68
423.56	390.87
423.75	461.09
423.94	369.80
424.13	404.91
424.32	341.72
424.50	402.57
424.69	334.70
424.88	351.08
425.07	367.46
425.26	418.96
425.45	341.72
425.64	454.06
425.83	365.12
426.01	472.79
426.20	341.72
426.39	411.93
426.58	348.74
426.77	332.36
426.96	388.53
427.15	456.40
427.33	418.96
427.52	372.15
427.71	440.02
427.90	421.30
428.09	447.04
428.28	404.91
428.46	360.44
428.65	404.91
428.84	423.64
429.03	442.36
429.22	468.11
429.40	402.57
429.59	372.15
429.78	395.55
429.97	367.46
430.16	362.78
430.34	404.91
430.53	430.66
430.72	367.46
430.91	411.93
431.10	388.53
431.28	372.15
431.47	440.02
431.66	341.72
431.85	348.74
432.03	395.55
432.22	442.36
432.41	365.12
432.60	449.38
432.79	414.27
432.97	411.93
433.16	463.43
433.35	390.87
433.54	500.87
433.72	376.83
433.91	433.00
434.10	444.70
434.28	362.78
434.47	383.85
434.66	367.46
434.85	435.34
435.03	468.11
435.22	437.68
435.41	437.68
435.59	423.64
435.78	437.68
435.97	388.53
436.16	444.70
436.34	386.19
436.53	379.17
436.72	512.58
436.90	372.15
437.09	360.44
437.28	418.96
437.46	390.87
437.65	411.93
437.84	374.49
438.02	425.98
438.21	409.59
438.40	400.23
438.58	379.17
438.77	367.46
438.96	402.57
439.14	468.11
439.33	379.17
439.52	367.46
439.70	425.98
439.89	383.85
440.08	454.06
440.26	390.87
440.45	402.57
440.63	423.64
440.82	458.74
441.01	482.15
441.19	433.00
441.38	341.72
441.57	383.85
441.75	381.51
441.94	402.57
442.12	362.78
442.31	407.25
442.50	423.64
442.68	386.19
442.87	395.55
443.05	411.93
443.24	393.21
443.43	390.87
443.61	440.02
443.80	461.09
443.98	479.81
444.17	421.30
444.35	369.80
444.54	388.53
444.73	390.87
444.91	470.45
445.10	449.38
445.28	447.04
445.47	397.89
445.65	430.66
445.84	393.21
446.02	477.47
446.21	379.17
446.39	411.93
446.58	409.59
446.77	409.59
446.95	407.25
447.14	416.62
447.32	409.59
447.51	393.21
447.69	416.62
447.88	440.02
448.06	404.91
448.25	461.09
448.43	519.60
448.62	430.66
448.80	425.98
448.99	482.15
449.17	477.47
449.36	425.98
449.54	421.30
449.73	407.25
449.91	425.98
450.10	402.57
450.28	416.62
450.46	484.49
450.65	435.34
450.83	414.27
451.02	468.11
451.20	362.78
451.39	341.72
451.57	346.40
451.76	404.91
451.94	395.55
452.13	425.98
452.31	451.72
452.49	397.89
452.68	425.98
452.86	447.04
453.05	423.64
453.23	454.06
453.42	404.91
453.60	365.12
453.78	379.17
453.97	393.21
454.15	334.70
454.34	416.62
454.52	393.21
454.70	388.53
454.89	367.46
455.07	433.00
455.26	411.93
455.44	423.64
455.62	461.09
455.81	348.74
455.99	414.27
456.17	341.72
456.36	379.17
456.54	444.70
456.73	402.57
456.91	418.96
457.09	367.46
457.28	416.62
457.46	425.98
457.64	409.59
457.83	351.08
458.01	393.21
458.19	402.57
458.38	388.53
458.56	461.09
458.74	425.98
458.93	400.23
459.11	435.34
459.29	369.80
459.48	440.02
459.66	421.30
459.84	498.53
460.03	468.11
460.21	390.87
460.39	395.55
460.57	533.64
460.76	376.83
460.94	407.25
461.12	437.68
461.31	402.57
461.49	430.66
461.67	416.62
461.85	435.34
462.04	402.57
462.22	741.95
462.40	437.68
462.59	458.74
462.77	456.40
462.95	327.68
463.13	367.46
463.32	374.49
463.50	411.93
463.68	463.43
463.86	369.80
464.05	341.72
464.23	470.45
464.41	369.80
464.59	390.87
464.78	367.46
464.96	367.46
465.14	479.81
465.32	479.81
465.50	454.06
465.69	437.68
465.87	369.80
466.05	367.46
466.23	374.49
466.41	435.34
466.60	454.06
466.78	313.63
466.96	477.47
467.14	421.30
467.32	402.57
467.51	449.38
467.69	423.64
467.87	447.04
468.05	430.66
468.23	528.96
468.41	444.70
468.60	449.38
468.78	358.10
468.96	472.79
469.14	395.55
469.32	402.57
469.50	416.62
469.69	341.72
469.87	444.70
470.05	390.87
470.23	381.51
470.41	416.62
470.59	423.64
470.77	440.02
470.95	440.02
471.14	428.32
471.32	458.74
471.50	430.66
471.68	472.79
471.86	418.96
472.04	374.49
472.22	362.78
472.40	369.80
472.58	402.57
472.77	418.96
472.95	383.85
473.13	507.90
473.31	423.64
473.49	379.17
473.67	416.62
473.85	451.72
474.03	498.53
474.21	430.66
474.39	437.68
474.57	437.68
474.75	489.17
474.93	407.25
475.12	407.25
475.30	444.70
475.48	388.53
475.66	475.13
475.84	477.47
476.02	383.85
476.20	414.27
476.38	451.72
476.56	416.62
476.74	355.76
476.92	416.62
477.10	402.57
477.28	442.36
477.46	454.06
477.64	411.93
477.82	447.04
478.00	383.85
478.18	388.53
478.36	456.40
478.54	411.93
478.72	444.70
478.90	463.43
479.08	437.68
479.26	400.23
479.44	423.64
479.62	418.96
479.80	437.68
479.98	402.57
480.16	337.04
480.34	428.32
480.52	402.57
480.70	411.93
480.88	360.44
481.06	442.36
481.24	386.19
481.41	468.11
481.59	479.81
481.77	395.55
481.95	397.89
482.13	440.02
482.31	411.93
482.49	437.68
482.67	428.32
482.85	442.36
483.03	454.06
483.21	393.21
483.39	430.66
483.57	393.21
483.74	393.21
483.92	458.74
484.10	428.32
484.28	428.32
484.46	510.24
484.64	430.66
484.82	428.32
485.00	423.64
485.18	367.46
485.35	463.43
485.53	407.25
485.71	402.57
485.89	423.64
486.07	409.59
486.25	442.36
486.43	440.02
486.61	367.46
486.78	386.19
486.96	318.31
487.14	414.27
487.32	351.08
487.50	447.04
487.68	418.96
487.85	372.15
488.03	458.74
488.21	461.09
488.39	435.34
488.57	402.57
488.75	358.10
488.92	472.79
489.10	360.44
489.28	524.28
489.46	404.91
489.64	421.30
489.81	381.51
489.99	437.68
490.17	360.44
490.35	484.49
490.53	414.27
490.70	442.36
490.88	402.57
491.06	390.87
491.24	386.19
491.41	447.04
491.59	407.25
491.77	383.85
491.95	447.04
492.13	358.10
492.30	388.53
492.48	360.44
492.66	454.06
492.84	407.25
493.01	407.25
493.19	390.87
493.37	388.53
493.54	428.32
493.72	414.27
493.90	297.25
494.08	451.72
494.25	400.23
494.43	414.27
494.61	416.62
494.79	325.33
494.96	367.46
495.14	383.85
495.32	348.74
495.49	449.38
495.67	435.34
495.85	304.27
496.02	447.04
496.20	374.49
496.38	454.06
496.55	447.04
496.73	388.53
496.91	330.02
497.09	390.87
497.26	325.33
497.44	407.25
497.62	390.87
497.79	414.27
497.97	322.99
498.14	402.57
498.32	435.34
498.50	386.19
498.67	442.36
498.85	498.53
499.03	369.80
499.20	444.70
499.38	411.93
499.56	330.02
499.73	442.36
499.91	414.27
500.08	433.00
500.26	315.97
500.44	425.98
500.61	386.19
500.79	409.59
500.97	386.19
501.14	463.43
501.32	355.76
501.49	449.38
501.67	346.40
501.84	407.25
502.02	454.06
502.20	479.81
502.37	437.68
502.55	477.47
502.72	428.32
502.90	444.70
503.07	425.98
503.25	430.66
503.43	397.89
503.60	388.53
503.78	435.34
503.95	433.00
504.13	318.31
504.30	360.44
504.48	379.17
504.65	409.59
504.83	430.66
505.01	411.93
505.18	451.72
505.36	428.32
505.53	367.46
505.71	411.93
505.88	454.06
506.06	444.70
506.23	355.76
506.41	435.34
506.58	433.00
506.76	332.36
506.93	397.89
507.11	421.30
507.28	376.83
507.46	472.79
507.63	505.56
507.81	397.89
507.98	355.76
508.16	442.36
508.33	458.74
508.50	461.09
508.68	400.23
508.85	428.32
509.03	346.40
509.20	388.53
509.38	442.36
509.55	435.34
509.73	423.64
509.90	451.72
510.08	437.68
510.25	379.17
510.42	313.63
510.60	440.02
510.77	374.49
510.95	428.32
511.12	461.09
511.30	430.66
511.47	435.34
511.64	472.79
511.82	397.89
511.99	423.64
512.17	404.91
512.34	407.25
512.51	390.87
512.69	407.25
512.86	512.58
513.04	440.02
513.21	463.43
513.38	393.21
513.56	397.89
513.73	393.21
513.90	355.76
514.08	367.46
514.25	402.57
514.43	402.57
514.60	379.17
514.77	381.51
514.95	397.89
515.12	390.87
515.29	388.53
515.47	390.87
515.64	407.25
515.81	341.72
515.99	470.45
516.16	447.04
516.33	472.79
516.51	447.04
516.68	393.21
516.85	376.83
517.03	397.89
517.20	435.34
517.37	421.30
517.54	409.59
517.72	409.59
517.89	416.62
518.06	393.21
518.24	468.11
518.41	451.72
518.58	409.59
518.75	395.55
518.93	479.81
519.10	418.96
519.27	397.89
519.45	479.81
519.62	369.80
519.79	421.30
519.96	388.53
520.14	425.98
520.31	477.47
520.48	395.55
520.65	444.70
520.83	423.64
521.00	411.93
521.17	407.25
521.34	430.66
521.52	348.74
521.69	435.34
521.86	451.72
522.03	435.34
522.20	484.49
522.38	430.66
522.55	479.81
522.72	383.85
522.89	393.21
523.07	400.23
523.24	404.91
523.41	372.15
523.58	411.93
523.75	449.38
523.92	407.25
524.10	425.98
524.27	444.70
524.44	409.59
524.61	376.83
524.78	397.89
524.96	458.74
525.13	433.00
525.30	376.83
525.47	461.09
525.64	458.74
525.81	395.55
525.98	360.44
526.16	395.55
526.33	470.45
526.50	416.62
526.67	447.04
526.84	379.17
527.01	383.85
527.18	430.66
527.36	372.15
527.53	493.85
527.70	409.59
527.87	390.87
528.04	482.15
528.21	447.04
528.38	418.96
528.55	379.17
528.72	440.02
528.89	465.77
529.07	402.57
529.24	477.47
529.41	409.59
529.58	451.72
529.75	355.76
529.92	404.91
530.09	451.72
530.26	411.93
530.43	442.36
530.60	454.06
530.77	374.49
530.94	407.25
531.11	463.43
531.28	376.83
531.46	418.96
531.63	376.83
531.80	334.70
531.97	458.74
532.14	388.53
532.31	393.21
532.48	386.19
532.65	390.87
532.82	430.66
532.99	369.80
533.16	318.31
533.33	451.72
533.50	433.00
533.67	397.89
533.84	372.15
534.01	428.32
534.18	425.98
534.35	447.04
534.52	414.27
534.69	322.99
534.86	400.23
535.03	390.87
535.20	369.80
535.37	458.74
535.54	451.72
535.71	409.59
535.88	383.85
536.05	463.43
536.22	463.43
536.38	477.47
536.55	374.49
536.72	404.91
536.89	379.17
537.06	390.87
537.23	341.72
537.40	461.09
537.57	423.64
537.74	470.45
537.91	400.23
538.08	381.51
538.25	468.11
538.42	400.23
538.59	475.13
538.75	404.91
538.92	416.62
539.09	400.23
539.26	369.80
539.43	444.70
539.60	409.59
539.77	374.49
539.94	444.70
540.11	468.11
540.28	477.47
540.44	440.02
540.61	458.74
540.78	421.30
540.95	409.59
541.12	514.92
541.29	400.23
541.46	458.74
541.62	449.38
541.79	402.57
541.96	423.64
542.13	421.30
542.30	414.27
542.47	404.91
542.63	425.98
542.80	468.11
542.97	437.68
543.14	362.78
543.31	461.09
543.48	428.32
543.64	475.13
543.81	433.00
543.98	353.42
544.15	442.36
544.32	360.44
544.48	360.44
544.65	402.57
544.82	372.15
544.99	393.21
545.16	416.62
545.32	418.96
545.49	355.76
545.66	397.89
545.83	362.78
546.00	470.45
546.16	386.19
546.33	407.25
546.50	393.21
546.67	475.13
546.83	383.85
547.00	454.06
547.17	409.59
547.34	433.00
547.50	435.34
547.67	440.02
547.84	430.66
548.00	451.72
548.17	489.17
548.34	430.66
548.51	423.64
548.67	404.91
548.84	489.17
549.01	390.87
549.18	414.27
549.34	423.64
549.51	379.17
549.68	463.43
549.84	463.43
550.01	425.98
550.18	482.15
550.34	489.17
550.51	433.00
550.68	400.23
550.84	414.27
551.01	334.70
551.18	475.13
551.34	496.19
551.51	376.83
551.68	351.08
551.84	411.93
552.01	383.85
552.18	383.85
552.34	454.06
552.51	458.74
552.68	475.13
552.84	337.04
553.01	379.17
553.18	454.06
553.34	500.87
553.51	447.04
553.67	538.32
553.84	465.77
554.01	418.96
554.17	470.45
554.34	395.55
554.51	409.59
554.67	374.49
554.84	472.79
555.00	435.34
555.17	367.46
555.33	421.30
555.50	482.15
555.67	372.15
555.83	414.27
556.00	416.62
556.16	496.19
556.33	454.06
556.50	360.44
556.66	362.78
556.83	465.77
556.99	456.40
557.16	414.27
557.32	444.70
557.49	416.62
557.65	402.57
557.82	425.98
557.98	414.27
558.15	444.70
558.32	376.83
558.48	433.00
558.65	423.64
558.81	472.79
558.98	367.46
559.14	418.96
559.31	428.32
559.47	425.98
559.64	388.53
559.80	407.25
559.97	383.85
560.13	369.80
560.30	400.23
560.46	423.64
560.63	390.87
560.79	409.59
560.96	433.00
561.12	477.47
561.29	425.98
561.45	407.25
561.61	346.40
561.78	390.87
561.94	390.87
562.11	388.53
562.27	437.68
562.44	381.51
562.60	440.02
562.77	346.40
562.93	514.92
563.10	402.57
563.26	383.85
563.42	397.89
563.59	365.12
563.75	482.15
563.92	409.59
564.08	374.49
564.24	367.46
564.41	458.74
564.57	416.62
564.74	442.36
564.90	369.80
565.07	470.45
565.23	468.11
565.39	404.91
565.56	475.13
565.72	395.55
565.88	386.19
566.05	386.19
566.21	418.96
566.38	372.15
566.54	416.62
566.70	440.02
566.87	411.93
567.03	374.49
567.19	381.51
567.36	416.62
567.52	414.27
567.68	388.53
567.85	475.13
568.01	465.77
568.17	381.51
568.34	444.70
568.50	402.57
568.66	437.68
568.83	454.06
568.99	390.87
569.15	468.11
569.32	383.85
569.48	477.47
569.64	390.87
569.81	465.77
569.97	383.85
570.13	458.74
570.30	369.80
570.46	442.36
570.62	461.09
570.78	449.38
570.95	397.89
571.11	430.66
571.27	386.19
571.43	374.49
571.60	444.70
571.76	390.87
571.92	425.98
572.09	458.74
572.25	411.93
572.41	390.87
572.57	407.25
572.74	465.77
572.90	383.85
573.06	456.40
573.22	444.70
573.38	423.64
573.55	470.45
573.71	379.17
573.87	393.21
574.03	425.98
574.20	433.00
574.36	461.09
574.52	416.62
574.68	358.10
574.84	365.12
575.01	421.30
575.17	421.30
575.33	437.68
575.49	449.38
575.65	388.53
575.82	393.21
575.98	463.43
576.14	367.46
576.30	447.04
576.46	433.00
576.62	465.77
576.79	360.44
576.95	552.37
577.11	451.72
577.27	416.62
577.43	512.58
577.59	465.77
577.75	463.43
577.92	454.06
578.08	500.87
578.24	402.57
578.40	437.68
578.56	486.83
578.72	435.34
578.88	397.89
579.04	374.49
579.21	421.30
579.37	411.93
579.53	383.85
579.69	416.62
579.85	442.36
580.01	428.32
580.17	447.04
580.33	379.17
580.49	355.76
580.65	400.23
580.82	409.59
580.98	372.15
581.14	362.78
581.30	442.36
581.46	423.64
581.62	435.34
581.78	355.76
581.94	456.40
582.10	292.57
582.26	383.85
582.42	416.62
582.58	435.34
582.74	400.23
582.90	372.15
583.06	444.70
583.22	362.78
583.38	348.74
583.54	369.80
583.70	479.81
583.86	430.66
584.02	463.43
584.18	379.17
584.34	339.38
584.50	447.04
584.66	447.04
584.82	486.83
584.98	433.00
585.14	423.64
585.30	400.23
585.46	404.91
585.62	468.11
585.78	454.06
585.94	440.02
586.10	416.62
586.26	444.70
586.42	393.21
586.58	491.51
586.74	423.64
586.90	372.15
587.06	423.64
587.22	374.49
587.38	376.83
587.54	444.70
587.70	416.62
587.86	447.04
588.02	395.55
588.18	376.83
588.34	390.87
588.49	346.40
588.65	423.64
588.81	409.59
588.97	381.51
589.13	428.32
589.29	477.47
589.45	421.30
589.61	414.27
589.77	437.68
589.93	451.72
590.08	449.38
590.24	440.02
590.40	411.93
590.56	379.17
590.72	425.98
590.88	374.49
591.04	451.72
591.20	381.51
591.35	465.77
591.51	386.19
591.67	435.34
591.83	409.59
591.99	440.02
592.15	510.24
592.31	425.98
592.46	472.79
592.62	489.17
592.78	397.89
592.94	383.85
593.10	390.87
593.26	397.89
593.41	451.72
593.57	327.68
593.73	444.70
593.89	407.25
594.05	456.40
594.20	449.38
594.36	442.36
594.52	372.15
594.68	390.87
594.84	472.79
594.99	402.57
595.15	465.77
595.31	440.02
595.47	472.79
595.62	400.23
595.78	372.15
595.94	388.53
596.10	407.25
596.25	421.30
596.41	423.64
596.57	365.12
596.73	404.91
596.88	461.09
597.04	449.38
597.20	442.36
597.36	421.30
597.51	400.23
597.67	400.23
597.83	341.72
597.99	339.38
598.14	496.19
598.30	461.09
598.46	411.93
598.61	407.25
598.77	423.64
598.93	433.00
599.09	393.21
599.24	414.27
599.40	444.70
599.56	442.36
599.71	447.04
599.87	374.49
600.03	390.87
600.18	454.06
600.34	418.96
600.50	498.53
600.65	365.12
600.81	386.19
600.97	435.34
601.12	468.11
601.28	400.23
601.44	418.96
601.59	451.72
601.75	461.09
601.91	447.04
602.06	369.80
602.22	461.09
602.37	463.43
602.53	407.25
602.69	435.34
602.84	402.57
603.00	463.43
603.16	456.40
603.31	386.19
603.47	409.59
603.62	374.49
603.78	437.68
603.94	430.66
604.09	390.87
604.25	435.34
604.40	388.53
604.56	376.83
604.71	468.11
604.87	409.59
605.03	435.34
605.18	402.57
605.34	458.74
605.49	470.45
605.65	430.66
605.80	372.15
605.96	416.62
606.12	500.87
606.27	444.70
606.43	444.70
606.58	409.59
606.74	407.25
606.89	433.00
607.05	472.79
607.20	456.40
607.36	475.13
607.51	456.40
607.67	449.38
607.82	421.30
607.98	444.70
608.13	374.49
608.29	461.09
608.44	369.80
608.60	442.36
608.75	447.04
608.91	430.66
609.06	346.40
609.22	444.70
609.37	470.45
609.53	411.93
609.68	393.21
609.84	442.36
609.99	421.30
610.15	407.25
