SpectraSuite Data File
++++++++++++++++++++++++++++++++++++
Date: Fri Oct 25 12:11:47 EDT 2013
User: price-jones
Dark Spectrum Present: No
Reference Spectrum Present: No
Number of Sampled Component Spectra: 1
Spectrometers: USB2+H05261
Integration Time (usec): 100000 (USB2+H05261)
Spectra Averaged: 1 (USB2+H05261)
Boxcar Smoothing: 0 (USB2+H05261)
Correct for Electrical Dark: No (USB2+H05261)
Strobe/Lamp Enabled: No (USB2+H05261)
Correct for Detector Non-linearity: No (USB2+H05261)
Correct for Stray Light: No (USB2+H05261)
Number of Pixels in Processed Spectrum: 2048
>>>>>Begin Processed Spectral Data<<<<<
365.73	376.83
365.92	376.83
366.12	376.83
366.32	259.80
366.52	252.78
366.72	308.95
366.91	285.55
367.11	215.33
367.31	257.46
367.51	299.59
367.70	245.76
367.90	353.42
368.10	231.71
368.30	222.35
368.49	238.73
368.69	238.73
368.89	262.14
369.09	248.10
369.28	276.18
369.48	259.80
369.68	290.23
369.87	334.70
370.07	271.50
370.27	315.97
370.47	334.70
370.66	327.68
370.86	327.68
371.06	383.85
371.25	369.80
371.45	337.04
371.65	374.49
371.84	372.15
372.04	388.53
372.24	435.34
372.44	386.19
372.63	365.12
372.83	376.83
373.03	454.06
373.22	360.44
373.42	344.06
373.62	383.85
373.81	351.08
374.01	397.89
374.21	397.89
374.40	386.19
374.60	374.49
374.79	339.38
374.99	407.25
375.19	451.72
375.38	442.36
375.58	383.85
375.78	355.76
375.97	435.34
376.17	451.72
376.37	423.64
376.56	477.47
376.76	440.02
376.95	421.30
377.15	388.53
377.35	418.96
377.54	369.80
377.74	465.77
377.93	372.15
378.13	409.59
378.33	458.74
378.52	489.17
378.72	411.93
378.91	402.57
379.11	430.66
379.31	381.51
379.50	339.38
379.70	433.00
379.89	442.36
380.09	409.59
380.28	423.64
380.48	372.15
380.68	348.74
380.87	369.80
381.07	362.78
381.26	477.47
381.46	449.38
381.65	533.64
381.85	402.57
382.04	383.85
382.24	484.49
382.43	461.09
382.63	362.78
382.83	381.51
383.02	451.72
383.22	390.87
383.41	416.62
383.61	425.98
383.80	486.83
384.00	390.87
384.19	411.93
384.39	423.64
384.58	386.19
384.78	411.93
384.97	444.70
385.17	421.30
385.36	388.53
385.56	395.55
385.75	463.43
385.95	390.87
386.14	437.68
386.34	348.74
386.53	395.55
386.72	397.89
386.92	393.21
387.11	421.30
387.31	461.09
387.50	355.76
387.70	402.57
387.89	510.24
388.09	400.23
388.28	402.57
388.48	400.23
388.67	386.19
388.86	351.08
389.06	418.96
389.25	421.30
389.45	458.74
389.64	379.17
389.84	421.30
390.03	388.53
390.22	454.06
390.42	388.53
390.61	404.91
390.81	428.32
391.00	407.25
391.19	374.49
391.39	348.74
391.58	367.46
391.78	390.87
391.97	402.57
392.16	423.64
392.36	451.72
392.55	482.15
392.75	369.80
392.94	393.21
393.13	407.25
393.33	411.93
393.52	428.32
393.71	489.17
393.91	390.87
394.10	374.49
394.29	411.93
394.49	430.66
394.68	454.06
394.88	440.02
395.07	428.32
395.26	379.17
395.46	414.27
395.65	440.02
395.84	353.42
396.04	414.27
396.23	442.36
396.42	433.00
396.62	362.78
396.81	395.55
397.00	348.74
397.19	440.02
397.39	440.02
397.58	414.27
397.77	449.38
397.97	428.32
398.16	411.93
398.35	421.30
398.55	379.17
398.74	493.85
398.93	411.93
399.12	372.15
399.32	425.98
399.51	395.55
399.70	409.59
399.90	428.32
400.09	437.68
400.28	318.31
400.47	437.68
400.67	449.38
400.86	454.06
401.05	367.46
401.24	428.32
401.44	409.59
401.63	367.46
401.82	379.17
402.01	374.49
402.21	428.32
402.40	428.32
402.59	351.08
402.78	433.00
402.97	418.96
403.17	395.55
403.36	440.02
403.55	400.23
403.74	395.55
403.93	423.64
404.13	470.45
404.32	372.15
404.51	351.08
404.70	423.64
404.89	416.62
405.09	456.40
405.28	395.55
405.47	390.87
405.66	444.70
405.85	409.59
406.05	430.66
406.24	409.59
406.43	463.43
406.62	379.17
406.81	458.74
407.00	411.93
407.20	360.44
407.39	461.09
407.58	348.74
407.77	470.45
407.96	400.23
408.15	526.62
408.34	428.32
408.54	437.68
408.73	369.80
408.92	414.27
409.11	423.64
409.30	428.32
409.49	386.19
409.68	341.72
409.87	475.13
410.07	397.89
410.26	402.57
410.45	390.87
410.64	386.19
410.83	437.68
411.02	433.00
411.21	472.79
411.40	414.27
411.59	517.26
411.78	404.91
411.98	411.93
412.17	407.25
412.36	418.96
412.55	416.62
412.74	395.55
412.93	491.51
413.12	332.36
413.31	451.72
413.50	425.98
413.69	365.12
413.88	381.51
414.07	470.45
414.26	372.15
414.45	414.27
414.64	407.25
414.83	458.74
415.02	425.98
415.22	425.98
415.41	379.17
415.60	362.78
415.79	344.06
415.98	395.55
416.17	428.32
416.36	465.77
416.55	430.66
416.74	411.93
416.93	390.87
417.12	440.02
417.31	407.25
417.50	339.38
417.69	386.19
417.88	451.72
418.07	456.40
418.26	397.89
418.45	421.30
418.64	447.04
418.83	409.59
419.02	397.89
419.21	369.80
419.39	376.83
419.58	444.70
419.77	388.53
419.96	414.27
420.15	458.74
420.34	344.06
420.53	381.51
420.72	475.13
420.91	428.32
421.10	421.30
421.29	454.06
421.48	435.34
421.67	423.64
421.86	400.23
422.05	442.36
422.24	402.57
422.43	388.53
422.61	379.17
422.80	381.51
422.99	393.21
423.18	435.34
423.37	416.62
423.56	428.32
423.75	437.68
423.94	341.72
424.13	454.06
424.32	327.68
424.50	411.93
424.69	409.59
424.88	390.87
425.07	435.34
425.26	390.87
425.45	425.98
425.64	383.85
425.83	407.25
426.01	351.08
426.20	393.21
426.39	437.68
426.58	369.80
426.77	411.93
426.96	421.30
427.15	418.96
427.33	449.38
427.52	437.68
427.71	416.62
427.90	416.62
428.09	395.55
428.28	404.91
428.46	433.00
428.65	435.34
428.84	463.43
429.03	425.98
429.22	430.66
429.40	409.59
429.59	440.02
429.78	409.59
429.97	404.91
430.16	418.96
430.34	444.70
430.53	407.25
430.72	376.83
430.91	372.15
431.10	381.51
431.28	402.57
431.47	477.47
431.66	369.80
431.85	456.40
432.03	425.98
432.22	433.00
432.41	468.11
432.60	428.32
432.79	353.42
432.97	433.00
433.16	388.53
433.35	416.62
433.54	456.40
433.72	414.27
433.91	430.66
434.10	456.40
434.28	362.78
434.47	428.32
434.66	390.87
434.85	351.08
435.03	418.96
435.22	475.13
435.41	449.38
435.59	472.79
435.78	395.55
435.97	458.74
436.16	423.64
436.34	433.00
436.53	407.25
436.72	416.62
436.90	442.36
437.09	379.17
437.28	444.70
437.46	454.06
437.65	496.19
437.84	411.93
438.02	365.12
438.21	484.49
438.40	381.51
438.58	430.66
438.77	418.96
438.96	358.10
439.14	425.98
439.33	397.89
439.52	351.08
439.70	430.66
439.89	479.81
440.08	456.40
440.26	449.38
440.45	456.40
440.63	407.25
440.82	472.79
441.01	402.57
441.19	421.30
441.38	409.59
441.57	402.57
441.75	444.70
441.94	421.30
442.12	397.89
442.31	400.23
442.50	461.09
442.68	451.72
442.87	386.19
443.05	470.45
443.24	407.25
443.43	435.34
443.61	461.09
443.80	470.45
443.98	348.74
444.17	341.72
444.35	437.68
444.54	407.25
444.73	409.59
444.91	458.74
445.10	400.23
445.28	402.57
445.47	416.62
445.65	379.17
445.84	458.74
446.02	428.32
446.21	379.17
446.39	400.23
446.58	416.62
446.77	463.43
446.95	493.85
447.14	388.53
447.32	538.32
447.51	477.47
447.69	447.04
447.88	430.66
448.06	463.43
448.25	447.04
448.43	395.55
448.62	374.49
448.80	400.23
448.99	425.98
449.17	449.38
449.36	423.64
449.54	430.66
449.73	388.53
449.91	433.00
450.10	411.93
450.28	479.81
450.46	503.22
450.65	428.32
450.83	407.25
451.02	411.93
451.20	386.19
451.39	472.79
451.57	407.25
451.76	376.83
451.94	395.55
452.13	421.30
452.31	482.15
452.49	409.59
452.68	430.66
452.86	397.89
453.05	444.70
453.23	411.93
453.42	376.83
453.60	411.93
453.78	484.49
453.97	423.64
454.15	430.66
454.34	400.23
454.52	353.42
454.70	470.45
454.89	409.59
455.07	358.10
455.26	383.85
455.44	433.00
455.62	409.59
455.81	461.09
455.99	456.40
456.17	393.21
456.36	411.93
456.54	430.66
456.73	418.96
456.91	416.62
457.09	395.55
457.28	407.25
457.46	461.09
457.64	407.25
457.83	503.22
458.01	521.94
458.19	449.38
458.38	379.17
458.56	433.00
458.74	416.62
458.93	428.32
459.11	400.23
459.29	383.85
459.48	442.36
459.66	503.22
459.84	416.62
460.03	451.72
460.21	437.68
460.39	367.46
460.57	449.38
460.76	461.09
460.94	418.96
461.12	484.49
461.31	418.96
461.49	388.53
461.67	491.51
461.85	463.43
462.04	393.21
462.22	889.40
462.40	393.21
462.59	360.44
462.77	395.55
462.95	390.87
463.13	390.87
463.32	435.34
463.50	440.02
463.68	397.89
463.86	421.30
464.05	444.70
464.23	451.72
464.41	423.64
464.59	397.89
464.78	440.02
464.96	414.27
465.14	390.87
465.32	381.51
465.50	337.04
465.69	519.60
465.87	416.62
466.05	388.53
466.23	425.98
466.41	383.85
466.60	440.02
466.78	444.70
466.96	400.23
467.14	416.62
467.32	442.36
467.51	477.47
467.69	358.10
467.87	493.85
468.05	458.74
468.23	407.25
468.41	484.49
468.60	458.74
468.78	397.89
468.96	454.06
469.14	390.87
469.32	379.17
469.50	386.19
469.69	435.34
469.87	388.53
470.05	454.06
470.23	386.19
470.41	393.21
470.59	423.64
470.77	400.23
470.95	362.78
471.14	339.38
471.32	421.30
471.50	454.06
471.68	463.43
471.86	374.49
472.04	425.98
472.22	440.02
472.40	442.36
472.58	397.89
472.77	402.57
472.95	411.93
473.13	461.09
473.31	404.91
473.49	386.19
473.67	383.85
473.85	475.13
474.03	454.06
474.21	414.27
474.39	503.22
474.57	482.15
474.75	390.87
474.93	397.89
475.12	423.64
475.30	393.21
475.48	416.62
475.66	369.80
475.84	367.46
476.02	334.70
476.20	367.46
476.38	346.40
476.56	430.66
476.74	461.09
476.92	390.87
477.10	386.19
477.28	458.74
477.46	437.68
477.64	388.53
477.82	372.15
478.00	440.02
478.18	463.43
478.36	456.40
478.54	386.19
478.72	367.46
478.90	376.83
479.08	510.24
479.26	379.17
479.44	393.21
479.62	358.10
479.80	355.76
479.98	418.96
480.16	386.19
480.34	463.43
480.52	351.08
480.70	402.57
480.88	472.79
481.06	430.66
481.24	418.96
481.41	421.30
481.59	463.43
481.77	458.74
481.95	332.36
482.13	423.64
482.31	418.96
482.49	418.96
482.67	367.46
482.85	425.98
483.03	383.85
483.21	454.06
483.39	416.62
483.57	425.98
483.74	421.30
483.92	468.11
484.10	465.77
484.28	470.45
484.46	447.04
484.64	428.32
484.82	440.02
485.00	465.77
485.18	440.02
485.35	390.87
485.53	315.97
485.71	433.00
485.89	376.83
486.07	486.83
486.25	463.43
486.43	430.66
486.61	372.15
486.78	388.53
486.96	433.00
487.14	423.64
487.32	395.55
487.50	402.57
487.68	416.62
487.85	376.83
488.03	449.38
488.21	458.74
488.39	404.91
488.57	440.02
488.75	393.21
488.92	566.41
489.10	454.06
489.28	489.17
489.46	440.02
489.64	423.64
489.81	407.25
489.99	458.74
490.17	411.93
490.35	402.57
490.53	409.59
490.70	458.74
490.88	463.43
491.06	367.46
491.24	409.59
491.41	479.81
491.59	400.23
491.77	465.77
491.95	351.08
492.13	400.23
492.30	362.78
492.48	416.62
492.66	383.85
492.84	475.13
493.01	409.59
493.19	435.34
493.37	454.06
493.54	458.74
493.72	428.32
493.90	421.30
494.08	355.76
494.25	433.00
494.43	416.62
494.61	388.53
494.79	423.64
494.96	390.87
495.14	433.00
495.32	402.57
495.49	388.53
495.67	376.83
495.85	423.64
496.02	390.87
496.20	400.23
496.38	449.38
496.55	379.17
496.73	437.68
496.91	388.53
497.09	540.66
497.26	461.09
497.44	400.23
497.62	444.70
497.79	339.38
497.97	381.51
498.14	442.36
498.32	407.25
498.50	416.62
498.67	442.36
498.85	395.55
499.03	428.32
499.20	388.53
499.38	376.83
499.56	458.74
499.73	477.47
499.91	458.74
500.08	430.66
500.26	428.32
500.44	458.74
500.61	442.36
500.79	379.17
500.97	397.89
501.14	353.42
501.32	472.79
501.49	423.64
501.67	472.79
501.84	393.21
502.02	430.66
502.20	470.45
502.37	418.96
502.55	381.51
502.72	388.53
502.90	421.30
503.07	365.12
503.25	395.55
503.43	428.32
503.60	418.96
503.78	470.45
503.95	372.15
504.13	393.21
504.30	421.30
504.48	367.46
504.65	435.34
504.83	395.55
505.01	411.93
505.18	358.10
505.36	505.56
505.53	383.85
505.71	372.15
505.88	484.49
506.06	397.89
506.23	428.32
506.41	433.00
506.58	362.78
506.76	447.04
506.93	404.91
507.11	425.98
507.28	404.91
507.46	458.74
507.63	390.87
507.81	421.30
507.98	437.68
508.16	449.38
508.33	416.62
508.50	428.32
508.68	369.80
508.85	423.64
509.03	374.49
509.20	430.66
509.38	437.68
509.55	416.62
509.73	479.81
509.90	496.19
510.08	341.72
510.25	433.00
510.42	407.25
510.60	395.55
510.77	433.00
510.95	423.64
511.12	390.87
511.30	433.00
511.47	519.60
511.64	400.23
511.82	437.68
511.99	409.59
512.17	318.31
512.34	397.89
512.51	421.30
512.69	442.36
512.86	461.09
513.04	372.15
513.21	423.64
513.38	414.27
513.56	418.96
513.73	407.25
513.90	465.77
514.08	449.38
514.25	379.17
514.43	409.59
514.60	346.40
514.77	351.08
514.95	355.76
515.12	407.25
515.29	372.15
515.47	397.89
515.64	444.70
515.81	456.40
515.99	421.30
516.16	451.72
516.33	468.11
516.51	407.25
516.68	383.85
516.85	458.74
517.03	428.32
517.20	393.21
517.37	374.49
517.54	496.19
517.72	447.04
517.89	379.17
518.06	341.72
518.24	395.55
518.41	498.53
518.58	447.04
518.75	470.45
518.93	430.66
519.10	416.62
519.27	463.43
519.45	418.96
519.62	435.34
519.79	437.68
519.96	395.55
520.14	468.11
520.31	379.17
520.48	376.83
520.65	440.02
520.83	400.23
521.00	423.64
521.17	472.79
521.34	433.00
521.52	440.02
521.69	421.30
521.86	409.59
522.03	402.57
522.20	369.80
522.38	475.13
522.55	388.53
522.72	465.77
522.89	409.59
523.07	472.79
523.24	425.98
523.41	386.19
523.58	447.04
523.75	360.44
523.92	447.04
524.10	400.23
524.27	402.57
524.44	383.85
524.61	575.77
524.78	362.78
524.96	376.83
525.13	423.64
525.30	421.30
525.47	444.70
525.64	404.91
525.81	440.02
525.98	397.89
526.16	400.23
526.33	458.74
526.50	390.87
526.67	393.21
526.84	407.25
527.01	397.89
527.18	397.89
527.36	456.40
527.53	418.96
527.70	390.87
527.87	423.64
528.04	489.17
528.21	484.49
528.38	461.09
528.55	463.43
528.72	496.19
528.89	440.02
529.07	395.55
529.24	365.12
529.41	451.72
529.58	397.89
529.75	400.23
529.92	451.72
530.09	444.70
530.26	407.25
530.43	416.62
530.60	360.44
530.77	386.19
530.94	472.79
531.11	411.93
531.28	465.77
531.46	428.32
531.63	444.70
531.80	477.47
531.97	430.66
532.14	404.91
532.31	444.70
532.48	461.09
532.65	479.81
532.82	369.80
532.99	444.70
533.16	482.15
533.33	433.00
533.50	423.64
533.67	461.09
533.84	407.25
534.01	428.32
534.18	440.02
534.35	379.17
534.52	421.30
534.69	482.15
534.86	414.27
535.03	477.47
535.20	437.68
535.37	486.83
535.54	437.68
535.71	451.72
535.88	425.98
536.05	358.10
536.22	383.85
536.38	376.83
536.55	433.00
536.72	458.74
536.89	423.64
537.06	367.46
537.23	397.89
537.40	484.49
537.57	425.98
537.74	435.34
537.91	442.36
538.08	428.32
538.25	402.57
538.42	423.64
538.59	444.70
538.75	454.06
538.92	489.17
539.09	475.13
539.26	379.17
539.43	414.27
539.60	400.23
539.77	423.64
539.94	468.11
540.11	388.53
540.28	416.62
540.44	475.13
540.61	423.64
540.78	351.08
540.95	376.83
541.12	404.91
541.29	440.02
541.46	440.02
541.62	444.70
541.79	451.72
541.96	358.10
542.13	407.25
542.30	344.06
542.47	447.04
542.63	365.12
542.80	451.72
542.97	435.34
543.14	477.47
543.31	447.04
543.48	447.04
543.64	360.44
543.81	411.93
543.98	418.96
544.15	421.30
544.32	411.93
544.48	468.11
544.65	447.04
544.82	414.27
544.99	435.34
545.16	463.43
545.32	386.19
545.49	400.23
545.66	447.04
545.83	449.38
546.00	433.00
546.16	390.87
546.33	407.25
546.50	374.49
546.67	383.85
546.83	512.58
547.00	484.49
547.17	465.77
547.34	472.79
547.50	454.06
547.67	376.83
547.84	421.30
548.00	411.93
548.17	395.55
548.34	430.66
548.51	468.11
548.67	465.77
548.84	383.85
549.01	428.32
549.18	500.87
549.34	456.40
549.51	402.57
549.68	425.98
549.84	447.04
550.01	442.36
550.18	470.45
550.34	479.81
550.51	386.19
550.68	435.34
550.84	397.89
551.01	458.74
551.18	411.93
551.34	367.46
551.51	397.89
551.68	386.19
551.84	451.72
552.01	400.23
552.18	416.62
552.34	444.70
552.51	390.87
552.68	423.64
552.84	416.62
553.01	407.25
553.18	428.32
553.34	428.32
553.51	414.27
553.67	404.91
553.84	507.90
554.01	470.45
554.17	367.46
554.34	477.47
554.51	390.87
554.67	418.96
554.84	444.70
555.00	421.30
555.17	400.23
555.33	440.02
555.50	430.66
555.67	484.49
555.83	397.89
556.00	381.51
556.16	571.09
556.33	449.38
556.50	463.43
556.66	433.00
556.83	369.80
556.99	440.02
557.16	425.98
557.32	477.47
557.49	465.77
557.65	313.63
557.82	404.91
557.98	404.91
558.15	437.68
558.32	454.06
558.48	496.19
558.65	423.64
558.81	372.15
558.98	383.85
559.14	400.23
559.31	430.66
559.47	451.72
559.64	447.04
559.80	379.17
559.97	397.89
560.13	423.64
560.30	395.55
560.46	306.61
560.63	447.04
560.79	390.87
560.96	386.19
561.12	397.89
561.29	425.98
561.45	465.77
561.61	407.25
561.78	404.91
561.94	458.74
562.11	397.89
562.27	463.43
562.44	397.89
562.60	388.53
562.77	379.17
562.93	430.66
563.10	416.62
563.26	433.00
563.42	463.43
563.59	468.11
563.75	390.87
563.92	440.02
564.08	435.34
564.24	376.83
564.41	400.23
564.57	468.11
564.74	421.30
564.90	447.04
565.07	454.06
565.23	433.00
565.39	437.68
565.56	440.02
565.72	411.93
565.88	421.30
566.05	369.80
566.21	411.93
566.38	430.66
566.54	400.23
566.70	475.13
566.87	390.87
567.03	367.46
567.19	400.23
567.36	409.59
567.52	381.51
567.68	468.11
567.85	428.32
568.01	304.27
568.17	463.43
568.34	484.49
568.50	482.15
568.66	425.98
568.83	543.00
568.99	407.25
569.15	528.96
569.32	428.32
569.48	477.47
569.64	447.04
569.81	489.17
569.97	470.45
570.13	423.64
570.30	395.55
570.46	400.23
570.62	461.09
570.78	386.19
570.95	404.91
571.11	461.09
571.27	444.70
571.43	449.38
571.60	339.38
571.76	423.64
571.92	437.68
572.09	423.64
572.25	386.19
572.41	425.98
572.57	461.09
572.74	475.13
572.90	454.06
573.06	456.40
573.22	379.17
573.38	397.89
573.55	425.98
573.71	496.19
573.87	437.68
574.03	337.04
574.20	381.51
574.36	409.59
574.52	468.11
574.68	327.68
574.84	390.87
575.01	418.96
575.17	437.68
575.33	416.62
575.49	440.02
575.65	423.64
575.82	437.68
575.98	437.68
576.14	362.78
576.30	514.92
576.46	449.38
576.62	390.87
576.79	379.17
576.95	440.02
577.11	404.91
577.27	468.11
577.43	414.27
577.59	437.68
577.75	458.74
577.92	393.21
578.08	400.23
578.24	402.57
578.40	444.70
578.56	404.91
578.72	470.45
578.88	470.45
579.04	414.27
579.21	414.27
579.37	416.62
579.53	465.77
579.69	435.34
579.85	451.72
580.01	437.68
580.17	402.57
580.33	447.04
580.49	390.87
580.65	470.45
580.82	386.19
580.98	435.34
581.14	409.59
581.30	465.77
581.46	425.98
581.62	463.43
581.78	355.76
581.94	470.45
582.10	411.93
582.26	409.59
582.42	376.83
582.58	414.27
582.74	449.38
582.90	451.72
583.06	402.57
583.22	440.02
583.38	348.74
583.54	465.77
583.70	475.13
583.86	461.09
584.02	411.93
584.18	444.70
584.34	390.87
584.50	430.66
584.66	463.43
584.82	383.85
584.98	393.21
585.14	428.32
585.30	425.98
585.46	411.93
585.62	428.32
585.78	374.49
585.94	409.59
586.10	433.00
586.26	411.93
586.42	468.11
586.58	491.51
586.74	400.23
586.90	444.70
587.06	430.66
587.22	451.72
587.38	430.66
587.54	430.66
587.70	463.43
587.86	440.02
588.02	428.32
588.18	395.55
588.34	395.55
588.49	451.72
588.65	477.47
588.81	409.59
588.97	404.91
589.13	430.66
589.29	454.06
589.45	500.87
589.61	451.72
589.77	454.06
589.93	484.49
590.08	355.76
590.24	454.06
590.40	379.17
590.56	404.91
590.72	409.59
590.88	416.62
591.04	425.98
591.20	355.76
591.35	428.32
591.51	458.74
591.67	379.17
591.83	477.47
591.99	400.23
592.15	433.00
592.31	376.83
592.46	379.17
592.62	484.49
592.78	388.53
592.94	407.25
593.10	383.85
593.26	358.10
593.41	402.57
593.57	451.72
593.73	374.49
593.89	461.09
594.05	444.70
594.20	404.91
594.36	404.91
594.52	362.78
594.68	486.83
594.84	421.30
594.99	414.27
595.15	456.40
595.31	423.64
595.47	418.96
595.62	400.23
595.78	435.34
595.94	449.38
596.10	447.04
596.25	421.30
596.41	437.68
596.57	365.12
596.73	447.04
596.88	416.62
597.04	470.45
597.20	334.70
597.36	433.00
597.51	365.12
597.67	521.94
597.83	428.32
597.99	414.27
598.14	475.13
598.30	374.49
598.46	456.40
598.61	395.55
598.77	418.96
598.93	418.96
599.09	425.98
599.24	470.45
599.40	449.38
599.56	465.77
599.71	433.00
599.87	449.38
600.03	423.64
600.18	369.80
600.34	454.06
600.50	423.64
600.65	440.02
600.81	461.09
600.97	358.10
601.12	407.25
601.28	468.11
601.44	435.34
601.59	369.80
601.75	334.70
601.91	423.64
602.06	470.45
602.22	507.90
602.37	444.70
602.53	437.68
602.69	423.64
602.84	395.55
603.00	416.62
603.16	442.36
603.31	411.93
603.47	421.30
603.62	355.76
603.78	456.40
603.94	449.38
604.09	435.34
604.25	444.70
604.40	458.74
604.56	409.59
604.71	383.85
604.87	433.00
605.03	407.25
605.18	411.93
605.34	414.27
605.49	388.53
605.65	435.34
605.80	477.47
605.96	479.81
606.12	468.11
606.27	435.34
606.43	369.80
606.58	425.98
606.74	451.72
606.89	425.98
607.05	369.80
607.20	407.25
607.36	386.19
607.51	433.00
607.67	461.09
607.82	491.51
607.98	475.13
608.13	397.89
608.29	430.66
608.44	475.13
608.60	470.45
608.75	407.25
608.91	449.38
609.06	486.83
609.22	463.43
609.37	447.04
609.53	395.55
609.68	407.25
609.84	390.87
609.99	386.19
610.15	447.04
