SpectraSuite Data File
++++++++++++++++++++++++++++++++++++
Date: Fri Oct 25 12:11:38 EDT 2013
User: price-jones
Dark Spectrum Present: No
Reference Spectrum Present: No
Number of Sampled Component Spectra: 1
Spectrometers: USB2+H05261
Integration Time (usec): 100000 (USB2+H05261)
Spectra Averaged: 1 (USB2+H05261)
Boxcar Smoothing: 0 (USB2+H05261)
Correct for Electrical Dark: No (USB2+H05261)
Strobe/Lamp Enabled: No (USB2+H05261)
Correct for Detector Non-linearity: No (USB2+H05261)
Correct for Stray Light: No (USB2+H05261)
Number of Pixels in Processed Spectrum: 2048
>>>>>Begin Processed Spectral Data<<<<<
365.73	348.74
365.92	348.74
366.12	348.74
366.32	290.23
366.52	292.57
366.72	238.73
366.91	229.37
367.11	248.10
367.31	224.69
367.51	210.65
367.70	198.95
367.90	210.65
368.10	163.84
368.30	241.08
368.49	201.29
368.69	236.39
368.89	140.43
369.09	201.29
369.28	299.59
369.48	332.36
369.68	273.84
369.87	248.10
370.07	287.89
370.27	297.25
370.47	332.36
370.66	369.80
370.86	304.27
371.06	360.44
371.25	404.91
371.45	416.62
371.65	395.55
371.84	395.55
372.04	395.55
372.24	381.51
372.44	421.30
372.63	341.72
372.83	353.42
373.03	447.04
373.22	407.25
373.42	456.40
373.62	369.80
373.81	444.70
374.01	456.40
374.21	451.72
374.40	442.36
374.60	454.06
374.79	418.96
374.99	435.34
375.19	416.62
375.38	451.72
375.58	433.00
375.78	461.09
375.97	393.21
376.17	388.53
376.37	414.27
376.56	463.43
376.76	421.30
376.95	468.11
377.15	437.68
377.35	374.49
377.54	444.70
377.74	374.49
377.93	444.70
378.13	414.27
378.33	411.93
378.52	421.30
378.72	442.36
378.91	421.30
379.11	404.91
379.31	440.02
379.50	390.87
379.70	440.02
379.89	369.80
380.09	433.00
380.28	376.83
380.48	425.98
380.68	409.59
380.87	355.76
381.07	423.64
381.26	416.62
381.46	444.70
381.65	442.36
381.85	362.78
382.04	358.10
382.24	442.36
382.43	404.91
382.63	381.51
382.83	475.13
383.02	433.00
383.22	461.09
383.41	411.93
383.61	379.17
383.80	407.25
384.00	383.85
384.19	414.27
384.39	479.81
384.58	425.98
384.78	456.40
384.97	421.30
385.17	393.21
385.36	397.89
385.56	407.25
385.75	367.46
385.95	458.74
386.14	423.64
386.34	423.64
386.53	374.49
386.72	372.15
386.92	503.22
387.11	360.44
387.31	435.34
387.50	353.42
387.70	409.59
387.89	425.98
388.09	355.76
388.28	402.57
388.48	395.55
388.67	510.24
388.86	390.87
389.06	435.34
389.25	358.10
389.45	386.19
389.64	433.00
389.84	423.64
390.03	430.66
390.22	404.91
390.42	393.21
390.61	348.74
390.81	355.76
391.00	433.00
391.19	402.57
391.39	407.25
391.58	416.62
391.78	442.36
391.97	348.74
392.16	372.15
392.36	440.02
392.55	407.25
392.75	369.80
392.94	390.87
393.13	437.68
393.33	381.51
393.52	397.89
393.71	407.25
393.91	444.70
394.10	416.62
394.29	379.17
394.49	304.27
394.68	285.55
394.88	381.51
395.07	348.74
395.26	433.00
395.46	421.30
395.65	379.17
395.84	458.74
396.04	463.43
396.23	463.43
396.42	393.21
396.62	390.87
396.81	425.98
397.00	402.57
397.19	447.04
397.39	451.72
397.58	400.23
397.77	311.29
397.97	430.66
398.16	395.55
398.35	395.55
398.55	393.21
398.74	397.89
398.93	468.11
399.12	325.33
399.32	376.83
399.51	348.74
399.70	435.34
399.90	414.27
400.09	395.55
400.28	440.02
400.47	402.57
400.67	395.55
400.86	418.96
401.05	435.34
401.24	463.43
401.44	425.98
401.63	411.93
401.82	367.46
402.01	397.89
402.21	313.63
402.40	344.06
402.59	440.02
402.78	418.96
402.97	400.23
403.17	454.06
403.36	433.00
403.55	451.72
403.74	402.57
403.93	425.98
404.13	351.08
404.32	376.83
404.51	374.49
404.70	402.57
404.89	440.02
405.09	491.51
405.28	421.30
405.47	374.49
405.66	428.32
405.85	435.34
406.05	479.81
406.24	400.23
406.43	404.91
406.62	374.49
406.81	505.56
407.00	404.91
407.20	409.59
407.39	442.36
407.58	390.87
407.77	449.38
407.96	437.68
408.15	407.25
408.34	475.13
408.54	449.38
408.73	390.87
408.92	358.10
409.11	409.59
409.30	456.40
409.49	367.46
409.68	472.79
409.87	369.80
410.07	411.93
410.26	386.19
410.45	395.55
410.64	367.46
410.83	365.12
411.02	449.38
411.21	372.15
411.40	418.96
411.59	393.21
411.78	409.59
411.98	465.77
412.17	409.59
412.36	367.46
412.55	423.64
412.74	388.53
412.93	423.64
413.12	458.74
413.31	381.51
413.50	425.98
413.69	400.23
413.88	437.68
414.07	402.57
414.26	404.91
414.45	381.51
414.64	447.04
414.83	388.53
415.02	332.36
415.22	358.10
415.41	458.74
415.60	444.70
415.79	437.68
415.98	449.38
416.17	400.23
416.36	430.66
416.55	421.30
416.74	404.91
416.93	435.34
417.12	402.57
417.31	386.19
417.50	372.15
417.69	411.93
417.88	416.62
418.07	404.91
418.26	397.89
418.45	351.08
418.64	428.32
418.83	468.11
419.02	470.45
419.21	425.98
419.39	458.74
419.58	414.27
419.77	425.98
419.96	400.23
420.15	400.23
420.34	393.21
420.53	381.51
420.72	407.25
420.91	395.55
421.10	409.59
421.29	388.53
421.48	444.70
421.67	402.57
421.86	388.53
422.05	292.57
422.24	365.12
422.43	442.36
422.61	360.44
422.80	433.00
422.99	435.34
423.18	379.17
423.37	430.66
423.56	407.25
423.75	388.53
423.94	365.12
424.13	407.25
424.32	372.15
424.50	346.40
424.69	435.34
424.88	407.25
425.07	390.87
425.26	402.57
425.45	428.32
425.64	348.74
425.83	358.10
426.01	465.77
426.20	435.34
426.39	411.93
426.58	414.27
426.77	393.21
426.96	383.85
427.15	285.55
427.33	444.70
427.52	386.19
427.71	402.57
427.90	437.68
428.09	407.25
428.28	411.93
428.46	374.49
428.65	479.81
428.84	381.51
429.03	397.89
429.22	393.21
429.40	404.91
429.59	407.25
429.78	433.00
429.97	461.09
430.16	383.85
430.34	393.21
430.53	383.85
430.72	463.43
430.91	388.53
431.10	397.89
431.28	454.06
431.47	400.23
431.66	397.89
431.85	325.33
432.03	390.87
432.22	409.59
432.41	353.42
432.60	451.72
432.79	386.19
432.97	362.78
433.16	407.25
433.35	365.12
433.54	444.70
433.72	444.70
433.91	458.74
434.10	423.64
434.28	395.55
434.47	320.65
434.66	421.30
434.85	360.44
435.03	454.06
435.22	416.62
435.41	435.34
435.59	421.30
435.78	404.91
435.97	468.11
436.16	500.87
436.34	407.25
436.53	428.32
436.72	358.10
436.90	367.46
437.09	414.27
437.28	435.34
437.46	416.62
437.65	423.64
437.84	444.70
438.02	451.72
438.21	388.53
438.40	409.59
438.58	395.55
438.77	369.80
438.96	400.23
439.14	440.02
439.33	348.74
439.52	425.98
439.70	386.19
439.89	433.00
440.08	468.11
440.26	477.47
440.45	372.15
440.63	369.80
440.82	355.76
441.01	423.64
441.19	428.32
441.38	421.30
441.57	475.13
441.75	437.68
441.94	428.32
442.12	411.93
442.31	381.51
442.50	421.30
442.68	416.62
442.87	423.64
443.05	491.51
443.24	423.64
443.43	486.83
443.61	421.30
443.80	435.34
443.98	423.64
444.17	402.57
444.35	407.25
444.54	414.27
444.73	407.25
444.91	435.34
445.10	423.64
445.28	458.74
445.47	386.19
445.65	444.70
445.84	421.30
446.02	386.19
446.21	402.57
446.39	365.12
446.58	353.42
446.77	381.51
446.95	341.72
447.14	414.27
447.32	465.77
447.51	404.91
447.69	442.36
447.88	388.53
448.06	440.02
448.25	409.59
448.43	390.87
448.62	397.89
448.80	353.42
448.99	369.80
449.17	402.57
449.36	428.32
449.54	411.93
449.73	447.04
449.91	447.04
450.10	416.62
450.28	482.15
450.46	430.66
450.65	374.49
450.83	409.59
451.02	425.98
451.20	416.62
451.39	444.70
451.57	390.87
451.76	400.23
451.94	472.79
452.13	395.55
452.31	409.59
452.49	407.25
452.68	372.15
452.86	451.72
453.05	414.27
453.23	491.51
453.42	397.89
453.60	442.36
453.78	440.02
453.97	416.62
454.15	435.34
454.34	402.57
454.52	388.53
454.70	409.59
454.89	458.74
455.07	388.53
455.26	435.34
455.44	386.19
455.62	369.80
455.81	437.68
455.99	369.80
456.17	360.44
456.36	322.99
456.54	369.80
456.73	454.06
456.91	397.89
457.09	456.40
457.28	435.34
457.46	486.83
457.64	500.87
457.83	411.93
458.01	421.30
458.19	428.32
458.38	526.62
458.56	393.21
458.74	416.62
458.93	503.22
459.11	388.53
459.29	437.68
459.48	449.38
459.66	482.15
459.84	330.02
460.03	449.38
460.21	465.77
460.39	444.70
460.57	411.93
460.76	355.76
460.94	449.38
461.12	440.02
461.31	402.57
461.49	393.21
461.67	386.19
461.85	407.25
462.04	374.49
462.22	765.36
462.40	465.77
462.59	409.59
462.77	379.17
462.95	479.81
463.13	386.19
463.32	454.06
463.50	456.40
463.68	447.04
463.86	433.00
464.05	437.68
464.23	433.00
464.41	423.64
464.59	444.70
464.78	376.83
464.96	409.59
465.14	402.57
465.32	388.53
465.50	437.68
465.69	383.85
465.87	374.49
466.05	444.70
466.23	369.80
466.41	433.00
466.60	435.34
466.78	404.91
466.96	430.66
467.14	468.11
467.32	465.77
467.51	461.09
467.69	409.59
467.87	395.55
468.05	477.47
468.23	374.49
468.41	461.09
468.60	369.80
468.78	395.55
468.96	402.57
469.14	397.89
469.32	411.93
469.50	383.85
469.69	451.72
469.87	447.04
470.05	430.66
470.23	421.30
470.41	407.25
470.59	418.96
470.77	435.34
470.95	428.32
471.14	449.38
471.32	454.06
471.50	411.93
471.68	407.25
471.86	393.21
472.04	433.00
472.22	440.02
472.40	374.49
472.58	444.70
472.77	376.83
472.95	421.30
473.13	433.00
473.31	496.19
473.49	374.49
473.67	411.93
473.85	367.46
474.03	381.51
474.21	482.15
474.39	411.93
474.57	479.81
474.75	404.91
474.93	360.44
475.12	430.66
475.30	360.44
475.48	388.53
475.66	400.23
475.84	388.53
476.02	442.36
476.20	404.91
476.38	423.64
476.56	447.04
476.74	444.70
476.92	418.96
477.10	451.72
477.28	416.62
477.46	388.53
477.64	383.85
477.82	442.36
478.00	407.25
478.18	376.83
478.36	325.33
478.54	411.93
478.72	447.04
478.90	358.10
479.08	423.64
479.26	447.04
479.44	437.68
479.62	414.27
479.80	360.44
479.98	447.04
480.16	355.76
480.34	407.25
480.52	402.57
480.70	444.70
480.88	386.19
481.06	407.25
481.24	430.66
481.41	404.91
481.59	407.25
481.77	463.43
481.95	400.23
482.13	437.68
482.31	381.51
482.49	353.42
482.67	416.62
482.85	374.49
483.03	421.30
483.21	421.30
483.39	507.90
483.57	435.34
483.74	447.04
483.92	430.66
484.10	327.68
484.28	468.11
484.46	491.51
484.64	489.17
484.82	407.25
485.00	383.85
485.18	381.51
485.35	414.27
485.53	393.21
485.71	484.49
485.89	458.74
486.07	425.98
486.25	423.64
486.43	477.47
486.61	411.93
486.78	418.96
486.96	435.34
487.14	430.66
487.32	381.51
487.50	397.89
487.68	486.83
487.85	444.70
488.03	470.45
488.21	435.34
488.39	437.68
488.57	425.98
488.75	374.49
488.92	421.30
489.10	388.53
489.28	475.13
489.46	376.83
489.64	397.89
489.81	447.04
489.99	475.13
490.17	388.53
490.35	388.53
490.53	416.62
490.70	461.09
490.88	442.36
491.06	337.04
491.24	463.43
491.41	400.23
491.59	430.66
491.77	479.81
491.95	374.49
492.13	463.43
492.30	341.72
492.48	503.22
492.66	435.34
492.84	465.77
493.01	393.21
493.19	346.40
493.37	393.21
493.54	404.91
493.72	428.32
493.90	395.55
494.08	341.72
494.25	458.74
494.43	440.02
494.61	362.78
494.79	390.87
494.96	327.68
495.14	388.53
495.32	437.68
495.49	388.53
495.67	404.91
495.85	428.32
496.02	442.36
496.20	416.62
496.38	411.93
496.55	374.49
496.73	437.68
496.91	444.70
497.09	470.45
497.26	395.55
497.44	418.96
497.62	409.59
497.79	430.66
497.97	379.17
498.14	367.46
498.32	402.57
498.50	430.66
498.67	414.27
498.85	402.57
499.03	468.11
499.20	397.89
499.38	435.34
499.56	423.64
499.73	400.23
499.91	395.55
500.08	463.43
500.26	486.83
500.44	454.06
500.61	482.15
500.79	423.64
500.97	414.27
501.14	423.64
501.32	362.78
501.49	482.15
501.67	400.23
501.84	411.93
502.02	374.49
502.20	400.23
502.37	416.62
502.55	484.49
502.72	458.74
502.90	421.30
503.07	437.68
503.25	447.04
503.43	374.49
503.60	442.36
503.78	397.89
503.95	407.25
504.13	372.15
504.30	510.24
504.48	402.57
504.65	374.49
504.83	390.87
505.01	451.72
505.18	440.02
505.36	383.85
505.53	381.51
505.71	388.53
505.88	451.72
506.06	465.77
506.23	458.74
506.41	367.46
506.58	348.74
506.76	414.27
506.93	381.51
507.11	479.81
507.28	447.04
507.46	421.30
507.63	416.62
507.81	358.10
507.98	463.43
508.16	425.98
508.33	440.02
508.50	421.30
508.68	418.96
508.85	404.91
509.03	463.43
509.20	383.85
509.38	451.72
509.55	470.45
509.73	531.30
509.90	442.36
510.08	397.89
510.25	433.00
510.42	388.53
510.60	411.93
510.77	409.59
510.95	440.02
511.12	444.70
511.30	418.96
511.47	440.02
511.64	461.09
511.82	463.43
511.99	393.21
512.17	320.65
512.34	425.98
512.51	461.09
512.69	423.64
512.86	383.85
513.04	484.49
513.21	451.72
513.38	353.42
513.56	454.06
513.73	388.53
513.90	421.30
514.08	372.15
514.25	444.70
514.43	435.34
514.60	421.30
514.77	442.36
514.95	423.64
515.12	374.49
515.29	372.15
515.47	376.83
515.64	381.51
515.81	369.80
515.99	433.00
516.16	374.49
516.33	444.70
516.51	425.98
516.68	409.59
516.85	360.44
517.03	477.47
517.20	418.96
517.37	440.02
517.54	379.17
517.72	458.74
517.89	407.25
518.06	400.23
518.24	461.09
518.41	458.74
518.58	374.49
518.75	386.19
518.93	433.00
519.10	418.96
519.27	435.34
519.45	374.49
519.62	423.64
519.79	447.04
519.96	456.40
520.14	381.51
520.31	491.51
520.48	397.89
520.65	362.78
520.83	400.23
521.00	360.44
521.17	388.53
521.34	404.91
521.52	428.32
521.69	440.02
521.86	447.04
522.03	395.55
522.20	428.32
522.38	393.21
522.55	491.51
522.72	365.12
522.89	362.78
523.07	444.70
523.24	454.06
523.41	383.85
523.58	397.89
523.75	479.81
523.92	372.15
524.10	437.68
524.27	411.93
524.44	341.72
524.61	489.17
524.78	402.57
524.96	395.55
525.13	393.21
525.30	479.81
525.47	360.44
525.64	411.93
525.81	409.59
525.98	449.38
526.16	416.62
526.33	383.85
526.50	362.78
526.67	449.38
526.84	379.17
527.01	386.19
527.18	416.62
527.36	388.53
527.53	444.70
527.70	402.57
527.87	425.98
528.04	470.45
528.21	416.62
528.38	428.32
528.55	430.66
528.72	404.91
528.89	498.53
529.07	411.93
529.24	393.21
529.41	491.51
529.58	472.79
529.75	437.68
529.92	437.68
530.09	367.46
530.26	388.53
530.43	404.91
530.60	463.43
530.77	374.49
530.94	428.32
531.11	383.85
531.28	440.02
531.46	447.04
531.63	468.11
531.80	414.27
531.97	482.15
532.14	400.23
532.31	383.85
532.48	381.51
532.65	465.77
532.82	407.25
532.99	407.25
533.16	409.59
533.33	390.87
533.50	472.79
533.67	404.91
533.84	456.40
534.01	461.09
534.18	404.91
534.35	475.13
534.52	383.85
534.69	421.30
534.86	395.55
535.03	400.23
535.20	461.09
535.37	456.40
535.54	447.04
535.71	416.62
535.88	444.70
536.05	414.27
536.22	482.15
536.38	479.81
536.55	404.91
536.72	425.98
536.89	372.15
537.06	496.19
537.23	425.98
537.40	435.34
537.57	386.19
537.74	414.27
537.91	463.43
538.08	383.85
538.25	397.89
538.42	372.15
538.59	418.96
538.75	447.04
538.92	425.98
539.09	440.02
539.26	489.17
539.43	451.72
539.60	442.36
539.77	393.21
539.94	388.53
540.11	500.87
540.28	531.30
540.44	489.17
540.61	388.53
540.78	409.59
540.95	376.83
541.12	407.25
541.29	421.30
541.46	500.87
541.62	456.40
541.79	400.23
541.96	435.34
542.13	437.68
542.30	402.57
542.47	468.11
542.63	379.17
542.80	367.46
542.97	411.93
543.14	447.04
543.31	447.04
543.48	414.27
543.64	456.40
543.81	418.96
543.98	442.36
544.15	386.19
544.32	454.06
544.48	395.55
544.65	421.30
544.82	393.21
544.99	428.32
545.16	351.08
545.32	400.23
545.49	440.02
545.66	388.53
545.83	409.59
546.00	390.87
546.16	440.02
546.33	409.59
546.50	402.57
546.67	390.87
546.83	376.83
547.00	486.83
547.17	482.15
547.34	411.93
547.50	388.53
547.67	421.30
547.84	379.17
548.00	421.30
548.17	393.21
548.34	332.36
548.51	444.70
548.67	421.30
548.84	418.96
549.01	449.38
549.18	421.30
549.34	430.66
549.51	533.64
549.68	475.13
549.84	372.15
550.01	451.72
550.18	433.00
550.34	447.04
550.51	425.98
550.68	493.85
550.84	390.87
551.01	444.70
551.18	430.66
551.34	425.98
551.51	418.96
551.68	486.83
551.84	484.49
552.01	475.13
552.18	428.32
552.34	433.00
552.51	407.25
552.68	355.76
552.84	433.00
553.01	404.91
553.18	411.93
553.34	418.96
553.51	409.59
553.67	388.53
553.84	470.45
554.01	414.27
554.17	468.11
554.34	423.64
554.51	477.47
554.67	475.13
554.84	468.11
555.00	456.40
555.17	404.91
555.33	425.98
555.50	433.00
555.67	454.06
555.83	353.42
556.00	475.13
556.16	573.43
556.33	468.11
556.50	440.02
556.66	428.32
556.83	418.96
556.99	425.98
557.16	503.22
557.32	428.32
557.49	381.51
557.65	421.30
557.82	440.02
557.98	388.53
558.15	407.25
558.32	409.59
558.48	425.98
558.65	440.02
558.81	416.62
558.98	400.23
559.14	425.98
559.31	475.13
559.47	402.57
559.64	428.32
559.80	395.55
559.97	395.55
560.13	348.74
560.30	353.42
560.46	386.19
560.63	435.34
560.79	393.21
560.96	444.70
561.12	416.62
561.29	433.00
561.45	498.53
561.61	344.06
561.78	449.38
561.94	409.59
562.11	367.46
562.27	421.30
562.44	397.89
562.60	386.19
562.77	416.62
562.93	451.72
563.10	444.70
563.26	404.91
563.42	433.00
563.59	395.55
563.75	395.55
563.92	351.08
564.08	423.64
564.24	418.96
564.41	486.83
564.57	388.53
564.74	444.70
564.90	383.85
565.07	372.15
565.23	475.13
565.39	418.96
565.56	362.78
565.72	482.15
565.88	362.78
566.05	411.93
566.21	461.09
566.38	437.68
566.54	468.11
566.70	379.17
566.87	369.80
567.03	435.34
567.19	437.68
567.36	416.62
567.52	404.91
567.68	400.23
567.85	430.66
568.01	393.21
568.17	451.72
568.34	465.77
568.50	456.40
568.66	404.91
568.83	454.06
568.99	390.87
569.15	454.06
569.32	341.72
569.48	414.27
569.64	388.53
569.81	425.98
569.97	461.09
570.13	440.02
570.30	409.59
570.46	418.96
570.62	339.38
570.78	468.11
570.95	442.36
571.11	472.79
571.27	475.13
571.43	379.17
571.60	440.02
571.76	407.25
571.92	344.06
572.09	475.13
572.25	301.93
572.41	440.02
572.57	442.36
572.74	447.04
572.90	416.62
573.06	402.57
573.22	454.06
573.38	379.17
573.55	388.53
573.71	372.15
573.87	416.62
574.03	369.80
574.20	339.38
574.36	463.43
574.52	463.43
574.68	395.55
574.84	400.23
575.01	367.46
575.17	440.02
575.33	482.15
575.49	430.66
575.65	421.30
575.82	503.22
575.98	411.93
576.14	470.45
576.30	395.55
576.46	393.21
576.62	365.12
576.79	442.36
576.95	465.77
577.11	334.70
577.27	411.93
577.43	418.96
577.59	451.72
577.75	393.21
577.92	428.32
578.08	447.04
578.24	409.59
578.40	507.90
578.56	505.56
578.72	500.87
578.88	418.96
579.04	358.10
579.21	425.98
579.37	379.17
579.53	435.34
579.69	491.51
579.85	409.59
580.01	407.25
580.17	388.53
580.33	416.62
580.49	463.43
580.65	404.91
580.82	397.89
580.98	454.06
581.14	341.72
581.30	367.46
581.46	362.78
581.62	503.22
581.78	425.98
581.94	414.27
582.10	374.49
582.26	437.68
582.42	393.21
582.58	433.00
582.74	409.59
582.90	482.15
583.06	479.81
583.22	437.68
583.38	404.91
583.54	486.83
583.70	449.38
583.86	454.06
584.02	397.89
584.18	479.81
584.34	463.43
584.50	484.49
584.66	411.93
584.82	465.77
584.98	400.23
585.14	510.24
585.30	458.74
585.46	421.30
585.62	320.65
585.78	447.04
585.94	416.62
586.10	463.43
586.26	362.78
586.42	449.38
586.58	381.51
586.74	461.09
586.90	423.64
587.06	463.43
587.22	447.04
587.38	414.27
587.54	409.59
587.70	383.85
587.86	351.08
588.02	414.27
588.18	437.68
588.34	477.47
588.49	435.34
588.65	442.36
588.81	411.93
588.97	395.55
589.13	442.36
589.29	447.04
589.45	465.77
589.61	397.89
589.77	430.66
589.93	437.68
590.08	404.91
590.24	402.57
590.40	390.87
590.56	404.91
590.72	498.53
590.88	388.53
591.04	402.57
591.20	477.47
591.35	367.46
591.51	407.25
591.67	437.68
591.83	440.02
591.99	489.17
592.15	444.70
592.31	414.27
592.46	500.87
592.62	449.38
592.78	465.77
592.94	325.33
593.10	416.62
593.26	435.34
593.41	479.81
593.57	393.21
593.73	390.87
593.89	414.27
594.05	369.80
594.20	451.72
594.36	458.74
594.52	461.09
594.68	414.27
594.84	444.70
594.99	430.66
595.15	428.32
595.31	421.30
595.47	444.70
595.62	421.30
595.78	440.02
595.94	395.55
596.10	451.72
596.25	454.06
596.41	428.32
596.57	395.55
596.73	458.74
596.88	435.34
597.04	428.32
597.20	421.30
597.36	381.51
597.51	409.59
597.67	463.43
597.83	496.19
597.99	444.70
598.14	395.55
598.30	456.40
598.46	383.85
598.61	383.85
598.77	421.30
598.93	402.57
599.09	423.64
599.24	430.66
599.40	397.89
599.56	304.27
599.71	421.30
599.87	437.68
600.03	435.34
600.18	397.89
600.34	435.34
600.50	435.34
600.65	482.15
600.81	386.19
600.97	374.49
601.12	463.43
601.28	475.13
601.44	430.66
601.59	407.25
601.75	397.89
601.91	433.00
602.06	409.59
602.22	510.24
602.37	332.36
602.53	376.83
602.69	409.59
602.84	353.42
603.00	325.33
603.16	418.96
603.31	390.87
603.47	372.15
603.62	435.34
603.78	437.68
603.94	374.49
604.09	374.49
604.25	414.27
604.40	428.32
604.56	393.21
604.71	393.21
604.87	444.70
605.03	407.25
605.18	416.62
605.34	404.91
605.49	402.57
605.65	447.04
605.80	383.85
605.96	379.17
606.12	407.25
606.27	435.34
606.43	400.23
606.58	393.21
606.74	437.68
606.89	381.51
607.05	479.81
607.20	404.91
607.36	444.70
607.51	407.25
607.67	372.15
607.82	383.85
607.98	472.79
608.13	444.70
608.29	397.89
608.44	458.74
608.60	402.57
608.75	404.91
608.91	428.32
609.06	451.72
609.22	514.92
609.37	400.23
609.53	395.55
609.68	414.27
609.84	409.59
609.99	397.89
610.15	402.57
