SpectraSuite Data File
++++++++++++++++++++++++++++++++++++
Date: Fri Oct 25 12:10:40 EDT 2013
User: price-jones
Dark Spectrum Present: No
Reference Spectrum Present: No
Number of Sampled Component Spectra: 1
Spectrometers: USB2+H05261
Integration Time (usec): 100000 (USB2+H05261)
Spectra Averaged: 1 (USB2+H05261)
Boxcar Smoothing: 0 (USB2+H05261)
Correct for Electrical Dark: No (USB2+H05261)
Strobe/Lamp Enabled: No (USB2+H05261)
Correct for Detector Non-linearity: No (USB2+H05261)
Correct for Stray Light: No (USB2+H05261)
Number of Pixels in Processed Spectrum: 2048
>>>>>Begin Processed Spectral Data<<<<<
365.73	337.04
365.92	337.04
366.12	337.04
366.32	227.03
366.52	285.55
366.72	210.65
366.91	234.05
367.11	276.18
367.31	227.03
367.51	224.69
367.70	224.69
367.90	205.97
368.10	224.69
368.30	212.99
368.49	229.37
368.69	243.42
368.89	280.86
369.09	290.23
369.28	292.57
369.48	285.55
369.68	290.23
369.87	259.80
370.07	297.25
370.27	348.74
370.47	330.02
370.66	348.74
370.86	386.19
371.06	355.76
371.25	418.96
371.45	369.80
371.65	383.85
371.84	411.93
372.04	425.98
372.24	353.42
372.44	400.23
372.63	425.98
372.83	414.27
373.03	362.78
373.22	348.74
373.42	458.74
373.62	418.96
373.81	411.93
374.01	444.70
374.21	418.96
374.40	402.57
374.60	468.11
374.79	458.74
374.99	442.36
375.19	440.02
375.38	442.36
375.58	372.15
375.78	507.90
375.97	472.79
376.17	390.87
376.37	409.59
376.56	428.32
376.76	348.74
376.95	428.32
377.15	444.70
377.35	367.46
377.54	390.87
377.74	404.91
377.93	400.23
378.13	402.57
378.33	465.77
378.52	449.38
378.72	465.77
378.91	409.59
379.11	402.57
379.31	362.78
379.50	440.02
379.70	465.77
379.89	383.85
380.09	418.96
380.28	367.46
380.48	433.00
380.68	428.32
380.87	372.15
381.07	388.53
381.26	465.77
381.46	365.12
381.65	512.58
381.85	360.44
382.04	388.53
382.24	454.06
382.43	409.59
382.63	447.04
382.83	381.51
383.02	397.89
383.22	468.11
383.41	411.93
383.61	393.21
383.80	348.74
384.00	435.34
384.19	421.30
384.39	393.21
384.58	423.64
384.78	440.02
384.97	334.70
385.17	454.06
385.36	407.25
385.56	369.80
385.75	381.51
385.95	458.74
386.14	421.30
386.34	400.23
386.53	393.21
386.72	386.19
386.92	451.72
387.11	386.19
387.31	365.12
387.50	376.83
387.70	348.74
387.89	442.36
388.09	395.55
388.28	433.00
388.48	447.04
388.67	409.59
388.86	306.61
389.06	489.17
389.25	400.23
389.45	416.62
389.64	404.91
389.84	430.66
390.03	360.44
390.22	383.85
390.42	409.59
390.61	442.36
390.81	353.42
391.00	447.04
391.19	416.62
391.39	449.38
391.58	430.66
391.78	409.59
391.97	322.99
392.16	365.12
392.36	425.98
392.55	489.17
392.75	430.66
392.94	374.49
393.13	404.91
393.33	376.83
393.52	374.49
393.71	430.66
393.91	374.49
394.10	404.91
394.29	416.62
394.49	416.62
394.68	395.55
394.88	433.00
395.07	475.13
395.26	388.53
395.46	374.49
395.65	430.66
395.84	465.77
396.04	507.90
396.23	381.51
396.42	386.19
396.62	362.78
396.81	390.87
397.00	433.00
397.19	468.11
397.39	383.85
397.58	433.00
397.77	400.23
397.97	433.00
398.16	442.36
398.35	458.74
398.55	367.46
398.74	393.21
398.93	418.96
399.12	348.74
399.32	360.44
399.51	425.98
399.70	395.55
399.90	428.32
400.09	437.68
400.28	423.64
400.47	322.99
400.67	351.08
400.86	334.70
401.05	395.55
401.24	479.81
401.44	454.06
401.63	369.80
401.82	393.21
402.01	365.12
402.21	425.98
402.40	397.89
402.59	454.06
402.78	433.00
402.97	388.53
403.17	374.49
403.36	437.68
403.55	400.23
403.74	390.87
403.93	430.66
404.13	458.74
404.32	369.80
404.51	428.32
404.70	430.66
404.89	393.21
405.09	407.25
405.28	390.87
405.47	423.64
405.66	447.04
405.85	402.57
406.05	442.36
406.24	428.32
406.43	418.96
406.62	444.70
406.81	435.34
407.00	484.49
407.20	383.85
407.39	400.23
407.58	416.62
407.77	472.79
407.96	404.91
408.15	355.76
408.34	402.57
408.54	376.83
408.73	360.44
408.92	414.27
409.11	433.00
409.30	400.23
409.49	388.53
409.68	365.12
409.87	397.89
410.07	374.49
410.26	407.25
410.45	440.02
410.64	397.89
410.83	444.70
411.02	369.80
411.21	430.66
411.40	407.25
411.59	425.98
411.78	379.17
411.98	400.23
412.17	440.02
412.36	374.49
412.55	332.36
412.74	360.44
412.93	388.53
413.12	390.87
413.31	409.59
413.50	407.25
413.69	411.93
413.88	376.83
414.07	393.21
414.26	421.30
414.45	372.15
414.64	451.72
414.83	348.74
415.02	400.23
415.22	437.68
415.41	444.70
415.60	379.17
415.79	423.64
415.98	444.70
416.17	454.06
416.36	390.87
416.55	451.72
416.74	362.78
416.93	442.36
417.12	416.62
417.31	372.15
417.50	341.72
417.69	468.11
417.88	475.13
418.07	379.17
418.26	402.57
418.45	430.66
418.64	456.40
418.83	379.17
419.02	475.13
419.21	400.23
419.39	416.62
419.58	440.02
419.77	418.96
419.96	402.57
420.15	447.04
420.34	407.25
420.53	374.49
420.72	393.21
420.91	425.98
421.10	423.64
421.29	365.12
421.48	374.49
421.67	409.59
421.86	414.27
422.05	442.36
422.24	327.68
422.43	365.12
422.61	402.57
422.80	348.74
422.99	341.72
423.18	411.93
423.37	400.23
423.56	376.83
423.75	486.83
423.94	409.59
424.13	428.32
424.32	433.00
424.50	341.72
424.69	411.93
424.88	449.38
425.07	451.72
425.26	374.49
425.45	433.00
425.64	402.57
425.83	421.30
426.01	390.87
426.20	418.96
426.39	428.32
426.58	411.93
426.77	486.83
426.96	425.98
427.15	430.66
427.33	433.00
427.52	383.85
427.71	489.17
427.90	458.74
428.09	411.93
428.28	418.96
428.46	339.38
428.65	425.98
428.84	365.12
429.03	400.23
429.22	404.91
429.40	390.87
429.59	390.87
429.78	397.89
429.97	393.21
430.16	423.64
430.34	353.42
430.53	404.91
430.72	393.21
430.91	318.31
431.10	416.62
431.28	369.80
431.47	430.66
431.66	491.51
431.85	468.11
432.03	442.36
432.22	400.23
432.41	454.06
432.60	395.55
432.79	409.59
432.97	404.91
433.16	388.53
433.35	418.96
433.54	421.30
433.72	475.13
433.91	442.36
434.10	358.10
434.28	411.93
434.47	386.19
434.66	433.00
434.85	418.96
435.03	411.93
435.22	470.45
435.41	425.98
435.59	397.89
435.78	315.97
435.97	435.34
436.16	421.30
436.34	386.19
436.53	435.34
436.72	360.44
436.90	402.57
437.09	416.62
437.28	423.64
437.46	423.64
437.65	442.36
437.84	451.72
438.02	463.43
438.21	395.55
438.40	404.91
438.58	409.59
438.77	451.72
438.96	414.27
439.14	461.09
439.33	327.68
439.52	428.32
439.70	447.04
439.89	440.02
440.08	477.47
440.26	369.80
440.45	407.25
440.63	390.87
440.82	433.00
441.01	428.32
441.19	402.57
441.38	404.91
441.57	388.53
441.75	365.12
441.94	425.98
442.12	425.98
442.31	383.85
442.50	435.34
442.68	390.87
442.87	468.11
443.05	461.09
443.24	425.98
443.43	388.53
443.61	325.33
443.80	411.93
443.98	397.89
444.17	442.36
444.35	430.66
444.54	388.53
444.73	407.25
444.91	374.49
445.10	379.17
445.28	437.68
445.47	365.12
445.65	451.72
445.84	390.87
446.02	440.02
446.21	463.43
446.39	386.19
446.58	397.89
446.77	383.85
446.95	404.91
447.14	440.02
447.32	414.27
447.51	430.66
447.69	442.36
447.88	409.59
448.06	458.74
448.25	423.64
448.43	437.68
448.62	409.59
448.80	463.43
448.99	397.89
449.17	416.62
449.36	395.55
449.54	423.64
449.73	337.04
449.91	433.00
450.10	353.42
450.28	397.89
450.46	365.12
450.65	379.17
450.83	428.32
451.02	491.51
451.20	421.30
451.39	425.98
451.57	491.51
451.76	468.11
451.94	407.25
452.13	374.49
452.31	393.21
452.49	362.78
452.68	440.02
452.86	465.77
453.05	449.38
453.23	463.43
453.42	402.57
453.60	372.15
453.78	383.85
453.97	430.66
454.15	395.55
454.34	381.51
454.52	414.27
454.70	390.87
454.89	484.49
455.07	390.87
455.26	411.93
455.44	465.77
455.62	381.51
455.81	486.83
455.99	435.34
456.17	470.45
456.36	351.08
456.54	440.02
456.73	372.15
456.91	442.36
457.09	444.70
457.28	423.64
457.46	393.21
457.64	437.68
457.83	390.87
458.01	330.02
458.19	465.77
458.38	346.40
458.56	442.36
458.74	414.27
458.93	360.44
459.11	454.06
459.29	369.80
459.48	461.09
459.66	456.40
459.84	311.29
460.03	409.59
460.21	425.98
460.39	479.81
460.57	433.00
460.76	423.64
460.94	416.62
461.12	348.74
461.31	477.47
461.49	449.38
461.67	400.23
461.85	472.79
462.04	381.51
462.22	758.33
462.40	442.36
462.59	418.96
462.77	397.89
462.95	496.19
463.13	393.21
463.32	388.53
463.50	447.04
463.68	421.30
463.86	505.56
464.05	332.36
464.23	433.00
464.41	395.55
464.59	465.77
464.78	507.90
464.96	346.40
465.14	468.11
465.32	468.11
465.50	372.15
465.69	381.51
465.87	339.38
466.05	449.38
466.23	393.21
466.41	397.89
466.60	383.85
466.78	440.02
466.96	414.27
467.14	386.19
467.32	477.47
467.51	409.59
467.69	472.79
467.87	458.74
468.05	489.17
468.23	386.19
468.41	428.32
468.60	444.70
468.78	367.46
468.96	463.43
469.14	383.85
469.32	358.10
469.50	468.11
469.69	421.30
469.87	369.80
470.05	411.93
470.23	404.91
470.41	325.33
470.59	423.64
470.77	430.66
470.95	400.23
471.14	418.96
471.32	393.21
471.50	491.51
471.68	500.87
471.86	428.32
472.04	407.25
472.22	355.76
472.40	430.66
472.58	397.89
472.77	421.30
472.95	402.57
473.13	411.93
473.31	411.93
473.49	346.40
473.67	337.04
473.85	404.91
474.03	414.27
474.21	379.17
474.39	475.13
474.57	475.13
474.75	390.87
474.93	400.23
475.12	400.23
475.30	510.24
475.48	400.23
475.66	381.51
475.84	372.15
476.02	379.17
476.20	435.34
476.38	433.00
476.56	409.59
476.74	411.93
476.92	411.93
477.10	430.66
477.28	465.77
477.46	351.08
477.64	379.17
477.82	430.66
478.00	418.96
478.18	512.58
478.36	418.96
478.54	425.98
478.72	421.30
478.90	348.74
479.08	400.23
479.26	447.04
479.44	440.02
479.62	456.40
479.80	451.72
479.98	437.68
480.16	456.40
480.34	381.51
480.52	404.91
480.70	407.25
480.88	414.27
481.06	442.36
481.24	379.17
481.41	456.40
481.59	425.98
481.77	458.74
481.95	416.62
482.13	393.21
482.31	362.78
482.49	393.21
482.67	379.17
482.85	346.40
483.03	437.68
483.21	430.66
483.39	358.10
483.57	442.36
483.74	440.02
483.92	465.77
484.10	334.70
484.28	447.04
484.46	451.72
484.64	428.32
484.82	428.32
485.00	411.93
485.18	393.21
485.35	404.91
485.53	372.15
485.71	454.06
485.89	468.11
486.07	437.68
486.25	437.68
486.43	402.57
486.61	430.66
486.78	348.74
486.96	367.46
487.14	423.64
487.32	418.96
487.50	409.59
487.68	449.38
487.85	390.87
488.03	346.40
488.21	388.53
488.39	435.34
488.57	402.57
488.75	423.64
488.92	526.62
489.10	376.83
489.28	390.87
489.46	425.98
489.64	409.59
489.81	362.78
489.99	351.08
490.17	423.64
490.35	454.06
490.53	433.00
490.70	416.62
490.88	402.57
491.06	463.43
491.24	386.19
491.41	458.74
491.59	500.87
491.77	442.36
491.95	447.04
492.13	400.23
492.30	351.08
492.48	341.72
492.66	418.96
492.84	365.12
493.01	411.93
493.19	531.30
493.37	416.62
493.54	433.00
493.72	374.49
493.90	423.64
494.08	390.87
494.25	383.85
494.43	360.44
494.61	372.15
494.79	442.36
494.96	344.06
495.14	379.17
495.32	447.04
495.49	458.74
495.67	442.36
495.85	376.83
496.02	369.80
496.20	402.57
496.38	458.74
496.55	390.87
496.73	407.25
496.91	400.23
497.09	369.80
497.26	449.38
497.44	407.25
497.62	379.17
497.79	411.93
497.97	423.64
498.14	444.70
498.32	421.30
498.50	433.00
498.67	409.59
498.85	430.66
499.03	444.70
499.20	362.78
499.38	395.55
499.56	479.81
499.73	411.93
499.91	393.21
500.08	376.83
500.26	383.85
500.44	360.44
500.61	461.09
500.79	369.80
500.97	449.38
501.14	514.92
501.32	402.57
501.49	421.30
501.67	418.96
501.84	423.64
502.02	355.76
502.20	400.23
502.37	388.53
502.55	454.06
502.72	374.49
502.90	458.74
503.07	381.51
503.25	442.36
503.43	390.87
503.60	411.93
503.78	409.59
503.95	416.62
504.13	397.89
504.30	468.11
504.48	404.91
504.65	442.36
504.83	479.81
505.01	379.17
505.18	442.36
505.36	479.81
505.53	416.62
505.71	365.12
505.88	479.81
506.06	465.77
506.23	454.06
506.41	393.21
506.58	430.66
506.76	367.46
506.93	407.25
507.11	435.34
507.28	404.91
507.46	397.89
507.63	437.68
507.81	383.85
507.98	444.70
508.16	416.62
508.33	407.25
508.50	437.68
508.68	407.25
508.85	496.19
509.03	411.93
509.20	376.83
509.38	418.96
509.55	442.36
509.73	390.87
509.90	376.83
510.08	386.19
510.25	482.15
510.42	400.23
510.60	423.64
510.77	386.19
510.95	402.57
511.12	376.83
511.30	433.00
511.47	379.17
511.64	409.59
511.82	421.30
511.99	433.00
512.17	416.62
512.34	411.93
512.51	397.89
512.69	393.21
512.86	418.96
513.04	393.21
513.21	393.21
513.38	362.78
513.56	456.40
513.73	416.62
513.90	428.32
514.08	414.27
514.25	442.36
514.43	402.57
514.60	407.25
514.77	444.70
514.95	383.85
515.12	414.27
515.29	458.74
515.47	411.93
515.64	458.74
515.81	390.87
515.99	407.25
516.16	440.02
516.33	421.30
516.51	393.21
516.68	454.06
516.85	428.32
517.03	414.27
517.20	421.30
517.37	416.62
517.54	442.36
517.72	325.33
517.89	334.70
518.06	425.98
518.24	482.15
518.41	517.26
518.58	421.30
518.75	428.32
518.93	477.47
519.10	433.00
519.27	418.96
519.45	414.27
519.62	390.87
519.79	388.53
519.96	458.74
520.14	454.06
520.31	451.72
520.48	519.60
520.65	493.85
520.83	402.57
521.00	404.91
521.17	388.53
521.34	465.77
521.52	407.25
521.69	369.80
521.86	393.21
522.03	430.66
522.20	458.74
522.38	367.46
522.55	404.91
522.72	463.43
522.89	390.87
523.07	444.70
523.24	404.91
523.41	425.98
523.58	379.17
523.75	458.74
523.92	411.93
524.10	407.25
524.27	339.38
524.44	383.85
524.61	367.46
524.78	362.78
524.96	386.19
525.13	451.72
525.30	433.00
525.47	376.83
525.64	437.68
525.81	468.11
525.98	404.91
526.16	407.25
526.33	374.49
526.50	491.51
526.67	400.23
526.84	404.91
527.01	344.06
527.18	458.74
527.36	402.57
527.53	346.40
527.70	465.77
527.87	395.55
528.04	470.45
528.21	341.72
528.38	454.06
528.55	482.15
528.72	414.27
528.89	461.09
529.07	362.78
529.24	451.72
529.41	425.98
529.58	444.70
529.75	369.80
529.92	402.57
530.09	479.81
530.26	430.66
530.43	440.02
530.60	404.91
530.77	470.45
530.94	374.49
531.11	423.64
531.28	330.02
531.46	449.38
531.63	351.08
531.80	468.11
531.97	362.78
532.14	402.57
532.31	440.02
532.48	425.98
532.65	428.32
532.82	465.77
532.99	425.98
533.16	442.36
533.33	440.02
533.50	416.62
533.67	365.12
533.84	393.21
534.01	425.98
534.18	355.76
534.35	428.32
534.52	444.70
534.69	341.72
534.86	386.19
535.03	369.80
535.20	374.49
535.37	381.51
535.54	484.49
535.71	418.96
535.88	414.27
536.05	388.53
536.22	348.74
536.38	463.43
536.55	472.79
536.72	458.74
536.89	379.17
537.06	386.19
537.23	428.32
537.40	463.43
537.57	402.57
537.74	435.34
537.91	458.74
538.08	348.74
538.25	423.64
538.42	376.83
538.59	400.23
538.75	358.10
538.92	449.38
539.09	397.89
539.26	440.02
539.43	425.98
539.60	393.21
539.77	381.51
539.94	418.96
540.11	407.25
540.28	428.32
540.44	521.94
540.61	500.87
540.78	402.57
540.95	402.57
541.12	484.49
541.29	430.66
541.46	505.56
541.62	430.66
541.79	444.70
541.96	472.79
542.13	463.43
542.30	442.36
542.47	430.66
542.63	451.72
542.80	379.17
542.97	465.77
543.14	318.31
543.31	414.27
543.48	440.02
543.64	376.83
543.81	381.51
543.98	353.42
544.15	407.25
544.32	437.68
544.48	430.66
544.65	355.76
544.82	390.87
544.99	454.06
545.16	444.70
545.32	379.17
545.49	435.34
545.66	440.02
545.83	421.30
546.00	411.93
546.16	458.74
546.33	404.91
546.50	425.98
546.67	479.81
546.83	433.00
547.00	447.04
547.17	393.21
547.34	477.47
547.50	437.68
547.67	390.87
547.84	362.78
548.00	416.62
548.17	414.27
548.34	468.11
548.51	489.17
548.67	503.22
548.84	369.80
549.01	369.80
549.18	433.00
549.34	440.02
549.51	451.72
549.68	383.85
549.84	395.55
550.01	425.98
550.18	505.56
550.34	454.06
550.51	479.81
550.68	461.09
550.84	388.53
551.01	376.83
551.18	358.10
551.34	376.83
551.51	416.62
551.68	482.15
551.84	397.89
552.01	409.59
552.18	404.91
552.34	454.06
552.51	421.30
552.68	409.59
552.84	444.70
553.01	440.02
553.18	421.30
553.34	348.74
553.51	421.30
553.67	425.98
553.84	416.62
554.01	477.47
554.17	423.64
554.34	365.12
554.51	425.98
554.67	454.06
554.84	437.68
555.00	468.11
555.17	400.23
555.33	428.32
555.50	409.59
555.67	449.38
555.83	484.49
556.00	428.32
556.16	554.71
556.33	428.32
556.50	425.98
556.66	428.32
556.83	456.40
556.99	362.78
557.16	362.78
557.32	444.70
557.49	404.91
557.65	334.70
557.82	327.68
557.98	423.64
558.15	449.38
558.32	397.89
558.48	482.15
558.65	437.68
558.81	372.15
558.98	461.09
559.14	428.32
559.31	451.72
559.47	489.17
559.64	442.36
559.80	451.72
559.97	337.04
560.13	465.77
560.30	449.38
560.46	461.09
560.63	395.55
560.79	482.15
560.96	472.79
561.12	400.23
561.29	414.27
561.45	404.91
561.61	404.91
561.78	437.68
561.94	381.51
562.11	433.00
562.27	409.59
562.44	344.06
562.60	395.55
562.77	477.47
562.93	475.13
563.10	442.36
563.26	440.02
563.42	472.79
563.59	486.83
563.75	470.45
563.92	456.40
564.08	397.89
564.24	421.30
564.41	456.40
564.57	423.64
564.74	358.10
564.90	355.76
565.07	435.34
565.23	470.45
565.39	479.81
565.56	437.68
565.72	379.17
565.88	379.17
566.05	461.09
566.21	388.53
566.38	428.32
566.54	400.23
566.70	355.76
566.87	470.45
567.03	447.04
567.19	390.87
567.36	351.08
567.52	442.36
567.68	414.27
567.85	414.27
568.01	430.66
568.17	458.74
568.34	428.32
568.50	468.11
568.66	418.96
568.83	456.40
568.99	388.53
569.15	430.66
569.32	386.19
569.48	409.59
569.64	458.74
569.81	463.43
569.97	381.51
570.13	379.17
570.30	402.57
570.46	393.21
570.62	449.38
570.78	381.51
570.95	344.06
571.11	442.36
571.27	428.32
571.43	376.83
571.60	390.87
571.76	465.77
571.92	475.13
572.09	430.66
572.25	435.34
572.41	472.79
572.57	433.00
572.74	528.96
572.90	437.68
573.06	411.93
573.22	423.64
573.38	447.04
573.55	423.64
573.71	395.55
573.87	449.38
574.03	372.15
574.20	358.10
574.36	482.15
574.52	463.43
574.68	395.55
574.84	374.49
575.01	397.89
575.17	435.34
575.33	465.77
575.49	451.72
575.65	451.72
575.82	479.81
575.98	454.06
576.14	423.64
576.30	411.93
576.46	425.98
576.62	433.00
576.79	503.22
576.95	437.68
577.11	425.98
577.27	372.15
577.43	372.15
577.59	400.23
577.75	423.64
577.92	442.36
578.08	470.45
578.24	416.62
578.40	496.19
578.56	402.57
578.72	428.32
578.88	435.34
579.04	376.83
579.21	449.38
579.37	493.85
579.53	322.99
579.69	383.85
579.85	381.51
580.01	353.42
580.17	379.17
580.33	386.19
580.49	451.72
580.65	440.02
580.82	397.89
580.98	416.62
581.14	409.59
581.30	313.63
581.46	386.19
581.62	463.43
581.78	334.70
581.94	365.12
582.10	428.32
582.26	404.91
582.42	430.66
582.58	500.87
582.74	442.36
582.90	390.87
583.06	440.02
583.22	447.04
583.38	390.87
583.54	404.91
583.70	451.72
583.86	414.27
584.02	425.98
584.18	442.36
584.34	395.55
584.50	428.32
584.66	411.93
584.82	397.89
584.98	388.53
585.14	435.34
585.30	454.06
585.46	374.49
585.62	435.34
585.78	470.45
585.94	423.64
586.10	428.32
586.26	395.55
586.42	477.47
586.58	425.98
586.74	421.30
586.90	428.32
587.06	491.51
587.22	479.81
587.38	346.40
587.54	456.40
587.70	456.40
587.86	418.96
588.02	411.93
588.18	447.04
588.34	358.10
588.49	416.62
588.65	454.06
588.81	430.66
588.97	355.76
589.13	355.76
589.29	475.13
589.45	461.09
589.61	341.72
589.77	468.11
589.93	425.98
590.08	437.68
590.24	411.93
590.40	390.87
590.56	397.89
590.72	440.02
590.88	393.21
591.04	472.79
591.20	395.55
591.35	449.38
591.51	491.51
591.67	397.89
591.83	367.46
591.99	468.11
592.15	430.66
592.31	418.96
592.46	437.68
592.62	440.02
592.78	411.93
592.94	425.98
593.10	435.34
593.26	402.57
593.41	379.17
593.57	418.96
593.73	388.53
593.89	468.11
594.05	414.27
594.20	493.85
594.36	454.06
594.52	463.43
594.68	430.66
594.84	461.09
594.99	451.72
595.15	512.58
595.31	435.34
595.47	440.02
595.62	386.19
595.78	442.36
595.94	351.08
596.10	461.09
596.25	437.68
596.41	435.34
596.57	400.23
596.73	381.51
596.88	472.79
597.04	362.78
597.20	435.34
597.36	407.25
597.51	477.47
597.67	416.62
597.83	395.55
597.99	416.62
598.14	393.21
598.30	418.96
598.46	383.85
598.61	418.96
598.77	376.83
598.93	477.47
599.09	383.85
599.24	374.49
599.40	360.44
599.56	442.36
599.71	367.46
599.87	400.23
600.03	454.06
600.18	477.47
600.34	484.49
600.50	367.46
600.65	388.53
600.81	461.09
600.97	402.57
601.12	339.38
601.28	449.38
601.44	344.06
601.59	454.06
601.75	386.19
601.91	430.66
602.06	404.91
602.22	451.72
602.37	451.72
602.53	416.62
602.69	442.36
602.84	369.80
603.00	409.59
603.16	395.55
603.31	444.70
603.47	428.32
603.62	411.93
603.78	456.40
603.94	507.90
604.09	440.02
604.25	421.30
604.40	461.09
604.56	390.87
604.71	437.68
604.87	404.91
605.03	425.98
605.18	433.00
605.34	461.09
605.49	404.91
605.65	437.68
605.80	468.11
605.96	470.45
606.12	437.68
606.27	468.11
606.43	327.68
606.58	421.30
606.74	409.59
606.89	435.34
607.05	435.34
607.20	402.57
607.36	486.83
607.51	390.87
607.67	465.77
607.82	409.59
607.98	486.83
608.13	458.74
608.29	397.89
608.44	407.25
608.60	447.04
608.75	402.57
608.91	425.98
609.06	416.62
609.22	444.70
609.37	416.62
609.53	355.76
609.68	372.15
609.84	407.25
609.99	393.21
610.15	486.83
