SpectraSuite Data File
++++++++++++++++++++++++++++++++++++
Date: Fri Oct 25 12:10:28 EDT 2013
User: price-jones
Dark Spectrum Present: No
Reference Spectrum Present: No
Number of Sampled Component Spectra: 1
Spectrometers: USB2+H05261
Integration Time (usec): 100000 (USB2+H05261)
Spectra Averaged: 1 (USB2+H05261)
Boxcar Smoothing: 0 (USB2+H05261)
Correct for Electrical Dark: No (USB2+H05261)
Strobe/Lamp Enabled: No (USB2+H05261)
Correct for Detector Non-linearity: No (USB2+H05261)
Correct for Stray Light: No (USB2+H05261)
Number of Pixels in Processed Spectrum: 2048
>>>>>Begin Processed Spectral Data<<<<<
365.73	369.80
365.92	369.80
366.12	369.80
366.32	250.44
366.52	212.99
366.72	273.84
366.91	245.76
367.11	208.31
367.31	231.71
367.51	250.44
367.70	196.60
367.90	297.25
368.10	269.16
368.30	245.76
368.49	259.80
368.69	241.08
368.89	292.57
369.09	285.55
369.28	313.63
369.48	259.80
369.68	264.48
369.87	283.20
370.07	283.20
370.27	306.61
370.47	322.99
370.66	262.14
370.86	322.99
371.06	374.49
371.25	369.80
371.45	404.91
371.65	353.42
371.84	360.44
372.04	374.49
372.24	369.80
372.44	376.83
372.63	367.46
372.83	437.68
373.03	407.25
373.22	390.87
373.42	425.98
373.62	437.68
373.81	423.64
374.01	421.30
374.21	425.98
374.40	379.17
374.60	430.66
374.79	433.00
374.99	374.49
375.19	447.04
375.38	442.36
375.58	435.34
375.78	454.06
375.97	456.40
376.17	390.87
376.37	383.85
376.56	430.66
376.76	458.74
376.95	425.98
377.15	421.30
377.35	390.87
377.54	421.30
377.74	365.12
377.93	346.40
378.13	425.98
378.33	362.78
378.52	341.72
378.72	447.04
378.91	374.49
379.11	362.78
379.31	388.53
379.50	355.76
379.70	381.51
379.89	407.25
380.09	414.27
380.28	400.23
380.48	407.25
380.68	344.06
380.87	383.85
381.07	386.19
381.26	454.06
381.46	372.15
381.65	437.68
381.85	376.83
382.04	397.89
382.24	379.17
382.43	421.30
382.63	376.83
382.83	416.62
383.02	435.34
383.22	440.02
383.41	367.46
383.61	444.70
383.80	451.72
384.00	360.44
384.19	390.87
384.39	351.08
384.58	358.10
384.78	421.30
384.97	407.25
385.17	372.15
385.36	379.17
385.56	372.15
385.75	390.87
385.95	374.49
386.14	388.53
386.34	433.00
386.53	454.06
386.72	397.89
386.92	416.62
387.11	477.47
387.31	379.17
387.50	372.15
387.70	440.02
387.89	430.66
388.09	397.89
388.28	351.08
388.48	367.46
388.67	409.59
388.86	362.78
389.06	400.23
389.25	414.27
389.45	360.44
389.64	477.47
389.84	400.23
390.03	435.34
390.22	411.93
390.42	409.59
390.61	379.17
390.81	379.17
391.00	365.12
391.19	456.40
391.39	390.87
391.58	440.02
391.78	386.19
391.97	428.32
392.16	449.38
392.36	461.09
392.55	414.27
392.75	374.49
392.94	414.27
393.13	383.85
393.33	411.93
393.52	416.62
393.71	472.79
393.91	442.36
394.10	360.44
394.29	365.12
394.49	355.76
394.68	411.93
394.88	437.68
395.07	454.06
395.26	503.22
395.46	351.08
395.65	433.00
395.84	369.80
396.04	498.53
396.23	437.68
396.42	433.00
396.62	433.00
396.81	400.23
397.00	395.55
397.19	383.85
397.39	489.17
397.58	472.79
397.77	428.32
397.97	383.85
398.16	414.27
398.35	376.83
398.55	386.19
398.74	416.62
398.93	407.25
399.12	374.49
399.32	465.77
399.51	351.08
399.70	355.76
399.90	437.68
400.09	465.77
400.28	514.92
400.47	400.23
400.67	390.87
400.86	379.17
401.05	418.96
401.24	433.00
401.44	416.62
401.63	440.02
401.82	411.93
402.01	472.79
402.21	390.87
402.40	383.85
402.59	421.30
402.78	409.59
402.97	390.87
403.17	409.59
403.36	390.87
403.55	383.85
403.74	409.59
403.93	325.33
404.13	468.11
404.32	418.96
404.51	402.57
404.70	421.30
404.89	362.78
405.09	435.34
405.28	454.06
405.47	374.49
405.66	442.36
405.85	418.96
406.05	400.23
406.24	367.46
406.43	451.72
406.62	449.38
406.81	468.11
407.00	409.59
407.20	393.21
407.39	388.53
407.58	414.27
407.77	425.98
407.96	388.53
408.15	447.04
408.34	451.72
408.54	470.45
408.73	418.96
408.92	414.27
409.11	433.00
409.30	442.36
409.49	393.21
409.68	409.59
409.87	423.64
410.07	407.25
410.26	383.85
410.45	425.98
410.64	402.57
410.83	393.21
411.02	465.77
411.21	372.15
411.40	463.43
411.59	390.87
411.78	444.70
411.98	358.10
412.17	465.77
412.36	388.53
412.55	442.36
412.74	421.30
412.93	421.30
413.12	397.89
413.31	409.59
413.50	372.15
413.69	416.62
413.88	402.57
414.07	388.53
414.26	425.98
414.45	423.64
414.64	425.98
414.83	423.64
415.02	425.98
415.22	475.13
415.41	383.85
415.60	461.09
415.79	451.72
415.98	418.96
416.17	388.53
416.36	414.27
416.55	433.00
416.74	421.30
416.93	440.02
417.12	449.38
417.31	315.97
417.50	379.17
417.69	454.06
417.88	433.00
418.07	411.93
418.26	400.23
418.45	397.89
418.64	456.40
418.83	404.91
419.02	367.46
419.21	355.76
419.39	421.30
419.58	369.80
419.77	440.02
419.96	411.93
420.15	376.83
420.34	397.89
420.53	468.11
420.72	395.55
420.91	437.68
421.10	369.80
421.29	449.38
421.48	376.83
421.67	386.19
421.86	379.17
422.05	416.62
422.24	442.36
422.43	297.25
422.61	383.85
422.80	437.68
422.99	414.27
423.18	381.51
423.37	411.93
423.56	372.15
423.75	482.15
423.94	414.27
424.13	404.91
424.32	414.27
424.50	381.51
424.69	404.91
424.88	386.19
425.07	414.27
425.26	444.70
425.45	463.43
425.64	407.25
425.83	395.55
426.01	465.77
426.20	440.02
426.39	409.59
426.58	411.93
426.77	395.55
426.96	397.89
427.15	402.57
427.33	423.64
427.52	437.68
427.71	407.25
427.90	479.81
428.09	386.19
428.28	411.93
428.46	369.80
428.65	444.70
428.84	423.64
429.03	440.02
429.22	395.55
429.40	411.93
429.59	414.27
429.78	411.93
429.97	395.55
430.16	428.32
430.34	416.62
430.53	400.23
430.72	444.70
430.91	433.00
431.10	449.38
431.28	514.92
431.47	351.08
431.66	393.21
431.85	482.15
432.03	388.53
432.22	465.77
432.41	425.98
432.60	444.70
432.79	437.68
432.97	409.59
433.16	444.70
433.35	411.93
433.54	425.98
433.72	454.06
433.91	411.93
434.10	362.78
434.28	414.27
434.47	435.34
434.66	411.93
434.85	372.15
435.03	451.72
435.22	458.74
435.41	388.53
435.59	400.23
435.78	372.15
435.97	374.49
436.16	440.02
436.34	383.85
436.53	386.19
436.72	407.25
436.90	489.17
437.09	400.23
437.28	421.30
437.46	444.70
437.65	489.17
437.84	416.62
438.02	404.91
438.21	379.17
438.40	430.66
438.58	423.64
438.77	379.17
438.96	463.43
439.14	428.32
439.33	433.00
439.52	447.04
439.70	397.89
439.89	386.19
440.08	425.98
440.26	416.62
440.45	425.98
440.63	395.55
440.82	393.21
441.01	367.46
441.19	390.87
441.38	411.93
441.57	444.70
441.75	360.44
441.94	458.74
442.12	463.43
442.31	362.78
442.50	489.17
442.68	433.00
442.87	435.34
443.05	397.89
443.24	404.91
443.43	489.17
443.61	395.55
443.80	477.47
443.98	409.59
444.17	430.66
444.35	451.72
444.54	454.06
444.73	418.96
444.91	393.21
445.10	440.02
445.28	355.76
445.47	374.49
445.65	395.55
445.84	395.55
446.02	397.89
446.21	411.93
446.39	449.38
446.58	393.21
446.77	444.70
446.95	409.59
447.14	411.93
447.32	430.66
447.51	430.66
447.69	339.38
447.88	390.87
448.06	447.04
448.25	535.98
448.43	451.72
448.62	442.36
448.80	416.62
448.99	395.55
449.17	454.06
449.36	449.38
449.54	386.19
449.73	390.87
449.91	407.25
450.10	351.08
450.28	409.59
450.46	381.51
450.65	435.34
450.83	379.17
451.02	449.38
451.20	386.19
451.39	390.87
451.57	463.43
451.76	386.19
451.94	409.59
452.13	404.91
452.31	440.02
452.49	458.74
452.68	383.85
452.86	409.59
453.05	407.25
453.23	433.00
453.42	428.32
453.60	360.44
453.78	353.42
453.97	451.72
454.15	337.04
454.34	388.53
454.52	383.85
454.70	421.30
454.89	409.59
455.07	421.30
455.26	423.64
455.44	425.98
455.62	442.36
455.81	430.66
455.99	402.57
456.17	437.68
456.36	360.44
456.54	451.72
456.73	362.78
456.91	362.78
457.09	435.34
457.28	395.55
457.46	404.91
457.64	425.98
457.83	404.91
458.01	482.15
458.19	414.27
458.38	421.30
458.56	465.77
458.74	423.64
458.93	461.09
459.11	447.04
459.29	334.70
459.48	475.13
459.66	484.49
459.84	421.30
460.03	468.11
460.21	365.12
460.39	353.42
460.57	402.57
460.76	423.64
460.94	376.83
461.12	430.66
461.31	435.34
461.49	376.83
461.67	353.42
461.85	425.98
462.04	463.43
462.22	685.78
462.40	433.00
462.59	451.72
462.77	444.70
462.95	367.46
463.13	433.00
463.32	423.64
463.50	400.23
463.68	390.87
463.86	428.32
464.05	376.83
464.23	418.96
464.41	428.32
464.59	393.21
464.78	358.10
464.96	318.31
465.14	390.87
465.32	388.53
465.50	430.66
465.69	393.21
465.87	381.51
466.05	409.59
466.23	451.72
466.41	397.89
466.60	416.62
466.78	491.51
466.96	418.96
467.14	358.10
467.32	423.64
467.51	416.62
467.69	379.17
467.87	470.45
468.05	421.30
468.23	395.55
468.41	386.19
468.60	411.93
468.78	423.64
468.96	477.47
469.14	421.30
469.32	372.15
469.50	400.23
469.69	393.21
469.87	393.21
470.05	444.70
470.23	372.15
470.41	411.93
470.59	386.19
470.77	400.23
470.95	383.85
471.14	416.62
471.32	486.83
471.50	489.17
471.68	423.64
471.86	435.34
472.04	444.70
472.22	421.30
472.40	393.21
472.58	430.66
472.77	423.64
472.95	435.34
473.13	465.77
473.31	367.46
473.49	393.21
473.67	374.49
473.85	425.98
474.03	383.85
474.21	423.64
474.39	393.21
474.57	400.23
474.75	456.40
474.93	383.85
475.12	404.91
475.30	355.76
475.48	421.30
475.66	437.68
475.84	416.62
476.02	407.25
476.20	423.64
476.38	416.62
476.56	451.72
476.74	421.30
476.92	496.19
477.10	468.11
477.28	491.51
477.46	383.85
477.64	440.02
477.82	491.51
478.00	440.02
478.18	444.70
478.36	486.83
478.54	397.89
478.72	433.00
478.90	393.21
479.08	404.91
479.26	379.17
479.44	425.98
479.62	390.87
479.80	369.80
479.98	402.57
480.16	341.72
480.34	468.11
480.52	325.33
480.70	388.53
480.88	409.59
481.06	381.51
481.24	397.89
481.41	484.49
481.59	379.17
481.77	414.27
481.95	482.15
482.13	444.70
482.31	463.43
482.49	360.44
482.67	433.00
482.85	461.09
483.03	381.51
483.21	444.70
483.39	428.32
483.57	400.23
483.74	423.64
483.92	395.55
484.10	372.15
484.28	381.51
484.46	461.09
484.64	409.59
484.82	482.15
485.00	433.00
485.18	484.49
485.35	414.27
485.53	365.12
485.71	463.43
485.89	418.96
486.07	428.32
486.25	425.98
486.43	442.36
486.61	465.77
486.78	428.32
486.96	447.04
487.14	425.98
487.32	409.59
487.50	344.06
487.68	409.59
487.85	379.17
488.03	498.53
488.21	414.27
488.39	454.06
488.57	444.70
488.75	440.02
488.92	505.56
489.10	414.27
489.28	477.47
489.46	367.46
489.64	430.66
489.81	433.00
489.99	440.02
490.17	395.55
490.35	458.74
490.53	433.00
490.70	400.23
490.88	411.93
491.06	411.93
491.24	402.57
491.41	442.36
491.59	388.53
491.77	451.72
491.95	472.79
492.13	381.51
492.30	348.74
492.48	400.23
492.66	414.27
492.84	353.42
493.01	433.00
493.19	365.12
493.37	409.59
493.54	358.10
493.72	383.85
493.90	386.19
494.08	330.02
494.25	456.40
494.43	407.25
494.61	351.08
494.79	360.44
494.96	449.38
495.14	435.34
495.32	374.49
495.49	360.44
495.67	414.27
495.85	386.19
496.02	433.00
496.20	416.62
496.38	425.98
496.55	418.96
496.73	369.80
496.91	411.93
497.09	414.27
497.26	440.02
497.44	435.34
497.62	402.57
497.79	421.30
497.97	437.68
498.14	451.72
498.32	414.27
498.50	423.64
498.67	360.44
498.85	397.89
499.03	451.72
499.20	454.06
499.38	451.72
499.56	451.72
499.73	468.11
499.91	418.96
500.08	428.32
500.26	463.43
500.44	395.55
500.61	334.70
500.79	433.00
500.97	482.15
501.14	397.89
501.32	444.70
501.49	374.49
501.67	330.02
501.84	372.15
502.02	376.83
502.20	472.79
502.37	479.81
502.55	407.25
502.72	461.09
502.90	465.77
503.07	498.53
503.25	437.68
503.43	397.89
503.60	402.57
503.78	395.55
503.95	383.85
504.13	400.23
504.30	458.74
504.48	386.19
504.65	468.11
504.83	449.38
505.01	430.66
505.18	440.02
505.36	388.53
505.53	395.55
505.71	341.72
505.88	482.15
506.06	423.64
506.23	381.51
506.41	418.96
506.58	416.62
506.76	337.04
506.93	397.89
507.11	484.49
507.28	402.57
507.46	393.21
507.63	374.49
507.81	409.59
507.98	383.85
508.16	442.36
508.33	423.64
508.50	449.38
508.68	421.30
508.85	442.36
509.03	379.17
509.20	414.27
509.38	407.25
509.55	407.25
509.73	404.91
509.90	449.38
510.08	390.87
510.25	479.81
510.42	409.59
510.60	411.93
510.77	444.70
510.95	421.30
511.12	423.64
511.30	402.57
511.47	369.80
511.64	416.62
511.82	421.30
511.99	402.57
512.17	397.89
512.34	447.04
512.51	414.27
512.69	425.98
512.86	454.06
513.04	388.53
513.21	367.46
513.38	435.34
513.56	458.74
513.73	402.57
513.90	362.78
514.08	421.30
514.25	381.51
514.43	428.32
514.60	379.17
514.77	306.61
514.95	440.02
515.12	421.30
515.29	435.34
515.47	418.96
515.64	433.00
515.81	374.49
515.99	379.17
516.16	407.25
516.33	437.68
516.51	444.70
516.68	444.70
516.85	458.74
517.03	442.36
517.20	402.57
517.37	416.62
517.54	407.25
517.72	407.25
517.89	285.55
518.06	388.53
518.24	437.68
518.41	465.77
518.58	402.57
518.75	400.23
518.93	458.74
519.10	465.77
519.27	437.68
519.45	355.76
519.62	447.04
519.79	440.02
519.96	341.72
520.14	409.59
520.31	428.32
520.48	456.40
520.65	425.98
520.83	421.30
521.00	386.19
521.17	465.77
521.34	411.93
521.52	404.91
521.69	395.55
521.86	472.79
522.03	367.46
522.20	425.98
522.38	402.57
522.55	458.74
522.72	496.19
522.89	421.30
523.07	465.77
523.24	346.40
523.41	397.89
523.58	332.36
523.75	418.96
523.92	458.74
524.10	388.53
524.27	437.68
524.44	442.36
524.61	423.64
524.78	367.46
524.96	442.36
525.13	430.66
525.30	456.40
525.47	498.53
525.64	355.76
525.81	397.89
525.98	390.87
526.16	400.23
526.33	447.04
526.50	418.96
526.67	372.15
526.84	395.55
527.01	428.32
527.18	447.04
527.36	369.80
527.53	381.51
527.70	416.62
527.87	442.36
528.04	503.22
528.21	440.02
528.38	475.13
528.55	386.19
528.72	400.23
528.89	496.19
529.07	437.68
529.24	402.57
529.41	447.04
529.58	367.46
529.75	442.36
529.92	449.38
530.09	400.23
530.26	444.70
530.43	449.38
530.60	409.59
530.77	381.51
530.94	414.27
531.11	465.77
531.28	409.59
531.46	442.36
531.63	383.85
531.80	435.34
531.97	404.91
532.14	414.27
532.31	367.46
532.48	451.72
532.65	435.34
532.82	383.85
532.99	440.02
533.16	463.43
533.33	367.46
533.50	440.02
533.67	423.64
533.84	456.40
534.01	456.40
534.18	381.51
534.35	433.00
534.52	346.40
534.69	435.34
534.86	416.62
535.03	386.19
535.20	400.23
535.37	470.45
535.54	334.70
535.71	351.08
535.88	407.25
536.05	397.89
536.22	318.31
536.38	367.46
536.55	409.59
536.72	461.09
536.89	388.53
537.06	440.02
537.23	374.49
537.40	442.36
537.57	386.19
537.74	435.34
537.91	479.81
538.08	400.23
538.25	475.13
538.42	355.76
538.59	390.87
538.75	381.51
538.92	423.64
539.09	507.90
539.26	411.93
539.43	465.77
539.60	402.57
539.77	440.02
539.94	444.70
540.11	479.81
540.28	447.04
540.44	414.27
540.61	360.44
540.78	388.53
540.95	376.83
541.12	425.98
541.29	447.04
541.46	451.72
541.62	397.89
541.79	461.09
541.96	397.89
542.13	383.85
542.30	433.00
542.47	470.45
542.63	486.83
542.80	416.62
542.97	379.17
543.14	423.64
543.31	442.36
543.48	381.51
543.64	449.38
543.81	330.02
543.98	461.09
544.15	414.27
544.32	355.76
544.48	454.06
544.65	461.09
544.82	468.11
544.99	383.85
545.16	390.87
545.32	428.32
545.49	372.15
545.66	437.68
545.83	430.66
546.00	322.99
546.16	409.59
546.33	383.85
546.50	365.12
546.67	397.89
546.83	409.59
547.00	353.42
547.17	383.85
547.34	379.17
547.50	381.51
547.67	440.02
547.84	393.21
548.00	407.25
548.17	442.36
548.34	407.25
548.51	437.68
548.67	442.36
548.84	367.46
549.01	454.06
549.18	409.59
549.34	407.25
549.51	386.19
549.68	425.98
549.84	390.87
550.01	376.83
550.18	463.43
550.34	461.09
550.51	470.45
550.68	449.38
550.84	409.59
551.01	383.85
551.18	360.44
551.34	449.38
551.51	454.06
551.68	369.80
551.84	407.25
552.01	367.46
552.18	442.36
552.34	444.70
552.51	407.25
552.68	423.64
552.84	421.30
553.01	369.80
553.18	433.00
553.34	372.15
553.51	407.25
553.67	442.36
553.84	463.43
554.01	449.38
554.17	482.15
554.34	390.87
554.51	367.46
554.67	479.81
554.84	489.17
555.00	393.21
555.17	383.85
555.33	390.87
555.50	395.55
555.67	433.00
555.83	416.62
556.00	397.89
556.16	540.66
556.33	418.96
556.50	381.51
556.66	369.80
556.83	442.36
556.99	390.87
557.16	440.02
557.32	421.30
557.49	358.10
557.65	374.49
557.82	402.57
557.98	386.19
558.15	365.12
558.32	421.30
558.48	437.68
558.65	397.89
558.81	411.93
558.98	393.21
559.14	414.27
559.31	449.38
559.47	423.64
559.64	351.08
559.80	449.38
559.97	482.15
560.13	433.00
560.30	362.78
560.46	365.12
560.63	390.87
560.79	383.85
560.96	454.06
561.12	437.68
561.29	458.74
561.45	430.66
561.61	414.27
561.78	479.81
561.94	449.38
562.11	428.32
562.27	344.06
562.44	344.06
562.60	339.38
562.77	374.49
562.93	496.19
563.10	433.00
563.26	423.64
563.42	372.15
563.59	414.27
563.75	386.19
563.92	447.04
564.08	423.64
564.24	470.45
564.41	484.49
564.57	414.27
564.74	397.89
564.90	437.68
565.07	393.21
565.23	442.36
565.39	411.93
565.56	421.30
565.72	447.04
565.88	409.59
566.05	470.45
566.21	381.51
566.38	437.68
566.54	430.66
566.70	379.17
566.87	386.19
567.03	332.36
567.19	393.21
567.36	393.21
567.52	388.53
567.68	393.21
567.85	458.74
568.01	425.98
568.17	437.68
568.34	418.96
568.50	479.81
568.66	425.98
568.83	458.74
568.99	418.96
569.15	454.06
569.32	402.57
569.48	454.06
569.64	374.49
569.81	433.00
569.97	393.21
570.13	454.06
570.30	369.80
570.46	451.72
570.62	407.25
570.78	433.00
570.95	386.19
571.11	411.93
571.27	559.39
571.43	397.89
571.60	458.74
571.76	451.72
571.92	463.43
572.09	407.25
572.25	470.45
572.41	409.59
572.57	409.59
572.74	433.00
572.90	421.30
573.06	458.74
573.22	505.56
573.38	454.06
573.55	442.36
573.71	472.79
573.87	484.49
574.03	468.11
574.20	327.68
574.36	428.32
574.52	409.59
574.68	428.32
574.84	470.45
575.01	447.04
575.17	418.96
575.33	407.25
575.49	430.66
575.65	372.15
575.82	390.87
575.98	395.55
576.14	418.96
576.30	430.66
576.46	411.93
576.62	411.93
576.79	428.32
576.95	428.32
577.11	461.09
577.27	390.87
577.43	397.89
577.59	421.30
577.75	397.89
577.92	428.32
578.08	367.46
578.24	397.89
578.40	376.83
578.56	500.87
578.72	484.49
578.88	472.79
579.04	395.55
579.21	465.77
579.37	430.66
579.53	358.10
579.69	456.40
579.85	407.25
580.01	423.64
580.17	430.66
580.33	425.98
580.49	425.98
580.65	402.57
580.82	468.11
580.98	381.51
581.14	440.02
581.30	451.72
581.46	407.25
581.62	400.23
581.78	388.53
581.94	456.40
582.10	421.30
582.26	362.78
582.42	341.72
582.58	423.64
582.74	447.04
582.90	388.53
583.06	416.62
583.22	395.55
583.38	348.74
583.54	346.40
583.70	468.11
583.86	430.66
584.02	353.42
584.18	458.74
584.34	425.98
584.50	423.64
584.66	402.57
584.82	416.62
584.98	442.36
585.14	388.53
585.30	372.15
585.46	449.38
585.62	381.51
585.78	397.89
585.94	461.09
586.10	393.21
586.26	425.98
586.42	477.47
586.58	451.72
586.74	409.59
586.90	463.43
587.06	463.43
587.22	360.44
587.38	407.25
587.54	355.76
587.70	430.66
587.86	456.40
588.02	409.59
588.18	409.59
588.34	440.02
588.49	351.08
588.65	456.40
588.81	409.59
588.97	388.53
589.13	442.36
589.29	519.60
589.45	463.43
589.61	409.59
589.77	393.21
589.93	404.91
590.08	440.02
590.24	433.00
590.40	402.57
590.56	365.12
590.72	411.93
590.88	409.59
591.04	393.21
591.20	388.53
591.35	374.49
591.51	442.36
591.67	440.02
591.83	395.55
591.99	388.53
592.15	423.64
592.31	433.00
592.46	437.68
592.62	376.83
592.78	397.89
592.94	402.57
593.10	423.64
593.26	433.00
593.41	425.98
593.57	465.77
593.73	451.72
593.89	397.89
594.05	416.62
594.20	390.87
594.36	400.23
594.52	421.30
594.68	435.34
594.84	456.40
594.99	425.98
595.15	454.06
595.31	411.93
595.47	447.04
595.62	451.72
595.78	400.23
595.94	418.96
596.10	414.27
596.25	376.83
596.41	372.15
596.57	372.15
596.73	397.89
596.88	388.53
597.04	402.57
597.20	451.72
597.36	433.00
597.51	388.53
597.67	367.46
597.83	400.23
597.99	376.83
598.14	468.11
598.30	456.40
598.46	355.76
598.61	397.89
598.77	365.12
598.93	423.64
599.09	360.44
599.24	449.38
599.40	472.79
599.56	390.87
599.71	425.98
599.87	390.87
600.03	449.38
600.18	402.57
600.34	404.91
600.50	463.43
600.65	351.08
600.81	332.36
600.97	362.78
601.12	435.34
601.28	444.70
601.44	500.87
601.59	388.53
601.75	411.93
601.91	435.34
602.06	390.87
602.22	575.77
602.37	395.55
602.53	379.17
602.69	351.08
602.84	334.70
603.00	414.27
603.16	390.87
603.31	437.68
603.47	437.68
603.62	393.21
603.78	491.51
603.94	433.00
604.09	365.12
604.25	397.89
604.40	383.85
604.56	395.55
604.71	376.83
604.87	458.74
605.03	437.68
605.18	472.79
605.34	444.70
605.49	442.36
605.65	348.74
605.80	386.19
605.96	423.64
606.12	442.36
606.27	519.60
606.43	381.51
606.58	411.93
606.74	416.62
606.89	440.02
607.05	407.25
607.20	360.44
607.36	418.96
607.51	365.12
607.67	407.25
607.82	423.64
607.98	386.19
608.13	486.83
608.29	397.89
608.44	440.02
608.60	402.57
608.75	402.57
608.91	367.46
609.06	421.30
609.22	430.66
609.37	500.87
609.53	456.40
609.68	404.91
609.84	395.55
609.99	433.00
610.15	489.17
