SpectraSuite Data File
++++++++++++++++++++++++++++++++++++
Date: Fri Oct 25 12:10:39 EDT 2013
User: price-jones
Dark Spectrum Present: No
Reference Spectrum Present: No
Number of Sampled Component Spectra: 1
Spectrometers: USB2+H05261
Integration Time (usec): 100000 (USB2+H05261)
Spectra Averaged: 1 (USB2+H05261)
Boxcar Smoothing: 0 (USB2+H05261)
Correct for Electrical Dark: No (USB2+H05261)
Strobe/Lamp Enabled: No (USB2+H05261)
Correct for Detector Non-linearity: No (USB2+H05261)
Correct for Stray Light: No (USB2+H05261)
Number of Pixels in Processed Spectrum: 2048
>>>>>Begin Processed Spectral Data<<<<<
365.73	351.08
365.92	351.08
366.12	351.08
366.32	297.25
366.52	208.31
366.72	252.78
366.91	241.08
367.11	255.12
367.31	191.92
367.51	220.01
367.70	241.08
367.90	229.37
368.10	262.14
368.30	231.71
368.49	220.01
368.69	304.27
368.89	297.25
369.09	231.71
369.28	269.16
369.48	292.57
369.68	304.27
369.87	297.25
370.07	278.52
370.27	358.10
370.47	390.87
370.66	301.93
370.86	348.74
371.06	346.40
371.25	390.87
371.45	367.46
371.65	395.55
371.84	430.66
372.04	386.19
372.24	320.65
372.44	353.42
372.63	430.66
372.83	362.78
373.03	433.00
373.22	425.98
373.42	383.85
373.62	442.36
373.81	416.62
374.01	486.83
374.21	428.32
374.40	381.51
374.60	395.55
374.79	407.25
374.99	433.00
375.19	430.66
375.38	433.00
375.58	454.06
375.78	512.58
375.97	407.25
376.17	470.45
376.37	428.32
376.56	479.81
376.76	414.27
376.95	472.79
377.15	449.38
377.35	440.02
377.54	458.74
377.74	407.25
377.93	351.08
378.13	404.91
378.33	404.91
378.52	397.89
378.72	365.12
378.91	372.15
379.11	409.59
379.31	440.02
379.50	344.06
379.70	383.85
379.89	393.21
380.09	444.70
380.28	365.12
380.48	390.87
380.68	374.49
380.87	388.53
381.07	444.70
381.26	444.70
381.46	369.80
381.65	351.08
381.85	409.59
382.04	468.11
382.24	294.91
382.43	348.74
382.63	440.02
382.83	447.04
383.02	390.87
383.22	440.02
383.41	400.23
383.61	327.68
383.80	451.72
384.00	355.76
384.19	440.02
384.39	365.12
384.58	341.72
384.78	433.00
384.97	479.81
385.17	353.42
385.36	437.68
385.56	400.23
385.75	362.78
385.95	374.49
386.14	376.83
386.34	365.12
386.53	332.36
386.72	407.25
386.92	393.21
387.11	437.68
387.31	411.93
387.50	411.93
387.70	425.98
387.89	341.72
388.09	383.85
388.28	374.49
388.48	397.89
388.67	386.19
388.86	393.21
389.06	425.98
389.25	397.89
389.45	458.74
389.64	458.74
389.84	404.91
390.03	402.57
390.22	325.33
390.42	358.10
390.61	418.96
390.81	341.72
391.00	379.17
391.19	433.00
391.39	423.64
391.58	402.57
391.78	402.57
391.97	383.85
392.16	362.78
392.36	444.70
392.55	404.91
392.75	477.47
392.94	421.30
393.13	358.10
393.33	404.91
393.52	418.96
393.71	440.02
393.91	461.09
394.10	308.95
394.29	393.21
394.49	489.17
394.68	346.40
394.88	421.30
395.07	435.34
395.26	407.25
395.46	393.21
395.65	444.70
395.84	376.83
396.04	397.89
396.23	421.30
396.42	374.49
396.62	458.74
396.81	414.27
397.00	337.04
397.19	388.53
397.39	409.59
397.58	437.68
397.77	400.23
397.97	472.79
398.16	433.00
398.35	416.62
398.55	411.93
398.74	437.68
398.93	407.25
399.12	407.25
399.32	411.93
399.51	442.36
399.70	444.70
399.90	414.27
400.09	416.62
400.28	397.89
400.47	437.68
400.67	320.65
400.86	400.23
401.05	449.38
401.24	400.23
401.44	414.27
401.63	423.64
401.82	404.91
402.01	344.06
402.21	372.15
402.40	395.55
402.59	437.68
402.78	390.87
402.97	400.23
403.17	393.21
403.36	341.72
403.55	311.29
403.74	362.78
403.93	486.83
404.13	416.62
404.32	440.02
404.51	407.25
404.70	430.66
404.89	444.70
405.09	428.32
405.28	358.10
405.47	444.70
405.66	360.44
405.85	437.68
406.05	365.12
406.24	395.55
406.43	409.59
406.62	449.38
406.81	454.06
407.00	425.98
407.20	416.62
407.39	358.10
407.58	414.27
407.77	444.70
407.96	437.68
408.15	465.77
408.34	425.98
408.54	404.91
408.73	360.44
408.92	418.96
409.11	372.15
409.30	465.77
409.49	351.08
409.68	334.70
409.87	393.21
410.07	447.04
410.26	491.51
410.45	430.66
410.64	386.19
410.83	425.98
411.02	318.31
411.21	428.32
411.40	369.80
411.59	379.17
411.78	435.34
411.98	372.15
412.17	383.85
412.36	416.62
412.55	404.91
412.74	430.66
412.93	425.98
413.12	435.34
413.31	388.53
413.50	437.68
413.69	409.59
413.88	425.98
414.07	430.66
414.26	428.32
414.45	416.62
414.64	381.51
414.83	339.38
415.02	402.57
415.22	376.83
415.41	414.27
415.60	428.32
415.79	430.66
415.98	395.55
416.17	433.00
416.36	393.21
416.55	379.17
416.74	496.19
416.93	414.27
417.12	430.66
417.31	376.83
417.50	400.23
417.69	440.02
417.88	325.33
418.07	294.91
418.26	397.89
418.45	388.53
418.64	346.40
418.83	414.27
419.02	386.19
419.21	379.17
419.39	423.64
419.58	400.23
419.77	351.08
419.96	414.27
420.15	409.59
420.34	421.30
420.53	414.27
420.72	435.34
420.91	386.19
421.10	447.04
421.29	449.38
421.48	458.74
421.67	444.70
421.86	351.08
422.05	437.68
422.24	386.19
422.43	409.59
422.61	379.17
422.80	397.89
422.99	435.34
423.18	472.79
423.37	468.11
423.56	360.44
423.75	423.64
423.94	374.49
424.13	411.93
424.32	402.57
424.50	425.98
424.69	489.17
424.88	402.57
425.07	491.51
425.26	463.43
425.45	435.34
425.64	390.87
425.83	390.87
426.01	465.77
426.20	430.66
426.39	397.89
426.58	404.91
426.77	409.59
426.96	393.21
427.15	411.93
427.33	388.53
427.52	418.96
427.71	430.66
427.90	503.22
428.09	341.72
428.28	524.28
428.46	416.62
428.65	423.64
428.84	423.64
429.03	390.87
429.22	479.81
429.40	409.59
429.59	407.25
429.78	400.23
429.97	482.15
430.16	440.02
430.34	519.60
430.53	367.46
430.72	425.98
430.91	386.19
431.10	468.11
431.28	510.24
431.47	409.59
431.66	409.59
431.85	407.25
432.03	458.74
432.22	559.39
432.41	414.27
432.60	383.85
432.79	409.59
432.97	447.04
433.16	456.40
433.35	374.49
433.54	442.36
433.72	428.32
433.91	430.66
434.10	433.00
434.28	351.08
434.47	393.21
434.66	454.06
434.85	435.34
435.03	397.89
435.22	393.21
435.41	449.38
435.59	376.83
435.78	435.34
435.97	393.21
436.16	372.15
436.34	425.98
436.53	348.74
436.72	421.30
436.90	414.27
437.09	418.96
437.28	437.68
437.46	362.78
437.65	454.06
437.84	482.15
438.02	421.30
438.21	442.36
438.40	388.53
438.58	397.89
438.77	465.77
438.96	404.91
439.14	381.51
439.33	407.25
439.52	414.27
439.70	393.21
439.89	416.62
440.08	407.25
440.26	437.68
440.45	430.66
440.63	451.72
440.82	482.15
441.01	437.68
441.19	379.17
441.38	381.51
441.57	449.38
441.75	454.06
441.94	486.83
442.12	423.64
442.31	337.04
442.50	430.66
442.68	442.36
442.87	491.51
443.05	395.55
443.24	414.27
443.43	437.68
443.61	393.21
443.80	341.72
443.98	423.64
444.17	355.76
444.35	458.74
444.54	430.66
444.73	449.38
444.91	416.62
445.10	444.70
445.28	433.00
445.47	428.32
445.65	344.06
445.84	451.72
446.02	388.53
446.21	418.96
446.39	451.72
446.58	447.04
446.77	400.23
446.95	386.19
447.14	430.66
447.32	491.51
447.51	390.87
447.69	433.00
447.88	376.83
448.06	418.96
448.25	411.93
448.43	390.87
448.62	416.62
448.80	428.32
448.99	360.44
449.17	395.55
449.36	337.04
449.54	346.40
449.73	402.57
449.91	421.30
450.10	369.80
450.28	484.49
450.46	400.23
450.65	442.36
450.83	456.40
451.02	346.40
451.20	437.68
451.39	423.64
451.57	390.87
451.76	428.32
451.94	397.89
452.13	423.64
452.31	440.02
452.49	386.19
452.68	388.53
452.86	425.98
453.05	437.68
453.23	428.32
453.42	463.43
453.60	484.49
453.78	407.25
453.97	428.32
454.15	428.32
454.34	390.87
454.52	390.87
454.70	463.43
454.89	442.36
455.07	423.64
455.26	386.19
455.44	437.68
455.62	437.68
455.81	418.96
455.99	407.25
456.17	440.02
456.36	404.91
456.54	416.62
456.73	376.83
456.91	334.70
457.09	409.59
457.28	404.91
457.46	404.91
457.64	386.19
457.83	400.23
458.01	444.70
458.19	470.45
458.38	428.32
458.56	430.66
458.74	334.70
458.93	409.59
459.11	386.19
459.29	407.25
459.48	444.70
459.66	447.04
459.84	339.38
460.03	521.94
460.21	440.02
460.39	369.80
460.57	402.57
460.76	477.47
460.94	421.30
461.12	425.98
461.31	402.57
461.49	472.79
461.67	404.91
461.85	486.83
462.04	365.12
462.22	774.72
462.40	365.12
462.59	353.42
462.77	400.23
462.95	393.21
463.13	367.46
463.32	393.21
463.50	465.77
463.68	435.34
463.86	414.27
464.05	374.49
464.23	411.93
464.41	470.45
464.59	360.44
464.78	402.57
464.96	416.62
465.14	400.23
465.32	388.53
465.50	346.40
465.69	393.21
465.87	362.78
466.05	451.72
466.23	400.23
466.41	381.51
466.60	433.00
466.78	430.66
466.96	463.43
467.14	404.91
467.32	475.13
467.51	468.11
467.69	404.91
467.87	421.30
468.05	386.19
468.23	421.30
468.41	433.00
468.60	393.21
468.78	430.66
468.96	447.04
469.14	440.02
469.32	444.70
469.50	440.02
469.69	423.64
469.87	472.79
470.05	376.83
470.23	416.62
470.41	407.25
470.59	447.04
470.77	367.46
470.95	421.30
471.14	418.96
471.32	402.57
471.50	383.85
471.68	358.10
471.86	360.44
472.04	372.15
472.22	423.64
472.40	372.15
472.58	411.93
472.77	433.00
472.95	353.42
473.13	428.32
473.31	423.64
473.49	402.57
473.67	330.02
473.85	400.23
474.03	411.93
474.21	425.98
474.39	395.55
474.57	449.38
474.75	456.40
474.93	362.78
475.12	444.70
475.30	414.27
475.48	407.25
475.66	451.72
475.84	411.93
476.02	437.68
476.20	400.23
476.38	428.32
476.56	388.53
476.74	416.62
476.92	379.17
477.10	381.51
477.28	393.21
477.46	425.98
477.64	355.76
477.82	374.49
478.00	416.62
478.18	444.70
478.36	393.21
478.54	437.68
478.72	376.83
478.90	348.74
479.08	411.93
479.26	390.87
479.44	379.17
479.62	423.64
479.80	376.83
479.98	444.70
480.16	402.57
480.34	383.85
480.52	475.13
480.70	418.96
480.88	339.38
481.06	393.21
481.24	440.02
481.41	400.23
481.59	355.76
481.77	416.62
481.95	386.19
482.13	440.02
482.31	367.46
482.49	337.04
482.67	358.10
482.85	397.89
483.03	418.96
483.21	472.79
483.39	437.68
483.57	425.98
483.74	435.34
483.92	451.72
484.10	386.19
484.28	418.96
484.46	456.40
484.64	386.19
484.82	379.17
485.00	372.15
485.18	397.89
485.35	416.62
485.53	451.72
485.71	491.51
485.89	379.17
486.07	489.17
486.25	308.95
486.43	369.80
486.61	463.43
486.78	437.68
486.96	409.59
487.14	428.32
487.32	355.76
487.50	416.62
487.68	388.53
487.85	428.32
488.03	454.06
488.21	437.68
488.39	414.27
488.57	430.66
488.75	365.12
488.92	521.94
489.10	428.32
489.28	397.89
489.46	461.09
489.64	423.64
489.81	395.55
489.99	425.98
490.17	337.04
490.35	465.77
490.53	468.11
490.70	383.85
490.88	451.72
491.06	395.55
491.24	440.02
491.41	475.13
491.59	433.00
491.77	416.62
491.95	379.17
492.13	369.80
492.30	435.34
492.48	461.09
492.66	435.34
492.84	344.06
493.01	402.57
493.19	379.17
493.37	435.34
493.54	386.19
493.72	402.57
493.90	348.74
494.08	402.57
494.25	379.17
494.43	402.57
494.61	421.30
494.79	400.23
494.96	306.61
495.14	442.36
495.32	383.85
495.49	372.15
495.67	376.83
495.85	355.76
496.02	402.57
496.20	514.92
496.38	411.93
496.55	496.19
496.73	409.59
496.91	379.17
497.09	421.30
497.26	404.91
497.44	435.34
497.62	407.25
497.79	407.25
497.97	430.66
498.14	414.27
498.32	428.32
498.50	433.00
498.67	386.19
498.85	449.38
499.03	425.98
499.20	381.51
499.38	388.53
499.56	428.32
499.73	458.74
499.91	416.62
500.08	411.93
500.26	416.62
500.44	433.00
500.61	475.13
500.79	376.83
500.97	301.93
501.14	435.34
501.32	351.08
501.49	381.51
501.67	430.66
501.84	435.34
502.02	393.21
502.20	449.38
502.37	428.32
502.55	393.21
502.72	418.96
502.90	386.19
503.07	416.62
503.25	344.06
503.43	341.72
503.60	353.42
503.78	437.68
503.95	433.00
504.13	348.74
504.30	510.24
504.48	360.44
504.65	437.68
504.83	430.66
505.01	407.25
505.18	416.62
505.36	411.93
505.53	433.00
505.71	374.49
505.88	440.02
506.06	416.62
506.23	372.15
506.41	447.04
506.58	407.25
506.76	409.59
506.93	365.12
507.11	463.43
507.28	327.68
507.46	510.24
507.63	397.89
507.81	402.57
507.98	437.68
508.16	451.72
508.33	379.17
508.50	421.30
508.68	362.78
508.85	409.59
509.03	428.32
509.20	337.04
509.38	414.27
509.55	435.34
509.73	484.49
509.90	468.11
510.08	470.45
510.25	376.83
510.42	358.10
510.60	400.23
510.77	414.27
510.95	411.93
511.12	386.19
511.30	451.72
511.47	442.36
511.64	425.98
511.82	407.25
511.99	421.30
512.17	461.09
512.34	376.83
512.51	313.63
512.69	400.23
512.86	451.72
513.04	390.87
513.21	479.81
513.38	322.99
513.56	348.74
513.73	386.19
513.90	297.25
514.08	395.55
514.25	376.83
514.43	428.32
514.60	397.89
514.77	372.15
514.95	421.30
515.12	381.51
515.29	425.98
515.47	395.55
515.64	425.98
515.81	383.85
515.99	418.96
516.16	418.96
516.33	489.17
516.51	421.30
516.68	418.96
516.85	397.89
517.03	433.00
517.20	435.34
517.37	411.93
517.54	449.38
517.72	437.68
517.89	381.51
518.06	425.98
518.24	465.77
518.41	358.10
518.58	421.30
518.75	463.43
518.93	447.04
519.10	374.49
519.27	430.66
519.45	388.53
519.62	393.21
519.79	393.21
519.96	400.23
520.14	407.25
520.31	397.89
520.48	444.70
520.65	390.87
520.83	423.64
521.00	458.74
521.17	381.51
521.34	390.87
521.52	397.89
521.69	397.89
521.86	421.30
522.03	407.25
522.20	500.87
522.38	390.87
522.55	451.72
522.72	423.64
522.89	470.45
523.07	433.00
523.24	353.42
523.41	421.30
523.58	400.23
523.75	355.76
523.92	381.51
524.10	435.34
524.27	440.02
524.44	379.17
524.61	358.10
524.78	425.98
524.96	425.98
525.13	407.25
525.30	484.49
525.47	379.17
525.64	402.57
525.81	430.66
525.98	458.74
526.16	411.93
526.33	404.91
526.50	372.15
526.67	362.78
526.84	334.70
527.01	360.44
527.18	430.66
527.36	442.36
527.53	362.78
527.70	409.59
527.87	411.93
528.04	423.64
528.21	447.04
528.38	369.80
528.55	390.87
528.72	517.26
528.89	454.06
529.07	435.34
529.24	404.91
529.41	430.66
529.58	400.23
529.75	411.93
529.92	362.78
530.09	444.70
530.26	498.53
530.43	402.57
530.60	379.17
530.77	430.66
530.94	402.57
531.11	454.06
531.28	440.02
531.46	374.49
531.63	395.55
531.80	404.91
531.97	435.34
532.14	416.62
532.31	337.04
532.48	416.62
532.65	437.68
532.82	379.17
532.99	395.55
533.16	458.74
533.33	388.53
533.50	400.23
533.67	428.32
533.84	409.59
534.01	423.64
534.18	423.64
534.35	416.62
534.52	418.96
534.69	437.68
534.86	428.32
535.03	379.17
535.20	451.72
535.37	369.80
535.54	393.21
535.71	433.00
535.88	510.24
536.05	444.70
536.22	376.83
536.38	428.32
536.55	421.30
536.72	454.06
536.89	381.51
537.06	397.89
537.23	440.02
537.40	461.09
537.57	404.91
537.74	402.57
537.91	414.27
538.08	463.43
538.25	395.55
538.42	475.13
538.59	388.53
538.75	435.34
538.92	447.04
539.09	418.96
539.26	400.23
539.43	407.25
539.60	402.57
539.77	470.45
539.94	393.21
540.11	470.45
540.28	465.77
540.44	484.49
540.61	430.66
540.78	430.66
540.95	479.81
541.12	383.85
541.29	468.11
541.46	451.72
541.62	400.23
541.79	341.72
541.96	393.21
542.13	411.93
542.30	332.36
542.47	447.04
542.63	390.87
542.80	425.98
542.97	437.68
543.14	437.68
543.31	430.66
543.48	393.21
543.64	517.26
543.81	451.72
543.98	383.85
544.15	421.30
544.32	435.34
544.48	400.23
544.65	409.59
544.82	360.44
544.99	421.30
545.16	367.46
545.32	358.10
545.49	416.62
545.66	402.57
545.83	383.85
546.00	461.09
546.16	437.68
546.33	365.12
546.50	479.81
546.67	404.91
546.83	388.53
547.00	407.25
547.17	444.70
547.34	414.27
547.50	447.04
547.67	311.29
547.84	428.32
548.00	482.15
548.17	390.87
548.34	454.06
548.51	503.22
548.67	404.91
548.84	355.76
549.01	435.34
549.18	379.17
549.34	414.27
549.51	444.70
549.68	475.13
549.84	449.38
550.01	442.36
550.18	498.53
550.34	489.17
550.51	479.81
550.68	449.38
550.84	442.36
551.01	444.70
551.18	407.25
551.34	416.62
551.51	425.98
551.68	379.17
551.84	372.15
552.01	390.87
552.18	409.59
552.34	402.57
552.51	451.72
552.68	430.66
552.84	376.83
553.01	449.38
553.18	341.72
553.34	400.23
553.51	423.64
553.67	454.06
553.84	482.15
554.01	400.23
554.17	479.81
554.34	404.91
554.51	376.83
554.67	477.47
554.84	411.93
555.00	393.21
555.17	411.93
555.33	454.06
555.50	456.40
555.67	397.89
555.83	360.44
556.00	388.53
556.16	528.96
556.33	407.25
556.50	425.98
556.66	423.64
556.83	437.68
556.99	308.95
557.16	430.66
557.32	437.68
557.49	376.83
557.65	411.93
557.82	411.93
557.98	470.45
558.15	411.93
558.32	416.62
558.48	458.74
558.65	376.83
558.81	372.15
558.98	369.80
559.14	458.74
559.31	435.34
559.47	388.53
559.64	404.91
559.80	421.30
559.97	379.17
560.13	461.09
560.30	421.30
560.46	414.27
560.63	369.80
560.79	379.17
560.96	500.87
561.12	463.43
561.29	486.83
561.45	386.19
561.61	423.64
561.78	582.79
561.94	404.91
562.11	367.46
562.27	414.27
562.44	479.81
562.60	456.40
562.77	367.46
562.93	393.21
563.10	390.87
563.26	437.68
563.42	442.36
563.59	416.62
563.75	404.91
563.92	416.62
564.08	430.66
564.24	538.32
564.41	491.51
564.57	383.85
564.74	381.51
564.90	421.30
565.07	411.93
565.23	440.02
565.39	358.10
565.56	407.25
565.72	390.87
565.88	470.45
566.05	402.57
566.21	407.25
566.38	463.43
566.54	472.79
566.70	477.47
566.87	447.04
567.03	423.64
567.19	351.08
567.36	367.46
567.52	458.74
567.68	388.53
567.85	334.70
568.01	346.40
568.17	348.74
568.34	386.19
568.50	447.04
568.66	458.74
568.83	440.02
568.99	449.38
569.15	346.40
569.32	369.80
569.48	365.12
569.64	397.89
569.81	470.45
569.97	430.66
570.13	409.59
570.30	362.78
570.46	404.91
570.62	451.72
570.78	360.44
570.95	414.27
571.11	381.51
571.27	456.40
571.43	404.91
571.60	428.32
571.76	440.02
571.92	334.70
572.09	447.04
572.25	388.53
572.41	409.59
572.57	435.34
572.74	437.68
572.90	381.51
573.06	404.91
573.22	451.72
573.38	433.00
573.55	428.32
573.71	430.66
573.87	491.51
574.03	402.57
574.20	416.62
574.36	435.34
574.52	430.66
574.68	421.30
574.84	454.06
575.01	395.55
575.17	390.87
575.33	362.78
575.49	414.27
575.65	383.85
575.82	440.02
575.98	430.66
576.14	435.34
576.30	435.34
576.46	430.66
576.62	393.21
576.79	421.30
576.95	465.77
577.11	369.80
577.27	337.04
577.43	393.21
577.59	381.51
577.75	360.44
577.92	355.76
578.08	416.62
578.24	437.68
578.40	339.38
578.56	512.58
578.72	416.62
578.88	397.89
579.04	437.68
579.21	423.64
579.37	400.23
579.53	440.02
579.69	358.10
579.85	454.06
580.01	383.85
580.17	444.70
580.33	360.44
580.49	404.91
580.65	404.91
580.82	416.62
580.98	404.91
581.14	421.30
581.30	437.68
581.46	411.93
581.62	454.06
581.78	388.53
581.94	395.55
582.10	440.02
582.26	423.64
582.42	416.62
582.58	402.57
582.74	393.21
582.90	425.98
583.06	395.55
583.22	454.06
583.38	402.57
583.54	475.13
583.70	479.81
583.86	400.23
584.02	451.72
584.18	428.32
584.34	390.87
584.50	440.02
584.66	407.25
584.82	337.04
584.98	381.51
585.14	440.02
585.30	404.91
585.46	360.44
585.62	308.95
585.78	421.30
585.94	374.49
586.10	400.23
586.26	435.34
586.42	461.09
586.58	463.43
586.74	435.34
586.90	484.49
587.06	442.36
587.22	512.58
587.38	376.83
587.54	433.00
587.70	365.12
587.86	430.66
588.02	461.09
588.18	444.70
588.34	482.15
588.49	479.81
588.65	411.93
588.81	461.09
588.97	395.55
589.13	430.66
589.29	416.62
589.45	458.74
589.61	423.64
589.77	444.70
589.93	395.55
590.08	461.09
590.24	332.36
590.40	386.19
590.56	470.45
590.72	402.57
590.88	454.06
591.04	374.49
591.20	388.53
591.35	470.45
591.51	447.04
591.67	425.98
591.83	440.02
591.99	482.15
592.15	433.00
592.31	456.40
592.46	355.76
592.62	423.64
592.78	440.02
592.94	475.13
593.10	456.40
593.26	402.57
593.41	376.83
593.57	414.27
593.73	411.93
593.89	397.89
594.05	395.55
594.20	428.32
594.36	477.47
594.52	397.89
594.68	423.64
594.84	479.81
594.99	510.24
595.15	444.70
595.31	500.87
595.47	442.36
595.62	428.32
595.78	407.25
595.94	465.77
596.10	449.38
596.25	400.23
596.41	409.59
596.57	411.93
596.73	400.23
596.88	458.74
597.04	451.72
597.20	425.98
597.36	437.68
597.51	484.49
597.67	433.00
597.83	337.04
597.99	461.09
598.14	451.72
598.30	477.47
598.46	353.42
598.61	458.74
598.77	435.34
598.93	465.77
599.09	421.30
599.24	400.23
599.40	409.59
599.56	402.57
599.71	411.93
599.87	421.30
600.03	395.55
600.18	374.49
600.34	428.32
600.50	390.87
600.65	524.28
600.81	430.66
600.97	447.04
601.12	451.72
601.28	519.60
601.44	470.45
601.59	404.91
601.75	440.02
601.91	355.76
602.06	425.98
602.22	468.11
602.37	524.28
602.53	447.04
602.69	383.85
602.84	416.62
603.00	500.87
603.16	433.00
603.31	369.80
603.47	414.27
603.62	437.68
603.78	400.23
603.94	411.93
604.09	409.59
604.25	444.70
604.40	465.77
604.56	409.59
604.71	409.59
604.87	423.64
605.03	409.59
605.18	463.43
605.34	430.66
605.49	376.83
605.65	358.10
605.80	418.96
605.96	355.76
606.12	433.00
606.27	449.38
606.43	404.91
606.58	428.32
606.74	421.30
606.89	465.77
607.05	416.62
607.20	454.06
607.36	407.25
607.51	411.93
607.67	496.19
607.82	376.83
607.98	484.49
608.13	404.91
608.29	456.40
608.44	400.23
608.60	428.32
608.75	482.15
608.91	395.55
609.06	444.70
609.22	414.27
609.37	433.00
609.53	433.00
609.68	390.87
609.84	407.25
609.99	397.89
610.15	362.78
