SpectraSuite Data File
++++++++++++++++++++++++++++++++++++
Date: Fri Oct 25 12:10:12 EDT 2013
User: price-jones
Dark Spectrum Present: No
Reference Spectrum Present: No
Number of Sampled Component Spectra: 1
Spectrometers: USB2+H05261
Integration Time (usec): 100000 (USB2+H05261)
Spectra Averaged: 1 (USB2+H05261)
Boxcar Smoothing: 0 (USB2+H05261)
Correct for Electrical Dark: No (USB2+H05261)
Strobe/Lamp Enabled: No (USB2+H05261)
Correct for Detector Non-linearity: No (USB2+H05261)
Correct for Stray Light: No (USB2+H05261)
Number of Pixels in Processed Spectrum: 2048
>>>>>Begin Processed Spectral Data<<<<<
365.73	355.76
365.92	355.76
366.12	355.76
366.32	264.48
366.52	259.80
366.72	278.52
366.91	194.26
367.11	308.95
367.31	229.37
367.51	205.97
367.70	245.76
367.90	273.84
368.10	250.44
368.30	196.60
368.49	201.29
368.69	217.67
368.89	257.46
369.09	198.95
369.28	292.57
369.48	248.10
369.68	285.55
369.87	315.97
370.07	322.99
370.27	416.62
370.47	280.86
370.66	311.29
370.86	367.46
371.06	294.91
371.25	435.34
371.45	367.46
371.65	390.87
371.84	315.97
372.04	437.68
372.24	409.59
372.44	381.51
372.63	388.53
372.83	404.91
373.03	421.30
373.22	348.74
373.42	390.87
373.62	409.59
373.81	365.12
374.01	397.89
374.21	477.47
374.40	418.96
374.60	451.72
374.79	369.80
374.99	395.55
375.19	449.38
375.38	418.96
375.58	388.53
375.78	451.72
375.97	414.27
376.17	414.27
376.37	423.64
376.56	400.23
376.76	423.64
376.95	423.64
377.15	351.08
377.35	372.15
377.54	435.34
377.74	437.68
377.93	407.25
378.13	400.23
378.33	355.76
378.52	505.56
378.72	442.36
378.91	400.23
379.11	386.19
379.31	395.55
379.50	381.51
379.70	440.02
379.89	421.30
380.09	404.91
380.28	388.53
380.48	393.21
380.68	372.15
380.87	372.15
381.07	402.57
381.26	383.85
381.46	381.51
381.65	381.51
381.85	421.30
382.04	407.25
382.24	418.96
382.43	449.38
382.63	421.30
382.83	409.59
383.02	414.27
383.22	482.15
383.41	430.66
383.61	414.27
383.80	458.74
384.00	461.09
384.19	409.59
384.39	393.21
384.58	369.80
384.78	386.19
384.97	411.93
385.17	407.25
385.36	372.15
385.56	414.27
385.75	376.83
385.95	423.64
386.14	489.17
386.34	444.70
386.53	435.34
386.72	355.76
386.92	390.87
387.11	463.43
387.31	379.17
387.50	458.74
387.70	365.12
387.89	390.87
388.09	418.96
388.28	442.36
388.48	341.72
388.67	421.30
388.86	358.10
389.06	383.85
389.25	353.42
389.45	395.55
389.64	409.59
389.84	430.66
390.03	418.96
390.22	400.23
390.42	355.76
390.61	395.55
390.81	393.21
391.00	390.87
391.19	444.70
391.39	479.81
391.58	418.96
391.78	372.15
391.97	425.98
392.16	388.53
392.36	435.34
392.55	461.09
392.75	447.04
392.94	451.72
393.13	414.27
393.33	451.72
393.52	397.89
393.71	337.04
393.91	379.17
394.10	454.06
394.29	334.70
394.49	397.89
394.68	353.42
394.88	407.25
395.07	444.70
395.26	430.66
395.46	383.85
395.65	414.27
395.84	449.38
396.04	463.43
396.23	416.62
396.42	430.66
396.62	355.76
396.81	400.23
397.00	395.55
397.19	435.34
397.39	388.53
397.58	388.53
397.77	397.89
397.97	325.33
398.16	393.21
398.35	395.55
398.55	397.89
398.74	437.68
398.93	461.09
399.12	367.46
399.32	416.62
399.51	447.04
399.70	418.96
399.90	447.04
400.09	428.32
400.28	437.68
400.47	414.27
400.67	402.57
400.86	421.30
401.05	395.55
401.24	360.44
401.44	433.00
401.63	393.21
401.82	409.59
402.01	393.21
402.21	379.17
402.40	390.87
402.59	416.62
402.78	358.10
402.97	442.36
403.17	484.49
403.36	507.90
403.55	383.85
403.74	358.10
403.93	397.89
404.13	458.74
404.32	339.38
404.51	418.96
404.70	386.19
404.89	454.06
405.09	468.11
405.28	458.74
405.47	421.30
405.66	388.53
405.85	430.66
406.05	383.85
406.24	421.30
406.43	411.93
406.62	346.40
406.81	425.98
407.00	411.93
407.20	379.17
407.39	365.12
407.58	381.51
407.77	369.80
407.96	402.57
408.15	383.85
408.34	402.57
408.54	339.38
408.73	402.57
408.92	402.57
409.11	390.87
409.30	414.27
409.49	383.85
409.68	433.00
409.87	456.40
410.07	416.62
410.26	367.46
410.45	442.36
410.64	395.55
410.83	463.43
411.02	353.42
411.21	407.25
411.40	369.80
411.59	367.46
411.78	383.85
411.98	407.25
412.17	346.40
412.36	367.46
412.55	407.25
412.74	421.30
412.93	414.27
413.12	409.59
413.31	374.49
413.50	393.21
413.69	397.89
413.88	402.57
414.07	358.10
414.26	411.93
414.45	411.93
414.64	376.83
414.83	369.80
415.02	414.27
415.22	395.55
415.41	376.83
415.60	376.83
415.79	339.38
415.98	418.96
416.17	423.64
416.36	444.70
416.55	360.44
416.74	433.00
416.93	451.72
417.12	430.66
417.31	374.49
417.50	437.68
417.69	475.13
417.88	358.10
418.07	348.74
418.26	362.78
418.45	402.57
418.64	461.09
418.83	407.25
419.02	411.93
419.21	472.79
419.39	390.87
419.58	404.91
419.77	414.27
419.96	407.25
420.15	390.87
420.34	369.80
420.53	418.96
420.72	433.00
420.91	433.00
421.10	393.21
421.29	444.70
421.48	383.85
421.67	463.43
421.86	437.68
422.05	451.72
422.24	416.62
422.43	454.06
422.61	428.32
422.80	433.00
422.99	369.80
423.18	390.87
423.37	430.66
423.56	414.27
423.75	444.70
423.94	393.21
424.13	400.23
424.32	423.64
424.50	388.53
424.69	409.59
424.88	442.36
425.07	383.85
425.26	425.98
425.45	461.09
425.64	416.62
425.83	437.68
426.01	414.27
426.20	332.36
426.39	414.27
426.58	358.10
426.77	390.87
426.96	407.25
427.15	435.34
427.33	447.04
427.52	421.30
427.71	435.34
427.90	393.21
428.09	400.23
428.28	395.55
428.46	409.59
428.65	433.00
428.84	402.57
429.03	360.44
429.22	334.70
429.40	430.66
429.59	397.89
429.78	397.89
429.97	386.19
430.16	383.85
430.34	411.93
430.53	433.00
430.72	449.38
430.91	414.27
431.10	353.42
431.28	402.57
431.47	463.43
431.66	409.59
431.85	400.23
432.03	407.25
432.22	444.70
432.41	388.53
432.60	444.70
432.79	437.68
432.97	418.96
433.16	376.83
433.35	411.93
433.54	400.23
433.72	407.25
433.91	362.78
434.10	334.70
434.28	433.00
434.47	390.87
434.66	414.27
434.85	414.27
435.03	451.72
435.22	411.93
435.41	465.77
435.59	339.38
435.78	444.70
435.97	355.76
436.16	400.23
436.34	395.55
436.53	433.00
436.72	454.06
436.90	411.93
437.09	463.43
437.28	435.34
437.46	456.40
437.65	416.62
437.84	353.42
438.02	512.58
438.21	493.85
438.40	411.93
438.58	425.98
438.77	393.21
438.96	442.36
439.14	491.51
439.33	425.98
439.52	374.49
439.70	414.27
439.89	454.06
440.08	465.77
440.26	402.57
440.45	463.43
440.63	402.57
440.82	393.21
441.01	418.96
441.19	374.49
441.38	374.49
441.57	341.72
441.75	454.06
441.94	421.30
442.12	358.10
442.31	376.83
442.50	386.19
442.68	440.02
442.87	416.62
443.05	393.21
443.24	346.40
443.43	454.06
443.61	465.77
443.80	379.17
443.98	407.25
444.17	388.53
444.35	320.65
444.54	409.59
444.73	393.21
444.91	458.74
445.10	353.42
445.28	369.80
445.47	322.99
445.65	411.93
445.84	379.17
446.02	447.04
446.21	362.78
446.39	418.96
446.58	393.21
446.77	383.85
446.95	411.93
447.14	358.10
447.32	449.38
447.51	447.04
447.69	491.51
447.88	421.30
448.06	470.45
448.25	318.31
448.43	407.25
448.62	369.80
448.80	409.59
448.99	425.98
449.17	388.53
449.36	407.25
449.54	447.04
449.73	404.91
449.91	402.57
450.10	411.93
450.28	440.02
450.46	425.98
450.65	458.74
450.83	400.23
451.02	428.32
451.20	411.93
451.39	416.62
451.57	393.21
451.76	440.02
451.94	449.38
452.13	425.98
452.31	428.32
452.49	404.91
452.68	376.83
452.86	435.34
453.05	423.64
453.23	376.83
453.42	393.21
453.60	451.72
453.78	379.17
453.97	430.66
454.15	416.62
454.34	383.85
454.52	409.59
454.70	411.93
454.89	444.70
455.07	470.45
455.26	379.17
455.44	437.68
455.62	470.45
455.81	437.68
455.99	383.85
456.17	358.10
456.36	416.62
456.54	393.21
456.73	437.68
456.91	402.57
457.09	414.27
457.28	451.72
457.46	383.85
457.64	451.72
457.83	414.27
458.01	428.32
458.19	379.17
458.38	365.12
458.56	430.66
458.74	376.83
458.93	433.00
459.11	393.21
459.29	414.27
459.48	430.66
459.66	486.83
459.84	421.30
460.03	475.13
460.21	451.72
460.39	374.49
460.57	465.77
460.76	390.87
460.94	393.21
461.12	451.72
461.31	402.57
461.49	369.80
461.67	344.06
461.85	425.98
462.04	402.57
462.22	741.95
462.40	435.34
462.59	397.89
462.77	409.59
462.95	458.74
463.13	491.51
463.32	388.53
463.50	372.15
463.68	437.68
463.86	440.02
464.05	369.80
464.23	437.68
464.41	482.15
464.59	447.04
464.78	372.15
464.96	442.36
465.14	425.98
465.32	360.44
465.50	407.25
465.69	428.32
465.87	388.53
466.05	407.25
466.23	386.19
466.41	400.23
466.60	353.42
466.78	376.83
466.96	444.70
467.14	477.47
467.32	470.45
467.51	383.85
467.69	416.62
467.87	409.59
468.05	330.02
468.23	456.40
468.41	423.64
468.60	376.83
468.78	390.87
468.96	465.77
469.14	404.91
469.32	458.74
469.50	379.17
469.69	430.66
469.87	381.51
470.05	404.91
470.23	386.19
470.41	337.04
470.59	409.59
470.77	411.93
470.95	374.49
471.14	449.38
471.32	400.23
471.50	444.70
471.68	409.59
471.86	381.51
472.04	404.91
472.22	496.19
472.40	409.59
472.58	390.87
472.77	470.45
472.95	416.62
473.13	470.45
473.31	404.91
473.49	430.66
473.67	337.04
473.85	332.36
474.03	482.15
474.21	428.32
474.39	397.89
474.57	430.66
474.75	411.93
474.93	374.49
475.12	393.21
475.30	418.96
475.48	418.96
475.66	383.85
475.84	461.09
476.02	388.53
476.20	433.00
476.38	409.59
476.56	416.62
476.74	337.04
476.92	374.49
477.10	393.21
477.28	423.64
477.46	418.96
477.64	484.49
477.82	393.21
478.00	482.15
478.18	404.91
478.36	407.25
478.54	351.08
478.72	393.21
478.90	409.59
479.08	437.68
479.26	568.75
479.44	383.85
479.62	374.49
479.80	322.99
479.98	381.51
480.16	433.00
480.34	421.30
480.52	407.25
480.70	388.53
480.88	360.44
481.06	362.78
481.24	449.38
481.41	454.06
481.59	433.00
481.77	421.30
481.95	454.06
482.13	456.40
482.31	428.32
482.49	381.51
482.67	500.87
482.85	374.49
483.03	393.21
483.21	428.32
483.39	353.42
483.57	414.27
483.74	416.62
483.92	400.23
484.10	418.96
484.28	390.87
484.46	437.68
484.64	358.10
484.82	360.44
485.00	423.64
485.18	362.78
485.35	451.72
485.53	358.10
485.71	491.51
485.89	374.49
486.07	435.34
486.25	433.00
486.43	386.19
486.61	421.30
486.78	463.43
486.96	409.59
487.14	416.62
487.32	334.70
487.50	425.98
487.68	393.21
487.85	477.47
488.03	447.04
488.21	454.06
488.39	482.15
488.57	486.83
488.75	435.34
488.92	498.53
489.10	437.68
489.28	416.62
489.46	353.42
489.64	381.51
489.81	400.23
489.99	386.19
490.17	402.57
490.35	456.40
490.53	362.78
490.70	400.23
490.88	416.62
491.06	442.36
491.24	440.02
491.41	435.34
491.59	362.78
491.77	355.76
491.95	395.55
492.13	472.79
492.30	449.38
492.48	376.83
492.66	475.13
492.84	484.49
493.01	400.23
493.19	454.06
493.37	461.09
493.54	402.57
493.72	402.57
493.90	440.02
494.08	337.04
494.25	421.30
494.43	390.87
494.61	386.19
494.79	372.15
494.96	379.17
495.14	442.36
495.32	383.85
495.49	409.59
495.67	433.00
495.85	376.83
496.02	423.64
496.20	496.19
496.38	409.59
496.55	388.53
496.73	383.85
496.91	353.42
497.09	475.13
497.26	477.47
497.44	414.27
497.62	390.87
497.79	425.98
497.97	383.85
498.14	435.34
498.32	437.68
498.50	430.66
498.67	428.32
498.85	442.36
499.03	388.53
499.20	423.64
499.38	388.53
499.56	390.87
499.73	461.09
499.91	430.66
500.08	437.68
500.26	395.55
500.44	393.21
500.61	397.89
500.79	386.19
500.97	456.40
501.14	407.25
501.32	440.02
501.49	430.66
501.67	332.36
501.84	465.77
502.02	411.93
502.20	463.43
502.37	498.53
502.55	402.57
502.72	409.59
502.90	386.19
503.07	344.06
503.25	393.21
503.43	407.25
503.60	458.74
503.78	437.68
503.95	428.32
504.13	388.53
504.30	402.57
504.48	463.43
504.65	376.83
504.83	458.74
505.01	407.25
505.18	489.17
505.36	411.93
505.53	411.93
505.71	365.12
505.88	468.11
506.06	393.21
506.23	454.06
506.41	397.89
506.58	393.21
506.76	409.59
506.93	433.00
507.11	500.87
507.28	423.64
507.46	428.32
507.63	428.32
507.81	404.91
507.98	365.12
508.16	390.87
508.33	348.74
508.50	414.27
508.68	435.34
508.85	374.49
509.03	367.46
509.20	449.38
509.38	337.04
509.55	440.02
509.73	365.12
509.90	493.85
510.08	367.46
510.25	397.89
510.42	442.36
510.60	444.70
510.77	428.32
510.95	456.40
511.12	365.12
511.30	369.80
511.47	442.36
511.64	458.74
511.82	421.30
511.99	404.91
512.17	428.32
512.34	362.78
512.51	395.55
512.69	369.80
512.86	397.89
513.04	437.68
513.21	472.79
513.38	372.15
513.56	425.98
513.73	498.53
513.90	428.32
514.08	449.38
514.25	456.40
514.43	409.59
514.60	454.06
514.77	421.30
514.95	442.36
515.12	379.17
515.29	416.62
515.47	461.09
515.64	411.93
515.81	475.13
515.99	503.22
516.16	407.25
516.33	493.85
516.51	376.83
516.68	440.02
516.85	437.68
517.03	447.04
517.20	440.02
517.37	435.34
517.54	425.98
517.72	472.79
517.89	440.02
518.06	404.91
518.24	433.00
518.41	416.62
518.58	428.32
518.75	411.93
518.93	433.00
519.10	454.06
519.27	416.62
519.45	402.57
519.62	400.23
519.79	463.43
519.96	444.70
520.14	447.04
520.31	468.11
520.48	423.64
520.65	397.89
520.83	372.15
521.00	425.98
521.17	407.25
521.34	334.70
521.52	425.98
521.69	470.45
521.86	360.44
522.03	414.27
522.20	463.43
522.38	449.38
522.55	414.27
522.72	404.91
522.89	390.87
523.07	503.22
523.24	482.15
523.41	402.57
523.58	386.19
523.75	421.30
523.92	437.68
524.10	383.85
524.27	386.19
524.44	451.72
524.61	386.19
524.78	425.98
524.96	468.11
525.13	414.27
525.30	388.53
525.47	493.85
525.64	435.34
525.81	428.32
525.98	433.00
526.16	400.23
526.33	372.15
526.50	409.59
526.67	430.66
526.84	414.27
527.01	388.53
527.18	472.79
527.36	416.62
527.53	339.38
527.70	440.02
527.87	437.68
528.04	451.72
528.21	395.55
528.38	454.06
528.55	418.96
528.72	493.85
528.89	482.15
529.07	418.96
529.24	428.32
529.41	435.34
529.58	414.27
529.75	395.55
529.92	416.62
530.09	428.32
530.26	400.23
530.43	433.00
530.60	421.30
530.77	404.91
530.94	447.04
531.11	451.72
531.28	383.85
531.46	409.59
531.63	454.06
531.80	423.64
531.97	379.17
532.14	416.62
532.31	407.25
532.48	386.19
532.65	411.93
532.82	435.34
532.99	353.42
533.16	425.98
533.33	435.34
533.50	348.74
533.67	360.44
533.84	386.19
534.01	393.21
534.18	369.80
534.35	435.34
534.52	433.00
534.69	430.66
534.86	449.38
535.03	428.32
535.20	386.19
535.37	367.46
535.54	386.19
535.71	407.25
535.88	484.49
536.05	411.93
536.22	449.38
536.38	397.89
536.55	454.06
536.72	454.06
536.89	430.66
537.06	430.66
537.23	386.19
537.40	346.40
537.57	423.64
537.74	409.59
537.91	379.17
538.08	451.72
538.25	393.21
538.42	395.55
538.59	402.57
538.75	493.85
538.92	449.38
539.09	531.30
539.26	433.00
539.43	407.25
539.60	374.49
539.77	440.02
539.94	430.66
540.11	435.34
540.28	395.55
540.44	379.17
540.61	402.57
540.78	479.81
540.95	397.89
541.12	486.83
541.29	390.87
541.46	437.68
541.62	400.23
541.79	402.57
541.96	418.96
542.13	386.19
542.30	374.49
542.47	341.72
542.63	454.06
542.80	411.93
542.97	440.02
543.14	351.08
543.31	449.38
543.48	355.76
543.64	362.78
543.81	423.64
543.98	442.36
544.15	421.30
544.32	470.45
544.48	381.51
544.65	407.25
544.82	409.59
544.99	470.45
545.16	461.09
545.32	409.59
545.49	367.46
545.66	376.83
545.83	383.85
546.00	444.70
546.16	433.00
546.33	430.66
546.50	461.09
546.67	465.77
546.83	433.00
547.00	433.00
547.17	390.87
547.34	353.42
547.50	393.21
547.67	458.74
547.84	407.25
548.00	435.34
548.17	411.93
548.34	367.46
548.51	463.43
548.67	395.55
548.84	425.98
549.01	376.83
549.18	425.98
549.34	397.89
549.51	475.13
549.68	425.98
549.84	470.45
550.01	411.93
550.18	447.04
550.34	517.26
550.51	397.89
550.68	486.83
550.84	395.55
551.01	465.77
551.18	386.19
551.34	465.77
551.51	449.38
551.68	458.74
551.84	430.66
552.01	430.66
552.18	423.64
552.34	416.62
552.51	346.40
552.68	437.68
552.84	365.12
553.01	416.62
553.18	484.49
553.34	468.11
553.51	397.89
553.67	444.70
553.84	486.83
554.01	395.55
554.17	461.09
554.34	433.00
554.51	404.91
554.67	386.19
554.84	393.21
555.00	407.25
555.17	374.49
555.33	435.34
555.50	407.25
555.67	430.66
555.83	409.59
556.00	418.96
556.16	554.71
556.33	517.26
556.50	414.27
556.66	367.46
556.83	456.40
556.99	409.59
557.16	451.72
557.32	425.98
557.49	381.51
557.65	498.53
557.82	444.70
557.98	451.72
558.15	355.76
558.32	458.74
558.48	477.47
558.65	393.21
558.81	428.32
558.98	498.53
559.14	503.22
559.31	414.27
559.47	411.93
559.64	444.70
559.80	486.83
559.97	407.25
560.13	475.13
560.30	346.40
560.46	414.27
560.63	461.09
560.79	369.80
560.96	435.34
561.12	421.30
561.29	416.62
561.45	404.91
561.61	440.02
561.78	458.74
561.94	444.70
562.11	355.76
562.27	430.66
562.44	355.76
562.60	428.32
562.77	425.98
562.93	496.19
563.10	461.09
563.26	423.64
563.42	409.59
563.59	379.17
563.75	479.81
563.92	418.96
564.08	421.30
564.24	430.66
564.41	484.49
564.57	353.42
564.74	444.70
564.90	472.79
565.07	454.06
565.23	456.40
565.39	433.00
565.56	482.15
565.72	465.77
565.88	458.74
566.05	416.62
566.21	341.72
566.38	367.46
566.54	381.51
566.70	353.42
566.87	416.62
567.03	367.46
567.19	393.21
567.36	418.96
567.52	374.49
567.68	454.06
567.85	402.57
568.01	421.30
568.17	393.21
568.34	381.51
568.50	442.36
568.66	397.89
568.83	493.85
568.99	421.30
569.15	489.17
569.32	456.40
569.48	428.32
569.64	381.51
569.81	409.59
569.97	472.79
570.13	470.45
570.30	451.72
570.46	376.83
570.62	400.23
570.78	477.47
570.95	435.34
571.11	482.15
571.27	428.32
571.43	372.15
571.60	425.98
571.76	367.46
571.92	440.02
572.09	454.06
572.25	376.83
572.41	449.38
572.57	442.36
572.74	484.49
572.90	477.47
573.06	461.09
573.22	451.72
573.38	414.27
573.55	442.36
573.71	423.64
573.87	381.51
574.03	414.27
574.20	379.17
574.36	418.96
574.52	454.06
574.68	442.36
574.84	411.93
575.01	395.55
575.17	463.43
575.33	393.21
575.49	444.70
575.65	451.72
575.82	489.17
575.98	404.91
576.14	507.90
576.30	383.85
576.46	442.36
576.62	496.19
576.79	514.92
576.95	484.49
577.11	383.85
577.27	374.49
577.43	447.04
577.59	437.68
577.75	482.15
577.92	458.74
578.08	440.02
578.24	362.78
578.40	402.57
578.56	435.34
578.72	444.70
578.88	418.96
579.04	334.70
579.21	418.96
579.37	411.93
579.53	353.42
579.69	475.13
579.85	444.70
580.01	404.91
580.17	451.72
580.33	416.62
580.49	425.98
580.65	458.74
580.82	390.87
580.98	404.91
581.14	367.46
581.30	486.83
581.46	454.06
581.62	414.27
581.78	425.98
581.94	435.34
582.10	416.62
582.26	425.98
582.42	390.87
582.58	440.02
582.74	383.85
582.90	430.66
583.06	428.32
583.22	397.89
583.38	404.91
583.54	425.98
583.70	374.49
583.86	374.49
584.02	435.34
584.18	447.04
584.34	388.53
584.50	397.89
584.66	400.23
584.82	402.57
584.98	397.89
585.14	374.49
585.30	458.74
585.46	461.09
585.62	437.68
585.78	369.80
585.94	397.89
586.10	463.43
586.26	404.91
586.42	468.11
586.58	409.59
586.74	470.45
586.90	416.62
587.06	461.09
587.22	423.64
587.38	468.11
587.54	440.02
587.70	409.59
587.86	442.36
588.02	402.57
588.18	430.66
588.34	421.30
588.49	397.89
588.65	465.77
588.81	423.64
588.97	472.79
589.13	437.68
589.29	407.25
589.45	454.06
589.61	346.40
589.77	468.11
589.93	353.42
590.08	447.04
590.24	430.66
590.40	433.00
590.56	517.26
590.72	372.15
590.88	351.08
591.04	358.10
591.20	388.53
591.35	470.45
591.51	383.85
591.67	379.17
591.83	353.42
591.99	437.68
592.15	472.79
592.31	353.42
592.46	386.19
592.62	379.17
592.78	409.59
592.94	400.23
593.10	393.21
593.26	411.93
593.41	435.34
593.57	388.53
593.73	447.04
593.89	421.30
594.05	440.02
594.20	430.66
594.36	400.23
594.52	388.53
594.68	404.91
594.84	402.57
594.99	447.04
595.15	425.98
595.31	437.68
595.47	482.15
595.62	423.64
595.78	465.77
595.94	414.27
596.10	472.79
596.25	451.72
596.41	472.79
596.57	414.27
596.73	404.91
596.88	386.19
597.04	416.62
597.20	355.76
597.36	451.72
597.51	451.72
597.67	386.19
597.83	433.00
597.99	468.11
598.14	444.70
598.30	454.06
598.46	414.27
598.61	421.30
598.77	463.43
598.93	425.98
599.09	365.12
599.24	348.74
599.40	433.00
599.56	451.72
599.71	435.34
599.87	458.74
600.03	491.51
600.18	400.23
600.34	449.38
600.50	362.78
600.65	395.55
600.81	416.62
600.97	397.89
601.12	449.38
601.28	386.19
601.44	425.98
601.59	433.00
601.75	360.44
601.91	484.49
602.06	414.27
602.22	430.66
602.37	435.34
602.53	381.51
602.69	355.76
602.84	348.74
603.00	404.91
603.16	463.43
603.31	397.89
603.47	397.89
603.62	397.89
603.78	353.42
603.94	456.40
604.09	407.25
604.25	456.40
604.40	421.30
604.56	416.62
604.71	386.19
604.87	421.30
605.03	407.25
605.18	468.11
605.34	411.93
605.49	393.21
605.65	390.87
605.80	461.09
605.96	409.59
606.12	418.96
606.27	383.85
606.43	477.47
606.58	404.91
606.74	386.19
606.89	435.34
607.05	425.98
607.20	423.64
607.36	449.38
607.51	372.15
607.67	430.66
607.82	440.02
607.98	475.13
608.13	461.09
608.29	475.13
608.44	442.36
608.60	409.59
608.75	440.02
608.91	458.74
609.06	451.72
609.22	484.49
609.37	414.27
609.53	320.65
609.68	433.00
609.84	423.64
609.99	454.06
610.15	428.32
