SpectraSuite Data File
++++++++++++++++++++++++++++++++++++
Date: Fri Oct 25 12:10:24 EDT 2013
User: price-jones
Dark Spectrum Present: No
Reference Spectrum Present: No
Number of Sampled Component Spectra: 1
Spectrometers: USB2+H05261
Integration Time (usec): 100000 (USB2+H05261)
Spectra Averaged: 1 (USB2+H05261)
Boxcar Smoothing: 0 (USB2+H05261)
Correct for Electrical Dark: No (USB2+H05261)
Strobe/Lamp Enabled: No (USB2+H05261)
Correct for Detector Non-linearity: No (USB2+H05261)
Correct for Stray Light: No (USB2+H05261)
Number of Pixels in Processed Spectrum: 2048
>>>>>Begin Processed Spectral Data<<<<<
365.73	388.53
365.92	388.53
366.12	388.53
366.32	250.44
366.52	215.33
366.72	229.37
366.91	250.44
367.11	264.48
367.31	238.73
367.51	234.05
367.70	292.57
367.90	236.39
368.10	259.80
368.30	250.44
368.49	156.82
368.69	285.55
368.89	332.36
369.09	238.73
369.28	278.52
369.48	222.35
369.68	325.33
369.87	351.08
370.07	273.84
370.27	308.95
370.47	301.93
370.66	325.33
370.86	322.99
371.06	418.96
371.25	367.46
371.45	351.08
371.65	404.91
371.84	318.31
372.04	358.10
372.24	404.91
372.44	400.23
372.63	393.21
372.83	416.62
373.03	334.70
373.22	397.89
373.42	463.43
373.62	395.55
373.81	435.34
374.01	393.21
374.21	388.53
374.40	411.93
374.60	437.68
374.79	437.68
374.99	395.55
375.19	430.66
375.38	423.64
375.58	423.64
375.78	505.56
375.97	470.45
376.17	449.38
376.37	395.55
376.56	428.32
376.76	510.24
376.95	395.55
377.15	440.02
377.35	409.59
377.54	444.70
377.74	435.34
377.93	341.72
378.13	418.96
378.33	348.74
378.52	353.42
378.72	458.74
378.91	330.02
379.11	372.15
379.31	344.06
379.50	367.46
379.70	386.19
379.89	381.51
380.09	379.17
380.28	381.51
380.48	379.17
380.68	360.44
380.87	418.96
381.07	404.91
381.26	461.09
381.46	395.55
381.65	465.77
381.85	407.25
382.04	372.15
382.24	425.98
382.43	423.64
382.63	421.30
382.83	390.87
383.02	430.66
383.22	395.55
383.41	362.78
383.61	451.72
383.80	360.44
384.00	451.72
384.19	360.44
384.39	402.57
384.58	416.62
384.78	407.25
384.97	435.34
385.17	404.91
385.36	341.72
385.56	386.19
385.75	372.15
385.95	402.57
386.14	444.70
386.34	421.30
386.53	374.49
386.72	376.83
386.92	397.89
387.11	423.64
387.31	433.00
387.50	388.53
387.70	402.57
387.89	416.62
388.09	402.57
388.28	374.49
388.48	376.83
388.67	397.89
388.86	414.27
389.06	355.76
389.25	411.93
389.45	339.38
389.64	421.30
389.84	362.78
390.03	386.19
390.22	395.55
390.42	376.83
390.61	418.96
390.81	416.62
391.00	430.66
391.19	430.66
391.39	393.21
391.58	386.19
391.78	362.78
391.97	465.77
392.16	376.83
392.36	461.09
392.55	451.72
392.75	425.98
392.94	486.83
393.13	477.47
393.33	365.12
393.52	418.96
393.71	411.93
393.91	411.93
394.10	400.23
394.29	334.70
394.49	348.74
394.68	442.36
394.88	418.96
395.07	374.49
395.26	416.62
395.46	395.55
395.65	411.93
395.84	400.23
396.04	484.49
396.23	374.49
396.42	355.76
396.62	428.32
396.81	430.66
397.00	451.72
397.19	360.44
397.39	442.36
397.58	442.36
397.77	374.49
397.97	360.44
398.16	397.89
398.35	367.46
398.55	395.55
398.74	304.27
398.93	383.85
399.12	437.68
399.32	341.72
399.51	367.46
399.70	397.89
399.90	402.57
400.09	470.45
400.28	433.00
400.47	484.49
400.67	411.93
400.86	411.93
401.05	421.30
401.24	425.98
401.44	402.57
401.63	421.30
401.82	425.98
402.01	437.68
402.21	341.72
402.40	379.17
402.59	414.27
402.78	388.53
402.97	400.23
403.17	397.89
403.36	423.64
403.55	409.59
403.74	444.70
403.93	372.15
404.13	458.74
404.32	390.87
404.51	362.78
404.70	470.45
404.89	437.68
405.09	435.34
405.28	395.55
405.47	388.53
405.66	425.98
405.85	423.64
406.05	409.59
406.24	444.70
406.43	428.32
406.62	444.70
406.81	444.70
407.00	451.72
407.20	390.87
407.39	407.25
407.58	311.29
407.77	367.46
407.96	484.49
408.15	393.21
408.34	437.68
408.54	402.57
408.73	407.25
408.92	430.66
409.11	423.64
409.30	491.51
409.49	407.25
409.68	360.44
409.87	435.34
410.07	456.40
410.26	447.04
410.45	400.23
410.64	339.38
410.83	388.53
411.02	395.55
411.21	393.21
411.40	461.09
411.59	414.27
411.78	414.27
411.98	358.10
412.17	425.98
412.36	423.64
412.55	386.19
412.74	477.47
412.93	425.98
413.12	423.64
413.31	433.00
413.50	430.66
413.69	440.02
413.88	442.36
414.07	397.89
414.26	451.72
414.45	397.89
414.64	421.30
414.83	393.21
415.02	381.51
415.22	365.12
415.41	423.64
415.60	341.72
415.79	402.57
415.98	379.17
416.17	456.40
416.36	449.38
416.55	369.80
416.74	430.66
416.93	395.55
417.12	395.55
417.31	416.62
417.50	393.21
417.69	397.89
417.88	440.02
418.07	348.74
418.26	402.57
418.45	341.72
418.64	369.80
418.83	365.12
419.02	402.57
419.21	430.66
419.39	421.30
419.58	358.10
419.77	362.78
419.96	397.89
420.15	451.72
420.34	402.57
420.53	379.17
420.72	451.72
420.91	421.30
421.10	479.81
421.29	421.30
421.48	404.91
421.67	470.45
421.86	433.00
422.05	416.62
422.24	451.72
422.43	479.81
422.61	433.00
422.80	402.57
422.99	400.23
423.18	416.62
423.37	449.38
423.56	395.55
423.75	444.70
423.94	395.55
424.13	337.04
424.32	393.21
424.50	353.42
424.69	435.34
424.88	365.12
425.07	407.25
425.26	449.38
425.45	409.59
425.64	449.38
425.83	409.59
426.01	465.77
426.20	458.74
426.39	332.36
426.58	383.85
426.77	407.25
426.96	390.87
427.15	381.51
427.33	404.91
427.52	383.85
427.71	430.66
427.90	386.19
428.09	407.25
428.28	383.85
428.46	353.42
428.65	442.36
428.84	320.65
429.03	447.04
429.22	433.00
429.40	407.25
429.59	372.15
429.78	409.59
429.97	393.21
430.16	414.27
430.34	393.21
430.53	414.27
430.72	430.66
430.91	496.19
431.10	440.02
431.28	437.68
431.47	397.89
431.66	407.25
431.85	334.70
432.03	416.62
432.22	381.51
432.41	468.11
432.60	411.93
432.79	383.85
432.97	425.98
433.16	341.72
433.35	437.68
433.54	404.91
433.72	327.68
433.91	430.66
434.10	351.08
434.28	330.02
434.47	430.66
434.66	461.09
434.85	411.93
435.03	379.17
435.22	425.98
435.41	418.96
435.59	414.27
435.78	402.57
435.97	365.12
436.16	421.30
436.34	393.21
436.53	383.85
436.72	411.93
436.90	428.32
437.09	440.02
437.28	407.25
437.46	369.80
437.65	425.98
437.84	367.46
438.02	353.42
438.21	428.32
438.40	503.22
438.58	407.25
438.77	414.27
438.96	421.30
439.14	381.51
439.33	351.08
439.52	425.98
439.70	442.36
439.89	479.81
440.08	433.00
440.26	442.36
440.45	433.00
440.63	416.62
440.82	376.83
441.01	358.10
441.19	397.89
441.38	447.04
441.57	428.32
441.75	472.79
441.94	451.72
442.12	463.43
442.31	325.33
442.50	437.68
442.68	379.17
442.87	407.25
443.05	409.59
443.24	444.70
443.43	383.85
443.61	423.64
443.80	456.40
443.98	407.25
444.17	376.83
444.35	374.49
444.54	388.53
444.73	379.17
444.91	402.57
445.10	383.85
445.28	404.91
445.47	383.85
445.65	428.32
445.84	383.85
446.02	451.72
446.21	393.21
446.39	386.19
446.58	372.15
446.77	393.21
446.95	402.57
447.14	416.62
447.32	369.80
447.51	421.30
447.69	393.21
447.88	440.02
448.06	428.32
448.25	393.21
448.43	355.76
448.62	470.45
448.80	402.57
448.99	393.21
449.17	390.87
449.36	388.53
449.54	390.87
449.73	421.30
449.91	437.68
450.10	433.00
450.28	418.96
450.46	425.98
450.65	425.98
450.83	465.77
451.02	400.23
451.20	475.13
451.39	425.98
451.57	383.85
451.76	449.38
451.94	397.89
452.13	388.53
452.31	416.62
452.49	479.81
452.68	433.00
452.86	395.55
453.05	327.68
453.23	416.62
453.42	425.98
453.60	458.74
453.78	360.44
453.97	360.44
454.15	425.98
454.34	433.00
454.52	423.64
454.70	409.59
454.89	470.45
455.07	393.21
455.26	404.91
455.44	414.27
455.62	393.21
455.81	409.59
455.99	367.46
456.17	475.13
456.36	465.77
456.54	449.38
456.73	458.74
456.91	491.51
457.09	463.43
457.28	458.74
457.46	381.51
457.64	395.55
457.83	395.55
458.01	407.25
458.19	400.23
458.38	386.19
458.56	444.70
458.74	416.62
458.93	449.38
459.11	463.43
459.29	411.93
459.48	444.70
459.66	400.23
459.84	344.06
460.03	491.51
460.21	386.19
460.39	409.59
460.57	416.62
460.76	407.25
460.94	409.59
461.12	437.68
461.31	486.83
461.49	435.34
461.67	430.66
461.85	395.55
462.04	360.44
462.22	741.95
462.40	449.38
462.59	393.21
462.77	442.36
462.95	421.30
463.13	358.10
463.32	416.62
463.50	402.57
463.68	416.62
463.86	362.78
464.05	440.02
464.23	430.66
464.41	404.91
464.59	372.15
464.78	407.25
464.96	390.87
465.14	430.66
465.32	358.10
465.50	421.30
465.69	400.23
465.87	414.27
466.05	411.93
466.23	468.11
466.41	397.89
466.60	433.00
466.78	435.34
466.96	411.93
467.14	444.70
467.32	496.19
467.51	475.13
467.69	447.04
467.87	458.74
468.05	404.91
468.23	404.91
468.41	379.17
468.60	409.59
468.78	379.17
468.96	461.09
469.14	425.98
469.32	444.70
469.50	383.85
469.69	386.19
469.87	409.59
470.05	358.10
470.23	470.45
470.41	470.45
470.59	344.06
470.77	435.34
470.95	465.77
471.14	421.30
471.32	458.74
471.50	447.04
471.68	402.57
471.86	376.83
472.04	430.66
472.22	440.02
472.40	390.87
472.58	461.09
472.77	372.15
472.95	437.68
473.13	491.51
473.31	397.89
473.49	386.19
473.67	418.96
473.85	428.32
474.03	407.25
474.21	414.27
474.39	440.02
474.57	390.87
474.75	425.98
474.93	437.68
475.12	383.85
475.30	433.00
475.48	482.15
475.66	461.09
475.84	526.62
476.02	449.38
476.20	440.02
476.38	404.91
476.56	475.13
476.74	395.55
476.92	468.11
477.10	437.68
477.28	425.98
477.46	367.46
477.64	437.68
477.82	435.34
478.00	390.87
478.18	388.53
478.36	430.66
478.54	367.46
478.72	440.02
478.90	348.74
479.08	369.80
479.26	421.30
479.44	381.51
479.62	444.70
479.80	388.53
479.98	414.27
480.16	428.32
480.34	479.81
480.52	404.91
480.70	322.99
480.88	421.30
481.06	442.36
481.24	440.02
481.41	409.59
481.59	437.68
481.77	468.11
481.95	425.98
482.13	433.00
482.31	428.32
482.49	390.87
482.67	435.34
482.85	376.83
483.03	477.47
483.21	390.87
483.39	461.09
483.57	416.62
483.74	437.68
483.92	470.45
484.10	416.62
484.28	444.70
484.46	444.70
484.64	346.40
484.82	360.44
485.00	416.62
485.18	449.38
485.35	411.93
485.53	365.12
485.71	440.02
485.89	437.68
486.07	383.85
486.25	360.44
486.43	390.87
486.61	411.93
486.78	409.59
486.96	451.72
487.14	402.57
487.32	435.34
487.50	388.53
487.68	411.93
487.85	388.53
488.03	456.40
488.21	465.77
488.39	414.27
488.57	447.04
488.75	409.59
488.92	594.50
489.10	362.78
489.28	423.64
489.46	404.91
489.64	454.06
489.81	388.53
489.99	390.87
490.17	461.09
490.35	472.79
490.53	369.80
490.70	383.85
490.88	454.06
491.06	407.25
491.24	400.23
491.41	456.40
491.59	442.36
491.77	388.53
491.95	353.42
492.13	409.59
492.30	444.70
492.48	418.96
492.66	404.91
492.84	404.91
493.01	425.98
493.19	383.85
493.37	484.49
493.54	416.62
493.72	418.96
493.90	402.57
494.08	407.25
494.25	372.15
494.43	433.00
494.61	425.98
494.79	367.46
494.96	454.06
495.14	468.11
495.32	463.43
495.49	421.30
495.67	430.66
495.85	409.59
496.02	484.49
496.20	397.89
496.38	451.72
496.55	482.15
496.73	461.09
496.91	388.53
497.09	409.59
497.26	454.06
497.44	425.98
497.62	437.68
497.79	440.02
497.97	444.70
498.14	407.25
498.32	472.79
498.50	383.85
498.67	407.25
498.85	407.25
499.03	409.59
499.20	360.44
499.38	386.19
499.56	411.93
499.73	444.70
499.91	477.47
500.08	369.80
500.26	468.11
500.44	383.85
500.61	404.91
500.79	428.32
500.97	393.21
501.14	376.83
501.32	418.96
501.49	433.00
501.67	479.81
501.84	461.09
502.02	402.57
502.20	428.32
502.37	411.93
502.55	458.74
502.72	428.32
502.90	409.59
503.07	414.27
503.25	454.06
503.43	360.44
503.60	397.89
503.78	440.02
503.95	372.15
504.13	425.98
504.30	425.98
504.48	456.40
504.65	369.80
504.83	482.15
505.01	393.21
505.18	428.32
505.36	440.02
505.53	447.04
505.71	416.62
505.88	437.68
506.06	351.08
506.23	367.46
506.41	409.59
506.58	411.93
506.76	458.74
506.93	430.66
507.11	444.70
507.28	397.89
507.46	388.53
507.63	365.12
507.81	414.27
507.98	428.32
508.16	440.02
508.33	411.93
508.50	400.23
508.68	470.45
508.85	407.25
509.03	374.49
509.20	397.89
509.38	395.55
509.55	444.70
509.73	339.38
509.90	440.02
510.08	416.62
510.25	477.47
510.42	355.76
510.60	458.74
510.77	423.64
510.95	397.89
511.12	493.85
511.30	465.77
511.47	395.55
511.64	433.00
511.82	454.06
511.99	339.38
512.17	402.57
512.34	477.47
512.51	461.09
512.69	463.43
512.86	468.11
513.04	400.23
513.21	421.30
513.38	416.62
513.56	409.59
513.73	418.96
513.90	369.80
514.08	374.49
514.25	475.13
514.43	496.19
514.60	418.96
514.77	465.77
514.95	414.27
515.12	355.76
515.29	456.40
515.47	456.40
515.64	388.53
515.81	395.55
515.99	409.59
516.16	472.79
516.33	425.98
516.51	442.36
516.68	444.70
516.85	440.02
517.03	475.13
517.20	451.72
517.37	430.66
517.54	402.57
517.72	425.98
517.89	386.19
518.06	423.64
518.24	397.89
518.41	409.59
518.58	433.00
518.75	397.89
518.93	423.64
519.10	407.25
519.27	437.68
519.45	383.85
519.62	353.42
519.79	428.32
519.96	407.25
520.14	442.36
520.31	346.40
520.48	388.53
520.65	369.80
520.83	433.00
521.00	491.51
521.17	402.57
521.34	425.98
521.52	449.38
521.69	404.91
521.86	388.53
522.03	409.59
522.20	435.34
522.38	374.49
522.55	423.64
522.72	451.72
522.89	402.57
523.07	442.36
523.24	433.00
523.41	428.32
523.58	397.89
523.75	444.70
523.92	393.21
524.10	444.70
524.27	301.93
524.44	400.23
524.61	477.47
524.78	400.23
524.96	390.87
525.13	433.00
525.30	484.49
525.47	461.09
525.64	503.22
525.81	414.27
525.98	414.27
526.16	500.87
526.33	418.96
526.50	430.66
526.67	372.15
526.84	451.72
527.01	411.93
527.18	409.59
527.36	425.98
527.53	400.23
527.70	463.43
527.87	395.55
528.04	433.00
528.21	425.98
528.38	311.29
528.55	472.79
528.72	418.96
528.89	468.11
529.07	416.62
529.24	346.40
529.41	440.02
529.58	447.04
529.75	400.23
529.92	428.32
530.09	386.19
530.26	402.57
530.43	421.30
530.60	339.38
530.77	397.89
530.94	322.99
531.11	440.02
531.28	433.00
531.46	477.47
531.63	390.87
531.80	383.85
531.97	449.38
532.14	386.19
532.31	421.30
532.48	491.51
532.65	372.15
532.82	418.96
532.99	414.27
533.16	435.34
533.33	440.02
533.50	475.13
533.67	409.59
533.84	416.62
534.01	369.80
534.18	433.00
534.35	430.66
534.52	379.17
534.69	393.21
534.86	461.09
535.03	367.46
535.20	468.11
535.37	409.59
535.54	390.87
535.71	381.51
535.88	423.64
536.05	400.23
536.22	395.55
536.38	414.27
536.55	463.43
536.72	433.00
536.89	374.49
537.06	423.64
537.23	365.12
537.40	339.38
537.57	458.74
537.74	388.53
537.91	486.83
538.08	414.27
538.25	433.00
538.42	425.98
538.59	348.74
538.75	437.68
538.92	393.21
539.09	512.58
539.26	339.38
539.43	407.25
539.60	381.51
539.77	367.46
539.94	379.17
540.11	397.89
540.28	381.51
540.44	507.90
540.61	428.32
540.78	395.55
540.95	367.46
541.12	500.87
541.29	411.93
541.46	374.49
541.62	440.02
541.79	409.59
541.96	409.59
542.13	418.96
542.30	458.74
542.47	465.77
542.63	355.76
542.80	379.17
542.97	475.13
543.14	418.96
543.31	470.45
543.48	402.57
543.64	461.09
543.81	475.13
543.98	411.93
544.15	470.45
544.32	411.93
544.48	458.74
544.65	393.21
544.82	402.57
544.99	411.93
545.16	407.25
545.32	367.46
545.49	388.53
545.66	428.32
545.83	503.22
546.00	440.02
546.16	437.68
546.33	433.00
546.50	514.92
546.67	397.89
546.83	479.81
547.00	369.80
547.17	383.85
547.34	418.96
547.50	404.91
547.67	425.98
547.84	421.30
548.00	517.26
548.17	404.91
548.34	489.17
548.51	421.30
548.67	407.25
548.84	402.57
549.01	449.38
549.18	425.98
549.34	425.98
549.51	414.27
549.68	463.43
549.84	470.45
550.01	416.62
550.18	470.45
550.34	449.38
550.51	451.72
550.68	425.98
550.84	404.91
551.01	393.21
551.18	423.64
551.34	395.55
551.51	468.11
551.68	402.57
551.84	433.00
552.01	428.32
552.18	390.87
552.34	421.30
552.51	381.51
552.68	449.38
552.84	433.00
553.01	454.06
553.18	414.27
553.34	510.24
553.51	365.12
553.67	430.66
553.84	442.36
554.01	472.79
554.17	451.72
554.34	423.64
554.51	388.53
554.67	425.98
554.84	433.00
555.00	381.51
555.17	418.96
555.33	472.79
555.50	437.68
555.67	428.32
555.83	341.72
556.00	440.02
556.16	531.30
556.33	423.64
556.50	376.83
556.66	407.25
556.83	353.42
556.99	440.02
557.16	383.85
557.32	449.38
557.49	428.32
557.65	451.72
557.82	451.72
557.98	428.32
558.15	428.32
558.32	402.57
558.48	360.44
558.65	386.19
558.81	388.53
558.98	346.40
559.14	437.68
559.31	400.23
559.47	447.04
559.64	367.46
559.80	397.89
559.97	444.70
560.13	351.08
560.30	367.46
560.46	489.17
560.63	421.30
560.79	479.81
560.96	390.87
561.12	461.09
561.29	301.93
561.45	367.46
561.61	411.93
561.78	510.24
561.94	388.53
562.11	402.57
562.27	395.55
562.44	425.98
562.60	440.02
562.77	383.85
562.93	444.70
563.10	418.96
563.26	463.43
563.42	423.64
563.59	425.98
563.75	379.17
563.92	458.74
564.08	437.68
564.24	416.62
564.41	435.34
564.57	386.19
564.74	397.89
564.90	411.93
565.07	461.09
565.23	393.21
565.39	393.21
565.56	444.70
565.72	444.70
565.88	461.09
566.05	397.89
566.21	463.43
566.38	416.62
566.54	458.74
566.70	451.72
566.87	334.70
567.03	383.85
567.19	395.55
567.36	372.15
567.52	435.34
567.68	369.80
567.85	402.57
568.01	430.66
568.17	461.09
568.34	360.44
568.50	423.64
568.66	500.87
568.83	447.04
568.99	423.64
569.15	344.06
569.32	435.34
569.48	428.32
569.64	470.45
569.81	411.93
569.97	447.04
570.13	451.72
570.30	414.27
570.46	411.93
570.62	411.93
570.78	428.32
570.95	465.77
571.11	428.32
571.27	463.43
571.43	376.83
571.60	421.30
571.76	454.06
571.92	400.23
572.09	458.74
572.25	411.93
572.41	409.59
572.57	470.45
572.74	465.77
572.90	514.92
573.06	395.55
573.22	484.49
573.38	433.00
573.55	416.62
573.71	388.53
573.87	477.47
574.03	435.34
574.20	421.30
574.36	468.11
574.52	360.44
574.68	416.62
574.84	456.40
575.01	362.78
575.17	402.57
575.33	400.23
575.49	449.38
575.65	425.98
575.82	404.91
575.98	376.83
576.14	397.89
576.30	395.55
576.46	456.40
576.62	447.04
576.79	400.23
576.95	423.64
577.11	379.17
577.27	404.91
577.43	458.74
577.59	472.79
577.75	395.55
577.92	491.51
578.08	447.04
578.24	423.64
578.40	421.30
578.56	395.55
578.72	383.85
578.88	435.34
579.04	416.62
579.21	407.25
579.37	428.32
579.53	442.36
579.69	416.62
579.85	440.02
580.01	386.19
580.17	437.68
580.33	402.57
580.49	486.83
580.65	433.00
580.82	407.25
580.98	423.64
581.14	414.27
581.30	381.51
581.46	379.17
581.62	402.57
581.78	414.27
581.94	416.62
582.10	346.40
582.26	409.59
582.42	510.24
582.58	402.57
582.74	400.23
582.90	433.00
583.06	388.53
583.22	435.34
583.38	402.57
583.54	407.25
583.70	409.59
583.86	440.02
584.02	425.98
584.18	428.32
584.34	381.51
584.50	456.40
584.66	496.19
584.82	367.46
584.98	409.59
585.14	475.13
585.30	440.02
585.46	456.40
585.62	393.21
585.78	351.08
585.94	449.38
586.10	430.66
586.26	463.43
586.42	435.34
586.58	440.02
586.74	449.38
586.90	425.98
587.06	442.36
587.22	383.85
587.38	362.78
587.54	395.55
587.70	383.85
587.86	411.93
588.02	376.83
588.18	393.21
588.34	433.00
588.49	404.91
588.65	435.34
588.81	402.57
588.97	393.21
589.13	353.42
589.29	388.53
589.45	402.57
589.61	402.57
589.77	440.02
589.93	421.30
590.08	463.43
590.24	433.00
590.40	351.08
590.56	421.30
590.72	428.32
590.88	376.83
591.04	402.57
591.20	416.62
591.35	465.77
591.51	400.23
591.67	365.12
591.83	362.78
591.99	414.27
592.15	451.72
592.31	425.98
592.46	458.74
592.62	414.27
592.78	418.96
592.94	395.55
593.10	390.87
593.26	383.85
593.41	528.96
593.57	383.85
593.73	386.19
593.89	414.27
594.05	418.96
594.20	475.13
594.36	433.00
594.52	362.78
594.68	444.70
594.84	402.57
594.99	489.17
595.15	472.79
595.31	468.11
595.47	435.34
595.62	456.40
595.78	383.85
595.94	390.87
596.10	409.59
596.25	433.00
596.41	437.68
596.57	440.02
596.73	437.68
596.88	416.62
597.04	402.57
597.20	428.32
597.36	479.81
597.51	423.64
597.67	360.44
597.83	479.81
597.99	379.17
598.14	447.04
598.30	416.62
598.46	376.83
598.61	425.98
598.77	435.34
598.93	339.38
599.09	461.09
599.24	468.11
599.40	332.36
599.56	407.25
599.71	416.62
599.87	423.64
600.03	397.89
600.18	388.53
600.34	386.19
600.50	423.64
600.65	456.40
600.81	540.66
600.97	482.15
601.12	379.17
601.28	418.96
601.44	404.91
601.59	362.78
601.75	416.62
601.91	454.06
602.06	428.32
602.22	437.68
602.37	500.87
602.53	381.51
602.69	411.93
602.84	484.49
603.00	470.45
603.16	465.77
603.31	411.93
603.47	442.36
603.62	358.10
603.78	414.27
603.94	386.19
604.09	461.09
604.25	411.93
604.40	388.53
604.56	409.59
604.71	454.06
604.87	423.64
605.03	465.77
605.18	411.93
605.34	376.83
605.49	444.70
605.65	470.45
605.80	404.91
605.96	451.72
606.12	456.40
606.27	437.68
606.43	400.23
606.58	428.32
606.74	454.06
606.89	447.04
607.05	447.04
607.20	440.02
607.36	451.72
607.51	444.70
607.67	440.02
607.82	369.80
607.98	437.68
608.13	442.36
608.29	435.34
608.44	442.36
608.60	435.34
608.75	353.42
608.91	433.00
609.06	381.51
609.22	461.09
609.37	414.27
609.53	330.02
609.68	337.04
609.84	428.32
609.99	367.46
610.15	447.04
