SpectraSuite Data File
++++++++++++++++++++++++++++++++++++
Date: Fri Oct 25 12:11:39 EDT 2013
User: price-jones
Dark Spectrum Present: No
Reference Spectrum Present: No
Number of Sampled Component Spectra: 1
Spectrometers: USB2+H05261
Integration Time (usec): 100000 (USB2+H05261)
Spectra Averaged: 1 (USB2+H05261)
Boxcar Smoothing: 0 (USB2+H05261)
Correct for Electrical Dark: No (USB2+H05261)
Strobe/Lamp Enabled: No (USB2+H05261)
Correct for Detector Non-linearity: No (USB2+H05261)
Correct for Stray Light: No (USB2+H05261)
Number of Pixels in Processed Spectrum: 2048
>>>>>Begin Processed Spectral Data<<<<<
365.73	372.15
365.92	372.15
366.12	372.15
366.32	276.18
366.52	241.08
366.72	287.89
366.91	208.31
367.11	290.23
367.31	175.54
367.51	278.52
367.70	285.55
367.90	273.84
368.10	180.22
368.30	287.89
368.49	250.44
368.69	287.89
368.89	205.97
369.09	238.73
369.28	322.99
369.48	210.65
369.68	243.42
369.87	351.08
370.07	304.27
370.27	341.72
370.47	301.93
370.66	341.72
370.86	337.04
371.06	353.42
371.25	418.96
371.45	395.55
371.65	374.49
371.84	395.55
372.04	400.23
372.24	395.55
372.44	393.21
372.63	447.04
372.83	397.89
373.03	369.80
373.22	390.87
373.42	411.93
373.62	449.38
373.81	447.04
374.01	421.30
374.21	475.13
374.40	449.38
374.60	421.30
374.79	416.62
374.99	423.64
375.19	449.38
375.38	477.47
375.58	416.62
375.78	433.00
375.97	402.57
376.17	402.57
376.37	444.70
376.56	372.15
376.76	393.21
376.95	425.98
377.15	383.85
377.35	414.27
377.54	379.17
377.74	442.36
377.93	409.59
378.13	526.62
378.33	447.04
378.52	355.76
378.72	470.45
378.91	433.00
379.11	433.00
379.31	395.55
379.50	390.87
379.70	444.70
379.89	451.72
380.09	376.83
380.28	355.76
380.48	313.63
380.68	397.89
380.87	383.85
381.07	449.38
381.26	451.72
381.46	334.70
381.65	353.42
381.85	388.53
382.04	362.78
382.24	454.06
382.43	425.98
382.63	360.44
382.83	402.57
383.02	425.98
383.22	454.06
383.41	390.87
383.61	395.55
383.80	383.85
384.00	376.83
384.19	402.57
384.39	407.25
384.58	397.89
384.78	472.79
384.97	390.87
385.17	355.76
385.36	339.38
385.56	395.55
385.75	358.10
385.95	477.47
386.14	346.40
386.34	379.17
386.53	421.30
386.72	433.00
386.92	423.64
387.11	386.19
387.31	400.23
387.50	379.17
387.70	353.42
387.89	407.25
388.09	425.98
388.28	433.00
388.48	407.25
388.67	440.02
388.86	449.38
389.06	376.83
389.25	386.19
389.45	449.38
389.64	397.89
389.84	503.22
390.03	463.43
390.22	386.19
390.42	430.66
390.61	388.53
390.81	442.36
391.00	379.17
391.19	463.43
391.39	395.55
391.58	367.46
391.78	386.19
391.97	374.49
392.16	407.25
392.36	454.06
392.55	416.62
392.75	414.27
392.94	355.76
393.13	393.21
393.33	362.78
393.52	360.44
393.71	367.46
393.91	304.27
394.10	341.72
394.29	423.64
394.49	421.30
394.68	465.77
394.88	461.09
395.07	468.11
395.26	388.53
395.46	348.74
395.65	512.58
395.84	444.70
396.04	491.51
396.23	365.12
396.42	365.12
396.62	360.44
396.81	381.51
397.00	386.19
397.19	423.64
397.39	393.21
397.58	400.23
397.77	365.12
397.97	369.80
398.16	362.78
398.35	407.25
398.55	376.83
398.74	425.98
398.93	388.53
399.12	395.55
399.32	428.32
399.51	407.25
399.70	482.15
399.90	425.98
400.09	414.27
400.28	400.23
400.47	379.17
400.67	428.32
400.86	400.23
401.05	416.62
401.24	388.53
401.44	390.87
401.63	507.90
401.82	454.06
402.01	423.64
402.21	423.64
402.40	423.64
402.59	397.89
402.78	409.59
402.97	458.74
403.17	400.23
403.36	393.21
403.55	360.44
403.74	367.46
403.93	444.70
404.13	423.64
404.32	388.53
404.51	416.62
404.70	423.64
404.89	433.00
405.09	498.53
405.28	425.98
405.47	402.57
405.66	397.89
405.85	507.90
406.05	444.70
406.24	454.06
406.43	358.10
406.62	395.55
406.81	433.00
407.00	402.57
407.20	407.25
407.39	407.25
407.58	330.02
407.77	383.85
407.96	472.79
408.15	416.62
408.34	451.72
408.54	428.32
408.73	425.98
408.92	449.38
409.11	409.59
409.30	433.00
409.49	425.98
409.68	421.30
409.87	414.27
410.07	449.38
410.26	407.25
410.45	465.77
410.64	353.42
410.83	463.43
411.02	477.47
411.21	369.80
411.40	437.68
411.59	383.85
411.78	440.02
411.98	418.96
412.17	440.02
412.36	430.66
412.55	400.23
412.74	425.98
412.93	447.04
413.12	353.42
413.31	402.57
413.50	463.43
413.69	418.96
413.88	397.89
414.07	367.46
414.26	367.46
414.45	381.51
414.64	440.02
414.83	416.62
415.02	444.70
415.22	374.49
415.41	505.56
415.60	341.72
415.79	454.06
415.98	397.89
416.17	416.62
416.36	402.57
416.55	390.87
416.74	414.27
416.93	433.00
417.12	362.78
417.31	430.66
417.50	388.53
417.69	442.36
417.88	348.74
418.07	430.66
418.26	425.98
418.45	414.27
418.64	468.11
418.83	334.70
419.02	454.06
419.21	409.59
419.39	421.30
419.58	444.70
419.77	418.96
419.96	393.21
420.15	498.53
420.34	360.44
420.53	425.98
420.72	433.00
420.91	447.04
421.10	397.89
421.29	397.89
421.48	425.98
421.67	407.25
421.86	393.21
422.05	379.17
422.24	442.36
422.43	402.57
422.61	395.55
422.80	383.85
422.99	397.89
423.18	393.21
423.37	397.89
423.56	388.53
423.75	414.27
423.94	351.08
424.13	496.19
424.32	365.12
424.50	463.43
424.69	458.74
424.88	379.17
425.07	397.89
425.26	449.38
425.45	407.25
425.64	402.57
425.83	393.21
426.01	411.93
426.20	444.70
426.39	383.85
426.58	409.59
426.77	376.83
426.96	451.72
427.15	395.55
427.33	374.49
427.52	454.06
427.71	465.77
427.90	440.02
428.09	421.30
428.28	379.17
428.46	444.70
428.65	381.51
428.84	477.47
429.03	444.70
429.22	468.11
429.40	451.72
429.59	351.08
429.78	491.51
429.97	404.91
430.16	442.36
430.34	362.78
430.53	400.23
430.72	428.32
430.91	437.68
431.10	383.85
431.28	414.27
431.47	486.83
431.66	475.13
431.85	365.12
432.03	472.79
432.22	425.98
432.41	390.87
432.60	470.45
432.79	433.00
432.97	479.81
433.16	454.06
433.35	372.15
433.54	425.98
433.72	498.53
433.91	447.04
434.10	423.64
434.28	430.66
434.47	430.66
434.66	454.06
434.85	404.91
435.03	351.08
435.22	402.57
435.41	484.49
435.59	468.11
435.78	442.36
435.97	428.32
436.16	423.64
436.34	440.02
436.53	444.70
436.72	425.98
436.90	400.23
437.09	388.53
437.28	418.96
437.46	411.93
437.65	402.57
437.84	477.47
438.02	430.66
438.21	390.87
438.40	367.46
438.58	393.21
438.77	372.15
438.96	440.02
439.14	409.59
439.33	411.93
439.52	379.17
439.70	414.27
439.89	362.78
440.08	447.04
440.26	437.68
440.45	484.49
440.63	484.49
440.82	435.34
441.01	402.57
441.19	447.04
441.38	458.74
441.57	433.00
441.75	486.83
441.94	433.00
442.12	433.00
442.31	372.15
442.50	402.57
442.68	414.27
442.87	458.74
443.05	463.43
443.24	414.27
443.43	475.13
443.61	477.47
443.80	418.96
443.98	409.59
444.17	465.77
444.35	355.76
444.54	416.62
444.73	400.23
444.91	379.17
445.10	414.27
445.28	395.55
445.47	475.13
445.65	433.00
445.84	397.89
446.02	308.95
446.21	376.83
446.39	409.59
446.58	416.62
446.77	416.62
446.95	400.23
447.14	430.66
447.32	386.19
447.51	381.51
447.69	390.87
447.88	376.83
448.06	372.15
448.25	383.85
448.43	393.21
448.62	374.49
448.80	358.10
448.99	423.64
449.17	458.74
449.36	475.13
449.54	444.70
449.73	468.11
449.91	437.68
450.10	372.15
450.28	395.55
450.46	423.64
450.65	416.62
450.83	458.74
451.02	433.00
451.20	414.27
451.39	367.46
451.57	451.72
451.76	444.70
451.94	421.30
452.13	374.49
452.31	447.04
452.49	449.38
452.68	425.98
452.86	411.93
453.05	447.04
453.23	423.64
453.42	461.09
453.60	433.00
453.78	451.72
453.97	444.70
454.15	442.36
454.34	393.21
454.52	416.62
454.70	458.74
454.89	454.06
455.07	425.98
455.26	451.72
455.44	444.70
455.62	414.27
455.81	348.74
455.99	423.64
456.17	367.46
456.36	442.36
456.54	369.80
456.73	430.66
456.91	517.26
457.09	423.64
457.28	423.64
457.46	425.98
457.64	383.85
457.83	503.22
458.01	358.10
458.19	332.36
458.38	423.64
458.56	376.83
458.74	397.89
458.93	465.77
459.11	351.08
459.29	360.44
459.48	369.80
459.66	458.74
459.84	437.68
460.03	498.53
460.21	461.09
460.39	430.66
460.57	397.89
460.76	454.06
460.94	411.93
461.12	451.72
461.31	454.06
461.49	418.96
461.67	355.76
461.85	454.06
462.04	409.59
462.22	662.37
462.40	425.98
462.59	402.57
462.77	433.00
462.95	440.02
463.13	386.19
463.32	425.98
463.50	433.00
463.68	437.68
463.86	440.02
464.05	330.02
464.23	454.06
464.41	437.68
464.59	379.17
464.78	383.85
464.96	383.85
465.14	411.93
465.32	447.04
465.50	367.46
465.69	458.74
465.87	400.23
466.05	435.34
466.23	421.30
466.41	374.49
466.60	411.93
466.78	458.74
466.96	374.49
467.14	407.25
467.32	456.40
467.51	425.98
467.69	379.17
467.87	425.98
468.05	425.98
468.23	435.34
468.41	404.91
468.60	388.53
468.78	416.62
468.96	430.66
469.14	395.55
469.32	397.89
469.50	414.27
469.69	404.91
469.87	423.64
470.05	514.92
470.23	430.66
470.41	444.70
470.59	402.57
470.77	386.19
470.95	344.06
471.14	414.27
471.32	454.06
471.50	365.12
471.68	402.57
471.86	379.17
472.04	409.59
472.22	351.08
472.40	461.09
472.58	454.06
472.77	430.66
472.95	322.99
473.13	461.09
473.31	454.06
473.49	416.62
473.67	414.27
473.85	395.55
474.03	362.78
474.21	421.30
474.39	451.72
474.57	479.81
474.75	374.49
474.93	421.30
475.12	404.91
475.30	383.85
475.48	451.72
475.66	444.70
475.84	383.85
476.02	461.09
476.20	447.04
476.38	461.09
476.56	482.15
476.74	411.93
476.92	346.40
477.10	390.87
477.28	433.00
477.46	414.27
477.64	360.44
477.82	372.15
478.00	372.15
478.18	407.25
478.36	458.74
478.54	404.91
478.72	409.59
478.90	430.66
479.08	416.62
479.26	367.46
479.44	437.68
479.62	395.55
479.80	355.76
479.98	418.96
480.16	395.55
480.34	425.98
480.52	395.55
480.70	393.21
480.88	402.57
481.06	358.10
481.24	404.91
481.41	393.21
481.59	416.62
481.77	393.21
481.95	402.57
482.13	397.89
482.31	395.55
482.49	362.78
482.67	472.79
482.85	482.15
483.03	416.62
483.21	414.27
483.39	461.09
483.57	355.76
483.74	472.79
483.92	421.30
484.10	437.68
484.28	400.23
484.46	442.36
484.64	383.85
484.82	409.59
485.00	367.46
485.18	379.17
485.35	407.25
485.53	395.55
485.71	430.66
485.89	418.96
486.07	397.89
486.25	465.77
486.43	393.21
486.61	390.87
486.78	372.15
486.96	369.80
487.14	414.27
487.32	320.65
487.50	355.76
487.68	449.38
487.85	433.00
488.03	458.74
488.21	423.64
488.39	437.68
488.57	449.38
488.75	409.59
488.92	512.58
489.10	430.66
489.28	425.98
489.46	454.06
489.64	437.68
489.81	351.08
489.99	379.17
490.17	435.34
490.35	475.13
490.53	433.00
490.70	430.66
490.88	383.85
491.06	416.62
491.24	430.66
491.41	435.34
491.59	372.15
491.77	341.72
491.95	365.12
492.13	449.38
492.30	442.36
492.48	416.62
492.66	428.32
492.84	374.49
493.01	416.62
493.19	381.51
493.37	440.02
493.54	472.79
493.72	374.49
493.90	362.78
494.08	470.45
494.25	440.02
494.43	407.25
494.61	458.74
494.79	372.15
494.96	437.68
495.14	414.27
495.32	477.47
495.49	479.81
495.67	484.49
495.85	414.27
496.02	360.44
496.20	458.74
496.38	435.34
496.55	369.80
496.73	365.12
496.91	348.74
497.09	496.19
497.26	423.64
497.44	409.59
497.62	397.89
497.79	437.68
497.97	404.91
498.14	486.83
498.32	444.70
498.50	435.34
498.67	404.91
498.85	428.32
499.03	421.30
499.20	355.76
499.38	365.12
499.56	402.57
499.73	383.85
499.91	442.36
500.08	458.74
500.26	365.12
500.44	428.32
500.61	376.83
500.79	360.44
500.97	425.98
501.14	388.53
501.32	339.38
501.49	461.09
501.67	423.64
501.84	409.59
502.02	402.57
502.20	440.02
502.37	421.30
502.55	404.91
502.72	447.04
502.90	433.00
503.07	416.62
503.25	339.38
503.43	433.00
503.60	397.89
503.78	372.15
503.95	372.15
504.13	428.32
504.30	374.49
504.48	416.62
504.65	498.53
504.83	454.06
505.01	437.68
505.18	423.64
505.36	362.78
505.53	400.23
505.71	411.93
505.88	435.34
506.06	393.21
506.23	418.96
506.41	454.06
506.58	386.19
506.76	374.49
506.93	433.00
507.11	447.04
507.28	454.06
507.46	395.55
507.63	475.13
507.81	416.62
507.98	458.74
508.16	463.43
508.33	374.49
508.50	458.74
508.68	454.06
508.85	482.15
509.03	418.96
509.20	428.32
509.38	456.40
509.55	423.64
509.73	390.87
509.90	477.47
510.08	433.00
510.25	425.98
510.42	449.38
510.60	393.21
510.77	423.64
510.95	351.08
511.12	383.85
511.30	395.55
511.47	409.59
511.64	489.17
511.82	425.98
511.99	362.78
512.17	430.66
512.34	374.49
512.51	362.78
512.69	402.57
512.86	449.38
513.04	465.77
513.21	393.21
513.38	372.15
513.56	381.51
513.73	407.25
513.90	456.40
514.08	355.76
514.25	461.09
514.43	355.76
514.60	393.21
514.77	367.46
514.95	430.66
515.12	423.64
515.29	421.30
515.47	442.36
515.64	400.23
515.81	395.55
515.99	458.74
516.16	407.25
516.33	395.55
516.51	484.49
516.68	451.72
516.85	386.19
517.03	409.59
517.20	402.57
517.37	477.47
517.54	449.38
517.72	395.55
517.89	421.30
518.06	360.44
518.24	423.64
518.41	444.70
518.58	397.89
518.75	372.15
518.93	411.93
519.10	409.59
519.27	411.93
519.45	409.59
519.62	386.19
519.79	421.30
519.96	355.76
520.14	433.00
520.31	423.64
520.48	409.59
520.65	440.02
520.83	402.57
521.00	498.53
521.17	435.34
521.34	390.87
521.52	339.38
521.69	421.30
521.86	402.57
522.03	486.83
522.20	365.12
522.38	322.99
522.55	397.89
522.72	390.87
522.89	437.68
523.07	472.79
523.24	475.13
523.41	416.62
523.58	355.76
523.75	442.36
523.92	393.21
524.10	308.95
524.27	444.70
524.44	416.62
524.61	372.15
524.78	444.70
524.96	463.43
525.13	435.34
525.30	482.15
525.47	482.15
525.64	463.43
525.81	374.49
525.98	327.68
526.16	374.49
526.33	397.89
526.50	365.12
526.67	440.02
526.84	430.66
527.01	435.34
527.18	428.32
527.36	447.04
527.53	402.57
527.70	437.68
527.87	435.34
528.04	475.13
528.21	451.72
528.38	423.64
528.55	454.06
528.72	428.32
528.89	437.68
529.07	433.00
529.24	376.83
529.41	444.70
529.58	465.77
529.75	505.56
529.92	414.27
530.09	416.62
530.26	414.27
530.43	381.51
530.60	423.64
530.77	458.74
530.94	440.02
531.11	407.25
531.28	421.30
531.46	376.83
531.63	393.21
531.80	372.15
531.97	444.70
532.14	421.30
532.31	468.11
532.48	454.06
532.65	386.19
532.82	379.17
532.99	411.93
533.16	344.06
533.33	386.19
533.50	409.59
533.67	397.89
533.84	475.13
534.01	402.57
534.18	423.64
534.35	402.57
534.52	388.53
534.69	433.00
534.86	418.96
535.03	418.96
535.20	407.25
535.37	428.32
535.54	407.25
535.71	346.40
535.88	411.93
536.05	365.12
536.22	348.74
536.38	388.53
536.55	348.74
536.72	477.47
536.89	470.45
537.06	430.66
537.23	383.85
537.40	428.32
537.57	404.91
537.74	435.34
537.91	456.40
538.08	444.70
538.25	376.83
538.42	306.61
538.59	407.25
538.75	428.32
538.92	421.30
539.09	458.74
539.26	421.30
539.43	393.21
539.60	458.74
539.77	393.21
539.94	414.27
540.11	486.83
540.28	454.06
540.44	416.62
540.61	444.70
540.78	388.53
540.95	402.57
541.12	407.25
541.29	400.23
541.46	423.64
541.62	409.59
541.79	337.04
541.96	433.00
542.13	463.43
542.30	428.32
542.47	388.53
542.63	451.72
542.80	404.91
542.97	482.15
543.14	393.21
543.31	435.34
543.48	409.59
543.64	416.62
543.81	395.55
543.98	393.21
544.15	325.33
544.32	402.57
544.48	463.43
544.65	411.93
544.82	414.27
544.99	428.32
545.16	435.34
545.32	386.19
545.49	334.70
545.66	425.98
545.83	393.21
546.00	479.81
546.16	402.57
546.33	358.10
546.50	444.70
546.67	418.96
546.83	395.55
547.00	351.08
547.17	393.21
547.34	383.85
547.50	372.15
547.67	400.23
547.84	440.02
548.00	372.15
548.17	404.91
548.34	430.66
548.51	465.77
548.67	482.15
548.84	400.23
549.01	369.80
549.18	456.40
549.34	454.06
549.51	428.32
549.68	449.38
549.84	407.25
550.01	353.42
550.18	442.36
550.34	437.68
550.51	425.98
550.68	425.98
550.84	372.15
551.01	463.43
551.18	475.13
551.34	428.32
551.51	388.53
551.68	416.62
551.84	421.30
552.01	355.76
552.18	449.38
552.34	440.02
552.51	458.74
552.68	428.32
552.84	388.53
553.01	388.53
553.18	367.46
553.34	491.51
553.51	388.53
553.67	428.32
553.84	489.17
554.01	416.62
554.17	444.70
554.34	407.25
554.51	500.87
554.67	400.23
554.84	468.11
555.00	456.40
555.17	409.59
555.33	404.91
555.50	414.27
555.67	430.66
555.83	435.34
556.00	372.15
556.16	498.53
556.33	461.09
556.50	369.80
556.66	376.83
556.83	475.13
556.99	477.47
557.16	383.85
557.32	421.30
557.49	437.68
557.65	442.36
557.82	383.85
557.98	440.02
558.15	409.59
558.32	379.17
558.48	362.78
558.65	435.34
558.81	423.64
558.98	465.77
559.14	456.40
559.31	409.59
559.47	416.62
559.64	346.40
559.80	386.19
559.97	322.99
560.13	393.21
560.30	388.53
560.46	440.02
560.63	388.53
560.79	468.11
560.96	435.34
561.12	388.53
561.29	407.25
561.45	440.02
561.61	369.80
561.78	472.79
561.94	348.74
562.11	418.96
562.27	400.23
562.44	425.98
562.60	344.06
562.77	395.55
562.93	461.09
563.10	367.46
563.26	428.32
563.42	421.30
563.59	454.06
563.75	409.59
563.92	428.32
564.08	433.00
564.24	425.98
564.41	423.64
564.57	402.57
564.74	358.10
564.90	468.11
565.07	423.64
565.23	379.17
565.39	334.70
565.56	421.30
565.72	348.74
565.88	418.96
566.05	369.80
566.21	369.80
566.38	360.44
566.54	388.53
566.70	395.55
566.87	395.55
567.03	486.83
567.19	461.09
567.36	484.49
567.52	496.19
567.68	379.17
567.85	463.43
568.01	430.66
568.17	383.85
568.34	360.44
568.50	444.70
568.66	386.19
568.83	428.32
568.99	442.36
569.15	435.34
569.32	425.98
569.48	388.53
569.64	379.17
569.81	461.09
569.97	449.38
570.13	428.32
570.30	456.40
570.46	407.25
570.62	404.91
570.78	362.78
570.95	407.25
571.11	397.89
571.27	458.74
571.43	376.83
571.60	519.60
571.76	383.85
571.92	440.02
572.09	400.23
572.25	479.81
572.41	414.27
572.57	425.98
572.74	475.13
572.90	360.44
573.06	435.34
573.22	416.62
573.38	376.83
573.55	411.93
573.71	404.91
573.87	510.24
574.03	374.49
574.20	447.04
574.36	421.30
574.52	353.42
574.68	355.76
574.84	437.68
575.01	362.78
575.17	451.72
575.33	407.25
575.49	440.02
575.65	456.40
575.82	407.25
575.98	477.47
576.14	407.25
576.30	400.23
576.46	407.25
576.62	423.64
576.79	444.70
576.95	428.32
577.11	418.96
577.27	400.23
577.43	470.45
577.59	416.62
577.75	440.02
577.92	402.57
578.08	383.85
578.24	433.00
578.40	433.00
578.56	425.98
578.72	407.25
578.88	409.59
579.04	358.10
579.21	407.25
579.37	393.21
579.53	409.59
579.69	454.06
579.85	433.00
580.01	376.83
580.17	390.87
580.33	374.49
580.49	418.96
580.65	461.09
580.82	425.98
580.98	470.45
581.14	369.80
581.30	430.66
581.46	442.36
581.62	482.15
581.78	407.25
581.94	355.76
582.10	374.49
582.26	397.89
582.42	440.02
582.58	458.74
582.74	421.30
582.90	348.74
583.06	365.12
583.22	374.49
583.38	348.74
583.54	421.30
583.70	449.38
583.86	435.34
584.02	402.57
584.18	498.53
584.34	397.89
584.50	421.30
584.66	402.57
584.82	393.21
584.98	402.57
585.14	383.85
585.30	477.47
585.46	437.68
585.62	400.23
585.78	421.30
585.94	444.70
586.10	465.77
586.26	428.32
586.42	477.47
586.58	414.27
586.74	465.77
586.90	472.79
587.06	437.68
587.22	463.43
587.38	444.70
587.54	376.83
587.70	454.06
587.86	437.68
588.02	374.49
588.18	425.98
588.34	404.91
588.49	407.25
588.65	430.66
588.81	465.77
588.97	418.96
589.13	369.80
589.29	418.96
589.45	447.04
589.61	400.23
589.77	451.72
589.93	383.85
590.08	404.91
590.24	423.64
590.40	351.08
590.56	400.23
590.72	449.38
590.88	369.80
591.04	465.77
591.20	430.66
591.35	435.34
591.51	393.21
591.67	425.98
591.83	388.53
591.99	430.66
592.15	381.51
592.31	423.64
592.46	444.70
592.62	435.34
592.78	449.38
592.94	428.32
593.10	433.00
593.26	362.78
593.41	465.77
593.57	393.21
593.73	411.93
593.89	449.38
594.05	414.27
594.20	468.11
594.36	554.71
594.52	404.91
594.68	418.96
594.84	449.38
594.99	500.87
595.15	433.00
595.31	414.27
595.47	454.06
595.62	430.66
595.78	425.98
595.94	360.44
596.10	358.10
596.25	440.02
596.41	440.02
596.57	411.93
596.73	381.51
596.88	421.30
597.04	433.00
597.20	409.59
597.36	440.02
597.51	463.43
597.67	435.34
597.83	376.83
597.99	461.09
598.14	470.45
598.30	390.87
598.46	482.15
598.61	414.27
598.77	388.53
598.93	327.68
599.09	425.98
599.24	395.55
599.40	409.59
599.56	440.02
599.71	404.91
599.87	407.25
600.03	407.25
600.18	482.15
600.34	393.21
600.50	414.27
600.65	451.72
600.81	386.19
600.97	421.30
601.12	397.89
601.28	533.64
601.44	498.53
601.59	367.46
601.75	421.30
601.91	496.19
602.06	397.89
602.22	400.23
602.37	489.17
602.53	390.87
602.69	461.09
602.84	400.23
603.00	416.62
603.16	414.27
603.31	447.04
603.47	395.55
603.62	404.91
603.78	418.96
603.94	395.55
604.09	421.30
604.25	416.62
604.40	414.27
604.56	402.57
604.71	337.04
604.87	411.93
605.03	447.04
605.18	425.98
605.34	421.30
605.49	430.66
605.65	430.66
605.80	449.38
605.96	402.57
606.12	486.83
606.27	440.02
606.43	440.02
606.58	493.85
606.74	358.10
606.89	416.62
607.05	440.02
607.20	400.23
607.36	430.66
607.51	388.53
607.67	444.70
607.82	418.96
607.98	437.68
608.13	425.98
608.29	367.46
608.44	390.87
608.60	442.36
608.75	430.66
608.91	383.85
609.06	416.62
609.22	428.32
609.37	355.76
609.53	454.06
609.68	409.59
609.84	365.12
609.99	440.02
610.15	409.59
