SpectraSuite Data File
++++++++++++++++++++++++++++++++++++
Date: Fri Oct 25 12:11:46 EDT 2013
User: price-jones
Dark Spectrum Present: No
Reference Spectrum Present: No
Number of Sampled Component Spectra: 1
Spectrometers: USB2+H05261
Integration Time (usec): 100000 (USB2+H05261)
Spectra Averaged: 1 (USB2+H05261)
Boxcar Smoothing: 0 (USB2+H05261)
Correct for Electrical Dark: No (USB2+H05261)
Strobe/Lamp Enabled: No (USB2+H05261)
Correct for Detector Non-linearity: No (USB2+H05261)
Correct for Stray Light: No (USB2+H05261)
Number of Pixels in Processed Spectrum: 2048
>>>>>Begin Processed Spectral Data<<<<<
365.73	353.42
365.92	353.42
366.12	353.42
366.32	250.44
366.52	250.44
366.72	257.46
366.91	194.26
367.11	241.08
367.31	215.33
367.51	196.60
367.70	175.54
367.90	177.88
368.10	191.92
368.30	304.27
368.49	156.82
368.69	306.61
368.89	252.78
369.09	231.71
369.28	271.50
369.48	243.42
369.68	330.02
369.87	376.83
370.07	299.59
370.27	322.99
370.47	299.59
370.66	339.38
370.86	428.32
371.06	376.83
371.25	428.32
371.45	346.40
371.65	393.21
371.84	381.51
372.04	411.93
372.24	418.96
372.44	390.87
372.63	498.53
372.83	379.17
373.03	365.12
373.22	379.17
373.42	407.25
373.62	404.91
373.81	433.00
374.01	496.19
374.21	456.40
374.40	482.15
374.60	489.17
374.79	416.62
374.99	447.04
375.19	423.64
375.38	425.98
375.58	402.57
375.78	418.96
375.97	468.11
376.17	442.36
376.37	409.59
376.56	358.10
376.76	411.93
376.95	381.51
377.15	442.36
377.35	451.72
377.54	344.06
377.74	355.76
377.93	358.10
378.13	418.96
378.33	440.02
378.52	388.53
378.72	379.17
378.91	449.38
379.11	411.93
379.31	374.49
379.50	367.46
379.70	444.70
379.89	430.66
380.09	400.23
380.28	374.49
380.48	465.77
380.68	393.21
380.87	447.04
381.07	416.62
381.26	400.23
381.46	430.66
381.65	444.70
381.85	397.89
382.04	463.43
382.24	430.66
382.43	400.23
382.63	404.91
382.83	421.30
383.02	379.17
383.22	416.62
383.41	421.30
383.61	381.51
383.80	458.74
384.00	397.89
384.19	414.27
384.39	451.72
384.58	358.10
384.78	402.57
384.97	400.23
385.17	381.51
385.36	433.00
385.56	376.83
385.75	355.76
385.95	348.74
386.14	414.27
386.34	463.43
386.53	409.59
386.72	372.15
386.92	390.87
387.11	386.19
387.31	418.96
387.50	360.44
387.70	376.83
387.89	468.11
388.09	372.15
388.28	407.25
388.48	365.12
388.67	386.19
388.86	418.96
389.06	498.53
389.25	472.79
389.45	430.66
389.64	358.10
389.84	376.83
390.03	404.91
390.22	475.13
390.42	374.49
390.61	414.27
390.81	475.13
391.00	407.25
391.19	500.87
391.39	397.89
391.58	463.43
391.78	430.66
391.97	400.23
392.16	376.83
392.36	475.13
392.55	465.77
392.75	456.40
392.94	414.27
393.13	402.57
393.33	339.38
393.52	362.78
393.71	510.24
393.91	358.10
394.10	437.68
394.29	369.80
394.49	418.96
394.68	458.74
394.88	409.59
395.07	437.68
395.26	428.32
395.46	447.04
395.65	358.10
395.84	376.83
396.04	458.74
396.23	444.70
396.42	442.36
396.62	437.68
396.81	409.59
397.00	435.34
397.19	430.66
397.39	407.25
397.58	395.55
397.77	444.70
397.97	409.59
398.16	428.32
398.35	475.13
398.55	451.72
398.74	372.15
398.93	428.32
399.12	458.74
399.32	376.83
399.51	402.57
399.70	421.30
399.90	470.45
400.09	383.85
400.28	421.30
400.47	367.46
400.67	428.32
400.86	477.47
401.05	393.21
401.24	423.64
401.44	451.72
401.63	360.44
401.82	393.21
402.01	433.00
402.21	348.74
402.40	491.51
402.59	430.66
402.78	407.25
402.97	301.93
403.17	386.19
403.36	477.47
403.55	421.30
403.74	390.87
403.93	390.87
404.13	416.62
404.32	435.34
404.51	351.08
404.70	442.36
404.89	290.23
405.09	416.62
405.28	362.78
405.47	428.32
405.66	477.47
405.85	482.15
406.05	393.21
406.24	423.64
406.43	454.06
406.62	423.64
406.81	433.00
407.00	393.21
407.20	409.59
407.39	430.66
407.58	425.98
407.77	461.09
407.96	402.57
408.15	421.30
408.34	428.32
408.54	437.68
408.73	369.80
408.92	421.30
409.11	442.36
409.30	423.64
409.49	447.04
409.68	447.04
409.87	388.53
410.07	381.51
410.26	423.64
410.45	348.74
410.64	372.15
410.83	395.55
411.02	386.19
411.21	449.38
411.40	440.02
411.59	456.40
411.78	440.02
411.98	423.64
412.17	374.49
412.36	430.66
412.55	360.44
412.74	456.40
412.93	442.36
413.12	400.23
413.31	433.00
413.50	451.72
413.69	365.12
413.88	407.25
414.07	470.45
414.26	430.66
414.45	362.78
414.64	430.66
414.83	451.72
415.02	395.55
415.22	425.98
415.41	475.13
415.60	414.27
415.79	421.30
415.98	437.68
416.17	404.91
416.36	425.98
416.55	454.06
416.74	348.74
416.93	507.90
417.12	465.77
417.31	397.89
417.50	425.98
417.69	449.38
417.88	437.68
418.07	393.21
418.26	306.61
418.45	351.08
418.64	444.70
418.83	428.32
419.02	369.80
419.21	372.15
419.39	388.53
419.58	390.87
419.77	402.57
419.96	461.09
420.15	500.87
420.34	442.36
420.53	332.36
420.72	449.38
420.91	433.00
421.10	351.08
421.29	423.64
421.48	381.51
421.67	374.49
421.86	428.32
422.05	409.59
422.24	411.93
422.43	395.55
422.61	346.40
422.80	386.19
422.99	414.27
423.18	348.74
423.37	479.81
423.56	423.64
423.75	400.23
423.94	346.40
424.13	372.15
424.32	418.96
424.50	447.04
424.69	428.32
424.88	442.36
425.07	456.40
425.26	444.70
425.45	358.10
425.64	374.49
425.83	447.04
426.01	423.64
426.20	379.17
426.39	407.25
426.58	379.17
426.77	367.46
426.96	454.06
427.15	414.27
427.33	379.17
427.52	496.19
427.71	440.02
427.90	416.62
428.09	451.72
428.28	383.85
428.46	348.74
428.65	402.57
428.84	454.06
429.03	425.98
429.22	479.81
429.40	404.91
429.59	404.91
429.78	447.04
429.97	416.62
430.16	442.36
430.34	433.00
430.53	435.34
430.72	430.66
430.91	454.06
431.10	388.53
431.28	407.25
431.47	421.30
431.66	369.80
431.85	395.55
432.03	477.47
432.22	435.34
432.41	404.91
432.60	376.83
432.79	402.57
432.97	376.83
433.16	416.62
433.35	425.98
433.54	454.06
433.72	411.93
433.91	433.00
434.10	379.17
434.28	367.46
434.47	386.19
434.66	407.25
434.85	362.78
435.03	433.00
435.22	428.32
435.41	440.02
435.59	374.49
435.78	390.87
435.97	397.89
436.16	437.68
436.34	458.74
436.53	468.11
436.72	409.59
436.90	468.11
437.09	421.30
437.28	376.83
437.46	395.55
437.65	470.45
437.84	463.43
438.02	451.72
438.21	360.44
438.40	365.12
438.58	358.10
438.77	381.51
438.96	451.72
439.14	409.59
439.33	416.62
439.52	463.43
439.70	444.70
439.89	456.40
440.08	402.57
440.26	409.59
440.45	416.62
440.63	409.59
440.82	397.89
441.01	383.85
441.19	369.80
441.38	353.42
441.57	468.11
441.75	503.22
441.94	482.15
442.12	444.70
442.31	411.93
442.50	397.89
442.68	362.78
442.87	388.53
443.05	416.62
443.24	416.62
443.43	503.22
443.61	454.06
443.80	442.36
443.98	437.68
444.17	360.44
444.35	386.19
444.54	397.89
444.73	395.55
444.91	437.68
445.10	444.70
445.28	465.77
445.47	437.68
445.65	444.70
445.84	395.55
446.02	470.45
446.21	425.98
446.39	444.70
446.58	379.17
446.77	400.23
446.95	407.25
447.14	400.23
447.32	444.70
447.51	404.91
447.69	402.57
447.88	367.46
448.06	416.62
448.25	454.06
448.43	395.55
448.62	379.17
448.80	477.47
448.99	444.70
449.17	332.36
449.36	369.80
449.54	414.27
449.73	404.91
449.91	447.04
450.10	379.17
450.28	423.64
450.46	440.02
450.65	451.72
450.83	344.06
451.02	407.25
451.20	428.32
451.39	421.30
451.57	409.59
451.76	421.30
451.94	423.64
452.13	425.98
452.31	423.64
452.49	395.55
452.68	421.30
452.86	442.36
453.05	414.27
453.23	437.68
453.42	390.87
453.60	402.57
453.78	418.96
453.97	418.96
454.15	458.74
454.34	404.91
454.52	397.89
454.70	362.78
454.89	493.85
455.07	334.70
455.26	440.02
455.44	397.89
455.62	390.87
455.81	411.93
455.99	388.53
456.17	325.33
456.36	517.26
456.54	423.64
456.73	411.93
456.91	372.15
457.09	315.97
457.28	428.32
457.46	433.00
457.64	411.93
457.83	379.17
458.01	390.87
458.19	355.76
458.38	400.23
458.56	409.59
458.74	423.64
458.93	423.64
459.11	461.09
459.29	367.46
459.48	409.59
459.66	425.98
459.84	416.62
460.03	477.47
460.21	409.59
460.39	407.25
460.57	414.27
460.76	456.40
460.94	416.62
461.12	484.49
461.31	430.66
461.49	470.45
461.67	449.38
461.85	503.22
462.04	414.27
462.22	748.97
462.40	472.79
462.59	433.00
462.77	440.02
462.95	449.38
463.13	395.55
463.32	418.96
463.50	397.89
463.68	376.83
463.86	440.02
464.05	372.15
464.23	449.38
464.41	475.13
464.59	428.32
464.78	411.93
464.96	409.59
465.14	390.87
465.32	411.93
465.50	397.89
465.69	475.13
465.87	362.78
466.05	442.36
466.23	421.30
466.41	390.87
466.60	425.98
466.78	428.32
466.96	430.66
467.14	341.72
467.32	416.62
467.51	447.04
467.69	395.55
467.87	376.83
468.05	430.66
468.23	440.02
468.41	409.59
468.60	376.83
468.78	397.89
468.96	449.38
469.14	339.38
469.32	386.19
469.50	421.30
469.69	482.15
469.87	421.30
470.05	418.96
470.23	360.44
470.41	358.10
470.59	383.85
470.77	404.91
470.95	465.77
471.14	397.89
471.32	388.53
471.50	472.79
471.68	428.32
471.86	430.66
472.04	444.70
472.22	435.34
472.40	346.40
472.58	395.55
472.77	383.85
472.95	444.70
473.13	400.23
473.31	463.43
473.49	465.77
473.67	402.57
473.85	425.98
474.03	409.59
474.21	353.42
474.39	418.96
474.57	475.13
474.75	351.08
474.93	346.40
475.12	411.93
475.30	430.66
475.48	416.62
475.66	386.19
475.84	416.62
476.02	407.25
476.20	470.45
476.38	409.59
476.56	465.77
476.74	437.68
476.92	397.89
477.10	421.30
477.28	449.38
477.46	421.30
477.64	402.57
477.82	428.32
478.00	376.83
478.18	402.57
478.36	395.55
478.54	383.85
478.72	414.27
478.90	320.65
479.08	379.17
479.26	372.15
479.44	430.66
479.62	407.25
479.80	407.25
479.98	330.02
480.16	358.10
480.34	400.23
480.52	482.15
480.70	414.27
480.88	374.49
481.06	437.68
481.24	374.49
481.41	425.98
481.59	435.34
481.77	407.25
481.95	414.27
482.13	442.36
482.31	400.23
482.49	433.00
482.67	442.36
482.85	428.32
483.03	472.79
483.21	395.55
483.39	411.93
483.57	440.02
483.74	400.23
483.92	379.17
484.10	374.49
484.28	454.06
484.46	437.68
484.64	447.04
484.82	383.85
485.00	337.04
485.18	489.17
485.35	451.72
485.53	456.40
485.71	407.25
485.89	456.40
486.07	381.51
486.25	550.03
486.43	451.72
486.61	444.70
486.78	404.91
486.96	372.15
487.14	440.02
487.32	435.34
487.50	376.83
487.68	395.55
487.85	362.78
488.03	475.13
488.21	423.64
488.39	433.00
488.57	496.19
488.75	437.68
488.92	477.47
489.10	395.55
489.28	437.68
489.46	447.04
489.64	390.87
489.81	379.17
489.99	411.93
490.17	395.55
490.35	479.81
490.53	407.25
490.70	425.98
490.88	444.70
491.06	404.91
491.24	379.17
491.41	390.87
491.59	402.57
491.77	397.89
491.95	442.36
492.13	379.17
492.30	360.44
492.48	440.02
492.66	393.21
492.84	355.76
493.01	421.30
493.19	397.89
493.37	444.70
493.54	454.06
493.72	409.59
493.90	376.83
494.08	400.23
494.25	440.02
494.43	386.19
494.61	437.68
494.79	402.57
494.96	449.38
495.14	372.15
495.32	411.93
495.49	409.59
495.67	437.68
495.85	458.74
496.02	404.91
496.20	411.93
496.38	437.68
496.55	334.70
496.73	444.70
496.91	435.34
497.09	411.93
497.26	430.66
497.44	344.06
497.62	418.96
497.79	330.02
497.97	416.62
498.14	430.66
498.32	454.06
498.50	437.68
498.67	435.34
498.85	416.62
499.03	404.91
499.20	355.76
499.38	386.19
499.56	395.55
499.73	463.43
499.91	430.66
500.08	447.04
500.26	503.22
500.44	353.42
500.61	416.62
500.79	414.27
500.97	393.21
501.14	489.17
501.32	444.70
501.49	369.80
501.67	411.93
501.84	454.06
502.02	437.68
502.20	442.36
502.37	388.53
502.55	332.36
502.72	348.74
502.90	442.36
503.07	444.70
503.25	465.77
503.43	444.70
503.60	475.13
503.78	475.13
503.95	400.23
504.13	416.62
504.30	437.68
504.48	465.77
504.65	423.64
504.83	362.78
505.01	386.19
505.18	379.17
505.36	341.72
505.53	393.21
505.71	383.85
505.88	348.74
506.06	313.63
506.23	414.27
506.41	397.89
506.58	416.62
506.76	461.09
506.93	447.04
507.11	425.98
507.28	451.72
507.46	423.64
507.63	433.00
507.81	421.30
507.98	351.08
508.16	409.59
508.33	404.91
508.50	425.98
508.68	386.19
508.85	461.09
509.03	416.62
509.20	458.74
509.38	374.49
509.55	416.62
509.73	449.38
509.90	484.49
510.08	388.53
510.25	348.74
510.42	351.08
510.60	362.78
510.77	491.51
510.95	468.11
511.12	381.51
511.30	430.66
511.47	430.66
511.64	409.59
511.82	418.96
511.99	393.21
512.17	416.62
512.34	353.42
512.51	428.32
512.69	442.36
512.86	409.59
513.04	484.49
513.21	437.68
513.38	442.36
513.56	388.53
513.73	458.74
513.90	390.87
514.08	383.85
514.25	454.06
514.43	500.87
514.60	397.89
514.77	440.02
514.95	423.64
515.12	372.15
515.29	393.21
515.47	388.53
515.64	430.66
515.81	407.25
515.99	454.06
516.16	390.87
516.33	428.32
516.51	425.98
516.68	393.21
516.85	514.92
517.03	458.74
517.20	411.93
517.37	402.57
517.54	451.72
517.72	505.56
517.89	414.27
518.06	456.40
518.24	409.59
518.41	475.13
518.58	465.77
518.75	442.36
518.93	449.38
519.10	372.15
519.27	409.59
519.45	475.13
519.62	362.78
519.79	393.21
519.96	327.68
520.14	393.21
520.31	442.36
520.48	430.66
520.65	498.53
520.83	491.51
521.00	470.45
521.17	472.79
521.34	381.51
521.52	458.74
521.69	465.77
521.86	437.68
522.03	341.72
522.20	414.27
522.38	402.57
522.55	440.02
522.72	428.32
522.89	374.49
523.07	397.89
523.24	423.64
523.41	428.32
523.58	411.93
523.75	393.21
523.92	402.57
524.10	421.30
524.27	423.64
524.44	369.80
524.61	404.91
524.78	397.89
524.96	397.89
525.13	437.68
525.30	491.51
525.47	390.87
525.64	454.06
525.81	404.91
525.98	425.98
526.16	416.62
526.33	440.02
526.50	383.85
526.67	397.89
526.84	435.34
527.01	472.79
527.18	496.19
527.36	395.55
527.53	463.43
527.70	477.47
527.87	409.59
528.04	440.02
528.21	409.59
528.38	423.64
528.55	486.83
528.72	456.40
528.89	468.11
529.07	447.04
529.24	407.25
529.41	388.53
529.58	409.59
529.75	440.02
529.92	449.38
530.09	433.00
530.26	505.56
530.43	449.38
530.60	397.89
530.77	430.66
530.94	496.19
531.11	468.11
531.28	451.72
531.46	353.42
531.63	416.62
531.80	447.04
531.97	425.98
532.14	418.96
532.31	395.55
532.48	365.12
532.65	390.87
532.82	451.72
532.99	416.62
533.16	411.93
533.33	416.62
533.50	421.30
533.67	341.72
533.84	423.64
534.01	454.06
534.18	407.25
534.35	416.62
534.52	374.49
534.69	404.91
534.86	341.72
535.03	374.49
535.20	435.34
535.37	430.66
535.54	395.55
535.71	360.44
535.88	416.62
536.05	418.96
536.22	407.25
536.38	407.25
536.55	447.04
536.72	402.57
536.89	402.57
537.06	381.51
537.23	388.53
537.40	365.12
537.57	374.49
537.74	425.98
537.91	386.19
538.08	395.55
538.25	409.59
538.42	433.00
538.59	372.15
538.75	440.02
538.92	393.21
539.09	456.40
539.26	440.02
539.43	425.98
539.60	449.38
539.77	393.21
539.94	404.91
540.11	414.27
540.28	416.62
540.44	463.43
540.61	507.90
540.78	423.64
540.95	493.85
541.12	461.09
541.29	421.30
541.46	465.77
541.62	404.91
541.79	440.02
541.96	428.32
542.13	421.30
542.30	430.66
542.47	418.96
542.63	433.00
542.80	507.90
542.97	458.74
543.14	423.64
543.31	444.70
543.48	397.89
543.64	463.43
543.81	407.25
543.98	414.27
544.15	433.00
544.32	451.72
544.48	449.38
544.65	376.83
544.82	395.55
544.99	414.27
545.16	533.64
545.32	458.74
545.49	372.15
545.66	430.66
545.83	416.62
546.00	411.93
546.16	390.87
546.33	414.27
546.50	411.93
546.67	383.85
546.83	383.85
547.00	381.51
547.17	414.27
547.34	409.59
547.50	442.36
547.67	386.19
547.84	416.62
548.00	433.00
548.17	407.25
548.34	440.02
548.51	454.06
548.67	456.40
548.84	428.32
549.01	458.74
549.18	470.45
549.34	428.32
549.51	404.91
549.68	421.30
549.84	477.47
550.01	397.89
550.18	475.13
550.34	517.26
550.51	395.55
550.68	491.51
550.84	358.10
551.01	440.02
551.18	451.72
551.34	449.38
551.51	402.57
551.68	430.66
551.84	381.51
552.01	447.04
552.18	369.80
552.34	383.85
552.51	404.91
552.68	463.43
552.84	416.62
553.01	472.79
553.18	444.70
553.34	440.02
553.51	421.30
553.67	418.96
553.84	454.06
554.01	418.96
554.17	475.13
554.34	390.87
554.51	367.46
554.67	442.36
554.84	414.27
555.00	423.64
555.17	461.09
555.33	470.45
555.50	435.34
555.67	355.76
555.83	416.62
556.00	395.55
556.16	547.69
556.33	395.55
556.50	365.12
556.66	381.51
556.83	440.02
556.99	407.25
557.16	404.91
557.32	390.87
557.49	360.44
557.65	407.25
557.82	440.02
557.98	423.64
558.15	468.11
558.32	475.13
558.48	400.23
558.65	402.57
558.81	449.38
558.98	397.89
559.14	428.32
559.31	461.09
559.47	416.62
559.64	334.70
559.80	386.19
559.97	428.32
560.13	500.87
560.30	425.98
560.46	372.15
560.63	449.38
560.79	386.19
560.96	430.66
561.12	444.70
561.29	421.30
561.45	383.85
561.61	486.83
561.78	486.83
561.94	479.81
562.11	339.38
562.27	442.36
562.44	397.89
562.60	409.59
562.77	416.62
562.93	470.45
563.10	435.34
563.26	449.38
563.42	503.22
563.59	404.91
563.75	435.34
563.92	428.32
564.08	500.87
564.24	454.06
564.41	472.79
564.57	346.40
564.74	407.25
564.90	418.96
565.07	479.81
565.23	456.40
565.39	390.87
565.56	425.98
565.72	421.30
565.88	393.21
566.05	386.19
566.21	414.27
566.38	393.21
566.54	355.76
566.70	435.34
566.87	393.21
567.03	411.93
567.19	409.59
567.36	414.27
567.52	430.66
567.68	414.27
567.85	428.32
568.01	421.30
568.17	376.83
568.34	428.32
568.50	416.62
568.66	358.10
568.83	425.98
568.99	297.25
569.15	388.53
569.32	437.68
569.48	423.64
569.64	433.00
569.81	482.15
569.97	454.06
570.13	430.66
570.30	454.06
570.46	484.49
570.62	440.02
570.78	477.47
570.95	461.09
571.11	423.64
571.27	505.56
571.43	416.62
571.60	451.72
571.76	428.32
571.92	341.72
572.09	433.00
572.25	433.00
572.41	381.51
572.57	409.59
572.74	482.15
572.90	477.47
573.06	425.98
573.22	374.49
573.38	372.15
573.55	477.47
573.71	367.46
573.87	449.38
574.03	386.19
574.20	442.36
574.36	411.93
574.52	414.27
574.68	416.62
574.84	442.36
575.01	400.23
575.17	449.38
575.33	386.19
575.49	430.66
575.65	416.62
575.82	428.32
575.98	404.91
576.14	440.02
576.30	472.79
576.46	390.87
576.62	404.91
576.79	421.30
576.95	367.46
577.11	400.23
577.27	376.83
577.43	435.34
577.59	423.64
577.75	421.30
577.92	369.80
578.08	367.46
578.24	351.08
578.40	386.19
578.56	454.06
578.72	425.98
578.88	400.23
579.04	383.85
579.21	400.23
579.37	407.25
579.53	400.23
579.69	337.04
579.85	454.06
580.01	423.64
580.17	451.72
580.33	447.04
580.49	435.34
580.65	447.04
580.82	386.19
580.98	383.85
581.14	311.29
581.30	416.62
581.46	360.44
581.62	503.22
581.78	400.23
581.94	433.00
582.10	318.31
582.26	351.08
582.42	320.65
582.58	458.74
582.74	414.27
582.90	395.55
583.06	512.58
583.22	465.77
583.38	442.36
583.54	374.49
583.70	393.21
583.86	400.23
584.02	428.32
584.18	411.93
584.34	404.91
584.50	423.64
584.66	355.76
584.82	423.64
584.98	404.91
585.14	381.51
585.30	498.53
585.46	379.17
585.62	376.83
585.78	355.76
585.94	437.68
586.10	458.74
586.26	400.23
586.42	425.98
586.58	409.59
586.74	451.72
586.90	416.62
587.06	472.79
587.22	402.57
587.38	418.96
587.54	496.19
587.70	423.64
587.86	470.45
588.02	423.64
588.18	388.53
588.34	416.62
588.49	454.06
588.65	411.93
588.81	437.68
588.97	402.57
589.13	383.85
589.29	418.96
589.45	409.59
589.61	475.13
589.77	348.74
589.93	395.55
590.08	489.17
590.24	430.66
590.40	428.32
590.56	390.87
590.72	386.19
590.88	442.36
591.04	409.59
591.20	451.72
591.35	428.32
591.51	423.64
591.67	468.11
591.83	428.32
591.99	409.59
592.15	437.68
592.31	407.25
592.46	428.32
592.62	470.45
592.78	456.40
592.94	388.53
593.10	440.02
593.26	449.38
593.41	409.59
593.57	418.96
593.73	425.98
593.89	428.32
594.05	461.09
594.20	341.72
594.36	449.38
594.52	418.96
594.68	526.62
594.84	468.11
594.99	386.19
595.15	402.57
595.31	440.02
595.47	425.98
595.62	407.25
595.78	423.64
595.94	416.62
596.10	435.34
596.25	486.83
596.41	404.91
596.57	379.17
596.73	423.64
596.88	381.51
597.04	388.53
597.20	374.49
597.36	425.98
597.51	416.62
597.67	421.30
597.83	395.55
597.99	360.44
598.14	468.11
598.30	425.98
598.46	393.21
598.61	463.43
598.77	440.02
598.93	369.80
599.09	362.78
599.24	360.44
599.40	407.25
599.56	414.27
599.71	395.55
599.87	428.32
600.03	430.66
600.18	369.80
600.34	456.40
600.50	416.62
600.65	418.96
600.81	475.13
600.97	379.17
601.12	381.51
601.28	430.66
601.44	414.27
601.59	388.53
601.75	477.47
601.91	404.91
602.06	444.70
602.22	493.85
602.37	475.13
602.53	428.32
602.69	414.27
602.84	411.93
603.00	425.98
603.16	449.38
603.31	423.64
603.47	411.93
603.62	486.83
603.78	404.91
603.94	449.38
604.09	414.27
604.25	526.62
604.40	393.21
604.56	395.55
604.71	411.93
604.87	372.15
605.03	444.70
605.18	416.62
605.34	393.21
605.49	404.91
605.65	395.55
605.80	428.32
605.96	397.89
606.12	447.04
606.27	430.66
606.43	390.87
606.58	442.36
606.74	430.66
606.89	461.09
607.05	383.85
607.20	355.76
607.36	395.55
607.51	390.87
607.67	402.57
607.82	397.89
607.98	465.77
608.13	416.62
608.29	400.23
608.44	475.13
608.60	423.64
608.75	435.34
608.91	472.79
609.06	381.51
609.22	421.30
609.37	334.70
609.53	456.40
609.68	470.45
609.84	397.89
609.99	390.87
610.15	458.74
