SpectraSuite Data File
++++++++++++++++++++++++++++++++++++
Date: Fri Oct 25 12:10:40 EDT 2013
User: price-jones
Dark Spectrum Present: No
Reference Spectrum Present: No
Number of Sampled Component Spectra: 1
Spectrometers: USB2+H05261
Integration Time (usec): 100000 (USB2+H05261)
Spectra Averaged: 1 (USB2+H05261)
Boxcar Smoothing: 0 (USB2+H05261)
Correct for Electrical Dark: No (USB2+H05261)
Strobe/Lamp Enabled: No (USB2+H05261)
Correct for Detector Non-linearity: No (USB2+H05261)
Correct for Stray Light: No (USB2+H05261)
Number of Pixels in Processed Spectrum: 2048
>>>>>Begin Processed Spectral Data<<<<<
365.73	346.40
365.92	346.40
366.12	346.40
366.32	290.23
366.52	166.18
366.72	278.52
366.91	222.35
367.11	264.48
367.31	252.78
367.51	220.01
367.70	217.67
367.90	201.29
368.10	203.63
368.30	212.99
368.49	227.03
368.69	236.39
368.89	252.78
369.09	248.10
369.28	257.46
369.48	201.29
369.68	269.16
369.87	269.16
370.07	362.78
370.27	301.93
370.47	278.52
370.66	360.44
370.86	355.76
371.06	390.87
371.25	390.87
371.45	358.10
371.65	402.57
371.84	372.15
372.04	425.98
372.24	425.98
372.44	407.25
372.63	428.32
372.83	334.70
373.03	418.96
373.22	381.51
373.42	374.49
373.62	397.89
373.81	374.49
374.01	440.02
374.21	440.02
374.40	451.72
374.60	510.24
374.79	475.13
374.99	461.09
375.19	449.38
375.38	418.96
375.58	416.62
375.78	393.21
375.97	397.89
376.17	479.81
376.37	414.27
376.56	423.64
376.76	416.62
376.95	393.21
377.15	423.64
377.35	369.80
377.54	386.19
377.74	369.80
377.93	404.91
378.13	447.04
378.33	402.57
378.52	418.96
378.72	440.02
378.91	421.30
379.11	421.30
379.31	409.59
379.50	423.64
379.70	395.55
379.89	437.68
380.09	421.30
380.28	383.85
380.48	362.78
380.68	414.27
380.87	400.23
381.07	416.62
381.26	407.25
381.46	435.34
381.65	416.62
381.85	393.21
382.04	428.32
382.24	381.51
382.43	393.21
382.63	400.23
382.83	379.17
383.02	280.86
383.22	482.15
383.41	367.46
383.61	313.63
383.80	440.02
384.00	374.49
384.19	404.91
384.39	435.34
384.58	348.74
384.78	463.43
384.97	421.30
385.17	407.25
385.36	425.98
385.56	330.02
385.75	409.59
385.95	414.27
386.14	404.91
386.34	421.30
386.53	397.89
386.72	430.66
386.92	440.02
387.11	433.00
387.31	404.91
387.50	407.25
387.70	397.89
387.89	381.51
388.09	337.04
388.28	414.27
388.48	388.53
388.67	449.38
388.86	374.49
389.06	360.44
389.25	390.87
389.45	362.78
389.64	435.34
389.84	421.30
390.03	379.17
390.22	433.00
390.42	348.74
390.61	393.21
390.81	351.08
391.00	390.87
391.19	409.59
391.39	472.79
391.58	386.19
391.78	423.64
391.97	421.30
392.16	327.68
392.36	414.27
392.55	472.79
392.75	388.53
392.94	369.80
393.13	444.70
393.33	409.59
393.52	409.59
393.71	435.34
393.91	395.55
394.10	409.59
394.29	400.23
394.49	367.46
394.68	409.59
394.88	418.96
395.07	414.27
395.26	390.87
395.46	449.38
395.65	397.89
395.84	437.68
396.04	442.36
396.23	372.15
396.42	360.44
396.62	433.00
396.81	348.74
397.00	407.25
397.19	468.11
397.39	367.46
397.58	535.98
397.77	383.85
397.97	454.06
398.16	400.23
398.35	414.27
398.55	454.06
398.74	423.64
398.93	395.55
399.12	374.49
399.32	308.95
399.51	428.32
399.70	512.58
399.90	386.19
400.09	435.34
400.28	433.00
400.47	320.65
400.67	365.12
400.86	449.38
401.05	414.27
401.24	461.09
401.44	411.93
401.63	465.77
401.82	416.62
402.01	449.38
402.21	367.46
402.40	372.15
402.59	461.09
402.78	386.19
402.97	397.89
403.17	454.06
403.36	395.55
403.55	383.85
403.74	388.53
403.93	402.57
404.13	407.25
404.32	411.93
404.51	404.91
404.70	381.51
404.89	383.85
405.09	416.62
405.28	456.40
405.47	440.02
405.66	414.27
405.85	442.36
406.05	451.72
406.24	402.57
406.43	393.21
406.62	437.68
406.81	433.00
407.00	444.70
407.20	423.64
407.39	381.51
407.58	416.62
407.77	435.34
407.96	397.89
408.15	423.64
408.34	416.62
408.54	313.63
408.73	440.02
408.92	421.30
409.11	362.78
409.30	458.74
409.49	397.89
409.68	393.21
409.87	433.00
410.07	339.38
410.26	348.74
410.45	468.11
410.64	379.17
410.83	425.98
411.02	411.93
411.21	447.04
411.40	395.55
411.59	416.62
411.78	365.12
411.98	374.49
412.17	414.27
412.36	440.02
412.55	430.66
412.74	395.55
412.93	421.30
413.12	414.27
413.31	404.91
413.50	498.53
413.69	372.15
413.88	409.59
414.07	458.74
414.26	362.78
414.45	442.36
414.64	365.12
414.83	393.21
415.02	416.62
415.22	465.77
415.41	397.89
415.60	411.93
415.79	421.30
415.98	486.83
416.17	369.80
416.36	390.87
416.55	404.91
416.74	414.27
416.93	372.15
417.12	395.55
417.31	404.91
417.50	379.17
417.69	428.32
417.88	447.04
418.07	383.85
418.26	379.17
418.45	416.62
418.64	442.36
418.83	358.10
419.02	428.32
419.21	351.08
419.39	454.06
419.58	407.25
419.77	372.15
419.96	435.34
420.15	444.70
420.34	496.19
420.53	435.34
420.72	428.32
420.91	425.98
421.10	416.62
421.29	423.64
421.48	449.38
421.67	447.04
421.86	451.72
422.05	393.21
422.24	409.59
422.43	395.55
422.61	447.04
422.80	386.19
422.99	477.47
423.18	374.49
423.37	437.68
423.56	351.08
423.75	367.46
423.94	435.34
424.13	407.25
424.32	414.27
424.50	407.25
424.69	449.38
424.88	402.57
425.07	475.13
425.26	367.46
425.45	423.64
425.64	433.00
425.83	402.57
426.01	463.43
426.20	430.66
426.39	414.27
426.58	327.68
426.77	393.21
426.96	451.72
427.15	437.68
427.33	369.80
427.52	386.19
427.71	383.85
427.90	395.55
428.09	465.77
428.28	472.79
428.46	421.30
428.65	451.72
428.84	444.70
429.03	416.62
429.22	444.70
429.40	400.23
429.59	440.02
429.78	393.21
429.97	442.36
430.16	423.64
430.34	365.12
430.53	433.00
430.72	404.91
430.91	461.09
431.10	409.59
431.28	379.17
431.47	421.30
431.66	468.11
431.85	423.64
432.03	367.46
432.22	477.47
432.41	484.49
432.60	409.59
432.79	402.57
432.97	360.44
433.16	395.55
433.35	383.85
433.54	440.02
433.72	418.96
433.91	390.87
434.10	381.51
434.28	414.27
434.47	418.96
434.66	437.68
434.85	397.89
435.03	461.09
435.22	428.32
435.41	444.70
435.59	386.19
435.78	430.66
435.97	365.12
436.16	379.17
436.34	367.46
436.53	491.51
436.72	475.13
436.90	390.87
437.09	430.66
437.28	388.53
437.46	428.32
437.65	379.17
437.84	376.83
438.02	395.55
438.21	395.55
438.40	430.66
438.58	414.27
438.77	362.78
438.96	390.87
439.14	416.62
439.33	407.25
439.52	416.62
439.70	468.11
439.89	411.93
440.08	383.85
440.26	381.51
440.45	465.77
440.63	458.74
440.82	444.70
441.01	390.87
441.19	379.17
441.38	407.25
441.57	435.34
441.75	437.68
441.94	416.62
442.12	397.89
442.31	433.00
442.50	475.13
442.68	379.17
442.87	447.04
443.05	444.70
443.24	468.11
443.43	390.87
443.61	381.51
443.80	430.66
443.98	383.85
444.17	418.96
444.35	367.46
444.54	393.21
444.73	456.40
444.91	437.68
445.10	409.59
445.28	404.91
445.47	376.83
445.65	442.36
445.84	430.66
446.02	393.21
446.21	505.56
446.39	433.00
446.58	393.21
446.77	407.25
446.95	458.74
447.14	411.93
447.32	395.55
447.51	344.06
447.69	397.89
447.88	379.17
448.06	449.38
448.25	414.27
448.43	477.47
448.62	470.45
448.80	388.53
448.99	425.98
449.17	376.83
449.36	428.32
449.54	444.70
449.73	348.74
449.91	423.64
450.10	402.57
450.28	524.28
450.46	386.19
450.65	400.23
450.83	386.19
451.02	421.30
451.20	425.98
451.39	362.78
451.57	414.27
451.76	381.51
451.94	425.98
452.13	442.36
452.31	442.36
452.49	437.68
452.68	411.93
452.86	472.79
453.05	430.66
453.23	465.77
453.42	407.25
453.60	437.68
453.78	442.36
453.97	447.04
454.15	365.12
454.34	369.80
454.52	402.57
454.70	404.91
454.89	402.57
455.07	397.89
455.26	468.11
455.44	425.98
455.62	341.72
455.81	388.53
455.99	430.66
456.17	437.68
456.36	407.25
456.54	404.91
456.73	407.25
456.91	395.55
457.09	376.83
457.28	423.64
457.46	404.91
457.64	430.66
457.83	425.98
458.01	374.49
458.19	435.34
458.38	372.15
458.56	372.15
458.74	322.99
458.93	465.77
459.11	397.89
459.29	388.53
459.48	395.55
459.66	418.96
459.84	433.00
460.03	411.93
460.21	404.91
460.39	402.57
460.57	433.00
460.76	397.89
460.94	451.72
461.12	447.04
461.31	430.66
461.49	358.10
461.67	456.40
461.85	468.11
462.04	414.27
462.22	725.57
462.40	395.55
462.59	456.40
462.77	355.76
462.95	454.06
463.13	411.93
463.32	461.09
463.50	489.17
463.68	358.10
463.86	498.53
464.05	351.08
464.23	404.91
464.41	470.45
464.59	433.00
464.78	365.12
464.96	411.93
465.14	360.44
465.32	421.30
465.50	444.70
465.69	383.85
465.87	388.53
466.05	376.83
466.23	393.21
466.41	442.36
466.60	376.83
466.78	440.02
466.96	414.27
467.14	435.34
467.32	461.09
467.51	367.46
467.69	472.79
467.87	390.87
468.05	386.19
468.23	444.70
468.41	437.68
468.60	386.19
468.78	472.79
468.96	484.49
469.14	449.38
469.32	468.11
469.50	533.64
469.69	440.02
469.87	447.04
470.05	386.19
470.23	414.27
470.41	414.27
470.59	379.17
470.77	461.09
470.95	348.74
471.14	388.53
471.32	397.89
471.50	458.74
471.68	339.38
471.86	414.27
472.04	327.68
472.22	418.96
472.40	358.10
472.58	353.42
472.77	341.72
472.95	451.72
473.13	418.96
473.31	442.36
473.49	383.85
473.67	372.15
473.85	421.30
474.03	390.87
474.21	397.89
474.39	428.32
474.57	409.59
474.75	409.59
474.93	407.25
475.12	416.62
475.30	388.53
475.48	421.30
475.66	430.66
475.84	430.66
476.02	353.42
476.20	407.25
476.38	390.87
476.56	465.77
476.74	456.40
476.92	475.13
477.10	442.36
477.28	416.62
477.46	435.34
477.64	454.06
477.82	496.19
478.00	367.46
478.18	435.34
478.36	447.04
478.54	365.12
478.72	428.32
478.90	369.80
479.08	397.89
479.26	379.17
479.44	461.09
479.62	421.30
479.80	444.70
479.98	409.59
480.16	411.93
480.34	372.15
480.52	404.91
480.70	411.93
480.88	379.17
481.06	395.55
481.24	386.19
481.41	367.46
481.59	416.62
481.77	435.34
481.95	451.72
482.13	409.59
482.31	435.34
482.49	440.02
482.67	500.87
482.85	496.19
483.03	414.27
483.21	374.49
483.39	388.53
483.57	496.19
483.74	449.38
483.92	365.12
484.10	367.46
484.28	339.38
484.46	461.09
484.64	332.36
484.82	402.57
485.00	397.89
485.18	498.53
485.35	444.70
485.53	379.17
485.71	376.83
485.89	456.40
486.07	430.66
486.25	491.51
486.43	465.77
486.61	372.15
486.78	330.02
486.96	411.93
487.14	348.74
487.32	351.08
487.50	425.98
487.68	449.38
487.85	374.49
488.03	440.02
488.21	456.40
488.39	423.64
488.57	435.34
488.75	423.64
488.92	510.24
489.10	379.17
489.28	409.59
489.46	418.96
489.64	449.38
489.81	414.27
489.99	428.32
490.17	372.15
490.35	461.09
490.53	421.30
490.70	325.33
490.88	416.62
491.06	411.93
491.24	374.49
491.41	400.23
491.59	407.25
491.77	440.02
491.95	416.62
492.13	430.66
492.30	503.22
492.48	414.27
492.66	376.83
492.84	337.04
493.01	404.91
493.19	435.34
493.37	484.49
493.54	440.02
493.72	447.04
493.90	402.57
494.08	411.93
494.25	360.44
494.43	421.30
494.61	407.25
494.79	425.98
494.96	416.62
495.14	358.10
495.32	418.96
495.49	430.66
495.67	395.55
495.85	421.30
496.02	397.89
496.20	418.96
496.38	423.64
496.55	376.83
496.73	346.40
496.91	428.32
497.09	376.83
497.26	451.72
497.44	404.91
497.62	430.66
497.79	461.09
497.97	449.38
498.14	517.26
498.32	400.23
498.50	491.51
498.67	437.68
498.85	397.89
499.03	430.66
499.20	423.64
499.38	369.80
499.56	442.36
499.73	475.13
499.91	435.34
500.08	372.15
500.26	444.70
500.44	458.74
500.61	475.13
500.79	402.57
500.97	407.25
501.14	486.83
501.32	374.49
501.49	400.23
501.67	428.32
501.84	402.57
502.02	395.55
502.20	353.42
502.37	437.68
502.55	449.38
502.72	348.74
502.90	472.79
503.07	381.51
503.25	358.10
503.43	404.91
503.60	423.64
503.78	491.51
503.95	440.02
504.13	362.78
504.30	411.93
504.48	411.93
504.65	383.85
504.83	414.27
505.01	451.72
505.18	440.02
505.36	449.38
505.53	421.30
505.71	491.51
505.88	374.49
506.06	365.12
506.23	500.87
506.41	348.74
506.58	386.19
506.76	442.36
506.93	390.87
507.11	425.98
507.28	463.43
507.46	360.44
507.63	311.29
507.81	367.46
507.98	414.27
508.16	381.51
508.33	430.66
508.50	430.66
508.68	475.13
508.85	442.36
509.03	393.21
509.20	388.53
509.38	411.93
509.55	379.17
509.73	425.98
509.90	461.09
510.08	463.43
510.25	374.49
510.42	442.36
510.60	447.04
510.77	411.93
510.95	503.22
511.12	454.06
511.30	376.83
511.47	393.21
511.64	454.06
511.82	411.93
511.99	507.90
512.17	444.70
512.34	297.25
512.51	472.79
512.69	372.15
512.86	407.25
513.04	423.64
513.21	435.34
513.38	376.83
513.56	355.76
513.73	381.51
513.90	454.06
514.08	444.70
514.25	465.77
514.43	418.96
514.60	334.70
514.77	416.62
514.95	435.34
515.12	379.17
515.29	425.98
515.47	416.62
515.64	423.64
515.81	423.64
515.99	444.70
516.16	484.49
516.33	451.72
516.51	397.89
516.68	390.87
516.85	418.96
517.03	388.53
517.20	449.38
517.37	449.38
517.54	421.30
517.72	365.12
517.89	428.32
518.06	416.62
518.24	496.19
518.41	414.27
518.58	383.85
518.75	388.53
518.93	390.87
519.10	423.64
519.27	358.10
519.45	444.70
519.62	433.00
519.79	430.66
519.96	376.83
520.14	433.00
520.31	386.19
520.48	379.17
520.65	463.43
520.83	369.80
521.00	465.77
521.17	475.13
521.34	437.68
521.52	374.49
521.69	444.70
521.86	386.19
522.03	421.30
522.20	479.81
522.38	444.70
522.55	461.09
522.72	367.46
522.89	414.27
523.07	372.15
523.24	421.30
523.41	411.93
523.58	360.44
523.75	435.34
523.92	449.38
524.10	449.38
524.27	320.65
524.44	416.62
524.61	383.85
524.78	383.85
524.96	365.12
525.13	351.08
525.30	461.09
525.47	430.66
525.64	416.62
525.81	472.79
525.98	498.53
526.16	449.38
526.33	433.00
526.50	433.00
526.67	414.27
526.84	381.51
527.01	409.59
527.18	428.32
527.36	430.66
527.53	496.19
527.70	402.57
527.87	468.11
528.04	411.93
528.21	386.19
528.38	430.66
528.55	484.49
528.72	442.36
528.89	454.06
529.07	388.53
529.24	437.68
529.41	435.34
529.58	430.66
529.75	414.27
529.92	433.00
530.09	430.66
530.26	477.47
530.43	414.27
530.60	433.00
530.77	390.87
530.94	362.78
531.11	414.27
531.28	418.96
531.46	379.17
531.63	472.79
531.80	451.72
531.97	397.89
532.14	425.98
532.31	442.36
532.48	414.27
532.65	355.76
532.82	362.78
532.99	395.55
533.16	479.81
533.33	447.04
533.50	390.87
533.67	423.64
533.84	491.51
534.01	369.80
534.18	414.27
534.35	416.62
534.52	433.00
534.69	409.59
534.86	411.93
535.03	456.40
535.20	393.21
535.37	437.68
535.54	404.91
535.71	463.43
535.88	458.74
536.05	388.53
536.22	447.04
536.38	414.27
536.55	435.34
536.72	393.21
536.89	428.32
537.06	423.64
537.23	418.96
537.40	454.06
537.57	444.70
537.74	524.28
537.91	454.06
538.08	425.98
538.25	407.25
538.42	433.00
538.59	430.66
538.75	353.42
538.92	379.17
539.09	369.80
539.26	433.00
539.43	402.57
539.60	433.00
539.77	440.02
539.94	425.98
540.11	468.11
540.28	407.25
540.44	390.87
540.61	386.19
540.78	416.62
540.95	369.80
541.12	395.55
541.29	449.38
541.46	358.10
541.62	437.68
541.79	442.36
541.96	374.49
542.13	454.06
542.30	444.70
542.47	454.06
542.63	430.66
542.80	449.38
542.97	416.62
543.14	449.38
543.31	383.85
543.48	423.64
543.64	491.51
543.81	449.38
543.98	428.32
544.15	383.85
544.32	393.21
544.48	428.32
544.65	475.13
544.82	407.25
544.99	358.10
545.16	372.15
545.32	379.17
545.49	400.23
545.66	369.80
545.83	362.78
546.00	386.19
546.16	470.45
546.33	416.62
546.50	444.70
546.67	496.19
546.83	479.81
547.00	372.15
547.17	388.53
547.34	381.51
547.50	374.49
547.67	404.91
547.84	400.23
548.00	437.68
548.17	402.57
548.34	416.62
548.51	468.11
548.67	447.04
548.84	477.47
549.01	402.57
549.18	430.66
549.34	402.57
549.51	430.66
549.68	440.02
549.84	362.78
550.01	404.91
550.18	470.45
550.34	416.62
550.51	456.40
550.68	407.25
550.84	442.36
551.01	454.06
551.18	425.98
551.34	402.57
551.51	402.57
551.68	393.21
551.84	362.78
552.01	348.74
552.18	463.43
552.34	451.72
552.51	430.66
552.68	442.36
552.84	327.68
553.01	404.91
553.18	367.46
553.34	472.79
553.51	435.34
553.67	449.38
553.84	528.96
554.01	451.72
554.17	493.85
554.34	437.68
554.51	376.83
554.67	444.70
554.84	372.15
555.00	428.32
555.17	404.91
555.33	409.59
555.50	421.30
555.67	449.38
555.83	414.27
556.00	421.30
556.16	456.40
556.33	411.93
556.50	369.80
556.66	407.25
556.83	407.25
556.99	402.57
557.16	374.49
557.32	327.68
557.49	411.93
557.65	388.53
557.82	397.89
557.98	402.57
558.15	407.25
558.32	416.62
558.48	440.02
558.65	395.55
558.81	409.59
558.98	360.44
559.14	421.30
559.31	367.46
559.47	404.91
559.64	397.89
559.80	369.80
559.97	388.53
560.13	430.66
560.30	367.46
560.46	409.59
560.63	414.27
560.79	470.45
560.96	418.96
561.12	372.15
561.29	421.30
561.45	428.32
561.61	458.74
561.78	458.74
561.94	451.72
562.11	461.09
562.27	430.66
562.44	397.89
562.60	475.13
562.77	397.89
562.93	507.90
563.10	409.59
563.26	437.68
563.42	458.74
563.59	365.12
563.75	393.21
563.92	517.26
564.08	468.11
564.24	395.55
564.41	491.51
564.57	411.93
564.74	386.19
564.90	430.66
565.07	379.17
565.23	437.68
565.39	376.83
565.56	433.00
565.72	538.32
565.88	374.49
566.05	404.91
566.21	418.96
566.38	435.34
566.54	447.04
566.70	365.12
566.87	407.25
567.03	484.49
567.19	435.34
567.36	332.36
567.52	503.22
567.68	400.23
567.85	505.56
568.01	451.72
568.17	402.57
568.34	475.13
568.50	437.68
568.66	456.40
568.83	437.68
568.99	463.43
569.15	376.83
569.32	411.93
569.48	461.09
569.64	477.47
569.81	458.74
569.97	423.64
570.13	376.83
570.30	465.77
570.46	449.38
570.62	395.55
570.78	404.91
570.95	393.21
571.11	414.27
571.27	447.04
571.43	402.57
571.60	433.00
571.76	367.46
571.92	379.17
572.09	428.32
572.25	500.87
572.41	376.83
572.57	416.62
572.74	486.83
572.90	411.93
573.06	442.36
573.22	484.49
573.38	472.79
573.55	465.77
573.71	433.00
573.87	461.09
574.03	416.62
574.20	355.76
574.36	454.06
574.52	402.57
574.68	447.04
574.84	428.32
575.01	435.34
575.17	449.38
575.33	402.57
575.49	505.56
575.65	402.57
575.82	430.66
575.98	376.83
576.14	376.83
576.30	358.10
576.46	393.21
576.62	400.23
576.79	388.53
576.95	435.34
577.11	400.23
577.27	367.46
577.43	369.80
577.59	411.93
577.75	397.89
577.92	447.04
578.08	425.98
578.24	468.11
578.40	498.53
578.56	442.36
578.72	484.49
578.88	461.09
579.04	400.23
579.21	451.72
579.37	451.72
579.53	428.32
579.69	369.80
579.85	376.83
580.01	367.46
580.17	397.89
580.33	383.85
580.49	444.70
580.65	386.19
580.82	407.25
580.98	409.59
581.14	381.51
581.30	367.46
581.46	407.25
581.62	496.19
581.78	381.51
581.94	374.49
582.10	360.44
582.26	411.93
582.42	381.51
582.58	393.21
582.74	407.25
582.90	461.09
583.06	423.64
583.22	383.85
583.38	409.59
583.54	409.59
583.70	402.57
583.86	435.34
584.02	477.47
584.18	472.79
584.34	444.70
584.50	379.17
584.66	411.93
584.82	400.23
584.98	402.57
585.14	386.19
585.30	454.06
585.46	437.68
585.62	418.96
585.78	465.77
585.94	468.11
586.10	393.21
586.26	397.89
586.42	437.68
586.58	428.32
586.74	454.06
586.90	409.59
587.06	449.38
587.22	383.85
587.38	435.34
587.54	376.83
587.70	402.57
587.86	411.93
588.02	299.59
588.18	360.44
588.34	425.98
588.49	407.25
588.65	465.77
588.81	395.55
588.97	341.72
589.13	393.21
589.29	433.00
589.45	397.89
589.61	388.53
589.77	411.93
589.93	332.36
590.08	404.91
590.24	388.53
590.40	402.57
590.56	444.70
590.72	409.59
590.88	360.44
591.04	416.62
591.20	362.78
591.35	447.04
591.51	449.38
591.67	458.74
591.83	428.32
591.99	407.25
592.15	463.43
592.31	372.15
592.46	411.93
592.62	414.27
592.78	484.49
592.94	355.76
593.10	358.10
593.26	388.53
593.41	397.89
593.57	334.70
593.73	381.51
593.89	435.34
594.05	376.83
594.20	344.06
594.36	428.32
594.52	414.27
594.68	435.34
594.84	428.32
594.99	454.06
595.15	341.72
595.31	421.30
595.47	463.43
595.62	393.21
595.78	367.46
595.94	400.23
596.10	423.64
596.25	404.91
596.41	482.15
596.57	414.27
596.73	372.15
596.88	423.64
597.04	433.00
597.20	402.57
597.36	437.68
597.51	433.00
597.67	367.46
597.83	339.38
597.99	433.00
598.14	397.89
598.30	423.64
598.46	489.17
598.61	454.06
598.77	482.15
598.93	444.70
599.09	430.66
599.24	442.36
599.40	444.70
599.56	388.53
599.71	353.42
599.87	414.27
600.03	421.30
600.18	421.30
600.34	414.27
600.50	421.30
600.65	381.51
600.81	442.36
600.97	344.06
601.12	414.27
601.28	416.62
601.44	404.91
601.59	379.17
601.75	430.66
601.91	367.46
602.06	351.08
602.22	423.64
602.37	442.36
602.53	322.99
602.69	440.02
602.84	402.57
603.00	402.57
603.16	440.02
603.31	425.98
603.47	409.59
603.62	435.34
603.78	344.06
603.94	430.66
604.09	397.89
604.25	447.04
604.40	470.45
604.56	395.55
604.71	425.98
604.87	386.19
605.03	463.43
605.18	393.21
605.34	454.06
605.49	411.93
605.65	395.55
605.80	402.57
605.96	423.64
606.12	390.87
606.27	430.66
606.43	355.76
606.58	440.02
606.74	414.27
606.89	346.40
607.05	461.09
607.20	407.25
607.36	390.87
607.51	346.40
607.67	409.59
607.82	456.40
607.98	381.51
608.13	447.04
608.29	433.00
608.44	447.04
608.60	444.70
608.75	470.45
608.91	386.19
609.06	433.00
609.22	472.79
609.37	428.32
609.53	486.83
609.68	334.70
609.84	379.17
609.99	423.64
610.15	437.68
