SpectraSuite Data File
++++++++++++++++++++++++++++++++++++
Date: Fri Oct 25 12:10:17 EDT 2013
User: price-jones
Dark Spectrum Present: No
Reference Spectrum Present: No
Number of Sampled Component Spectra: 1
Spectrometers: USB2+H05261
Integration Time (usec): 100000 (USB2+H05261)
Spectra Averaged: 1 (USB2+H05261)
Boxcar Smoothing: 0 (USB2+H05261)
Correct for Electrical Dark: No (USB2+H05261)
Strobe/Lamp Enabled: No (USB2+H05261)
Correct for Detector Non-linearity: No (USB2+H05261)
Correct for Stray Light: No (USB2+H05261)
Number of Pixels in Processed Spectrum: 2048
>>>>>Begin Processed Spectral Data<<<<<
365.73	341.72
365.92	341.72
366.12	341.72
366.32	220.01
366.52	212.99
366.72	243.42
366.91	147.45
367.11	313.63
367.31	280.86
367.51	248.10
367.70	224.69
367.90	217.67
368.10	234.05
368.30	205.97
368.49	236.39
368.69	294.91
368.89	271.50
369.09	241.08
369.28	285.55
369.48	229.37
369.68	278.52
369.87	301.93
370.07	346.40
370.27	351.08
370.47	348.74
370.66	341.72
370.86	365.12
371.06	301.93
371.25	376.83
371.45	327.68
371.65	365.12
371.84	341.72
372.04	330.02
372.24	463.43
372.44	397.89
372.63	425.98
372.83	374.49
373.03	330.02
373.22	407.25
373.42	416.62
373.62	418.96
373.81	421.30
374.01	437.68
374.21	367.46
374.40	472.79
374.60	482.15
374.79	418.96
374.99	414.27
375.19	437.68
375.38	374.49
375.58	351.08
375.78	533.64
375.97	435.34
376.17	425.98
376.37	390.87
376.56	428.32
376.76	386.19
376.95	369.80
377.15	409.59
377.35	407.25
377.54	393.21
377.74	454.06
377.93	442.36
378.13	348.74
378.33	435.34
378.52	355.76
378.72	400.23
378.91	468.11
379.11	388.53
379.31	395.55
379.50	416.62
379.70	414.27
379.89	437.68
380.09	409.59
380.28	454.06
380.48	374.49
380.68	425.98
380.87	348.74
381.07	411.93
381.26	477.47
381.46	355.76
381.65	407.25
381.85	353.42
382.04	411.93
382.24	433.00
382.43	400.23
382.63	379.17
382.83	374.49
383.02	416.62
383.22	463.43
383.41	383.85
383.61	337.04
383.80	477.47
384.00	372.15
384.19	423.64
384.39	433.00
384.58	465.77
384.78	433.00
384.97	475.13
385.17	421.30
385.36	339.38
385.56	395.55
385.75	365.12
385.95	388.53
386.14	383.85
386.34	379.17
386.53	393.21
386.72	425.98
386.92	437.68
387.11	440.02
387.31	454.06
387.50	372.15
387.70	416.62
387.89	386.19
388.09	393.21
388.28	353.42
388.48	379.17
388.67	444.70
388.86	400.23
389.06	379.17
389.25	421.30
389.45	414.27
389.64	362.78
389.84	388.53
390.03	468.11
390.22	437.68
390.42	388.53
390.61	397.89
390.81	365.12
391.00	430.66
391.19	395.55
391.39	383.85
391.58	369.80
391.78	369.80
391.97	444.70
392.16	479.81
392.36	402.57
392.55	374.49
392.75	402.57
392.94	463.43
393.13	425.98
393.33	437.68
393.52	390.87
393.71	409.59
393.91	388.53
394.10	374.49
394.29	386.19
394.49	400.23
394.68	400.23
394.88	442.36
395.07	322.99
395.26	430.66
395.46	362.78
395.65	489.17
395.84	440.02
396.04	442.36
396.23	421.30
396.42	440.02
396.62	444.70
396.81	425.98
397.00	374.49
397.19	330.02
397.39	386.19
397.58	430.66
397.77	367.46
397.97	381.51
398.16	468.11
398.35	367.46
398.55	397.89
398.74	393.21
398.93	416.62
399.12	362.78
399.32	374.49
399.51	456.40
399.70	472.79
399.90	510.24
400.09	351.08
400.28	486.83
400.47	409.59
400.67	491.51
400.86	397.89
401.05	454.06
401.24	381.51
401.44	411.93
401.63	458.74
401.82	386.19
402.01	346.40
402.21	423.64
402.40	395.55
402.59	397.89
402.78	397.89
402.97	379.17
403.17	414.27
403.36	374.49
403.55	395.55
403.74	397.89
403.93	388.53
404.13	447.04
404.32	435.34
404.51	409.59
404.70	369.80
404.89	411.93
405.09	430.66
405.28	325.33
405.47	397.89
405.66	346.40
405.85	433.00
406.05	339.38
406.24	442.36
406.43	447.04
406.62	442.36
406.81	454.06
407.00	458.74
407.20	383.85
407.39	393.21
407.58	447.04
407.77	397.89
407.96	397.89
408.15	353.42
408.34	351.08
408.54	407.25
408.73	374.49
408.92	409.59
409.11	411.93
409.30	454.06
409.49	414.27
409.68	407.25
409.87	421.30
410.07	421.30
410.26	444.70
410.45	372.15
410.64	388.53
410.83	440.02
411.02	330.02
411.21	388.53
411.40	458.74
411.59	444.70
411.78	362.78
411.98	353.42
412.17	369.80
412.36	440.02
412.55	421.30
412.74	395.55
412.93	416.62
413.12	386.19
413.31	449.38
413.50	411.93
413.69	386.19
413.88	358.10
414.07	369.80
414.26	423.64
414.45	379.17
414.64	386.19
414.83	451.72
415.02	402.57
415.22	440.02
415.41	395.55
415.60	390.87
415.79	472.79
415.98	388.53
416.17	381.51
416.36	414.27
416.55	409.59
416.74	390.87
416.93	376.83
417.12	407.25
417.31	376.83
417.50	397.89
417.69	393.21
417.88	454.06
418.07	355.76
418.26	374.49
418.45	407.25
418.64	468.11
418.83	454.06
419.02	358.10
419.21	318.31
419.39	409.59
419.58	379.17
419.77	409.59
419.96	404.91
420.15	447.04
420.34	498.53
420.53	456.40
420.72	381.51
420.91	402.57
421.10	444.70
421.29	414.27
421.48	390.87
421.67	318.31
421.86	395.55
422.05	379.17
422.24	390.87
422.43	407.25
422.61	430.66
422.80	430.66
422.99	479.81
423.18	390.87
423.37	395.55
423.56	416.62
423.75	369.80
423.94	402.57
424.13	400.23
424.32	299.59
424.50	437.68
424.69	486.83
424.88	512.58
425.07	313.63
425.26	465.77
425.45	341.72
425.64	430.66
425.83	383.85
426.01	421.30
426.20	414.27
426.39	449.38
426.58	360.44
426.77	400.23
426.96	444.70
427.15	374.49
427.33	381.51
427.52	409.59
427.71	402.57
427.90	400.23
428.09	388.53
428.28	386.19
428.46	365.12
428.65	491.51
428.84	353.42
429.03	428.32
429.22	433.00
429.40	374.49
429.59	442.36
429.78	411.93
429.97	421.30
430.16	376.83
430.34	416.62
430.53	449.38
430.72	435.34
430.91	447.04
431.10	365.12
431.28	386.19
431.47	376.83
431.66	388.53
431.85	351.08
432.03	430.66
432.22	477.47
432.41	365.12
432.60	409.59
432.79	461.09
432.97	437.68
433.16	381.51
433.35	330.02
433.54	393.21
433.72	388.53
433.91	407.25
434.10	372.15
434.28	418.96
434.47	423.64
434.66	456.40
434.85	447.04
435.03	449.38
435.22	421.30
435.41	454.06
435.59	367.46
435.78	341.72
435.97	416.62
436.16	407.25
436.34	428.32
436.53	374.49
436.72	411.93
436.90	451.72
437.09	367.46
437.28	400.23
437.46	404.91
437.65	437.68
437.84	418.96
438.02	458.74
438.21	463.43
438.40	358.10
438.58	395.55
438.77	435.34
438.96	395.55
439.14	390.87
439.33	461.09
439.52	454.06
439.70	440.02
439.89	409.59
440.08	451.72
440.26	414.27
440.45	362.78
440.63	402.57
440.82	376.83
441.01	402.57
441.19	447.04
441.38	414.27
441.57	337.04
441.75	383.85
441.94	430.66
442.12	369.80
442.31	287.89
442.50	421.30
442.68	374.49
442.87	407.25
443.05	456.40
443.24	411.93
443.43	416.62
443.61	397.89
443.80	435.34
443.98	416.62
444.17	381.51
444.35	425.98
444.54	454.06
444.73	362.78
444.91	402.57
445.10	355.76
445.28	421.30
445.47	425.98
445.65	461.09
445.84	428.32
446.02	379.17
446.21	416.62
446.39	409.59
446.58	430.66
446.77	395.55
446.95	472.79
447.14	397.89
447.32	454.06
447.51	456.40
447.69	435.34
447.88	383.85
448.06	433.00
448.25	395.55
448.43	425.98
448.62	369.80
448.80	404.91
448.99	470.45
449.17	404.91
449.36	402.57
449.54	428.32
449.73	386.19
449.91	388.53
450.10	421.30
450.28	505.56
450.46	355.76
450.65	430.66
450.83	395.55
451.02	444.70
451.20	395.55
451.39	374.49
451.57	468.11
451.76	449.38
451.94	360.44
452.13	404.91
452.31	510.24
452.49	430.66
452.68	374.49
452.86	393.21
453.05	425.98
453.23	374.49
453.42	379.17
453.60	395.55
453.78	418.96
453.97	470.45
454.15	416.62
454.34	433.00
454.52	355.76
454.70	447.04
454.89	402.57
455.07	388.53
455.26	442.36
455.44	440.02
455.62	358.10
455.81	423.64
455.99	376.83
456.17	444.70
456.36	390.87
456.54	379.17
456.73	386.19
456.91	458.74
457.09	458.74
457.28	395.55
457.46	362.78
457.64	355.76
457.83	383.85
458.01	402.57
458.19	407.25
458.38	433.00
458.56	418.96
458.74	458.74
458.93	409.59
459.11	402.57
459.29	425.98
459.48	376.83
459.66	472.79
459.84	421.30
460.03	503.22
460.21	437.68
460.39	411.93
460.57	486.83
460.76	472.79
460.94	433.00
461.12	402.57
461.31	400.23
461.49	451.72
461.67	442.36
461.85	425.98
462.04	414.27
462.22	786.42
462.40	388.53
462.59	449.38
462.77	390.87
462.95	374.49
463.13	449.38
463.32	435.34
463.50	451.72
463.68	447.04
463.86	379.17
464.05	388.53
464.23	397.89
464.41	376.83
464.59	388.53
464.78	433.00
464.96	437.68
465.14	425.98
465.32	393.21
465.50	386.19
465.69	435.34
465.87	330.02
466.05	458.74
466.23	461.09
466.41	430.66
466.60	365.12
466.78	383.85
466.96	475.13
467.14	383.85
467.32	449.38
467.51	400.23
467.69	411.93
467.87	407.25
468.05	428.32
468.23	498.53
468.41	451.72
468.60	383.85
468.78	393.21
468.96	411.93
469.14	386.19
469.32	409.59
469.50	414.27
469.69	433.00
469.87	456.40
470.05	449.38
470.23	418.96
470.41	322.99
470.59	386.19
470.77	451.72
470.95	409.59
471.14	437.68
471.32	451.72
471.50	433.00
471.68	383.85
471.86	468.11
472.04	444.70
472.22	456.40
472.40	355.76
472.58	393.21
472.77	421.30
472.95	400.23
473.13	465.77
473.31	456.40
473.49	465.77
473.67	383.85
473.85	404.91
474.03	428.32
474.21	430.66
474.39	402.57
474.57	461.09
474.75	397.89
474.93	376.83
475.12	449.38
475.30	367.46
475.48	421.30
475.66	437.68
475.84	358.10
476.02	425.98
476.20	390.87
476.38	409.59
476.56	500.87
476.74	360.44
476.92	383.85
477.10	400.23
477.28	475.13
477.46	414.27
477.64	407.25
477.82	416.62
478.00	463.43
478.18	437.68
478.36	444.70
478.54	437.68
478.72	337.04
478.90	379.17
479.08	416.62
479.26	425.98
479.44	440.02
479.62	397.89
479.80	418.96
479.98	341.72
480.16	454.06
480.34	491.51
480.52	428.32
480.70	402.57
480.88	517.26
481.06	449.38
481.24	414.27
481.41	388.53
481.59	428.32
481.77	374.49
481.95	463.43
482.13	458.74
482.31	421.30
482.49	374.49
482.67	437.68
482.85	393.21
483.03	418.96
483.21	465.77
483.39	425.98
483.57	372.15
483.74	468.11
483.92	360.44
484.10	418.96
484.28	468.11
484.46	482.15
484.64	416.62
484.82	447.04
485.00	383.85
485.18	451.72
485.35	421.30
485.53	327.68
485.71	372.15
485.89	435.34
486.07	360.44
486.25	468.11
486.43	395.55
486.61	451.72
486.78	355.76
486.96	358.10
487.14	444.70
487.32	416.62
487.50	341.72
487.68	409.59
487.85	430.66
488.03	475.13
488.21	461.09
488.39	409.59
488.57	484.49
488.75	465.77
488.92	517.26
489.10	454.06
489.28	428.32
489.46	400.23
489.64	407.25
489.81	442.36
489.99	341.72
490.17	411.93
490.35	447.04
490.53	451.72
490.70	351.08
490.88	379.17
491.06	395.55
491.24	482.15
491.41	477.47
491.59	409.59
491.77	355.76
491.95	423.64
492.13	276.18
492.30	390.87
492.48	308.95
492.66	390.87
492.84	362.78
493.01	367.46
493.19	386.19
493.37	447.04
493.54	454.06
493.72	505.56
493.90	444.70
494.08	409.59
494.25	388.53
494.43	344.06
494.61	334.70
494.79	374.49
494.96	390.87
495.14	442.36
495.32	447.04
495.49	355.76
495.67	440.02
495.85	369.80
496.02	383.85
496.20	388.53
496.38	465.77
496.55	484.49
496.73	393.21
496.91	395.55
497.09	468.11
497.26	465.77
497.44	444.70
497.62	372.15
497.79	440.02
497.97	454.06
498.14	444.70
498.32	486.83
498.50	409.59
498.67	397.89
498.85	402.57
499.03	423.64
499.20	414.27
499.38	365.12
499.56	407.25
499.73	475.13
499.91	486.83
500.08	463.43
500.26	451.72
500.44	367.46
500.61	416.62
500.79	423.64
500.97	468.11
501.14	428.32
501.32	386.19
501.49	395.55
501.67	402.57
501.84	414.27
502.02	381.51
502.20	397.89
502.37	379.17
502.55	418.96
502.72	386.19
502.90	425.98
503.07	528.96
503.25	376.83
503.43	360.44
503.60	409.59
503.78	440.02
503.95	414.27
504.13	360.44
504.30	444.70
504.48	449.38
504.65	428.32
504.83	386.19
505.01	440.02
505.18	433.00
505.36	428.32
505.53	435.34
505.71	337.04
505.88	411.93
506.06	381.51
506.23	393.21
506.41	409.59
506.58	400.23
506.76	465.77
506.93	404.91
507.11	421.30
507.28	433.00
507.46	339.38
507.63	395.55
507.81	376.83
507.98	386.19
508.16	484.49
508.33	493.85
508.50	498.53
508.68	454.06
508.85	367.46
509.03	381.51
509.20	524.28
509.38	407.25
509.55	454.06
509.73	470.45
509.90	320.65
510.08	379.17
510.25	435.34
510.42	358.10
510.60	388.53
510.77	437.68
510.95	348.74
511.12	423.64
511.30	390.87
511.47	414.27
511.64	409.59
511.82	400.23
511.99	407.25
512.17	449.38
512.34	437.68
512.51	341.72
512.69	383.85
512.86	433.00
513.04	330.02
513.21	362.78
513.38	402.57
513.56	402.57
513.73	442.36
513.90	425.98
514.08	372.15
514.25	444.70
514.43	409.59
514.60	393.21
514.77	437.68
514.95	475.13
515.12	381.51
515.29	458.74
515.47	344.06
515.64	465.77
515.81	407.25
515.99	397.89
516.16	433.00
516.33	451.72
516.51	449.38
516.68	393.21
516.85	325.33
517.03	428.32
517.20	456.40
517.37	372.15
517.54	390.87
517.72	390.87
517.89	416.62
518.06	435.34
518.24	482.15
518.41	472.79
518.58	423.64
518.75	376.83
518.93	351.08
519.10	379.17
519.27	379.17
519.45	449.38
519.62	465.77
519.79	458.74
519.96	435.34
520.14	402.57
520.31	376.83
520.48	381.51
520.65	395.55
520.83	449.38
521.00	402.57
521.17	409.59
521.34	416.62
521.52	442.36
521.69	451.72
521.86	402.57
522.03	390.87
522.20	407.25
522.38	402.57
522.55	381.51
522.72	397.89
522.89	430.66
523.07	390.87
523.24	360.44
523.41	386.19
523.58	360.44
523.75	458.74
523.92	418.96
524.10	437.68
524.27	458.74
524.44	433.00
524.61	486.83
524.78	381.51
524.96	442.36
525.13	463.43
525.30	386.19
525.47	421.30
525.64	393.21
525.81	414.27
525.98	433.00
526.16	402.57
526.33	322.99
526.50	379.17
526.67	404.91
526.84	400.23
527.01	423.64
527.18	449.38
527.36	397.89
527.53	416.62
527.70	433.00
527.87	440.02
528.04	400.23
528.21	369.80
528.38	369.80
528.55	489.17
528.72	463.43
528.89	390.87
529.07	411.93
529.24	404.91
529.41	379.17
529.58	383.85
529.75	416.62
529.92	475.13
530.09	449.38
530.26	454.06
530.43	440.02
530.60	414.27
530.77	430.66
530.94	372.15
531.11	437.68
531.28	430.66
531.46	451.72
531.63	491.51
531.80	421.30
531.97	454.06
532.14	425.98
532.31	390.87
532.48	458.74
532.65	423.64
532.82	367.46
532.99	327.68
533.16	390.87
533.33	400.23
533.50	454.06
533.67	346.40
533.84	447.04
534.01	390.87
534.18	355.76
534.35	327.68
534.52	430.66
534.69	421.30
534.86	440.02
535.03	411.93
535.20	414.27
535.37	386.19
535.54	388.53
535.71	407.25
535.88	423.64
536.05	367.46
536.22	482.15
536.38	414.27
536.55	451.72
536.72	425.98
536.89	430.66
537.06	430.66
537.23	416.62
537.40	388.53
537.57	411.93
537.74	421.30
537.91	449.38
538.08	423.64
538.25	444.70
538.42	430.66
538.59	486.83
538.75	383.85
538.92	430.66
539.09	444.70
539.26	372.15
539.43	451.72
539.60	404.91
539.77	428.32
539.94	411.93
540.11	470.45
540.28	442.36
540.44	416.62
540.61	404.91
540.78	421.30
540.95	395.55
541.12	390.87
541.29	416.62
541.46	456.40
541.62	440.02
541.79	358.10
541.96	388.53
542.13	449.38
542.30	425.98
542.47	437.68
542.63	395.55
542.80	409.59
542.97	395.55
543.14	421.30
543.31	388.53
543.48	463.43
543.64	437.68
543.81	472.79
543.98	407.25
544.15	390.87
544.32	463.43
544.48	416.62
544.65	395.55
544.82	449.38
544.99	468.11
545.16	404.91
545.32	383.85
545.49	433.00
545.66	425.98
545.83	367.46
546.00	390.87
546.16	447.04
546.33	402.57
546.50	430.66
546.67	444.70
546.83	369.80
547.00	414.27
547.17	435.34
547.34	428.32
547.50	330.02
547.67	442.36
547.84	402.57
548.00	423.64
548.17	423.64
548.34	437.68
548.51	381.51
548.67	353.42
548.84	437.68
549.01	444.70
549.18	383.85
549.34	393.21
549.51	376.83
549.68	423.64
549.84	475.13
550.01	425.98
550.18	535.98
550.34	362.78
550.51	395.55
550.68	414.27
550.84	379.17
551.01	428.32
551.18	411.93
551.34	362.78
551.51	320.65
551.68	411.93
551.84	414.27
552.01	386.19
552.18	351.08
552.34	337.04
552.51	423.64
552.68	395.55
552.84	416.62
553.01	512.58
553.18	472.79
553.34	475.13
553.51	440.02
553.67	428.32
553.84	372.15
554.01	470.45
554.17	407.25
554.34	374.49
554.51	414.27
554.67	383.85
554.84	409.59
555.00	383.85
555.17	355.76
555.33	414.27
555.50	463.43
555.67	437.68
555.83	395.55
556.00	421.30
556.16	559.39
556.33	435.34
556.50	451.72
556.66	437.68
556.83	374.49
556.99	395.55
557.16	418.96
557.32	444.70
557.49	334.70
557.65	465.77
557.82	369.80
557.98	404.91
558.15	421.30
558.32	416.62
558.48	442.36
558.65	386.19
558.81	477.47
558.98	374.49
559.14	411.93
559.31	430.66
559.47	468.11
559.64	489.17
559.80	430.66
559.97	404.91
560.13	400.23
560.30	362.78
560.46	355.76
560.63	493.85
560.79	430.66
560.96	435.34
561.12	400.23
561.29	465.77
561.45	404.91
561.61	423.64
561.78	435.34
561.94	395.55
562.11	430.66
562.27	397.89
562.44	425.98
562.60	430.66
562.77	428.32
562.93	397.89
563.10	479.81
563.26	334.70
563.42	425.98
563.59	451.72
563.75	484.49
563.92	442.36
564.08	416.62
564.24	411.93
564.41	407.25
564.57	388.53
564.74	341.72
564.90	442.36
565.07	386.19
565.23	369.80
565.39	428.32
565.56	437.68
565.72	418.96
565.88	437.68
566.05	428.32
566.21	376.83
566.38	416.62
566.54	395.55
566.70	374.49
566.87	461.09
567.03	442.36
567.19	421.30
567.36	322.99
567.52	440.02
567.68	397.89
567.85	444.70
568.01	402.57
568.17	461.09
568.34	409.59
568.50	407.25
568.66	416.62
568.83	547.69
568.99	388.53
569.15	411.93
569.32	404.91
569.48	355.76
569.64	400.23
569.81	407.25
569.97	517.26
570.13	444.70
570.30	381.51
570.46	423.64
570.62	433.00
570.78	330.02
570.95	409.59
571.11	486.83
571.27	447.04
571.43	409.59
571.60	437.68
571.76	404.91
571.92	369.80
572.09	388.53
572.25	449.38
572.41	449.38
572.57	423.64
572.74	395.55
572.90	355.76
573.06	458.74
573.22	423.64
573.38	479.81
573.55	500.87
573.71	465.77
573.87	433.00
574.03	376.83
574.20	423.64
574.36	510.24
574.52	444.70
574.68	433.00
574.84	409.59
575.01	449.38
575.17	353.42
575.33	454.06
575.49	390.87
575.65	463.43
575.82	383.85
575.98	402.57
576.14	390.87
576.30	393.21
576.46	465.77
576.62	407.25
576.79	437.68
576.95	507.90
577.11	437.68
577.27	451.72
577.43	468.11
577.59	475.13
577.75	397.89
577.92	440.02
578.08	472.79
578.24	383.85
578.40	425.98
578.56	433.00
578.72	440.02
578.88	360.44
579.04	400.23
579.21	374.49
579.37	442.36
579.53	437.68
579.69	421.30
579.85	447.04
580.01	437.68
580.17	447.04
580.33	437.68
580.49	440.02
580.65	423.64
580.82	435.34
580.98	372.15
581.14	381.51
581.30	428.32
581.46	358.10
581.62	475.13
581.78	372.15
581.94	444.70
582.10	456.40
582.26	470.45
582.42	425.98
582.58	409.59
582.74	390.87
582.90	381.51
583.06	411.93
583.22	325.33
583.38	414.27
583.54	353.42
583.70	409.59
583.86	484.49
584.02	477.47
584.18	458.74
584.34	454.06
584.50	383.85
584.66	383.85
584.82	402.57
584.98	456.40
585.14	421.30
585.30	397.89
585.46	456.40
585.62	372.15
585.78	346.40
585.94	416.62
586.10	482.15
586.26	423.64
586.42	393.21
586.58	409.59
586.74	409.59
586.90	414.27
587.06	404.91
587.22	416.62
587.38	390.87
587.54	458.74
587.70	449.38
587.86	425.98
588.02	379.17
588.18	428.32
588.34	461.09
588.49	447.04
588.65	425.98
588.81	414.27
588.97	367.46
589.13	421.30
589.29	416.62
589.45	388.53
589.61	514.92
589.77	411.93
589.93	425.98
590.08	458.74
590.24	360.44
590.40	468.11
590.56	454.06
590.72	423.64
590.88	369.80
591.04	383.85
591.20	444.70
591.35	447.04
591.51	372.15
591.67	435.34
591.83	407.25
591.99	433.00
592.15	414.27
592.31	423.64
592.46	383.85
592.62	458.74
592.78	416.62
592.94	421.30
593.10	409.59
593.26	430.66
593.41	442.36
593.57	393.21
593.73	421.30
593.89	458.74
594.05	397.89
594.20	433.00
594.36	411.93
594.52	301.93
594.68	388.53
594.84	454.06
594.99	449.38
595.15	433.00
595.31	425.98
595.47	409.59
595.62	397.89
595.78	418.96
595.94	395.55
596.10	402.57
596.25	409.59
596.41	447.04
596.57	449.38
596.73	390.87
596.88	507.90
597.04	390.87
597.20	486.83
597.36	449.38
597.51	400.23
597.67	440.02
597.83	454.06
597.99	442.36
598.14	379.17
598.30	409.59
598.46	442.36
598.61	397.89
598.77	451.72
598.93	400.23
599.09	416.62
599.24	430.66
599.40	440.02
599.56	397.89
599.71	482.15
599.87	383.85
600.03	428.32
600.18	365.12
600.34	346.40
600.50	374.49
600.65	388.53
600.81	425.98
600.97	411.93
601.12	407.25
601.28	498.53
601.44	407.25
601.59	454.06
601.75	449.38
601.91	425.98
602.06	444.70
602.22	421.30
602.37	454.06
602.53	395.55
602.69	383.85
602.84	454.06
603.00	437.68
603.16	414.27
603.31	456.40
603.47	433.00
603.62	454.06
603.78	390.87
603.94	451.72
604.09	435.34
604.25	400.23
604.40	421.30
604.56	414.27
604.71	484.49
604.87	433.00
605.03	386.19
605.18	393.21
605.34	442.36
605.49	407.25
605.65	411.93
605.80	484.49
605.96	400.23
606.12	407.25
606.27	402.57
606.43	397.89
606.58	461.09
606.74	435.34
606.89	400.23
607.05	362.78
607.20	421.30
607.36	470.45
607.51	421.30
607.67	353.42
607.82	416.62
607.98	479.81
608.13	444.70
608.29	461.09
608.44	477.47
608.60	461.09
608.75	505.56
608.91	477.47
609.06	351.08
609.22	425.98
609.37	388.53
609.53	397.89
609.68	414.27
609.84	472.79
609.99	454.06
610.15	433.00
