SpectraSuite Data File
++++++++++++++++++++++++++++++++++++
Date: Fri Oct 25 12:11:03 EDT 2013
User: price-jones
Dark Spectrum Present: No
Reference Spectrum Present: No
Number of Sampled Component Spectra: 1
Spectrometers: USB2+H05261
Integration Time (usec): 100000 (USB2+H05261)
Spectra Averaged: 1 (USB2+H05261)
Boxcar Smoothing: 0 (USB2+H05261)
Correct for Electrical Dark: No (USB2+H05261)
Strobe/Lamp Enabled: No (USB2+H05261)
Correct for Detector Non-linearity: No (USB2+H05261)
Correct for Stray Light: No (USB2+H05261)
Number of Pixels in Processed Spectrum: 2048
>>>>>Begin Processed Spectral Data<<<<<
365.73	355.76
365.92	355.76
366.12	355.76
366.32	304.27
366.52	229.37
366.72	301.93
366.91	250.44
367.11	255.12
367.31	220.01
367.51	189.58
367.70	245.76
367.90	245.76
368.10	217.67
368.30	264.48
368.49	241.08
368.69	262.14
368.89	236.39
369.09	264.48
369.28	304.27
369.48	243.42
369.68	280.86
369.87	285.55
370.07	269.16
370.27	301.93
370.47	341.72
370.66	341.72
370.86	346.40
371.06	341.72
371.25	393.21
371.45	318.31
371.65	388.53
371.84	308.95
372.04	320.65
372.24	416.62
372.44	404.91
372.63	351.08
372.83	468.11
373.03	433.00
373.22	390.87
373.42	447.04
373.62	470.45
373.81	414.27
374.01	409.59
374.21	411.93
374.40	454.06
374.60	458.74
374.79	390.87
374.99	463.43
375.19	393.21
375.38	442.36
375.58	409.59
375.78	395.55
375.97	421.30
376.17	465.77
376.37	402.57
376.56	397.89
376.76	374.49
376.95	461.09
377.15	521.94
377.35	369.80
377.54	411.93
377.74	407.25
377.93	388.53
378.13	411.93
378.33	437.68
378.52	383.85
378.72	372.15
378.91	379.17
379.11	454.06
379.31	402.57
379.50	421.30
379.70	435.34
379.89	421.30
380.09	383.85
380.28	407.25
380.48	351.08
380.68	477.47
380.87	395.55
381.07	374.49
381.26	407.25
381.46	397.89
381.65	491.51
381.85	393.21
382.04	379.17
382.24	430.66
382.43	397.89
382.63	372.15
382.83	416.62
383.02	447.04
383.22	491.51
383.41	358.10
383.61	430.66
383.80	425.98
384.00	465.77
384.19	383.85
384.39	341.72
384.58	456.40
384.78	433.00
384.97	437.68
385.17	369.80
385.36	367.46
385.56	386.19
385.75	362.78
385.95	428.32
386.14	360.44
386.34	353.42
386.53	418.96
386.72	376.83
386.92	433.00
387.11	411.93
387.31	435.34
387.50	423.64
387.70	402.57
387.89	451.72
388.09	418.96
388.28	379.17
388.48	458.74
388.67	421.30
388.86	433.00
389.06	458.74
389.25	339.38
389.45	358.10
389.64	437.68
389.84	402.57
390.03	433.00
390.22	369.80
390.42	381.51
390.61	388.53
390.81	447.04
391.00	407.25
391.19	411.93
391.39	386.19
391.58	468.11
391.78	383.85
391.97	372.15
392.16	393.21
392.36	447.04
392.55	449.38
392.75	358.10
392.94	421.30
393.13	330.02
393.33	376.83
393.52	428.32
393.71	386.19
393.91	484.49
394.10	344.06
394.29	447.04
394.49	416.62
394.68	463.43
394.88	423.64
395.07	498.53
395.26	482.15
395.46	393.21
395.65	397.89
395.84	388.53
396.04	484.49
396.23	442.36
396.42	416.62
396.62	395.55
396.81	430.66
397.00	355.76
397.19	437.68
397.39	404.91
397.58	376.83
397.77	407.25
397.97	433.00
398.16	470.45
398.35	367.46
398.55	397.89
398.74	425.98
398.93	388.53
399.12	383.85
399.32	381.51
399.51	360.44
399.70	353.42
399.90	425.98
400.09	383.85
400.28	397.89
400.47	407.25
400.67	386.19
400.86	402.57
401.05	416.62
401.24	498.53
401.44	428.32
401.63	315.97
401.82	430.66
402.01	393.21
402.21	433.00
402.40	430.66
402.59	376.83
402.78	379.17
402.97	416.62
403.17	367.46
403.36	404.91
403.55	379.17
403.74	395.55
403.93	428.32
404.13	433.00
404.32	428.32
404.51	393.21
404.70	435.34
404.89	411.93
405.09	465.77
405.28	388.53
405.47	404.91
405.66	423.64
405.85	365.12
406.05	414.27
406.24	418.96
406.43	388.53
406.62	397.89
406.81	374.49
407.00	449.38
407.20	433.00
407.39	433.00
407.58	365.12
407.77	456.40
407.96	411.93
408.15	362.78
408.34	365.12
408.54	433.00
408.73	465.77
408.92	449.38
409.11	423.64
409.30	433.00
409.49	369.80
409.68	416.62
409.87	344.06
410.07	388.53
410.26	376.83
410.45	454.06
410.64	337.04
410.83	416.62
411.02	449.38
411.21	409.59
411.40	402.57
411.59	374.49
411.78	339.38
411.98	360.44
412.17	313.63
412.36	400.23
412.55	341.72
412.74	423.64
412.93	486.83
413.12	388.53
413.31	454.06
413.50	435.34
413.69	418.96
413.88	379.17
414.07	425.98
414.26	390.87
414.45	423.64
414.64	540.66
414.83	414.27
415.02	472.79
415.22	430.66
415.41	393.21
415.60	376.83
415.79	407.25
415.98	433.00
416.17	477.47
416.36	358.10
416.55	458.74
416.74	440.02
416.93	458.74
417.12	367.46
417.31	404.91
417.50	421.30
417.69	376.83
417.88	315.97
418.07	421.30
418.26	458.74
418.45	393.21
418.64	451.72
418.83	418.96
419.02	379.17
419.21	390.87
419.39	496.19
419.58	496.19
419.77	390.87
419.96	414.27
420.15	484.49
420.34	435.34
420.53	470.45
420.72	404.91
420.91	351.08
421.10	414.27
421.29	400.23
421.48	477.47
421.67	475.13
421.86	468.11
422.05	437.68
422.24	351.08
422.43	376.83
422.61	430.66
422.80	397.89
422.99	397.89
423.18	458.74
423.37	440.02
423.56	393.21
423.75	470.45
423.94	442.36
424.13	437.68
424.32	430.66
424.50	442.36
424.69	458.74
424.88	458.74
425.07	386.19
425.26	418.96
425.45	383.85
425.64	353.42
425.83	367.46
426.01	414.27
426.20	425.98
426.39	390.87
426.58	360.44
426.77	437.68
426.96	442.36
427.15	414.27
427.33	383.85
427.52	388.53
427.71	414.27
427.90	393.21
428.09	435.34
428.28	430.66
428.46	475.13
428.65	435.34
428.84	383.85
429.03	379.17
429.22	491.51
429.40	383.85
429.59	381.51
429.78	435.34
429.97	393.21
430.16	425.98
430.34	479.81
430.53	437.68
430.72	386.19
430.91	411.93
431.10	428.32
431.28	414.27
431.47	411.93
431.66	454.06
431.85	423.64
432.03	390.87
432.22	449.38
432.41	397.89
432.60	454.06
432.79	425.98
432.97	395.55
433.16	381.51
433.35	362.78
433.54	409.59
433.72	416.62
433.91	395.55
434.10	402.57
434.28	369.80
434.47	435.34
434.66	437.68
434.85	409.59
435.03	393.21
435.22	461.09
435.41	449.38
435.59	355.76
435.78	433.00
435.97	388.53
436.16	374.49
436.34	442.36
436.53	397.89
436.72	447.04
436.90	482.15
437.09	411.93
437.28	465.77
437.46	381.51
437.65	470.45
437.84	500.87
438.02	521.94
438.21	411.93
438.40	376.83
438.58	449.38
438.77	407.25
438.96	393.21
439.14	463.43
439.33	425.98
439.52	393.21
439.70	395.55
439.89	407.25
440.08	433.00
440.26	402.57
440.45	379.17
440.63	451.72
440.82	386.19
441.01	390.87
441.19	376.83
441.38	386.19
441.57	505.56
441.75	383.85
441.94	461.09
442.12	491.51
442.31	407.25
442.50	428.32
442.68	390.87
442.87	393.21
443.05	379.17
443.24	353.42
443.43	416.62
443.61	388.53
443.80	397.89
443.98	369.80
444.17	414.27
444.35	390.87
444.54	407.25
444.73	383.85
444.91	418.96
445.10	421.30
445.28	430.66
445.47	362.78
445.65	362.78
445.84	402.57
446.02	470.45
446.21	367.46
446.39	402.57
446.58	442.36
446.77	409.59
446.95	428.32
447.14	486.83
447.32	393.21
447.51	400.23
447.69	395.55
447.88	507.90
448.06	442.36
448.25	421.30
448.43	407.25
448.62	411.93
448.80	404.91
448.99	395.55
449.17	376.83
449.36	390.87
449.54	411.93
449.73	386.19
449.91	461.09
450.10	437.68
450.28	393.21
450.46	411.93
450.65	353.42
450.83	444.70
451.02	372.15
451.20	421.30
451.39	411.93
451.57	444.70
451.76	397.89
451.94	414.27
452.13	447.04
452.31	454.06
452.49	428.32
452.68	395.55
452.86	388.53
453.05	489.17
453.23	470.45
453.42	397.89
453.60	411.93
453.78	451.72
453.97	379.17
454.15	318.31
454.34	425.98
454.52	372.15
454.70	489.17
454.89	435.34
455.07	360.44
455.26	447.04
455.44	393.21
455.62	404.91
455.81	489.17
455.99	423.64
456.17	484.49
456.36	411.93
456.54	334.70
456.73	409.59
456.91	360.44
457.09	397.89
457.28	411.93
457.46	362.78
457.64	444.70
457.83	360.44
458.01	367.46
458.19	400.23
458.38	397.89
458.56	428.32
458.74	376.83
458.93	433.00
459.11	365.12
459.29	489.17
459.48	407.25
459.66	463.43
459.84	449.38
460.03	472.79
460.21	374.49
460.39	496.19
460.57	470.45
460.76	374.49
460.94	409.59
461.12	390.87
461.31	454.06
461.49	421.30
461.67	379.17
461.85	409.59
462.04	402.57
462.22	763.01
462.40	397.89
462.59	428.32
462.77	414.27
462.95	414.27
463.13	348.74
463.32	362.78
463.50	379.17
463.68	395.55
463.86	449.38
464.05	397.89
464.23	482.15
464.41	514.92
464.59	456.40
464.78	407.25
464.96	425.98
465.14	463.43
465.32	409.59
465.50	416.62
465.69	498.53
465.87	418.96
466.05	416.62
466.23	407.25
466.41	344.06
466.60	449.38
466.78	433.00
466.96	332.36
467.14	414.27
467.32	442.36
467.51	437.68
467.69	484.49
467.87	484.49
468.05	313.63
468.23	433.00
468.41	411.93
468.60	449.38
468.78	388.53
468.96	421.30
469.14	423.64
469.32	442.36
469.50	489.17
469.69	393.21
469.87	339.38
470.05	372.15
470.23	360.44
470.41	449.38
470.59	365.12
470.77	428.32
470.95	472.79
471.14	442.36
471.32	430.66
471.50	414.27
471.68	435.34
471.86	430.66
472.04	390.87
472.22	315.97
472.40	400.23
472.58	440.02
472.77	369.80
472.95	400.23
473.13	456.40
473.31	461.09
473.49	454.06
473.67	376.83
473.85	376.83
474.03	433.00
474.21	449.38
474.39	421.30
474.57	390.87
474.75	489.17
474.93	381.51
475.12	449.38
475.30	465.77
475.48	428.32
475.66	395.55
475.84	430.66
476.02	346.40
476.20	397.89
476.38	416.62
476.56	538.32
476.74	463.43
476.92	484.49
477.10	407.25
477.28	435.34
477.46	390.87
477.64	440.02
477.82	468.11
478.00	418.96
478.18	418.96
478.36	437.68
478.54	386.19
478.72	428.32
478.90	409.59
479.08	318.31
479.26	376.83
479.44	381.51
479.62	388.53
479.80	327.68
479.98	444.70
480.16	393.21
480.34	440.02
480.52	388.53
480.70	411.93
480.88	383.85
481.06	433.00
481.24	407.25
481.41	390.87
481.59	486.83
481.77	486.83
481.95	360.44
482.13	449.38
482.31	390.87
482.49	362.78
482.67	444.70
482.85	503.22
483.03	362.78
483.21	435.34
483.39	330.02
483.57	369.80
483.74	383.85
483.92	344.06
484.10	346.40
484.28	423.64
484.46	479.81
484.64	482.15
484.82	447.04
485.00	390.87
485.18	374.49
485.35	433.00
485.53	444.70
485.71	484.49
485.89	383.85
486.07	449.38
486.25	472.79
486.43	449.38
486.61	360.44
486.78	369.80
486.96	428.32
487.14	433.00
487.32	390.87
487.50	407.25
487.68	449.38
487.85	414.27
488.03	468.11
488.21	421.30
488.39	425.98
488.57	404.91
488.75	468.11
488.92	505.56
489.10	409.59
489.28	496.19
489.46	418.96
489.64	407.25
489.81	503.22
489.99	388.53
490.17	444.70
490.35	425.98
490.53	376.83
490.70	444.70
490.88	386.19
491.06	479.81
491.24	433.00
491.41	454.06
491.59	444.70
491.77	468.11
491.95	400.23
492.13	383.85
492.30	435.34
492.48	402.57
492.66	369.80
492.84	440.02
493.01	437.68
493.19	407.25
493.37	470.45
493.54	409.59
493.72	428.32
493.90	367.46
494.08	430.66
494.25	358.10
494.43	433.00
494.61	325.33
494.79	353.42
494.96	437.68
495.14	418.96
495.32	447.04
495.49	428.32
495.67	451.72
495.85	447.04
496.02	437.68
496.20	458.74
496.38	505.56
496.55	430.66
496.73	358.10
496.91	447.04
497.09	327.68
497.26	423.64
497.44	435.34
497.62	421.30
497.79	442.36
497.97	442.36
498.14	430.66
498.32	484.49
498.50	397.89
498.67	337.04
498.85	372.15
499.03	437.68
499.20	416.62
499.38	388.53
499.56	425.98
499.73	477.47
499.91	383.85
500.08	430.66
500.26	388.53
500.44	442.36
500.61	479.81
500.79	407.25
500.97	475.13
501.14	428.32
501.32	433.00
501.49	416.62
501.67	514.92
501.84	404.91
502.02	425.98
502.20	395.55
502.37	454.06
502.55	428.32
502.72	423.64
502.90	444.70
503.07	383.85
503.25	423.64
503.43	395.55
503.60	421.30
503.78	358.10
503.95	421.30
504.13	404.91
504.30	416.62
504.48	444.70
504.65	400.23
504.83	404.91
505.01	334.70
505.18	428.32
505.36	402.57
505.53	390.87
505.71	346.40
505.88	395.55
506.06	402.57
506.23	388.53
506.41	416.62
506.58	428.32
506.76	428.32
506.93	397.89
507.11	402.57
507.28	327.68
507.46	334.70
507.63	393.21
507.81	411.93
507.98	428.32
508.16	393.21
508.33	346.40
508.50	470.45
508.68	435.34
508.85	383.85
509.03	435.34
509.20	482.15
509.38	376.83
509.55	517.26
509.73	433.00
509.90	442.36
510.08	468.11
510.25	440.02
510.42	327.68
510.60	444.70
510.77	374.49
510.95	425.98
511.12	430.66
511.30	383.85
511.47	425.98
511.64	454.06
511.82	390.87
511.99	376.83
512.17	308.95
512.34	442.36
512.51	409.59
512.69	416.62
512.86	461.09
513.04	475.13
513.21	418.96
513.38	395.55
513.56	397.89
513.73	407.25
513.90	425.98
514.08	383.85
514.25	449.38
514.43	397.89
514.60	388.53
514.77	337.04
514.95	468.11
515.12	358.10
515.29	404.91
515.47	395.55
515.64	444.70
515.81	447.04
515.99	397.89
516.16	407.25
516.33	400.23
516.51	400.23
516.68	454.06
516.85	411.93
517.03	407.25
517.20	437.68
517.37	421.30
517.54	449.38
517.72	411.93
517.89	379.17
518.06	304.27
518.24	440.02
518.41	348.74
518.58	440.02
518.75	362.78
518.93	440.02
519.10	447.04
519.27	437.68
519.45	437.68
519.62	435.34
519.79	383.85
519.96	456.40
520.14	493.85
520.31	479.81
520.48	461.09
520.65	430.66
520.83	404.91
521.00	400.23
521.17	451.72
521.34	465.77
521.52	437.68
521.69	444.70
521.86	421.30
522.03	479.81
522.20	437.68
522.38	437.68
522.55	367.46
522.72	341.72
522.89	454.06
523.07	477.47
523.24	393.21
523.41	470.45
523.58	433.00
523.75	430.66
523.92	454.06
524.10	416.62
524.27	428.32
524.44	407.25
524.61	404.91
524.78	383.85
524.96	411.93
525.13	442.36
525.30	456.40
525.47	374.49
525.64	414.27
525.81	414.27
525.98	449.38
526.16	465.77
526.33	440.02
526.50	376.83
526.67	451.72
526.84	379.17
527.01	386.19
527.18	425.98
527.36	451.72
527.53	430.66
527.70	451.72
527.87	496.19
528.04	465.77
528.21	409.59
528.38	402.57
528.55	493.85
528.72	428.32
528.89	468.11
529.07	418.96
529.24	447.04
529.41	430.66
529.58	479.81
529.75	517.26
529.92	425.98
530.09	463.43
530.26	367.46
530.43	351.08
530.60	463.43
530.77	442.36
530.94	477.47
531.11	447.04
531.28	442.36
531.46	393.21
531.63	470.45
531.80	421.30
531.97	339.38
532.14	449.38
532.31	440.02
532.48	416.62
532.65	449.38
532.82	386.19
532.99	458.74
533.16	362.78
533.33	400.23
533.50	355.76
533.67	425.98
533.84	440.02
534.01	463.43
534.18	379.17
534.35	355.76
534.52	435.34
534.69	407.25
534.86	376.83
535.03	461.09
535.20	444.70
535.37	381.51
535.54	461.09
535.71	418.96
535.88	421.30
536.05	418.96
536.22	407.25
536.38	351.08
536.55	348.74
536.72	379.17
536.89	414.27
537.06	397.89
537.23	447.04
537.40	437.68
537.57	411.93
537.74	521.94
537.91	414.27
538.08	351.08
538.25	395.55
538.42	402.57
538.59	440.02
538.75	437.68
538.92	433.00
539.09	407.25
539.26	365.12
539.43	468.11
539.60	400.23
539.77	400.23
539.94	409.59
540.11	414.27
540.28	489.17
540.44	470.45
540.61	458.74
540.78	430.66
540.95	372.15
541.12	503.22
541.29	430.66
541.46	442.36
541.62	416.62
541.79	369.80
541.96	362.78
542.13	374.49
542.30	358.10
542.47	367.46
542.63	390.87
542.80	430.66
542.97	447.04
543.14	423.64
543.31	416.62
543.48	358.10
543.64	442.36
543.81	421.30
543.98	437.68
544.15	416.62
544.32	397.89
544.48	456.40
544.65	437.68
544.82	379.17
544.99	379.17
545.16	449.38
545.32	418.96
545.49	397.89
545.66	430.66
545.83	440.02
546.00	428.32
546.16	374.49
546.33	367.46
546.50	404.91
546.67	433.00
546.83	362.78
547.00	390.87
547.17	397.89
547.34	376.83
547.50	458.74
547.67	425.98
547.84	430.66
548.00	409.59
548.17	447.04
548.34	416.62
548.51	447.04
548.67	486.83
548.84	482.15
549.01	421.30
549.18	418.96
549.34	416.62
549.51	444.70
549.68	472.79
549.84	383.85
550.01	400.23
550.18	482.15
550.34	477.47
550.51	414.27
550.68	496.19
550.84	472.79
551.01	407.25
551.18	416.62
551.34	393.21
551.51	421.30
551.68	393.21
551.84	465.77
552.01	402.57
552.18	428.32
552.34	425.98
552.51	475.13
552.68	379.17
552.84	390.87
553.01	404.91
553.18	489.17
553.34	411.93
553.51	456.40
553.67	386.19
553.84	433.00
554.01	465.77
554.17	435.34
554.34	421.30
554.51	418.96
554.67	418.96
554.84	428.32
555.00	376.83
555.17	440.02
555.33	402.57
555.50	456.40
555.67	369.80
555.83	449.38
556.00	407.25
556.16	521.94
556.33	425.98
556.50	430.66
556.66	433.00
556.83	433.00
556.99	383.85
557.16	454.06
557.32	411.93
557.49	372.15
557.65	440.02
557.82	468.11
557.98	449.38
558.15	411.93
558.32	381.51
558.48	360.44
558.65	376.83
558.81	444.70
558.98	414.27
559.14	395.55
559.31	456.40
559.47	369.80
559.64	353.42
559.80	414.27
559.97	402.57
560.13	421.30
560.30	388.53
560.46	454.06
560.63	355.76
560.79	437.68
560.96	430.66
561.12	433.00
561.29	444.70
561.45	360.44
561.61	425.98
561.78	484.49
561.94	414.27
562.11	334.70
562.27	500.87
562.44	367.46
562.60	454.06
562.77	411.93
562.93	435.34
563.10	414.27
563.26	362.78
563.42	395.55
563.59	414.27
563.75	379.17
563.92	395.55
564.08	486.83
564.24	475.13
564.41	435.34
564.57	374.49
564.74	393.21
564.90	430.66
565.07	435.34
565.23	425.98
565.39	418.96
565.56	425.98
565.72	449.38
565.88	404.91
566.05	358.10
566.21	421.30
566.38	447.04
566.54	423.64
566.70	472.79
566.87	376.83
567.03	435.34
567.19	376.83
567.36	428.32
567.52	447.04
567.68	430.66
567.85	428.32
568.01	451.72
568.17	423.64
568.34	383.85
568.50	425.98
568.66	430.66
568.83	484.49
568.99	451.72
569.15	430.66
569.32	386.19
569.48	461.09
569.64	360.44
569.81	451.72
569.97	421.30
570.13	365.12
570.30	407.25
570.46	360.44
570.62	339.38
570.78	498.53
570.95	353.42
571.11	372.15
571.27	409.59
571.43	374.49
571.60	418.96
571.76	372.15
571.92	465.77
572.09	404.91
572.25	418.96
572.41	447.04
572.57	383.85
572.74	428.32
572.90	454.06
573.06	374.49
573.22	409.59
573.38	383.85
573.55	395.55
573.71	440.02
573.87	435.34
574.03	456.40
574.20	454.06
574.36	421.30
574.52	475.13
574.68	400.23
574.84	442.36
575.01	416.62
575.17	390.87
575.33	409.59
575.49	470.45
575.65	402.57
575.82	414.27
575.98	475.13
576.14	381.51
576.30	437.68
576.46	381.51
576.62	383.85
576.79	451.72
576.95	397.89
577.11	465.77
577.27	386.19
577.43	472.79
577.59	428.32
577.75	383.85
577.92	358.10
578.08	386.19
578.24	430.66
578.40	482.15
578.56	472.79
578.72	428.32
578.88	486.83
579.04	430.66
579.21	414.27
579.37	468.11
579.53	433.00
579.69	365.12
579.85	383.85
580.01	411.93
580.17	423.64
580.33	397.89
580.49	409.59
580.65	379.17
580.82	355.76
580.98	433.00
581.14	416.62
581.30	421.30
581.46	360.44
581.62	376.83
581.78	449.38
581.94	372.15
582.10	414.27
582.26	374.49
582.42	402.57
582.58	416.62
582.74	404.91
582.90	395.55
583.06	425.98
583.22	479.81
583.38	344.06
583.54	433.00
583.70	437.68
583.86	313.63
584.02	444.70
584.18	390.87
584.34	369.80
584.50	341.72
584.66	383.85
584.82	360.44
584.98	411.93
585.14	454.06
585.30	463.43
585.46	409.59
585.62	447.04
585.78	428.32
585.94	411.93
586.10	461.09
586.26	404.91
586.42	386.19
586.58	463.43
586.74	465.77
586.90	470.45
587.06	381.51
587.22	416.62
587.38	468.11
587.54	430.66
587.70	440.02
587.86	421.30
588.02	454.06
588.18	440.02
588.34	400.23
588.49	393.21
588.65	447.04
588.81	388.53
588.97	428.32
589.13	397.89
589.29	437.68
589.45	404.91
589.61	409.59
589.77	449.38
589.93	386.19
590.08	461.09
590.24	409.59
590.40	400.23
590.56	362.78
590.72	437.68
590.88	388.53
591.04	482.15
591.20	458.74
591.35	458.74
591.51	369.80
591.67	468.11
591.83	428.32
591.99	421.30
592.15	409.59
592.31	428.32
592.46	390.87
592.62	479.81
592.78	411.93
592.94	468.11
593.10	355.76
593.26	449.38
593.41	355.76
593.57	442.36
593.73	369.80
593.89	404.91
594.05	421.30
594.20	425.98
594.36	369.80
594.52	430.66
594.68	451.72
594.84	374.49
594.99	444.70
595.15	430.66
595.31	388.53
595.47	430.66
595.62	521.94
595.78	358.10
595.94	433.00
596.10	451.72
596.25	461.09
596.41	421.30
596.57	383.85
596.73	351.08
596.88	425.98
597.04	367.46
597.20	416.62
597.36	442.36
597.51	393.21
597.67	404.91
597.83	367.46
597.99	468.11
598.14	334.70
598.30	411.93
598.46	395.55
598.61	414.27
598.77	395.55
598.93	360.44
599.09	472.79
599.24	418.96
599.40	449.38
599.56	390.87
599.71	414.27
599.87	344.06
600.03	477.47
600.18	362.78
600.34	411.93
600.50	449.38
600.65	423.64
600.81	447.04
600.97	367.46
601.12	393.21
601.28	437.68
601.44	449.38
601.59	433.00
601.75	435.34
601.91	421.30
602.06	486.83
602.22	550.03
602.37	449.38
602.53	440.02
602.69	414.27
602.84	388.53
603.00	395.55
603.16	479.81
603.31	416.62
603.47	428.32
603.62	416.62
603.78	414.27
603.94	425.98
604.09	376.83
604.25	416.62
604.40	437.68
604.56	390.87
604.71	444.70
604.87	362.78
605.03	407.25
605.18	390.87
605.34	397.89
605.49	428.32
605.65	451.72
605.80	383.85
605.96	470.45
606.12	348.74
606.27	447.04
606.43	430.66
606.58	411.93
606.74	458.74
606.89	468.11
607.05	454.06
607.20	411.93
607.36	395.55
607.51	421.30
607.67	463.43
607.82	451.72
607.98	433.00
608.13	369.80
608.29	411.93
608.44	397.89
608.60	397.89
608.75	430.66
608.91	407.25
609.06	451.72
609.22	397.89
609.37	430.66
609.53	400.23
609.68	369.80
609.84	440.02
609.99	407.25
610.15	386.19
