SpectraSuite Data File
++++++++++++++++++++++++++++++++++++
Date: Fri Oct 25 12:11:47 EDT 2013
User: price-jones
Dark Spectrum Present: No
Reference Spectrum Present: No
Number of Sampled Component Spectra: 1
Spectrometers: USB2+H05261
Integration Time (usec): 100000 (USB2+H05261)
Spectra Averaged: 1 (USB2+H05261)
Boxcar Smoothing: 0 (USB2+H05261)
Correct for Electrical Dark: No (USB2+H05261)
Strobe/Lamp Enabled: No (USB2+H05261)
Correct for Detector Non-linearity: No (USB2+H05261)
Correct for Stray Light: No (USB2+H05261)
Number of Pixels in Processed Spectrum: 2048
>>>>>Begin Processed Spectral Data<<<<<
365.73	358.10
365.92	358.10
366.12	358.10
366.32	229.37
366.52	276.18
366.72	285.55
366.91	220.01
367.11	238.73
367.31	205.97
367.51	250.44
367.70	238.73
367.90	283.20
368.10	273.84
368.30	250.44
368.49	227.03
368.69	252.78
368.89	271.50
369.09	285.55
369.28	257.46
369.48	203.63
369.68	220.01
369.87	306.61
370.07	187.24
370.27	355.76
370.47	360.44
370.66	318.31
370.86	379.17
371.06	318.31
371.25	355.76
371.45	367.46
371.65	330.02
371.84	346.40
372.04	458.74
372.24	433.00
372.44	428.32
372.63	463.43
372.83	440.02
373.03	400.23
373.22	440.02
373.42	447.04
373.62	320.65
373.81	411.93
374.01	468.11
374.21	440.02
374.40	409.59
374.60	461.09
374.79	388.53
374.99	423.64
375.19	425.98
375.38	365.12
375.58	414.27
375.78	376.83
375.97	482.15
376.17	479.81
376.37	404.91
376.56	395.55
376.76	397.89
376.95	376.83
377.15	393.21
377.35	376.83
377.54	437.68
377.74	372.15
377.93	472.79
378.13	414.27
378.33	304.27
378.52	348.74
378.72	456.40
378.91	407.25
379.11	365.12
379.31	358.10
379.50	440.02
379.70	383.85
379.89	388.53
380.09	337.04
380.28	346.40
380.48	388.53
380.68	425.98
380.87	379.17
381.07	416.62
381.26	442.36
381.46	393.21
381.65	339.38
381.85	365.12
382.04	444.70
382.24	414.27
382.43	444.70
382.63	435.34
382.83	465.77
383.02	400.23
383.22	461.09
383.41	386.19
383.61	346.40
383.80	489.17
384.00	444.70
384.19	337.04
384.39	383.85
384.58	360.44
384.78	421.30
384.97	423.64
385.17	449.38
385.36	442.36
385.56	327.68
385.75	379.17
385.95	414.27
386.14	447.04
386.34	339.38
386.53	402.57
386.72	379.17
386.92	449.38
387.11	407.25
387.31	435.34
387.50	409.59
387.70	390.87
387.89	397.89
388.09	386.19
388.28	376.83
388.48	393.21
388.67	479.81
388.86	440.02
389.06	428.32
389.25	442.36
389.45	421.30
389.64	425.98
389.84	456.40
390.03	395.55
390.22	393.21
390.42	367.46
390.61	388.53
390.81	393.21
391.00	383.85
391.19	365.12
391.39	386.19
391.58	440.02
391.78	463.43
391.97	479.81
392.16	425.98
392.36	386.19
392.55	437.68
392.75	433.00
392.94	365.12
393.13	437.68
393.33	479.81
393.52	395.55
393.71	477.47
393.91	400.23
394.10	430.66
394.29	447.04
394.49	402.57
394.68	351.08
394.88	372.15
395.07	451.72
395.26	393.21
395.46	435.34
395.65	386.19
395.84	369.80
396.04	514.92
396.23	397.89
396.42	381.51
396.62	418.96
396.81	414.27
397.00	416.62
397.19	404.91
397.39	411.93
397.58	435.34
397.77	411.93
397.97	402.57
398.16	423.64
398.35	390.87
398.55	442.36
398.74	472.79
398.93	407.25
399.12	411.93
399.32	315.97
399.51	400.23
399.70	341.72
399.90	463.43
400.09	463.43
400.28	500.87
400.47	461.09
400.67	440.02
400.86	386.19
401.05	400.23
401.24	367.46
401.44	388.53
401.63	365.12
401.82	414.27
402.01	397.89
402.21	409.59
402.40	393.21
402.59	430.66
402.78	376.83
402.97	351.08
403.17	402.57
403.36	440.02
403.55	428.32
403.74	390.87
403.93	381.51
404.13	397.89
404.32	390.87
404.51	402.57
404.70	430.66
404.89	341.72
405.09	451.72
405.28	435.34
405.47	395.55
405.66	472.79
405.85	463.43
406.05	414.27
406.24	404.91
406.43	430.66
406.62	393.21
406.81	454.06
407.00	447.04
407.20	435.34
407.39	428.32
407.58	388.53
407.77	388.53
407.96	447.04
408.15	414.27
408.34	362.78
408.54	451.72
408.73	355.76
408.92	383.85
409.11	416.62
409.30	418.96
409.49	440.02
409.68	339.38
409.87	409.59
410.07	404.91
410.26	409.59
410.45	444.70
410.64	444.70
410.83	425.98
411.02	407.25
411.21	416.62
411.40	383.85
411.59	367.46
411.78	395.55
411.98	437.68
412.17	404.91
412.36	407.25
412.55	395.55
412.74	428.32
412.93	411.93
413.12	444.70
413.31	423.64
413.50	355.76
413.69	486.83
413.88	514.92
414.07	376.83
414.26	421.30
414.45	454.06
414.64	416.62
414.83	440.02
415.02	458.74
415.22	489.17
415.41	433.00
415.60	409.59
415.79	397.89
415.98	397.89
416.17	351.08
416.36	402.57
416.55	433.00
416.74	435.34
416.93	407.25
417.12	456.40
417.31	421.30
417.50	418.96
417.69	437.68
417.88	475.13
418.07	428.32
418.26	423.64
418.45	381.51
418.64	430.66
418.83	421.30
419.02	444.70
419.21	409.59
419.39	475.13
419.58	442.36
419.77	327.68
419.96	451.72
420.15	451.72
420.34	362.78
420.53	440.02
420.72	475.13
420.91	393.21
421.10	376.83
421.29	465.77
421.48	440.02
421.67	479.81
421.86	428.32
422.05	491.51
422.24	442.36
422.43	447.04
422.61	397.89
422.80	430.66
422.99	355.76
423.18	407.25
423.37	456.40
423.56	322.99
423.75	458.74
423.94	411.93
424.13	381.51
424.32	290.23
424.50	454.06
424.69	376.83
424.88	435.34
425.07	402.57
425.26	383.85
425.45	496.19
425.64	407.25
425.83	404.91
426.01	358.10
426.20	404.91
426.39	477.47
426.58	383.85
426.77	372.15
426.96	461.09
427.15	388.53
427.33	444.70
427.52	416.62
427.71	414.27
427.90	425.98
428.09	449.38
428.28	430.66
428.46	449.38
428.65	444.70
428.84	404.91
429.03	430.66
429.22	440.02
429.40	383.85
429.59	407.25
429.78	451.72
429.97	409.59
430.16	362.78
430.34	421.30
430.53	397.89
430.72	379.17
430.91	444.70
431.10	369.80
431.28	390.87
431.47	444.70
431.66	428.32
431.85	451.72
432.03	409.59
432.22	463.43
432.41	475.13
432.60	423.64
432.79	348.74
432.97	416.62
433.16	444.70
433.35	404.91
433.54	344.06
433.72	390.87
433.91	444.70
434.10	388.53
434.28	407.25
434.47	381.51
434.66	423.64
434.85	372.15
435.03	404.91
435.22	423.64
435.41	440.02
435.59	477.47
435.78	433.00
435.97	461.09
436.16	404.91
436.34	353.42
436.53	344.06
436.72	341.72
436.90	393.21
437.09	409.59
437.28	416.62
437.46	444.70
437.65	493.85
437.84	423.64
438.02	472.79
438.21	365.12
438.40	418.96
438.58	416.62
438.77	418.96
438.96	477.47
439.14	369.80
439.33	463.43
439.52	374.49
439.70	400.23
439.89	425.98
440.08	444.70
440.26	409.59
440.45	493.85
440.63	397.89
440.82	390.87
441.01	479.81
441.19	444.70
441.38	440.02
441.57	395.55
441.75	468.11
441.94	430.66
442.12	430.66
442.31	437.68
442.50	430.66
442.68	465.77
442.87	477.47
443.05	402.57
443.24	472.79
443.43	397.89
443.61	470.45
443.80	421.30
443.98	369.80
444.17	407.25
444.35	404.91
444.54	348.74
444.73	458.74
444.91	374.49
445.10	393.21
445.28	376.83
445.47	362.78
445.65	425.98
445.84	430.66
446.02	407.25
446.21	383.85
446.39	355.76
446.58	437.68
446.77	440.02
446.95	416.62
447.14	379.17
447.32	437.68
447.51	381.51
447.69	379.17
447.88	442.36
448.06	451.72
448.25	397.89
448.43	390.87
448.62	409.59
448.80	449.38
448.99	458.74
449.17	409.59
449.36	351.08
449.54	407.25
449.73	414.27
449.91	486.83
450.10	444.70
450.28	479.81
450.46	456.40
450.65	395.55
450.83	395.55
451.02	440.02
451.20	341.72
451.39	442.36
451.57	407.25
451.76	365.12
451.94	353.42
452.13	390.87
452.31	416.62
452.49	470.45
452.68	425.98
452.86	423.64
453.05	433.00
453.23	407.25
453.42	458.74
453.60	423.64
453.78	325.33
453.97	421.30
454.15	372.15
454.34	425.98
454.52	376.83
454.70	468.11
454.89	425.98
455.07	369.80
455.26	390.87
455.44	400.23
455.62	463.43
455.81	498.53
455.99	365.12
456.17	449.38
456.36	425.98
456.54	379.17
456.73	433.00
456.91	325.33
457.09	348.74
457.28	407.25
457.46	402.57
457.64	425.98
457.83	381.51
458.01	365.12
458.19	402.57
458.38	470.45
458.56	369.80
458.74	421.30
458.93	440.02
459.11	379.17
459.29	437.68
459.48	397.89
459.66	428.32
459.84	372.15
460.03	447.04
460.21	414.27
460.39	477.47
460.57	411.93
460.76	397.89
460.94	437.68
461.12	442.36
461.31	400.23
461.49	423.64
461.67	362.78
461.85	458.74
462.04	444.70
462.22	692.80
462.40	393.21
462.59	381.51
462.77	416.62
462.95	395.55
463.13	379.17
463.32	512.58
463.50	397.89
463.68	437.68
463.86	362.78
464.05	440.02
464.23	374.49
464.41	433.00
464.59	442.36
464.78	402.57
464.96	440.02
465.14	470.45
465.32	407.25
465.50	433.00
465.69	447.04
465.87	407.25
466.05	416.62
466.23	400.23
466.41	456.40
466.60	402.57
466.78	442.36
466.96	484.49
467.14	507.90
467.32	468.11
467.51	461.09
467.69	465.77
467.87	409.59
468.05	435.34
468.23	447.04
468.41	423.64
468.60	454.06
468.78	390.87
468.96	449.38
469.14	440.02
469.32	376.83
469.50	346.40
469.69	425.98
469.87	433.00
470.05	437.68
470.23	449.38
470.41	374.49
470.59	435.34
470.77	428.32
470.95	393.21
471.14	451.72
471.32	430.66
471.50	465.77
471.68	449.38
471.86	449.38
472.04	425.98
472.22	402.57
472.40	388.53
472.58	365.12
472.77	374.49
472.95	458.74
473.13	454.06
473.31	404.91
473.49	407.25
473.67	465.77
473.85	414.27
474.03	430.66
474.21	451.72
474.39	407.25
474.57	440.02
474.75	351.08
474.93	360.44
475.12	416.62
475.30	430.66
475.48	430.66
475.66	435.34
475.84	360.44
476.02	444.70
476.20	461.09
476.38	444.70
476.56	472.79
476.74	418.96
476.92	428.32
477.10	397.89
477.28	407.25
477.46	505.56
477.64	430.66
477.82	458.74
478.00	407.25
478.18	390.87
478.36	407.25
478.54	449.38
478.72	461.09
478.90	437.68
479.08	409.59
479.26	407.25
479.44	437.68
479.62	458.74
479.80	472.79
479.98	388.53
480.16	390.87
480.34	381.51
480.52	404.91
480.70	414.27
480.88	414.27
481.06	409.59
481.24	421.30
481.41	472.79
481.59	376.83
481.77	362.78
481.95	442.36
482.13	421.30
482.31	437.68
482.49	442.36
482.67	468.11
482.85	402.57
483.03	383.85
483.21	449.38
483.39	397.89
483.57	440.02
483.74	447.04
483.92	409.59
484.10	346.40
484.28	437.68
484.46	447.04
484.64	414.27
484.82	423.64
485.00	365.12
485.18	437.68
485.35	454.06
485.53	409.59
485.71	421.30
485.89	388.53
486.07	379.17
486.25	461.09
486.43	451.72
486.61	479.81
486.78	470.45
486.96	390.87
487.14	418.96
487.32	416.62
487.50	395.55
487.68	447.04
487.85	360.44
488.03	475.13
488.21	376.83
488.39	470.45
488.57	489.17
488.75	393.21
488.92	493.85
489.10	435.34
489.28	491.51
489.46	362.78
489.64	390.87
489.81	421.30
489.99	428.32
490.17	461.09
490.35	444.70
490.53	477.47
490.70	430.66
490.88	437.68
491.06	475.13
491.24	376.83
491.41	416.62
491.59	360.44
491.77	428.32
491.95	423.64
492.13	418.96
492.30	461.09
492.48	444.70
492.66	411.93
492.84	362.78
493.01	390.87
493.19	381.51
493.37	397.89
493.54	411.93
493.72	465.77
493.90	409.59
494.08	407.25
494.25	435.34
494.43	369.80
494.61	367.46
494.79	472.79
494.96	386.19
495.14	440.02
495.32	411.93
495.49	433.00
495.67	456.40
495.85	449.38
496.02	362.78
496.20	430.66
496.38	456.40
496.55	458.74
496.73	444.70
496.91	358.10
497.09	435.34
497.26	425.98
497.44	421.30
497.62	454.06
497.79	416.62
497.97	472.79
498.14	407.25
498.32	409.59
498.50	428.32
498.67	491.51
498.85	477.47
499.03	395.55
499.20	493.85
499.38	430.66
499.56	414.27
499.73	456.40
499.91	461.09
500.08	440.02
500.26	458.74
500.44	430.66
500.61	454.06
500.79	362.78
500.97	414.27
501.14	393.21
501.32	454.06
501.49	468.11
501.67	454.06
501.84	423.64
502.02	421.30
502.20	433.00
502.37	475.13
502.55	400.23
502.72	472.79
502.90	430.66
503.07	430.66
503.25	414.27
503.43	421.30
503.60	437.68
503.78	463.43
503.95	341.72
504.13	454.06
504.30	430.66
504.48	447.04
504.65	477.47
504.83	454.06
505.01	498.53
505.18	414.27
505.36	355.76
505.53	447.04
505.71	374.49
505.88	421.30
506.06	423.64
506.23	376.83
506.41	456.40
506.58	411.93
506.76	435.34
506.93	409.59
507.11	425.98
507.28	362.78
507.46	381.51
507.63	433.00
507.81	418.96
507.98	407.25
508.16	376.83
508.33	444.70
508.50	400.23
508.68	388.53
508.85	433.00
509.03	404.91
509.20	332.36
509.38	400.23
509.55	440.02
509.73	447.04
509.90	411.93
510.08	386.19
510.25	362.78
510.42	425.98
510.60	425.98
510.77	315.97
510.95	479.81
511.12	388.53
511.30	397.89
511.47	442.36
511.64	447.04
511.82	458.74
511.99	414.27
512.17	404.91
512.34	411.93
512.51	409.59
512.69	390.87
512.86	437.68
513.04	393.21
513.21	514.92
513.38	400.23
513.56	416.62
513.73	411.93
513.90	390.87
514.08	414.27
514.25	425.98
514.43	353.42
514.60	376.83
514.77	437.68
514.95	456.40
515.12	437.68
515.29	456.40
515.47	498.53
515.64	442.36
515.81	402.57
515.99	425.98
516.16	465.77
516.33	442.36
516.51	468.11
516.68	381.51
516.85	451.72
517.03	379.17
517.20	489.17
517.37	423.64
517.54	430.66
517.72	409.59
517.89	440.02
518.06	411.93
518.24	477.47
518.41	528.96
518.58	454.06
518.75	379.17
518.93	374.49
519.10	365.12
519.27	411.93
519.45	416.62
519.62	463.43
519.79	411.93
519.96	430.66
520.14	376.83
520.31	400.23
520.48	447.04
520.65	376.83
520.83	395.55
521.00	451.72
521.17	430.66
521.34	465.77
521.52	383.85
521.69	423.64
521.86	447.04
522.03	393.21
522.20	475.13
522.38	425.98
522.55	381.51
522.72	397.89
522.89	463.43
523.07	449.38
523.24	358.10
523.41	458.74
523.58	362.78
523.75	341.72
523.92	440.02
524.10	367.46
524.27	397.89
524.44	411.93
524.61	442.36
524.78	409.59
524.96	477.47
525.13	461.09
525.30	435.34
525.47	468.11
525.64	400.23
525.81	404.91
525.98	393.21
526.16	414.27
526.33	402.57
526.50	461.09
526.67	400.23
526.84	372.15
527.01	418.96
527.18	395.55
527.36	425.98
527.53	362.78
527.70	376.83
527.87	339.38
528.04	500.87
528.21	491.51
528.38	407.25
528.55	444.70
528.72	423.64
528.89	470.45
529.07	416.62
529.24	390.87
529.41	418.96
529.58	442.36
529.75	386.19
529.92	484.49
530.09	411.93
530.26	472.79
530.43	421.30
530.60	383.85
530.77	468.11
530.94	461.09
531.11	475.13
531.28	397.89
531.46	367.46
531.63	418.96
531.80	402.57
531.97	397.89
532.14	409.59
532.31	451.72
532.48	400.23
532.65	449.38
532.82	428.32
532.99	372.15
533.16	414.27
533.33	442.36
533.50	444.70
533.67	388.53
533.84	411.93
534.01	451.72
534.18	461.09
534.35	444.70
534.52	486.83
534.69	444.70
534.86	484.49
535.03	393.21
535.20	437.68
535.37	482.15
535.54	498.53
535.71	407.25
535.88	421.30
536.05	423.64
536.22	428.32
536.38	411.93
536.55	418.96
536.72	332.36
536.89	425.98
537.06	416.62
537.23	344.06
537.40	423.64
537.57	376.83
537.74	433.00
537.91	407.25
538.08	372.15
538.25	416.62
538.42	388.53
538.59	458.74
538.75	393.21
538.92	472.79
539.09	475.13
539.26	416.62
539.43	493.85
539.60	404.91
539.77	388.53
539.94	402.57
540.11	486.83
540.28	425.98
540.44	440.02
540.61	491.51
540.78	435.34
540.95	407.25
541.12	463.43
541.29	423.64
541.46	517.26
541.62	402.57
541.79	470.45
541.96	437.68
542.13	407.25
542.30	409.59
542.47	423.64
542.63	402.57
542.80	444.70
542.97	390.87
543.14	470.45
543.31	461.09
543.48	393.21
543.64	416.62
543.81	393.21
543.98	423.64
544.15	341.72
544.32	430.66
544.48	414.27
544.65	451.72
544.82	435.34
544.99	454.06
545.16	482.15
545.32	428.32
545.49	386.19
545.66	402.57
545.83	381.51
546.00	433.00
546.16	376.83
546.33	482.15
546.50	362.78
546.67	433.00
546.83	465.77
547.00	409.59
547.17	470.45
547.34	388.53
547.50	395.55
547.67	430.66
547.84	482.15
548.00	428.32
548.17	397.89
548.34	395.55
548.51	409.59
548.67	330.02
548.84	386.19
549.01	379.17
549.18	411.93
549.34	458.74
549.51	458.74
549.68	447.04
549.84	435.34
550.01	402.57
550.18	418.96
550.34	447.04
550.51	411.93
550.68	524.28
550.84	402.57
551.01	367.46
551.18	395.55
551.34	379.17
551.51	442.36
551.68	393.21
551.84	365.12
552.01	395.55
552.18	430.66
552.34	411.93
552.51	451.72
552.68	500.87
552.84	362.78
553.01	435.34
553.18	400.23
553.34	435.34
553.51	442.36
553.67	421.30
553.84	381.51
554.01	472.79
554.17	390.87
554.34	411.93
554.51	365.12
554.67	479.81
554.84	449.38
555.00	418.96
555.17	409.59
555.33	367.46
555.50	404.91
555.67	327.68
555.83	402.57
556.00	404.91
556.16	561.73
556.33	461.09
556.50	409.59
556.66	433.00
556.83	390.87
556.99	376.83
557.16	421.30
557.32	428.32
557.49	449.38
557.65	372.15
557.82	386.19
557.98	421.30
558.15	411.93
558.32	461.09
558.48	449.38
558.65	409.59
558.81	461.09
558.98	409.59
559.14	416.62
559.31	425.98
559.47	461.09
559.64	374.49
559.80	397.89
559.97	414.27
560.13	440.02
560.30	379.17
560.46	393.21
560.63	416.62
560.79	442.36
560.96	440.02
561.12	386.19
561.29	435.34
561.45	421.30
561.61	465.77
561.78	507.90
561.94	383.85
562.11	442.36
562.27	442.36
562.44	428.32
562.60	456.40
562.77	414.27
562.93	475.13
563.10	393.21
563.26	442.36
563.42	465.77
563.59	421.30
563.75	358.10
563.92	402.57
564.08	367.46
564.24	472.79
564.41	421.30
564.57	435.34
564.74	454.06
564.90	386.19
565.07	465.77
565.23	409.59
565.39	435.34
565.56	407.25
565.72	433.00
565.88	423.64
566.05	470.45
566.21	409.59
566.38	428.32
566.54	500.87
566.70	491.51
566.87	440.02
567.03	369.80
567.19	425.98
567.36	461.09
567.52	407.25
567.68	388.53
567.85	465.77
568.01	418.96
568.17	397.89
568.34	393.21
568.50	470.45
568.66	409.59
568.83	461.09
568.99	421.30
569.15	475.13
569.32	376.83
569.48	465.77
569.64	442.36
569.81	416.62
569.97	407.25
570.13	341.72
570.30	407.25
570.46	458.74
570.62	407.25
570.78	416.62
570.95	449.38
571.11	447.04
571.27	430.66
571.43	409.59
571.60	484.49
571.76	416.62
571.92	418.96
572.09	409.59
572.25	365.12
572.41	407.25
572.57	400.23
572.74	386.19
572.90	425.98
573.06	404.91
573.22	421.30
573.38	423.64
573.55	425.98
573.71	491.51
573.87	418.96
574.03	334.70
574.20	369.80
574.36	472.79
574.52	386.19
574.68	395.55
574.84	449.38
575.01	437.68
575.17	486.83
575.33	395.55
575.49	418.96
575.65	444.70
575.82	433.00
575.98	456.40
576.14	414.27
576.30	435.34
576.46	433.00
576.62	428.32
576.79	430.66
576.95	454.06
577.11	454.06
577.27	444.70
577.43	414.27
577.59	409.59
577.75	355.76
577.92	454.06
578.08	484.49
578.24	348.74
578.40	332.36
578.56	449.38
578.72	479.81
578.88	374.49
579.04	423.64
579.21	444.70
579.37	428.32
579.53	407.25
579.69	435.34
579.85	400.23
580.01	416.62
580.17	390.87
580.33	447.04
580.49	421.30
580.65	341.72
580.82	400.23
580.98	414.27
581.14	404.91
581.30	421.30
581.46	374.49
581.62	456.40
581.78	433.00
581.94	456.40
582.10	437.68
582.26	395.55
582.42	351.08
582.58	409.59
582.74	346.40
582.90	423.64
583.06	404.91
583.22	442.36
583.38	472.79
583.54	411.93
583.70	374.49
583.86	395.55
584.02	400.23
584.18	430.66
584.34	461.09
584.50	454.06
584.66	379.17
584.82	409.59
584.98	421.30
585.14	409.59
585.30	458.74
585.46	447.04
585.62	423.64
585.78	383.85
585.94	425.98
586.10	425.98
586.26	393.21
586.42	374.49
586.58	397.89
586.74	423.64
586.90	379.17
587.06	358.10
587.22	433.00
587.38	447.04
587.54	393.21
587.70	388.53
587.86	465.77
588.02	367.46
588.18	397.89
588.34	334.70
588.49	376.83
588.65	444.70
588.81	402.57
588.97	313.63
589.13	402.57
589.29	425.98
589.45	430.66
589.61	433.00
589.77	440.02
589.93	407.25
590.08	444.70
590.24	393.21
590.40	365.12
590.56	484.49
590.72	411.93
590.88	409.59
591.04	421.30
591.20	430.66
591.35	447.04
591.51	421.30
591.67	395.55
591.83	414.27
591.99	409.59
592.15	421.30
592.31	430.66
592.46	463.43
592.62	479.81
592.78	400.23
592.94	470.45
593.10	472.79
593.26	372.15
593.41	435.34
593.57	463.43
593.73	440.02
593.89	489.17
594.05	393.21
594.20	421.30
594.36	456.40
594.52	395.55
594.68	454.06
594.84	407.25
594.99	440.02
595.15	454.06
595.31	409.59
595.47	521.94
595.62	444.70
595.78	395.55
595.94	404.91
596.10	500.87
596.25	402.57
596.41	416.62
596.57	362.78
596.73	395.55
596.88	463.43
597.04	451.72
597.20	397.89
597.36	491.51
597.51	365.12
597.67	421.30
597.83	362.78
597.99	479.81
598.14	430.66
598.30	456.40
598.46	440.02
598.61	423.64
598.77	404.91
598.93	315.97
599.09	425.98
599.24	425.98
599.40	486.83
599.56	440.02
599.71	407.25
599.87	447.04
600.03	416.62
600.18	397.89
600.34	416.62
600.50	365.12
600.65	447.04
600.81	444.70
600.97	332.36
601.12	369.80
601.28	451.72
601.44	463.43
601.59	369.80
601.75	425.98
601.91	437.68
602.06	407.25
602.22	507.90
602.37	442.36
602.53	358.10
602.69	423.64
602.84	428.32
603.00	418.96
603.16	372.15
603.31	409.59
603.47	423.64
603.62	444.70
603.78	430.66
603.94	435.34
604.09	435.34
604.25	393.21
604.40	451.72
604.56	407.25
604.71	489.17
604.87	421.30
605.03	451.72
605.18	447.04
605.34	407.25
605.49	393.21
605.65	433.00
605.80	440.02
605.96	416.62
606.12	390.87
606.27	507.90
606.43	433.00
606.58	428.32
606.74	409.59
606.89	397.89
607.05	376.83
607.20	409.59
607.36	383.85
607.51	390.87
607.67	313.63
607.82	430.66
607.98	388.53
608.13	421.30
608.29	423.64
608.44	428.32
608.60	395.55
608.75	386.19
608.91	327.68
609.06	430.66
609.22	437.68
609.37	358.10
609.53	440.02
609.68	423.64
609.84	428.32
609.99	468.11
610.15	477.47
