SpectraSuite Data File
++++++++++++++++++++++++++++++++++++
Date: Fri Oct 25 12:10:55 EDT 2013
User: price-jones
Dark Spectrum Present: No
Reference Spectrum Present: No
Number of Sampled Component Spectra: 1
Spectrometers: USB2+H05261
Integration Time (usec): 100000 (USB2+H05261)
Spectra Averaged: 1 (USB2+H05261)
Boxcar Smoothing: 0 (USB2+H05261)
Correct for Electrical Dark: No (USB2+H05261)
Strobe/Lamp Enabled: No (USB2+H05261)
Correct for Detector Non-linearity: No (USB2+H05261)
Correct for Stray Light: No (USB2+H05261)
Number of Pixels in Processed Spectrum: 2048
>>>>>Begin Processed Spectral Data<<<<<
365.73	360.44
365.92	360.44
366.12	360.44
366.32	266.82
366.52	250.44
366.72	201.29
366.91	224.69
367.11	201.29
367.31	191.92
367.51	196.60
367.70	212.99
367.90	248.10
368.10	252.78
368.30	210.65
368.49	234.05
368.69	198.95
368.89	236.39
369.09	203.63
369.28	304.27
369.48	322.99
369.68	339.38
369.87	325.33
370.07	259.80
370.27	322.99
370.47	320.65
370.66	390.87
370.86	330.02
371.06	369.80
371.25	465.77
371.45	341.72
371.65	397.89
371.84	414.27
372.04	374.49
372.24	372.15
372.44	463.43
372.63	360.44
372.83	463.43
373.03	381.51
373.22	365.12
373.42	433.00
373.62	421.30
373.81	458.74
374.01	475.13
374.21	449.38
374.40	449.38
374.60	463.43
374.79	400.23
374.99	512.58
375.19	416.62
375.38	418.96
375.58	355.76
375.78	486.83
375.97	407.25
376.17	411.93
376.37	416.62
376.56	444.70
376.76	355.76
376.95	337.04
377.15	482.15
377.35	369.80
377.54	402.57
377.74	458.74
377.93	386.19
378.13	376.83
378.33	465.77
378.52	397.89
378.72	351.08
378.91	332.36
379.11	435.34
379.31	416.62
379.50	421.30
379.70	465.77
379.89	400.23
380.09	454.06
380.28	433.00
380.48	468.11
380.68	416.62
380.87	369.80
381.07	433.00
381.26	449.38
381.46	400.23
381.65	451.72
381.85	393.21
382.04	407.25
382.24	418.96
382.43	369.80
382.63	458.74
382.83	442.36
383.02	411.93
383.22	461.09
383.41	421.30
383.61	414.27
383.80	435.34
384.00	395.55
384.19	421.30
384.39	395.55
384.58	411.93
384.78	442.36
384.97	451.72
385.17	465.77
385.36	369.80
385.56	433.00
385.75	414.27
385.95	353.42
386.14	456.40
386.34	479.81
386.53	454.06
386.72	430.66
386.92	423.64
387.11	379.17
387.31	430.66
387.50	440.02
387.70	411.93
387.89	458.74
388.09	477.47
388.28	327.68
388.48	397.89
388.67	454.06
388.86	400.23
389.06	390.87
389.25	353.42
389.45	409.59
389.64	425.98
389.84	327.68
390.03	418.96
390.22	423.64
390.42	425.98
390.61	435.34
390.81	451.72
391.00	341.72
391.19	444.70
391.39	449.38
391.58	449.38
391.78	416.62
391.97	435.34
392.16	409.59
392.36	400.23
392.55	414.27
392.75	404.91
392.94	404.91
393.13	425.98
393.33	397.89
393.52	372.15
393.71	411.93
393.91	465.77
394.10	351.08
394.29	351.08
394.49	404.91
394.68	433.00
394.88	442.36
395.07	465.77
395.26	353.42
395.46	416.62
395.65	339.38
395.84	435.34
396.04	449.38
396.23	428.32
396.42	463.43
396.62	411.93
396.81	442.36
397.00	447.04
397.19	376.83
397.39	437.68
397.58	454.06
397.77	362.78
397.97	330.02
398.16	409.59
398.35	456.40
398.55	418.96
398.74	449.38
398.93	400.23
399.12	353.42
399.32	430.66
399.51	344.06
399.70	395.55
399.90	414.27
400.09	379.17
400.28	383.85
400.47	437.68
400.67	386.19
400.86	395.55
401.05	418.96
401.24	458.74
401.44	472.79
401.63	313.63
401.82	386.19
402.01	404.91
402.21	407.25
402.40	440.02
402.59	430.66
402.78	404.91
402.97	320.65
403.17	367.46
403.36	409.59
403.55	407.25
403.74	428.32
403.93	334.70
404.13	418.96
404.32	388.53
404.51	400.23
404.70	421.30
404.89	407.25
405.09	423.64
405.28	433.00
405.47	381.51
405.66	430.66
405.85	393.21
406.05	358.10
406.24	383.85
406.43	425.98
406.62	489.17
406.81	526.62
407.00	442.36
407.20	390.87
407.39	407.25
407.58	351.08
407.77	428.32
407.96	393.21
408.15	418.96
408.34	407.25
408.54	390.87
408.73	418.96
408.92	383.85
409.11	390.87
409.30	433.00
409.49	444.70
409.68	458.74
409.87	400.23
410.07	472.79
410.26	463.43
410.45	416.62
410.64	376.83
410.83	395.55
411.02	376.83
411.21	442.36
411.40	435.34
411.59	386.19
411.78	395.55
411.98	379.17
412.17	372.15
412.36	435.34
412.55	397.89
412.74	447.04
412.93	465.77
413.12	374.49
413.31	407.25
413.50	430.66
413.69	411.93
413.88	362.78
414.07	498.53
414.26	447.04
414.45	386.19
414.64	390.87
414.83	381.51
415.02	416.62
415.22	416.62
415.41	435.34
415.60	369.80
415.79	444.70
415.98	430.66
416.17	418.96
416.36	447.04
416.55	433.00
416.74	444.70
416.93	430.66
417.12	400.23
417.31	379.17
417.50	409.59
417.69	470.45
417.88	411.93
418.07	451.72
418.26	482.15
418.45	444.70
418.64	416.62
418.83	362.78
419.02	430.66
419.21	512.58
419.39	418.96
419.58	332.36
419.77	414.27
419.96	379.17
420.15	442.36
420.34	376.83
420.53	414.27
420.72	442.36
420.91	383.85
421.10	409.59
421.29	351.08
421.48	388.53
421.67	388.53
421.86	390.87
422.05	409.59
422.24	379.17
422.43	449.38
422.61	390.87
422.80	435.34
422.99	421.30
423.18	376.83
423.37	421.30
423.56	409.59
423.75	433.00
423.94	454.06
424.13	376.83
424.32	397.89
424.50	433.00
424.69	397.89
424.88	409.59
425.07	315.97
425.26	381.51
425.45	442.36
425.64	367.46
425.83	390.87
426.01	442.36
426.20	447.04
426.39	386.19
426.58	376.83
426.77	461.09
426.96	470.45
427.15	440.02
427.33	454.06
427.52	390.87
427.71	472.79
427.90	463.43
428.09	449.38
428.28	416.62
428.46	409.59
428.65	458.74
428.84	414.27
429.03	402.57
429.22	376.83
429.40	379.17
429.59	360.44
429.78	493.85
429.97	451.72
430.16	353.42
430.34	454.06
430.53	358.10
430.72	351.08
430.91	458.74
431.10	449.38
431.28	367.46
431.47	414.27
431.66	393.21
431.85	421.30
432.03	360.44
432.22	393.21
432.41	423.64
432.60	383.85
432.79	393.21
432.97	379.17
433.16	393.21
433.35	428.32
433.54	381.51
433.72	421.30
433.91	407.25
434.10	397.89
434.28	414.27
434.47	430.66
434.66	376.83
434.85	503.22
435.03	463.43
435.22	416.62
435.41	416.62
435.59	407.25
435.78	409.59
435.97	411.93
436.16	407.25
436.34	404.91
436.53	454.06
436.72	421.30
436.90	456.40
437.09	409.59
437.28	475.13
437.46	444.70
437.65	393.21
437.84	404.91
438.02	435.34
438.21	472.79
438.40	425.98
438.58	402.57
438.77	421.30
438.96	512.58
439.14	423.64
439.33	479.81
439.52	437.68
439.70	379.17
439.89	421.30
440.08	430.66
440.26	376.83
440.45	463.43
440.63	456.40
440.82	482.15
441.01	376.83
441.19	493.85
441.38	437.68
441.57	402.57
441.75	477.47
441.94	447.04
442.12	365.12
442.31	404.91
442.50	362.78
442.68	358.10
442.87	376.83
443.05	346.40
443.24	376.83
443.43	390.87
443.61	414.27
443.80	440.02
443.98	367.46
444.17	472.79
444.35	393.21
444.54	388.53
444.73	421.30
444.91	463.43
445.10	360.44
445.28	437.68
445.47	477.47
445.65	388.53
445.84	430.66
446.02	461.09
446.21	440.02
446.39	430.66
446.58	376.83
446.77	407.25
446.95	433.00
447.14	376.83
447.32	369.80
447.51	388.53
447.69	442.36
447.88	418.96
448.06	493.85
448.25	465.77
448.43	433.00
448.62	381.51
448.80	425.98
448.99	447.04
449.17	360.44
449.36	433.00
449.54	355.76
449.73	395.55
449.91	407.25
450.10	428.32
450.28	407.25
450.46	395.55
450.65	425.98
450.83	393.21
451.02	402.57
451.20	421.30
451.39	524.28
451.57	421.30
451.76	430.66
451.94	372.15
452.13	376.83
452.31	418.96
452.49	348.74
452.68	362.78
452.86	447.04
453.05	442.36
453.23	395.55
453.42	393.21
453.60	425.98
453.78	456.40
453.97	386.19
454.15	407.25
454.34	404.91
454.52	411.93
454.70	440.02
454.89	428.32
455.07	440.02
455.26	414.27
455.44	465.77
455.62	407.25
455.81	418.96
455.99	414.27
456.17	428.32
456.36	400.23
456.54	418.96
456.73	458.74
456.91	433.00
457.09	449.38
457.28	386.19
457.46	360.44
457.64	496.19
457.83	416.62
458.01	367.46
458.19	376.83
458.38	306.61
458.56	400.23
458.74	351.08
458.93	393.21
459.11	367.46
459.29	369.80
459.48	386.19
459.66	435.34
459.84	472.79
460.03	440.02
460.21	346.40
460.39	407.25
460.57	381.51
460.76	404.91
460.94	472.79
461.12	561.73
461.31	470.45
461.49	367.46
461.67	430.66
461.85	407.25
462.04	435.34
462.22	788.76
462.40	348.74
462.59	425.98
462.77	365.12
462.95	374.49
463.13	451.72
463.32	414.27
463.50	423.64
463.68	372.15
463.86	414.27
464.05	299.59
464.23	397.89
464.41	418.96
464.59	421.30
464.78	435.34
464.96	372.15
465.14	397.89
465.32	421.30
465.50	451.72
465.69	442.36
465.87	430.66
466.05	451.72
466.23	393.21
466.41	390.87
466.60	404.91
466.78	393.21
466.96	393.21
467.14	442.36
467.32	507.90
467.51	442.36
467.69	496.19
467.87	514.92
468.05	454.06
468.23	442.36
468.41	423.64
468.60	433.00
468.78	470.45
468.96	395.55
469.14	386.19
469.32	416.62
469.50	475.13
469.69	433.00
469.87	479.81
470.05	404.91
470.23	449.38
470.41	390.87
470.59	414.27
470.77	433.00
470.95	407.25
471.14	423.64
471.32	454.06
471.50	409.59
471.68	482.15
471.86	416.62
472.04	444.70
472.22	449.38
472.40	374.49
472.58	395.55
472.77	374.49
472.95	505.56
473.13	510.24
473.31	411.93
473.49	393.21
473.67	397.89
473.85	416.62
474.03	435.34
474.21	358.10
474.39	447.04
474.57	383.85
474.75	456.40
474.93	407.25
475.12	397.89
475.30	433.00
475.48	402.57
475.66	428.32
475.84	437.68
476.02	440.02
476.20	449.38
476.38	395.55
476.56	461.09
476.74	454.06
476.92	416.62
477.10	400.23
477.28	449.38
477.46	468.11
477.64	416.62
477.82	393.21
478.00	449.38
478.18	393.21
478.36	486.83
478.54	400.23
478.72	376.83
478.90	369.80
479.08	395.55
479.26	477.47
479.44	402.57
479.62	367.46
479.80	376.83
479.98	421.30
480.16	456.40
480.34	402.57
480.52	407.25
480.70	433.00
480.88	428.32
481.06	435.34
481.24	390.87
481.41	449.38
481.59	437.68
481.77	409.59
481.95	442.36
482.13	402.57
482.31	444.70
482.49	416.62
482.67	472.79
482.85	367.46
483.03	454.06
483.21	437.68
483.39	386.19
483.57	397.89
483.74	430.66
483.92	428.32
484.10	365.12
484.28	418.96
484.46	447.04
484.64	447.04
484.82	430.66
485.00	365.12
485.18	383.85
485.35	411.93
485.53	360.44
485.71	397.89
485.89	416.62
486.07	407.25
486.25	379.17
486.43	489.17
486.61	416.62
486.78	475.13
486.96	369.80
487.14	411.93
487.32	404.91
487.50	395.55
487.68	416.62
487.85	337.04
488.03	423.64
488.21	454.06
488.39	330.02
488.57	425.98
488.75	400.23
488.92	486.83
489.10	447.04
489.28	404.91
489.46	433.00
489.64	407.25
489.81	416.62
489.99	416.62
490.17	435.34
490.35	418.96
490.53	428.32
490.70	379.17
490.88	418.96
491.06	416.62
491.24	383.85
491.41	404.91
491.59	447.04
491.77	451.72
491.95	372.15
492.13	400.23
492.30	418.96
492.48	344.06
492.66	440.02
492.84	428.32
493.01	397.89
493.19	437.68
493.37	458.74
493.54	372.15
493.72	479.81
493.90	388.53
494.08	360.44
494.25	344.06
494.43	421.30
494.61	416.62
494.79	430.66
494.96	407.25
495.14	383.85
495.32	404.91
495.49	353.42
495.67	407.25
495.85	409.59
496.02	400.23
496.20	390.87
496.38	428.32
496.55	409.59
496.73	440.02
496.91	458.74
497.09	435.34
497.26	395.55
497.44	433.00
497.62	423.64
497.79	348.74
497.97	449.38
498.14	383.85
498.32	435.34
498.50	416.62
498.67	353.42
498.85	390.87
499.03	409.59
499.20	416.62
499.38	428.32
499.56	470.45
499.73	449.38
499.91	470.45
500.08	451.72
500.26	379.17
500.44	479.81
500.61	430.66
500.79	447.04
500.97	404.91
501.14	383.85
501.32	397.89
501.49	468.11
501.67	388.53
501.84	369.80
502.02	386.19
502.20	430.66
502.37	463.43
502.55	404.91
502.72	430.66
502.90	468.11
503.07	360.44
503.25	425.98
503.43	418.96
503.60	456.40
503.78	388.53
503.95	383.85
504.13	435.34
504.30	416.62
504.48	442.36
504.65	388.53
504.83	421.30
505.01	397.89
505.18	395.55
505.36	456.40
505.53	409.59
505.71	353.42
505.88	409.59
506.06	428.32
506.23	449.38
506.41	447.04
506.58	407.25
506.76	430.66
506.93	414.27
507.11	365.12
507.28	360.44
507.46	388.53
507.63	433.00
507.81	372.15
507.98	348.74
508.16	395.55
508.33	435.34
508.50	428.32
508.68	435.34
508.85	430.66
509.03	360.44
509.20	416.62
509.38	390.87
509.55	430.66
509.73	423.64
509.90	418.96
510.08	411.93
510.25	454.06
510.42	428.32
510.60	374.49
510.77	470.45
510.95	425.98
511.12	365.12
511.30	365.12
511.47	374.49
511.64	379.17
511.82	414.27
511.99	505.56
512.17	322.99
512.34	425.98
512.51	393.21
512.69	358.10
512.86	468.11
513.04	418.96
513.21	430.66
513.38	416.62
513.56	367.46
513.73	444.70
513.90	475.13
514.08	423.64
514.25	496.19
514.43	372.15
514.60	381.51
514.77	472.79
514.95	489.17
515.12	418.96
515.29	454.06
515.47	381.51
515.64	468.11
515.81	376.83
515.99	454.06
516.16	411.93
516.33	507.90
516.51	341.72
516.68	393.21
516.85	465.77
517.03	435.34
517.20	407.25
517.37	386.19
517.54	402.57
517.72	358.10
517.89	435.34
518.06	400.23
518.24	510.24
518.41	475.13
518.58	498.53
518.75	477.47
518.93	475.13
519.10	456.40
519.27	444.70
519.45	442.36
519.62	369.80
519.79	430.66
519.96	381.51
520.14	421.30
520.31	458.74
520.48	372.15
520.65	395.55
520.83	400.23
521.00	425.98
521.17	395.55
521.34	388.53
521.52	440.02
521.69	472.79
521.86	355.76
522.03	418.96
522.20	468.11
522.38	404.91
522.55	414.27
522.72	449.38
522.89	442.36
523.07	435.34
523.24	470.45
523.41	407.25
523.58	393.21
523.75	365.12
523.92	365.12
524.10	414.27
524.27	449.38
524.44	407.25
524.61	393.21
524.78	428.32
524.96	404.91
525.13	400.23
525.30	430.66
525.47	411.93
525.64	360.44
525.81	400.23
525.98	421.30
526.16	404.91
526.33	320.65
526.50	397.89
526.67	327.68
526.84	400.23
527.01	416.62
527.18	416.62
527.36	402.57
527.53	386.19
527.70	390.87
527.87	365.12
528.04	477.47
528.21	397.89
528.38	447.04
528.55	430.66
528.72	437.68
528.89	402.57
529.07	479.81
529.24	447.04
529.41	393.21
529.58	372.15
529.75	365.12
529.92	456.40
530.09	454.06
530.26	383.85
530.43	407.25
530.60	428.32
530.77	376.83
530.94	395.55
531.11	409.59
531.28	472.79
531.46	397.89
531.63	330.02
531.80	407.25
531.97	440.02
532.14	393.21
532.31	376.83
532.48	461.09
532.65	437.68
532.82	428.32
532.99	409.59
533.16	425.98
533.33	461.09
533.50	393.21
533.67	505.56
533.84	404.91
534.01	454.06
534.18	376.83
534.35	348.74
534.52	442.36
534.69	414.27
534.86	465.77
535.03	395.55
535.20	418.96
535.37	409.59
535.54	437.68
535.71	395.55
535.88	447.04
536.05	433.00
536.22	404.91
536.38	463.43
536.55	442.36
536.72	421.30
536.89	379.17
537.06	409.59
537.23	388.53
537.40	463.43
537.57	374.49
537.74	484.49
537.91	374.49
538.08	388.53
538.25	454.06
538.42	423.64
538.59	400.23
538.75	437.68
538.92	393.21
539.09	386.19
539.26	381.51
539.43	397.89
539.60	435.34
539.77	498.53
539.94	449.38
540.11	491.51
540.28	414.27
540.44	543.00
540.61	402.57
540.78	367.46
540.95	341.72
541.12	447.04
541.29	369.80
541.46	493.85
541.62	395.55
541.79	390.87
541.96	407.25
542.13	430.66
542.30	337.04
542.47	414.27
542.63	400.23
542.80	379.17
542.97	428.32
543.14	421.30
543.31	411.93
543.48	367.46
543.64	482.15
543.81	458.74
543.98	491.51
544.15	390.87
544.32	440.02
544.48	411.93
544.65	348.74
544.82	388.53
544.99	381.51
545.16	411.93
545.32	442.36
545.49	447.04
545.66	451.72
545.83	325.33
546.00	390.87
546.16	365.12
546.33	374.49
546.50	442.36
546.67	440.02
546.83	433.00
547.00	397.89
547.17	339.38
547.34	440.02
547.50	435.34
547.67	334.70
547.84	299.59
548.00	458.74
548.17	367.46
548.34	444.70
548.51	461.09
548.67	402.57
548.84	388.53
549.01	451.72
549.18	393.21
549.34	430.66
549.51	367.46
549.68	411.93
549.84	409.59
550.01	440.02
550.18	517.26
550.34	461.09
550.51	437.68
550.68	505.56
550.84	351.08
551.01	425.98
551.18	416.62
551.34	414.27
551.51	414.27
551.68	475.13
551.84	416.62
552.01	402.57
552.18	404.91
552.34	423.64
552.51	383.85
552.68	386.19
552.84	482.15
553.01	447.04
553.18	447.04
553.34	402.57
553.51	407.25
553.67	428.32
553.84	407.25
554.01	369.80
554.17	418.96
554.34	421.30
554.51	416.62
554.67	404.91
554.84	484.49
555.00	400.23
555.17	311.29
555.33	407.25
555.50	423.64
555.67	435.34
555.83	402.57
556.00	449.38
556.16	566.41
556.33	383.85
556.50	416.62
556.66	395.55
556.83	435.34
556.99	376.83
557.16	411.93
557.32	470.45
557.49	416.62
557.65	397.89
557.82	386.19
557.98	428.32
558.15	376.83
558.32	447.04
558.48	418.96
558.65	463.43
558.81	418.96
558.98	449.38
559.14	528.96
559.31	444.70
559.47	449.38
559.64	461.09
559.80	416.62
559.97	428.32
560.13	484.49
560.30	404.91
560.46	376.83
560.63	369.80
560.79	421.30
560.96	421.30
561.12	397.89
561.29	491.51
561.45	440.02
561.61	430.66
561.78	435.34
561.94	444.70
562.11	414.27
562.27	514.92
562.44	421.30
562.60	430.66
562.77	388.53
562.93	442.36
563.10	421.30
563.26	409.59
563.42	442.36
563.59	433.00
563.75	411.93
563.92	386.19
564.08	407.25
564.24	447.04
564.41	404.91
564.57	379.17
564.74	507.90
564.90	411.93
565.07	430.66
565.23	449.38
565.39	479.81
565.56	383.85
565.72	344.06
565.88	472.79
566.05	421.30
566.21	463.43
566.38	400.23
566.54	416.62
566.70	407.25
566.87	397.89
567.03	381.51
567.19	393.21
567.36	465.77
567.52	411.93
567.68	433.00
567.85	416.62
568.01	423.64
568.17	433.00
568.34	451.72
568.50	451.72
568.66	341.72
568.83	484.49
568.99	388.53
569.15	362.78
569.32	430.66
569.48	447.04
569.64	397.89
569.81	390.87
569.97	440.02
570.13	465.77
570.30	454.06
570.46	465.77
570.62	435.34
570.78	402.57
570.95	428.32
571.11	479.81
571.27	484.49
571.43	362.78
571.60	416.62
571.76	433.00
571.92	407.25
572.09	397.89
572.25	411.93
572.41	430.66
572.57	425.98
572.74	465.77
572.90	414.27
573.06	435.34
573.22	423.64
573.38	425.98
573.55	395.55
573.71	414.27
573.87	376.83
574.03	425.98
574.20	414.27
574.36	500.87
574.52	442.36
574.68	393.21
574.84	416.62
575.01	390.87
575.17	472.79
575.33	475.13
575.49	519.60
575.65	442.36
575.82	386.19
575.98	421.30
576.14	411.93
576.30	468.11
576.46	414.27
576.62	425.98
576.79	433.00
576.95	395.55
577.11	400.23
577.27	418.96
577.43	407.25
577.59	435.34
577.75	447.04
577.92	334.70
578.08	407.25
578.24	456.40
578.40	369.80
578.56	482.15
578.72	428.32
578.88	390.87
579.04	411.93
579.21	379.17
579.37	421.30
579.53	447.04
579.69	409.59
579.85	393.21
580.01	423.64
580.17	440.02
580.33	409.59
580.49	430.66
580.65	470.45
580.82	479.81
580.98	482.15
581.14	386.19
581.30	428.32
581.46	479.81
581.62	348.74
581.78	383.85
581.94	409.59
582.10	379.17
582.26	348.74
582.42	376.83
582.58	358.10
582.74	428.32
582.90	440.02
583.06	372.15
583.22	379.17
583.38	372.15
583.54	358.10
583.70	456.40
583.86	430.66
584.02	416.62
584.18	514.92
584.34	381.51
584.50	440.02
584.66	386.19
584.82	369.80
584.98	362.78
585.14	386.19
585.30	444.70
585.46	444.70
585.62	409.59
585.78	421.30
585.94	409.59
586.10	440.02
586.26	479.81
586.42	421.30
586.58	437.68
586.74	447.04
586.90	433.00
587.06	447.04
587.22	433.00
587.38	421.30
587.54	503.22
587.70	402.57
587.86	402.57
588.02	475.13
588.18	447.04
588.34	421.30
588.49	411.93
588.65	386.19
588.81	489.17
588.97	344.06
589.13	451.72
589.29	369.80
589.45	472.79
589.61	447.04
589.77	418.96
589.93	395.55
590.08	414.27
590.24	433.00
590.40	416.62
590.56	451.72
590.72	383.85
590.88	367.46
591.04	365.12
591.20	362.78
591.35	388.53
591.51	360.44
591.67	444.70
591.83	423.64
591.99	421.30
592.15	507.90
592.31	416.62
592.46	447.04
592.62	458.74
592.78	348.74
592.94	470.45
593.10	404.91
593.26	386.19
593.41	461.09
593.57	442.36
593.73	437.68
593.89	425.98
594.05	430.66
594.20	393.21
594.36	458.74
594.52	388.53
594.68	430.66
594.84	425.98
594.99	425.98
595.15	388.53
595.31	416.62
595.47	442.36
595.62	423.64
595.78	425.98
595.94	355.76
596.10	425.98
596.25	454.06
596.41	390.87
596.57	358.10
596.73	411.93
596.88	486.83
597.04	416.62
597.20	393.21
597.36	435.34
597.51	400.23
597.67	440.02
597.83	381.51
597.99	489.17
598.14	418.96
598.30	379.17
598.46	369.80
598.61	330.02
598.77	463.43
598.93	365.12
599.09	430.66
599.24	397.89
599.40	388.53
599.56	428.32
599.71	442.36
599.87	468.11
600.03	468.11
600.18	390.87
600.34	402.57
600.50	332.36
600.65	468.11
600.81	400.23
600.97	393.21
601.12	411.93
601.28	491.51
601.44	442.36
601.59	440.02
601.75	362.78
601.91	374.49
602.06	486.83
602.22	479.81
602.37	475.13
602.53	383.85
602.69	454.06
602.84	451.72
603.00	346.40
603.16	465.77
603.31	451.72
603.47	458.74
603.62	416.62
603.78	437.68
603.94	472.79
604.09	332.36
604.25	456.40
604.40	461.09
604.56	404.91
604.71	374.49
604.87	416.62
605.03	411.93
605.18	456.40
605.34	381.51
605.49	433.00
605.65	374.49
605.80	442.36
605.96	393.21
606.12	440.02
606.27	397.89
606.43	421.30
606.58	411.93
606.74	477.47
606.89	376.83
607.05	451.72
607.20	362.78
607.36	393.21
607.51	388.53
607.67	449.38
607.82	381.51
607.98	454.06
608.13	411.93
608.29	461.09
608.44	346.40
608.60	395.55
608.75	425.98
608.91	489.17
609.06	404.91
609.22	491.51
609.37	451.72
609.53	416.62
609.68	428.32
609.84	454.06
609.99	437.68
610.15	435.34
