SpectraSuite Data File
++++++++++++++++++++++++++++++++++++
Date: Fri Oct 25 12:10:36 EDT 2013
User: price-jones
Dark Spectrum Present: No
Reference Spectrum Present: No
Number of Sampled Component Spectra: 1
Spectrometers: USB2+H05261
Integration Time (usec): 100000 (USB2+H05261)
Spectra Averaged: 1 (USB2+H05261)
Boxcar Smoothing: 0 (USB2+H05261)
Correct for Electrical Dark: No (USB2+H05261)
Strobe/Lamp Enabled: No (USB2+H05261)
Correct for Detector Non-linearity: No (USB2+H05261)
Correct for Stray Light: No (USB2+H05261)
Number of Pixels in Processed Spectrum: 2048
>>>>>Begin Processed Spectral Data<<<<<
365.73	304.27
365.92	304.27
366.12	304.27
366.32	238.73
366.52	264.48
366.72	294.91
366.91	212.99
367.11	217.67
367.31	269.16
367.51	238.73
367.70	259.80
367.90	229.37
368.10	189.58
368.30	208.31
368.49	252.78
368.69	304.27
368.89	301.93
369.09	198.95
369.28	297.25
369.48	203.63
369.68	248.10
369.87	294.91
370.07	266.82
370.27	313.63
370.47	304.27
370.66	313.63
370.86	351.08
371.06	383.85
371.25	379.17
371.45	355.76
371.65	367.46
371.84	404.91
372.04	388.53
372.24	388.53
372.44	351.08
372.63	409.59
372.83	390.87
373.03	393.21
373.22	477.47
373.42	425.98
373.62	430.66
373.81	456.40
374.01	416.62
374.21	486.83
374.40	437.68
374.60	383.85
374.79	437.68
374.99	442.36
375.19	379.17
375.38	440.02
375.58	367.46
375.78	447.04
375.97	425.98
376.17	425.98
376.37	449.38
376.56	393.21
376.76	414.27
376.95	388.53
377.15	435.34
377.35	388.53
377.54	435.34
377.74	374.49
377.93	468.11
378.13	411.93
378.33	435.34
378.52	428.32
378.72	470.45
378.91	416.62
379.11	360.44
379.31	355.76
379.50	407.25
379.70	372.15
379.89	421.30
380.09	400.23
380.28	339.38
380.48	376.83
380.68	374.49
380.87	355.76
381.07	362.78
381.26	402.57
381.46	388.53
381.65	421.30
381.85	404.91
382.04	430.66
382.24	425.98
382.43	367.46
382.63	425.98
382.83	353.42
383.02	402.57
383.22	404.91
383.41	365.12
383.61	322.99
383.80	437.68
384.00	423.64
384.19	407.25
384.39	437.68
384.58	376.83
384.78	430.66
384.97	444.70
385.17	402.57
385.36	428.32
385.56	407.25
385.75	381.51
385.95	442.36
386.14	400.23
386.34	418.96
386.53	395.55
386.72	374.49
386.92	449.38
387.11	407.25
387.31	423.64
387.50	447.04
387.70	440.02
387.89	407.25
388.09	379.17
388.28	414.27
388.48	339.38
388.67	475.13
388.86	440.02
389.06	472.79
389.25	442.36
389.45	409.59
389.64	365.12
389.84	414.27
390.03	355.76
390.22	411.93
390.42	411.93
390.61	437.68
390.81	386.19
391.00	395.55
391.19	400.23
391.39	458.74
391.58	374.49
391.78	421.30
391.97	425.98
392.16	421.30
392.36	395.55
392.55	423.64
392.75	433.00
392.94	442.36
393.13	395.55
393.33	383.85
393.52	379.17
393.71	458.74
393.91	442.36
394.10	400.23
394.29	362.78
394.49	376.83
394.68	423.64
394.88	442.36
395.07	386.19
395.26	411.93
395.46	430.66
395.65	404.91
395.84	461.09
396.04	395.55
396.23	461.09
396.42	404.91
396.62	418.96
396.81	402.57
397.00	337.04
397.19	383.85
397.39	397.89
397.58	456.40
397.77	404.91
397.97	367.46
398.16	397.89
398.35	449.38
398.55	468.11
398.74	393.21
398.93	428.32
399.12	433.00
399.32	442.36
399.51	421.30
399.70	440.02
399.90	423.64
400.09	344.06
400.28	379.17
400.47	322.99
400.67	456.40
400.86	358.10
401.05	334.70
401.24	362.78
401.44	416.62
401.63	421.30
401.82	430.66
402.01	409.59
402.21	313.63
402.40	470.45
402.59	369.80
402.78	433.00
402.97	430.66
403.17	411.93
403.36	428.32
403.55	430.66
403.74	435.34
403.93	451.72
404.13	484.49
404.32	416.62
404.51	423.64
404.70	353.42
404.89	444.70
405.09	416.62
405.28	402.57
405.47	421.30
405.66	390.87
405.85	486.83
406.05	402.57
406.24	428.32
406.43	383.85
406.62	369.80
406.81	500.87
407.00	416.62
407.20	428.32
407.39	407.25
407.58	402.57
407.77	388.53
407.96	400.23
408.15	423.64
408.34	472.79
408.54	418.96
408.73	411.93
408.92	517.26
409.11	421.30
409.30	528.96
409.49	360.44
409.68	409.59
409.87	374.49
410.07	397.89
410.26	479.81
410.45	418.96
410.64	381.51
410.83	390.87
411.02	411.93
411.21	411.93
411.40	458.74
411.59	404.91
411.78	425.98
411.98	397.89
412.17	416.62
412.36	430.66
412.55	372.15
412.74	433.00
412.93	447.04
413.12	461.09
413.31	435.34
413.50	437.68
413.69	400.23
413.88	421.30
414.07	416.62
414.26	383.85
414.45	425.98
414.64	442.36
414.83	461.09
415.02	491.51
415.22	482.15
415.41	374.49
415.60	397.89
415.79	367.46
415.98	433.00
416.17	442.36
416.36	404.91
416.55	355.76
416.74	416.62
416.93	379.17
417.12	425.98
417.31	440.02
417.50	451.72
417.69	425.98
417.88	390.87
418.07	409.59
418.26	425.98
418.45	454.06
418.64	409.59
418.83	491.51
419.02	402.57
419.21	416.62
419.39	472.79
419.58	367.46
419.77	402.57
419.96	444.70
420.15	430.66
420.34	400.23
420.53	346.40
420.72	383.85
420.91	411.93
421.10	468.11
421.29	369.80
421.48	402.57
421.67	489.17
421.86	444.70
422.05	376.83
422.24	334.70
422.43	339.38
422.61	397.89
422.80	388.53
422.99	414.27
423.18	407.25
423.37	416.62
423.56	374.49
423.75	433.00
423.94	353.42
424.13	397.89
424.32	409.59
424.50	358.10
424.69	346.40
424.88	451.72
425.07	498.53
425.26	397.89
425.45	397.89
425.64	390.87
425.83	449.38
426.01	468.11
426.20	435.34
426.39	367.46
426.58	376.83
426.77	404.91
426.96	381.51
427.15	447.04
427.33	294.91
427.52	416.62
427.71	423.64
427.90	458.74
428.09	388.53
428.28	346.40
428.46	421.30
428.65	451.72
428.84	400.23
429.03	489.17
429.22	395.55
429.40	339.38
429.59	465.77
429.78	425.98
429.97	407.25
430.16	388.53
430.34	435.34
430.53	411.93
430.72	358.10
430.91	411.93
431.10	468.11
431.28	397.89
431.47	433.00
431.66	418.96
431.85	411.93
432.03	442.36
432.22	486.83
432.41	360.44
432.60	418.96
432.79	456.40
432.97	423.64
433.16	402.57
433.35	308.95
433.54	381.51
433.72	388.53
433.91	362.78
434.10	346.40
434.28	430.66
434.47	372.15
434.66	449.38
434.85	379.17
435.03	416.62
435.22	498.53
435.41	386.19
435.59	421.30
435.78	442.36
435.97	414.27
436.16	475.13
436.34	442.36
436.53	458.74
436.72	425.98
436.90	416.62
437.09	407.25
437.28	393.21
437.46	358.10
437.65	362.78
437.84	381.51
438.02	400.23
438.21	395.55
438.40	433.00
438.58	404.91
438.77	379.17
438.96	411.93
439.14	348.74
439.33	416.62
439.52	449.38
439.70	421.30
439.89	437.68
440.08	503.22
440.26	444.70
440.45	418.96
440.63	362.78
440.82	423.64
441.01	322.99
441.19	428.32
441.38	369.80
441.57	447.04
441.75	463.43
441.94	416.62
442.12	475.13
442.31	437.68
442.50	409.59
442.68	430.66
442.87	358.10
443.05	411.93
443.24	355.76
443.43	470.45
443.61	411.93
443.80	322.99
443.98	465.77
444.17	423.64
444.35	386.19
444.54	365.12
444.73	414.27
444.91	482.15
445.10	414.27
445.28	374.49
445.47	404.91
445.65	440.02
445.84	416.62
446.02	404.91
446.21	416.62
446.39	372.15
446.58	451.72
446.77	397.89
446.95	407.25
447.14	454.06
447.32	390.87
447.51	498.53
447.69	355.76
447.88	383.85
448.06	423.64
448.25	433.00
448.43	369.80
448.62	381.51
448.80	379.17
448.99	351.08
449.17	390.87
449.36	369.80
449.54	397.89
449.73	418.96
449.91	414.27
450.10	409.59
450.28	491.51
450.46	458.74
450.65	454.06
450.83	428.32
451.02	339.38
451.20	379.17
451.39	437.68
451.57	407.25
451.76	358.10
451.94	381.51
452.13	341.72
452.31	505.56
452.49	521.94
452.68	400.23
452.86	444.70
453.05	395.55
453.23	365.12
453.42	496.19
453.60	360.44
453.78	400.23
453.97	407.25
454.15	435.34
454.34	318.31
454.52	397.89
454.70	451.72
454.89	348.74
455.07	358.10
455.26	358.10
455.44	484.49
455.62	365.12
455.81	402.57
455.99	440.02
456.17	376.83
456.36	388.53
456.54	402.57
456.73	433.00
456.91	475.13
457.09	444.70
457.28	404.91
457.46	409.59
457.64	388.53
457.83	367.46
458.01	362.78
458.19	489.17
458.38	442.36
458.56	315.97
458.74	418.96
458.93	458.74
459.11	418.96
459.29	428.32
459.48	425.98
459.66	381.51
459.84	407.25
460.03	458.74
460.21	404.91
460.39	402.57
460.57	461.09
460.76	418.96
460.94	437.68
461.12	498.53
461.31	484.49
461.49	388.53
461.67	454.06
461.85	456.40
462.04	395.55
462.22	854.30
462.40	458.74
462.59	400.23
462.77	344.06
462.95	402.57
463.13	437.68
463.32	451.72
463.50	425.98
463.68	458.74
463.86	355.76
464.05	376.83
464.23	386.19
464.41	456.40
464.59	330.02
464.78	390.87
464.96	330.02
465.14	379.17
465.32	376.83
465.50	362.78
465.69	430.66
465.87	433.00
466.05	411.93
466.23	379.17
466.41	372.15
466.60	414.27
466.78	337.04
466.96	484.49
467.14	493.85
467.32	451.72
467.51	407.25
467.69	435.34
467.87	425.98
468.05	418.96
468.23	430.66
468.41	442.36
468.60	454.06
468.78	355.76
468.96	442.36
469.14	418.96
469.32	360.44
469.50	437.68
469.69	444.70
469.87	404.91
470.05	393.21
470.23	444.70
470.41	395.55
470.59	451.72
470.77	435.34
470.95	425.98
471.14	475.13
471.32	486.83
471.50	463.43
471.68	386.19
471.86	463.43
472.04	428.32
472.22	421.30
472.40	416.62
472.58	379.17
472.77	433.00
472.95	393.21
473.13	425.98
473.31	381.51
473.49	367.46
473.67	374.49
473.85	376.83
474.03	496.19
474.21	456.40
474.39	451.72
474.57	395.55
474.75	461.09
474.93	386.19
475.12	409.59
475.30	334.70
475.48	409.59
475.66	315.97
475.84	423.64
476.02	425.98
476.20	440.02
476.38	414.27
476.56	407.25
476.74	353.42
476.92	407.25
477.10	339.38
477.28	409.59
477.46	418.96
477.64	465.77
477.82	386.19
478.00	416.62
478.18	437.68
478.36	489.17
478.54	411.93
478.72	414.27
478.90	397.89
479.08	395.55
479.26	421.30
479.44	374.49
479.62	433.00
479.80	461.09
479.98	362.78
480.16	409.59
480.34	400.23
480.52	428.32
480.70	404.91
480.88	397.89
481.06	383.85
481.24	351.08
481.41	402.57
481.59	409.59
481.77	463.43
481.95	372.15
482.13	376.83
482.31	346.40
482.49	411.93
482.67	383.85
482.85	479.81
483.03	416.62
483.21	411.93
483.39	304.27
483.57	374.49
483.74	428.32
483.92	440.02
484.10	442.36
484.28	404.91
484.46	428.32
484.64	472.79
484.82	404.91
485.00	376.83
485.18	362.78
485.35	390.87
485.53	344.06
485.71	463.43
485.89	400.23
486.07	388.53
486.25	430.66
486.43	395.55
486.61	423.64
486.78	414.27
486.96	330.02
487.14	461.09
487.32	351.08
487.50	388.53
487.68	470.45
487.85	346.40
488.03	404.91
488.21	477.47
488.39	379.17
488.57	451.72
488.75	409.59
488.92	547.69
489.10	411.93
489.28	400.23
489.46	376.83
489.64	374.49
489.81	404.91
489.99	444.70
490.17	388.53
490.35	423.64
490.53	428.32
490.70	416.62
490.88	418.96
491.06	416.62
491.24	444.70
491.41	397.89
491.59	428.32
491.77	442.36
491.95	451.72
492.13	346.40
492.30	388.53
492.48	437.68
492.66	341.72
492.84	409.59
493.01	395.55
493.19	395.55
493.37	437.68
493.54	414.27
493.72	365.12
493.90	358.10
494.08	416.62
494.25	358.10
494.43	418.96
494.61	454.06
494.79	428.32
494.96	442.36
495.14	479.81
495.32	388.53
495.49	414.27
495.67	404.91
495.85	411.93
496.02	418.96
496.20	423.64
496.38	444.70
496.55	402.57
496.73	407.25
496.91	360.44
497.09	411.93
497.26	421.30
497.44	414.27
497.62	388.53
497.79	397.89
497.97	425.98
498.14	395.55
498.32	428.32
498.50	400.23
498.67	425.98
498.85	454.06
499.03	414.27
499.20	440.02
499.38	510.24
499.56	397.89
499.73	486.83
499.91	442.36
500.08	447.04
500.26	428.32
500.44	465.77
500.61	454.06
500.79	430.66
500.97	409.59
501.14	496.19
501.32	437.68
501.49	486.83
501.67	411.93
501.84	449.38
502.02	418.96
502.20	470.45
502.37	395.55
502.55	465.77
502.72	397.89
502.90	390.87
503.07	458.74
503.25	360.44
503.43	351.08
503.60	418.96
503.78	442.36
503.95	393.21
504.13	395.55
504.30	400.23
504.48	433.00
504.65	475.13
504.83	379.17
505.01	369.80
505.18	435.34
505.36	390.87
505.53	463.43
505.71	390.87
505.88	444.70
506.06	491.51
506.23	404.91
506.41	449.38
506.58	496.19
506.76	451.72
506.93	451.72
507.11	379.17
507.28	379.17
507.46	369.80
507.63	435.34
507.81	442.36
507.98	451.72
508.16	437.68
508.33	510.24
508.50	374.49
508.68	346.40
508.85	395.55
509.03	437.68
509.20	379.17
509.38	334.70
509.55	479.81
509.73	395.55
509.90	383.85
510.08	355.76
510.25	416.62
510.42	395.55
510.60	404.91
510.77	451.72
510.95	409.59
511.12	435.34
511.30	519.60
511.47	367.46
511.64	334.70
511.82	376.83
511.99	423.64
512.17	425.98
512.34	376.83
512.51	409.59
512.69	425.98
512.86	451.72
513.04	449.38
513.21	407.25
513.38	372.15
513.56	355.76
513.73	418.96
513.90	416.62
514.08	433.00
514.25	414.27
514.43	386.19
514.60	430.66
514.77	425.98
514.95	510.24
515.12	344.06
515.29	411.93
515.47	379.17
515.64	388.53
515.81	308.95
515.99	437.68
516.16	355.76
516.33	433.00
516.51	425.98
516.68	416.62
516.85	397.89
517.03	383.85
517.20	447.04
517.37	407.25
517.54	414.27
517.72	425.98
517.89	372.15
518.06	383.85
518.24	404.91
518.41	418.96
518.58	418.96
518.75	407.25
518.93	428.32
519.10	334.70
519.27	479.81
519.45	379.17
519.62	486.83
519.79	418.96
519.96	423.64
520.14	379.17
520.31	360.44
520.48	409.59
520.65	386.19
520.83	435.34
521.00	400.23
521.17	433.00
521.34	416.62
521.52	423.64
521.69	430.66
521.86	458.74
522.03	390.87
522.20	454.06
522.38	451.72
522.55	433.00
522.72	344.06
522.89	369.80
523.07	451.72
523.24	386.19
523.41	409.59
523.58	332.36
523.75	348.74
523.92	383.85
524.10	409.59
524.27	365.12
524.44	407.25
524.61	451.72
524.78	365.12
524.96	390.87
525.13	379.17
525.30	428.32
525.47	397.89
525.64	334.70
525.81	416.62
525.98	465.77
526.16	430.66
526.33	397.89
526.50	468.11
526.67	444.70
526.84	407.25
527.01	430.66
527.18	376.83
527.36	395.55
527.53	397.89
527.70	451.72
527.87	383.85
528.04	367.46
528.21	395.55
528.38	425.98
528.55	430.66
528.72	449.38
528.89	435.34
529.07	425.98
529.24	381.51
529.41	386.19
529.58	416.62
529.75	395.55
529.92	451.72
530.09	388.53
530.26	421.30
530.43	383.85
530.60	421.30
530.77	463.43
530.94	409.59
531.11	400.23
531.28	397.89
531.46	440.02
531.63	475.13
531.80	381.51
531.97	409.59
532.14	421.30
532.31	386.19
532.48	435.34
532.65	376.83
532.82	404.91
532.99	416.62
533.16	423.64
533.33	355.76
533.50	362.78
533.67	346.40
533.84	395.55
534.01	402.57
534.18	416.62
534.35	411.93
534.52	437.68
534.69	430.66
534.86	374.49
535.03	463.43
535.20	414.27
535.37	444.70
535.54	386.19
535.71	381.51
535.88	395.55
536.05	414.27
536.22	353.42
536.38	362.78
536.55	421.30
536.72	428.32
536.89	416.62
537.06	404.91
537.23	428.32
537.40	411.93
537.57	444.70
537.74	418.96
537.91	423.64
538.08	362.78
538.25	437.68
538.42	395.55
538.59	374.49
538.75	395.55
538.92	353.42
539.09	402.57
539.26	390.87
539.43	465.77
539.60	472.79
539.77	477.47
539.94	402.57
540.11	489.17
540.28	404.91
540.44	409.59
540.61	360.44
540.78	365.12
540.95	421.30
541.12	454.06
541.29	379.17
541.46	503.22
541.62	433.00
541.79	418.96
541.96	454.06
542.13	386.19
542.30	407.25
542.47	402.57
542.63	416.62
542.80	421.30
542.97	409.59
543.14	475.13
543.31	402.57
543.48	411.93
543.64	428.32
543.81	346.40
543.98	388.53
544.15	407.25
544.32	381.51
544.48	344.06
544.65	383.85
544.82	425.98
544.99	386.19
545.16	477.47
545.32	416.62
545.49	397.89
545.66	421.30
545.83	374.49
546.00	402.57
546.16	421.30
546.33	400.23
546.50	416.62
546.67	404.91
546.83	454.06
547.00	418.96
547.17	383.85
547.34	437.68
547.50	404.91
547.67	433.00
547.84	423.64
548.00	444.70
548.17	479.81
548.34	430.66
548.51	458.74
548.67	381.51
548.84	390.87
549.01	482.15
549.18	458.74
549.34	484.49
549.51	367.46
549.68	484.49
549.84	451.72
550.01	395.55
550.18	468.11
550.34	479.81
550.51	477.47
550.68	395.55
550.84	365.12
551.01	433.00
551.18	372.15
551.34	433.00
551.51	402.57
551.68	390.87
551.84	402.57
552.01	409.59
552.18	425.98
552.34	449.38
552.51	430.66
552.68	418.96
552.84	355.76
553.01	390.87
553.18	475.13
553.34	400.23
553.51	339.38
553.67	358.10
553.84	409.59
554.01	409.59
554.17	435.34
554.34	402.57
554.51	404.91
554.67	477.47
554.84	470.45
555.00	428.32
555.17	355.76
555.33	372.15
555.50	430.66
555.67	386.19
555.83	365.12
556.00	397.89
556.16	521.94
556.33	430.66
556.50	411.93
556.66	475.13
556.83	433.00
556.99	402.57
557.16	411.93
557.32	365.12
557.49	376.83
557.65	358.10
557.82	447.04
557.98	376.83
558.15	423.64
558.32	423.64
558.48	517.26
558.65	402.57
558.81	400.23
558.98	414.27
559.14	447.04
559.31	367.46
559.47	365.12
559.64	458.74
559.80	428.32
559.97	381.51
560.13	386.19
560.30	416.62
560.46	409.59
560.63	468.11
560.79	472.79
560.96	418.96
561.12	449.38
561.29	454.06
561.45	409.59
561.61	388.53
561.78	507.90
561.94	472.79
562.11	390.87
562.27	395.55
562.44	395.55
562.60	374.49
562.77	428.32
562.93	390.87
563.10	402.57
563.26	433.00
563.42	428.32
563.59	442.36
563.75	383.85
563.92	456.40
564.08	404.91
564.24	463.43
564.41	390.87
564.57	421.30
564.74	404.91
564.90	374.49
565.07	421.30
565.23	470.45
565.39	430.66
565.56	423.64
565.72	444.70
565.88	383.85
566.05	397.89
566.21	376.83
566.38	341.72
566.54	367.46
566.70	344.06
566.87	383.85
567.03	381.51
567.19	381.51
567.36	437.68
567.52	409.59
567.68	482.15
567.85	451.72
568.01	428.32
568.17	395.55
568.34	374.49
568.50	390.87
568.66	437.68
568.83	505.56
568.99	428.32
569.15	472.79
569.32	423.64
569.48	475.13
569.64	395.55
569.81	365.12
569.97	390.87
570.13	416.62
570.30	369.80
570.46	486.83
570.62	402.57
570.78	367.46
570.95	404.91
571.11	437.68
571.27	425.98
571.43	318.31
571.60	418.96
571.76	430.66
571.92	444.70
572.09	362.78
572.25	409.59
572.41	397.89
572.57	376.83
572.74	468.11
572.90	407.25
573.06	444.70
573.22	425.98
573.38	428.32
573.55	379.17
573.71	433.00
573.87	390.87
574.03	416.62
574.20	369.80
574.36	465.77
574.52	454.06
574.68	292.57
574.84	400.23
575.01	475.13
575.17	475.13
575.33	465.77
575.49	430.66
575.65	379.17
575.82	421.30
575.98	402.57
576.14	451.72
576.30	435.34
576.46	346.40
576.62	395.55
576.79	362.78
576.95	418.96
577.11	337.04
577.27	435.34
577.43	521.94
577.59	414.27
577.75	465.77
577.92	404.91
578.08	486.83
578.24	531.30
578.40	442.36
578.56	458.74
578.72	463.43
578.88	449.38
579.04	514.92
579.21	451.72
579.37	411.93
579.53	379.17
579.69	430.66
579.85	393.21
580.01	416.62
580.17	512.58
580.33	416.62
580.49	395.55
580.65	447.04
580.82	440.02
580.98	454.06
581.14	369.80
581.30	461.09
581.46	416.62
581.62	512.58
581.78	407.25
581.94	411.93
582.10	397.89
582.26	348.74
582.42	308.95
582.58	430.66
582.74	428.32
582.90	414.27
583.06	458.74
583.22	423.64
583.38	437.68
583.54	418.96
583.70	444.70
583.86	425.98
584.02	454.06
584.18	418.96
584.34	362.78
584.50	425.98
584.66	491.51
584.82	416.62
584.98	383.85
585.14	325.33
585.30	425.98
585.46	421.30
585.62	447.04
585.78	444.70
585.94	451.72
586.10	545.34
586.26	374.49
586.42	451.72
586.58	369.80
586.74	503.22
586.90	472.79
587.06	430.66
587.22	409.59
587.38	351.08
587.54	407.25
587.70	465.77
587.86	472.79
588.02	454.06
588.18	400.23
588.34	437.68
588.49	330.02
588.65	390.87
588.81	468.11
588.97	463.43
589.13	374.49
589.29	372.15
589.45	470.45
589.61	428.32
589.77	376.83
589.93	372.15
590.08	390.87
590.24	411.93
590.40	381.51
590.56	442.36
590.72	353.42
590.88	430.66
591.04	435.34
591.20	369.80
591.35	437.68
591.51	414.27
591.67	348.74
591.83	379.17
591.99	416.62
592.15	468.11
592.31	376.83
592.46	330.02
592.62	414.27
592.78	458.74
592.94	397.89
593.10	449.38
593.26	344.06
593.41	407.25
593.57	362.78
593.73	374.49
593.89	454.06
594.05	353.42
594.20	381.51
594.36	430.66
594.52	416.62
594.68	390.87
594.84	397.89
594.99	421.30
595.15	376.83
595.31	365.12
595.47	440.02
595.62	461.09
595.78	409.59
595.94	362.78
596.10	491.51
596.25	433.00
596.41	414.27
596.57	454.06
596.73	407.25
596.88	447.04
597.04	402.57
597.20	400.23
597.36	449.38
597.51	383.85
597.67	482.15
597.83	411.93
597.99	444.70
598.14	451.72
598.30	500.87
598.46	428.32
598.61	444.70
598.77	365.12
598.93	407.25
599.09	430.66
599.24	437.68
599.40	402.57
599.56	386.19
599.71	414.27
599.87	486.83
600.03	416.62
600.18	388.53
600.34	477.47
600.50	374.49
600.65	416.62
600.81	362.78
600.97	404.91
601.12	402.57
601.28	463.43
601.44	416.62
601.59	395.55
601.75	440.02
601.91	409.59
602.06	381.51
602.22	491.51
602.37	444.70
602.53	393.21
602.69	456.40
602.84	435.34
603.00	402.57
603.16	388.53
603.31	418.96
603.47	416.62
603.62	430.66
603.78	421.30
603.94	411.93
604.09	374.49
604.25	390.87
604.40	414.27
604.56	425.98
604.71	355.76
604.87	379.17
605.03	402.57
605.18	416.62
605.34	468.11
605.49	423.64
605.65	421.30
605.80	393.21
605.96	447.04
606.12	444.70
606.27	425.98
606.43	409.59
606.58	393.21
606.74	416.62
606.89	404.91
607.05	376.83
607.20	477.47
607.36	454.06
607.51	414.27
607.67	395.55
607.82	386.19
607.98	500.87
608.13	421.30
608.29	372.15
608.44	423.64
608.60	360.44
608.75	430.66
608.91	418.96
609.06	418.96
609.22	409.59
609.37	379.17
609.53	454.06
609.68	440.02
609.84	393.21
609.99	418.96
610.15	383.85
