SpectraSuite Data File
++++++++++++++++++++++++++++++++++++
Date: Fri Oct 25 12:10:29 EDT 2013
User: price-jones
Dark Spectrum Present: No
Reference Spectrum Present: No
Number of Sampled Component Spectra: 1
Spectrometers: USB2+H05261
Integration Time (usec): 100000 (USB2+H05261)
Spectra Averaged: 1 (USB2+H05261)
Boxcar Smoothing: 0 (USB2+H05261)
Correct for Electrical Dark: No (USB2+H05261)
Strobe/Lamp Enabled: No (USB2+H05261)
Correct for Detector Non-linearity: No (USB2+H05261)
Correct for Stray Light: No (USB2+H05261)
Number of Pixels in Processed Spectrum: 2048
>>>>>Begin Processed Spectral Data<<<<<
365.73	313.63
365.92	313.63
366.12	313.63
366.32	217.67
366.52	259.80
366.72	201.29
366.91	205.97
367.11	227.03
367.31	222.35
367.51	238.73
367.70	301.93
367.90	262.14
368.10	259.80
368.30	299.59
368.49	227.03
368.69	238.73
368.89	315.97
369.09	220.01
369.28	315.97
369.48	301.93
369.68	332.36
369.87	330.02
370.07	299.59
370.27	320.65
370.47	360.44
370.66	367.46
370.86	299.59
371.06	320.65
371.25	400.23
371.45	367.46
371.65	407.25
371.84	400.23
372.04	341.72
372.24	393.21
372.44	318.31
372.63	425.98
372.83	379.17
373.03	416.62
373.22	381.51
373.42	425.98
373.62	402.57
373.81	416.62
374.01	454.06
374.21	468.11
374.40	418.96
374.60	468.11
374.79	491.51
374.99	400.23
375.19	437.68
375.38	449.38
375.58	369.80
375.78	461.09
375.97	468.11
376.17	428.32
376.37	463.43
376.56	414.27
376.76	358.10
376.95	400.23
377.15	397.89
377.35	360.44
377.54	465.77
377.74	423.64
377.93	348.74
378.13	440.02
378.33	393.21
378.52	379.17
378.72	456.40
378.91	423.64
379.11	421.30
379.31	395.55
379.50	456.40
379.70	444.70
379.89	447.04
380.09	346.40
380.28	341.72
380.48	332.36
380.68	411.93
380.87	433.00
381.07	369.80
381.26	475.13
381.46	430.66
381.65	435.34
381.85	407.25
382.04	374.49
382.24	437.68
382.43	414.27
382.63	423.64
382.83	447.04
383.02	449.38
383.22	440.02
383.41	451.72
383.61	451.72
383.80	372.15
384.00	397.89
384.19	442.36
384.39	379.17
384.58	414.27
384.78	395.55
384.97	430.66
385.17	390.87
385.36	416.62
385.56	402.57
385.75	458.74
385.95	475.13
386.14	355.76
386.34	451.72
386.53	423.64
386.72	397.89
386.92	318.31
387.11	393.21
387.31	374.49
387.50	463.43
387.70	376.83
387.89	402.57
388.09	409.59
388.28	416.62
388.48	393.21
388.67	339.38
388.86	404.91
389.06	400.23
389.25	414.27
389.45	421.30
389.64	416.62
389.84	425.98
390.03	390.87
390.22	383.85
390.42	447.04
390.61	437.68
390.81	390.87
391.00	407.25
391.19	379.17
391.39	416.62
391.58	435.34
391.78	374.49
391.97	414.27
392.16	425.98
392.36	477.47
392.55	393.21
392.75	418.96
392.94	428.32
393.13	411.93
393.33	344.06
393.52	393.21
393.71	456.40
393.91	449.38
394.10	402.57
394.29	411.93
394.49	416.62
394.68	393.21
394.88	482.15
395.07	444.70
395.26	423.64
395.46	346.40
395.65	404.91
395.84	425.98
396.04	468.11
396.23	454.06
396.42	414.27
396.62	423.64
396.81	454.06
397.00	388.53
397.19	362.78
397.39	381.51
397.58	451.72
397.77	416.62
397.97	428.32
398.16	430.66
398.35	461.09
398.55	365.12
398.74	463.43
398.93	463.43
399.12	458.74
399.32	414.27
399.51	407.25
399.70	407.25
399.90	454.06
400.09	430.66
400.28	421.30
400.47	409.59
400.67	433.00
400.86	388.53
401.05	428.32
401.24	433.00
401.44	486.83
401.63	425.98
401.82	416.62
402.01	482.15
402.21	423.64
402.40	414.27
402.59	409.59
402.78	404.91
402.97	346.40
403.17	393.21
403.36	437.68
403.55	404.91
403.74	425.98
403.93	447.04
404.13	407.25
404.32	372.15
404.51	414.27
404.70	407.25
404.89	332.36
405.09	449.38
405.28	433.00
405.47	388.53
405.66	376.83
405.85	454.06
406.05	332.36
406.24	395.55
406.43	402.57
406.62	393.21
406.81	430.66
407.00	390.87
407.20	360.44
407.39	447.04
407.58	397.89
407.77	482.15
407.96	428.32
408.15	379.17
408.34	400.23
408.54	489.17
408.73	423.64
408.92	383.85
409.11	395.55
409.30	374.49
409.49	430.66
409.68	397.89
409.87	386.19
410.07	411.93
410.26	435.34
410.45	444.70
410.64	411.93
410.83	416.62
411.02	395.55
411.21	442.36
411.40	395.55
411.59	386.19
411.78	397.89
411.98	353.42
412.17	353.42
412.36	376.83
412.55	475.13
412.74	381.51
412.93	400.23
413.12	402.57
413.31	376.83
413.50	442.36
413.69	379.17
413.88	475.13
414.07	423.64
414.26	383.85
414.45	411.93
414.64	423.64
414.83	430.66
415.02	425.98
415.22	390.87
415.41	407.25
415.60	341.72
415.79	411.93
415.98	475.13
416.17	447.04
416.36	320.65
416.55	388.53
416.74	416.62
416.93	376.83
417.12	397.89
417.31	407.25
417.50	372.15
417.69	489.17
417.88	421.30
418.07	390.87
418.26	435.34
418.45	402.57
418.64	496.19
418.83	395.55
419.02	454.06
419.21	423.64
419.39	381.51
419.58	414.27
419.77	402.57
419.96	374.49
420.15	341.72
420.34	318.31
420.53	414.27
420.72	489.17
420.91	409.59
421.10	425.98
421.29	386.19
421.48	433.00
421.67	418.96
421.86	493.85
422.05	402.57
422.24	430.66
422.43	442.36
422.61	411.93
422.80	430.66
422.99	411.93
423.18	383.85
423.37	463.43
423.56	400.23
423.75	425.98
423.94	379.17
424.13	416.62
424.32	402.57
424.50	386.19
424.69	386.19
424.88	369.80
425.07	465.77
425.26	430.66
425.45	404.91
425.64	437.68
425.83	367.46
426.01	486.83
426.20	442.36
426.39	358.10
426.58	365.12
426.77	379.17
426.96	442.36
427.15	390.87
427.33	404.91
427.52	409.59
427.71	374.49
427.90	461.09
428.09	376.83
428.28	437.68
428.46	395.55
428.65	379.17
428.84	428.32
429.03	524.28
429.22	404.91
429.40	407.25
429.59	435.34
429.78	435.34
429.97	423.64
430.16	479.81
430.34	440.02
430.53	395.55
430.72	479.81
430.91	404.91
431.10	418.96
431.28	388.53
431.47	500.87
431.66	411.93
431.85	348.74
432.03	344.06
432.22	486.83
432.41	416.62
432.60	472.79
432.79	386.19
432.97	390.87
433.16	430.66
433.35	404.91
433.54	386.19
433.72	395.55
433.91	411.93
434.10	493.85
434.28	421.30
434.47	447.04
434.66	444.70
434.85	402.57
435.03	437.68
435.22	383.85
435.41	393.21
435.59	468.11
435.78	400.23
435.97	414.27
436.16	383.85
436.34	374.49
436.53	449.38
436.72	388.53
436.90	402.57
437.09	447.04
437.28	510.24
437.46	416.62
437.65	465.77
437.84	433.00
438.02	437.68
438.21	411.93
438.40	374.49
438.58	416.62
438.77	433.00
438.96	409.59
439.14	376.83
439.33	423.64
439.52	418.96
439.70	425.98
439.89	489.17
440.08	362.78
440.26	468.11
440.45	463.43
440.63	430.66
440.82	456.40
441.01	411.93
441.19	395.55
441.38	430.66
441.57	444.70
441.75	390.87
441.94	416.62
442.12	372.15
442.31	388.53
442.50	395.55
442.68	442.36
442.87	430.66
443.05	416.62
443.24	425.98
443.43	418.96
443.61	461.09
443.80	479.81
443.98	442.36
444.17	374.49
444.35	418.96
444.54	376.83
444.73	362.78
444.91	407.25
445.10	355.76
445.28	428.32
445.47	332.36
445.65	379.17
445.84	404.91
446.02	472.79
446.21	386.19
446.39	330.02
446.58	454.06
446.77	411.93
446.95	374.49
447.14	393.21
447.32	423.64
447.51	386.19
447.69	344.06
447.88	442.36
448.06	486.83
448.25	442.36
448.43	353.42
448.62	461.09
448.80	411.93
448.99	407.25
449.17	411.93
449.36	397.89
449.54	407.25
449.73	449.38
449.91	388.53
450.10	346.40
450.28	400.23
450.46	496.19
450.65	423.64
450.83	535.98
451.02	449.38
451.20	414.27
451.39	393.21
451.57	430.66
451.76	367.46
451.94	442.36
452.13	393.21
452.31	367.46
452.49	437.68
452.68	383.85
452.86	430.66
453.05	421.30
453.23	397.89
453.42	409.59
453.60	418.96
453.78	344.06
453.97	386.19
454.15	372.15
454.34	458.74
454.52	435.34
454.70	430.66
454.89	500.87
455.07	390.87
455.26	440.02
455.44	409.59
455.62	404.91
455.81	428.32
455.99	440.02
456.17	374.49
456.36	468.11
456.54	388.53
456.73	376.83
456.91	418.96
457.09	393.21
457.28	411.93
457.46	416.62
457.64	404.91
457.83	437.68
458.01	435.34
458.19	437.68
458.38	416.62
458.56	421.30
458.74	402.57
458.93	386.19
459.11	454.06
459.29	390.87
459.48	416.62
459.66	468.11
459.84	325.33
460.03	465.77
460.21	437.68
460.39	465.77
460.57	510.24
460.76	428.32
460.94	458.74
461.12	465.77
461.31	458.74
461.49	433.00
461.67	395.55
461.85	379.17
462.04	456.40
462.22	706.84
462.40	381.51
462.59	430.66
462.77	381.51
462.95	400.23
463.13	369.80
463.32	468.11
463.50	472.79
463.68	397.89
463.86	355.76
464.05	376.83
464.23	477.47
464.41	444.70
464.59	411.93
464.78	425.98
464.96	444.70
465.14	372.15
465.32	442.36
465.50	425.98
465.69	369.80
465.87	425.98
466.05	491.51
466.23	355.76
466.41	461.09
466.60	388.53
466.78	393.21
466.96	477.47
467.14	379.17
467.32	351.08
467.51	489.17
467.69	444.70
467.87	435.34
468.05	411.93
468.23	440.02
468.41	346.40
468.60	414.27
468.78	421.30
468.96	404.91
469.14	430.66
469.32	379.17
469.50	301.93
469.69	458.74
469.87	355.76
470.05	383.85
470.23	433.00
470.41	425.98
470.59	395.55
470.77	372.15
470.95	388.53
471.14	470.45
471.32	374.49
471.50	425.98
471.68	451.72
471.86	383.85
472.04	379.17
472.22	379.17
472.40	465.77
472.58	372.15
472.77	430.66
472.95	442.36
473.13	503.22
473.31	468.11
473.49	379.17
473.67	400.23
473.85	383.85
474.03	348.74
474.21	440.02
474.39	411.93
474.57	458.74
474.75	400.23
474.93	372.15
475.12	454.06
475.30	404.91
475.48	393.21
475.66	411.93
475.84	421.30
476.02	425.98
476.20	414.27
476.38	458.74
476.56	472.79
476.74	308.95
476.92	404.91
477.10	383.85
477.28	435.34
477.46	376.83
477.64	442.36
477.82	416.62
478.00	372.15
478.18	414.27
478.36	425.98
478.54	400.23
478.72	449.38
478.90	440.02
479.08	449.38
479.26	430.66
479.44	482.15
479.62	407.25
479.80	425.98
479.98	404.91
480.16	423.64
480.34	463.43
480.52	418.96
480.70	404.91
480.88	433.00
481.06	423.64
481.24	482.15
481.41	463.43
481.59	414.27
481.77	442.36
481.95	402.57
482.13	512.58
482.31	444.70
482.49	461.09
482.67	418.96
482.85	416.62
483.03	383.85
483.21	430.66
483.39	423.64
483.57	407.25
483.74	486.83
483.92	400.23
484.10	440.02
484.28	463.43
484.46	500.87
484.64	397.89
484.82	470.45
485.00	470.45
485.18	313.63
485.35	444.70
485.53	372.15
485.71	386.19
485.89	430.66
486.07	440.02
486.25	425.98
486.43	390.87
486.61	500.87
486.78	479.81
486.96	334.70
487.14	402.57
487.32	372.15
487.50	351.08
487.68	411.93
487.85	454.06
488.03	433.00
488.21	348.74
488.39	458.74
488.57	430.66
488.75	402.57
488.92	489.17
489.10	423.64
489.28	430.66
489.46	449.38
489.64	425.98
489.81	402.57
489.99	468.11
490.17	416.62
490.35	447.04
490.53	433.00
490.70	362.78
490.88	451.72
491.06	444.70
491.24	409.59
491.41	423.64
491.59	376.83
491.77	407.25
491.95	355.76
492.13	390.87
492.30	423.64
492.48	421.30
492.66	418.96
492.84	362.78
493.01	395.55
493.19	386.19
493.37	353.42
493.54	425.98
493.72	330.02
493.90	348.74
494.08	395.55
494.25	383.85
494.43	451.72
494.61	437.68
494.79	322.99
494.96	421.30
495.14	472.79
495.32	374.49
495.49	325.33
495.67	414.27
495.85	376.83
496.02	456.40
496.20	383.85
496.38	482.15
496.55	386.19
496.73	337.04
496.91	390.87
497.09	409.59
497.26	381.51
497.44	414.27
497.62	386.19
497.79	418.96
497.97	430.66
498.14	463.43
498.32	475.13
498.50	358.10
498.67	421.30
498.85	421.30
499.03	304.27
499.20	447.04
499.38	299.59
499.56	397.89
499.73	465.77
499.91	428.32
500.08	374.49
500.26	395.55
500.44	346.40
500.61	430.66
500.79	390.87
500.97	393.21
501.14	409.59
501.32	447.04
501.49	461.09
501.67	416.62
501.84	402.57
502.02	346.40
502.20	454.06
502.37	407.25
502.55	449.38
502.72	428.32
502.90	407.25
503.07	421.30
503.25	507.90
503.43	442.36
503.60	430.66
503.78	416.62
503.95	395.55
504.13	421.30
504.30	404.91
504.48	444.70
504.65	400.23
504.83	482.15
505.01	437.68
505.18	435.34
505.36	376.83
505.53	418.96
505.71	386.19
505.88	411.93
506.06	475.13
506.23	461.09
506.41	409.59
506.58	430.66
506.76	451.72
506.93	442.36
507.11	433.00
507.28	376.83
507.46	402.57
507.63	428.32
507.81	393.21
507.98	414.27
508.16	456.40
508.33	435.34
508.50	388.53
508.68	421.30
508.85	404.91
509.03	454.06
509.20	437.68
509.38	461.09
509.55	442.36
509.73	475.13
509.90	435.34
510.08	442.36
510.25	395.55
510.42	484.49
510.60	397.89
510.77	411.93
510.95	449.38
511.12	454.06
511.30	447.04
511.47	482.15
511.64	482.15
511.82	456.40
511.99	418.96
512.17	344.06
512.34	379.17
512.51	454.06
512.69	409.59
512.86	407.25
513.04	376.83
513.21	411.93
513.38	395.55
513.56	496.19
513.73	393.21
513.90	383.85
514.08	395.55
514.25	425.98
514.43	421.30
514.60	379.17
514.77	383.85
514.95	407.25
515.12	367.46
515.29	454.06
515.47	428.32
515.64	423.64
515.81	362.78
515.99	411.93
516.16	435.34
516.33	451.72
516.51	372.15
516.68	454.06
516.85	393.21
517.03	367.46
517.20	421.30
517.37	447.04
517.54	423.64
517.72	463.43
517.89	400.23
518.06	444.70
518.24	479.81
518.41	458.74
518.58	411.93
518.75	369.80
518.93	416.62
519.10	458.74
519.27	400.23
519.45	372.15
519.62	397.89
519.79	395.55
519.96	423.64
520.14	447.04
520.31	433.00
520.48	430.66
520.65	440.02
520.83	442.36
521.00	451.72
521.17	425.98
521.34	351.08
521.52	449.38
521.69	409.59
521.86	461.09
522.03	468.11
522.20	379.17
522.38	458.74
522.55	444.70
522.72	386.19
522.89	407.25
523.07	447.04
523.24	430.66
523.41	435.34
523.58	475.13
523.75	407.25
523.92	444.70
524.10	379.17
524.27	376.83
524.44	411.93
524.61	433.00
524.78	444.70
524.96	444.70
525.13	524.28
525.30	491.51
525.47	388.53
525.64	421.30
525.81	402.57
525.98	404.91
526.16	369.80
526.33	395.55
526.50	381.51
526.67	404.91
526.84	374.49
527.01	348.74
527.18	425.98
527.36	421.30
527.53	465.77
527.70	435.34
527.87	482.15
528.04	503.22
528.21	383.85
528.38	437.68
528.55	442.36
528.72	493.85
528.89	442.36
529.07	409.59
529.24	388.53
529.41	397.89
529.58	404.91
529.75	430.66
529.92	411.93
530.09	440.02
530.26	411.93
530.43	430.66
530.60	440.02
530.77	414.27
530.94	376.83
531.11	421.30
531.28	358.10
531.46	404.91
531.63	440.02
531.80	430.66
531.97	386.19
532.14	381.51
532.31	489.17
532.48	416.62
532.65	465.77
532.82	390.87
532.99	358.10
533.16	376.83
533.33	395.55
533.50	304.27
533.67	458.74
533.84	433.00
534.01	379.17
534.18	418.96
534.35	430.66
534.52	468.11
534.69	404.91
534.86	470.45
535.03	386.19
535.20	409.59
535.37	355.76
535.54	463.43
535.71	416.62
535.88	416.62
536.05	421.30
536.22	421.30
536.38	381.51
536.55	423.64
536.72	451.72
536.89	437.68
537.06	458.74
537.23	369.80
537.40	425.98
537.57	416.62
537.74	468.11
537.91	433.00
538.08	409.59
538.25	524.28
538.42	383.85
538.59	449.38
538.75	418.96
538.92	407.25
539.09	507.90
539.26	442.36
539.43	496.19
539.60	428.32
539.77	451.72
539.94	418.96
540.11	411.93
540.28	491.51
540.44	435.34
540.61	397.89
540.78	435.34
540.95	358.10
541.12	404.91
541.29	423.64
541.46	528.96
541.62	358.10
541.79	461.09
541.96	369.80
542.13	388.53
542.30	327.68
542.47	416.62
542.63	395.55
542.80	402.57
542.97	475.13
543.14	425.98
543.31	507.90
543.48	451.72
543.64	430.66
543.81	425.98
543.98	383.85
544.15	367.46
544.32	461.09
544.48	442.36
544.65	325.33
544.82	411.93
544.99	449.38
545.16	447.04
545.32	358.10
545.49	339.38
545.66	376.83
545.83	463.43
546.00	425.98
546.16	402.57
546.33	369.80
546.50	388.53
546.67	447.04
546.83	379.17
547.00	365.12
547.17	430.66
547.34	383.85
547.50	351.08
547.67	416.62
547.84	339.38
548.00	390.87
548.17	428.32
548.34	407.25
548.51	416.62
548.67	348.74
548.84	402.57
549.01	440.02
549.18	435.34
549.34	416.62
549.51	348.74
549.68	447.04
549.84	447.04
550.01	437.68
550.18	479.81
550.34	517.26
550.51	477.47
550.68	447.04
550.84	449.38
551.01	496.19
551.18	430.66
551.34	402.57
551.51	381.51
551.68	383.85
551.84	451.72
552.01	430.66
552.18	379.17
552.34	365.12
552.51	421.30
552.68	402.57
552.84	367.46
553.01	418.96
553.18	423.64
553.34	437.68
553.51	365.12
553.67	430.66
553.84	430.66
554.01	440.02
554.17	421.30
554.34	402.57
554.51	416.62
554.67	430.66
554.84	472.79
555.00	454.06
555.17	395.55
555.33	433.00
555.50	362.78
555.67	447.04
555.83	425.98
556.00	388.53
556.16	557.05
556.33	456.40
556.50	484.49
556.66	437.68
556.83	407.25
556.99	393.21
557.16	435.34
557.32	388.53
557.49	397.89
557.65	479.81
557.82	362.78
557.98	496.19
558.15	517.26
558.32	428.32
558.48	486.83
558.65	393.21
558.81	437.68
558.98	397.89
559.14	472.79
559.31	409.59
559.47	482.15
559.64	416.62
559.80	430.66
559.97	397.89
560.13	351.08
560.30	400.23
560.46	430.66
560.63	442.36
560.79	393.21
560.96	402.57
561.12	411.93
561.29	465.77
561.45	468.11
561.61	510.24
561.78	491.51
561.94	519.60
562.11	421.30
562.27	458.74
562.44	449.38
562.60	404.91
562.77	444.70
562.93	390.87
563.10	477.47
563.26	440.02
563.42	430.66
563.59	435.34
563.75	388.53
563.92	400.23
564.08	379.17
564.24	414.27
564.41	458.74
564.57	435.34
564.74	376.83
564.90	437.68
565.07	390.87
565.23	449.38
565.39	418.96
565.56	435.34
565.72	411.93
565.88	421.30
566.05	477.47
566.21	449.38
566.38	465.77
566.54	402.57
566.70	402.57
566.87	421.30
567.03	433.00
567.19	477.47
567.36	486.83
567.52	421.30
567.68	449.38
567.85	423.64
568.01	407.25
568.17	388.53
568.34	409.59
568.50	461.09
568.66	388.53
568.83	479.81
568.99	517.26
569.15	376.83
569.32	475.13
569.48	456.40
569.64	428.32
569.81	337.04
569.97	468.11
570.13	421.30
570.30	440.02
570.46	437.68
570.62	421.30
570.78	421.30
570.95	388.53
571.11	477.47
571.27	397.89
571.43	425.98
571.60	411.93
571.76	407.25
571.92	411.93
572.09	430.66
572.25	433.00
572.41	400.23
572.57	423.64
572.74	486.83
572.90	472.79
573.06	379.17
573.22	404.91
573.38	425.98
573.55	479.81
573.71	451.72
573.87	442.36
574.03	440.02
574.20	351.08
574.36	433.00
574.52	437.68
574.68	388.53
574.84	447.04
575.01	437.68
575.17	465.77
575.33	365.12
575.49	458.74
575.65	409.59
575.82	369.80
575.98	358.10
576.14	414.27
576.30	383.85
576.46	376.83
576.62	444.70
576.79	433.00
576.95	547.69
577.11	472.79
577.27	379.17
577.43	486.83
577.59	369.80
577.75	454.06
577.92	409.59
578.08	360.44
578.24	449.38
578.40	414.27
578.56	383.85
578.72	393.21
578.88	383.85
579.04	388.53
579.21	416.62
579.37	409.59
579.53	456.40
579.69	463.43
579.85	397.89
580.01	381.51
580.17	397.89
580.33	386.19
580.49	484.49
580.65	444.70
580.82	409.59
580.98	395.55
581.14	444.70
581.30	437.68
581.46	440.02
581.62	433.00
581.78	383.85
581.94	402.57
582.10	381.51
582.26	418.96
582.42	458.74
582.58	451.72
582.74	372.15
582.90	444.70
583.06	388.53
583.22	418.96
583.38	341.72
583.54	372.15
583.70	428.32
583.86	372.15
584.02	390.87
584.18	414.27
584.34	428.32
584.50	472.79
584.66	414.27
584.82	458.74
584.98	437.68
585.14	388.53
585.30	444.70
585.46	475.13
585.62	353.42
585.78	360.44
585.94	433.00
586.10	388.53
586.26	440.02
586.42	416.62
586.58	442.36
586.74	463.43
586.90	468.11
587.06	404.91
587.22	404.91
587.38	430.66
587.54	411.93
587.70	440.02
587.86	440.02
588.02	470.45
588.18	407.25
588.34	503.22
588.49	362.78
588.65	365.12
588.81	430.66
588.97	411.93
589.13	365.12
589.29	449.38
589.45	416.62
589.61	393.21
589.77	456.40
589.93	416.62
590.08	458.74
590.24	404.91
590.40	386.19
590.56	433.00
590.72	418.96
590.88	355.76
591.04	374.49
591.20	430.66
591.35	454.06
591.51	416.62
591.67	353.42
591.83	435.34
591.99	491.51
592.15	395.55
592.31	472.79
592.46	407.25
592.62	407.25
592.78	367.46
592.94	369.80
593.10	397.89
593.26	440.02
593.41	526.62
593.57	463.43
593.73	411.93
593.89	381.51
594.05	430.66
594.20	470.45
594.36	454.06
594.52	423.64
594.68	393.21
594.84	465.77
594.99	400.23
595.15	390.87
595.31	416.62
595.47	493.85
595.62	409.59
595.78	435.34
595.94	444.70
596.10	449.38
596.25	421.30
596.41	404.91
596.57	437.68
596.73	351.08
596.88	479.81
597.04	447.04
597.20	402.57
597.36	411.93
597.51	442.36
597.67	428.32
597.83	440.02
597.99	418.96
598.14	475.13
598.30	458.74
598.46	360.44
598.61	442.36
598.77	470.45
598.93	367.46
599.09	437.68
599.24	454.06
599.40	461.09
599.56	423.64
599.71	463.43
599.87	355.76
600.03	444.70
600.18	351.08
600.34	421.30
600.50	437.68
600.65	390.87
600.81	367.46
600.97	409.59
601.12	435.34
601.28	447.04
601.44	386.19
601.59	433.00
601.75	386.19
601.91	360.44
602.06	376.83
602.22	447.04
602.37	468.11
602.53	390.87
602.69	451.72
602.84	393.21
603.00	348.74
603.16	442.36
603.31	486.83
603.47	411.93
603.62	372.15
603.78	395.55
603.94	393.21
604.09	381.51
604.25	383.85
604.40	386.19
604.56	433.00
604.71	386.19
604.87	440.02
605.03	376.83
605.18	341.72
605.34	411.93
605.49	430.66
605.65	425.98
605.80	402.57
605.96	423.64
606.12	428.32
606.27	376.83
606.43	339.38
606.58	365.12
606.74	341.72
606.89	383.85
607.05	449.38
607.20	444.70
607.36	393.21
607.51	458.74
607.67	437.68
607.82	353.42
607.98	395.55
608.13	416.62
608.29	383.85
608.44	477.47
608.60	423.64
608.75	428.32
608.91	362.78
609.06	407.25
609.22	477.47
609.37	362.78
609.53	416.62
609.68	425.98
609.84	369.80
609.99	435.34
610.15	444.70
