SpectraSuite Data File
++++++++++++++++++++++++++++++++++++
Date: Fri Oct 25 12:10:40 EDT 2013
User: price-jones
Dark Spectrum Present: No
Reference Spectrum Present: No
Number of Sampled Component Spectra: 1
Spectrometers: USB2+H05261
Integration Time (usec): 100000 (USB2+H05261)
Spectra Averaged: 1 (USB2+H05261)
Boxcar Smoothing: 0 (USB2+H05261)
Correct for Electrical Dark: No (USB2+H05261)
Strobe/Lamp Enabled: No (USB2+H05261)
Correct for Detector Non-linearity: No (USB2+H05261)
Correct for Stray Light: No (USB2+H05261)
Number of Pixels in Processed Spectrum: 2048
>>>>>Begin Processed Spectral Data<<<<<
365.73	306.61
365.92	306.61
366.12	306.61
366.32	248.10
366.52	238.73
366.72	287.89
366.91	189.58
367.11	248.10
367.31	210.65
367.51	175.54
367.70	248.10
367.90	201.29
368.10	220.01
368.30	280.86
368.49	229.37
368.69	245.76
368.89	334.70
369.09	278.52
369.28	248.10
369.48	315.97
369.68	294.91
369.87	266.82
370.07	278.52
370.27	301.93
370.47	266.82
370.66	414.27
370.86	411.93
371.06	372.15
371.25	416.62
371.45	397.89
371.65	330.02
371.84	430.66
372.04	416.62
372.24	418.96
372.44	449.38
372.63	447.04
372.83	425.98
373.03	383.85
373.22	353.42
373.42	351.08
373.62	470.45
373.81	421.30
374.01	479.81
374.21	435.34
374.40	402.57
374.60	425.98
374.79	416.62
374.99	430.66
375.19	374.49
375.38	444.70
375.58	411.93
375.78	479.81
375.97	332.36
376.17	440.02
376.37	390.87
376.56	348.74
376.76	437.68
376.95	362.78
377.15	428.32
377.35	386.19
377.54	381.51
377.74	437.68
377.93	421.30
378.13	407.25
378.33	416.62
378.52	414.27
378.72	449.38
378.91	418.96
379.11	365.12
379.31	351.08
379.50	404.91
379.70	388.53
379.89	425.98
380.09	374.49
380.28	433.00
380.48	418.96
380.68	383.85
380.87	395.55
381.07	397.89
381.26	358.10
381.46	444.70
381.65	475.13
381.85	362.78
382.04	358.10
382.24	395.55
382.43	468.11
382.63	458.74
382.83	418.96
383.02	407.25
383.22	407.25
383.41	433.00
383.61	376.83
383.80	470.45
384.00	435.34
384.19	365.12
384.39	390.87
384.58	339.38
384.78	372.15
384.97	416.62
385.17	388.53
385.36	376.83
385.56	435.34
385.75	418.96
385.95	369.80
386.14	360.44
386.34	430.66
386.53	428.32
386.72	386.19
386.92	463.43
387.11	440.02
387.31	477.47
387.50	390.87
387.70	367.46
387.89	411.93
388.09	381.51
388.28	386.19
388.48	425.98
388.67	397.89
388.86	442.36
389.06	386.19
389.25	367.46
389.45	360.44
389.64	393.21
389.84	463.43
390.03	451.72
390.22	430.66
390.42	414.27
390.61	388.53
390.81	362.78
391.00	449.38
391.19	407.25
391.39	374.49
391.58	402.57
391.78	360.44
391.97	386.19
392.16	341.72
392.36	421.30
392.55	367.46
392.75	465.77
392.94	430.66
393.13	416.62
393.33	358.10
393.52	437.68
393.71	400.23
393.91	383.85
394.10	388.53
394.29	416.62
394.49	404.91
394.68	411.93
394.88	402.57
395.07	407.25
395.26	383.85
395.46	402.57
395.65	454.06
395.84	414.27
396.04	447.04
396.23	353.42
396.42	404.91
396.62	379.17
396.81	348.74
397.00	414.27
397.19	435.34
397.39	367.46
397.58	397.89
397.77	360.44
397.97	435.34
398.16	465.77
398.35	390.87
398.55	444.70
398.74	411.93
398.93	458.74
399.12	397.89
399.32	456.40
399.51	372.15
399.70	409.59
399.90	423.64
400.09	435.34
400.28	449.38
400.47	369.80
400.67	376.83
400.86	428.32
401.05	444.70
401.24	435.34
401.44	358.10
401.63	444.70
401.82	409.59
402.01	339.38
402.21	407.25
402.40	369.80
402.59	416.62
402.78	444.70
402.97	461.09
403.17	442.36
403.36	362.78
403.55	442.36
403.74	437.68
403.93	376.83
404.13	456.40
404.32	381.51
404.51	351.08
404.70	411.93
404.89	325.33
405.09	447.04
405.28	351.08
405.47	430.66
405.66	381.51
405.85	379.17
406.05	409.59
406.24	437.68
406.43	430.66
406.62	388.53
406.81	428.32
407.00	444.70
407.20	381.51
407.39	409.59
407.58	442.36
407.77	374.49
407.96	407.25
408.15	465.77
408.34	428.32
408.54	404.91
408.73	458.74
408.92	421.30
409.11	358.10
409.30	416.62
409.49	454.06
409.68	390.87
409.87	355.76
410.07	339.38
410.26	383.85
410.45	372.15
410.64	383.85
410.83	367.46
411.02	463.43
411.21	458.74
411.40	472.79
411.59	407.25
411.78	430.66
411.98	381.51
412.17	425.98
412.36	365.12
412.55	376.83
412.74	383.85
412.93	381.51
413.12	435.34
413.31	414.27
413.50	447.04
413.69	358.10
413.88	449.38
414.07	369.80
414.26	379.17
414.45	367.46
414.64	444.70
414.83	381.51
415.02	393.21
415.22	421.30
415.41	433.00
415.60	369.80
415.79	400.23
415.98	416.62
416.17	451.72
416.36	425.98
416.55	456.40
416.74	374.49
416.93	346.40
417.12	344.06
417.31	388.53
417.50	393.21
417.69	433.00
417.88	393.21
418.07	393.21
418.26	447.04
418.45	381.51
418.64	402.57
418.83	411.93
419.02	376.83
419.21	402.57
419.39	449.38
419.58	379.17
419.77	383.85
419.96	444.70
420.15	379.17
420.34	393.21
420.53	470.45
420.72	479.81
420.91	404.91
421.10	355.76
421.29	433.00
421.48	362.78
421.67	351.08
421.86	440.02
422.05	404.91
422.24	447.04
422.43	435.34
422.61	388.53
422.80	418.96
422.99	440.02
423.18	381.51
423.37	447.04
423.56	491.51
423.75	451.72
423.94	362.78
424.13	407.25
424.32	407.25
424.50	423.64
424.69	421.30
424.88	433.00
425.07	430.66
425.26	358.10
425.45	362.78
425.64	351.08
425.83	386.19
426.01	402.57
426.20	358.10
426.39	416.62
426.58	393.21
426.77	423.64
426.96	447.04
427.15	514.92
427.33	421.30
427.52	390.87
427.71	458.74
427.90	416.62
428.09	308.95
428.28	369.80
428.46	475.13
428.65	400.23
428.84	507.90
429.03	461.09
429.22	442.36
429.40	472.79
429.59	360.44
429.78	395.55
429.97	486.83
430.16	430.66
430.34	461.09
430.53	367.46
430.72	433.00
430.91	418.96
431.10	411.93
431.28	425.98
431.47	468.11
431.66	461.09
431.85	414.27
432.03	430.66
432.22	411.93
432.41	367.46
432.60	402.57
432.79	337.04
432.97	430.66
433.16	418.96
433.35	463.43
433.54	461.09
433.72	365.12
433.91	461.09
434.10	369.80
434.28	425.98
434.47	365.12
434.66	470.45
434.85	383.85
435.03	430.66
435.22	500.87
435.41	463.43
435.59	407.25
435.78	365.12
435.97	414.27
436.16	402.57
436.34	397.89
436.53	381.51
436.72	498.53
436.90	444.70
437.09	500.87
437.28	407.25
437.46	440.02
437.65	418.96
437.84	365.12
438.02	428.32
438.21	442.36
438.40	425.98
438.58	437.68
438.77	423.64
438.96	475.13
439.14	376.83
439.33	428.32
439.52	447.04
439.70	461.09
439.89	400.23
440.08	416.62
440.26	395.55
440.45	418.96
440.63	433.00
440.82	463.43
441.01	404.91
441.19	416.62
441.38	383.85
441.57	393.21
441.75	447.04
441.94	390.87
442.12	400.23
442.31	430.66
442.50	416.62
442.68	400.23
442.87	355.76
443.05	388.53
443.24	376.83
443.43	442.36
443.61	386.19
443.80	423.64
443.98	379.17
444.17	351.08
444.35	414.27
444.54	416.62
444.73	447.04
444.91	496.19
445.10	397.89
445.28	390.87
445.47	409.59
445.65	416.62
445.84	353.42
446.02	360.44
446.21	449.38
446.39	379.17
446.58	360.44
446.77	383.85
446.95	500.87
447.14	416.62
447.32	442.36
447.51	411.93
447.69	418.96
447.88	423.64
448.06	423.64
448.25	388.53
448.43	433.00
448.62	404.91
448.80	421.30
448.99	393.21
449.17	381.51
449.36	416.62
449.54	393.21
449.73	430.66
449.91	425.98
450.10	414.27
450.28	514.92
450.46	407.25
450.65	397.89
450.83	456.40
451.02	409.59
451.20	465.77
451.39	372.15
451.57	383.85
451.76	369.80
451.94	447.04
452.13	414.27
452.31	369.80
452.49	407.25
452.68	407.25
452.86	418.96
453.05	447.04
453.23	425.98
453.42	393.21
453.60	332.36
453.78	437.68
453.97	355.76
454.15	428.32
454.34	421.30
454.52	402.57
454.70	468.11
454.89	449.38
455.07	440.02
455.26	407.25
455.44	425.98
455.62	423.64
455.81	465.77
455.99	407.25
456.17	428.32
456.36	381.51
456.54	367.46
456.73	381.51
456.91	365.12
457.09	461.09
457.28	472.79
457.46	381.51
457.64	456.40
457.83	416.62
458.01	379.17
458.19	393.21
458.38	372.15
458.56	484.49
458.74	425.98
458.93	463.43
459.11	409.59
459.29	390.87
459.48	437.68
459.66	451.72
459.84	425.98
460.03	470.45
460.21	379.17
460.39	386.19
460.57	374.49
460.76	381.51
460.94	421.30
461.12	425.98
461.31	418.96
461.49	386.19
461.67	395.55
461.85	416.62
462.04	444.70
462.22	755.99
462.40	381.51
462.59	393.21
462.77	379.17
462.95	437.68
463.13	397.89
463.32	425.98
463.50	461.09
463.68	390.87
463.86	451.72
464.05	388.53
464.23	442.36
464.41	362.78
464.59	362.78
464.78	409.59
464.96	397.89
465.14	486.83
465.32	414.27
465.50	475.13
465.69	397.89
465.87	390.87
466.05	491.51
466.23	418.96
466.41	379.17
466.60	414.27
466.78	402.57
466.96	390.87
467.14	414.27
467.32	376.83
467.51	404.91
467.69	416.62
467.87	468.11
468.05	395.55
468.23	411.93
468.41	489.17
468.60	451.72
468.78	395.55
468.96	442.36
469.14	425.98
469.32	390.87
469.50	402.57
469.69	491.51
469.87	451.72
470.05	447.04
470.23	449.38
470.41	402.57
470.59	372.15
470.77	433.00
470.95	425.98
471.14	458.74
471.32	409.59
471.50	479.81
471.68	447.04
471.86	397.89
472.04	418.96
472.22	411.93
472.40	416.62
472.58	376.83
472.77	390.87
472.95	482.15
473.13	411.93
473.31	444.70
473.49	404.91
473.67	353.42
473.85	418.96
474.03	416.62
474.21	402.57
474.39	442.36
474.57	416.62
474.75	430.66
474.93	388.53
475.12	381.51
475.30	400.23
475.48	449.38
475.66	425.98
475.84	482.15
476.02	411.93
476.20	423.64
476.38	433.00
476.56	456.40
476.74	379.17
476.92	369.80
477.10	454.06
477.28	479.81
477.46	423.64
477.64	416.62
477.82	428.32
478.00	411.93
478.18	458.74
478.36	456.40
478.54	442.36
478.72	416.62
478.90	374.49
479.08	418.96
479.26	430.66
479.44	381.51
479.62	381.51
479.80	418.96
479.98	367.46
480.16	353.42
480.34	376.83
480.52	425.98
480.70	411.93
480.88	372.15
481.06	442.36
481.24	447.04
481.41	428.32
481.59	365.12
481.77	360.44
481.95	475.13
482.13	472.79
482.31	411.93
482.49	423.64
482.67	397.89
482.85	430.66
483.03	423.64
483.21	395.55
483.39	484.49
483.57	404.91
483.74	411.93
483.92	437.68
484.10	383.85
484.28	411.93
484.46	442.36
484.64	395.55
484.82	472.79
485.00	358.10
485.18	411.93
485.35	449.38
485.53	383.85
485.71	430.66
485.89	416.62
486.07	400.23
486.25	465.77
486.43	418.96
486.61	454.06
486.78	379.17
486.96	418.96
487.14	395.55
487.32	416.62
487.50	463.43
487.68	393.21
487.85	390.87
488.03	503.22
488.21	472.79
488.39	433.00
488.57	442.36
488.75	409.59
488.92	496.19
489.10	411.93
489.28	435.34
489.46	433.00
489.64	414.27
489.81	344.06
489.99	489.17
490.17	397.89
490.35	425.98
490.53	409.59
490.70	409.59
490.88	458.74
491.06	449.38
491.24	416.62
491.41	325.33
491.59	362.78
491.77	423.64
491.95	421.30
492.13	428.32
492.30	395.55
492.48	339.38
492.66	379.17
492.84	433.00
493.01	451.72
493.19	454.06
493.37	449.38
493.54	409.59
493.72	414.27
493.90	369.80
494.08	400.23
494.25	411.93
494.43	447.04
494.61	411.93
494.79	393.21
494.96	418.96
495.14	440.02
495.32	400.23
495.49	369.80
495.67	463.43
495.85	442.36
496.02	404.91
496.20	418.96
496.38	447.04
496.55	400.23
496.73	379.17
496.91	470.45
497.09	397.89
497.26	365.12
497.44	447.04
497.62	376.83
497.79	379.17
497.97	397.89
498.14	428.32
498.32	442.36
498.50	383.85
498.67	440.02
498.85	475.13
499.03	409.59
499.20	454.06
499.38	383.85
499.56	454.06
499.73	498.53
499.91	425.98
500.08	395.55
500.26	395.55
500.44	388.53
500.61	454.06
500.79	358.10
500.97	425.98
501.14	383.85
501.32	425.98
501.49	461.09
501.67	409.59
501.84	390.87
502.02	362.78
502.20	440.02
502.37	397.89
502.55	402.57
502.72	447.04
502.90	489.17
503.07	379.17
503.25	369.80
503.43	440.02
503.60	418.96
503.78	330.02
503.95	421.30
504.13	381.51
504.30	365.12
504.48	454.06
504.65	442.36
504.83	376.83
505.01	325.33
505.18	383.85
505.36	379.17
505.53	388.53
505.71	358.10
505.88	369.80
506.06	440.02
506.23	418.96
506.41	379.17
506.58	449.38
506.76	362.78
506.93	334.70
507.11	447.04
507.28	400.23
507.46	402.57
507.63	369.80
507.81	383.85
507.98	330.02
508.16	416.62
508.33	411.93
508.50	418.96
508.68	402.57
508.85	444.70
509.03	409.59
509.20	435.34
509.38	440.02
509.55	451.72
509.73	411.93
509.90	421.30
510.08	386.19
510.25	341.72
510.42	409.59
510.60	376.83
510.77	444.70
510.95	425.98
511.12	362.78
511.30	451.72
511.47	402.57
511.64	416.62
511.82	388.53
511.99	414.27
512.17	484.49
512.34	386.19
512.51	325.33
512.69	374.49
512.86	421.30
513.04	425.98
513.21	486.83
513.38	416.62
513.56	372.15
513.73	355.76
513.90	458.74
514.08	325.33
514.25	435.34
514.43	430.66
514.60	442.36
514.77	372.15
514.95	418.96
515.12	433.00
515.29	437.68
515.47	435.34
515.64	425.98
515.81	468.11
515.99	482.15
516.16	489.17
516.33	465.77
516.51	358.10
516.68	440.02
516.85	437.68
517.03	395.55
517.20	402.57
517.37	390.87
517.54	442.36
517.72	388.53
517.89	423.64
518.06	411.93
518.24	404.91
518.41	369.80
518.58	416.62
518.75	461.09
518.93	404.91
519.10	411.93
519.27	390.87
519.45	348.74
519.62	456.40
519.79	409.59
519.96	365.12
520.14	416.62
520.31	344.06
520.48	388.53
520.65	407.25
520.83	437.68
521.00	425.98
521.17	456.40
521.34	393.21
521.52	383.85
521.69	374.49
521.86	442.36
522.03	477.47
522.20	425.98
522.38	472.79
522.55	465.77
522.72	355.76
522.89	372.15
523.07	465.77
523.24	390.87
523.41	454.06
523.58	395.55
523.75	425.98
523.92	386.19
524.10	369.80
524.27	411.93
524.44	433.00
524.61	454.06
524.78	402.57
524.96	381.51
525.13	421.30
525.30	484.49
525.47	416.62
525.64	440.02
525.81	355.76
525.98	440.02
526.16	416.62
526.33	421.30
526.50	383.85
526.67	449.38
526.84	376.83
527.01	393.21
527.18	477.47
527.36	449.38
527.53	372.15
527.70	465.77
527.87	454.06
528.04	463.43
528.21	451.72
528.38	444.70
528.55	428.32
528.72	482.15
528.89	468.11
529.07	388.53
529.24	355.76
529.41	425.98
529.58	411.93
529.75	444.70
529.92	376.83
530.09	407.25
530.26	416.62
530.43	491.51
530.60	421.30
530.77	367.46
530.94	456.40
531.11	472.79
531.28	463.43
531.46	404.91
531.63	397.89
531.80	390.87
531.97	386.19
532.14	437.68
532.31	442.36
532.48	372.15
532.65	360.44
532.82	388.53
532.99	400.23
533.16	388.53
533.33	358.10
533.50	290.23
533.67	358.10
533.84	428.32
534.01	421.30
534.18	421.30
534.35	334.70
534.52	411.93
534.69	482.15
534.86	442.36
535.03	390.87
535.20	409.59
535.37	463.43
535.54	454.06
535.71	440.02
535.88	404.91
536.05	404.91
536.22	463.43
536.38	409.59
536.55	435.34
536.72	507.90
536.89	454.06
537.06	440.02
537.23	444.70
537.40	456.40
537.57	388.53
537.74	463.43
537.91	400.23
538.08	433.00
538.25	425.98
538.42	416.62
538.59	437.68
538.75	407.25
538.92	425.98
539.09	423.64
539.26	454.06
539.43	458.74
539.60	425.98
539.77	442.36
539.94	442.36
540.11	423.64
540.28	407.25
540.44	416.62
540.61	383.85
540.78	440.02
540.95	348.74
541.12	421.30
541.29	402.57
541.46	372.15
541.62	421.30
541.79	440.02
541.96	372.15
542.13	421.30
542.30	486.83
542.47	437.68
542.63	414.27
542.80	465.77
542.97	430.66
543.14	409.59
543.31	437.68
543.48	418.96
543.64	423.64
543.81	447.04
543.98	458.74
544.15	423.64
544.32	367.46
544.48	402.57
544.65	465.77
544.82	414.27
544.99	418.96
545.16	421.30
545.32	411.93
545.49	440.02
545.66	435.34
545.83	411.93
546.00	383.85
546.16	395.55
546.33	383.85
546.50	409.59
546.67	416.62
546.83	404.91
547.00	311.29
547.17	416.62
547.34	348.74
547.50	435.34
547.67	393.21
547.84	351.08
548.00	416.62
548.17	400.23
548.34	418.96
548.51	454.06
548.67	409.59
548.84	449.38
549.01	425.98
549.18	428.32
549.34	454.06
549.51	404.91
549.68	390.87
549.84	421.30
550.01	447.04
550.18	449.38
550.34	440.02
550.51	428.32
550.68	400.23
550.84	395.55
551.01	383.85
551.18	362.78
551.34	407.25
551.51	369.80
551.68	461.09
551.84	423.64
552.01	449.38
552.18	421.30
552.34	461.09
552.51	430.66
552.68	447.04
552.84	437.68
553.01	468.11
553.18	451.72
553.34	425.98
553.51	416.62
553.67	472.79
553.84	479.81
554.01	381.51
554.17	423.64
554.34	430.66
554.51	397.89
554.67	411.93
554.84	423.64
555.00	304.27
555.17	397.89
555.33	411.93
555.50	463.43
555.67	393.21
555.83	451.72
556.00	435.34
556.16	505.56
556.33	505.56
556.50	409.59
556.66	376.83
556.83	395.55
556.99	400.23
557.16	433.00
557.32	461.09
557.49	416.62
557.65	442.36
557.82	470.45
557.98	482.15
558.15	517.26
558.32	442.36
558.48	461.09
558.65	348.74
558.81	421.30
558.98	400.23
559.14	437.68
559.31	376.83
559.47	407.25
559.64	447.04
559.80	388.53
559.97	451.72
560.13	430.66
560.30	435.34
560.46	454.06
560.63	400.23
560.79	456.40
560.96	463.43
561.12	468.11
561.29	379.17
561.45	360.44
561.61	503.22
561.78	521.94
561.94	463.43
562.11	372.15
562.27	395.55
562.44	407.25
562.60	449.38
562.77	430.66
562.93	418.96
563.10	411.93
563.26	402.57
563.42	418.96
563.59	346.40
563.75	383.85
563.92	414.27
564.08	449.38
564.24	486.83
564.41	521.94
564.57	414.27
564.74	393.21
564.90	456.40
565.07	484.49
565.23	430.66
565.39	447.04
565.56	477.47
565.72	369.80
565.88	390.87
566.05	355.76
566.21	376.83
566.38	402.57
566.54	390.87
566.70	400.23
566.87	337.04
567.03	407.25
567.19	442.36
567.36	442.36
567.52	409.59
567.68	381.51
567.85	428.32
568.01	351.08
568.17	379.17
568.34	407.25
568.50	489.17
568.66	461.09
568.83	456.40
568.99	388.53
569.15	461.09
569.32	454.06
569.48	411.93
569.64	465.77
569.81	423.64
569.97	409.59
570.13	414.27
570.30	421.30
570.46	376.83
570.62	423.64
570.78	433.00
570.95	423.64
571.11	421.30
571.27	454.06
571.43	339.38
571.60	472.79
571.76	458.74
571.92	348.74
572.09	444.70
572.25	440.02
572.41	367.46
572.57	388.53
572.74	430.66
572.90	475.13
573.06	411.93
573.22	505.56
573.38	470.45
573.55	407.25
573.71	505.56
573.87	451.72
574.03	383.85
574.20	365.12
574.36	444.70
574.52	402.57
574.68	353.42
574.84	428.32
575.01	416.62
575.17	421.30
575.33	353.42
575.49	482.15
575.65	440.02
575.82	395.55
575.98	489.17
576.14	379.17
576.30	411.93
576.46	433.00
576.62	388.53
576.79	435.34
576.95	440.02
577.11	341.72
577.27	430.66
577.43	440.02
577.59	379.17
577.75	479.81
577.92	428.32
578.08	397.89
578.24	475.13
578.40	423.64
578.56	500.87
578.72	430.66
578.88	388.53
579.04	362.78
579.21	402.57
579.37	388.53
579.53	355.76
579.69	332.36
579.85	421.30
580.01	428.32
580.17	437.68
580.33	360.44
580.49	376.83
580.65	461.09
580.82	510.24
580.98	456.40
581.14	390.87
581.30	472.79
581.46	404.91
581.62	418.96
581.78	388.53
581.94	475.13
582.10	388.53
582.26	402.57
582.42	444.70
582.58	358.10
582.74	402.57
582.90	407.25
583.06	418.96
583.22	447.04
583.38	395.55
583.54	451.72
583.70	440.02
583.86	416.62
584.02	407.25
584.18	330.02
584.34	327.68
584.50	461.09
584.66	479.81
584.82	407.25
584.98	407.25
585.14	341.72
585.30	461.09
585.46	421.30
585.62	404.91
585.78	358.10
585.94	386.19
586.10	337.04
586.26	355.76
586.42	463.43
586.58	451.72
586.74	369.80
586.90	416.62
587.06	404.91
587.22	458.74
587.38	465.77
587.54	447.04
587.70	444.70
587.86	397.89
588.02	463.43
588.18	423.64
588.34	395.55
588.49	372.15
588.65	440.02
588.81	421.30
588.97	409.59
589.13	409.59
589.29	390.87
589.45	374.49
589.61	351.08
589.77	484.49
589.93	411.93
590.08	416.62
590.24	372.15
590.40	440.02
590.56	383.85
590.72	379.17
590.88	479.81
591.04	451.72
591.20	400.23
591.35	449.38
591.51	491.51
591.67	404.91
591.83	386.19
591.99	458.74
592.15	418.96
592.31	421.30
592.46	421.30
592.62	383.85
592.78	444.70
592.94	423.64
593.10	425.98
593.26	339.38
593.41	475.13
593.57	454.06
593.73	423.64
593.89	425.98
594.05	433.00
594.20	355.76
594.36	395.55
594.52	360.44
594.68	440.02
594.84	444.70
594.99	444.70
595.15	444.70
595.31	409.59
595.47	414.27
595.62	447.04
595.78	379.17
595.94	365.12
596.10	484.49
596.25	414.27
596.41	477.47
596.57	411.93
596.73	404.91
596.88	456.40
597.04	400.23
597.20	390.87
597.36	430.66
597.51	337.04
597.67	383.85
597.83	409.59
597.99	437.68
598.14	402.57
598.30	421.30
598.46	416.62
598.61	475.13
598.77	482.15
598.93	383.85
599.09	393.21
599.24	456.40
599.40	425.98
599.56	395.55
599.71	465.77
599.87	482.15
600.03	416.62
600.18	418.96
600.34	447.04
600.50	388.53
600.65	461.09
600.81	369.80
600.97	376.83
601.12	362.78
601.28	528.96
601.44	454.06
601.59	381.51
601.75	456.40
601.91	456.40
602.06	353.42
602.22	538.32
602.37	407.25
602.53	407.25
602.69	482.15
602.84	428.32
603.00	430.66
603.16	470.45
603.31	444.70
603.47	423.64
603.62	367.46
603.78	360.44
603.94	428.32
604.09	404.91
604.25	383.85
604.40	383.85
604.56	442.36
604.71	397.89
604.87	395.55
605.03	348.74
605.18	386.19
605.34	442.36
605.49	404.91
605.65	395.55
605.80	306.61
605.96	404.91
606.12	418.96
606.27	423.64
606.43	430.66
606.58	437.68
606.74	404.91
606.89	376.83
607.05	388.53
607.20	358.10
607.36	395.55
607.51	428.32
607.67	339.38
607.82	369.80
607.98	435.34
608.13	425.98
608.29	463.43
608.44	414.27
608.60	451.72
608.75	395.55
608.91	449.38
609.06	383.85
609.22	491.51
609.37	428.32
609.53	393.21
609.68	444.70
609.84	379.17
609.99	411.93
610.15	393.21
