SpectraSuite Data File
++++++++++++++++++++++++++++++++++++
Date: Fri Oct 25 12:10:31 EDT 2013
User: price-jones
Dark Spectrum Present: No
Reference Spectrum Present: No
Number of Sampled Component Spectra: 1
Spectrometers: USB2+H05261
Integration Time (usec): 100000 (USB2+H05261)
Spectra Averaged: 1 (USB2+H05261)
Boxcar Smoothing: 0 (USB2+H05261)
Correct for Electrical Dark: No (USB2+H05261)
Strobe/Lamp Enabled: No (USB2+H05261)
Correct for Detector Non-linearity: No (USB2+H05261)
Correct for Stray Light: No (USB2+H05261)
Number of Pixels in Processed Spectrum: 2048
>>>>>Begin Processed Spectral Data<<<<<
365.73	346.40
365.92	346.40
366.12	346.40
366.32	243.42
366.52	236.39
366.72	222.35
366.91	241.08
367.11	276.18
367.31	180.22
367.51	283.20
367.70	306.61
367.90	245.76
368.10	194.26
368.30	227.03
368.49	245.76
368.69	304.27
368.89	229.37
369.09	238.73
369.28	320.65
369.48	301.93
369.68	299.59
369.87	245.76
370.07	353.42
370.27	383.85
370.47	404.91
370.66	294.91
370.86	330.02
371.06	322.99
371.25	374.49
371.45	395.55
371.65	395.55
371.84	341.72
372.04	358.10
372.24	433.00
372.44	414.27
372.63	397.89
372.83	416.62
373.03	454.06
373.22	339.38
373.42	486.83
373.62	435.34
373.81	468.11
374.01	454.06
374.21	447.04
374.40	390.87
374.60	463.43
374.79	379.17
374.99	461.09
375.19	418.96
375.38	397.89
375.58	402.57
375.78	447.04
375.97	456.40
376.17	449.38
376.37	435.34
376.56	430.66
376.76	386.19
376.95	449.38
377.15	325.33
377.35	507.90
377.54	456.40
377.74	423.64
377.93	418.96
378.13	367.46
378.33	461.09
378.52	367.46
378.72	458.74
378.91	404.91
379.11	447.04
379.31	397.89
379.50	425.98
379.70	372.15
379.89	437.68
380.09	395.55
380.28	379.17
380.48	376.83
380.68	383.85
380.87	425.98
381.07	397.89
381.26	376.83
381.46	397.89
381.65	362.78
381.85	395.55
382.04	390.87
382.24	374.49
382.43	397.89
382.63	360.44
382.83	402.57
383.02	440.02
383.22	430.66
383.41	388.53
383.61	376.83
383.80	442.36
384.00	390.87
384.19	365.12
384.39	337.04
384.58	400.23
384.78	416.62
384.97	351.08
385.17	407.25
385.36	400.23
385.56	418.96
385.75	362.78
385.95	409.59
386.14	475.13
386.34	477.47
386.53	353.42
386.72	390.87
386.92	451.72
387.11	395.55
387.31	395.55
387.50	355.76
387.70	365.12
387.89	435.34
388.09	409.59
388.28	395.55
388.48	376.83
388.67	454.06
388.86	351.08
389.06	367.46
389.25	395.55
389.45	409.59
389.64	369.80
389.84	409.59
390.03	489.17
390.22	421.30
390.42	421.30
390.61	411.93
390.81	358.10
391.00	365.12
391.19	425.98
391.39	435.34
391.58	456.40
391.78	425.98
391.97	348.74
392.16	421.30
392.36	428.32
392.55	400.23
392.75	353.42
392.94	374.49
393.13	454.06
393.33	402.57
393.52	386.19
393.71	397.89
393.91	414.27
394.10	442.36
394.29	402.57
394.49	404.91
394.68	418.96
394.88	437.68
395.07	468.11
395.26	428.32
395.46	430.66
395.65	376.83
395.84	416.62
396.04	514.92
396.23	430.66
396.42	425.98
396.62	440.02
396.81	407.25
397.00	388.53
397.19	404.91
397.39	425.98
397.58	428.32
397.77	367.46
397.97	425.98
398.16	369.80
398.35	315.97
398.55	360.44
398.74	292.57
398.93	486.83
399.12	374.49
399.32	416.62
399.51	369.80
399.70	470.45
399.90	435.34
400.09	458.74
400.28	395.55
400.47	456.40
400.67	355.76
400.86	337.04
401.05	402.57
401.24	435.34
401.44	500.87
401.63	365.12
401.82	428.32
402.01	383.85
402.21	346.40
402.40	376.83
402.59	454.06
402.78	425.98
402.97	423.64
403.17	449.38
403.36	388.53
403.55	339.38
403.74	395.55
403.93	397.89
404.13	423.64
404.32	402.57
404.51	461.09
404.70	376.83
404.89	444.70
405.09	418.96
405.28	461.09
405.47	440.02
405.66	451.72
405.85	390.87
406.05	379.17
406.24	447.04
406.43	388.53
406.62	395.55
406.81	411.93
407.00	447.04
407.20	367.46
407.39	411.93
407.58	339.38
407.77	372.15
407.96	423.64
408.15	498.53
408.34	381.51
408.54	437.68
408.73	355.76
408.92	433.00
409.11	383.85
409.30	416.62
409.49	315.97
409.68	423.64
409.87	418.96
410.07	395.55
410.26	393.21
410.45	414.27
410.64	388.53
410.83	397.89
411.02	285.55
411.21	486.83
411.40	503.22
411.59	374.49
411.78	430.66
411.98	454.06
412.17	374.49
412.36	381.51
412.55	400.23
412.74	407.25
412.93	383.85
413.12	411.93
413.31	358.10
413.50	409.59
413.69	435.34
413.88	400.23
414.07	409.59
414.26	318.31
414.45	402.57
414.64	322.99
414.83	344.06
415.02	416.62
415.22	423.64
415.41	463.43
415.60	395.55
415.79	421.30
415.98	393.21
416.17	458.74
416.36	440.02
416.55	402.57
416.74	423.64
416.93	348.74
417.12	444.70
417.31	353.42
417.50	369.80
417.69	484.49
417.88	451.72
418.07	430.66
418.26	430.66
418.45	444.70
418.64	435.34
418.83	416.62
419.02	395.55
419.21	425.98
419.39	402.57
419.58	376.83
419.77	421.30
419.96	393.21
420.15	437.68
420.34	400.23
420.53	458.74
420.72	404.91
420.91	433.00
421.10	404.91
421.29	381.51
421.48	360.44
421.67	311.29
421.86	468.11
422.05	397.89
422.24	383.85
422.43	440.02
422.61	344.06
422.80	355.76
422.99	416.62
423.18	332.36
423.37	433.00
423.56	433.00
423.75	456.40
423.94	442.36
424.13	402.57
424.32	461.09
424.50	418.96
424.69	414.27
424.88	346.40
425.07	395.55
425.26	521.94
425.45	393.21
425.64	397.89
425.83	332.36
426.01	397.89
426.20	430.66
426.39	304.27
426.58	358.10
426.77	402.57
426.96	430.66
427.15	414.27
427.33	379.17
427.52	374.49
427.71	411.93
427.90	362.78
428.09	435.34
428.28	400.23
428.46	367.46
428.65	468.11
428.84	367.46
429.03	451.72
429.22	442.36
429.40	404.91
429.59	451.72
429.78	416.62
429.97	348.74
430.16	386.19
430.34	418.96
430.53	372.15
430.72	348.74
430.91	416.62
431.10	442.36
431.28	402.57
431.47	449.38
431.66	418.96
431.85	407.25
432.03	423.64
432.22	428.32
432.41	360.44
432.60	409.59
432.79	402.57
432.97	451.72
433.16	470.45
433.35	388.53
433.54	447.04
433.72	386.19
433.91	381.51
434.10	414.27
434.28	454.06
434.47	381.51
434.66	369.80
434.85	444.70
435.03	374.49
435.22	498.53
435.41	362.78
435.59	372.15
435.78	442.36
435.97	435.34
436.16	418.96
436.34	407.25
436.53	423.64
436.72	423.64
436.90	395.55
437.09	428.32
437.28	456.40
437.46	358.10
437.65	442.36
437.84	381.51
438.02	444.70
438.21	503.22
438.40	435.34
438.58	390.87
438.77	376.83
438.96	372.15
439.14	397.89
439.33	435.34
439.52	435.34
439.70	379.17
439.89	451.72
440.08	440.02
440.26	421.30
440.45	409.59
440.63	482.15
440.82	381.51
441.01	418.96
441.19	416.62
441.38	486.83
441.57	390.87
441.75	430.66
441.94	498.53
442.12	428.32
442.31	372.15
442.50	414.27
442.68	313.63
442.87	414.27
443.05	367.46
443.24	348.74
443.43	463.43
443.61	472.79
443.80	397.89
443.98	344.06
444.17	393.21
444.35	395.55
444.54	421.30
444.73	388.53
444.91	407.25
445.10	393.21
445.28	425.98
445.47	374.49
445.65	433.00
445.84	395.55
446.02	393.21
446.21	440.02
446.39	409.59
446.58	372.15
446.77	411.93
446.95	376.83
447.14	379.17
447.32	430.66
447.51	355.76
447.69	425.98
447.88	416.62
448.06	475.13
448.25	421.30
448.43	498.53
448.62	372.15
448.80	411.93
448.99	440.02
449.17	393.21
449.36	341.72
449.54	423.64
449.73	447.04
449.91	433.00
450.10	400.23
450.28	428.32
450.46	475.13
450.65	397.89
450.83	379.17
451.02	407.25
451.20	388.53
451.39	397.89
451.57	402.57
451.76	393.21
451.94	393.21
452.13	468.11
452.31	407.25
452.49	390.87
452.68	397.89
452.86	449.38
453.05	428.32
453.23	383.85
453.42	383.85
453.60	379.17
453.78	423.64
453.97	409.59
454.15	428.32
454.34	351.08
454.52	390.87
454.70	458.74
454.89	470.45
455.07	386.19
455.26	407.25
455.44	400.23
455.62	416.62
455.81	454.06
455.99	414.27
456.17	430.66
456.36	411.93
456.54	395.55
456.73	376.83
456.91	381.51
457.09	390.87
457.28	447.04
457.46	463.43
457.64	447.04
457.83	376.83
458.01	491.51
458.19	397.89
458.38	437.68
458.56	388.53
458.74	430.66
458.93	468.11
459.11	421.30
459.29	418.96
459.48	461.09
459.66	440.02
459.84	404.91
460.03	421.30
460.21	428.32
460.39	383.85
460.57	461.09
460.76	355.76
460.94	472.79
461.12	461.09
461.31	409.59
461.49	404.91
461.67	404.91
461.85	449.38
462.04	332.36
462.22	795.78
462.40	425.98
462.59	479.81
462.77	353.42
462.95	433.00
463.13	463.43
463.32	397.89
463.50	458.74
463.68	418.96
463.86	414.27
464.05	381.51
464.23	369.80
464.41	442.36
464.59	360.44
464.78	353.42
464.96	402.57
465.14	404.91
465.32	362.78
465.50	397.89
465.69	421.30
465.87	477.47
466.05	484.49
466.23	491.51
466.41	477.47
466.60	428.32
466.78	395.55
466.96	320.65
467.14	425.98
467.32	397.89
467.51	381.51
467.69	435.34
467.87	486.83
468.05	390.87
468.23	388.53
468.41	477.47
468.60	383.85
468.78	463.43
468.96	376.83
469.14	404.91
469.32	388.53
469.50	362.78
469.69	390.87
469.87	351.08
470.05	397.89
470.23	397.89
470.41	362.78
470.59	395.55
470.77	318.31
470.95	397.89
471.14	470.45
471.32	440.02
471.50	428.32
471.68	386.19
471.86	447.04
472.04	496.19
472.22	334.70
472.40	409.59
472.58	409.59
472.77	442.36
472.95	489.17
473.13	402.57
473.31	400.23
473.49	411.93
473.67	404.91
473.85	554.71
474.03	442.36
474.21	407.25
474.39	479.81
474.57	407.25
474.75	458.74
474.93	451.72
475.12	358.10
475.30	381.51
475.48	346.40
475.66	381.51
475.84	456.40
476.02	411.93
476.20	409.59
476.38	430.66
476.56	430.66
476.74	479.81
476.92	447.04
477.10	444.70
477.28	444.70
477.46	435.34
477.64	482.15
477.82	435.34
478.00	404.91
478.18	407.25
478.36	433.00
478.54	411.93
478.72	395.55
478.90	454.06
479.08	376.83
479.26	433.00
479.44	409.59
479.62	397.89
479.80	388.53
479.98	421.30
480.16	360.44
480.34	428.32
480.52	395.55
480.70	440.02
480.88	388.53
481.06	421.30
481.24	479.81
481.41	404.91
481.59	463.43
481.77	404.91
481.95	423.64
482.13	451.72
482.31	400.23
482.49	451.72
482.67	442.36
482.85	393.21
483.03	442.36
483.21	402.57
483.39	423.64
483.57	430.66
483.74	447.04
483.92	425.98
484.10	407.25
484.28	397.89
484.46	458.74
484.64	430.66
484.82	407.25
485.00	409.59
485.18	395.55
485.35	425.98
485.53	374.49
485.71	435.34
485.89	411.93
486.07	369.80
486.25	409.59
486.43	390.87
486.61	442.36
486.78	397.89
486.96	437.68
487.14	404.91
487.32	428.32
487.50	381.51
487.68	433.00
487.85	393.21
488.03	418.96
488.21	454.06
488.39	463.43
488.57	411.93
488.75	442.36
488.92	475.13
489.10	379.17
489.28	521.94
489.46	425.98
489.64	433.00
489.81	454.06
489.99	442.36
490.17	433.00
490.35	468.11
490.53	463.43
490.70	449.38
490.88	393.21
491.06	428.32
491.24	423.64
491.41	470.45
491.59	458.74
491.77	425.98
491.95	390.87
492.13	447.04
492.30	444.70
492.48	416.62
492.66	465.77
492.84	416.62
493.01	454.06
493.19	433.00
493.37	442.36
493.54	447.04
493.72	507.90
493.90	379.17
494.08	423.64
494.25	388.53
494.43	365.12
494.61	353.42
494.79	428.32
494.96	433.00
495.14	411.93
495.32	308.95
495.49	376.83
495.67	451.72
495.85	404.91
496.02	404.91
496.20	372.15
496.38	430.66
496.55	449.38
496.73	423.64
496.91	397.89
497.09	423.64
497.26	447.04
497.44	418.96
497.62	369.80
497.79	465.77
497.97	369.80
498.14	421.30
498.32	381.51
498.50	479.81
498.67	395.55
498.85	472.79
499.03	362.78
499.20	395.55
499.38	409.59
499.56	468.11
499.73	477.47
499.91	369.80
500.08	404.91
500.26	376.83
500.44	463.43
500.61	458.74
500.79	425.98
500.97	472.79
501.14	470.45
501.32	456.40
501.49	449.38
501.67	381.51
501.84	498.53
502.02	425.98
502.20	386.19
502.37	418.96
502.55	381.51
502.72	404.91
502.90	428.32
503.07	449.38
503.25	425.98
503.43	428.32
503.60	383.85
503.78	423.64
503.95	395.55
504.13	433.00
504.30	409.59
504.48	559.39
504.65	468.11
504.83	404.91
505.01	418.96
505.18	397.89
505.36	390.87
505.53	514.92
505.71	369.80
505.88	381.51
506.06	393.21
506.23	428.32
506.41	397.89
506.58	442.36
506.76	383.85
506.93	489.17
507.11	386.19
507.28	362.78
507.46	393.21
507.63	404.91
507.81	404.91
507.98	407.25
508.16	456.40
508.33	416.62
508.50	433.00
508.68	456.40
508.85	372.15
509.03	379.17
509.20	374.49
509.38	442.36
509.55	451.72
509.73	346.40
509.90	418.96
510.08	395.55
510.25	407.25
510.42	472.79
510.60	362.78
510.77	458.74
510.95	407.25
511.12	430.66
511.30	407.25
511.47	374.49
511.64	463.43
511.82	409.59
511.99	393.21
512.17	402.57
512.34	444.70
512.51	393.21
512.69	418.96
512.86	416.62
513.04	372.15
513.21	379.17
513.38	409.59
513.56	435.34
513.73	440.02
513.90	435.34
514.08	435.34
514.25	386.19
514.43	433.00
514.60	369.80
514.77	379.17
514.95	402.57
515.12	463.43
515.29	435.34
515.47	454.06
515.64	388.53
515.81	454.06
515.99	458.74
516.16	351.08
516.33	425.98
516.51	393.21
516.68	435.34
516.85	355.76
517.03	421.30
517.20	472.79
517.37	379.17
517.54	428.32
517.72	449.38
517.89	421.30
518.06	393.21
518.24	428.32
518.41	468.11
518.58	461.09
518.75	379.17
518.93	374.49
519.10	479.81
519.27	388.53
519.45	383.85
519.62	369.80
519.79	372.15
519.96	393.21
520.14	362.78
520.31	397.89
520.48	451.72
520.65	404.91
520.83	425.98
521.00	423.64
521.17	451.72
521.34	376.83
521.52	414.27
521.69	400.23
521.86	369.80
522.03	395.55
522.20	423.64
522.38	435.34
522.55	451.72
522.72	404.91
522.89	395.55
523.07	456.40
523.24	418.96
523.41	388.53
523.58	374.49
523.75	388.53
523.92	437.68
524.10	456.40
524.27	461.09
524.44	393.21
524.61	397.89
524.78	388.53
524.96	428.32
525.13	372.15
525.30	451.72
525.47	451.72
525.64	388.53
525.81	456.40
525.98	395.55
526.16	454.06
526.33	416.62
526.50	400.23
526.67	409.59
526.84	407.25
527.01	433.00
527.18	400.23
527.36	365.12
527.53	376.83
527.70	360.44
527.87	395.55
528.04	440.02
528.21	416.62
528.38	409.59
528.55	468.11
528.72	393.21
528.89	507.90
529.07	381.51
529.24	407.25
529.41	395.55
529.58	425.98
529.75	397.89
529.92	369.80
530.09	418.96
530.26	435.34
530.43	337.04
530.60	407.25
530.77	374.49
530.94	376.83
531.11	433.00
531.28	458.74
531.46	404.91
531.63	402.57
531.80	362.78
531.97	379.17
532.14	458.74
532.31	489.17
532.48	444.70
532.65	423.64
532.82	379.17
532.99	433.00
533.16	404.91
533.33	414.27
533.50	381.51
533.67	414.27
533.84	369.80
534.01	372.15
534.18	440.02
534.35	332.36
534.52	379.17
534.69	437.68
534.86	444.70
535.03	416.62
535.20	388.53
535.37	484.49
535.54	395.55
535.71	496.19
535.88	447.04
536.05	346.40
536.22	404.91
536.38	383.85
536.55	362.78
536.72	395.55
536.89	430.66
537.06	372.15
537.23	442.36
537.40	390.87
537.57	456.40
537.74	454.06
537.91	449.38
538.08	435.34
538.25	369.80
538.42	383.85
538.59	369.80
538.75	400.23
538.92	355.76
539.09	433.00
539.26	449.38
539.43	493.85
539.60	369.80
539.77	404.91
539.94	418.96
540.11	388.53
540.28	451.72
540.44	435.34
540.61	346.40
540.78	435.34
540.95	346.40
541.12	390.87
541.29	409.59
541.46	454.06
541.62	458.74
541.79	416.62
541.96	390.87
542.13	337.04
542.30	433.00
542.47	449.38
542.63	423.64
542.80	383.85
542.97	496.19
543.14	449.38
543.31	465.77
543.48	461.09
543.64	437.68
543.81	404.91
543.98	395.55
544.15	454.06
544.32	451.72
544.48	433.00
544.65	369.80
544.82	447.04
544.99	418.96
545.16	444.70
545.32	379.17
545.49	486.83
545.66	421.30
545.83	416.62
546.00	360.44
546.16	433.00
546.33	374.49
546.50	395.55
546.67	386.19
546.83	400.23
547.00	456.40
547.17	402.57
547.34	454.06
547.50	386.19
547.67	393.21
547.84	435.34
548.00	519.60
548.17	456.40
548.34	463.43
548.51	402.57
548.67	440.02
548.84	472.79
549.01	428.32
549.18	456.40
549.34	447.04
549.51	362.78
549.68	444.70
549.84	409.59
550.01	374.49
550.18	507.90
550.34	552.37
550.51	442.36
550.68	484.49
550.84	402.57
551.01	491.51
551.18	461.09
551.34	423.64
551.51	351.08
551.68	440.02
551.84	372.15
552.01	442.36
552.18	407.25
552.34	390.87
552.51	437.68
552.68	423.64
552.84	400.23
553.01	442.36
553.18	442.36
553.34	489.17
553.51	369.80
553.67	458.74
553.84	400.23
554.01	369.80
554.17	507.90
554.34	332.36
554.51	458.74
554.67	468.11
554.84	423.64
555.00	440.02
555.17	395.55
555.33	367.46
555.50	404.91
555.67	465.77
555.83	372.15
556.00	362.78
556.16	510.24
556.33	465.77
556.50	414.27
556.66	458.74
556.83	437.68
556.99	404.91
557.16	409.59
557.32	528.96
557.49	393.21
557.65	416.62
557.82	451.72
557.98	365.12
558.15	461.09
558.32	374.49
558.48	397.89
558.65	353.42
558.81	444.70
558.98	428.32
559.14	465.77
559.31	407.25
559.47	458.74
559.64	451.72
559.80	393.21
559.97	393.21
560.13	400.23
560.30	411.93
560.46	376.83
560.63	411.93
560.79	376.83
560.96	463.43
561.12	407.25
561.29	465.77
561.45	388.53
561.61	437.68
561.78	543.00
561.94	416.62
562.11	381.51
562.27	402.57
562.44	493.85
562.60	409.59
562.77	407.25
562.93	442.36
563.10	437.68
563.26	379.17
563.42	346.40
563.59	421.30
563.75	404.91
563.92	465.77
564.08	433.00
564.24	496.19
564.41	470.45
564.57	397.89
564.74	440.02
564.90	400.23
565.07	379.17
565.23	388.53
565.39	414.27
565.56	449.38
565.72	414.27
565.88	407.25
566.05	433.00
566.21	449.38
566.38	444.70
566.54	411.93
566.70	351.08
566.87	437.68
567.03	386.19
567.19	383.85
567.36	456.40
567.52	489.17
567.68	461.09
567.85	409.59
568.01	367.46
568.17	449.38
568.34	360.44
568.50	507.90
568.66	367.46
568.83	521.94
568.99	454.06
569.15	397.89
569.32	393.21
569.48	402.57
569.64	395.55
569.81	414.27
569.97	395.55
570.13	430.66
570.30	430.66
570.46	337.04
570.62	404.91
570.78	327.68
570.95	402.57
571.11	486.83
571.27	454.06
571.43	365.12
571.60	437.68
571.76	409.59
571.92	362.78
572.09	362.78
572.25	437.68
572.41	421.30
572.57	449.38
572.74	435.34
572.90	449.38
573.06	332.36
573.22	411.93
573.38	423.64
573.55	381.51
573.71	447.04
573.87	477.47
574.03	437.68
574.20	409.59
574.36	491.51
574.52	395.55
574.68	330.02
574.84	414.27
575.01	390.87
575.17	489.17
575.33	383.85
575.49	402.57
575.65	528.96
575.82	458.74
575.98	409.59
576.14	463.43
576.30	388.53
576.46	404.91
576.62	440.02
576.79	367.46
576.95	458.74
577.11	376.83
577.27	433.00
577.43	468.11
577.59	440.02
577.75	393.21
577.92	386.19
578.08	442.36
578.24	397.89
578.40	409.59
578.56	444.70
578.72	442.36
578.88	390.87
579.04	381.51
579.21	437.68
579.37	449.38
579.53	379.17
579.69	444.70
579.85	404.91
580.01	435.34
580.17	407.25
580.33	451.72
580.49	440.02
580.65	425.98
580.82	435.34
580.98	416.62
581.14	386.19
581.30	442.36
581.46	425.98
581.62	442.36
581.78	393.21
581.94	442.36
582.10	414.27
582.26	479.81
582.42	372.15
582.58	435.34
582.74	386.19
582.90	318.31
583.06	440.02
583.22	451.72
583.38	447.04
583.54	404.91
583.70	376.83
583.86	463.43
584.02	414.27
584.18	465.77
584.34	383.85
584.50	402.57
584.66	449.38
584.82	430.66
584.98	369.80
585.14	421.30
585.30	437.68
585.46	395.55
585.62	468.11
585.78	404.91
585.94	461.09
586.10	423.64
586.26	351.08
586.42	425.98
586.58	428.32
586.74	418.96
586.90	437.68
587.06	362.78
587.22	395.55
587.38	390.87
587.54	461.09
587.70	414.27
587.86	367.46
588.02	454.06
588.18	430.66
588.34	475.13
588.49	386.19
588.65	397.89
588.81	404.91
588.97	433.00
589.13	433.00
589.29	381.51
589.45	489.17
589.61	367.46
589.77	491.51
589.93	418.96
590.08	447.04
590.24	451.72
590.40	397.89
590.56	376.83
590.72	395.55
590.88	423.64
591.04	367.46
591.20	411.93
591.35	414.27
591.51	395.55
591.67	402.57
591.83	440.02
591.99	435.34
592.15	425.98
592.31	442.36
592.46	486.83
592.62	437.68
592.78	430.66
592.94	449.38
593.10	416.62
593.26	409.59
593.41	418.96
593.57	449.38
593.73	451.72
593.89	355.76
594.05	421.30
594.20	437.68
594.36	411.93
594.52	369.80
594.68	442.36
594.84	472.79
594.99	461.09
595.15	465.77
595.31	397.89
595.47	395.55
595.62	390.87
595.78	498.53
595.94	414.27
596.10	505.56
596.25	400.23
596.41	437.68
596.57	369.80
596.73	479.81
596.88	393.21
597.04	346.40
597.20	428.32
597.36	454.06
597.51	449.38
597.67	470.45
597.83	402.57
597.99	517.26
598.14	484.49
598.30	430.66
598.46	365.12
598.61	421.30
598.77	482.15
598.93	475.13
599.09	369.80
599.24	454.06
599.40	430.66
599.56	383.85
599.71	386.19
599.87	358.10
600.03	461.09
600.18	390.87
600.34	433.00
600.50	489.17
600.65	390.87
600.81	454.06
600.97	428.32
601.12	461.09
601.28	451.72
601.44	330.02
601.59	395.55
601.75	409.59
601.91	463.43
602.06	425.98
602.22	454.06
602.37	447.04
602.53	418.96
602.69	425.98
602.84	360.44
603.00	369.80
603.16	423.64
603.31	395.55
603.47	482.15
603.62	325.33
603.78	444.70
603.94	383.85
604.09	330.02
604.25	468.11
604.40	468.11
604.56	414.27
604.71	365.12
604.87	425.98
605.03	318.31
605.18	395.55
605.34	447.04
605.49	416.62
605.65	442.36
605.80	421.30
605.96	386.19
606.12	442.36
606.27	423.64
606.43	458.74
606.58	430.66
606.74	486.83
606.89	383.85
607.05	423.64
607.20	409.59
607.36	433.00
607.51	465.77
607.67	414.27
607.82	362.78
607.98	498.53
608.13	430.66
608.29	397.89
608.44	468.11
608.60	348.74
608.75	433.00
608.91	444.70
609.06	416.62
609.22	430.66
609.37	461.09
609.53	425.98
609.68	477.47
609.84	390.87
609.99	454.06
610.15	440.02
