SpectraSuite Data File
++++++++++++++++++++++++++++++++++++
Date: Fri Oct 25 12:11:25 EDT 2013
User: price-jones
Dark Spectrum Present: No
Reference Spectrum Present: No
Number of Sampled Component Spectra: 1
Spectrometers: USB2+H05261
Integration Time (usec): 100000 (USB2+H05261)
Spectra Averaged: 1 (USB2+H05261)
Boxcar Smoothing: 0 (USB2+H05261)
Correct for Electrical Dark: No (USB2+H05261)
Strobe/Lamp Enabled: No (USB2+H05261)
Correct for Detector Non-linearity: No (USB2+H05261)
Correct for Stray Light: No (USB2+H05261)
Number of Pixels in Processed Spectrum: 2048
>>>>>Begin Processed Spectral Data<<<<<
365.73	315.97
365.92	315.97
366.12	315.97
366.32	311.29
366.52	290.23
366.72	287.89
366.91	259.80
367.11	285.55
367.31	191.92
367.51	173.20
367.70	255.12
367.90	194.26
368.10	227.03
368.30	203.63
368.49	217.67
368.69	311.29
368.89	238.73
369.09	306.61
369.28	327.68
369.48	198.95
369.68	287.89
369.87	280.86
370.07	273.84
370.27	315.97
370.47	334.70
370.66	348.74
370.86	372.15
371.06	395.55
371.25	386.19
371.45	308.95
371.65	402.57
371.84	313.63
372.04	397.89
372.24	381.51
372.44	311.29
372.63	425.98
372.83	407.25
373.03	416.62
373.22	374.49
373.42	433.00
373.62	383.85
373.81	449.38
374.01	414.27
374.21	437.68
374.40	425.98
374.60	404.91
374.79	409.59
374.99	458.74
375.19	421.30
375.38	472.79
375.58	440.02
375.78	407.25
375.97	402.57
376.17	435.34
376.37	407.25
376.56	404.91
376.76	400.23
376.95	383.85
377.15	428.32
377.35	397.89
377.54	418.96
377.74	411.93
377.93	421.30
378.13	381.51
378.33	407.25
378.52	416.62
378.72	491.51
378.91	498.53
379.11	351.08
379.31	489.17
379.50	360.44
379.70	418.96
379.89	444.70
380.09	395.55
380.28	362.78
380.48	402.57
380.68	423.64
380.87	423.64
381.07	402.57
381.26	449.38
381.46	442.36
381.65	306.61
381.85	416.62
382.04	433.00
382.24	353.42
382.43	500.87
382.63	369.80
382.83	449.38
383.02	374.49
383.22	479.81
383.41	393.21
383.61	440.02
383.80	402.57
384.00	367.46
384.19	379.17
384.39	444.70
384.58	407.25
384.78	379.17
384.97	407.25
385.17	402.57
385.36	437.68
385.56	433.00
385.75	278.52
385.95	423.64
386.14	430.66
386.34	332.36
386.53	397.89
386.72	414.27
386.92	454.06
387.11	379.17
387.31	379.17
387.50	425.98
387.70	458.74
387.89	400.23
388.09	400.23
388.28	486.83
388.48	409.59
388.67	411.93
388.86	454.06
389.06	404.91
389.25	402.57
389.45	458.74
389.64	456.40
389.84	423.64
390.03	449.38
390.22	407.25
390.42	482.15
390.61	404.91
390.81	400.23
391.00	388.53
391.19	386.19
391.39	383.85
391.58	458.74
391.78	440.02
391.97	400.23
392.16	379.17
392.36	470.45
392.55	425.98
392.75	402.57
392.94	444.70
393.13	407.25
393.33	435.34
393.52	411.93
393.71	423.64
393.91	437.68
394.10	440.02
394.29	395.55
394.49	369.80
394.68	425.98
394.88	430.66
395.07	414.27
395.26	475.13
395.46	353.42
395.65	449.38
395.84	400.23
396.04	472.79
396.23	454.06
396.42	400.23
396.62	395.55
396.81	376.83
397.00	411.93
397.19	416.62
397.39	393.21
397.58	425.98
397.77	395.55
397.97	393.21
398.16	465.77
398.35	418.96
398.55	318.31
398.74	402.57
398.93	465.77
399.12	468.11
399.32	388.53
399.51	430.66
399.70	435.34
399.90	409.59
400.09	468.11
400.28	463.43
400.47	409.59
400.67	435.34
400.86	423.64
401.05	437.68
401.24	444.70
401.44	393.21
401.63	444.70
401.82	411.93
402.01	440.02
402.21	447.04
402.40	456.40
402.59	428.32
402.78	372.15
402.97	381.51
403.17	416.62
403.36	437.68
403.55	496.19
403.74	355.76
403.93	365.12
404.13	386.19
404.32	353.42
404.51	379.17
404.70	433.00
404.89	362.78
405.09	423.64
405.28	381.51
405.47	407.25
405.66	416.62
405.85	400.23
406.05	365.12
406.24	404.91
406.43	418.96
406.62	397.89
406.81	435.34
407.00	397.89
407.20	397.89
407.39	416.62
407.58	430.66
407.77	348.74
407.96	360.44
408.15	386.19
408.34	430.66
408.54	437.68
408.73	397.89
408.92	379.17
409.11	428.32
409.30	411.93
409.49	425.98
409.68	451.72
409.87	348.74
410.07	397.89
410.26	397.89
410.45	390.87
410.64	386.19
410.83	381.51
411.02	444.70
411.21	423.64
411.40	416.62
411.59	402.57
411.78	472.79
411.98	437.68
412.17	435.34
412.36	372.15
412.55	402.57
412.74	397.89
412.93	447.04
413.12	390.87
413.31	383.85
413.50	428.32
413.69	355.76
413.88	451.72
414.07	390.87
414.26	397.89
414.45	472.79
414.64	489.17
414.83	407.25
415.02	447.04
415.22	386.19
415.41	409.59
415.60	421.30
415.79	442.36
415.98	482.15
416.17	416.62
416.36	418.96
416.55	409.59
416.74	451.72
416.93	414.27
417.12	369.80
417.31	451.72
417.50	390.87
417.69	388.53
417.88	437.68
418.07	360.44
418.26	374.49
418.45	435.34
418.64	421.30
418.83	428.32
419.02	491.51
419.21	475.13
419.39	442.36
419.58	470.45
419.77	404.91
419.96	355.76
420.15	430.66
420.34	430.66
420.53	397.89
420.72	372.15
420.91	463.43
421.10	475.13
421.29	407.25
421.48	418.96
421.67	404.91
421.86	416.62
422.05	451.72
422.24	451.72
422.43	332.36
422.61	449.38
422.80	440.02
422.99	407.25
423.18	400.23
423.37	418.96
423.56	400.23
423.75	458.74
423.94	388.53
424.13	400.23
424.32	433.00
424.50	372.15
424.69	425.98
424.88	376.83
425.07	372.15
425.26	383.85
425.45	458.74
425.64	435.34
425.83	458.74
426.01	472.79
426.20	465.77
426.39	409.59
426.58	411.93
426.77	421.30
426.96	493.85
427.15	383.85
427.33	351.08
427.52	430.66
427.71	393.21
427.90	433.00
428.09	360.44
428.28	355.76
428.46	418.96
428.65	463.43
428.84	425.98
429.03	491.51
429.22	379.17
429.40	393.21
429.59	418.96
429.78	365.12
429.97	404.91
430.16	472.79
430.34	484.49
430.53	379.17
430.72	447.04
430.91	430.66
431.10	451.72
431.28	451.72
431.47	447.04
431.66	484.49
431.85	428.32
432.03	402.57
432.22	500.87
432.41	404.91
432.60	430.66
432.79	451.72
432.97	318.31
433.16	447.04
433.35	397.89
433.54	409.59
433.72	465.77
433.91	423.64
434.10	369.80
434.28	425.98
434.47	416.62
434.66	433.00
434.85	477.47
435.03	402.57
435.22	442.36
435.41	458.74
435.59	353.42
435.78	374.49
435.97	390.87
436.16	379.17
436.34	381.51
436.53	383.85
436.72	404.91
436.90	425.98
437.09	440.02
437.28	423.64
437.46	447.04
437.65	393.21
437.84	425.98
438.02	386.19
438.21	442.36
438.40	461.09
438.58	395.55
438.77	437.68
438.96	369.80
439.14	381.51
439.33	381.51
439.52	360.44
439.70	433.00
439.89	465.77
440.08	444.70
440.26	386.19
440.45	393.21
440.63	456.40
440.82	353.42
441.01	435.34
441.19	332.36
441.38	355.76
441.57	493.85
441.75	358.10
441.94	500.87
442.12	411.93
442.31	425.98
442.50	381.51
442.68	486.83
442.87	433.00
443.05	423.64
443.24	330.02
443.43	390.87
443.61	465.77
443.80	409.59
443.98	451.72
444.17	355.76
444.35	397.89
444.54	348.74
444.73	442.36
444.91	430.66
445.10	376.83
445.28	451.72
445.47	484.49
445.65	470.45
445.84	425.98
446.02	463.43
446.21	383.85
446.39	372.15
446.58	461.09
446.77	395.55
446.95	430.66
447.14	407.25
447.32	433.00
447.51	444.70
447.69	425.98
447.88	442.36
448.06	414.27
448.25	430.66
448.43	397.89
448.62	390.87
448.80	421.30
448.99	440.02
449.17	449.38
449.36	390.87
449.54	414.27
449.73	383.85
449.91	430.66
450.10	411.93
450.28	447.04
450.46	416.62
450.65	437.68
450.83	437.68
451.02	470.45
451.20	411.93
451.39	409.59
451.57	428.32
451.76	437.68
451.94	437.68
452.13	411.93
452.31	444.70
452.49	447.04
452.68	395.55
452.86	456.40
453.05	449.38
453.23	407.25
453.42	423.64
453.60	414.27
453.78	379.17
453.97	388.53
454.15	411.93
454.34	393.21
454.52	400.23
454.70	454.06
454.89	451.72
455.07	425.98
455.26	400.23
455.44	425.98
455.62	440.02
455.81	400.23
455.99	444.70
456.17	479.81
456.36	414.27
456.54	379.17
456.73	376.83
456.91	386.19
457.09	367.46
457.28	425.98
457.46	407.25
457.64	407.25
457.83	416.62
458.01	381.51
458.19	395.55
458.38	381.51
458.56	454.06
458.74	362.78
458.93	477.47
459.11	409.59
459.29	414.27
459.48	404.91
459.66	472.79
459.84	472.79
460.03	493.85
460.21	414.27
460.39	376.83
460.57	435.34
460.76	425.98
460.94	369.80
461.12	407.25
461.31	433.00
461.49	402.57
461.67	334.70
461.85	465.77
462.04	430.66
462.22	777.06
462.40	430.66
462.59	465.77
462.77	397.89
462.95	379.17
463.13	421.30
463.32	393.21
463.50	418.96
463.68	430.66
463.86	404.91
464.05	461.09
464.23	409.59
464.41	402.57
464.59	437.68
464.78	367.46
464.96	428.32
465.14	376.83
465.32	468.11
465.50	425.98
465.69	456.40
465.87	344.06
466.05	402.57
466.23	468.11
466.41	409.59
466.60	362.78
466.78	390.87
466.96	395.55
467.14	500.87
467.32	475.13
467.51	435.34
467.69	482.15
467.87	440.02
468.05	360.44
468.23	348.74
468.41	388.53
468.60	395.55
468.78	442.36
468.96	365.12
469.14	388.53
469.32	421.30
469.50	379.17
469.69	414.27
469.87	461.09
470.05	390.87
470.23	376.83
470.41	376.83
470.59	386.19
470.77	369.80
470.95	442.36
471.14	465.77
471.32	416.62
471.50	407.25
471.68	430.66
471.86	393.21
472.04	360.44
472.22	421.30
472.40	409.59
472.58	390.87
472.77	430.66
472.95	456.40
473.13	458.74
473.31	458.74
473.49	425.98
473.67	454.06
473.85	386.19
474.03	383.85
474.21	423.64
474.39	430.66
474.57	493.85
474.75	411.93
474.93	461.09
475.12	475.13
475.30	416.62
475.48	381.51
475.66	407.25
475.84	470.45
476.02	491.51
476.20	411.93
476.38	437.68
476.56	454.06
476.74	346.40
476.92	404.91
477.10	463.43
477.28	437.68
477.46	339.38
477.64	428.32
477.82	369.80
478.00	353.42
478.18	386.19
478.36	444.70
478.54	411.93
478.72	456.40
478.90	390.87
479.08	437.68
479.26	425.98
479.44	416.62
479.62	344.06
479.80	440.02
479.98	383.85
480.16	351.08
480.34	463.43
480.52	411.93
480.70	393.21
480.88	428.32
481.06	411.93
481.24	423.64
481.41	388.53
481.59	404.91
481.77	388.53
481.95	388.53
482.13	440.02
482.31	397.89
482.49	416.62
482.67	440.02
482.85	479.81
483.03	430.66
483.21	428.32
483.39	397.89
483.57	491.51
483.74	444.70
483.92	365.12
484.10	425.98
484.28	461.09
484.46	404.91
484.64	400.23
484.82	369.80
485.00	374.49
485.18	397.89
485.35	409.59
485.53	447.04
485.71	367.46
485.89	411.93
486.07	449.38
486.25	444.70
486.43	456.40
486.61	404.91
486.78	390.87
486.96	400.23
487.14	463.43
487.32	440.02
487.50	414.27
487.68	400.23
487.85	381.51
488.03	491.51
488.21	454.06
488.39	479.81
488.57	355.76
488.75	465.77
488.92	531.30
489.10	374.49
489.28	440.02
489.46	421.30
489.64	440.02
489.81	362.78
489.99	416.62
490.17	486.83
490.35	458.74
490.53	414.27
490.70	442.36
490.88	421.30
491.06	470.45
491.24	386.19
491.41	477.47
491.59	491.51
491.77	397.89
491.95	456.40
492.13	451.72
492.30	383.85
492.48	395.55
492.66	418.96
492.84	470.45
493.01	430.66
493.19	400.23
493.37	454.06
493.54	482.15
493.72	416.62
493.90	425.98
494.08	376.83
494.25	444.70
494.43	461.09
494.61	337.04
494.79	381.51
494.96	411.93
495.14	407.25
495.32	407.25
495.49	447.04
495.67	383.85
495.85	355.76
496.02	383.85
496.20	433.00
496.38	409.59
496.55	486.83
496.73	404.91
496.91	433.00
497.09	395.55
497.26	332.36
497.44	409.59
497.62	407.25
497.79	362.78
497.97	409.59
498.14	528.96
498.32	414.27
498.50	402.57
498.67	444.70
498.85	444.70
499.03	400.23
499.20	395.55
499.38	433.00
499.56	362.78
499.73	470.45
499.91	430.66
500.08	397.89
500.26	411.93
500.44	376.83
500.61	442.36
500.79	400.23
500.97	444.70
501.14	461.09
501.32	411.93
501.49	416.62
501.67	435.34
501.84	390.87
502.02	348.74
502.20	428.32
502.37	461.09
502.55	423.64
502.72	411.93
502.90	440.02
503.07	465.77
503.25	456.40
503.43	388.53
503.60	421.30
503.78	428.32
503.95	339.38
504.13	341.72
504.30	521.94
504.48	430.66
504.65	395.55
504.83	425.98
505.01	447.04
505.18	404.91
505.36	442.36
505.53	388.53
505.71	437.68
505.88	484.49
506.06	440.02
506.23	409.59
506.41	470.45
506.58	411.93
506.76	435.34
506.93	437.68
507.11	418.96
507.28	425.98
507.46	428.32
507.63	447.04
507.81	381.51
507.98	430.66
508.16	454.06
508.33	444.70
508.50	482.15
508.68	451.72
508.85	482.15
509.03	404.91
509.20	341.72
509.38	477.47
509.55	470.45
509.73	390.87
509.90	407.25
510.08	409.59
510.25	402.57
510.42	414.27
510.60	425.98
510.77	454.06
510.95	456.40
511.12	421.30
511.30	482.15
511.47	449.38
511.64	428.32
511.82	428.32
511.99	409.59
512.17	374.49
512.34	353.42
512.51	397.89
512.69	447.04
512.86	402.57
513.04	393.21
513.21	430.66
513.38	402.57
513.56	381.51
513.73	360.44
513.90	440.02
514.08	437.68
514.25	444.70
514.43	416.62
514.60	407.25
514.77	418.96
514.95	383.85
515.12	383.85
515.29	454.06
515.47	458.74
515.64	447.04
515.81	421.30
515.99	390.87
516.16	433.00
516.33	416.62
516.51	435.34
516.68	388.53
516.85	475.13
517.03	423.64
517.20	400.23
517.37	496.19
517.54	454.06
517.72	337.04
517.89	367.46
518.06	447.04
518.24	395.55
518.41	388.53
518.58	454.06
518.75	465.77
518.93	440.02
519.10	404.91
519.27	449.38
519.45	376.83
519.62	421.30
519.79	423.64
519.96	388.53
520.14	451.72
520.31	477.47
520.48	409.59
520.65	411.93
520.83	393.21
521.00	444.70
521.17	449.38
521.34	435.34
521.52	393.21
521.69	411.93
521.86	360.44
522.03	351.08
522.20	376.83
522.38	299.59
522.55	444.70
522.72	489.17
522.89	421.30
523.07	407.25
523.24	437.68
523.41	437.68
523.58	451.72
523.75	477.47
523.92	341.72
524.10	442.36
524.27	400.23
524.44	423.64
524.61	395.55
524.78	428.32
524.96	402.57
525.13	428.32
525.30	463.43
525.47	430.66
525.64	451.72
525.81	470.45
525.98	463.43
526.16	447.04
526.33	388.53
526.50	383.85
526.67	341.72
526.84	388.53
527.01	386.19
527.18	440.02
527.36	423.64
527.53	425.98
527.70	447.04
527.87	407.25
528.04	407.25
528.21	463.43
528.38	463.43
528.55	423.64
528.72	418.96
528.89	440.02
529.07	402.57
529.24	461.09
529.41	425.98
529.58	409.59
529.75	451.72
529.92	456.40
530.09	447.04
530.26	414.27
530.43	407.25
530.60	411.93
530.77	395.55
530.94	489.17
531.11	477.47
531.28	416.62
531.46	435.34
531.63	367.46
531.80	433.00
531.97	423.64
532.14	386.19
532.31	456.40
532.48	381.51
532.65	423.64
532.82	456.40
532.99	393.21
533.16	383.85
533.33	390.87
533.50	353.42
533.67	332.36
533.84	444.70
534.01	507.90
534.18	407.25
534.35	386.19
534.52	390.87
534.69	388.53
534.86	365.12
535.03	411.93
535.20	337.04
535.37	433.00
535.54	440.02
535.71	411.93
535.88	388.53
536.05	440.02
536.22	421.30
536.38	414.27
536.55	381.51
536.72	418.96
536.89	416.62
537.06	393.21
537.23	376.83
537.40	416.62
537.57	461.09
537.74	484.49
537.91	451.72
538.08	414.27
538.25	374.49
538.42	369.80
538.59	418.96
538.75	393.21
538.92	472.79
539.09	433.00
539.26	416.62
539.43	447.04
539.60	418.96
539.77	409.59
539.94	379.17
540.11	435.34
540.28	407.25
540.44	461.09
540.61	334.70
540.78	407.25
540.95	475.13
541.12	423.64
541.29	388.53
541.46	470.45
541.62	458.74
541.79	428.32
541.96	388.53
542.13	423.64
542.30	435.34
542.47	472.79
542.63	330.02
542.80	463.43
542.97	500.87
543.14	367.46
543.31	433.00
543.48	386.19
543.64	358.10
543.81	465.77
543.98	379.17
544.15	407.25
544.32	479.81
544.48	388.53
544.65	437.68
544.82	379.17
544.99	416.62
545.16	447.04
545.32	421.30
545.49	409.59
545.66	416.62
545.83	369.80
546.00	430.66
546.16	386.19
546.33	423.64
546.50	416.62
546.67	433.00
546.83	477.47
547.00	409.59
547.17	409.59
547.34	367.46
547.50	433.00
547.67	381.51
547.84	423.64
548.00	433.00
548.17	425.98
548.34	418.96
548.51	435.34
548.67	404.91
548.84	463.43
549.01	374.49
549.18	444.70
549.34	395.55
549.51	411.93
549.68	461.09
549.84	507.90
550.01	451.72
550.18	411.93
550.34	528.96
550.51	409.59
550.68	475.13
550.84	404.91
551.01	416.62
551.18	400.23
551.34	421.30
551.51	451.72
551.68	397.89
551.84	416.62
552.01	358.10
552.18	425.98
552.34	418.96
552.51	351.08
552.68	393.21
552.84	437.68
553.01	451.72
553.18	456.40
553.34	372.15
553.51	365.12
553.67	540.66
553.84	461.09
554.01	454.06
554.17	444.70
554.34	484.49
554.51	397.89
554.67	435.34
554.84	414.27
555.00	433.00
555.17	353.42
555.33	430.66
555.50	470.45
555.67	344.06
555.83	416.62
556.00	386.19
556.16	538.32
556.33	395.55
556.50	440.02
556.66	351.08
556.83	425.98
556.99	414.27
557.16	374.49
557.32	409.59
557.49	395.55
557.65	433.00
557.82	344.06
557.98	393.21
558.15	367.46
558.32	510.24
558.48	407.25
558.65	332.36
558.81	402.57
558.98	428.32
559.14	472.79
559.31	421.30
559.47	458.74
559.64	411.93
559.80	491.51
559.97	449.38
560.13	388.53
560.30	407.25
560.46	414.27
560.63	411.93
560.79	360.44
560.96	397.89
561.12	381.51
561.29	407.25
561.45	390.87
561.61	425.98
561.78	442.36
561.94	447.04
562.11	411.93
562.27	407.25
562.44	468.11
562.60	442.36
562.77	526.62
562.93	458.74
563.10	433.00
563.26	395.55
563.42	454.06
563.59	433.00
563.75	418.96
563.92	449.38
564.08	388.53
564.24	339.38
564.41	484.49
564.57	411.93
564.74	388.53
564.90	397.89
565.07	390.87
565.23	486.83
565.39	409.59
565.56	416.62
565.72	397.89
565.88	482.15
566.05	341.72
566.21	414.27
566.38	414.27
566.54	465.77
566.70	407.25
566.87	372.15
567.03	351.08
567.19	383.85
567.36	402.57
567.52	386.19
567.68	407.25
567.85	381.51
568.01	341.72
568.17	337.04
568.34	421.30
568.50	423.64
568.66	379.17
568.83	491.51
568.99	402.57
569.15	428.32
569.32	435.34
569.48	416.62
569.64	407.25
569.81	407.25
569.97	454.06
570.13	461.09
570.30	500.87
570.46	418.96
570.62	423.64
570.78	484.49
570.95	440.02
571.11	472.79
571.27	456.40
571.43	344.06
571.60	437.68
571.76	386.19
571.92	423.64
572.09	400.23
572.25	393.21
572.41	425.98
572.57	482.15
572.74	477.47
572.90	454.06
573.06	444.70
573.22	458.74
573.38	477.47
573.55	428.32
573.71	402.57
573.87	414.27
574.03	402.57
574.20	379.17
574.36	402.57
574.52	379.17
574.68	449.38
574.84	486.83
575.01	393.21
575.17	451.72
575.33	444.70
575.49	463.43
575.65	437.68
575.82	425.98
575.98	425.98
576.14	367.46
576.30	456.40
576.46	362.78
576.62	369.80
576.79	444.70
576.95	414.27
577.11	418.96
577.27	411.93
577.43	477.47
577.59	465.77
577.75	407.25
577.92	388.53
578.08	430.66
578.24	390.87
578.40	442.36
578.56	414.27
578.72	468.11
578.88	496.19
579.04	418.96
579.21	358.10
579.37	409.59
579.53	451.72
579.69	353.42
579.85	414.27
580.01	414.27
580.17	418.96
580.33	402.57
580.49	435.34
580.65	433.00
580.82	437.68
580.98	411.93
581.14	365.12
581.30	416.62
581.46	416.62
581.62	442.36
581.78	433.00
581.94	358.10
582.10	407.25
582.26	444.70
582.42	442.36
582.58	404.91
582.74	482.15
582.90	472.79
583.06	449.38
583.22	369.80
583.38	379.17
583.54	379.17
583.70	465.77
583.86	425.98
584.02	346.40
584.18	465.77
584.34	365.12
584.50	463.43
584.66	369.80
584.82	440.02
584.98	428.32
585.14	461.09
585.30	374.49
585.46	355.76
585.62	369.80
585.78	449.38
585.94	430.66
586.10	418.96
586.26	414.27
586.42	477.47
586.58	376.83
586.74	367.46
586.90	372.15
587.06	414.27
587.22	367.46
587.38	367.46
587.54	440.02
587.70	470.45
587.86	444.70
588.02	428.32
588.18	418.96
588.34	468.11
588.49	447.04
588.65	430.66
588.81	440.02
588.97	381.51
589.13	397.89
589.29	351.08
589.45	479.81
589.61	376.83
589.77	388.53
589.93	437.68
590.08	430.66
590.24	428.32
590.40	451.72
590.56	472.79
590.72	365.12
590.88	360.44
591.04	409.59
591.20	372.15
591.35	500.87
591.51	402.57
591.67	451.72
591.83	425.98
591.99	381.51
592.15	477.47
592.31	423.64
592.46	430.66
592.62	477.47
592.78	390.87
592.94	454.06
593.10	369.80
593.26	383.85
593.41	362.78
593.57	372.15
593.73	496.19
593.89	437.68
594.05	421.30
594.20	414.27
594.36	400.23
594.52	388.53
594.68	393.21
594.84	381.51
594.99	440.02
595.15	393.21
595.31	360.44
595.47	461.09
595.62	477.47
595.78	440.02
595.94	425.98
596.10	451.72
596.25	442.36
596.41	360.44
596.57	358.10
596.73	458.74
596.88	430.66
597.04	428.32
597.20	435.34
597.36	472.79
597.51	365.12
597.67	423.64
597.83	395.55
597.99	447.04
598.14	409.59
598.30	388.53
598.46	477.47
598.61	388.53
598.77	421.30
598.93	311.29
599.09	400.23
599.24	421.30
599.40	463.43
599.56	423.64
599.71	477.47
599.87	500.87
600.03	390.87
600.18	409.59
600.34	369.80
600.50	407.25
600.65	425.98
600.81	486.83
600.97	416.62
601.12	374.49
601.28	411.93
601.44	430.66
601.59	428.32
601.75	456.40
601.91	407.25
602.06	393.21
602.22	465.77
602.37	472.79
602.53	395.55
602.69	374.49
602.84	425.98
603.00	484.49
603.16	512.58
603.31	411.93
603.47	395.55
603.62	379.17
603.78	416.62
603.94	416.62
604.09	435.34
604.25	395.55
604.40	409.59
604.56	423.64
604.71	458.74
604.87	458.74
605.03	430.66
605.18	409.59
605.34	407.25
605.49	437.68
605.65	409.59
605.80	404.91
605.96	353.42
606.12	393.21
606.27	425.98
606.43	421.30
606.58	454.06
606.74	421.30
606.89	400.23
607.05	351.08
607.20	435.34
607.36	496.19
607.51	393.21
607.67	386.19
607.82	425.98
607.98	458.74
608.13	404.91
608.29	388.53
608.44	447.04
608.60	430.66
608.75	433.00
608.91	423.64
609.06	517.26
609.22	404.91
609.37	454.06
609.53	430.66
609.68	400.23
609.84	388.53
609.99	383.85
610.15	425.98
