SpectraSuite Data File
++++++++++++++++++++++++++++++++++++
Date: Fri Oct 25 12:10:14 EDT 2013
User: price-jones
Dark Spectrum Present: No
Reference Spectrum Present: No
Number of Sampled Component Spectra: 1
Spectrometers: USB2+H05261
Integration Time (usec): 100000 (USB2+H05261)
Spectra Averaged: 1 (USB2+H05261)
Boxcar Smoothing: 0 (USB2+H05261)
Correct for Electrical Dark: No (USB2+H05261)
Strobe/Lamp Enabled: No (USB2+H05261)
Correct for Detector Non-linearity: No (USB2+H05261)
Correct for Stray Light: No (USB2+H05261)
Number of Pixels in Processed Spectrum: 2048
>>>>>Begin Processed Spectral Data<<<<<
365.73	290.23
365.92	290.23
366.12	290.23
366.32	245.76
366.52	220.01
366.72	337.04
366.91	210.65
367.11	299.59
367.31	262.14
367.51	215.33
367.70	229.37
367.90	266.82
368.10	147.45
368.30	248.10
368.49	173.20
368.69	304.27
368.89	252.78
369.09	297.25
369.28	292.57
369.48	346.40
369.68	238.73
369.87	290.23
370.07	252.78
370.27	337.04
370.47	330.02
370.66	320.65
370.86	344.06
371.06	376.83
371.25	318.31
371.45	367.46
371.65	386.19
371.84	386.19
372.04	435.34
372.24	404.91
372.44	421.30
372.63	383.85
372.83	360.44
373.03	447.04
373.22	425.98
373.42	372.15
373.62	383.85
373.81	433.00
374.01	435.34
374.21	437.68
374.40	418.96
374.60	447.04
374.79	397.89
374.99	383.85
375.19	400.23
375.38	402.57
375.58	414.27
375.78	447.04
375.97	402.57
376.17	444.70
376.37	390.87
376.56	358.10
376.76	409.59
376.95	358.10
377.15	407.25
377.35	402.57
377.54	437.68
377.74	388.53
377.93	418.96
378.13	475.13
378.33	428.32
378.52	433.00
378.72	423.64
378.91	404.91
379.11	454.06
379.31	388.53
379.50	358.10
379.70	304.27
379.89	409.59
380.09	402.57
380.28	339.38
380.48	360.44
380.68	355.76
380.87	353.42
381.07	395.55
381.26	416.62
381.46	463.43
381.65	388.53
381.85	376.83
382.04	393.21
382.24	379.17
382.43	435.34
382.63	395.55
382.83	395.55
383.02	444.70
383.22	451.72
383.41	379.17
383.61	404.91
383.80	444.70
384.00	435.34
384.19	290.23
384.39	374.49
384.58	447.04
384.78	425.98
384.97	395.55
385.17	367.46
385.36	404.91
385.56	322.99
385.75	381.51
385.95	393.21
386.14	479.81
386.34	386.19
386.53	353.42
386.72	360.44
386.92	372.15
387.11	362.78
387.31	461.09
387.50	456.40
387.70	369.80
387.89	386.19
388.09	454.06
388.28	416.62
388.48	353.42
388.67	428.32
388.86	404.91
389.06	421.30
389.25	444.70
389.45	372.15
389.64	409.59
389.84	383.85
390.03	367.46
390.22	418.96
390.42	402.57
390.61	402.57
390.81	447.04
391.00	416.62
391.19	381.51
391.39	421.30
391.58	461.09
391.78	369.80
391.97	369.80
392.16	407.25
392.36	482.15
392.55	360.44
392.75	451.72
392.94	379.17
393.13	435.34
393.33	411.93
393.52	348.74
393.71	430.66
393.91	411.93
394.10	404.91
394.29	423.64
394.49	409.59
394.68	428.32
394.88	360.44
395.07	393.21
395.26	397.89
395.46	449.38
395.65	365.12
395.84	367.46
396.04	461.09
396.23	449.38
396.42	442.36
396.62	437.68
396.81	376.83
397.00	358.10
397.19	440.02
397.39	397.89
397.58	397.89
397.77	472.79
397.97	388.53
398.16	442.36
398.35	390.87
398.55	374.49
398.74	400.23
398.93	416.62
399.12	388.53
399.32	390.87
399.51	367.46
399.70	447.04
399.90	442.36
400.09	482.15
400.28	423.64
400.47	315.97
400.67	360.44
400.86	353.42
401.05	355.76
401.24	458.74
401.44	433.00
401.63	433.00
401.82	334.70
402.01	430.66
402.21	407.25
402.40	411.93
402.59	437.68
402.78	390.87
402.97	402.57
403.17	440.02
403.36	395.55
403.55	386.19
403.74	397.89
403.93	369.80
404.13	362.78
404.32	355.76
404.51	437.68
404.70	430.66
404.89	393.21
405.09	451.72
405.28	365.12
405.47	416.62
405.66	479.81
405.85	416.62
406.05	449.38
406.24	411.93
406.43	421.30
406.62	463.43
406.81	486.83
407.00	430.66
407.20	376.83
407.39	461.09
407.58	379.17
407.77	454.06
407.96	360.44
408.15	456.40
408.34	404.91
408.54	344.06
408.73	390.87
408.92	458.74
409.11	409.59
409.30	428.32
409.49	332.36
409.68	423.64
409.87	444.70
410.07	416.62
410.26	358.10
410.45	437.68
410.64	344.06
410.83	383.85
411.02	430.66
411.21	365.12
411.40	470.45
411.59	404.91
411.78	430.66
411.98	465.77
412.17	367.46
412.36	404.91
412.55	376.83
412.74	425.98
412.93	444.70
413.12	468.11
413.31	451.72
413.50	465.77
413.69	390.87
413.88	390.87
414.07	472.79
414.26	423.64
414.45	327.68
414.64	388.53
414.83	430.66
415.02	411.93
415.22	409.59
415.41	458.74
415.60	395.55
415.79	388.53
415.98	440.02
416.17	472.79
416.36	397.89
416.55	418.96
416.74	388.53
416.93	430.66
417.12	435.34
417.31	440.02
417.50	437.68
417.69	458.74
417.88	442.36
418.07	400.23
418.26	430.66
418.45	449.38
418.64	393.21
418.83	447.04
419.02	393.21
419.21	423.64
419.39	402.57
419.58	327.68
419.77	421.30
419.96	437.68
420.15	390.87
420.34	360.44
420.53	418.96
420.72	400.23
420.91	332.36
421.10	456.40
421.29	379.17
421.48	402.57
421.67	421.30
421.86	479.81
422.05	435.34
422.24	458.74
422.43	376.83
422.61	374.49
422.80	376.83
422.99	407.25
423.18	355.76
423.37	428.32
423.56	400.23
423.75	444.70
423.94	402.57
424.13	388.53
424.32	449.38
424.50	465.77
424.69	341.72
424.88	390.87
425.07	414.27
425.26	458.74
425.45	409.59
425.64	351.08
425.83	435.34
426.01	402.57
426.20	397.89
426.39	430.66
426.58	374.49
426.77	430.66
426.96	355.76
427.15	381.51
427.33	362.78
427.52	311.29
427.71	472.79
427.90	383.85
428.09	479.81
428.28	428.32
428.46	521.94
428.65	355.76
428.84	372.15
429.03	486.83
429.22	355.76
429.40	468.11
429.59	435.34
429.78	472.79
429.97	416.62
430.16	393.21
430.34	409.59
430.53	376.83
430.72	418.96
430.91	449.38
431.10	454.06
431.28	411.93
431.47	416.62
431.66	451.72
431.85	411.93
432.03	425.98
432.22	381.51
432.41	390.87
432.60	411.93
432.79	362.78
432.97	395.55
433.16	440.02
433.35	400.23
433.54	421.30
433.72	425.98
433.91	463.43
434.10	444.70
434.28	383.85
434.47	365.12
434.66	404.91
434.85	475.13
435.03	407.25
435.22	447.04
435.41	449.38
435.59	433.00
435.78	433.00
435.97	381.51
436.16	404.91
436.34	430.66
436.53	402.57
436.72	402.57
436.90	435.34
437.09	414.27
437.28	344.06
437.46	414.27
437.65	409.59
437.84	379.17
438.02	416.62
438.21	416.62
438.40	437.68
438.58	425.98
438.77	414.27
438.96	425.98
439.14	355.76
439.33	484.49
439.52	418.96
439.70	437.68
439.89	362.78
440.08	397.89
440.26	404.91
440.45	435.34
440.63	418.96
440.82	409.59
441.01	400.23
441.19	442.36
441.38	440.02
441.57	433.00
441.75	376.83
441.94	491.51
442.12	425.98
442.31	390.87
442.50	433.00
442.68	440.02
442.87	465.77
443.05	353.42
443.24	416.62
443.43	407.25
443.61	468.11
443.80	365.12
443.98	355.76
444.17	421.30
444.35	433.00
444.54	374.49
444.73	292.57
444.91	407.25
445.10	379.17
445.28	433.00
445.47	414.27
445.65	376.83
445.84	421.30
446.02	400.23
446.21	334.70
446.39	482.15
446.58	479.81
446.77	409.59
446.95	404.91
447.14	402.57
447.32	437.68
447.51	458.74
447.69	390.87
447.88	386.19
448.06	477.47
448.25	353.42
448.43	393.21
448.62	341.72
448.80	390.87
448.99	372.15
449.17	400.23
449.36	390.87
449.54	409.59
449.73	425.98
449.91	407.25
450.10	437.68
450.28	505.56
450.46	475.13
450.65	418.96
450.83	339.38
451.02	463.43
451.20	430.66
451.39	367.46
451.57	409.59
451.76	397.89
451.94	418.96
452.13	435.34
452.31	409.59
452.49	440.02
452.68	397.89
452.86	437.68
453.05	458.74
453.23	456.40
453.42	421.30
453.60	360.44
453.78	444.70
453.97	355.76
454.15	425.98
454.34	341.72
454.52	411.93
454.70	416.62
454.89	451.72
455.07	407.25
455.26	414.27
455.44	425.98
455.62	379.17
455.81	404.91
455.99	376.83
456.17	458.74
456.36	486.83
456.54	362.78
456.73	376.83
456.91	355.76
457.09	346.40
457.28	393.21
457.46	388.53
457.64	421.30
457.83	411.93
458.01	449.38
458.19	479.81
458.38	390.87
458.56	437.68
458.74	404.91
458.93	454.06
459.11	411.93
459.29	456.40
459.48	435.34
459.66	444.70
459.84	411.93
460.03	379.17
460.21	449.38
460.39	444.70
460.57	425.98
460.76	465.77
460.94	421.30
461.12	433.00
461.31	442.36
461.49	400.23
461.67	386.19
461.85	381.51
462.04	404.91
462.22	814.51
462.40	454.06
462.59	388.53
462.77	428.32
462.95	402.57
463.13	374.49
463.32	423.64
463.50	421.30
463.68	416.62
463.86	386.19
464.05	367.46
464.23	411.93
464.41	451.72
464.59	491.51
464.78	341.72
464.96	388.53
465.14	421.30
465.32	444.70
465.50	393.21
465.69	489.17
465.87	339.38
466.05	395.55
466.23	430.66
466.41	372.15
466.60	360.44
466.78	374.49
466.96	388.53
467.14	423.64
467.32	461.09
467.51	393.21
467.69	458.74
467.87	447.04
468.05	489.17
468.23	461.09
468.41	390.87
468.60	388.53
468.78	418.96
468.96	423.64
469.14	348.74
469.32	437.68
469.50	421.30
469.69	465.77
469.87	440.02
470.05	407.25
470.23	404.91
470.41	440.02
470.59	315.97
470.77	383.85
470.95	421.30
471.14	423.64
471.32	407.25
471.50	428.32
471.68	393.21
471.86	397.89
472.04	409.59
472.22	428.32
472.40	416.62
472.58	376.83
472.77	367.46
472.95	442.36
473.13	470.45
473.31	388.53
473.49	395.55
473.67	423.64
473.85	425.98
474.03	404.91
474.21	393.21
474.39	447.04
474.57	442.36
474.75	456.40
474.93	423.64
475.12	454.06
475.30	390.87
475.48	425.98
475.66	397.89
475.84	411.93
476.02	332.36
476.20	400.23
476.38	444.70
476.56	472.79
476.74	416.62
476.92	334.70
477.10	423.64
477.28	435.34
477.46	421.30
477.64	477.47
477.82	491.51
478.00	411.93
478.18	379.17
478.36	454.06
478.54	383.85
478.72	402.57
478.90	433.00
479.08	470.45
479.26	428.32
479.44	369.80
479.62	435.34
479.80	341.72
479.98	376.83
480.16	353.42
480.34	449.38
480.52	442.36
480.70	421.30
480.88	402.57
481.06	367.46
481.24	451.72
481.41	461.09
481.59	402.57
481.77	374.49
481.95	430.66
482.13	411.93
482.31	304.27
482.49	362.78
482.67	409.59
482.85	479.81
483.03	489.17
483.21	351.08
483.39	367.46
483.57	402.57
483.74	400.23
483.92	447.04
484.10	376.83
484.28	444.70
484.46	442.36
484.64	407.25
484.82	393.21
485.00	400.23
485.18	397.89
485.35	440.02
485.53	416.62
485.71	433.00
485.89	388.53
486.07	418.96
486.25	491.51
486.43	409.59
486.61	470.45
486.78	449.38
486.96	386.19
487.14	421.30
487.32	416.62
487.50	409.59
487.68	442.36
487.85	458.74
488.03	461.09
488.21	465.77
488.39	465.77
488.57	428.32
488.75	393.21
488.92	498.53
489.10	411.93
489.28	425.98
489.46	416.62
489.64	451.72
489.81	437.68
489.99	533.64
490.17	397.89
490.35	425.98
490.53	447.04
490.70	416.62
490.88	437.68
491.06	369.80
491.24	404.91
491.41	449.38
491.59	472.79
491.77	313.63
491.95	454.06
492.13	440.02
492.30	482.15
492.48	421.30
492.66	416.62
492.84	414.27
493.01	435.34
493.19	404.91
493.37	470.45
493.54	353.42
493.72	416.62
493.90	365.12
494.08	414.27
494.25	451.72
494.43	388.53
494.61	482.15
494.79	318.31
494.96	388.53
495.14	454.06
495.32	395.55
495.49	421.30
495.67	407.25
495.85	383.85
496.02	428.32
496.20	416.62
496.38	414.27
496.55	458.74
496.73	458.74
496.91	344.06
497.09	433.00
497.26	444.70
497.44	468.11
497.62	393.21
497.79	458.74
497.97	442.36
498.14	423.64
498.32	390.87
498.50	418.96
498.67	465.77
498.85	416.62
499.03	447.04
499.20	407.25
499.38	386.19
499.56	390.87
499.73	463.43
499.91	444.70
500.08	404.91
500.26	440.02
500.44	418.96
500.61	447.04
500.79	402.57
500.97	454.06
501.14	353.42
501.32	433.00
501.49	479.81
501.67	416.62
501.84	411.93
502.02	318.31
502.20	472.79
502.37	444.70
502.55	421.30
502.72	388.53
502.90	376.83
503.07	409.59
503.25	447.04
503.43	360.44
503.60	449.38
503.78	404.91
503.95	386.19
504.13	421.30
504.30	449.38
504.48	390.87
504.65	440.02
504.83	465.77
505.01	395.55
505.18	416.62
505.36	348.74
505.53	425.98
505.71	393.21
505.88	362.78
506.06	442.36
506.23	486.83
506.41	437.68
506.58	414.27
506.76	379.17
506.93	430.66
507.11	400.23
507.28	353.42
507.46	383.85
507.63	493.85
507.81	447.04
507.98	472.79
508.16	395.55
508.33	400.23
508.50	428.32
508.68	386.19
508.85	500.87
509.03	404.91
509.20	451.72
509.38	390.87
509.55	461.09
509.73	447.04
509.90	447.04
510.08	400.23
510.25	379.17
510.42	465.77
510.60	442.36
510.77	404.91
510.95	418.96
511.12	388.53
511.30	461.09
511.47	449.38
511.64	430.66
511.82	468.11
511.99	379.17
512.17	407.25
512.34	376.83
512.51	437.68
512.69	456.40
512.86	507.90
513.04	430.66
513.21	451.72
513.38	381.51
513.56	395.55
513.73	372.15
513.90	472.79
514.08	393.21
514.25	374.49
514.43	400.23
514.60	479.81
514.77	472.79
514.95	390.87
515.12	404.91
515.29	491.51
515.47	496.19
515.64	475.13
515.81	409.59
515.99	428.32
516.16	358.10
516.33	400.23
516.51	430.66
516.68	428.32
516.85	437.68
517.03	390.87
517.20	451.72
517.37	402.57
517.54	362.78
517.72	442.36
517.89	367.46
518.06	437.68
518.24	500.87
518.41	454.06
518.58	437.68
518.75	351.08
518.93	454.06
519.10	425.98
519.27	400.23
519.45	482.15
519.62	395.55
519.79	470.45
519.96	402.57
520.14	402.57
520.31	395.55
520.48	395.55
520.65	409.59
520.83	479.81
521.00	400.23
521.17	468.11
521.34	381.51
521.52	388.53
521.69	425.98
521.86	372.15
522.03	386.19
522.20	421.30
522.38	440.02
522.55	421.30
522.72	418.96
522.89	390.87
523.07	482.15
523.24	463.43
523.41	360.44
523.58	339.38
523.75	433.00
523.92	407.25
524.10	397.89
524.27	369.80
524.44	454.06
524.61	468.11
524.78	423.64
524.96	433.00
525.13	407.25
525.30	395.55
525.47	416.62
525.64	468.11
525.81	477.47
525.98	376.83
526.16	442.36
526.33	456.40
526.50	407.25
526.67	407.25
526.84	463.43
527.01	409.59
527.18	428.32
527.36	400.23
527.53	463.43
527.70	477.47
527.87	442.36
528.04	442.36
528.21	374.49
528.38	472.79
528.55	437.68
528.72	477.47
528.89	517.26
529.07	362.78
529.24	411.93
529.41	411.93
529.58	404.91
529.75	451.72
529.92	416.62
530.09	404.91
530.26	407.25
530.43	468.11
530.60	397.89
530.77	322.99
530.94	390.87
531.11	418.96
531.28	381.51
531.46	435.34
531.63	372.15
531.80	482.15
531.97	444.70
532.14	477.47
532.31	430.66
532.48	430.66
532.65	428.32
532.82	444.70
532.99	376.83
533.16	409.59
533.33	491.51
533.50	414.27
533.67	369.80
533.84	372.15
534.01	425.98
534.18	449.38
534.35	344.06
534.52	304.27
534.69	360.44
534.86	411.93
535.03	414.27
535.20	461.09
535.37	440.02
535.54	390.87
535.71	411.93
535.88	447.04
536.05	477.47
536.22	449.38
536.38	369.80
536.55	433.00
536.72	470.45
536.89	395.55
537.06	381.51
537.23	379.17
537.40	362.78
537.57	451.72
537.74	475.13
537.91	449.38
538.08	447.04
538.25	395.55
538.42	447.04
538.59	390.87
538.75	411.93
538.92	407.25
539.09	456.40
539.26	372.15
539.43	430.66
539.60	423.64
539.77	395.55
539.94	376.83
540.11	397.89
540.28	447.04
540.44	458.74
540.61	332.36
540.78	421.30
540.95	407.25
541.12	388.53
541.29	409.59
541.46	479.81
541.62	435.34
541.79	344.06
541.96	388.53
542.13	351.08
542.30	428.32
542.47	442.36
542.63	479.81
542.80	414.27
542.97	397.89
543.14	447.04
543.31	496.19
543.48	390.87
543.64	416.62
543.81	440.02
543.98	407.25
544.15	374.49
544.32	414.27
544.48	381.51
544.65	358.10
544.82	437.68
544.99	390.87
545.16	477.47
545.32	435.34
545.49	461.09
545.66	461.09
545.83	376.83
546.00	311.29
546.16	400.23
546.33	376.83
546.50	425.98
546.67	404.91
546.83	498.53
547.00	451.72
547.17	425.98
547.34	423.64
547.50	437.68
547.67	369.80
547.84	425.98
548.00	395.55
548.17	416.62
548.34	454.06
548.51	400.23
548.67	404.91
548.84	454.06
549.01	433.00
549.18	358.10
549.34	402.57
549.51	395.55
549.68	535.98
549.84	437.68
550.01	404.91
550.18	470.45
550.34	498.53
550.51	461.09
550.68	379.17
550.84	425.98
551.01	440.02
551.18	461.09
551.34	402.57
551.51	428.32
551.68	390.87
551.84	400.23
552.01	425.98
552.18	425.98
552.34	430.66
552.51	402.57
552.68	414.27
552.84	376.83
553.01	414.27
553.18	451.72
553.34	404.91
553.51	402.57
553.67	414.27
553.84	491.51
554.01	435.34
554.17	411.93
554.34	327.68
554.51	402.57
554.67	444.70
554.84	510.24
555.00	496.19
555.17	362.78
555.33	444.70
555.50	409.59
555.67	381.51
555.83	383.85
556.00	440.02
556.16	503.22
556.33	451.72
556.50	440.02
556.66	390.87
556.83	423.64
556.99	421.30
557.16	454.06
557.32	383.85
557.49	386.19
557.65	374.49
557.82	444.70
557.98	454.06
558.15	425.98
558.32	425.98
558.48	451.72
558.65	433.00
558.81	458.74
558.98	395.55
559.14	447.04
559.31	372.15
559.47	430.66
559.64	390.87
559.80	454.06
559.97	376.83
560.13	358.10
560.30	423.64
560.46	411.93
560.63	421.30
560.79	425.98
560.96	472.79
561.12	348.74
561.29	493.85
561.45	472.79
561.61	409.59
561.78	479.81
561.94	400.23
562.11	409.59
562.27	381.51
562.44	393.21
562.60	369.80
562.77	383.85
562.93	519.60
563.10	454.06
563.26	423.64
563.42	433.00
563.59	491.51
563.75	418.96
563.92	449.38
564.08	433.00
564.24	411.93
564.41	524.28
564.57	437.68
564.74	400.23
564.90	430.66
565.07	374.49
565.23	409.59
565.39	423.64
565.56	407.25
565.72	421.30
565.88	437.68
566.05	388.53
566.21	407.25
566.38	440.02
566.54	421.30
566.70	416.62
566.87	400.23
567.03	440.02
567.19	496.19
567.36	437.68
567.52	402.57
567.68	468.11
567.85	388.53
568.01	454.06
568.17	383.85
568.34	367.46
568.50	442.36
568.66	402.57
568.83	491.51
568.99	463.43
569.15	404.91
569.32	418.96
569.48	390.87
569.64	440.02
569.81	475.13
569.97	397.89
570.13	421.30
570.30	425.98
570.46	353.42
570.62	358.10
570.78	393.21
570.95	374.49
571.11	447.04
571.27	423.64
571.43	404.91
571.60	435.34
571.76	414.27
571.92	407.25
572.09	353.42
572.25	435.34
572.41	381.51
572.57	414.27
572.74	437.68
572.90	374.49
573.06	444.70
573.22	449.38
573.38	510.24
573.55	475.13
573.71	444.70
573.87	440.02
574.03	400.23
574.20	440.02
574.36	449.38
574.52	451.72
574.68	437.68
574.84	465.77
575.01	440.02
575.17	440.02
575.33	402.57
575.49	390.87
575.65	409.59
575.82	461.09
575.98	383.85
576.14	449.38
576.30	407.25
576.46	400.23
576.62	447.04
576.79	404.91
576.95	433.00
577.11	365.12
577.27	383.85
577.43	433.00
577.59	386.19
577.75	512.58
577.92	503.22
578.08	425.98
578.24	397.89
578.40	423.64
578.56	428.32
578.72	404.91
578.88	425.98
579.04	332.36
579.21	416.62
579.37	379.17
579.53	393.21
579.69	376.83
579.85	404.91
580.01	374.49
580.17	395.55
580.33	400.23
580.49	418.96
580.65	428.32
580.82	390.87
580.98	404.91
581.14	365.12
581.30	472.79
581.46	477.47
581.62	454.06
581.78	440.02
581.94	456.40
582.10	355.76
582.26	395.55
582.42	433.00
582.58	416.62
582.74	376.83
582.90	404.91
583.06	440.02
583.22	395.55
583.38	430.66
583.54	395.55
583.70	388.53
583.86	414.27
584.02	381.51
584.18	449.38
584.34	425.98
584.50	470.45
584.66	447.04
584.82	404.91
584.98	456.40
585.14	404.91
585.30	425.98
585.46	362.78
585.62	425.98
585.78	418.96
585.94	421.30
586.10	402.57
586.26	367.46
586.42	468.11
586.58	421.30
586.74	383.85
586.90	327.68
587.06	360.44
587.22	390.87
587.38	444.70
587.54	470.45
587.70	383.85
587.86	454.06
588.02	430.66
588.18	376.83
588.34	379.17
588.49	400.23
588.65	447.04
588.81	493.85
588.97	414.27
589.13	454.06
589.29	456.40
589.45	447.04
589.61	393.21
589.77	334.70
589.93	423.64
590.08	435.34
590.24	344.06
590.40	407.25
590.56	397.89
590.72	411.93
590.88	423.64
591.04	447.04
591.20	435.34
591.35	447.04
591.51	472.79
591.67	482.15
591.83	374.49
591.99	386.19
592.15	390.87
592.31	437.68
592.46	400.23
592.62	454.06
592.78	386.19
592.94	379.17
593.10	449.38
593.26	362.78
593.41	362.78
593.57	388.53
593.73	400.23
593.89	454.06
594.05	393.21
594.20	395.55
594.36	404.91
594.52	524.28
594.68	397.89
594.84	451.72
594.99	510.24
595.15	407.25
595.31	409.59
595.47	472.79
595.62	428.32
595.78	423.64
595.94	395.55
596.10	444.70
596.25	416.62
596.41	367.46
596.57	425.98
596.73	430.66
596.88	425.98
597.04	430.66
597.20	402.57
597.36	374.49
597.51	383.85
597.67	360.44
597.83	362.78
597.99	428.32
598.14	479.81
598.30	465.77
598.46	376.83
598.61	512.58
598.77	440.02
598.93	400.23
599.09	437.68
599.24	425.98
599.40	456.40
599.56	395.55
599.71	475.13
599.87	386.19
600.03	381.51
600.18	388.53
600.34	334.70
600.50	386.19
600.65	383.85
600.81	442.36
600.97	404.91
601.12	355.76
601.28	465.77
601.44	430.66
601.59	355.76
601.75	402.57
601.91	477.47
602.06	454.06
602.22	454.06
602.37	404.91
602.53	308.95
602.69	456.40
602.84	383.85
603.00	454.06
603.16	369.80
603.31	388.53
603.47	465.77
603.62	456.40
603.78	395.55
603.94	369.80
604.09	386.19
604.25	388.53
604.40	472.79
604.56	451.72
604.71	365.12
604.87	456.40
605.03	461.09
605.18	374.49
605.34	482.15
605.49	449.38
605.65	435.34
605.80	353.42
605.96	395.55
606.12	461.09
606.27	416.62
606.43	360.44
606.58	468.11
606.74	404.91
606.89	388.53
607.05	425.98
607.20	472.79
607.36	458.74
607.51	409.59
607.67	440.02
607.82	423.64
607.98	414.27
608.13	416.62
608.29	400.23
608.44	381.51
608.60	437.68
608.75	430.66
608.91	418.96
609.06	430.66
609.22	428.32
609.37	411.93
609.53	510.24
609.68	358.10
609.84	461.09
609.99	458.74
610.15	397.89
