SpectraSuite Data File
++++++++++++++++++++++++++++++++++++
Date: Fri Oct 25 12:11:35 EDT 2013
User: price-jones
Dark Spectrum Present: No
Reference Spectrum Present: No
Number of Sampled Component Spectra: 1
Spectrometers: USB2+H05261
Integration Time (usec): 100000 (USB2+H05261)
Spectra Averaged: 1 (USB2+H05261)
Boxcar Smoothing: 0 (USB2+H05261)
Correct for Electrical Dark: No (USB2+H05261)
Strobe/Lamp Enabled: No (USB2+H05261)
Correct for Detector Non-linearity: No (USB2+H05261)
Correct for Stray Light: No (USB2+H05261)
Number of Pixels in Processed Spectrum: 2048
>>>>>Begin Processed Spectral Data<<<<<
365.73	332.36
365.92	332.36
366.12	332.36
366.32	283.20
366.52	203.63
366.72	238.73
366.91	290.23
367.11	231.71
367.31	215.33
367.51	241.08
367.70	198.95
367.90	222.35
368.10	262.14
368.30	182.56
368.49	252.78
368.69	250.44
368.89	227.03
369.09	278.52
369.28	311.29
369.48	301.93
369.68	271.50
369.87	271.50
370.07	259.80
370.27	341.72
370.47	315.97
370.66	306.61
370.86	327.68
371.06	369.80
371.25	388.53
371.45	388.53
371.65	414.27
371.84	351.08
372.04	397.89
372.24	369.80
372.44	423.64
372.63	348.74
372.83	360.44
373.03	386.19
373.22	353.42
373.42	442.36
373.62	414.27
373.81	402.57
374.01	428.32
374.21	337.04
374.40	414.27
374.60	390.87
374.79	383.85
374.99	383.85
375.19	430.66
375.38	390.87
375.58	421.30
375.78	449.38
375.97	447.04
376.17	416.62
376.37	407.25
376.56	423.64
376.76	395.55
376.95	372.15
377.15	400.23
377.35	421.30
377.54	468.11
377.74	402.57
377.93	428.32
378.13	407.25
378.33	433.00
378.52	472.79
378.72	414.27
378.91	407.25
379.11	435.34
379.31	475.13
379.50	442.36
379.70	418.96
379.89	400.23
380.09	386.19
380.28	383.85
380.48	458.74
380.68	444.70
380.87	461.09
381.07	393.21
381.26	332.36
381.46	390.87
381.65	355.76
381.85	325.33
382.04	435.34
382.24	421.30
382.43	437.68
382.63	479.81
382.83	327.68
383.02	374.49
383.22	376.83
383.41	461.09
383.61	437.68
383.80	444.70
384.00	454.06
384.19	414.27
384.39	404.91
384.58	379.17
384.78	395.55
384.97	447.04
385.17	402.57
385.36	440.02
385.56	458.74
385.75	372.15
385.95	379.17
386.14	397.89
386.34	423.64
386.53	369.80
386.72	372.15
386.92	418.96
387.11	372.15
387.31	362.78
387.50	444.70
387.70	402.57
387.89	379.17
388.09	388.53
388.28	418.96
388.48	428.32
388.67	430.66
388.86	388.53
389.06	444.70
389.25	407.25
389.45	425.98
389.64	411.93
389.84	447.04
390.03	404.91
390.22	437.68
390.42	435.34
390.61	395.55
390.81	285.55
391.00	440.02
391.19	435.34
391.39	456.40
391.58	400.23
391.78	444.70
391.97	461.09
392.16	381.51
392.36	411.93
392.55	435.34
392.75	411.93
392.94	400.23
393.13	430.66
393.33	451.72
393.52	456.40
393.71	390.87
393.91	472.79
394.10	353.42
394.29	400.23
394.49	381.51
394.68	421.30
394.88	402.57
395.07	409.59
395.26	388.53
395.46	475.13
395.65	454.06
395.84	423.64
396.04	461.09
396.23	365.12
396.42	423.64
396.62	421.30
396.81	425.98
397.00	418.96
397.19	423.64
397.39	437.68
397.58	447.04
397.77	402.57
397.97	461.09
398.16	416.62
398.35	395.55
398.55	367.46
398.74	409.59
398.93	407.25
399.12	397.89
399.32	388.53
399.51	472.79
399.70	411.93
399.90	367.46
400.09	442.36
400.28	489.17
400.47	379.17
400.67	390.87
400.86	348.74
401.05	444.70
401.24	444.70
401.44	416.62
401.63	489.17
401.82	449.38
402.01	348.74
402.21	425.98
402.40	355.76
402.59	416.62
402.78	430.66
402.97	414.27
403.17	362.78
403.36	379.17
403.55	409.59
403.74	332.36
403.93	386.19
404.13	355.76
404.32	404.91
404.51	379.17
404.70	397.89
404.89	458.74
405.09	367.46
405.28	402.57
405.47	442.36
405.66	409.59
405.85	381.51
406.05	416.62
406.24	416.62
406.43	440.02
406.62	367.46
406.81	423.64
407.00	421.30
407.20	454.06
407.39	433.00
407.58	437.68
407.77	440.02
407.96	386.19
408.15	425.98
408.34	465.77
408.54	322.99
408.73	404.91
408.92	372.15
409.11	416.62
409.30	449.38
409.49	360.44
409.68	360.44
409.87	463.43
410.07	444.70
410.26	472.79
410.45	390.87
410.64	400.23
410.83	418.96
411.02	388.53
411.21	416.62
411.40	423.64
411.59	344.06
411.78	362.78
411.98	362.78
412.17	400.23
412.36	379.17
412.55	430.66
412.74	456.40
412.93	461.09
413.12	416.62
413.31	334.70
413.50	507.90
413.69	409.59
413.88	423.64
414.07	428.32
414.26	423.64
414.45	325.33
414.64	383.85
414.83	535.98
415.02	381.51
415.22	463.43
415.41	369.80
415.60	395.55
415.79	433.00
415.98	418.96
416.17	320.65
416.36	397.89
416.55	360.44
416.74	482.15
416.93	418.96
417.12	409.59
417.31	428.32
417.50	416.62
417.69	435.34
417.88	372.15
418.07	404.91
418.26	407.25
418.45	440.02
418.64	425.98
418.83	358.10
419.02	351.08
419.21	341.72
419.39	395.55
419.58	407.25
419.77	418.96
419.96	465.77
420.15	379.17
420.34	440.02
420.53	353.42
420.72	444.70
420.91	489.17
421.10	449.38
421.29	421.30
421.48	414.27
421.67	397.89
421.86	428.32
422.05	409.59
422.24	339.38
422.43	428.32
422.61	423.64
422.80	362.78
422.99	379.17
423.18	418.96
423.37	414.27
423.56	402.57
423.75	416.62
423.94	330.02
424.13	421.30
424.32	397.89
424.50	292.57
424.69	428.32
424.88	423.64
425.07	421.30
425.26	393.21
425.45	341.72
425.64	400.23
425.83	358.10
426.01	451.72
426.20	477.47
426.39	430.66
426.58	374.49
426.77	430.66
426.96	383.85
427.15	433.00
427.33	404.91
427.52	372.15
427.71	418.96
427.90	400.23
428.09	341.72
428.28	374.49
428.46	402.57
428.65	463.43
428.84	362.78
429.03	423.64
429.22	390.87
429.40	348.74
429.59	299.59
429.78	428.32
429.97	369.80
430.16	301.93
430.34	411.93
430.53	444.70
430.72	423.64
430.91	379.17
431.10	362.78
431.28	355.76
431.47	496.19
431.66	400.23
431.85	346.40
432.03	435.34
432.22	470.45
432.41	440.02
432.60	465.77
432.79	456.40
432.97	430.66
433.16	374.49
433.35	411.93
433.54	423.64
433.72	461.09
433.91	351.08
434.10	440.02
434.28	402.57
434.47	418.96
434.66	437.68
434.85	416.62
435.03	416.62
435.22	397.89
435.41	442.36
435.59	409.59
435.78	482.15
435.97	386.19
436.16	376.83
436.34	465.77
436.53	381.51
436.72	435.34
436.90	397.89
437.09	456.40
437.28	449.38
437.46	414.27
437.65	433.00
437.84	447.04
438.02	465.77
438.21	477.47
438.40	360.44
438.58	386.19
438.77	409.59
438.96	390.87
439.14	456.40
439.33	428.32
439.52	369.80
439.70	390.87
439.89	458.74
440.08	430.66
440.26	409.59
440.45	407.25
440.63	468.11
440.82	397.89
441.01	407.25
441.19	355.76
441.38	425.98
441.57	346.40
441.75	404.91
441.94	435.34
442.12	393.21
442.31	367.46
442.50	449.38
442.68	484.49
442.87	414.27
443.05	421.30
443.24	423.64
443.43	376.83
443.61	461.09
443.80	372.15
443.98	472.79
444.17	407.25
444.35	414.27
444.54	390.87
444.73	428.32
444.91	421.30
445.10	430.66
445.28	388.53
445.47	440.02
445.65	402.57
445.84	493.85
446.02	360.44
446.21	379.17
446.39	456.40
446.58	395.55
446.77	348.74
446.95	416.62
447.14	461.09
447.32	430.66
447.51	414.27
447.69	421.30
447.88	383.85
448.06	430.66
448.25	400.23
448.43	449.38
448.62	416.62
448.80	425.98
448.99	365.12
449.17	430.66
449.36	425.98
449.54	414.27
449.73	425.98
449.91	379.17
450.10	411.93
450.28	411.93
450.46	507.90
450.65	468.11
450.83	479.81
451.02	447.04
451.20	402.57
451.39	416.62
451.57	379.17
451.76	463.43
451.94	414.27
452.13	475.13
452.31	386.19
452.49	458.74
452.68	376.83
452.86	402.57
453.05	437.68
453.23	463.43
453.42	416.62
453.60	395.55
453.78	362.78
453.97	376.83
454.15	425.98
454.34	430.66
454.52	393.21
454.70	404.91
454.89	484.49
455.07	379.17
455.26	404.91
455.44	456.40
455.62	437.68
455.81	444.70
455.99	435.34
456.17	456.40
456.36	425.98
456.54	418.96
456.73	449.38
456.91	407.25
457.09	463.43
457.28	383.85
457.46	416.62
457.64	355.76
457.83	414.27
458.01	449.38
458.19	442.36
458.38	430.66
458.56	416.62
458.74	470.45
458.93	327.68
459.11	409.59
459.29	407.25
459.48	393.21
459.66	451.72
459.84	433.00
460.03	461.09
460.21	388.53
460.39	390.87
460.57	407.25
460.76	393.21
460.94	418.96
461.12	468.11
461.31	447.04
461.49	416.62
461.67	388.53
461.85	437.68
462.04	390.87
462.22	690.46
462.40	484.49
462.59	369.80
462.77	423.64
462.95	418.96
463.13	444.70
463.32	444.70
463.50	407.25
463.68	477.47
463.86	463.43
464.05	433.00
464.23	421.30
464.41	444.70
464.59	498.53
464.78	409.59
464.96	386.19
465.14	430.66
465.32	437.68
465.50	409.59
465.69	433.00
465.87	414.27
466.05	428.32
466.23	418.96
466.41	393.21
466.60	360.44
466.78	376.83
466.96	395.55
467.14	407.25
467.32	484.49
467.51	444.70
467.69	381.51
467.87	433.00
468.05	447.04
468.23	447.04
468.41	449.38
468.60	458.74
468.78	470.45
468.96	470.45
469.14	430.66
469.32	423.64
469.50	341.72
469.69	440.02
469.87	407.25
470.05	381.51
470.23	400.23
470.41	414.27
470.59	428.32
470.77	397.89
470.95	449.38
471.14	465.77
471.32	423.64
471.50	416.62
471.68	468.11
471.86	362.78
472.04	337.04
472.22	402.57
472.40	404.91
472.58	395.55
472.77	414.27
472.95	393.21
473.13	465.77
473.31	416.62
473.49	423.64
473.67	381.51
473.85	383.85
474.03	442.36
474.21	404.91
474.39	421.30
474.57	507.90
474.75	346.40
474.93	397.89
475.12	351.08
475.30	463.43
475.48	456.40
475.66	402.57
475.84	428.32
476.02	407.25
476.20	472.79
476.38	447.04
476.56	528.96
476.74	447.04
476.92	418.96
477.10	435.34
477.28	383.85
477.46	437.68
477.64	428.32
477.82	407.25
478.00	376.83
478.18	376.83
478.36	400.23
478.54	472.79
478.72	428.32
478.90	409.59
479.08	402.57
479.26	409.59
479.44	444.70
479.62	447.04
479.80	428.32
479.98	425.98
480.16	390.87
480.34	409.59
480.52	393.21
480.70	456.40
480.88	423.64
481.06	379.17
481.24	421.30
481.41	454.06
481.59	447.04
481.77	442.36
481.95	458.74
482.13	383.85
482.31	456.40
482.49	376.83
482.67	437.68
482.85	425.98
483.03	423.64
483.21	395.55
483.39	444.70
483.57	395.55
483.74	437.68
483.92	444.70
484.10	397.89
484.28	482.15
484.46	484.49
484.64	395.55
484.82	348.74
485.00	475.13
485.18	456.40
485.35	512.58
485.53	414.27
485.71	493.85
485.89	414.27
486.07	461.09
486.25	491.51
486.43	395.55
486.61	409.59
486.78	416.62
486.96	383.85
487.14	440.02
487.32	393.21
487.50	404.91
487.68	407.25
487.85	353.42
488.03	379.17
488.21	461.09
488.39	479.81
488.57	435.34
488.75	442.36
488.92	512.58
489.10	468.11
489.28	395.55
489.46	421.30
489.64	430.66
489.81	390.87
489.99	402.57
490.17	456.40
490.35	386.19
490.53	362.78
490.70	440.02
490.88	472.79
491.06	416.62
491.24	423.64
491.41	416.62
491.59	463.43
491.77	402.57
491.95	400.23
492.13	437.68
492.30	444.70
492.48	414.27
492.66	362.78
492.84	444.70
493.01	388.53
493.19	486.83
493.37	421.30
493.54	416.62
493.72	418.96
493.90	416.62
494.08	379.17
494.25	395.55
494.43	416.62
494.61	475.13
494.79	400.23
494.96	388.53
495.14	421.30
495.32	374.49
495.49	454.06
495.67	404.91
495.85	395.55
496.02	388.53
496.20	400.23
496.38	425.98
496.55	393.21
496.73	365.12
496.91	381.51
497.09	402.57
497.26	423.64
497.44	376.83
497.62	428.32
497.79	407.25
497.97	386.19
498.14	479.81
498.32	447.04
498.50	407.25
498.67	393.21
498.85	454.06
499.03	442.36
499.20	418.96
499.38	397.89
499.56	395.55
499.73	425.98
499.91	334.70
500.08	430.66
500.26	479.81
500.44	442.36
500.61	409.59
500.79	454.06
500.97	400.23
501.14	437.68
501.32	379.17
501.49	442.36
501.67	423.64
501.84	461.09
502.02	383.85
502.20	526.62
502.37	411.93
502.55	325.33
502.72	421.30
502.90	381.51
503.07	404.91
503.25	346.40
503.43	416.62
503.60	402.57
503.78	414.27
503.95	421.30
504.13	456.40
504.30	475.13
504.48	414.27
504.65	425.98
504.83	409.59
505.01	397.89
505.18	489.17
505.36	465.77
505.53	393.21
505.71	444.70
505.88	507.90
506.06	346.40
506.23	416.62
506.41	409.59
506.58	423.64
506.76	442.36
506.93	430.66
507.11	416.62
507.28	386.19
507.46	505.56
507.63	414.27
507.81	442.36
507.98	449.38
508.16	367.46
508.33	472.79
508.50	369.80
508.68	477.47
508.85	374.49
509.03	418.96
509.20	477.47
509.38	447.04
509.55	472.79
509.73	449.38
509.90	493.85
510.08	365.12
510.25	498.53
510.42	388.53
510.60	348.74
510.77	341.72
510.95	393.21
511.12	428.32
511.30	442.36
511.47	369.80
511.64	421.30
511.82	372.15
511.99	404.91
512.17	433.00
512.34	461.09
512.51	442.36
512.69	367.46
512.86	379.17
513.04	454.06
513.21	388.53
513.38	362.78
513.56	409.59
513.73	416.62
513.90	374.49
514.08	393.21
514.25	430.66
514.43	418.96
514.60	456.40
514.77	381.51
514.95	386.19
515.12	407.25
515.29	437.68
515.47	374.49
515.64	407.25
515.81	512.58
515.99	472.79
516.16	447.04
516.33	465.77
516.51	447.04
516.68	365.12
516.85	397.89
517.03	458.74
517.20	477.47
517.37	374.49
517.54	447.04
517.72	355.76
517.89	348.74
518.06	369.80
518.24	411.93
518.41	454.06
518.58	468.11
518.75	437.68
518.93	440.02
519.10	430.66
519.27	351.08
519.45	379.17
519.62	397.89
519.79	400.23
519.96	435.34
520.14	423.64
520.31	428.32
520.48	482.15
520.65	454.06
520.83	404.91
521.00	409.59
521.17	425.98
521.34	365.12
521.52	440.02
521.69	414.27
521.86	421.30
522.03	458.74
522.20	374.49
522.38	475.13
522.55	447.04
522.72	423.64
522.89	428.32
523.07	437.68
523.24	449.38
523.41	418.96
523.58	463.43
523.75	517.26
523.92	465.77
524.10	402.57
524.27	461.09
524.44	421.30
524.61	416.62
524.78	381.51
524.96	418.96
525.13	472.79
525.30	449.38
525.47	463.43
525.64	409.59
525.81	421.30
525.98	351.08
526.16	409.59
526.33	362.78
526.50	447.04
526.67	433.00
526.84	369.80
527.01	449.38
527.18	421.30
527.36	463.43
527.53	482.15
527.70	423.64
527.87	463.43
528.04	477.47
528.21	294.91
528.38	435.34
528.55	479.81
528.72	475.13
528.89	435.34
529.07	435.34
529.24	348.74
529.41	449.38
529.58	353.42
529.75	472.79
529.92	390.87
530.09	367.46
530.26	433.00
530.43	376.83
530.60	393.21
530.77	400.23
530.94	339.38
531.11	416.62
531.28	433.00
531.46	451.72
531.63	353.42
531.80	369.80
531.97	475.13
532.14	444.70
532.31	418.96
532.48	461.09
532.65	433.00
532.82	411.93
532.99	409.59
533.16	367.46
533.33	400.23
533.50	397.89
533.67	430.66
533.84	472.79
534.01	421.30
534.18	454.06
534.35	418.96
534.52	444.70
534.69	430.66
534.86	437.68
535.03	463.43
535.20	390.87
535.37	376.83
535.54	353.42
535.71	404.91
535.88	465.77
536.05	458.74
536.22	397.89
536.38	395.55
536.55	418.96
536.72	383.85
536.89	393.21
537.06	404.91
537.23	374.49
537.40	402.57
537.57	346.40
537.74	409.59
537.91	379.17
538.08	423.64
538.25	416.62
538.42	383.85
538.59	428.32
538.75	407.25
538.92	369.80
539.09	428.32
539.26	458.74
539.43	526.62
539.60	472.79
539.77	393.21
539.94	322.99
540.11	447.04
540.28	519.60
540.44	451.72
540.61	489.17
540.78	386.19
540.95	327.68
541.12	489.17
541.29	346.40
541.46	423.64
541.62	463.43
541.79	437.68
541.96	381.51
542.13	444.70
542.30	458.74
542.47	386.19
542.63	423.64
542.80	463.43
542.97	367.46
543.14	369.80
543.31	437.68
543.48	386.19
543.64	423.64
543.81	435.34
543.98	372.15
544.15	379.17
544.32	421.30
544.48	447.04
544.65	470.45
544.82	423.64
544.99	404.91
545.16	444.70
545.32	456.40
545.49	386.19
545.66	411.93
545.83	470.45
546.00	470.45
546.16	491.51
546.33	442.36
546.50	479.81
546.67	402.57
546.83	400.23
547.00	454.06
547.17	360.44
547.34	400.23
547.50	423.64
547.67	407.25
547.84	369.80
548.00	449.38
548.17	512.58
548.34	376.83
548.51	454.06
548.67	397.89
548.84	425.98
549.01	388.53
549.18	400.23
549.34	386.19
549.51	400.23
549.68	390.87
549.84	400.23
550.01	358.10
550.18	393.21
550.34	414.27
550.51	423.64
550.68	379.17
550.84	465.77
551.01	500.87
551.18	463.43
551.34	404.91
551.51	435.34
551.68	423.64
551.84	418.96
552.01	428.32
552.18	400.23
552.34	400.23
552.51	482.15
552.68	472.79
552.84	379.17
553.01	451.72
553.18	381.51
553.34	372.15
553.51	461.09
553.67	430.66
553.84	423.64
554.01	402.57
554.17	472.79
554.34	500.87
554.51	559.39
554.67	470.45
554.84	423.64
555.00	421.30
555.17	425.98
555.33	367.46
555.50	491.51
555.67	393.21
555.83	435.34
556.00	435.34
556.16	596.84
556.33	456.40
556.50	390.87
556.66	442.36
556.83	425.98
556.99	397.89
557.16	348.74
557.32	430.66
557.49	442.36
557.65	430.66
557.82	468.11
557.98	414.27
558.15	400.23
558.32	376.83
558.48	449.38
558.65	397.89
558.81	451.72
558.98	402.57
559.14	444.70
559.31	351.08
559.47	444.70
559.64	383.85
559.80	411.93
559.97	355.76
560.13	404.91
560.30	500.87
560.46	409.59
560.63	423.64
560.79	386.19
560.96	447.04
561.12	458.74
561.29	465.77
561.45	390.87
561.61	472.79
561.78	470.45
561.94	416.62
562.11	376.83
562.27	360.44
562.44	374.49
562.60	418.96
562.77	367.46
562.93	470.45
563.10	435.34
563.26	397.89
563.42	449.38
563.59	390.87
563.75	346.40
563.92	468.11
564.08	435.34
564.24	451.72
564.41	442.36
564.57	411.93
564.74	435.34
564.90	386.19
565.07	351.08
565.23	437.68
565.39	437.68
565.56	468.11
565.72	461.09
565.88	425.98
566.05	463.43
566.21	421.30
566.38	479.81
566.54	433.00
566.70	383.85
566.87	400.23
567.03	428.32
567.19	440.02
567.36	416.62
567.52	416.62
567.68	428.32
567.85	458.74
568.01	435.34
568.17	383.85
568.34	367.46
568.50	421.30
568.66	362.78
568.83	470.45
568.99	428.32
569.15	477.47
569.32	484.49
569.48	423.64
569.64	407.25
569.81	454.06
569.97	425.98
570.13	477.47
570.30	397.89
570.46	468.11
570.62	458.74
570.78	437.68
570.95	386.19
571.11	468.11
571.27	468.11
571.43	346.40
571.60	407.25
571.76	383.85
571.92	388.53
572.09	355.76
572.25	468.11
572.41	327.68
572.57	400.23
572.74	540.66
572.90	414.27
573.06	390.87
573.22	423.64
573.38	447.04
573.55	421.30
573.71	458.74
573.87	418.96
574.03	388.53
574.20	409.59
574.36	461.09
574.52	409.59
574.68	430.66
574.84	393.21
575.01	444.70
575.17	397.89
575.33	440.02
575.49	440.02
575.65	433.00
575.82	430.66
575.98	400.23
576.14	442.36
576.30	355.76
576.46	400.23
576.62	383.85
576.79	430.66
576.95	418.96
577.11	421.30
577.27	386.19
577.43	414.27
577.59	437.68
577.75	404.91
577.92	475.13
578.08	376.83
578.24	442.36
578.40	437.68
578.56	472.79
578.72	390.87
578.88	496.19
579.04	435.34
579.21	475.13
579.37	334.70
579.53	411.93
579.69	414.27
579.85	365.12
580.01	369.80
580.17	440.02
580.33	447.04
580.49	351.08
580.65	379.17
580.82	404.91
580.98	365.12
581.14	346.40
581.30	430.66
581.46	395.55
581.62	496.19
581.78	400.23
581.94	454.06
582.10	430.66
582.26	421.30
582.42	489.17
582.58	496.19
582.74	433.00
582.90	388.53
583.06	440.02
583.22	416.62
583.38	404.91
583.54	407.25
583.70	381.51
583.86	404.91
584.02	414.27
584.18	409.59
584.34	376.83
584.50	435.34
584.66	411.93
584.82	337.04
584.98	423.64
585.14	348.74
585.30	433.00
585.46	409.59
585.62	465.77
585.78	393.21
585.94	416.62
586.10	428.32
586.26	425.98
586.42	372.15
586.58	421.30
586.74	348.74
586.90	411.93
587.06	414.27
587.22	421.30
587.38	360.44
587.54	402.57
587.70	397.89
587.86	465.77
588.02	421.30
588.18	435.34
588.34	402.57
588.49	400.23
588.65	430.66
588.81	440.02
588.97	386.19
589.13	425.98
589.29	411.93
589.45	440.02
589.61	435.34
589.77	430.66
589.93	449.38
590.08	428.32
590.24	461.09
590.40	484.49
590.56	461.09
590.72	454.06
590.88	320.65
591.04	355.76
591.20	428.32
591.35	383.85
591.51	341.72
591.67	411.93
591.83	407.25
591.99	397.89
592.15	416.62
592.31	367.46
592.46	400.23
592.62	367.46
592.78	456.40
592.94	472.79
593.10	433.00
593.26	411.93
593.41	468.11
593.57	409.59
593.73	407.25
593.89	416.62
594.05	400.23
594.20	369.80
594.36	416.62
594.52	423.64
594.68	463.43
594.84	470.45
594.99	491.51
595.15	447.04
595.31	425.98
595.47	463.43
595.62	339.38
595.78	428.32
595.94	456.40
596.10	425.98
596.25	470.45
596.41	479.81
596.57	449.38
596.73	433.00
596.88	407.25
597.04	383.85
597.20	390.87
597.36	440.02
597.51	332.36
597.67	369.80
597.83	447.04
597.99	475.13
598.14	428.32
598.30	435.34
598.46	465.77
598.61	428.32
598.77	435.34
598.93	397.89
599.09	435.34
599.24	461.09
599.40	390.87
599.56	503.22
599.71	435.34
599.87	435.34
600.03	418.96
600.18	442.36
600.34	411.93
600.50	383.85
600.65	437.68
600.81	470.45
600.97	390.87
601.12	444.70
601.28	404.91
601.44	416.62
601.59	423.64
601.75	395.55
601.91	423.64
602.06	496.19
602.22	451.72
602.37	440.02
602.53	463.43
602.69	423.64
602.84	421.30
603.00	470.45
603.16	435.34
603.31	411.93
603.47	440.02
603.62	404.91
603.78	386.19
603.94	407.25
604.09	402.57
604.25	461.09
604.40	388.53
604.56	458.74
604.71	395.55
604.87	437.68
605.03	444.70
605.18	407.25
605.34	430.66
605.49	358.10
605.65	397.89
605.80	423.64
605.96	470.45
606.12	414.27
606.27	355.76
606.43	418.96
606.58	365.12
606.74	397.89
606.89	369.80
607.05	454.06
607.20	418.96
607.36	477.47
607.51	414.27
607.67	430.66
607.82	414.27
607.98	425.98
608.13	470.45
608.29	386.19
608.44	425.98
608.60	430.66
608.75	409.59
608.91	400.23
609.06	547.69
609.22	470.45
609.37	374.49
609.53	376.83
609.68	416.62
609.84	404.91
609.99	327.68
610.15	465.77
