SpectraSuite Data File
++++++++++++++++++++++++++++++++++++
Date: Fri Oct 25 12:10:10 EDT 2013
User: price-jones
Dark Spectrum Present: No
Reference Spectrum Present: No
Number of Sampled Component Spectra: 1
Spectrometers: USB2+H05261
Integration Time (usec): 100000 (USB2+H05261)
Spectra Averaged: 1 (USB2+H05261)
Boxcar Smoothing: 0 (USB2+H05261)
Correct for Electrical Dark: No (USB2+H05261)
Strobe/Lamp Enabled: No (USB2+H05261)
Correct for Detector Non-linearity: No (USB2+H05261)
Correct for Stray Light: No (USB2+H05261)
Number of Pixels in Processed Spectrum: 2048
>>>>>Begin Processed Spectral Data<<<<<
365.73	339.38
365.92	339.38
366.12	339.38
366.32	311.29
366.52	264.48
366.72	304.27
366.91	269.16
367.11	245.76
367.31	266.82
367.51	280.86
367.70	262.14
367.90	264.48
368.10	250.44
368.30	259.80
368.49	180.22
368.69	210.65
368.89	210.65
369.09	257.46
369.28	325.33
369.48	301.93
369.68	315.97
369.87	325.33
370.07	337.04
370.27	376.83
370.47	234.05
370.66	318.31
370.86	304.27
371.06	355.76
371.25	479.81
371.45	306.61
371.65	376.83
371.84	418.96
372.04	332.36
372.24	407.25
372.44	418.96
372.63	372.15
372.83	348.74
373.03	376.83
373.22	320.65
373.42	433.00
373.62	444.70
373.81	362.78
374.01	337.04
374.21	407.25
374.40	372.15
374.60	454.06
374.79	458.74
374.99	442.36
375.19	348.74
375.38	393.21
375.58	407.25
375.78	365.12
375.97	442.36
376.17	489.17
376.37	435.34
376.56	379.17
376.76	383.85
376.95	411.93
377.15	355.76
377.35	458.74
377.54	425.98
377.74	390.87
377.93	360.44
378.13	367.46
378.33	444.70
378.52	379.17
378.72	381.51
378.91	348.74
379.11	409.59
379.31	416.62
379.50	435.34
379.70	358.10
379.89	409.59
380.09	437.68
380.28	388.53
380.48	430.66
380.68	458.74
380.87	416.62
381.07	393.21
381.26	414.27
381.46	362.78
381.65	390.87
381.85	404.91
382.04	477.47
382.24	409.59
382.43	362.78
382.63	407.25
382.83	400.23
383.02	409.59
383.22	400.23
383.41	386.19
383.61	430.66
383.80	369.80
384.00	367.46
384.19	418.96
384.39	393.21
384.58	428.32
384.78	451.72
384.97	449.38
385.17	435.34
385.36	339.38
385.56	393.21
385.75	397.89
385.95	383.85
386.14	379.17
386.34	433.00
386.53	376.83
386.72	376.83
386.92	430.66
387.11	386.19
387.31	393.21
387.50	351.08
387.70	332.36
387.89	456.40
388.09	362.78
388.28	376.83
388.48	348.74
388.67	374.49
388.86	449.38
389.06	447.04
389.25	402.57
389.45	369.80
389.64	458.74
389.84	395.55
390.03	421.30
390.22	425.98
390.42	332.36
390.61	409.59
390.81	458.74
391.00	397.89
391.19	435.34
391.39	360.44
391.58	447.04
391.78	463.43
391.97	409.59
392.16	397.89
392.36	414.27
392.55	372.15
392.75	477.47
392.94	339.38
393.13	402.57
393.33	351.08
393.52	437.68
393.71	383.85
393.91	418.96
394.10	362.78
394.29	369.80
394.49	393.21
394.68	435.34
394.88	407.25
395.07	447.04
395.26	344.06
395.46	435.34
395.65	442.36
395.84	386.19
396.04	470.45
396.23	397.89
396.42	404.91
396.62	386.19
396.81	411.93
397.00	400.23
397.19	404.91
397.39	388.53
397.58	465.77
397.77	435.34
397.97	395.55
398.16	428.32
398.35	400.23
398.55	402.57
398.74	383.85
398.93	411.93
399.12	381.51
399.32	428.32
399.51	411.93
399.70	395.55
399.90	463.43
400.09	365.12
400.28	449.38
400.47	393.21
400.67	404.91
400.86	458.74
401.05	442.36
401.24	479.81
401.44	348.74
401.63	449.38
401.82	433.00
402.01	402.57
402.21	503.22
402.40	351.08
402.59	433.00
402.78	332.36
402.97	386.19
403.17	372.15
403.36	395.55
403.55	397.89
403.74	468.11
403.93	409.59
404.13	425.98
404.32	404.91
404.51	374.49
404.70	428.32
404.89	451.72
405.09	414.27
405.28	376.83
405.47	416.62
405.66	393.21
405.85	369.80
406.05	454.06
406.24	407.25
406.43	330.02
406.62	334.70
406.81	444.70
407.00	407.25
407.20	414.27
407.39	437.68
407.58	421.30
407.77	402.57
407.96	444.70
408.15	442.36
408.34	414.27
408.54	468.11
408.73	381.51
408.92	440.02
409.11	416.62
409.30	449.38
409.49	273.84
409.68	409.59
409.87	390.87
410.07	416.62
410.26	475.13
410.45	353.42
410.64	346.40
410.83	444.70
411.02	388.53
411.21	372.15
411.40	416.62
411.59	379.17
411.78	388.53
411.98	369.80
412.17	400.23
412.36	400.23
412.55	367.46
412.74	351.08
412.93	402.57
413.12	430.66
413.31	430.66
413.50	418.96
413.69	451.72
413.88	351.08
414.07	397.89
414.26	372.15
414.45	337.04
414.64	458.74
414.83	402.57
415.02	433.00
415.22	500.87
415.41	437.68
415.60	379.17
415.79	383.85
415.98	428.32
416.17	365.12
416.36	507.90
416.55	442.36
416.74	414.27
416.93	444.70
417.12	397.89
417.31	355.76
417.50	386.19
417.69	456.40
417.88	397.89
418.07	400.23
418.26	409.59
418.45	425.98
418.64	428.32
418.83	409.59
419.02	435.34
419.21	454.06
419.39	414.27
419.58	388.53
419.77	428.32
419.96	367.46
420.15	416.62
420.34	409.59
420.53	411.93
420.72	409.59
420.91	390.87
421.10	388.53
421.29	437.68
421.48	379.17
421.67	433.00
421.86	311.29
422.05	393.21
422.24	393.21
422.43	395.55
422.61	355.76
422.80	395.55
422.99	390.87
423.18	428.32
423.37	430.66
423.56	425.98
423.75	388.53
423.94	351.08
424.13	409.59
424.32	507.90
424.50	402.57
424.69	400.23
424.88	374.49
425.07	407.25
425.26	376.83
425.45	404.91
425.64	404.91
425.83	458.74
426.01	395.55
426.20	341.72
426.39	339.38
426.58	358.10
426.77	411.93
426.96	416.62
427.15	409.59
427.33	451.72
427.52	428.32
427.71	425.98
427.90	404.91
428.09	367.46
428.28	325.33
428.46	407.25
428.65	369.80
428.84	437.68
429.03	409.59
429.22	421.30
429.40	444.70
429.59	461.09
429.78	444.70
429.97	423.64
430.16	428.32
430.34	379.17
430.53	379.17
430.72	433.00
430.91	365.12
431.10	472.79
431.28	463.43
431.47	367.46
431.66	519.60
431.85	409.59
432.03	435.34
432.22	477.47
432.41	423.64
432.60	381.51
432.79	393.21
432.97	367.46
433.16	386.19
433.35	404.91
433.54	369.80
433.72	411.93
433.91	369.80
434.10	395.55
434.28	404.91
434.47	400.23
434.66	362.78
434.85	393.21
435.03	409.59
435.22	409.59
435.41	451.72
435.59	400.23
435.78	376.83
435.97	454.06
436.16	433.00
436.34	409.59
436.53	409.59
436.72	496.19
436.90	437.68
437.09	418.96
437.28	435.34
437.46	393.21
437.65	402.57
437.84	393.21
438.02	451.72
438.21	376.83
438.40	437.68
438.58	440.02
438.77	463.43
438.96	397.89
439.14	369.80
439.33	454.06
439.52	409.59
439.70	430.66
439.89	411.93
440.08	463.43
440.26	353.42
440.45	411.93
440.63	376.83
440.82	442.36
441.01	423.64
441.19	421.30
441.38	449.38
441.57	482.15
441.75	383.85
441.94	404.91
442.12	418.96
442.31	360.44
442.50	423.64
442.68	381.51
442.87	428.32
443.05	428.32
443.24	423.64
443.43	388.53
443.61	433.00
443.80	425.98
443.98	334.70
444.17	458.74
444.35	475.13
444.54	449.38
444.73	423.64
444.91	465.77
445.10	404.91
445.28	388.53
445.47	402.57
445.65	395.55
445.84	339.38
446.02	411.93
446.21	376.83
446.39	442.36
446.58	442.36
446.77	393.21
446.95	442.36
447.14	386.19
447.32	404.91
447.51	440.02
447.69	479.81
447.88	435.34
448.06	423.64
448.25	416.62
448.43	456.40
448.62	435.34
448.80	433.00
448.99	458.74
449.17	397.89
449.36	414.27
449.54	402.57
449.73	348.74
449.91	425.98
450.10	409.59
450.28	423.64
450.46	486.83
450.65	463.43
450.83	379.17
451.02	381.51
451.20	442.36
451.39	444.70
451.57	402.57
451.76	390.87
451.94	449.38
452.13	456.40
452.31	393.21
452.49	449.38
452.68	407.25
452.86	428.32
453.05	430.66
453.23	407.25
453.42	367.46
453.60	390.87
453.78	411.93
453.97	353.42
454.15	372.15
454.34	411.93
454.52	376.83
454.70	393.21
454.89	440.02
455.07	393.21
455.26	348.74
455.44	433.00
455.62	367.46
455.81	337.04
455.99	416.62
456.17	486.83
456.36	353.42
456.54	388.53
456.73	383.85
456.91	433.00
457.09	435.34
457.28	423.64
457.46	400.23
457.64	411.93
457.83	421.30
458.01	454.06
458.19	454.06
458.38	372.15
458.56	428.32
458.74	470.45
458.93	379.17
459.11	409.59
459.29	418.96
459.48	465.77
459.66	442.36
459.84	353.42
460.03	437.68
460.21	330.02
460.39	395.55
460.57	414.27
460.76	372.15
460.94	332.36
461.12	425.98
461.31	407.25
461.49	397.89
461.67	337.04
461.85	425.98
462.04	372.15
462.22	809.83
462.40	472.79
462.59	416.62
462.77	449.38
462.95	411.93
463.13	409.59
463.32	393.21
463.50	510.24
463.68	447.04
463.86	407.25
464.05	425.98
464.23	418.96
464.41	437.68
464.59	416.62
464.78	435.34
464.96	369.80
465.14	425.98
465.32	414.27
465.50	468.11
465.69	355.76
465.87	428.32
466.05	428.32
466.23	463.43
466.41	388.53
466.60	414.27
466.78	409.59
466.96	493.85
467.14	393.21
467.32	414.27
467.51	461.09
467.69	423.64
467.87	437.68
468.05	358.10
468.23	402.57
468.41	344.06
468.60	339.38
468.78	402.57
468.96	444.70
469.14	402.57
469.32	383.85
469.50	451.72
469.69	346.40
469.87	423.64
470.05	393.21
470.23	383.85
470.41	461.09
470.59	402.57
470.77	390.87
470.95	407.25
471.14	435.34
471.32	341.72
471.50	407.25
471.68	388.53
471.86	444.70
472.04	461.09
472.22	447.04
472.40	470.45
472.58	437.68
472.77	339.38
472.95	421.30
473.13	428.32
473.31	428.32
473.49	386.19
473.67	351.08
473.85	404.91
474.03	393.21
474.21	440.02
474.39	421.30
474.57	418.96
474.75	451.72
474.93	409.59
475.12	489.17
475.30	402.57
475.48	367.46
475.66	397.89
475.84	416.62
476.02	414.27
476.20	416.62
476.38	395.55
476.56	411.93
476.74	423.64
476.92	442.36
477.10	428.32
477.28	472.79
477.46	423.64
477.64	472.79
477.82	433.00
478.00	390.87
478.18	418.96
478.36	425.98
478.54	390.87
478.72	365.12
478.90	348.74
479.08	348.74
479.26	402.57
479.44	379.17
479.62	404.91
479.80	362.78
479.98	397.89
480.16	355.76
480.34	409.59
480.52	362.78
480.70	425.98
480.88	379.17
481.06	367.46
481.24	437.68
481.41	388.53
481.59	458.74
481.77	489.17
481.95	430.66
482.13	479.81
482.31	418.96
482.49	409.59
482.67	308.95
482.85	402.57
483.03	416.62
483.21	425.98
483.39	379.17
483.57	472.79
483.74	433.00
483.92	407.25
484.10	442.36
484.28	407.25
484.46	458.74
484.64	470.45
484.82	381.51
485.00	409.59
485.18	339.38
485.35	404.91
485.53	367.46
485.71	491.51
485.89	442.36
486.07	428.32
486.25	484.49
486.43	423.64
486.61	449.38
486.78	397.89
486.96	376.83
487.14	418.96
487.32	423.64
487.50	379.17
487.68	416.62
487.85	428.32
488.03	456.40
488.21	437.68
488.39	397.89
488.57	477.47
488.75	418.96
488.92	510.24
489.10	383.85
489.28	433.00
489.46	400.23
489.64	414.27
489.81	346.40
489.99	428.32
490.17	477.47
490.35	484.49
490.53	407.25
490.70	442.36
490.88	435.34
491.06	451.72
491.24	397.89
491.41	437.68
491.59	381.51
491.77	318.31
491.95	449.38
492.13	423.64
492.30	367.46
492.48	381.51
492.66	325.33
492.84	386.19
493.01	444.70
493.19	346.40
493.37	433.00
493.54	402.57
493.72	433.00
493.90	493.85
494.08	430.66
494.25	360.44
494.43	428.32
494.61	393.21
494.79	423.64
494.96	379.17
495.14	444.70
495.32	390.87
495.49	425.98
495.67	388.53
495.85	440.02
496.02	379.17
496.20	397.89
496.38	407.25
496.55	447.04
496.73	458.74
496.91	402.57
497.09	402.57
497.26	447.04
497.44	409.59
497.62	414.27
497.79	449.38
497.97	442.36
498.14	447.04
498.32	411.93
498.50	435.34
498.67	425.98
498.85	416.62
499.03	437.68
499.20	404.91
499.38	407.25
499.56	461.09
499.73	435.34
499.91	381.51
500.08	416.62
500.26	425.98
500.44	348.74
500.61	386.19
500.79	404.91
500.97	440.02
501.14	418.96
501.32	400.23
501.49	400.23
501.67	423.64
501.84	339.38
502.02	390.87
502.20	428.32
502.37	402.57
502.55	444.70
502.72	433.00
502.90	421.30
503.07	379.17
503.25	449.38
503.43	381.51
503.60	435.34
503.78	416.62
503.95	383.85
504.13	447.04
504.30	423.64
504.48	472.79
504.65	411.93
504.83	404.91
505.01	369.80
505.18	395.55
505.36	430.66
505.53	393.21
505.71	414.27
505.88	456.40
506.06	402.57
506.23	475.13
506.41	472.79
506.58	383.85
506.76	442.36
506.93	442.36
507.11	440.02
507.28	454.06
507.46	430.66
507.63	411.93
507.81	383.85
507.98	341.72
508.16	379.17
508.33	430.66
508.50	376.83
508.68	388.53
508.85	374.49
509.03	365.12
509.20	430.66
509.38	404.91
509.55	435.34
509.73	430.66
509.90	400.23
510.08	456.40
510.25	425.98
510.42	397.89
510.60	407.25
510.77	397.89
510.95	409.59
511.12	365.12
511.30	418.96
511.47	430.66
511.64	454.06
511.82	404.91
511.99	411.93
512.17	423.64
512.34	430.66
512.51	407.25
512.69	416.62
512.86	423.64
513.04	414.27
513.21	418.96
513.38	362.78
513.56	369.80
513.73	468.11
513.90	423.64
514.08	430.66
514.25	449.38
514.43	395.55
514.60	330.02
514.77	311.29
514.95	456.40
515.12	444.70
515.29	416.62
515.47	379.17
515.64	386.19
515.81	376.83
515.99	411.93
516.16	355.76
516.33	451.72
516.51	411.93
516.68	344.06
516.85	463.43
517.03	400.23
517.20	407.25
517.37	383.85
517.54	397.89
517.72	348.74
517.89	341.72
518.06	428.32
518.24	383.85
518.41	379.17
518.58	411.93
518.75	456.40
518.93	447.04
519.10	374.49
519.27	437.68
519.45	437.68
519.62	402.57
519.79	379.17
519.96	447.04
520.14	362.78
520.31	395.55
520.48	351.08
520.65	421.30
520.83	447.04
521.00	463.43
521.17	334.70
521.34	390.87
521.52	344.06
521.69	374.49
521.86	360.44
522.03	447.04
522.20	489.17
522.38	416.62
522.55	379.17
522.72	397.89
522.89	463.43
523.07	428.32
523.24	458.74
523.41	388.53
523.58	367.46
523.75	393.21
523.92	465.77
524.10	416.62
524.27	383.85
524.44	404.91
524.61	472.79
524.78	372.15
524.96	493.85
525.13	393.21
525.30	430.66
525.47	423.64
525.64	388.53
525.81	423.64
525.98	491.51
526.16	383.85
526.33	423.64
526.50	421.30
526.67	360.44
526.84	463.43
527.01	372.15
527.18	407.25
527.36	472.79
527.53	358.10
527.70	458.74
527.87	411.93
528.04	393.21
528.21	388.53
528.38	463.43
528.55	362.78
528.72	440.02
528.89	463.43
529.07	400.23
529.24	388.53
529.41	503.22
529.58	407.25
529.75	442.36
529.92	437.68
530.09	423.64
530.26	414.27
530.43	411.93
530.60	402.57
530.77	346.40
530.94	472.79
531.11	388.53
531.28	346.40
531.46	407.25
531.63	414.27
531.80	400.23
531.97	423.64
532.14	442.36
532.31	393.21
532.48	456.40
532.65	449.38
532.82	395.55
532.99	428.32
533.16	461.09
533.33	390.87
533.50	444.70
533.67	358.10
533.84	376.83
534.01	447.04
534.18	456.40
534.35	414.27
534.52	447.04
534.69	510.24
534.86	416.62
535.03	376.83
535.20	367.46
535.37	421.30
535.54	402.57
535.71	407.25
535.88	449.38
536.05	430.66
536.22	428.32
536.38	472.79
536.55	367.46
536.72	421.30
536.89	416.62
537.06	437.68
537.23	465.77
537.40	437.68
537.57	428.32
537.74	411.93
537.91	404.91
538.08	346.40
538.25	437.68
538.42	388.53
538.59	346.40
538.75	437.68
538.92	395.55
539.09	479.81
539.26	421.30
539.43	486.83
539.60	456.40
539.77	479.81
539.94	496.19
540.11	358.10
540.28	433.00
540.44	407.25
540.61	428.32
540.78	388.53
540.95	423.64
541.12	547.69
541.29	454.06
541.46	409.59
541.62	367.46
541.79	435.34
541.96	458.74
542.13	425.98
542.30	397.89
542.47	395.55
542.63	421.30
542.80	456.40
542.97	404.91
543.14	409.59
543.31	341.72
543.48	393.21
543.64	334.70
543.81	360.44
543.98	397.89
544.15	418.96
544.32	360.44
544.48	416.62
544.65	435.34
544.82	409.59
544.99	386.19
545.16	437.68
545.32	393.21
545.49	451.72
545.66	444.70
545.83	433.00
546.00	395.55
546.16	407.25
546.33	428.32
546.50	435.34
546.67	407.25
546.83	503.22
547.00	341.72
547.17	437.68
547.34	416.62
547.50	425.98
547.67	425.98
547.84	397.89
548.00	524.28
548.17	470.45
548.34	341.72
548.51	454.06
548.67	362.78
548.84	379.17
549.01	388.53
549.18	348.74
549.34	468.11
549.51	416.62
549.68	433.00
549.84	353.42
550.01	416.62
550.18	472.79
550.34	475.13
550.51	498.53
550.68	463.43
550.84	418.96
551.01	472.79
551.18	395.55
551.34	465.77
551.51	400.23
551.68	374.49
551.84	447.04
552.01	454.06
552.18	358.10
552.34	430.66
552.51	435.34
552.68	461.09
552.84	416.62
553.01	416.62
553.18	388.53
553.34	442.36
553.51	423.64
553.67	458.74
553.84	444.70
554.01	416.62
554.17	414.27
554.34	433.00
554.51	393.21
554.67	440.02
554.84	367.46
555.00	304.27
555.17	395.55
555.33	423.64
555.50	423.64
555.67	402.57
555.83	400.23
556.00	475.13
556.16	505.56
556.33	433.00
556.50	440.02
556.66	425.98
556.83	383.85
556.99	341.72
557.16	339.38
557.32	388.53
557.49	402.57
557.65	409.59
557.82	472.79
557.98	402.57
558.15	458.74
558.32	381.51
558.48	287.89
558.65	381.51
558.81	468.11
558.98	367.46
559.14	440.02
559.31	454.06
559.47	397.89
559.64	379.17
559.80	440.02
559.97	479.81
560.13	428.32
560.30	423.64
560.46	381.51
560.63	456.40
560.79	451.72
560.96	454.06
561.12	388.53
561.29	395.55
561.45	409.59
561.61	456.40
561.78	526.62
561.94	386.19
562.11	341.72
562.27	383.85
562.44	409.59
562.60	437.68
562.77	407.25
562.93	519.60
563.10	435.34
563.26	395.55
563.42	477.47
563.59	423.64
563.75	397.89
563.92	407.25
564.08	393.21
564.24	484.49
564.41	428.32
564.57	409.59
564.74	388.53
564.90	440.02
565.07	484.49
565.23	414.27
565.39	486.83
565.56	353.42
565.72	472.79
565.88	451.72
566.05	442.36
566.21	386.19
566.38	477.47
566.54	402.57
566.70	362.78
566.87	402.57
567.03	449.38
567.19	440.02
567.36	360.44
567.52	414.27
567.68	442.36
567.85	428.32
568.01	360.44
568.17	430.66
568.34	433.00
568.50	404.91
568.66	372.15
568.83	458.74
568.99	423.64
569.15	491.51
569.32	379.17
569.48	454.06
569.64	433.00
569.81	337.04
569.97	449.38
570.13	428.32
570.30	351.08
570.46	496.19
570.62	339.38
570.78	386.19
570.95	433.00
571.11	479.81
571.27	463.43
571.43	411.93
571.60	472.79
571.76	376.83
571.92	444.70
572.09	388.53
572.25	444.70
572.41	458.74
572.57	383.85
572.74	433.00
572.90	486.83
573.06	411.93
573.22	428.32
573.38	376.83
573.55	477.47
573.71	482.15
573.87	404.91
574.03	388.53
574.20	344.06
574.36	437.68
574.52	421.30
574.68	458.74
574.84	416.62
575.01	484.49
575.17	447.04
575.33	409.59
575.49	461.09
575.65	470.45
575.82	381.51
575.98	449.38
576.14	388.53
576.30	435.34
576.46	430.66
576.62	447.04
576.79	374.49
576.95	400.23
577.11	353.42
577.27	414.27
577.43	447.04
577.59	491.51
577.75	465.77
577.92	372.15
578.08	437.68
578.24	365.12
578.40	472.79
578.56	348.74
578.72	435.34
578.88	425.98
579.04	435.34
579.21	428.32
579.37	444.70
579.53	374.49
579.69	428.32
579.85	440.02
580.01	468.11
580.17	369.80
580.33	440.02
580.49	505.56
580.65	451.72
580.82	386.19
580.98	449.38
581.14	388.53
581.30	444.70
581.46	440.02
581.62	463.43
581.78	400.23
581.94	477.47
582.10	386.19
582.26	414.27
582.42	440.02
582.58	388.53
582.74	404.91
582.90	418.96
583.06	367.46
583.22	414.27
583.38	351.08
583.54	388.53
583.70	409.59
583.86	414.27
584.02	454.06
584.18	423.64
584.34	458.74
584.50	465.77
584.66	437.68
584.82	411.93
584.98	435.34
585.14	404.91
585.30	472.79
585.46	376.83
585.62	435.34
585.78	388.53
585.94	411.93
586.10	404.91
586.26	444.70
586.42	442.36
586.58	454.06
586.74	416.62
586.90	442.36
587.06	409.59
587.22	430.66
587.38	428.32
587.54	400.23
587.70	344.06
587.86	463.43
588.02	337.04
588.18	390.87
588.34	451.72
588.49	428.32
588.65	381.51
588.81	386.19
588.97	367.46
589.13	376.83
589.29	423.64
589.45	383.85
589.61	393.21
589.77	470.45
589.93	313.63
590.08	407.25
590.24	444.70
590.40	463.43
590.56	461.09
590.72	414.27
590.88	337.04
591.04	407.25
591.20	397.89
591.35	376.83
591.51	379.17
591.67	435.34
591.83	397.89
591.99	411.93
592.15	442.36
592.31	451.72
592.46	470.45
592.62	482.15
592.78	463.43
592.94	383.85
593.10	433.00
593.26	433.00
593.41	425.98
593.57	390.87
593.73	442.36
593.89	369.80
594.05	360.44
594.20	344.06
594.36	339.38
594.52	414.27
594.68	428.32
594.84	454.06
594.99	430.66
595.15	407.25
595.31	463.43
595.47	404.91
595.62	388.53
595.78	395.55
595.94	379.17
596.10	404.91
596.25	433.00
596.41	411.93
596.57	437.68
596.73	390.87
596.88	477.47
597.04	355.76
597.20	468.11
597.36	440.02
597.51	381.51
597.67	393.21
597.83	407.25
597.99	428.32
598.14	454.06
598.30	428.32
598.46	407.25
598.61	477.47
598.77	440.02
598.93	353.42
599.09	407.25
599.24	374.49
599.40	465.77
599.56	428.32
599.71	470.45
599.87	465.77
600.03	440.02
600.18	416.62
600.34	393.21
600.50	435.34
600.65	411.93
600.81	407.25
600.97	402.57
601.12	425.98
601.28	433.00
601.44	423.64
601.59	374.49
601.75	449.38
601.91	440.02
602.06	397.89
602.22	442.36
602.37	470.45
602.53	414.27
602.69	479.81
602.84	348.74
603.00	433.00
603.16	503.22
603.31	435.34
603.47	454.06
603.62	425.98
603.78	416.62
603.94	381.51
604.09	461.09
604.25	444.70
604.40	444.70
604.56	404.91
604.71	390.87
604.87	402.57
605.03	423.64
605.18	402.57
605.34	428.32
605.49	381.51
605.65	435.34
605.80	421.30
605.96	367.46
606.12	454.06
606.27	442.36
606.43	470.45
606.58	407.25
606.74	423.64
606.89	428.32
607.05	449.38
607.20	411.93
607.36	397.89
607.51	379.17
607.67	447.04
607.82	428.32
607.98	472.79
608.13	388.53
608.29	442.36
608.44	407.25
608.60	411.93
608.75	402.57
608.91	409.59
609.06	472.79
609.22	388.53
609.37	421.30
609.53	376.83
609.68	414.27
609.84	397.89
609.99	395.55
610.15	402.57
