SpectraSuite Data File
++++++++++++++++++++++++++++++++++++
Date: Fri Oct 25 12:11:35 EDT 2013
User: price-jones
Dark Spectrum Present: No
Reference Spectrum Present: No
Number of Sampled Component Spectra: 1
Spectrometers: USB2+H05261
Integration Time (usec): 100000 (USB2+H05261)
Spectra Averaged: 1 (USB2+H05261)
Boxcar Smoothing: 0 (USB2+H05261)
Correct for Electrical Dark: No (USB2+H05261)
Strobe/Lamp Enabled: No (USB2+H05261)
Correct for Detector Non-linearity: No (USB2+H05261)
Correct for Stray Light: No (USB2+H05261)
Number of Pixels in Processed Spectrum: 2048
>>>>>Begin Processed Spectral Data<<<<<
365.73	369.80
365.92	369.80
366.12	369.80
366.32	262.14
366.52	252.78
366.72	276.18
366.91	271.50
367.11	245.76
367.31	252.78
367.51	229.37
367.70	215.33
367.90	266.82
368.10	191.92
368.30	252.78
368.49	248.10
368.69	259.80
368.89	306.61
369.09	250.44
369.28	262.14
369.48	301.93
369.68	241.08
369.87	252.78
370.07	292.57
370.27	330.02
370.47	271.50
370.66	351.08
370.86	362.78
371.06	337.04
371.25	437.68
371.45	346.40
371.65	381.51
371.84	400.23
372.04	365.12
372.24	344.06
372.44	381.51
372.63	381.51
372.83	407.25
373.03	447.04
373.22	421.30
373.42	381.51
373.62	418.96
373.81	407.25
374.01	437.68
374.21	479.81
374.40	442.36
374.60	514.92
374.79	397.89
374.99	433.00
375.19	440.02
375.38	374.49
375.58	388.53
375.78	440.02
375.97	430.66
376.17	512.58
376.37	362.78
376.56	423.64
376.76	449.38
376.95	355.76
377.15	435.34
377.35	430.66
377.54	418.96
377.74	330.02
377.93	390.87
378.13	367.46
378.33	397.89
378.52	383.85
378.72	402.57
378.91	414.27
379.11	418.96
379.31	442.36
379.50	435.34
379.70	484.49
379.89	440.02
380.09	470.45
380.28	374.49
380.48	369.80
380.68	400.23
380.87	376.83
381.07	414.27
381.26	435.34
381.46	395.55
381.65	411.93
381.85	435.34
382.04	393.21
382.24	404.91
382.43	390.87
382.63	388.53
382.83	339.38
383.02	393.21
383.22	440.02
383.41	395.55
383.61	425.98
383.80	444.70
384.00	393.21
384.19	416.62
384.39	458.74
384.58	400.23
384.78	374.49
384.97	407.25
385.17	428.32
385.36	423.64
385.56	395.55
385.75	360.44
385.95	444.70
386.14	435.34
386.34	411.93
386.53	395.55
386.72	447.04
386.92	440.02
387.11	416.62
387.31	411.93
387.50	440.02
387.70	337.04
387.89	423.64
388.09	421.30
388.28	400.23
388.48	402.57
388.67	472.79
388.86	430.66
389.06	486.83
389.25	503.22
389.45	423.64
389.64	440.02
389.84	430.66
390.03	437.68
390.22	395.55
390.42	482.15
390.61	430.66
390.81	418.96
391.00	447.04
391.19	362.78
391.39	379.17
391.58	472.79
391.78	418.96
391.97	430.66
392.16	418.96
392.36	402.57
392.55	449.38
392.75	440.02
392.94	374.49
393.13	425.98
393.33	390.87
393.52	425.98
393.71	442.36
393.91	454.06
394.10	416.62
394.29	416.62
394.49	383.85
394.68	454.06
394.88	461.09
395.07	407.25
395.26	339.38
395.46	365.12
395.65	423.64
395.84	397.89
396.04	475.13
396.23	444.70
396.42	425.98
396.62	435.34
396.81	425.98
397.00	416.62
397.19	451.72
397.39	386.19
397.58	442.36
397.77	404.91
397.97	416.62
398.16	423.64
398.35	416.62
398.55	397.89
398.74	353.42
398.93	402.57
399.12	390.87
399.32	414.27
399.51	369.80
399.70	411.93
399.90	407.25
400.09	411.93
400.28	456.40
400.47	421.30
400.67	365.12
400.86	315.97
401.05	428.32
401.24	428.32
401.44	395.55
401.63	482.15
401.82	430.66
402.01	376.83
402.21	402.57
402.40	437.68
402.59	362.78
402.78	388.53
402.97	388.53
403.17	365.12
403.36	409.59
403.55	386.19
403.74	367.46
403.93	409.59
404.13	390.87
404.32	341.72
404.51	383.85
404.70	393.21
404.89	358.10
405.09	435.34
405.28	428.32
405.47	365.12
405.66	386.19
405.85	397.89
406.05	475.13
406.24	409.59
406.43	451.72
406.62	311.29
406.81	454.06
407.00	482.15
407.20	421.30
407.39	430.66
407.58	379.17
407.77	461.09
407.96	407.25
408.15	418.96
408.34	390.87
408.54	383.85
408.73	379.17
408.92	346.40
409.11	449.38
409.30	393.21
409.49	397.89
409.68	430.66
409.87	449.38
410.07	388.53
410.26	383.85
410.45	433.00
410.64	421.30
410.83	472.79
411.02	400.23
411.21	454.06
411.40	418.96
411.59	374.49
411.78	362.78
411.98	482.15
412.17	365.12
412.36	435.34
412.55	390.87
412.74	374.49
412.93	451.72
413.12	348.74
413.31	416.62
413.50	440.02
413.69	418.96
413.88	414.27
414.07	414.27
414.26	449.38
414.45	381.51
414.64	360.44
414.83	463.43
415.02	423.64
415.22	367.46
415.41	479.81
415.60	365.12
415.79	388.53
415.98	447.04
416.17	428.32
416.36	379.17
416.55	334.70
416.74	365.12
416.93	442.36
417.12	421.30
417.31	425.98
417.50	465.77
417.69	334.70
417.88	400.23
418.07	418.96
418.26	402.57
418.45	414.27
418.64	428.32
418.83	416.62
419.02	444.70
419.21	383.85
419.39	430.66
419.58	444.70
419.77	465.77
419.96	386.19
420.15	421.30
420.34	407.25
420.53	374.49
420.72	498.53
420.91	423.64
421.10	421.30
421.29	444.70
421.48	472.79
421.67	500.87
421.86	411.93
422.05	416.62
422.24	402.57
422.43	444.70
422.61	397.89
422.80	388.53
422.99	442.36
423.18	353.42
423.37	454.06
423.56	393.21
423.75	461.09
423.94	334.70
424.13	418.96
424.32	341.72
424.50	440.02
424.69	479.81
424.88	468.11
425.07	411.93
425.26	348.74
425.45	435.34
425.64	369.80
425.83	339.38
426.01	414.27
426.20	402.57
426.39	386.19
426.58	388.53
426.77	393.21
426.96	451.72
427.15	428.32
427.33	407.25
427.52	397.89
427.71	435.34
427.90	470.45
428.09	395.55
428.28	353.42
428.46	397.89
428.65	421.30
428.84	414.27
429.03	531.30
429.22	330.02
429.40	355.76
429.59	325.33
429.78	428.32
429.97	409.59
430.16	430.66
430.34	362.78
430.53	430.66
430.72	369.80
430.91	503.22
431.10	381.51
431.28	458.74
431.47	388.53
431.66	435.34
431.85	383.85
432.03	451.72
432.22	531.30
432.41	423.64
432.60	423.64
432.79	489.17
432.97	404.91
433.16	400.23
433.35	355.76
433.54	461.09
433.72	437.68
433.91	449.38
434.10	463.43
434.28	463.43
434.47	414.27
434.66	416.62
434.85	435.34
435.03	337.04
435.22	465.77
435.41	390.87
435.59	418.96
435.78	418.96
435.97	381.51
436.16	386.19
436.34	418.96
436.53	369.80
436.72	425.98
436.90	418.96
437.09	484.49
437.28	407.25
437.46	395.55
437.65	423.64
437.84	442.36
438.02	470.45
438.21	435.34
438.40	444.70
438.58	411.93
438.77	433.00
438.96	425.98
439.14	404.91
439.33	444.70
439.52	386.19
439.70	397.89
439.89	372.15
440.08	423.64
440.26	430.66
440.45	479.81
440.63	425.98
440.82	470.45
441.01	344.06
441.19	407.25
441.38	451.72
441.57	397.89
441.75	421.30
441.94	437.68
442.12	397.89
442.31	458.74
442.50	383.85
442.68	388.53
442.87	411.93
443.05	395.55
443.24	374.49
443.43	407.25
443.61	451.72
443.80	379.17
443.98	393.21
444.17	423.64
444.35	449.38
444.54	400.23
444.73	456.40
444.91	411.93
445.10	451.72
445.28	351.08
445.47	418.96
445.65	351.08
445.84	362.78
446.02	372.15
446.21	362.78
446.39	449.38
446.58	400.23
446.77	402.57
446.95	416.62
447.14	365.12
447.32	465.77
447.51	418.96
447.69	365.12
447.88	479.81
448.06	388.53
448.25	376.83
448.43	409.59
448.62	360.44
448.80	397.89
448.99	416.62
449.17	383.85
449.36	362.78
449.54	390.87
449.73	393.21
449.91	451.72
450.10	400.23
450.28	447.04
450.46	468.11
450.65	444.70
450.83	418.96
451.02	416.62
451.20	346.40
451.39	482.15
451.57	433.00
451.76	381.51
451.94	475.13
452.13	430.66
452.31	465.77
452.49	416.62
452.68	369.80
452.86	461.09
453.05	470.45
453.23	390.87
453.42	379.17
453.60	451.72
453.78	433.00
453.97	421.30
454.15	414.27
454.34	379.17
454.52	409.59
454.70	479.81
454.89	533.64
455.07	425.98
455.26	423.64
455.44	411.93
455.62	390.87
455.81	381.51
455.99	449.38
456.17	418.96
456.36	381.51
456.54	402.57
456.73	360.44
456.91	355.76
457.09	421.30
457.28	430.66
457.46	428.32
457.64	383.85
457.83	482.15
458.01	461.09
458.19	451.72
458.38	402.57
458.56	376.83
458.74	344.06
458.93	386.19
459.11	421.30
459.29	442.36
459.48	397.89
459.66	442.36
459.84	402.57
460.03	440.02
460.21	423.64
460.39	362.78
460.57	461.09
460.76	367.46
460.94	402.57
461.12	421.30
461.31	416.62
461.49	430.66
461.67	404.91
461.85	393.21
462.04	411.93
462.22	770.04
462.40	367.46
462.59	411.93
462.77	447.04
462.95	458.74
463.13	416.62
463.32	414.27
463.50	428.32
463.68	458.74
463.86	449.38
464.05	381.51
464.23	458.74
464.41	458.74
464.59	381.51
464.78	433.00
464.96	386.19
465.14	404.91
465.32	358.10
465.50	447.04
465.69	411.93
465.87	390.87
466.05	409.59
466.23	397.89
466.41	423.64
466.60	383.85
466.78	437.68
466.96	402.57
467.14	461.09
467.32	425.98
467.51	463.43
467.69	433.00
467.87	442.36
468.05	397.89
468.23	486.83
468.41	449.38
468.60	390.87
468.78	383.85
468.96	435.34
469.14	521.94
469.32	372.15
469.50	360.44
469.69	428.32
469.87	447.04
470.05	423.64
470.23	386.19
470.41	430.66
470.59	444.70
470.77	383.85
470.95	477.47
471.14	470.45
471.32	374.49
471.50	442.36
471.68	428.32
471.86	393.21
472.04	355.76
472.22	379.17
472.40	433.00
472.58	397.89
472.77	461.09
472.95	444.70
473.13	458.74
473.31	477.47
473.49	458.74
473.67	425.98
473.85	433.00
474.03	468.11
474.21	493.85
474.39	451.72
474.57	468.11
474.75	402.57
474.93	390.87
475.12	409.59
475.30	416.62
475.48	437.68
475.66	393.21
475.84	447.04
476.02	407.25
476.20	456.40
476.38	390.87
476.56	484.49
476.74	442.36
476.92	475.13
477.10	386.19
477.28	358.10
477.46	376.83
477.64	514.92
477.82	416.62
478.00	362.78
478.18	337.04
478.36	418.96
478.54	369.80
478.72	449.38
478.90	365.12
479.08	451.72
479.26	496.19
479.44	423.64
479.62	390.87
479.80	444.70
479.98	423.64
480.16	437.68
480.34	465.77
480.52	409.59
480.70	442.36
480.88	395.55
481.06	372.15
481.24	339.38
481.41	414.27
481.59	395.55
481.77	425.98
481.95	449.38
482.13	430.66
482.31	351.08
482.49	358.10
482.67	421.30
482.85	393.21
483.03	425.98
483.21	407.25
483.39	383.85
483.57	463.43
483.74	465.77
483.92	440.02
484.10	355.76
484.28	458.74
484.46	479.81
484.64	397.89
484.82	315.97
485.00	393.21
485.18	435.34
485.35	374.49
485.53	442.36
485.71	414.27
485.89	425.98
486.07	421.30
486.25	463.43
486.43	428.32
486.61	402.57
486.78	418.96
486.96	397.89
487.14	421.30
487.32	423.64
487.50	447.04
487.68	456.40
487.85	423.64
488.03	351.08
488.21	395.55
488.39	411.93
488.57	440.02
488.75	414.27
488.92	451.72
489.10	393.21
489.28	500.87
489.46	353.42
489.64	330.02
489.81	440.02
489.99	440.02
490.17	383.85
490.35	435.34
490.53	435.34
490.70	428.32
490.88	465.77
491.06	409.59
491.24	416.62
491.41	421.30
491.59	430.66
491.77	374.49
491.95	440.02
492.13	458.74
492.30	447.04
492.48	454.06
492.66	390.87
492.84	479.81
493.01	421.30
493.19	404.91
493.37	437.68
493.54	433.00
493.72	402.57
493.90	451.72
494.08	304.27
494.25	430.66
494.43	379.17
494.61	383.85
494.79	388.53
494.96	411.93
495.14	379.17
495.32	421.30
495.49	407.25
495.67	383.85
495.85	468.11
496.02	355.76
496.20	369.80
496.38	416.62
496.55	458.74
496.73	500.87
496.91	423.64
497.09	440.02
497.26	411.93
497.44	489.17
497.62	435.34
497.79	400.23
497.97	451.72
498.14	482.15
498.32	397.89
498.50	451.72
498.67	376.83
498.85	423.64
499.03	407.25
499.20	440.02
499.38	433.00
499.56	447.04
499.73	381.51
499.91	390.87
500.08	454.06
500.26	414.27
500.44	409.59
500.61	411.93
500.79	428.32
500.97	454.06
501.14	449.38
501.32	393.21
501.49	372.15
501.67	386.19
501.84	383.85
502.02	355.76
502.20	416.62
502.37	386.19
502.55	311.29
502.72	374.49
502.90	437.68
503.07	435.34
503.25	449.38
503.43	402.57
503.60	409.59
503.78	313.63
503.95	325.33
504.13	372.15
504.30	470.45
504.48	433.00
504.65	418.96
504.83	447.04
505.01	428.32
505.18	395.55
505.36	463.43
505.53	409.59
505.71	449.38
505.88	400.23
506.06	409.59
506.23	461.09
506.41	435.34
506.58	341.72
506.76	421.30
506.93	428.32
507.11	435.34
507.28	402.57
507.46	456.40
507.63	449.38
507.81	458.74
507.98	416.62
508.16	381.51
508.33	383.85
508.50	386.19
508.68	423.64
508.85	381.51
509.03	388.53
509.20	407.25
509.38	468.11
509.55	372.15
509.73	437.68
509.90	407.25
510.08	463.43
510.25	435.34
510.42	414.27
510.60	442.36
510.77	470.45
510.95	440.02
511.12	456.40
511.30	430.66
511.47	374.49
511.64	470.45
511.82	456.40
511.99	402.57
512.17	442.36
512.34	430.66
512.51	418.96
512.69	416.62
512.86	404.91
513.04	458.74
513.21	411.93
513.38	360.44
513.56	414.27
513.73	407.25
513.90	379.17
514.08	362.78
514.25	454.06
514.43	425.98
514.60	421.30
514.77	454.06
514.95	414.27
515.12	355.76
515.29	430.66
515.47	433.00
515.64	390.87
515.81	381.51
515.99	442.36
516.16	407.25
516.33	409.59
516.51	463.43
516.68	411.93
516.85	428.32
517.03	433.00
517.20	440.02
517.37	458.74
517.54	486.83
517.72	456.40
517.89	365.12
518.06	383.85
518.24	430.66
518.41	484.49
518.58	437.68
518.75	409.59
518.93	407.25
519.10	430.66
519.27	386.19
519.45	482.15
519.62	395.55
519.79	390.87
519.96	416.62
520.14	423.64
520.31	484.49
520.48	393.21
520.65	390.87
520.83	404.91
521.00	425.98
521.17	369.80
521.34	390.87
521.52	423.64
521.69	411.93
521.86	505.56
522.03	505.56
522.20	472.79
522.38	379.17
522.55	390.87
522.72	418.96
522.89	533.64
523.07	489.17
523.24	390.87
523.41	468.11
523.58	301.93
523.75	421.30
523.92	451.72
524.10	475.13
524.27	365.12
524.44	470.45
524.61	428.32
524.78	404.91
524.96	470.45
525.13	475.13
525.30	386.19
525.47	379.17
525.64	449.38
525.81	440.02
525.98	395.55
526.16	351.08
526.33	395.55
526.50	465.77
526.67	409.59
526.84	369.80
527.01	437.68
527.18	435.34
527.36	367.46
527.53	383.85
527.70	428.32
527.87	379.17
528.04	449.38
528.21	351.08
528.38	440.02
528.55	449.38
528.72	390.87
528.89	458.74
529.07	337.04
529.24	482.15
529.41	402.57
529.58	390.87
529.75	425.98
529.92	435.34
530.09	437.68
530.26	409.59
530.43	421.30
530.60	367.46
530.77	407.25
530.94	468.11
531.11	430.66
531.28	400.23
531.46	430.66
531.63	428.32
531.80	404.91
531.97	383.85
532.14	440.02
532.31	351.08
532.48	433.00
532.65	409.59
532.82	433.00
532.99	463.43
533.16	393.21
533.33	444.70
533.50	449.38
533.67	395.55
533.84	393.21
534.01	416.62
534.18	447.04
534.35	381.51
534.52	386.19
534.69	390.87
534.86	337.04
535.03	390.87
535.20	435.34
535.37	411.93
535.54	425.98
535.71	430.66
535.88	404.91
536.05	472.79
536.22	418.96
536.38	367.46
536.55	402.57
536.72	500.87
536.89	388.53
537.06	428.32
537.23	416.62
537.40	423.64
537.57	411.93
537.74	407.25
537.91	418.96
538.08	360.44
538.25	475.13
538.42	409.59
538.59	468.11
538.75	411.93
538.92	465.77
539.09	341.72
539.26	456.40
539.43	425.98
539.60	414.27
539.77	388.53
539.94	458.74
540.11	423.64
540.28	416.62
540.44	379.17
540.61	423.64
540.78	379.17
540.95	449.38
541.12	428.32
541.29	423.64
541.46	409.59
541.62	397.89
541.79	353.42
541.96	379.17
542.13	388.53
542.30	388.53
542.47	440.02
542.63	421.30
542.80	458.74
542.97	489.17
543.14	383.85
543.31	428.32
543.48	360.44
543.64	386.19
543.81	416.62
543.98	428.32
544.15	423.64
544.32	440.02
544.48	423.64
544.65	435.34
544.82	379.17
544.99	449.38
545.16	430.66
545.32	393.21
545.49	386.19
545.66	376.83
545.83	358.10
546.00	461.09
546.16	449.38
546.33	447.04
546.50	428.32
546.67	369.80
546.83	444.70
547.00	358.10
547.17	437.68
547.34	344.06
547.50	397.89
547.67	388.53
547.84	346.40
548.00	454.06
548.17	411.93
548.34	376.83
548.51	454.06
548.67	397.89
548.84	381.51
549.01	475.13
549.18	400.23
549.34	440.02
549.51	386.19
549.68	397.89
549.84	430.66
550.01	409.59
550.18	484.49
550.34	447.04
550.51	351.08
550.68	447.04
550.84	379.17
551.01	414.27
551.18	507.90
551.34	447.04
551.51	365.12
551.68	472.79
551.84	456.40
552.01	437.68
552.18	416.62
552.34	477.47
552.51	510.24
552.68	374.49
552.84	447.04
553.01	458.74
553.18	447.04
553.34	437.68
553.51	409.59
553.67	470.45
553.84	433.00
554.01	409.59
554.17	463.43
554.34	400.23
554.51	411.93
554.67	461.09
554.84	367.46
555.00	442.36
555.17	447.04
555.33	386.19
555.50	395.55
555.67	440.02
555.83	409.59
556.00	435.34
556.16	559.39
556.33	433.00
556.50	379.17
556.66	425.98
556.83	383.85
556.99	379.17
557.16	458.74
557.32	376.83
557.49	414.27
557.65	433.00
557.82	449.38
557.98	386.19
558.15	376.83
558.32	376.83
558.48	407.25
558.65	411.93
558.81	433.00
558.98	463.43
559.14	376.83
559.31	484.49
559.47	414.27
559.64	461.09
559.80	390.87
559.97	369.80
560.13	362.78
560.30	397.89
560.46	458.74
560.63	407.25
560.79	437.68
560.96	433.00
561.12	414.27
561.29	447.04
561.45	486.83
561.61	442.36
561.78	449.38
561.94	386.19
562.11	383.85
562.27	395.55
562.44	393.21
562.60	376.83
562.77	367.46
562.93	456.40
563.10	433.00
563.26	447.04
563.42	458.74
563.59	404.91
563.75	409.59
563.92	421.30
564.08	456.40
564.24	458.74
564.41	507.90
564.57	388.53
564.74	437.68
564.90	400.23
565.07	458.74
565.23	470.45
565.39	433.00
565.56	395.55
565.72	456.40
565.88	514.92
566.05	451.72
566.21	393.21
566.38	395.55
566.54	433.00
566.70	390.87
566.87	369.80
567.03	447.04
567.19	475.13
567.36	421.30
567.52	374.49
567.68	491.51
567.85	425.98
568.01	421.30
568.17	388.53
568.34	470.45
568.50	409.59
568.66	456.40
568.83	482.15
568.99	379.17
569.15	461.09
569.32	484.49
569.48	447.04
569.64	327.68
569.81	367.46
569.97	477.47
570.13	416.62
570.30	388.53
570.46	395.55
570.62	444.70
570.78	418.96
570.95	449.38
571.11	491.51
571.27	489.17
571.43	393.21
571.60	440.02
571.76	388.53
571.92	414.27
572.09	400.23
572.25	346.40
572.41	477.47
572.57	435.34
572.74	463.43
572.90	482.15
573.06	533.64
573.22	404.91
573.38	526.62
573.55	411.93
573.71	416.62
573.87	416.62
574.03	442.36
574.20	430.66
574.36	388.53
574.52	430.66
574.68	451.72
574.84	388.53
575.01	404.91
575.17	423.64
575.33	381.51
575.49	463.43
575.65	423.64
575.82	414.27
575.98	407.25
576.14	388.53
576.30	344.06
576.46	454.06
576.62	358.10
576.79	477.47
576.95	409.59
577.11	447.04
577.27	433.00
577.43	430.66
577.59	386.19
577.75	456.40
577.92	423.64
578.08	407.25
578.24	418.96
578.40	421.30
578.56	430.66
578.72	421.30
578.88	411.93
579.04	400.23
579.21	409.59
579.37	376.83
579.53	397.89
579.69	402.57
579.85	383.85
580.01	390.87
580.17	386.19
580.33	355.76
580.49	365.12
580.65	395.55
580.82	447.04
580.98	442.36
581.14	388.53
581.30	379.17
581.46	404.91
581.62	425.98
581.78	437.68
581.94	454.06
582.10	404.91
582.26	442.36
582.42	404.91
582.58	421.30
582.74	337.04
582.90	381.51
583.06	449.38
583.22	411.93
583.38	421.30
583.54	409.59
583.70	486.83
583.86	489.17
584.02	393.21
584.18	400.23
584.34	358.10
584.50	393.21
584.66	456.40
584.82	390.87
584.98	437.68
585.14	348.74
585.30	472.79
585.46	397.89
585.62	430.66
585.78	414.27
585.94	430.66
586.10	358.10
586.26	414.27
586.42	407.25
586.58	458.74
586.74	390.87
586.90	430.66
587.06	395.55
587.22	463.43
587.38	397.89
587.54	388.53
587.70	447.04
587.86	411.93
588.02	414.27
588.18	447.04
588.34	339.38
588.49	425.98
588.65	458.74
588.81	475.13
588.97	447.04
589.13	423.64
589.29	465.77
589.45	500.87
589.61	414.27
589.77	423.64
589.93	348.74
590.08	388.53
590.24	372.15
590.40	437.68
590.56	444.70
590.72	447.04
590.88	383.85
591.04	444.70
591.20	369.80
591.35	421.30
591.51	430.66
591.67	306.61
591.83	421.30
591.99	411.93
592.15	433.00
592.31	514.92
592.46	442.36
592.62	299.59
592.78	400.23
592.94	365.12
593.10	344.06
593.26	369.80
593.41	468.11
593.57	437.68
593.73	376.83
593.89	404.91
594.05	437.68
594.20	428.32
594.36	465.77
594.52	463.43
594.68	402.57
594.84	395.55
594.99	369.80
595.15	468.11
595.31	449.38
595.47	430.66
595.62	355.76
595.78	458.74
595.94	362.78
596.10	465.77
596.25	454.06
596.41	409.59
596.57	433.00
596.73	451.72
596.88	461.09
597.04	425.98
597.20	358.10
597.36	402.57
597.51	423.64
597.67	367.46
597.83	362.78
597.99	379.17
598.14	482.15
598.30	423.64
598.46	369.80
598.61	381.51
598.77	416.62
598.93	430.66
599.09	402.57
599.24	489.17
599.40	475.13
599.56	397.89
599.71	376.83
599.87	379.17
600.03	379.17
600.18	407.25
600.34	454.06
600.50	418.96
600.65	418.96
600.81	454.06
600.97	465.77
601.12	393.21
601.28	428.32
601.44	447.04
601.59	433.00
601.75	425.98
601.91	430.66
602.06	433.00
602.22	486.83
602.37	409.59
602.53	388.53
602.69	461.09
602.84	386.19
603.00	383.85
603.16	430.66
603.31	437.68
603.47	376.83
603.62	367.46
603.78	397.89
603.94	407.25
604.09	416.62
604.25	407.25
604.40	433.00
604.56	374.49
604.71	456.40
604.87	463.43
605.03	454.06
605.18	381.51
605.34	472.79
605.49	447.04
605.65	472.79
605.80	388.53
605.96	395.55
606.12	435.34
606.27	388.53
606.43	468.11
606.58	414.27
606.74	428.32
606.89	491.51
607.05	437.68
607.20	416.62
607.36	332.36
607.51	407.25
607.67	416.62
607.82	358.10
607.98	437.68
608.13	372.15
608.29	423.64
608.44	416.62
608.60	381.51
608.75	435.34
608.91	390.87
609.06	388.53
609.22	397.89
609.37	386.19
609.53	435.34
609.68	418.96
609.84	475.13
609.99	337.04
610.15	454.06
