SpectraSuite Data File
++++++++++++++++++++++++++++++++++++
Date: Fri Oct 25 12:10:10 EDT 2013
User: price-jones
Dark Spectrum Present: No
Reference Spectrum Present: No
Number of Sampled Component Spectra: 1
Spectrometers: USB2+H05261
Integration Time (usec): 100000 (USB2+H05261)
Spectra Averaged: 1 (USB2+H05261)
Boxcar Smoothing: 0 (USB2+H05261)
Correct for Electrical Dark: No (USB2+H05261)
Strobe/Lamp Enabled: No (USB2+H05261)
Correct for Detector Non-linearity: No (USB2+H05261)
Correct for Stray Light: No (USB2+H05261)
Number of Pixels in Processed Spectrum: 2048
>>>>>Begin Processed Spectral Data<<<<<
365.73	304.27
365.92	304.27
366.12	304.27
366.32	271.50
366.52	236.39
366.72	271.50
366.91	245.76
367.11	177.88
367.31	257.46
367.51	191.92
367.70	241.08
367.90	203.63
368.10	245.76
368.30	231.71
368.49	224.69
368.69	231.71
368.89	292.57
369.09	278.52
369.28	257.46
369.48	217.67
369.68	264.48
369.87	290.23
370.07	283.20
370.27	292.57
370.47	311.29
370.66	285.55
370.86	353.42
371.06	362.78
371.25	332.36
371.45	320.65
371.65	397.89
371.84	388.53
372.04	369.80
372.24	442.36
372.44	407.25
372.63	437.68
372.83	425.98
373.03	322.99
373.22	484.49
373.42	425.98
373.62	472.79
373.81	447.04
374.01	421.30
374.21	449.38
374.40	400.23
374.60	390.87
374.79	458.74
374.99	402.57
375.19	402.57
375.38	430.66
375.58	400.23
375.78	404.91
375.97	444.70
376.17	458.74
376.37	407.25
376.56	440.02
376.76	407.25
376.95	425.98
377.15	442.36
377.35	374.49
377.54	479.81
377.74	367.46
377.93	416.62
378.13	360.44
378.33	355.76
378.52	433.00
378.72	444.70
378.91	390.87
379.11	355.76
379.31	369.80
379.50	472.79
379.70	524.28
379.89	379.17
380.09	475.13
380.28	475.13
380.48	428.32
380.68	397.89
380.87	386.19
381.07	447.04
381.26	449.38
381.46	315.97
381.65	407.25
381.85	402.57
382.04	376.83
382.24	423.64
382.43	374.49
382.63	423.64
382.83	447.04
383.02	393.21
383.22	374.49
383.41	379.17
383.61	409.59
383.80	440.02
384.00	351.08
384.19	381.51
384.39	421.30
384.58	425.98
384.78	365.12
384.97	381.51
385.17	395.55
385.36	397.89
385.56	430.66
385.75	374.49
385.95	372.15
386.14	411.93
386.34	390.87
386.53	395.55
386.72	418.96
386.92	435.34
387.11	489.17
387.31	414.27
387.50	367.46
387.70	458.74
387.89	416.62
388.09	440.02
388.28	418.96
388.48	374.49
388.67	465.77
388.86	463.43
389.06	383.85
389.25	451.72
389.45	367.46
389.64	409.59
389.84	423.64
390.03	411.93
390.22	351.08
390.42	353.42
390.61	348.74
390.81	397.89
391.00	379.17
391.19	400.23
391.39	451.72
391.58	276.18
391.78	430.66
391.97	388.53
392.16	397.89
392.36	430.66
392.55	461.09
392.75	365.12
392.94	374.49
393.13	379.17
393.33	365.12
393.52	393.21
393.71	390.87
393.91	320.65
394.10	428.32
394.29	299.59
394.49	404.91
394.68	449.38
394.88	390.87
395.07	440.02
395.26	411.93
395.46	409.59
395.65	428.32
395.84	393.21
396.04	360.44
396.23	435.34
396.42	362.78
396.62	376.83
396.81	470.45
397.00	383.85
397.19	449.38
397.39	346.40
397.58	437.68
397.77	404.91
397.97	423.64
398.16	425.98
398.35	400.23
398.55	404.91
398.74	388.53
398.93	388.53
399.12	376.83
399.32	407.25
399.51	411.93
399.70	447.04
399.90	360.44
400.09	458.74
400.28	397.89
400.47	386.19
400.67	372.15
400.86	402.57
401.05	397.89
401.24	430.66
401.44	390.87
401.63	437.68
401.82	440.02
402.01	425.98
402.21	435.34
402.40	346.40
402.59	346.40
402.78	444.70
402.97	400.23
403.17	381.51
403.36	397.89
403.55	458.74
403.74	433.00
403.93	379.17
404.13	397.89
404.32	416.62
404.51	442.36
404.70	458.74
404.89	400.23
405.09	402.57
405.28	369.80
405.47	407.25
405.66	454.06
405.85	482.15
406.05	411.93
406.24	381.51
406.43	404.91
406.62	416.62
406.81	519.60
407.00	425.98
407.20	414.27
407.39	414.27
407.58	390.87
407.77	388.53
407.96	388.53
408.15	458.74
408.34	386.19
408.54	376.83
408.73	416.62
408.92	411.93
409.11	402.57
409.30	348.74
409.49	402.57
409.68	374.49
409.87	402.57
410.07	418.96
410.26	360.44
410.45	442.36
410.64	386.19
410.83	507.90
411.02	393.21
411.21	395.55
411.40	395.55
411.59	395.55
411.78	376.83
411.98	390.87
412.17	390.87
412.36	454.06
412.55	400.23
412.74	402.57
412.93	400.23
413.12	390.87
413.31	383.85
413.50	402.57
413.69	369.80
413.88	421.30
414.07	421.30
414.26	433.00
414.45	503.22
414.64	477.47
414.83	402.57
415.02	383.85
415.22	437.68
415.41	461.09
415.60	416.62
415.79	416.62
415.98	451.72
416.17	348.74
416.36	444.70
416.55	360.44
416.74	477.47
416.93	390.87
417.12	444.70
417.31	397.89
417.50	358.10
417.69	472.79
417.88	379.17
418.07	461.09
418.26	374.49
418.45	376.83
418.64	433.00
418.83	395.55
419.02	404.91
419.21	428.32
419.39	435.34
419.58	414.27
419.77	486.83
419.96	416.62
420.15	425.98
420.34	444.70
420.53	376.83
420.72	383.85
420.91	381.51
421.10	416.62
421.29	393.21
421.48	423.64
421.67	425.98
421.86	369.80
422.05	407.25
422.24	383.85
422.43	341.72
422.61	397.89
422.80	402.57
422.99	379.17
423.18	423.64
423.37	430.66
423.56	465.77
423.75	383.85
423.94	355.76
424.13	447.04
424.32	400.23
424.50	376.83
424.69	402.57
424.88	468.11
425.07	430.66
425.26	463.43
425.45	458.74
425.64	360.44
425.83	386.19
426.01	402.57
426.20	360.44
426.39	388.53
426.58	500.87
426.77	355.76
426.96	418.96
427.15	402.57
427.33	393.21
427.52	416.62
427.71	444.70
427.90	430.66
428.09	456.40
428.28	315.97
428.46	369.80
428.65	386.19
428.84	365.12
429.03	479.81
429.22	390.87
429.40	404.91
429.59	435.34
429.78	376.83
429.97	395.55
430.16	360.44
430.34	428.32
430.53	437.68
430.72	376.83
430.91	456.40
431.10	447.04
431.28	353.42
431.47	386.19
431.66	454.06
431.85	367.46
432.03	353.42
432.22	407.25
432.41	393.21
432.60	430.66
432.79	365.12
432.97	409.59
433.16	414.27
433.35	402.57
433.54	428.32
433.72	482.15
433.91	456.40
434.10	395.55
434.28	447.04
434.47	425.98
434.66	451.72
434.85	407.25
435.03	411.93
435.22	400.23
435.41	407.25
435.59	383.85
435.78	423.64
435.97	472.79
436.16	449.38
436.34	402.57
436.53	402.57
436.72	447.04
436.90	447.04
437.09	458.74
437.28	430.66
437.46	355.76
437.65	407.25
437.84	442.36
438.02	332.36
438.21	451.72
438.40	475.13
438.58	372.15
438.77	355.76
438.96	362.78
439.14	423.64
439.33	409.59
439.52	456.40
439.70	346.40
439.89	449.38
440.08	458.74
440.26	423.64
440.45	395.55
440.63	437.68
440.82	435.34
441.01	407.25
441.19	327.68
441.38	327.68
441.57	442.36
441.75	428.32
441.94	514.92
442.12	423.64
442.31	379.17
442.50	379.17
442.68	435.34
442.87	440.02
443.05	411.93
443.24	374.49
443.43	416.62
443.61	414.27
443.80	353.42
443.98	372.15
444.17	372.15
444.35	397.89
444.54	388.53
444.73	428.32
444.91	486.83
445.10	353.42
445.28	421.30
445.47	416.62
445.65	351.08
445.84	409.59
446.02	444.70
446.21	418.96
446.39	388.53
446.58	440.02
446.77	362.78
446.95	381.51
447.14	437.68
447.32	475.13
447.51	416.62
447.69	447.04
447.88	454.06
448.06	425.98
448.25	449.38
448.43	395.55
448.62	386.19
448.80	381.51
448.99	425.98
449.17	507.90
449.36	407.25
449.54	411.93
449.73	500.87
449.91	444.70
450.10	374.49
450.28	416.62
450.46	402.57
450.65	409.59
450.83	437.68
451.02	416.62
451.20	428.32
451.39	358.10
451.57	388.53
451.76	414.27
451.94	386.19
452.13	430.66
452.31	475.13
452.49	404.91
452.68	397.89
452.86	381.51
453.05	423.64
453.23	376.83
453.42	358.10
453.60	402.57
453.78	435.34
453.97	428.32
454.15	411.93
454.34	397.89
454.52	369.80
454.70	411.93
454.89	402.57
455.07	374.49
455.26	383.85
455.44	383.85
455.62	395.55
455.81	418.96
455.99	351.08
456.17	465.77
456.36	383.85
456.54	320.65
456.73	390.87
456.91	362.78
457.09	444.70
457.28	344.06
457.46	395.55
457.64	437.68
457.83	430.66
458.01	383.85
458.19	447.04
458.38	440.02
458.56	440.02
458.74	397.89
458.93	369.80
459.11	397.89
459.29	390.87
459.48	430.66
459.66	402.57
459.84	510.24
460.03	489.17
460.21	421.30
460.39	402.57
460.57	374.49
460.76	388.53
460.94	425.98
461.12	461.09
461.31	418.96
461.49	451.72
461.67	428.32
461.85	407.25
462.04	409.59
462.22	758.33
462.40	383.85
462.59	425.98
462.77	423.64
462.95	470.45
463.13	369.80
463.32	421.30
463.50	430.66
463.68	486.83
463.86	393.21
464.05	442.36
464.23	409.59
464.41	463.43
464.59	372.15
464.78	414.27
464.96	418.96
465.14	395.55
465.32	400.23
465.50	507.90
465.69	465.77
465.87	376.83
466.05	435.34
466.23	404.91
466.41	454.06
466.60	430.66
466.78	397.89
466.96	437.68
467.14	395.55
467.32	395.55
467.51	463.43
467.69	468.11
467.87	393.21
468.05	411.93
468.23	400.23
468.41	409.59
468.60	404.91
468.78	411.93
468.96	397.89
469.14	404.91
469.32	374.49
469.50	421.30
469.69	388.53
469.87	390.87
470.05	463.43
470.23	440.02
470.41	435.34
470.59	395.55
470.77	437.68
470.95	425.98
471.14	381.51
471.32	404.91
471.50	376.83
471.68	435.34
471.86	425.98
472.04	421.30
472.22	437.68
472.40	435.34
472.58	358.10
472.77	390.87
472.95	414.27
473.13	437.68
473.31	400.23
473.49	430.66
473.67	400.23
473.85	381.51
474.03	458.74
474.21	386.19
474.39	421.30
474.57	500.87
474.75	369.80
474.93	451.72
475.12	383.85
475.30	358.10
475.48	355.76
475.66	423.64
475.84	339.38
476.02	383.85
476.20	372.15
476.38	411.93
476.56	475.13
476.74	400.23
476.92	409.59
477.10	435.34
477.28	440.02
477.46	367.46
477.64	440.02
477.82	390.87
478.00	454.06
478.18	386.19
478.36	451.72
478.54	297.25
478.72	337.04
478.90	390.87
479.08	456.40
479.26	402.57
479.44	346.40
479.62	344.06
479.80	355.76
479.98	393.21
480.16	428.32
480.34	454.06
480.52	407.25
480.70	404.91
480.88	397.89
481.06	416.62
481.24	423.64
481.41	409.59
481.59	470.45
481.77	390.87
481.95	423.64
482.13	489.17
482.31	437.68
482.49	402.57
482.67	442.36
482.85	390.87
483.03	411.93
483.21	341.72
483.39	400.23
483.57	444.70
483.74	358.10
483.92	348.74
484.10	447.04
484.28	395.55
484.46	491.51
484.64	402.57
484.82	337.04
485.00	411.93
485.18	388.53
485.35	374.49
485.53	344.06
485.71	489.17
485.89	395.55
486.07	437.68
486.25	491.51
486.43	447.04
486.61	400.23
486.78	425.98
486.96	388.53
487.14	418.96
487.32	451.72
487.50	465.77
487.68	418.96
487.85	400.23
488.03	372.15
488.21	397.89
488.39	360.44
488.57	409.59
488.75	315.97
488.92	557.05
489.10	386.19
489.28	463.43
489.46	404.91
489.64	454.06
489.81	479.81
489.99	393.21
490.17	423.64
490.35	402.57
490.53	397.89
490.70	395.55
490.88	489.17
491.06	365.12
491.24	433.00
491.41	358.10
491.59	393.21
491.77	365.12
491.95	468.11
492.13	421.30
492.30	409.59
492.48	381.51
492.66	489.17
492.84	418.96
493.01	456.40
493.19	418.96
493.37	486.83
493.54	433.00
493.72	402.57
493.90	433.00
494.08	421.30
494.25	411.93
494.43	397.89
494.61	383.85
494.79	334.70
494.96	416.62
495.14	386.19
495.32	367.46
495.49	430.66
495.67	442.36
495.85	444.70
496.02	435.34
496.20	374.49
496.38	425.98
496.55	393.21
496.73	418.96
496.91	437.68
497.09	376.83
497.26	482.15
497.44	353.42
497.62	421.30
497.79	411.93
497.97	402.57
498.14	491.51
498.32	409.59
498.50	400.23
498.67	355.76
498.85	351.08
499.03	407.25
499.20	379.17
499.38	374.49
499.56	470.45
499.73	451.72
499.91	388.53
500.08	500.87
500.26	301.93
500.44	362.78
500.61	414.27
500.79	421.30
500.97	451.72
501.14	442.36
501.32	390.87
501.49	449.38
501.67	395.55
501.84	376.83
502.02	367.46
502.20	465.77
502.37	409.59
502.55	393.21
502.72	404.91
502.90	433.00
503.07	418.96
503.25	395.55
503.43	461.09
503.60	447.04
503.78	428.32
503.95	397.89
504.13	353.42
504.30	402.57
504.48	369.80
504.65	381.51
504.83	400.23
505.01	393.21
505.18	449.38
505.36	433.00
505.53	421.30
505.71	376.83
505.88	444.70
506.06	404.91
506.23	421.30
506.41	365.12
506.58	411.93
506.76	367.46
506.93	379.17
507.11	411.93
507.28	433.00
507.46	400.23
507.63	451.72
507.81	444.70
507.98	381.51
508.16	397.89
508.33	416.62
508.50	416.62
508.68	395.55
508.85	369.80
509.03	486.83
509.20	393.21
509.38	409.59
509.55	428.32
509.73	423.64
509.90	421.30
510.08	458.74
510.25	461.09
510.42	353.42
510.60	393.21
510.77	430.66
510.95	437.68
511.12	383.85
511.30	358.10
511.47	449.38
511.64	475.13
511.82	379.17
511.99	454.06
512.17	433.00
512.34	297.25
512.51	374.49
512.69	414.27
512.86	442.36
513.04	402.57
513.21	423.64
513.38	451.72
513.56	454.06
513.73	386.19
513.90	355.76
514.08	376.83
514.25	334.70
514.43	461.09
514.60	463.43
514.77	379.17
514.95	339.38
515.12	407.25
515.29	414.27
515.47	407.25
515.64	458.74
515.81	421.30
515.99	454.06
516.16	418.96
516.33	451.72
516.51	395.55
516.68	400.23
516.85	435.34
517.03	421.30
517.20	454.06
517.37	442.36
517.54	423.64
517.72	451.72
517.89	372.15
518.06	418.96
518.24	451.72
518.41	454.06
518.58	463.43
518.75	414.27
518.93	374.49
519.10	404.91
519.27	374.49
519.45	393.21
519.62	425.98
519.79	444.70
519.96	393.21
520.14	449.38
520.31	444.70
520.48	411.93
520.65	414.27
520.83	433.00
521.00	393.21
521.17	365.12
521.34	362.78
521.52	379.17
521.69	416.62
521.86	440.02
522.03	414.27
522.20	475.13
522.38	418.96
522.55	411.93
522.72	425.98
522.89	407.25
523.07	367.46
523.24	308.95
523.41	379.17
523.58	468.11
523.75	355.76
523.92	423.64
524.10	344.06
524.27	327.68
524.44	404.91
524.61	440.02
524.78	404.91
524.96	402.57
525.13	458.74
525.30	416.62
525.47	435.34
525.64	407.25
525.81	486.83
525.98	435.34
526.16	454.06
526.33	421.30
526.50	414.27
526.67	447.04
526.84	374.49
527.01	341.72
527.18	458.74
527.36	379.17
527.53	404.91
527.70	449.38
527.87	437.68
528.04	442.36
528.21	423.64
528.38	472.79
528.55	416.62
528.72	484.49
528.89	447.04
529.07	428.32
529.24	381.51
529.41	437.68
529.58	449.38
529.75	404.91
529.92	437.68
530.09	458.74
530.26	491.51
530.43	381.51
530.60	447.04
530.77	397.89
530.94	500.87
531.11	470.45
531.28	393.21
531.46	367.46
531.63	425.98
531.80	416.62
531.97	440.02
532.14	416.62
532.31	491.51
532.48	402.57
532.65	470.45
532.82	395.55
532.99	454.06
533.16	339.38
533.33	388.53
533.50	447.04
533.67	390.87
533.84	390.87
534.01	430.66
534.18	428.32
534.35	355.76
534.52	407.25
534.69	465.77
534.86	500.87
535.03	449.38
535.20	449.38
535.37	507.90
535.54	393.21
535.71	503.22
535.88	472.79
536.05	400.23
536.22	479.81
536.38	425.98
536.55	440.02
536.72	425.98
536.89	416.62
537.06	444.70
537.23	416.62
537.40	425.98
537.57	362.78
537.74	461.09
537.91	346.40
538.08	397.89
538.25	393.21
538.42	456.40
538.59	390.87
538.75	442.36
538.92	456.40
539.09	402.57
539.26	390.87
539.43	440.02
539.60	423.64
539.77	433.00
539.94	409.59
540.11	437.68
540.28	411.93
540.44	493.85
540.61	400.23
540.78	437.68
540.95	348.74
541.12	465.77
541.29	407.25
541.46	500.87
541.62	463.43
541.79	454.06
541.96	351.08
542.13	461.09
542.30	416.62
542.47	376.83
542.63	341.72
542.80	463.43
542.97	414.27
543.14	447.04
543.31	461.09
543.48	388.53
543.64	374.49
543.81	404.91
543.98	402.57
544.15	379.17
544.32	414.27
544.48	411.93
544.65	383.85
544.82	376.83
544.99	430.66
545.16	454.06
545.32	372.15
545.49	435.34
545.66	407.25
545.83	369.80
546.00	334.70
546.16	411.93
546.33	369.80
546.50	423.64
546.67	433.00
546.83	430.66
547.00	454.06
547.17	360.44
547.34	379.17
547.50	461.09
547.67	454.06
547.84	416.62
548.00	404.91
548.17	388.53
548.34	351.08
548.51	358.10
548.67	461.09
548.84	418.96
549.01	477.47
549.18	397.89
549.34	435.34
549.51	454.06
549.68	369.80
549.84	458.74
550.01	458.74
550.18	463.43
550.34	486.83
550.51	451.72
550.68	437.68
550.84	430.66
551.01	510.24
551.18	437.68
551.34	449.38
551.51	447.04
551.68	421.30
551.84	407.25
552.01	435.34
552.18	402.57
552.34	409.59
552.51	404.91
552.68	433.00
552.84	461.09
553.01	383.85
553.18	430.66
553.34	461.09
553.51	390.87
553.67	418.96
553.84	472.79
554.01	500.87
554.17	440.02
554.34	447.04
554.51	461.09
554.67	454.06
554.84	411.93
555.00	372.15
555.17	409.59
555.33	433.00
555.50	416.62
555.67	435.34
555.83	327.68
556.00	442.36
556.16	514.92
556.33	402.57
556.50	379.17
556.66	416.62
556.83	421.30
556.99	353.42
557.16	423.64
557.32	414.27
557.49	428.32
557.65	414.27
557.82	418.96
557.98	416.62
558.15	411.93
558.32	472.79
558.48	423.64
558.65	379.17
558.81	388.53
558.98	372.15
559.14	458.74
559.31	472.79
559.47	379.17
559.64	465.77
559.80	386.19
559.97	376.83
560.13	397.89
560.30	407.25
560.46	355.76
560.63	395.55
560.79	428.32
560.96	397.89
561.12	486.83
561.29	402.57
561.45	362.78
561.61	475.13
561.78	430.66
561.94	379.17
562.11	411.93
562.27	440.02
562.44	425.98
562.60	407.25
562.77	449.38
562.93	454.06
563.10	454.06
563.26	416.62
563.42	458.74
563.59	355.76
563.75	348.74
563.92	393.21
564.08	451.72
564.24	418.96
564.41	444.70
564.57	390.87
564.74	414.27
564.90	367.46
565.07	353.42
565.23	437.68
565.39	395.55
565.56	400.23
565.72	425.98
565.88	477.47
566.05	421.30
566.21	407.25
566.38	444.70
566.54	437.68
566.70	355.76
566.87	351.08
567.03	463.43
567.19	383.85
567.36	372.15
567.52	451.72
567.68	465.77
567.85	404.91
568.01	390.87
568.17	416.62
568.34	449.38
568.50	442.36
568.66	512.58
568.83	486.83
568.99	383.85
569.15	435.34
569.32	414.27
569.48	454.06
569.64	360.44
569.81	421.30
569.97	430.66
570.13	400.23
570.30	437.68
570.46	381.51
570.62	381.51
570.78	440.02
570.95	430.66
571.11	435.34
571.27	475.13
571.43	425.98
571.60	456.40
571.76	402.57
571.92	468.11
572.09	423.64
572.25	414.27
572.41	430.66
572.57	428.32
572.74	470.45
572.90	404.91
573.06	369.80
573.22	442.36
573.38	433.00
573.55	449.38
573.71	418.96
573.87	383.85
574.03	440.02
574.20	339.38
574.36	430.66
574.52	325.33
574.68	320.65
574.84	365.12
575.01	451.72
575.17	526.62
575.33	414.27
575.49	395.55
575.65	447.04
575.82	479.81
575.98	416.62
576.14	442.36
576.30	442.36
576.46	376.83
576.62	472.79
576.79	365.12
576.95	461.09
577.11	318.31
577.27	372.15
577.43	409.59
577.59	416.62
577.75	500.87
577.92	416.62
578.08	433.00
578.24	411.93
578.40	496.19
578.56	461.09
578.72	428.32
578.88	437.68
579.04	489.17
579.21	418.96
579.37	292.57
579.53	358.10
579.69	458.74
579.85	433.00
580.01	411.93
580.17	402.57
580.33	397.89
580.49	444.70
580.65	386.19
580.82	449.38
580.98	418.96
581.14	425.98
581.30	468.11
581.46	430.66
581.62	402.57
581.78	381.51
581.94	404.91
582.10	365.12
582.26	407.25
582.42	421.30
582.58	400.23
582.74	416.62
582.90	353.42
583.06	390.87
583.22	421.30
583.38	470.45
583.54	400.23
583.70	407.25
583.86	374.49
584.02	346.40
584.18	433.00
584.34	423.64
584.50	367.46
584.66	418.96
584.82	447.04
584.98	397.89
585.14	440.02
585.30	416.62
585.46	397.89
585.62	400.23
585.78	369.80
585.94	416.62
586.10	393.21
586.26	465.77
586.42	447.04
586.58	451.72
586.74	428.32
586.90	449.38
587.06	404.91
587.22	442.36
587.38	400.23
587.54	409.59
587.70	468.11
587.86	458.74
588.02	397.89
588.18	423.64
588.34	400.23
588.49	440.02
588.65	425.98
588.81	456.40
588.97	374.49
589.13	451.72
589.29	402.57
589.45	423.64
589.61	390.87
589.77	468.11
589.93	379.17
590.08	400.23
590.24	437.68
590.40	454.06
590.56	449.38
590.72	437.68
590.88	388.53
591.04	395.55
591.20	407.25
591.35	470.45
591.51	430.66
591.67	383.85
591.83	479.81
591.99	442.36
592.15	489.17
592.31	458.74
592.46	479.81
592.62	510.24
592.78	421.30
592.94	475.13
593.10	388.53
593.26	449.38
593.41	407.25
593.57	393.21
593.73	404.91
593.89	461.09
594.05	416.62
594.20	416.62
594.36	409.59
594.52	369.80
594.68	437.68
594.84	468.11
594.99	472.79
595.15	414.27
595.31	369.80
595.47	425.98
595.62	390.87
595.78	407.25
595.94	444.70
596.10	458.74
596.25	498.53
596.41	433.00
596.57	435.34
596.73	369.80
596.88	493.85
597.04	416.62
597.20	402.57
597.36	477.47
597.51	393.21
597.67	451.72
597.83	442.36
597.99	449.38
598.14	440.02
598.30	465.77
598.46	425.98
598.61	379.17
598.77	440.02
598.93	519.60
599.09	400.23
599.24	386.19
599.40	400.23
599.56	416.62
599.71	423.64
599.87	404.91
600.03	400.23
600.18	393.21
600.34	458.74
600.50	451.72
600.65	435.34
600.81	498.53
600.97	407.25
601.12	428.32
601.28	425.98
601.44	430.66
601.59	397.89
601.75	379.17
601.91	407.25
602.06	421.30
602.22	461.09
602.37	425.98
602.53	388.53
602.69	362.78
602.84	430.66
603.00	484.49
603.16	397.89
603.31	503.22
603.47	430.66
603.62	369.80
603.78	383.85
603.94	372.15
604.09	472.79
604.25	414.27
604.40	395.55
604.56	397.89
604.71	463.43
604.87	468.11
605.03	428.32
605.18	379.17
605.34	449.38
605.49	437.68
605.65	379.17
605.80	376.83
605.96	386.19
606.12	372.15
606.27	395.55
606.43	404.91
606.58	472.79
606.74	409.59
606.89	456.40
607.05	470.45
607.20	376.83
607.36	416.62
607.51	423.64
607.67	346.40
607.82	372.15
607.98	433.00
608.13	393.21
608.29	388.53
608.44	461.09
608.60	386.19
608.75	437.68
608.91	430.66
609.06	423.64
609.22	367.46
609.37	402.57
609.53	372.15
609.68	355.76
609.84	348.74
609.99	369.80
610.15	425.98
