SpectraSuite Data File
++++++++++++++++++++++++++++++++++++
Date: Fri Oct 25 12:11:11 EDT 2013
User: price-jones
Dark Spectrum Present: No
Reference Spectrum Present: No
Number of Sampled Component Spectra: 1
Spectrometers: USB2+H05261
Integration Time (usec): 100000 (USB2+H05261)
Spectra Averaged: 1 (USB2+H05261)
Boxcar Smoothing: 0 (USB2+H05261)
Correct for Electrical Dark: No (USB2+H05261)
Strobe/Lamp Enabled: No (USB2+H05261)
Correct for Detector Non-linearity: No (USB2+H05261)
Correct for Stray Light: No (USB2+H05261)
Number of Pixels in Processed Spectrum: 2048
>>>>>Begin Processed Spectral Data<<<<<
365.73	379.17
365.92	379.17
366.12	379.17
366.32	311.29
366.52	184.90
366.72	262.14
366.91	278.52
367.11	234.05
367.31	229.37
367.51	280.86
367.70	248.10
367.90	294.91
368.10	259.80
368.30	234.05
368.49	224.69
368.69	238.73
368.89	245.76
369.09	262.14
369.28	278.52
369.48	243.42
369.68	306.61
369.87	273.84
370.07	311.29
370.27	390.87
370.47	311.29
370.66	273.84
370.86	341.72
371.06	376.83
371.25	358.10
371.45	332.36
371.65	416.62
371.84	388.53
372.04	365.12
372.24	372.15
372.44	369.80
372.63	423.64
372.83	393.21
373.03	444.70
373.22	381.51
373.42	362.78
373.62	416.62
373.81	468.11
374.01	465.77
374.21	428.32
374.40	447.04
374.60	496.19
374.79	397.89
374.99	390.87
375.19	362.78
375.38	444.70
375.58	454.06
375.78	461.09
375.97	486.83
376.17	425.98
376.37	395.55
376.56	402.57
376.76	472.79
376.95	456.40
377.15	456.40
377.35	393.21
377.54	416.62
377.74	351.08
377.93	407.25
378.13	449.38
378.33	355.76
378.52	442.36
378.72	423.64
378.91	393.21
379.11	454.06
379.31	407.25
379.50	362.78
379.70	379.17
379.89	393.21
380.09	468.11
380.28	365.12
380.48	416.62
380.68	425.98
380.87	369.80
381.07	430.66
381.26	423.64
381.46	339.38
381.65	475.13
381.85	381.51
382.04	388.53
382.24	425.98
382.43	395.55
382.63	386.19
382.83	346.40
383.02	430.66
383.22	463.43
383.41	339.38
383.61	348.74
383.80	449.38
384.00	395.55
384.19	306.61
384.39	444.70
384.58	390.87
384.78	414.27
384.97	337.04
385.17	409.59
385.36	362.78
385.56	383.85
385.75	414.27
385.95	400.23
386.14	461.09
386.34	428.32
386.53	372.15
386.72	397.89
386.92	461.09
387.11	440.02
387.31	386.19
387.50	425.98
387.70	423.64
387.89	409.59
388.09	294.91
388.28	386.19
388.48	430.66
388.67	421.30
388.86	409.59
389.06	397.89
389.25	393.21
389.45	409.59
389.64	407.25
389.84	386.19
390.03	411.93
390.22	393.21
390.42	362.78
390.61	400.23
390.81	374.49
391.00	388.53
391.19	437.68
391.39	486.83
391.58	435.34
391.78	407.25
391.97	444.70
392.16	379.17
392.36	381.51
392.55	430.66
392.75	430.66
392.94	402.57
393.13	451.72
393.33	362.78
393.52	337.04
393.71	451.72
393.91	418.96
394.10	430.66
394.29	395.55
394.49	400.23
394.68	358.10
394.88	456.40
395.07	428.32
395.26	421.30
395.46	458.74
395.65	409.59
395.84	390.87
396.04	486.83
396.23	433.00
396.42	344.06
396.62	362.78
396.81	379.17
397.00	430.66
397.19	393.21
397.39	451.72
397.58	430.66
397.77	428.32
397.97	388.53
398.16	393.21
398.35	355.76
398.55	397.89
398.74	341.72
398.93	472.79
399.12	372.15
399.32	393.21
399.51	444.70
399.70	451.72
399.90	397.89
400.09	390.87
400.28	430.66
400.47	374.49
400.67	421.30
400.86	351.08
401.05	407.25
401.24	393.21
401.44	451.72
401.63	358.10
401.82	381.51
402.01	367.46
402.21	472.79
402.40	435.34
402.59	386.19
402.78	376.83
402.97	395.55
403.17	397.89
403.36	414.27
403.55	397.89
403.74	433.00
403.93	425.98
404.13	440.02
404.32	322.99
404.51	362.78
404.70	397.89
404.89	407.25
405.09	421.30
405.28	358.10
405.47	327.68
405.66	416.62
405.85	477.47
406.05	348.74
406.24	332.36
406.43	468.11
406.62	435.34
406.81	411.93
407.00	365.12
407.20	404.91
407.39	411.93
407.58	402.57
407.77	362.78
407.96	411.93
408.15	423.64
408.34	449.38
408.54	407.25
408.73	395.55
408.92	365.12
409.11	400.23
409.30	397.89
409.49	346.40
409.68	390.87
409.87	402.57
410.07	400.23
410.26	470.45
410.45	430.66
410.64	437.68
410.83	472.79
411.02	365.12
411.21	416.62
411.40	430.66
411.59	411.93
411.78	407.25
411.98	416.62
412.17	344.06
412.36	374.49
412.55	442.36
412.74	409.59
412.93	454.06
413.12	383.85
413.31	435.34
413.50	449.38
413.69	449.38
413.88	437.68
414.07	362.78
414.26	395.55
414.45	381.51
414.64	484.49
414.83	440.02
415.02	447.04
415.22	397.89
415.41	386.19
415.60	433.00
415.79	365.12
415.98	433.00
416.17	395.55
416.36	369.80
416.55	454.06
416.74	416.62
416.93	465.77
417.12	332.36
417.31	433.00
417.50	379.17
417.69	383.85
417.88	428.32
418.07	411.93
418.26	388.53
418.45	489.17
418.64	355.76
418.83	442.36
419.02	397.89
419.21	355.76
419.39	383.85
419.58	386.19
419.77	393.21
419.96	514.92
420.15	400.23
420.34	348.74
420.53	367.46
420.72	444.70
420.91	407.25
421.10	393.21
421.29	374.49
421.48	388.53
421.67	421.30
421.86	390.87
422.05	472.79
422.24	365.12
422.43	372.15
422.61	390.87
422.80	458.74
422.99	442.36
423.18	411.93
423.37	423.64
423.56	433.00
423.75	437.68
423.94	341.72
424.13	400.23
424.32	404.91
424.50	451.72
424.69	369.80
424.88	451.72
425.07	332.36
425.26	451.72
425.45	407.25
425.64	409.59
425.83	423.64
426.01	433.00
426.20	418.96
426.39	447.04
426.58	404.91
426.77	425.98
426.96	435.34
427.15	414.27
427.33	390.87
427.52	414.27
427.71	414.27
427.90	428.32
428.09	346.40
428.28	367.46
428.46	407.25
428.65	355.76
428.84	498.53
429.03	430.66
429.22	395.55
429.40	332.36
429.59	393.21
429.78	447.04
429.97	390.87
430.16	348.74
430.34	409.59
430.53	461.09
430.72	430.66
430.91	404.91
431.10	390.87
431.28	470.45
431.47	376.83
431.66	376.83
431.85	381.51
432.03	423.64
432.22	423.64
432.41	386.19
432.60	409.59
432.79	449.38
432.97	428.32
433.16	411.93
433.35	407.25
433.54	500.87
433.72	400.23
433.91	463.43
434.10	428.32
434.28	409.59
434.47	407.25
434.66	468.11
434.85	383.85
435.03	416.62
435.22	374.49
435.41	367.46
435.59	395.55
435.78	369.80
435.97	423.64
436.16	451.72
436.34	369.80
436.53	461.09
436.72	428.32
436.90	454.06
437.09	456.40
437.28	423.64
437.46	425.98
437.65	348.74
437.84	402.57
438.02	414.27
438.21	449.38
438.40	404.91
438.58	381.51
438.77	367.46
438.96	425.98
439.14	400.23
439.33	463.43
439.52	379.17
439.70	519.60
439.89	491.51
440.08	465.77
440.26	423.64
440.45	435.34
440.63	411.93
440.82	428.32
441.01	404.91
441.19	435.34
441.38	458.74
441.57	500.87
441.75	477.47
441.94	454.06
442.12	437.68
442.31	365.12
442.50	372.15
442.68	386.19
442.87	414.27
443.05	484.49
443.24	440.02
443.43	402.57
443.61	402.57
443.80	379.17
443.98	390.87
444.17	458.74
444.35	400.23
444.54	428.32
444.73	437.68
444.91	374.49
445.10	372.15
445.28	355.76
445.47	374.49
445.65	351.08
445.84	353.42
446.02	409.59
446.21	411.93
446.39	374.49
446.58	437.68
446.77	449.38
446.95	372.15
447.14	390.87
447.32	400.23
447.51	383.85
447.69	421.30
447.88	369.80
448.06	407.25
448.25	440.02
448.43	428.32
448.62	428.32
448.80	365.12
448.99	468.11
449.17	430.66
449.36	414.27
449.54	353.42
449.73	407.25
449.91	416.62
450.10	454.06
450.28	500.87
450.46	411.93
450.65	517.26
450.83	416.62
451.02	437.68
451.20	397.89
451.39	376.83
451.57	372.15
451.76	374.49
451.94	418.96
452.13	437.68
452.31	437.68
452.49	475.13
452.68	383.85
452.86	435.34
453.05	535.98
453.23	407.25
453.42	393.21
453.60	393.21
453.78	463.43
453.97	414.27
454.15	353.42
454.34	510.24
454.52	388.53
454.70	444.70
454.89	425.98
455.07	390.87
455.26	418.96
455.44	470.45
455.62	372.15
455.81	395.55
455.99	418.96
456.17	454.06
456.36	402.57
456.54	418.96
456.73	407.25
456.91	322.99
457.09	430.66
457.28	435.34
457.46	421.30
457.64	444.70
457.83	437.68
458.01	458.74
458.19	430.66
458.38	395.55
458.56	430.66
458.74	425.98
458.93	414.27
459.11	496.19
459.29	425.98
459.48	440.02
459.66	397.89
459.84	531.30
460.03	470.45
460.21	449.38
460.39	454.06
460.57	407.25
460.76	334.70
460.94	400.23
461.12	447.04
461.31	496.19
461.49	440.02
461.67	416.62
461.85	411.93
462.04	435.34
462.22	837.91
462.40	386.19
462.59	531.30
462.77	390.87
462.95	372.15
463.13	341.72
463.32	456.40
463.50	383.85
463.68	451.72
463.86	404.91
464.05	425.98
464.23	451.72
464.41	440.02
464.59	404.91
464.78	390.87
464.96	369.80
465.14	479.81
465.32	402.57
465.50	379.17
465.69	416.62
465.87	404.91
466.05	395.55
466.23	393.21
466.41	442.36
466.60	447.04
466.78	447.04
466.96	437.68
467.14	388.53
467.32	416.62
467.51	421.30
467.69	433.00
467.87	477.47
468.05	444.70
468.23	463.43
468.41	423.64
468.60	376.83
468.78	461.09
468.96	470.45
469.14	470.45
469.32	451.72
469.50	458.74
469.69	472.79
469.87	442.36
470.05	433.00
470.23	388.53
470.41	498.53
470.59	414.27
470.77	400.23
470.95	463.43
471.14	421.30
471.32	472.79
471.50	458.74
471.68	461.09
471.86	411.93
472.04	454.06
472.22	423.64
472.40	414.27
472.58	468.11
472.77	437.68
472.95	437.68
473.13	449.38
473.31	470.45
473.49	409.59
473.67	367.46
473.85	430.66
474.03	393.21
474.21	440.02
474.39	358.10
474.57	479.81
474.75	454.06
474.93	435.34
475.12	393.21
475.30	386.19
475.48	388.53
475.66	390.87
475.84	395.55
476.02	430.66
476.20	388.53
476.38	458.74
476.56	456.40
476.74	390.87
476.92	449.38
477.10	404.91
477.28	447.04
477.46	376.83
477.64	421.30
477.82	433.00
478.00	381.51
478.18	428.32
478.36	395.55
478.54	421.30
478.72	472.79
478.90	416.62
479.08	414.27
479.26	440.02
479.44	435.34
479.62	404.91
479.80	407.25
479.98	383.85
480.16	400.23
480.34	456.40
480.52	372.15
480.70	454.06
480.88	358.10
481.06	397.89
481.24	400.23
481.41	461.09
481.59	428.32
481.77	404.91
481.95	440.02
482.13	440.02
482.31	430.66
482.49	416.62
482.67	458.74
482.85	451.72
483.03	430.66
483.21	379.17
483.39	404.91
483.57	484.49
483.74	470.45
483.92	395.55
484.10	418.96
484.28	435.34
484.46	468.11
484.64	409.59
484.82	388.53
485.00	386.19
485.18	423.64
485.35	416.62
485.53	433.00
485.71	416.62
485.89	440.02
486.07	475.13
486.25	454.06
486.43	435.34
486.61	512.58
486.78	355.76
486.96	423.64
487.14	416.62
487.32	393.21
487.50	404.91
487.68	404.91
487.85	299.59
488.03	407.25
488.21	486.83
488.39	449.38
488.57	409.59
488.75	444.70
488.92	519.60
489.10	479.81
489.28	402.57
489.46	404.91
489.64	395.55
489.81	360.44
489.99	423.64
490.17	447.04
490.35	493.85
490.53	388.53
490.70	337.04
490.88	454.06
491.06	418.96
491.24	458.74
491.41	425.98
491.59	397.89
491.77	421.30
491.95	444.70
492.13	388.53
492.30	421.30
492.48	402.57
492.66	449.38
492.84	404.91
493.01	425.98
493.19	444.70
493.37	451.72
493.54	381.51
493.72	414.27
493.90	388.53
494.08	437.68
494.25	435.34
494.43	348.74
494.61	430.66
494.79	358.10
494.96	381.51
495.14	435.34
495.32	390.87
495.49	433.00
495.67	390.87
495.85	355.76
496.02	423.64
496.20	484.49
496.38	456.40
496.55	341.72
496.73	418.96
496.91	402.57
497.09	421.30
497.26	407.25
497.44	484.49
497.62	477.47
497.79	381.51
497.97	379.17
498.14	411.93
498.32	351.08
498.50	416.62
498.67	484.49
498.85	402.57
499.03	418.96
499.20	430.66
499.38	442.36
499.56	376.83
499.73	425.98
499.91	393.21
500.08	451.72
500.26	395.55
500.44	425.98
500.61	449.38
500.79	407.25
500.97	395.55
501.14	418.96
501.32	407.25
501.49	423.64
501.67	388.53
501.84	428.32
502.02	367.46
502.20	458.74
502.37	381.51
502.55	447.04
502.72	409.59
502.90	493.85
503.07	447.04
503.25	404.91
503.43	461.09
503.60	344.06
503.78	407.25
503.95	475.13
504.13	425.98
504.30	402.57
504.48	416.62
504.65	451.72
504.83	390.87
505.01	425.98
505.18	414.27
505.36	402.57
505.53	449.38
505.71	472.79
505.88	447.04
506.06	395.55
506.23	360.44
506.41	404.91
506.58	388.53
506.76	407.25
506.93	393.21
507.11	465.77
507.28	383.85
507.46	421.30
507.63	498.53
507.81	411.93
507.98	433.00
508.16	407.25
508.33	393.21
508.50	388.53
508.68	416.62
508.85	404.91
509.03	395.55
509.20	400.23
509.38	421.30
509.55	395.55
509.73	435.34
509.90	472.79
510.08	395.55
510.25	339.38
510.42	472.79
510.60	390.87
510.77	454.06
510.95	444.70
511.12	381.51
511.30	428.32
511.47	414.27
511.64	463.43
511.82	348.74
511.99	416.62
512.17	379.17
512.34	402.57
512.51	470.45
512.69	400.23
512.86	463.43
513.04	433.00
513.21	465.77
513.38	425.98
513.56	351.08
513.73	395.55
513.90	418.96
514.08	325.33
514.25	414.27
514.43	397.89
514.60	344.06
514.77	435.34
514.95	425.98
515.12	440.02
515.29	418.96
515.47	388.53
515.64	386.19
515.81	425.98
515.99	386.19
516.16	477.47
516.33	444.70
516.51	411.93
516.68	337.04
516.85	379.17
517.03	428.32
517.20	395.55
517.37	430.66
517.54	379.17
517.72	414.27
517.89	428.32
518.06	425.98
518.24	437.68
518.41	461.09
518.58	442.36
518.75	386.19
518.93	440.02
519.10	433.00
519.27	402.57
519.45	367.46
519.62	404.91
519.79	379.17
519.96	468.11
520.14	437.68
520.31	447.04
520.48	458.74
520.65	470.45
520.83	414.27
521.00	416.62
521.17	367.46
521.34	456.40
521.52	386.19
521.69	388.53
521.86	428.32
522.03	418.96
522.20	425.98
522.38	458.74
522.55	447.04
522.72	393.21
522.89	414.27
523.07	395.55
523.24	358.10
523.41	409.59
523.58	365.12
523.75	372.15
523.92	344.06
524.10	379.17
524.27	451.72
524.44	411.93
524.61	489.17
524.78	414.27
524.96	418.96
525.13	416.62
525.30	421.30
525.47	386.19
525.64	355.76
525.81	447.04
525.98	369.80
526.16	379.17
526.33	397.89
526.50	397.89
526.67	444.70
526.84	416.62
527.01	294.91
527.18	425.98
527.36	416.62
527.53	360.44
527.70	358.10
527.87	379.17
528.04	486.83
528.21	355.76
528.38	416.62
528.55	421.30
528.72	451.72
528.89	444.70
529.07	379.17
529.24	365.12
529.41	475.13
529.58	407.25
529.75	456.40
529.92	418.96
530.09	360.44
530.26	444.70
530.43	397.89
530.60	430.66
530.77	400.23
530.94	465.77
531.11	404.91
531.28	461.09
531.46	444.70
531.63	393.21
531.80	489.17
531.97	397.89
532.14	465.77
532.31	482.15
532.48	411.93
532.65	416.62
532.82	388.53
532.99	402.57
533.16	404.91
533.33	393.21
533.50	388.53
533.67	381.51
533.84	449.38
534.01	418.96
534.18	496.19
534.35	393.21
534.52	433.00
534.69	435.34
534.86	404.91
535.03	381.51
535.20	407.25
535.37	411.93
535.54	393.21
535.71	444.70
535.88	390.87
536.05	374.49
536.22	440.02
536.38	416.62
536.55	402.57
536.72	390.87
536.89	379.17
537.06	374.49
537.23	400.23
537.40	451.72
537.57	376.83
537.74	435.34
537.91	454.06
538.08	353.42
538.25	393.21
538.42	360.44
538.59	421.30
538.75	418.96
538.92	461.09
539.09	451.72
539.26	386.19
539.43	463.43
539.60	409.59
539.77	449.38
539.94	400.23
540.11	379.17
540.28	414.27
540.44	458.74
540.61	407.25
540.78	390.87
540.95	409.59
541.12	456.40
541.29	447.04
541.46	454.06
541.62	486.83
541.79	404.91
541.96	402.57
542.13	411.93
542.30	404.91
542.47	411.93
542.63	458.74
542.80	458.74
542.97	421.30
543.14	425.98
543.31	393.21
543.48	425.98
543.64	465.77
543.81	367.46
543.98	465.77
544.15	444.70
544.32	374.49
544.48	393.21
544.65	404.91
544.82	362.78
544.99	477.47
545.16	477.47
545.32	421.30
545.49	454.06
545.66	369.80
545.83	444.70
546.00	337.04
546.16	428.32
546.33	383.85
546.50	400.23
546.67	491.51
546.83	442.36
547.00	435.34
547.17	358.10
547.34	475.13
547.50	358.10
547.67	435.34
547.84	386.19
548.00	470.45
548.17	423.64
548.34	358.10
548.51	334.70
548.67	442.36
548.84	369.80
549.01	414.27
549.18	440.02
549.34	407.25
549.51	437.68
549.68	367.46
549.84	327.68
550.01	365.12
550.18	461.09
550.34	531.30
550.51	409.59
550.68	496.19
550.84	416.62
551.01	386.19
551.18	416.62
551.34	411.93
551.51	369.80
551.68	365.12
551.84	456.40
552.01	493.85
552.18	425.98
552.34	521.94
552.51	409.59
552.68	477.47
552.84	400.23
553.01	458.74
553.18	390.87
553.34	500.87
553.51	421.30
553.67	454.06
553.84	430.66
554.01	404.91
554.17	512.58
554.34	435.34
554.51	447.04
554.67	435.34
554.84	477.47
555.00	414.27
555.17	404.91
555.33	433.00
555.50	423.64
555.67	461.09
555.83	374.49
556.00	440.02
556.16	554.71
556.33	454.06
556.50	447.04
556.66	365.12
556.83	393.21
556.99	402.57
557.16	484.49
557.32	402.57
557.49	414.27
557.65	465.77
557.82	421.30
557.98	388.53
558.15	416.62
558.32	433.00
558.48	379.17
558.65	430.66
558.81	414.27
558.98	341.72
559.14	393.21
559.31	367.46
559.47	390.87
559.64	493.85
559.80	404.91
559.97	325.33
560.13	437.68
560.30	386.19
560.46	547.69
560.63	407.25
560.79	421.30
560.96	374.49
561.12	381.51
561.29	451.72
561.45	409.59
561.61	402.57
561.78	489.17
561.94	451.72
562.11	313.63
562.27	433.00
562.44	472.79
562.60	442.36
562.77	524.28
562.93	458.74
563.10	341.72
563.26	379.17
563.42	482.15
563.59	428.32
563.75	381.51
563.92	454.06
564.08	416.62
564.24	463.43
564.41	458.74
564.57	346.40
564.74	383.85
564.90	456.40
565.07	376.83
565.23	369.80
565.39	376.83
565.56	454.06
565.72	470.45
565.88	458.74
566.05	468.11
566.21	418.96
566.38	409.59
566.54	390.87
566.70	477.47
566.87	388.53
567.03	353.42
567.19	437.68
567.36	411.93
567.52	440.02
567.68	372.15
567.85	381.51
568.01	447.04
568.17	430.66
568.34	407.25
568.50	477.47
568.66	404.91
568.83	470.45
568.99	388.53
569.15	423.64
569.32	428.32
569.48	463.43
569.64	456.40
569.81	442.36
569.97	416.62
570.13	390.87
570.30	402.57
570.46	430.66
570.62	395.55
570.78	379.17
570.95	374.49
571.11	454.06
571.27	428.32
571.43	386.19
571.60	418.96
571.76	416.62
571.92	411.93
572.09	393.21
572.25	381.51
572.41	442.36
572.57	402.57
572.74	463.43
572.90	358.10
573.06	372.15
573.22	400.23
573.38	442.36
573.55	418.96
573.71	421.30
573.87	414.27
574.03	414.27
574.20	428.32
574.36	479.81
574.52	409.59
574.68	372.15
574.84	390.87
575.01	416.62
575.17	416.62
575.33	444.70
575.49	428.32
575.65	400.23
575.82	447.04
575.98	379.17
576.14	353.42
576.30	442.36
576.46	472.79
576.62	367.46
576.79	423.64
576.95	423.64
577.11	435.34
577.27	381.51
577.43	489.17
577.59	418.96
577.75	442.36
577.92	402.57
578.08	390.87
578.24	447.04
578.40	486.83
578.56	416.62
578.72	484.49
578.88	442.36
579.04	435.34
579.21	386.19
579.37	402.57
579.53	440.02
579.69	470.45
579.85	435.34
580.01	365.12
580.17	374.49
580.33	360.44
580.49	395.55
580.65	447.04
580.82	409.59
580.98	435.34
581.14	381.51
581.30	423.64
581.46	404.91
581.62	409.59
581.78	402.57
581.94	521.94
582.10	447.04
582.26	418.96
582.42	428.32
582.58	482.15
582.74	414.27
582.90	411.93
583.06	404.91
583.22	425.98
583.38	362.78
583.54	348.74
583.70	505.56
583.86	479.81
584.02	395.55
584.18	388.53
584.34	414.27
584.50	423.64
584.66	461.09
584.82	369.80
584.98	430.66
585.14	397.89
585.30	395.55
585.46	435.34
585.62	428.32
585.78	435.34
585.94	383.85
586.10	411.93
586.26	449.38
586.42	486.83
586.58	440.02
586.74	440.02
586.90	416.62
587.06	433.00
587.22	376.83
587.38	418.96
587.54	407.25
587.70	402.57
587.86	475.13
588.02	390.87
588.18	409.59
588.34	475.13
588.49	440.02
588.65	393.21
588.81	353.42
588.97	374.49
589.13	355.76
589.29	320.65
589.45	437.68
589.61	416.62
589.77	440.02
589.93	477.47
590.08	482.15
590.24	402.57
590.40	404.91
590.56	449.38
590.72	451.72
590.88	442.36
591.04	337.04
591.20	486.83
591.35	425.98
591.51	369.80
591.67	390.87
591.83	418.96
591.99	416.62
592.15	472.79
592.31	447.04
592.46	418.96
592.62	433.00
592.78	381.51
592.94	454.06
593.10	416.62
593.26	416.62
593.41	425.98
593.57	425.98
593.73	451.72
593.89	465.77
594.05	409.59
594.20	428.32
594.36	435.34
594.52	503.22
594.68	430.66
594.84	507.90
594.99	418.96
595.15	381.51
595.31	444.70
595.47	402.57
595.62	456.40
595.78	449.38
595.94	430.66
596.10	365.12
596.25	449.38
596.41	416.62
596.57	458.74
596.73	425.98
596.88	353.42
597.04	374.49
597.20	353.42
597.36	465.77
597.51	376.83
597.67	465.77
597.83	388.53
597.99	477.47
598.14	425.98
598.30	416.62
598.46	435.34
598.61	479.81
598.77	442.36
598.93	423.64
599.09	360.44
599.24	383.85
599.40	454.06
599.56	418.96
599.71	416.62
599.87	418.96
600.03	393.21
600.18	390.87
600.34	435.34
600.50	353.42
600.65	430.66
600.81	374.49
600.97	463.43
601.12	388.53
601.28	425.98
601.44	367.46
601.59	437.68
601.75	465.77
601.91	442.36
602.06	449.38
602.22	517.26
602.37	379.17
602.53	362.78
602.69	414.27
602.84	407.25
603.00	428.32
603.16	484.49
603.31	395.55
603.47	390.87
603.62	437.68
603.78	491.51
603.94	409.59
604.09	409.59
604.25	433.00
604.40	503.22
604.56	418.96
604.71	444.70
604.87	414.27
605.03	470.45
605.18	393.21
605.34	470.45
605.49	400.23
605.65	463.43
605.80	353.42
605.96	482.15
606.12	365.12
606.27	433.00
606.43	372.15
606.58	442.36
606.74	388.53
606.89	456.40
607.05	407.25
607.20	418.96
607.36	458.74
607.51	447.04
607.67	404.91
607.82	386.19
607.98	423.64
608.13	468.11
608.29	482.15
608.44	402.57
608.60	449.38
608.75	393.21
608.91	390.87
609.06	472.79
609.22	465.77
609.37	437.68
609.53	376.83
609.68	423.64
609.84	456.40
609.99	414.27
610.15	411.93
