SpectraSuite Data File
++++++++++++++++++++++++++++++++++++
Date: Fri Oct 25 12:10:19 EDT 2013
User: price-jones
Dark Spectrum Present: No
Reference Spectrum Present: No
Number of Sampled Component Spectra: 1
Spectrometers: USB2+H05261
Integration Time (usec): 100000 (USB2+H05261)
Spectra Averaged: 1 (USB2+H05261)
Boxcar Smoothing: 0 (USB2+H05261)
Correct for Electrical Dark: No (USB2+H05261)
Strobe/Lamp Enabled: No (USB2+H05261)
Correct for Detector Non-linearity: No (USB2+H05261)
Correct for Stray Light: No (USB2+H05261)
Number of Pixels in Processed Spectrum: 2048
>>>>>Begin Processed Spectral Data<<<<<
365.73	334.70
365.92	334.70
366.12	334.70
366.32	280.86
366.52	280.86
366.72	315.97
366.91	250.44
367.11	287.89
367.31	231.71
367.51	276.18
367.70	217.67
367.90	217.67
368.10	243.42
368.30	294.91
368.49	266.82
368.69	227.03
368.89	255.12
369.09	177.88
369.28	341.72
369.48	306.61
369.68	325.33
369.87	287.89
370.07	297.25
370.27	290.23
370.47	264.48
370.66	322.99
370.86	386.19
371.06	358.10
371.25	390.87
371.45	386.19
371.65	341.72
371.84	376.83
372.04	395.55
372.24	411.93
372.44	360.44
372.63	421.30
372.83	393.21
373.03	411.93
373.22	355.76
373.42	449.38
373.62	390.87
373.81	322.99
374.01	374.49
374.21	479.81
374.40	369.80
374.60	491.51
374.79	381.51
374.99	337.04
375.19	428.32
375.38	512.58
375.58	442.36
375.78	479.81
375.97	428.32
376.17	437.68
376.37	374.49
376.56	442.36
376.76	435.34
376.95	386.19
377.15	416.62
377.35	379.17
377.54	374.49
377.74	437.68
377.93	456.40
378.13	388.53
378.33	442.36
378.52	381.51
378.72	404.91
378.91	376.83
379.11	491.51
379.31	376.83
379.50	397.89
379.70	454.06
379.89	404.91
380.09	409.59
380.28	341.72
380.48	367.46
380.68	409.59
380.87	411.93
381.07	337.04
381.26	386.19
381.46	365.12
381.65	393.21
381.85	454.06
382.04	454.06
382.24	383.85
382.43	358.10
382.63	379.17
382.83	407.25
383.02	311.29
383.22	407.25
383.41	332.36
383.61	411.93
383.80	425.98
384.00	444.70
384.19	351.08
384.39	395.55
384.58	327.68
384.78	376.83
384.97	428.32
385.17	402.57
385.36	454.06
385.56	393.21
385.75	362.78
385.95	395.55
386.14	386.19
386.34	376.83
386.53	365.12
386.72	416.62
386.92	437.68
387.11	376.83
387.31	456.40
387.50	425.98
387.70	421.30
387.89	341.72
388.09	381.51
388.28	376.83
388.48	339.38
388.67	383.85
388.86	414.27
389.06	425.98
389.25	407.25
389.45	407.25
389.64	404.91
389.84	301.93
390.03	451.72
390.22	379.17
390.42	402.57
390.61	421.30
390.81	421.30
391.00	435.34
391.19	482.15
391.39	400.23
391.58	315.97
391.78	407.25
391.97	374.49
392.16	353.42
392.36	409.59
392.55	409.59
392.75	393.21
392.94	330.02
393.13	360.44
393.33	360.44
393.52	369.80
393.71	400.23
393.91	449.38
394.10	411.93
394.29	369.80
394.49	407.25
394.68	425.98
394.88	395.55
395.07	376.83
395.26	393.21
395.46	390.87
395.65	390.87
395.84	355.76
396.04	451.72
396.23	390.87
396.42	383.85
396.62	470.45
396.81	470.45
397.00	365.12
397.19	449.38
397.39	386.19
397.58	414.27
397.77	381.51
397.97	421.30
398.16	440.02
398.35	428.32
398.55	393.21
398.74	344.06
398.93	397.89
399.12	351.08
399.32	425.98
399.51	421.30
399.70	369.80
399.90	418.96
400.09	416.62
400.28	444.70
400.47	388.53
400.67	470.45
400.86	514.92
401.05	404.91
401.24	423.64
401.44	461.09
401.63	454.06
401.82	414.27
402.01	428.32
402.21	404.91
402.40	425.98
402.59	367.46
402.78	519.60
402.97	411.93
403.17	447.04
403.36	355.76
403.55	393.21
403.74	334.70
403.93	407.25
404.13	433.00
404.32	334.70
404.51	402.57
404.70	376.83
404.89	437.68
405.09	440.02
405.28	440.02
405.47	367.46
405.66	449.38
405.85	444.70
406.05	411.93
406.24	407.25
406.43	414.27
406.62	390.87
406.81	425.98
407.00	374.49
407.20	369.80
407.39	421.30
407.58	374.49
407.77	498.53
407.96	369.80
408.15	435.34
408.34	306.61
408.54	428.32
408.73	416.62
408.92	360.44
409.11	440.02
409.30	486.83
409.49	341.72
409.68	353.42
409.87	411.93
410.07	358.10
410.26	430.66
410.45	477.47
410.64	421.30
410.83	402.57
411.02	395.55
411.21	465.77
411.40	390.87
411.59	372.15
411.78	362.78
411.98	397.89
412.17	397.89
412.36	475.13
412.55	404.91
412.74	388.53
412.93	463.43
413.12	388.53
413.31	463.43
413.50	407.25
413.69	388.53
413.88	503.22
414.07	454.06
414.26	418.96
414.45	409.59
414.64	449.38
414.83	402.57
415.02	393.21
415.22	402.57
415.41	397.89
415.60	367.46
415.79	379.17
415.98	514.92
416.17	463.43
416.36	397.89
416.55	390.87
416.74	447.04
416.93	367.46
417.12	390.87
417.31	358.10
417.50	390.87
417.69	421.30
417.88	374.49
418.07	423.64
418.26	341.72
418.45	393.21
418.64	458.74
418.83	470.45
419.02	444.70
419.21	470.45
419.39	414.27
419.58	416.62
419.77	390.87
419.96	414.27
420.15	414.27
420.34	402.57
420.53	360.44
420.72	397.89
420.91	337.04
421.10	468.11
421.29	418.96
421.48	479.81
421.67	416.62
421.86	430.66
422.05	440.02
422.24	458.74
422.43	458.74
422.61	393.21
422.80	433.00
422.99	416.62
423.18	440.02
423.37	409.59
423.56	388.53
423.75	386.19
423.94	388.53
424.13	428.32
424.32	421.30
424.50	423.64
424.69	411.93
424.88	500.87
425.07	379.17
425.26	404.91
425.45	402.57
425.64	334.70
425.83	379.17
426.01	395.55
426.20	381.51
426.39	353.42
426.58	330.02
426.77	409.59
426.96	386.19
427.15	489.17
427.33	379.17
427.52	409.59
427.71	383.85
427.90	423.64
428.09	365.12
428.28	421.30
428.46	470.45
428.65	433.00
428.84	376.83
429.03	407.25
429.22	374.49
429.40	437.68
429.59	358.10
429.78	390.87
429.97	442.36
430.16	379.17
430.34	397.89
430.53	348.74
430.72	388.53
430.91	383.85
431.10	376.83
431.28	409.59
431.47	430.66
431.66	332.36
431.85	346.40
432.03	372.15
432.22	435.34
432.41	395.55
432.60	465.77
432.79	414.27
432.97	346.40
433.16	360.44
433.35	461.09
433.54	435.34
433.72	451.72
433.91	404.91
434.10	477.47
434.28	463.43
434.47	372.15
434.66	407.25
434.85	348.74
435.03	416.62
435.22	435.34
435.41	381.51
435.59	416.62
435.78	353.42
435.97	442.36
436.16	395.55
436.34	360.44
436.53	365.12
436.72	423.64
436.90	376.83
437.09	369.80
437.28	381.51
437.46	379.17
437.65	400.23
437.84	386.19
438.02	423.64
438.21	475.13
438.40	442.36
438.58	463.43
438.77	407.25
438.96	409.59
439.14	393.21
439.33	379.17
439.52	397.89
439.70	362.78
439.89	430.66
440.08	395.55
440.26	402.57
440.45	409.59
440.63	383.85
440.82	365.12
441.01	430.66
441.19	470.45
441.38	414.27
441.57	386.19
441.75	358.10
441.94	423.64
442.12	393.21
442.31	386.19
442.50	402.57
442.68	414.27
442.87	367.46
443.05	433.00
443.24	428.32
443.43	383.85
443.61	400.23
443.80	465.77
443.98	353.42
444.17	414.27
444.35	390.87
444.54	330.02
444.73	379.17
444.91	498.53
445.10	447.04
445.28	348.74
445.47	479.81
445.65	447.04
445.84	435.34
446.02	402.57
446.21	458.74
446.39	311.29
446.58	451.72
446.77	418.96
446.95	447.04
447.14	442.36
447.32	465.77
447.51	496.19
447.69	479.81
447.88	442.36
448.06	435.34
448.25	435.34
448.43	407.25
448.62	393.21
448.80	519.60
448.99	421.30
449.17	470.45
449.36	386.19
449.54	327.68
449.73	353.42
449.91	390.87
450.10	437.68
450.28	421.30
450.46	470.45
450.65	428.32
450.83	425.98
451.02	360.44
451.20	411.93
451.39	388.53
451.57	411.93
451.76	451.72
451.94	365.12
452.13	425.98
452.31	365.12
452.49	390.87
452.68	423.64
452.86	425.98
453.05	428.32
453.23	404.91
453.42	383.85
453.60	423.64
453.78	440.02
453.97	404.91
454.15	388.53
454.34	397.89
454.52	362.78
454.70	444.70
454.89	393.21
455.07	440.02
455.26	397.89
455.44	397.89
455.62	451.72
455.81	458.74
455.99	390.87
456.17	407.25
456.36	407.25
456.54	376.83
456.73	400.23
456.91	395.55
457.09	407.25
457.28	409.59
457.46	395.55
457.64	442.36
457.83	440.02
458.01	416.62
458.19	390.87
458.38	367.46
458.56	428.32
458.74	414.27
458.93	416.62
459.11	390.87
459.29	369.80
459.48	351.08
459.66	395.55
459.84	409.59
460.03	465.77
460.21	425.98
460.39	374.49
460.57	372.15
460.76	402.57
460.94	437.68
461.12	470.45
461.31	404.91
461.49	372.15
461.67	376.83
461.85	425.98
462.04	348.74
462.22	777.06
462.40	444.70
462.59	447.04
462.77	414.27
462.95	383.85
463.13	330.02
463.32	430.66
463.50	400.23
463.68	404.91
463.86	374.49
464.05	388.53
464.23	428.32
464.41	416.62
464.59	397.89
464.78	341.72
464.96	407.25
465.14	451.72
465.32	472.79
465.50	423.64
465.69	433.00
465.87	306.61
466.05	388.53
466.23	433.00
466.41	409.59
466.60	444.70
466.78	369.80
466.96	435.34
467.14	404.91
467.32	442.36
467.51	400.23
467.69	444.70
467.87	416.62
468.05	388.53
468.23	437.68
468.41	367.46
468.60	397.89
468.78	400.23
468.96	397.89
469.14	322.99
469.32	440.02
469.50	397.89
469.69	421.30
469.87	379.17
470.05	430.66
470.23	465.77
470.41	414.27
470.59	383.85
470.77	400.23
470.95	379.17
471.14	430.66
471.32	414.27
471.50	449.38
471.68	376.83
471.86	386.19
472.04	358.10
472.22	379.17
472.40	397.89
472.58	468.11
472.77	440.02
472.95	362.78
473.13	458.74
473.31	397.89
473.49	362.78
473.67	353.42
473.85	397.89
474.03	425.98
474.21	433.00
474.39	418.96
474.57	468.11
474.75	334.70
474.93	468.11
475.12	402.57
475.30	414.27
475.48	376.83
475.66	383.85
475.84	372.15
476.02	348.74
476.20	402.57
476.38	430.66
476.56	428.32
476.74	360.44
476.92	463.43
477.10	425.98
477.28	402.57
477.46	379.17
477.64	390.87
477.82	402.57
478.00	360.44
478.18	458.74
478.36	395.55
478.54	353.42
478.72	416.62
478.90	437.68
479.08	463.43
479.26	409.59
479.44	397.89
479.62	468.11
479.80	407.25
479.98	472.79
480.16	337.04
480.34	395.55
480.52	355.76
480.70	442.36
480.88	458.74
481.06	339.38
481.24	386.19
481.41	393.21
481.59	428.32
481.77	418.96
481.95	290.23
482.13	456.40
482.31	440.02
482.49	376.83
482.67	358.10
482.85	418.96
483.03	404.91
483.21	404.91
483.39	411.93
483.57	409.59
483.74	461.09
483.92	397.89
484.10	369.80
484.28	397.89
484.46	475.13
484.64	402.57
484.82	397.89
485.00	440.02
485.18	383.85
485.35	437.68
485.53	372.15
485.71	404.91
485.89	348.74
486.07	437.68
486.25	500.87
486.43	367.46
486.61	449.38
486.78	407.25
486.96	444.70
487.14	407.25
487.32	444.70
487.50	409.59
487.68	395.55
487.85	461.09
488.03	404.91
488.21	388.53
488.39	428.32
488.57	418.96
488.75	395.55
488.92	486.83
489.10	423.64
489.28	435.34
489.46	468.11
489.64	407.25
489.81	423.64
489.99	379.17
490.17	395.55
490.35	479.81
490.53	430.66
490.70	440.02
490.88	489.17
491.06	365.12
491.24	393.21
491.41	486.83
491.59	409.59
491.77	386.19
491.95	390.87
492.13	397.89
492.30	383.85
492.48	376.83
492.66	461.09
492.84	337.04
493.01	402.57
493.19	388.53
493.37	440.02
493.54	372.15
493.72	379.17
493.90	411.93
494.08	407.25
494.25	482.15
494.43	428.32
494.61	376.83
494.79	458.74
494.96	409.59
495.14	397.89
495.32	433.00
495.49	414.27
495.67	404.91
495.85	428.32
496.02	332.36
496.20	407.25
496.38	447.04
496.55	327.68
496.73	435.34
496.91	376.83
497.09	400.23
497.26	355.76
497.44	348.74
497.62	449.38
497.79	458.74
497.97	383.85
498.14	411.93
498.32	369.80
498.50	444.70
498.67	320.65
498.85	313.63
499.03	376.83
499.20	404.91
499.38	334.70
499.56	430.66
499.73	421.30
499.91	360.44
500.08	444.70
500.26	393.21
500.44	409.59
500.61	468.11
500.79	456.40
500.97	449.38
501.14	449.38
501.32	402.57
501.49	433.00
501.67	381.51
501.84	440.02
502.02	433.00
502.20	430.66
502.37	428.32
502.55	475.13
502.72	468.11
502.90	421.30
503.07	421.30
503.25	447.04
503.43	367.46
503.60	425.98
503.78	437.68
503.95	367.46
504.13	395.55
504.30	423.64
504.48	437.68
504.65	463.43
504.83	447.04
505.01	351.08
505.18	402.57
505.36	404.91
505.53	433.00
505.71	381.51
505.88	470.45
506.06	414.27
506.23	447.04
506.41	376.83
506.58	486.83
506.76	421.30
506.93	372.15
507.11	486.83
507.28	465.77
507.46	425.98
507.63	337.04
507.81	423.64
507.98	386.19
508.16	397.89
508.33	386.19
508.50	388.53
508.68	360.44
508.85	407.25
509.03	386.19
509.20	369.80
509.38	395.55
509.55	428.32
509.73	365.12
509.90	414.27
510.08	393.21
510.25	358.10
510.42	397.89
510.60	449.38
510.77	444.70
510.95	433.00
511.12	409.59
511.30	447.04
511.47	414.27
511.64	383.85
511.82	367.46
511.99	404.91
512.17	421.30
512.34	381.51
512.51	440.02
512.69	400.23
512.86	411.93
513.04	397.89
513.21	493.85
513.38	421.30
513.56	376.83
513.73	341.72
513.90	383.85
514.08	346.40
514.25	388.53
514.43	416.62
514.60	418.96
514.77	470.45
514.95	388.53
515.12	447.04
515.29	418.96
515.47	381.51
515.64	353.42
515.81	430.66
515.99	423.64
516.16	388.53
516.33	430.66
516.51	465.77
516.68	379.17
516.85	393.21
517.03	369.80
517.20	362.78
517.37	374.49
517.54	440.02
517.72	463.43
517.89	372.15
518.06	395.55
518.24	461.09
518.41	440.02
518.58	423.64
518.75	414.27
518.93	449.38
519.10	484.49
519.27	428.32
519.45	414.27
519.62	421.30
519.79	341.72
519.96	404.91
520.14	468.11
520.31	489.17
520.48	463.43
520.65	491.51
520.83	433.00
521.00	489.17
521.17	348.74
521.34	362.78
521.52	428.32
521.69	402.57
521.86	407.25
522.03	402.57
522.20	437.68
522.38	437.68
522.55	472.79
522.72	379.17
522.89	470.45
523.07	430.66
523.24	397.89
523.41	306.61
523.58	421.30
523.75	400.23
523.92	414.27
524.10	437.68
524.27	454.06
524.44	365.12
524.61	404.91
524.78	404.91
524.96	449.38
525.13	397.89
525.30	461.09
525.47	451.72
525.64	447.04
525.81	423.64
525.98	461.09
526.16	407.25
526.33	454.06
526.50	362.78
526.67	418.96
526.84	402.57
527.01	393.21
527.18	423.64
527.36	341.72
527.53	341.72
527.70	376.83
527.87	440.02
528.04	418.96
528.21	421.30
528.38	416.62
528.55	409.59
528.72	458.74
528.89	465.77
529.07	376.83
529.24	454.06
529.41	404.91
529.58	397.89
529.75	383.85
529.92	402.57
530.09	409.59
530.26	400.23
530.43	433.00
530.60	437.68
530.77	430.66
530.94	402.57
531.11	386.19
531.28	421.30
531.46	479.81
531.63	440.02
531.80	425.98
531.97	386.19
532.14	449.38
532.31	468.11
532.48	416.62
532.65	400.23
532.82	425.98
532.99	393.21
533.16	423.64
533.33	362.78
533.50	425.98
533.67	418.96
533.84	388.53
534.01	425.98
534.18	393.21
534.35	369.80
534.52	411.93
534.69	416.62
534.86	482.15
535.03	418.96
535.20	498.53
535.37	543.00
535.54	418.96
535.71	402.57
535.88	449.38
536.05	390.87
536.22	365.12
536.38	442.36
536.55	465.77
536.72	414.27
536.89	386.19
537.06	334.70
537.23	461.09
537.40	414.27
537.57	440.02
537.74	414.27
537.91	470.45
538.08	456.40
538.25	440.02
538.42	386.19
538.59	440.02
538.75	472.79
538.92	416.62
539.09	393.21
539.26	388.53
539.43	374.49
539.60	416.62
539.77	397.89
539.94	470.45
540.11	463.43
540.28	454.06
540.44	435.34
540.61	400.23
540.78	383.85
540.95	318.31
541.12	372.15
541.29	407.25
541.46	454.06
541.62	437.68
541.79	393.21
541.96	374.49
542.13	418.96
542.30	388.53
542.47	372.15
542.63	428.32
542.80	496.19
542.97	465.77
543.14	404.91
543.31	411.93
543.48	416.62
543.64	402.57
543.81	451.72
543.98	362.78
544.15	386.19
544.32	390.87
544.48	404.91
544.65	418.96
544.82	404.91
544.99	430.66
545.16	411.93
545.32	353.42
545.49	407.25
545.66	421.30
545.83	358.10
546.00	339.38
546.16	407.25
546.33	411.93
546.50	437.68
546.67	489.17
546.83	444.70
547.00	355.76
547.17	379.17
547.34	425.98
547.50	416.62
547.67	500.87
547.84	418.96
548.00	418.96
548.17	477.47
548.34	414.27
548.51	428.32
548.67	479.81
548.84	447.04
549.01	407.25
549.18	458.74
549.34	388.53
549.51	414.27
549.68	409.59
549.84	442.36
550.01	449.38
550.18	461.09
550.34	465.77
550.51	447.04
550.68	414.27
550.84	440.02
551.01	416.62
551.18	454.06
551.34	409.59
551.51	407.25
551.68	372.15
551.84	465.77
552.01	416.62
552.18	393.21
552.34	393.21
552.51	400.23
552.68	454.06
552.84	428.32
553.01	454.06
553.18	498.53
553.34	447.04
553.51	358.10
553.67	379.17
553.84	407.25
554.01	397.89
554.17	425.98
554.34	416.62
554.51	479.81
554.67	477.47
554.84	418.96
555.00	435.34
555.17	451.72
555.33	510.24
555.50	440.02
555.67	369.80
555.83	379.17
556.00	365.12
556.16	615.56
556.33	545.34
556.50	376.83
556.66	425.98
556.83	376.83
556.99	388.53
557.16	461.09
557.32	362.78
557.49	461.09
557.65	386.19
557.82	383.85
557.98	379.17
558.15	416.62
558.32	425.98
558.48	379.17
558.65	367.46
558.81	442.36
558.98	435.34
559.14	484.49
559.31	379.17
559.47	409.59
559.64	435.34
559.80	454.06
559.97	362.78
560.13	458.74
560.30	365.12
560.46	393.21
560.63	430.66
560.79	400.23
560.96	381.51
561.12	379.17
561.29	414.27
561.45	496.19
561.61	454.06
561.78	465.77
561.94	425.98
562.11	393.21
562.27	458.74
562.44	435.34
562.60	395.55
562.77	414.27
562.93	470.45
563.10	491.51
563.26	416.62
563.42	407.25
563.59	433.00
563.75	348.74
563.92	416.62
564.08	425.98
564.24	400.23
564.41	430.66
564.57	360.44
564.74	365.12
564.90	507.90
565.07	496.19
565.23	353.42
565.39	393.21
565.56	416.62
565.72	404.91
565.88	407.25
566.05	407.25
566.21	404.91
566.38	397.89
566.54	414.27
566.70	360.44
566.87	409.59
567.03	449.38
567.19	449.38
567.36	393.21
567.52	390.87
567.68	332.36
567.85	433.00
568.01	425.98
568.17	433.00
568.34	447.04
568.50	421.30
568.66	430.66
568.83	433.00
568.99	423.64
569.15	444.70
569.32	395.55
569.48	386.19
569.64	383.85
569.81	454.06
569.97	440.02
570.13	442.36
570.30	425.98
570.46	395.55
570.62	465.77
570.78	407.25
570.95	451.72
571.11	447.04
571.27	496.19
571.43	461.09
571.60	486.83
571.76	404.91
571.92	449.38
572.09	428.32
572.25	416.62
572.41	388.53
572.57	390.87
572.74	451.72
572.90	433.00
573.06	468.11
573.22	418.96
573.38	484.49
573.55	463.43
573.71	470.45
573.87	430.66
574.03	404.91
574.20	437.68
574.36	397.89
574.52	430.66
574.68	404.91
574.84	395.55
575.01	428.32
575.17	449.38
575.33	423.64
575.49	440.02
575.65	449.38
575.82	423.64
575.98	447.04
576.14	395.55
576.30	360.44
576.46	418.96
576.62	423.64
576.79	395.55
576.95	447.04
577.11	421.30
577.27	402.57
577.43	395.55
577.59	484.49
577.75	409.59
577.92	421.30
578.08	395.55
578.24	447.04
578.40	463.43
578.56	390.87
578.72	400.23
578.88	383.85
579.04	421.30
579.21	428.32
579.37	386.19
579.53	376.83
579.69	482.15
579.85	393.21
580.01	416.62
580.17	407.25
580.33	395.55
580.49	442.36
580.65	451.72
580.82	496.19
580.98	411.93
581.14	341.72
581.30	381.51
581.46	372.15
581.62	358.10
581.78	435.34
581.94	409.59
582.10	402.57
582.26	379.17
582.42	376.83
582.58	383.85
582.74	465.77
582.90	397.89
583.06	409.59
583.22	430.66
583.38	409.59
583.54	425.98
583.70	482.15
583.86	435.34
584.02	440.02
584.18	472.79
584.34	482.15
584.50	390.87
584.66	442.36
584.82	409.59
584.98	430.66
585.14	447.04
585.30	339.38
585.46	388.53
585.62	402.57
585.78	425.98
585.94	449.38
586.10	404.91
586.26	351.08
586.42	458.74
586.58	493.85
586.74	435.34
586.90	379.17
587.06	442.36
587.22	444.70
587.38	407.25
587.54	423.64
587.70	468.11
587.86	421.30
588.02	470.45
588.18	390.87
588.34	433.00
588.49	416.62
588.65	437.68
588.81	341.72
588.97	400.23
589.13	379.17
589.29	402.57
589.45	346.40
589.61	397.89
589.77	428.32
589.93	388.53
590.08	433.00
590.24	449.38
590.40	449.38
590.56	444.70
590.72	435.34
590.88	397.89
591.04	482.15
591.20	414.27
591.35	454.06
591.51	437.68
591.67	386.19
591.83	423.64
591.99	461.09
592.15	456.40
592.31	428.32
592.46	379.17
592.62	449.38
592.78	409.59
592.94	346.40
593.10	330.02
593.26	409.59
593.41	346.40
593.57	386.19
593.73	369.80
593.89	365.12
594.05	430.66
594.20	411.93
594.36	451.72
594.52	440.02
594.68	402.57
594.84	519.60
594.99	400.23
595.15	437.68
595.31	458.74
595.47	407.25
595.62	409.59
595.78	390.87
595.94	418.96
596.10	437.68
596.25	442.36
596.41	411.93
596.57	416.62
596.73	397.89
596.88	433.00
597.04	423.64
597.20	449.38
597.36	388.53
597.51	491.51
597.67	468.11
597.83	372.15
597.99	425.98
598.14	465.77
598.30	482.15
598.46	393.21
598.61	547.69
598.77	383.85
598.93	365.12
599.09	395.55
599.24	449.38
599.40	454.06
599.56	468.11
599.71	416.62
599.87	353.42
600.03	402.57
600.18	435.34
600.34	400.23
600.50	404.91
600.65	397.89
600.81	486.83
600.97	414.27
601.12	444.70
601.28	451.72
601.44	472.79
601.59	456.40
601.75	484.49
601.91	437.68
602.06	475.13
602.22	517.26
602.37	416.62
602.53	395.55
602.69	425.98
602.84	437.68
603.00	400.23
603.16	444.70
603.31	404.91
603.47	313.63
603.62	425.98
603.78	461.09
603.94	416.62
604.09	451.72
604.25	409.59
604.40	465.77
604.56	409.59
604.71	442.36
604.87	435.34
605.03	416.62
605.18	430.66
605.34	416.62
605.49	463.43
605.65	421.30
605.80	428.32
605.96	407.25
606.12	489.17
606.27	414.27
606.43	465.77
606.58	463.43
606.74	414.27
606.89	395.55
607.05	386.19
607.20	430.66
607.36	397.89
607.51	348.74
607.67	393.21
607.82	533.64
607.98	440.02
608.13	372.15
608.29	404.91
608.44	449.38
608.60	425.98
608.75	383.85
608.91	407.25
609.06	428.32
609.22	447.04
609.37	393.21
609.53	402.57
609.68	418.96
609.84	430.66
609.99	444.70
610.15	458.74
