SpectraSuite Data File
++++++++++++++++++++++++++++++++++++
Date: Fri Oct 25 12:11:38 EDT 2013
User: price-jones
Dark Spectrum Present: No
Reference Spectrum Present: No
Number of Sampled Component Spectra: 1
Spectrometers: USB2+H05261
Integration Time (usec): 100000 (USB2+H05261)
Spectra Averaged: 1 (USB2+H05261)
Boxcar Smoothing: 0 (USB2+H05261)
Correct for Electrical Dark: No (USB2+H05261)
Strobe/Lamp Enabled: No (USB2+H05261)
Correct for Detector Non-linearity: No (USB2+H05261)
Correct for Stray Light: No (USB2+H05261)
Number of Pixels in Processed Spectrum: 2048
>>>>>Begin Processed Spectral Data<<<<<
365.73	320.65
365.92	320.65
366.12	320.65
366.32	217.67
366.52	227.03
366.72	301.93
366.91	269.16
367.11	238.73
367.31	283.20
367.51	269.16
367.70	243.42
367.90	231.71
368.10	290.23
368.30	208.31
368.49	278.52
368.69	304.27
368.89	297.25
369.09	276.18
369.28	330.02
369.48	355.76
369.68	304.27
369.87	264.48
370.07	280.86
370.27	332.36
370.47	308.95
370.66	222.35
370.86	404.91
371.06	355.76
371.25	308.95
371.45	355.76
371.65	390.87
371.84	435.34
372.04	304.27
372.24	353.42
372.44	358.10
372.63	423.64
372.83	458.74
373.03	407.25
373.22	367.46
373.42	475.13
373.62	374.49
373.81	365.12
374.01	369.80
374.21	386.19
374.40	379.17
374.60	414.27
374.79	444.70
374.99	437.68
375.19	337.04
375.38	447.04
375.58	388.53
375.78	456.40
375.97	447.04
376.17	435.34
376.37	425.98
376.56	379.17
376.76	397.89
376.95	383.85
377.15	414.27
377.35	433.00
377.54	416.62
377.74	407.25
377.93	341.72
378.13	435.34
378.33	465.77
378.52	395.55
378.72	425.98
378.91	435.34
379.11	402.57
379.31	407.25
379.50	362.78
379.70	390.87
379.89	428.32
380.09	404.91
380.28	334.70
380.48	390.87
380.68	456.40
380.87	404.91
381.07	372.15
381.26	449.38
381.46	479.81
381.65	461.09
381.85	386.19
382.04	416.62
382.24	468.11
382.43	383.85
382.63	325.33
382.83	393.21
383.02	461.09
383.22	461.09
383.41	358.10
383.61	433.00
383.80	461.09
384.00	376.83
384.19	393.21
384.39	421.30
384.58	437.68
384.78	454.06
384.97	440.02
385.17	369.80
385.36	386.19
385.56	451.72
385.75	421.30
385.95	461.09
386.14	458.74
386.34	430.66
386.53	395.55
386.72	423.64
386.92	358.10
387.11	400.23
387.31	423.64
387.50	372.15
387.70	407.25
387.89	383.85
388.09	376.83
388.28	475.13
388.48	456.40
388.67	428.32
388.86	451.72
389.06	372.15
389.25	435.34
389.45	479.81
389.64	461.09
389.84	447.04
390.03	400.23
390.22	372.15
390.42	428.32
390.61	388.53
390.81	428.32
391.00	454.06
391.19	451.72
391.39	447.04
391.58	428.32
391.78	367.46
391.97	440.02
392.16	409.59
392.36	437.68
392.55	435.34
392.75	414.27
392.94	416.62
393.13	421.30
393.33	437.68
393.52	372.15
393.71	454.06
393.91	383.85
394.10	421.30
394.29	360.44
394.49	437.68
394.68	400.23
394.88	358.10
395.07	395.55
395.26	369.80
395.46	395.55
395.65	407.25
395.84	437.68
396.04	442.36
396.23	491.51
396.42	379.17
396.62	365.12
396.81	423.64
397.00	358.10
397.19	379.17
397.39	397.89
397.58	418.96
397.77	440.02
397.97	390.87
398.16	442.36
398.35	372.15
398.55	416.62
398.74	404.91
398.93	461.09
399.12	388.53
399.32	395.55
399.51	449.38
399.70	430.66
399.90	376.83
400.09	409.59
400.28	383.85
400.47	407.25
400.67	435.34
400.86	386.19
401.05	365.12
401.24	447.04
401.44	404.91
401.63	393.21
401.82	463.43
402.01	416.62
402.21	395.55
402.40	386.19
402.59	374.49
402.78	379.17
402.97	386.19
403.17	428.32
403.36	416.62
403.55	362.78
403.74	416.62
403.93	411.93
404.13	414.27
404.32	433.00
404.51	456.40
404.70	447.04
404.89	442.36
405.09	372.15
405.28	397.89
405.47	425.98
405.66	437.68
405.85	440.02
406.05	393.21
406.24	381.51
406.43	407.25
406.62	451.72
406.81	454.06
407.00	376.83
407.20	433.00
407.39	416.62
407.58	458.74
407.77	402.57
407.96	458.74
408.15	353.42
408.34	402.57
408.54	447.04
408.73	470.45
408.92	475.13
409.11	461.09
409.30	454.06
409.49	388.53
409.68	400.23
409.87	416.62
410.07	402.57
410.26	404.91
410.45	379.17
410.64	346.40
410.83	400.23
411.02	411.93
411.21	475.13
411.40	400.23
411.59	386.19
411.78	402.57
411.98	395.55
412.17	402.57
412.36	435.34
412.55	383.85
412.74	430.66
412.93	479.81
413.12	447.04
413.31	407.25
413.50	388.53
413.69	416.62
413.88	444.70
414.07	463.43
414.26	372.15
414.45	472.79
414.64	470.45
414.83	362.78
415.02	353.42
415.22	409.59
415.41	472.79
415.60	418.96
415.79	442.36
415.98	463.43
416.17	414.27
416.36	395.55
416.55	301.93
416.74	414.27
416.93	423.64
417.12	430.66
417.31	388.53
417.50	397.89
417.69	444.70
417.88	447.04
418.07	421.30
418.26	388.53
418.45	433.00
418.64	479.81
418.83	433.00
419.02	383.85
419.21	428.32
419.39	451.72
419.58	409.59
419.77	381.51
419.96	440.02
420.15	465.77
420.34	491.51
420.53	407.25
420.72	442.36
420.91	421.30
421.10	388.53
421.29	440.02
421.48	421.30
421.67	435.34
421.86	411.93
422.05	416.62
422.24	484.49
422.43	358.10
422.61	458.74
422.80	348.74
422.99	428.32
423.18	390.87
423.37	407.25
423.56	386.19
423.75	414.27
423.94	491.51
424.13	390.87
424.32	500.87
424.50	416.62
424.69	416.62
424.88	414.27
425.07	381.51
425.26	440.02
425.45	388.53
425.64	367.46
425.83	376.83
426.01	383.85
426.20	379.17
426.39	458.74
426.58	423.64
426.77	465.77
426.96	451.72
427.15	402.57
427.33	423.64
427.52	393.21
427.71	411.93
427.90	409.59
428.09	430.66
428.28	414.27
428.46	407.25
428.65	400.23
428.84	390.87
429.03	468.11
429.22	421.30
429.40	428.32
429.59	379.17
429.78	447.04
429.97	468.11
430.16	374.49
430.34	386.19
430.53	433.00
430.72	433.00
430.91	482.15
431.10	430.66
431.28	442.36
431.47	442.36
431.66	463.43
431.85	442.36
432.03	383.85
432.22	491.51
432.41	409.59
432.60	428.32
432.79	437.68
432.97	411.93
433.16	358.10
433.35	358.10
433.54	360.44
433.72	397.89
433.91	437.68
434.10	390.87
434.28	404.91
434.47	428.32
434.66	407.25
434.85	386.19
435.03	388.53
435.22	475.13
435.41	437.68
435.59	402.57
435.78	458.74
435.97	435.34
436.16	423.64
436.34	393.21
436.53	355.76
436.72	411.93
436.90	451.72
437.09	374.49
437.28	388.53
437.46	341.72
437.65	414.27
437.84	421.30
438.02	475.13
438.21	421.30
438.40	404.91
438.58	402.57
438.77	451.72
438.96	475.13
439.14	433.00
439.33	390.87
439.52	390.87
439.70	388.53
439.89	421.30
440.08	404.91
440.26	428.32
440.45	433.00
440.63	421.30
440.82	421.30
441.01	402.57
441.19	433.00
441.38	402.57
441.57	411.93
441.75	397.89
441.94	402.57
442.12	484.49
442.31	346.40
442.50	482.15
442.68	458.74
442.87	435.34
443.05	376.83
443.24	355.76
443.43	409.59
443.61	381.51
443.80	400.23
443.98	393.21
444.17	444.70
444.35	451.72
444.54	379.17
444.73	402.57
444.91	470.45
445.10	418.96
445.28	337.04
445.47	327.68
445.65	395.55
445.84	437.68
446.02	404.91
446.21	407.25
446.39	383.85
446.58	463.43
446.77	416.62
446.95	454.06
447.14	447.04
447.32	489.17
447.51	442.36
447.69	425.98
447.88	458.74
448.06	514.92
448.25	388.53
448.43	416.62
448.62	458.74
448.80	475.13
448.99	437.68
449.17	374.49
449.36	404.91
449.54	390.87
449.73	414.27
449.91	425.98
450.10	463.43
450.28	510.24
450.46	416.62
450.65	428.32
450.83	435.34
451.02	390.87
451.20	299.59
451.39	449.38
451.57	449.38
451.76	451.72
451.94	404.91
452.13	496.19
452.31	402.57
452.49	407.25
452.68	381.51
452.86	468.11
453.05	437.68
453.23	461.09
453.42	454.06
453.60	425.98
453.78	330.02
453.97	423.64
454.15	372.15
454.34	425.98
454.52	423.64
454.70	416.62
454.89	402.57
455.07	407.25
455.26	416.62
455.44	358.10
455.62	372.15
455.81	458.74
455.99	482.15
456.17	463.43
456.36	386.19
456.54	369.80
456.73	395.55
456.91	449.38
457.09	447.04
457.28	454.06
457.46	414.27
457.64	402.57
457.83	402.57
458.01	449.38
458.19	379.17
458.38	430.66
458.56	400.23
458.74	404.91
458.93	418.96
459.11	395.55
459.29	404.91
459.48	425.98
459.66	444.70
459.84	465.77
460.03	507.90
460.21	447.04
460.39	421.30
460.57	449.38
460.76	423.64
460.94	433.00
461.12	418.96
461.31	482.15
461.49	411.93
461.67	390.87
461.85	404.91
462.04	402.57
462.22	737.27
462.40	372.15
462.59	418.96
462.77	404.91
462.95	456.40
463.13	465.77
463.32	435.34
463.50	440.02
463.68	477.47
463.86	393.21
464.05	428.32
464.23	362.78
464.41	486.83
464.59	444.70
464.78	479.81
464.96	463.43
465.14	337.04
465.32	442.36
465.50	456.40
465.69	418.96
465.87	337.04
466.05	433.00
466.23	400.23
466.41	449.38
466.60	470.45
466.78	423.64
466.96	367.46
467.14	383.85
467.32	407.25
467.51	430.66
467.69	327.68
467.87	416.62
468.05	435.34
468.23	421.30
468.41	425.98
468.60	395.55
468.78	435.34
468.96	423.64
469.14	437.68
469.32	430.66
469.50	430.66
469.69	433.00
469.87	409.59
470.05	400.23
470.23	428.32
470.41	421.30
470.59	388.53
470.77	461.09
470.95	423.64
471.14	444.70
471.32	388.53
471.50	498.53
471.68	442.36
471.86	407.25
472.04	402.57
472.22	423.64
472.40	404.91
472.58	449.38
472.77	435.34
472.95	400.23
473.13	461.09
473.31	442.36
473.49	362.78
473.67	397.89
473.85	404.91
474.03	414.27
474.21	482.15
474.39	519.60
474.57	470.45
474.75	484.49
474.93	428.32
475.12	397.89
475.30	449.38
475.48	381.51
475.66	472.79
475.84	428.32
476.02	447.04
476.20	454.06
476.38	442.36
476.56	475.13
476.74	381.51
476.92	447.04
477.10	503.22
477.28	451.72
477.46	428.32
477.64	400.23
477.82	458.74
478.00	362.78
478.18	425.98
478.36	395.55
478.54	437.68
478.72	374.49
478.90	365.12
479.08	456.40
479.26	454.06
479.44	320.65
479.62	365.12
479.80	435.34
479.98	388.53
480.16	379.17
480.34	470.45
480.52	362.78
480.70	348.74
480.88	334.70
481.06	461.09
481.24	444.70
481.41	437.68
481.59	449.38
481.77	411.93
481.95	395.55
482.13	475.13
482.31	442.36
482.49	435.34
482.67	461.09
482.85	409.59
483.03	456.40
483.21	414.27
483.39	416.62
483.57	440.02
483.74	456.40
483.92	423.64
484.10	388.53
484.28	468.11
484.46	500.87
484.64	379.17
484.82	421.30
485.00	407.25
485.18	421.30
485.35	482.15
485.53	409.59
485.71	395.55
485.89	409.59
486.07	409.59
486.25	400.23
486.43	433.00
486.61	437.68
486.78	388.53
486.96	430.66
487.14	454.06
487.32	383.85
487.50	435.34
487.68	386.19
487.85	400.23
488.03	402.57
488.21	465.77
488.39	444.70
488.57	433.00
488.75	355.76
488.92	585.13
489.10	470.45
489.28	407.25
489.46	390.87
489.64	388.53
489.81	444.70
489.99	535.98
490.17	346.40
490.35	475.13
490.53	440.02
490.70	355.76
490.88	425.98
491.06	362.78
491.24	423.64
491.41	458.74
491.59	433.00
491.77	470.45
491.95	409.59
492.13	397.89
492.30	379.17
492.48	362.78
492.66	395.55
492.84	379.17
493.01	479.81
493.19	418.96
493.37	482.15
493.54	383.85
493.72	393.21
493.90	411.93
494.08	468.11
494.25	409.59
494.43	374.49
494.61	374.49
494.79	409.59
494.96	433.00
495.14	416.62
495.32	447.04
495.49	468.11
495.67	482.15
495.85	327.68
496.02	472.79
496.20	400.23
496.38	423.64
496.55	442.36
496.73	437.68
496.91	435.34
497.09	468.11
497.26	360.44
497.44	470.45
497.62	404.91
497.79	388.53
497.97	397.89
498.14	433.00
498.32	458.74
498.50	468.11
498.67	362.78
498.85	409.59
499.03	425.98
499.20	423.64
499.38	402.57
499.56	400.23
499.73	463.43
499.91	505.56
500.08	428.32
500.26	486.83
500.44	421.30
500.61	447.04
500.79	376.83
500.97	416.62
501.14	440.02
501.32	393.21
501.49	454.06
501.67	477.47
501.84	400.23
502.02	433.00
502.20	376.83
502.37	416.62
502.55	411.93
502.72	383.85
502.90	353.42
503.07	421.30
503.25	491.51
503.43	425.98
503.60	360.44
503.78	421.30
503.95	435.34
504.13	444.70
504.30	386.19
504.48	372.15
504.65	442.36
504.83	454.06
505.01	409.59
505.18	456.40
505.36	344.06
505.53	383.85
505.71	428.32
505.88	425.98
506.06	407.25
506.23	395.55
506.41	358.10
506.58	440.02
506.76	418.96
506.93	358.10
507.11	404.91
507.28	416.62
507.46	468.11
507.63	390.87
507.81	411.93
507.98	400.23
508.16	416.62
508.33	409.59
508.50	397.89
508.68	365.12
508.85	442.36
509.03	463.43
509.20	395.55
509.38	404.91
509.55	442.36
509.73	444.70
509.90	433.00
510.08	456.40
510.25	397.89
510.42	418.96
510.60	442.36
510.77	447.04
510.95	447.04
511.12	421.30
511.30	449.38
511.47	449.38
511.64	425.98
511.82	423.64
511.99	381.51
512.17	423.64
512.34	395.55
512.51	463.43
512.69	470.45
512.86	482.15
513.04	421.30
513.21	470.45
513.38	442.36
513.56	390.87
513.73	411.93
513.90	400.23
514.08	461.09
514.25	444.70
514.43	407.25
514.60	397.89
514.77	341.72
514.95	414.27
515.12	404.91
515.29	444.70
515.47	390.87
515.64	365.12
515.81	444.70
515.99	411.93
516.16	358.10
516.33	435.34
516.51	440.02
516.68	388.53
516.85	449.38
517.03	386.19
517.20	425.98
517.37	435.34
517.54	411.93
517.72	482.15
517.89	433.00
518.06	421.30
518.24	482.15
518.41	447.04
518.58	423.64
518.75	416.62
518.93	428.32
519.10	447.04
519.27	435.34
519.45	430.66
519.62	411.93
519.79	425.98
519.96	407.25
520.14	379.17
520.31	404.91
520.48	360.44
520.65	404.91
520.83	461.09
521.00	456.40
521.17	428.32
521.34	461.09
521.52	449.38
521.69	414.27
521.86	407.25
522.03	526.62
522.20	447.04
522.38	479.81
522.55	393.21
522.72	376.83
522.89	454.06
523.07	496.19
523.24	390.87
523.41	339.38
523.58	463.43
523.75	407.25
523.92	379.17
524.10	372.15
524.27	372.15
524.44	433.00
524.61	447.04
524.78	489.17
524.96	395.55
525.13	353.42
525.30	514.92
525.47	454.06
525.64	458.74
525.81	444.70
525.98	444.70
526.16	390.87
526.33	395.55
526.50	348.74
526.67	416.62
526.84	461.09
527.01	458.74
527.18	351.08
527.36	428.32
527.53	400.23
527.70	463.43
527.87	444.70
528.04	482.15
528.21	411.93
528.38	435.34
528.55	435.34
528.72	428.32
528.89	463.43
529.07	388.53
529.24	414.27
529.41	437.68
529.58	416.62
529.75	369.80
529.92	430.66
530.09	442.36
530.26	430.66
530.43	358.10
530.60	421.30
530.77	458.74
530.94	407.25
531.11	435.34
531.28	437.68
531.46	404.91
531.63	491.51
531.80	393.21
531.97	447.04
532.14	400.23
532.31	449.38
532.48	402.57
532.65	376.83
532.82	430.66
532.99	517.26
533.16	458.74
533.33	402.57
533.50	379.17
533.67	386.19
533.84	407.25
534.01	444.70
534.18	470.45
534.35	440.02
534.52	402.57
534.69	435.34
534.86	379.17
535.03	425.98
535.20	395.55
535.37	435.34
535.54	470.45
535.71	423.64
535.88	407.25
536.05	423.64
536.22	456.40
536.38	409.59
536.55	360.44
536.72	442.36
536.89	369.80
537.06	430.66
537.23	383.85
537.40	449.38
537.57	442.36
537.74	404.91
537.91	400.23
538.08	407.25
538.25	360.44
538.42	451.72
538.59	447.04
538.75	416.62
538.92	416.62
539.09	423.64
539.26	449.38
539.43	456.40
539.60	381.51
539.77	411.93
539.94	449.38
540.11	440.02
540.28	442.36
540.44	435.34
540.61	454.06
540.78	393.21
540.95	407.25
541.12	428.32
541.29	414.27
541.46	416.62
541.62	484.49
541.79	505.56
541.96	423.64
542.13	376.83
542.30	393.21
542.47	433.00
542.63	425.98
542.80	470.45
542.97	409.59
543.14	346.40
543.31	402.57
543.48	355.76
543.64	360.44
543.81	477.47
543.98	482.15
544.15	372.15
544.32	461.09
544.48	374.49
544.65	449.38
544.82	407.25
544.99	475.13
545.16	383.85
545.32	383.85
545.49	416.62
545.66	414.27
545.83	456.40
546.00	433.00
546.16	411.93
546.33	440.02
546.50	454.06
546.67	421.30
546.83	418.96
547.00	404.91
547.17	409.59
547.34	437.68
547.50	402.57
547.67	437.68
547.84	435.34
548.00	395.55
548.17	400.23
548.34	416.62
548.51	465.77
548.67	425.98
548.84	362.78
549.01	397.89
549.18	395.55
549.34	404.91
549.51	351.08
549.68	369.80
549.84	433.00
550.01	362.78
550.18	437.68
550.34	463.43
550.51	444.70
550.68	404.91
550.84	383.85
551.01	433.00
551.18	372.15
551.34	465.77
551.51	463.43
551.68	425.98
551.84	409.59
552.01	379.17
552.18	416.62
552.34	482.15
552.51	475.13
552.68	379.17
552.84	465.77
553.01	393.21
553.18	430.66
553.34	477.47
553.51	425.98
553.67	456.40
553.84	533.64
554.01	416.62
554.17	409.59
554.34	355.76
554.51	468.11
554.67	421.30
554.84	397.89
555.00	397.89
555.17	425.98
555.33	381.51
555.50	402.57
555.67	440.02
555.83	358.10
556.00	388.53
556.16	491.51
556.33	454.06
556.50	479.81
556.66	444.70
556.83	484.49
556.99	463.43
557.16	470.45
557.32	456.40
557.49	390.87
557.65	423.64
557.82	447.04
557.98	458.74
558.15	421.30
558.32	376.83
558.48	493.85
558.65	397.89
558.81	397.89
558.98	477.47
559.14	395.55
559.31	416.62
559.47	425.98
559.64	372.15
559.80	416.62
559.97	383.85
560.13	425.98
560.30	430.66
560.46	421.30
560.63	390.87
560.79	437.68
560.96	381.51
561.12	395.55
561.29	458.74
561.45	425.98
561.61	407.25
561.78	449.38
561.94	449.38
562.11	414.27
562.27	451.72
562.44	447.04
562.60	381.51
562.77	409.59
562.93	512.58
563.10	489.17
563.26	449.38
563.42	451.72
563.59	402.57
563.75	353.42
563.92	421.30
564.08	451.72
564.24	472.79
564.41	428.32
564.57	388.53
564.74	416.62
564.90	468.11
565.07	442.36
565.23	442.36
565.39	386.19
565.56	475.13
565.72	390.87
565.88	416.62
566.05	451.72
566.21	386.19
566.38	372.15
566.54	425.98
566.70	428.32
566.87	418.96
567.03	358.10
567.19	372.15
567.36	425.98
567.52	386.19
567.68	393.21
567.85	465.77
568.01	447.04
568.17	454.06
568.34	386.19
568.50	440.02
568.66	461.09
568.83	510.24
568.99	449.38
569.15	454.06
569.32	454.06
569.48	430.66
569.64	365.12
569.81	456.40
569.97	435.34
570.13	404.91
570.30	341.72
570.46	390.87
570.62	423.64
570.78	444.70
570.95	397.89
571.11	416.62
571.27	433.00
571.43	374.49
571.60	395.55
571.76	409.59
571.92	442.36
572.09	411.93
572.25	421.30
572.41	390.87
572.57	409.59
572.74	463.43
572.90	456.40
573.06	381.51
573.22	421.30
573.38	425.98
573.55	416.62
573.71	428.32
573.87	360.44
574.03	458.74
574.20	416.62
574.36	430.66
574.52	416.62
574.68	425.98
574.84	421.30
575.01	440.02
575.17	416.62
575.33	407.25
575.49	409.59
575.65	486.83
575.82	383.85
575.98	433.00
576.14	442.36
576.30	418.96
576.46	447.04
576.62	430.66
576.79	414.27
576.95	437.68
577.11	491.51
577.27	416.62
577.43	379.17
577.59	397.89
577.75	388.53
577.92	416.62
578.08	449.38
578.24	379.17
578.40	451.72
578.56	400.23
578.72	486.83
578.88	376.83
579.04	379.17
579.21	433.00
579.37	402.57
579.53	458.74
579.69	519.60
579.85	435.34
580.01	435.34
580.17	428.32
580.33	397.89
580.49	486.83
580.65	362.78
580.82	407.25
580.98	423.64
581.14	400.23
581.30	440.02
581.46	379.17
581.62	397.89
581.78	414.27
581.94	433.00
582.10	400.23
582.26	423.64
582.42	397.89
582.58	451.72
582.74	458.74
582.90	407.25
583.06	393.21
583.22	409.59
583.38	386.19
583.54	372.15
583.70	421.30
583.86	421.30
584.02	390.87
584.18	461.09
584.34	339.38
584.50	442.36
584.66	484.49
584.82	402.57
584.98	379.17
585.14	442.36
585.30	355.76
585.46	447.04
585.62	358.10
585.78	433.00
585.94	449.38
586.10	386.19
586.26	465.77
586.42	482.15
586.58	470.45
586.74	472.79
586.90	447.04
587.06	393.21
587.22	454.06
587.38	440.02
587.54	461.09
587.70	425.98
587.86	402.57
588.02	463.43
588.18	468.11
588.34	458.74
588.49	402.57
588.65	486.83
588.81	386.19
588.97	332.36
589.13	477.47
589.29	414.27
589.45	449.38
589.61	465.77
589.77	397.89
589.93	402.57
590.08	416.62
590.24	407.25
590.40	402.57
590.56	486.83
590.72	409.59
590.88	374.49
591.04	374.49
591.20	407.25
591.35	472.79
591.51	379.17
591.67	416.62
591.83	465.77
591.99	435.34
592.15	458.74
592.31	414.27
592.46	451.72
592.62	400.23
592.78	484.49
592.94	409.59
593.10	374.49
593.26	404.91
593.41	397.89
593.57	472.79
593.73	447.04
593.89	386.19
594.05	468.11
594.20	334.70
594.36	470.45
594.52	313.63
594.68	451.72
594.84	421.30
594.99	407.25
595.15	390.87
595.31	407.25
595.47	496.19
595.62	414.27
595.78	341.72
595.94	435.34
596.10	524.28
596.25	465.77
596.41	400.23
596.57	362.78
596.73	315.97
596.88	454.06
597.04	411.93
597.20	339.38
597.36	461.09
597.51	400.23
597.67	465.77
597.83	390.87
597.99	440.02
598.14	418.96
598.30	435.34
598.46	374.49
598.61	447.04
598.77	423.64
598.93	372.15
599.09	337.04
599.24	383.85
599.40	425.98
599.56	325.33
599.71	425.98
599.87	461.09
600.03	493.85
600.18	458.74
600.34	404.91
600.50	416.62
600.65	411.93
600.81	456.40
600.97	468.11
601.12	447.04
601.28	428.32
601.44	428.32
601.59	437.68
601.75	416.62
601.91	381.51
602.06	449.38
602.22	507.90
602.37	428.32
602.53	379.17
602.69	409.59
602.84	374.49
603.00	372.15
603.16	468.11
603.31	369.80
603.47	454.06
603.62	482.15
603.78	435.34
603.94	322.99
604.09	472.79
604.25	421.30
604.40	390.87
604.56	386.19
604.71	423.64
604.87	339.38
605.03	404.91
605.18	388.53
605.34	479.81
605.49	468.11
605.65	421.30
605.80	449.38
605.96	400.23
606.12	423.64
606.27	365.12
606.43	442.36
606.58	383.85
606.74	423.64
606.89	374.49
607.05	409.59
607.20	430.66
607.36	393.21
607.51	437.68
607.67	388.53
607.82	430.66
607.98	458.74
608.13	421.30
608.29	374.49
608.44	463.43
608.60	416.62
608.75	496.19
608.91	510.24
609.06	409.59
609.22	409.59
609.37	374.49
609.53	400.23
609.68	397.89
609.84	379.17
609.99	411.93
610.15	442.36
