SpectraSuite Data File
++++++++++++++++++++++++++++++++++++
Date: Fri Oct 25 12:11:24 EDT 2013
User: price-jones
Dark Spectrum Present: No
Reference Spectrum Present: No
Number of Sampled Component Spectra: 1
Spectrometers: USB2+H05261
Integration Time (usec): 100000 (USB2+H05261)
Spectra Averaged: 1 (USB2+H05261)
Boxcar Smoothing: 0 (USB2+H05261)
Correct for Electrical Dark: No (USB2+H05261)
Strobe/Lamp Enabled: No (USB2+H05261)
Correct for Detector Non-linearity: No (USB2+H05261)
Correct for Stray Light: No (USB2+H05261)
Number of Pixels in Processed Spectrum: 2048
>>>>>Begin Processed Spectral Data<<<<<
365.73	355.76
365.92	355.76
366.12	355.76
366.32	215.33
366.52	283.20
366.72	290.23
366.91	269.16
367.11	227.03
367.31	264.48
367.51	292.57
367.70	224.69
367.90	320.65
368.10	224.69
368.30	264.48
368.49	271.50
368.69	252.78
368.89	243.42
369.09	262.14
369.28	271.50
369.48	278.52
369.68	264.48
369.87	308.95
370.07	287.89
370.27	287.89
370.47	318.31
370.66	299.59
370.86	360.44
371.06	365.12
371.25	447.04
371.45	367.46
371.65	346.40
371.84	351.08
372.04	355.76
372.24	358.10
372.44	433.00
372.63	468.11
372.83	402.57
373.03	381.51
373.22	330.02
373.42	444.70
373.62	365.12
373.81	367.46
374.01	407.25
374.21	496.19
374.40	379.17
374.60	407.25
374.79	400.23
374.99	433.00
375.19	442.36
375.38	440.02
375.58	400.23
375.78	437.68
375.97	442.36
376.17	400.23
376.37	341.72
376.56	468.11
376.76	411.93
376.95	383.85
377.15	458.74
377.35	348.74
377.54	456.40
377.74	425.98
377.93	381.51
378.13	395.55
378.33	383.85
378.52	400.23
378.72	440.02
378.91	355.76
379.11	304.27
379.31	440.02
379.50	400.23
379.70	388.53
379.89	461.09
380.09	388.53
380.28	353.42
380.48	444.70
380.68	348.74
380.87	414.27
381.07	428.32
381.26	461.09
381.46	430.66
381.65	393.21
381.85	425.98
382.04	325.33
382.24	472.79
382.43	477.47
382.63	440.02
382.83	327.68
383.02	433.00
383.22	507.90
383.41	493.85
383.61	381.51
383.80	440.02
384.00	358.10
384.19	433.00
384.39	442.36
384.58	381.51
384.78	437.68
384.97	341.72
385.17	430.66
385.36	372.15
385.56	414.27
385.75	411.93
385.95	440.02
386.14	491.51
386.34	430.66
386.53	383.85
386.72	440.02
386.92	407.25
387.11	423.64
387.31	404.91
387.50	416.62
387.70	367.46
387.89	435.34
388.09	404.91
388.28	435.34
388.48	351.08
388.67	447.04
388.86	402.57
389.06	372.15
389.25	430.66
389.45	411.93
389.64	423.64
389.84	397.89
390.03	442.36
390.22	346.40
390.42	346.40
390.61	374.49
390.81	407.25
391.00	353.42
391.19	437.68
391.39	425.98
391.58	433.00
391.78	374.49
391.97	407.25
392.16	458.74
392.36	395.55
392.55	381.51
392.75	433.00
392.94	440.02
393.13	418.96
393.33	416.62
393.52	416.62
393.71	479.81
393.91	400.23
394.10	433.00
394.29	374.49
394.49	369.80
394.68	341.72
394.88	402.57
395.07	337.04
395.26	376.83
395.46	458.74
395.65	493.85
395.84	407.25
396.04	477.47
396.23	447.04
396.42	327.68
396.62	440.02
396.81	393.21
397.00	503.22
397.19	454.06
397.39	400.23
397.58	442.36
397.77	360.44
397.97	386.19
398.16	409.59
398.35	409.59
398.55	386.19
398.74	423.64
398.93	341.72
399.12	449.38
399.32	400.23
399.51	447.04
399.70	404.91
399.90	390.87
400.09	379.17
400.28	425.98
400.47	395.55
400.67	386.19
400.86	367.46
401.05	414.27
401.24	437.68
401.44	393.21
401.63	435.34
401.82	407.25
402.01	402.57
402.21	367.46
402.40	430.66
402.59	428.32
402.78	341.72
402.97	414.27
403.17	358.10
403.36	470.45
403.55	358.10
403.74	451.72
403.93	444.70
404.13	468.11
404.32	358.10
404.51	423.64
404.70	435.34
404.89	409.59
405.09	449.38
405.28	421.30
405.47	449.38
405.66	390.87
405.85	416.62
406.05	428.32
406.24	379.17
406.43	425.98
406.62	425.98
406.81	496.19
407.00	423.64
407.20	402.57
407.39	402.57
407.58	402.57
407.77	468.11
407.96	444.70
408.15	444.70
408.34	425.98
408.54	381.51
408.73	484.49
408.92	463.43
409.11	388.53
409.30	423.64
409.49	449.38
409.68	411.93
409.87	479.81
410.07	393.21
410.26	381.51
410.45	409.59
410.64	444.70
410.83	402.57
411.02	489.17
411.21	468.11
411.40	451.72
411.59	458.74
411.78	425.98
411.98	409.59
412.17	451.72
412.36	421.30
412.55	325.33
412.74	500.87
412.93	493.85
413.12	386.19
413.31	386.19
413.50	360.44
413.69	388.53
413.88	369.80
414.07	454.06
414.26	372.15
414.45	416.62
414.64	351.08
414.83	395.55
415.02	449.38
415.22	393.21
415.41	447.04
415.60	386.19
415.79	435.34
415.98	454.06
416.17	381.51
416.36	491.51
416.55	374.49
416.74	397.89
416.93	365.12
417.12	423.64
417.31	360.44
417.50	409.59
417.69	475.13
417.88	451.72
418.07	437.68
418.26	365.12
418.45	374.49
418.64	430.66
418.83	400.23
419.02	433.00
419.21	374.49
419.39	418.96
419.58	411.93
419.77	416.62
419.96	402.57
420.15	472.79
420.34	414.27
420.53	383.85
420.72	355.76
420.91	428.32
421.10	360.44
421.29	374.49
421.48	449.38
421.67	430.66
421.86	341.72
422.05	407.25
422.24	411.93
422.43	433.00
422.61	372.15
422.80	397.89
422.99	428.32
423.18	465.77
423.37	425.98
423.56	442.36
423.75	411.93
423.94	379.17
424.13	346.40
424.32	416.62
424.50	416.62
424.69	402.57
424.88	449.38
425.07	451.72
425.26	386.19
425.45	461.09
425.64	404.91
425.83	489.17
426.01	395.55
426.20	369.80
426.39	346.40
426.58	404.91
426.77	402.57
426.96	407.25
427.15	407.25
427.33	409.59
427.52	400.23
427.71	458.74
427.90	400.23
428.09	374.49
428.28	458.74
428.46	437.68
428.65	379.17
428.84	351.08
429.03	491.51
429.22	447.04
429.40	430.66
429.59	397.89
429.78	433.00
429.97	428.32
430.16	425.98
430.34	360.44
430.53	423.64
430.72	402.57
430.91	451.72
431.10	351.08
431.28	423.64
431.47	425.98
431.66	369.80
431.85	444.70
432.03	425.98
432.22	510.24
432.41	486.83
432.60	351.08
432.79	416.62
432.97	428.32
433.16	330.02
433.35	369.80
433.54	456.40
433.72	458.74
433.91	400.23
434.10	383.85
434.28	358.10
434.47	433.00
434.66	458.74
434.85	397.89
435.03	423.64
435.22	468.11
435.41	470.45
435.59	390.87
435.78	360.44
435.97	428.32
436.16	337.04
436.34	418.96
436.53	383.85
436.72	395.55
436.90	440.02
437.09	437.68
437.28	411.93
437.46	379.17
437.65	491.51
437.84	409.59
438.02	411.93
438.21	491.51
438.40	346.40
438.58	346.40
438.77	386.19
438.96	381.51
439.14	386.19
439.33	428.32
439.52	430.66
439.70	435.34
439.89	416.62
440.08	437.68
440.26	531.30
440.45	404.91
440.63	402.57
440.82	482.15
441.01	470.45
441.19	458.74
441.38	425.98
441.57	320.65
441.75	461.09
441.94	397.89
442.12	454.06
442.31	346.40
442.50	353.42
442.68	416.62
442.87	505.56
443.05	458.74
443.24	430.66
443.43	437.68
443.61	449.38
443.80	393.21
443.98	456.40
444.17	393.21
444.35	433.00
444.54	390.87
444.73	393.21
444.91	416.62
445.10	430.66
445.28	407.25
445.47	409.59
445.65	465.77
445.84	400.23
446.02	400.23
446.21	411.93
446.39	383.85
446.58	482.15
446.77	383.85
446.95	418.96
447.14	440.02
447.32	418.96
447.51	418.96
447.69	430.66
447.88	400.23
448.06	451.72
448.25	402.57
448.43	416.62
448.62	458.74
448.80	351.08
448.99	400.23
449.17	407.25
449.36	482.15
449.54	472.79
449.73	393.21
449.91	433.00
450.10	425.98
450.28	456.40
450.46	489.17
450.65	468.11
450.83	383.85
451.02	346.40
451.20	383.85
451.39	435.34
451.57	393.21
451.76	428.32
451.94	430.66
452.13	423.64
452.31	456.40
452.49	477.47
452.68	388.53
452.86	463.43
453.05	449.38
453.23	402.57
453.42	367.46
453.60	458.74
453.78	425.98
453.97	447.04
454.15	404.91
454.34	416.62
454.52	442.36
454.70	414.27
454.89	491.51
455.07	381.51
455.26	414.27
455.44	454.06
455.62	472.79
455.81	433.00
455.99	402.57
456.17	416.62
456.36	400.23
456.54	437.68
456.73	390.87
456.91	437.68
457.09	430.66
457.28	383.85
457.46	330.02
457.64	463.43
457.83	440.02
458.01	404.91
458.19	449.38
458.38	437.68
458.56	402.57
458.74	395.55
458.93	430.66
459.11	395.55
459.29	400.23
459.48	393.21
459.66	411.93
459.84	430.66
460.03	437.68
460.21	414.27
460.39	447.04
460.57	388.53
460.76	402.57
460.94	421.30
461.12	407.25
461.31	437.68
461.49	374.49
461.67	493.85
461.85	423.64
462.04	468.11
462.22	833.23
462.40	397.89
462.59	442.36
462.77	372.15
462.95	491.51
463.13	440.02
463.32	374.49
463.50	376.83
463.68	465.77
463.86	435.34
464.05	458.74
464.23	465.77
464.41	411.93
464.59	423.64
464.78	369.80
464.96	423.64
465.14	400.23
465.32	465.77
465.50	458.74
465.69	472.79
465.87	404.91
466.05	425.98
466.23	435.34
466.41	362.78
466.60	458.74
466.78	421.30
466.96	491.51
467.14	369.80
467.32	365.12
467.51	472.79
467.69	372.15
467.87	456.40
468.05	437.68
468.23	465.77
468.41	430.66
468.60	414.27
468.78	461.09
468.96	435.34
469.14	454.06
469.32	458.74
469.50	416.62
469.69	390.87
469.87	435.34
470.05	442.36
470.23	528.96
470.41	440.02
470.59	409.59
470.77	400.23
470.95	383.85
471.14	367.46
471.32	407.25
471.50	411.93
471.68	437.68
471.86	411.93
472.04	433.00
472.22	358.10
472.40	409.59
472.58	393.21
472.77	428.32
472.95	407.25
473.13	514.92
473.31	411.93
473.49	411.93
473.67	423.64
473.85	437.68
474.03	423.64
474.21	423.64
474.39	425.98
474.57	500.87
474.75	367.46
474.93	465.77
475.12	327.68
475.30	414.27
475.48	395.55
475.66	397.89
475.84	416.62
476.02	390.87
476.20	444.70
476.38	423.64
476.56	449.38
476.74	449.38
476.92	372.15
477.10	416.62
477.28	463.43
477.46	440.02
477.64	437.68
477.82	367.46
478.00	479.81
478.18	423.64
478.36	381.51
478.54	416.62
478.72	409.59
478.90	423.64
479.08	362.78
479.26	362.78
479.44	463.43
479.62	376.83
479.80	379.17
479.98	376.83
480.16	388.53
480.34	440.02
480.52	379.17
480.70	390.87
480.88	411.93
481.06	414.27
481.24	404.91
481.41	437.68
481.59	447.04
481.77	468.11
481.95	344.06
482.13	411.93
482.31	395.55
482.49	430.66
482.67	411.93
482.85	402.57
483.03	442.36
483.21	360.44
483.39	339.38
483.57	397.89
483.74	454.06
483.92	437.68
484.10	372.15
484.28	409.59
484.46	472.79
484.64	421.30
484.82	440.02
485.00	407.25
485.18	393.21
485.35	404.91
485.53	435.34
485.71	411.93
485.89	339.38
486.07	421.30
486.25	489.17
486.43	381.51
486.61	451.72
486.78	444.70
486.96	437.68
487.14	402.57
487.32	440.02
487.50	393.21
487.68	475.13
487.85	390.87
488.03	430.66
488.21	451.72
488.39	388.53
488.57	451.72
488.75	468.11
488.92	557.05
489.10	442.36
489.28	404.91
489.46	414.27
489.64	379.17
489.81	381.51
489.99	379.17
490.17	379.17
490.35	470.45
490.53	444.70
490.70	465.77
490.88	421.30
491.06	425.98
491.24	428.32
491.41	416.62
491.59	430.66
491.77	395.55
491.95	454.06
492.13	454.06
492.30	402.57
492.48	369.80
492.66	362.78
492.84	393.21
493.01	383.85
493.19	397.89
493.37	411.93
493.54	383.85
493.72	475.13
493.90	365.12
494.08	421.30
494.25	397.89
494.43	437.68
494.61	390.87
494.79	407.25
494.96	362.78
495.14	397.89
495.32	334.70
495.49	409.59
495.67	395.55
495.85	362.78
496.02	447.04
496.20	514.92
496.38	379.17
496.55	423.64
496.73	440.02
496.91	421.30
497.09	383.85
497.26	386.19
497.44	400.23
497.62	421.30
497.79	400.23
497.97	442.36
498.14	355.76
498.32	447.04
498.50	407.25
498.67	416.62
498.85	472.79
499.03	393.21
499.20	337.04
499.38	404.91
499.56	421.30
499.73	447.04
499.91	468.11
500.08	449.38
500.26	433.00
500.44	433.00
500.61	414.27
500.79	388.53
500.97	428.32
501.14	437.68
501.32	404.91
501.49	421.30
501.67	308.95
501.84	447.04
502.02	400.23
502.20	411.93
502.37	442.36
502.55	409.59
502.72	381.51
502.90	444.70
503.07	463.43
503.25	456.40
503.43	404.91
503.60	418.96
503.78	442.36
503.95	440.02
504.13	369.80
504.30	435.34
504.48	437.68
504.65	390.87
504.83	433.00
505.01	379.17
505.18	390.87
505.36	397.89
505.53	505.56
505.71	442.36
505.88	407.25
506.06	435.34
506.23	388.53
506.41	454.06
506.58	407.25
506.76	418.96
506.93	428.32
507.11	463.43
507.28	414.27
507.46	365.12
507.63	428.32
507.81	362.78
507.98	416.62
508.16	414.27
508.33	435.34
508.50	484.49
508.68	400.23
508.85	388.53
509.03	440.02
509.20	367.46
509.38	369.80
509.55	395.55
509.73	430.66
509.90	465.77
510.08	383.85
510.25	442.36
510.42	402.57
510.60	430.66
510.77	358.10
510.95	454.06
511.12	381.51
511.30	397.89
511.47	369.80
511.64	423.64
511.82	409.59
511.99	416.62
512.17	470.45
512.34	461.09
512.51	449.38
512.69	458.74
512.86	425.98
513.04	369.80
513.21	348.74
513.38	383.85
513.56	362.78
513.73	470.45
513.90	348.74
514.08	400.23
514.25	418.96
514.43	374.49
514.60	454.06
514.77	411.93
514.95	463.43
515.12	440.02
515.29	379.17
515.47	344.06
515.64	395.55
515.81	421.30
515.99	475.13
516.16	456.40
516.33	402.57
516.51	458.74
516.68	374.49
516.85	430.66
517.03	393.21
517.20	358.10
517.37	423.64
517.54	458.74
517.72	381.51
517.89	407.25
518.06	330.02
518.24	500.87
518.41	519.60
518.58	409.59
518.75	402.57
518.93	477.47
519.10	463.43
519.27	484.49
519.45	351.08
519.62	421.30
519.79	491.51
519.96	465.77
520.14	381.51
520.31	463.43
520.48	470.45
520.65	493.85
520.83	479.81
521.00	456.40
521.17	388.53
521.34	390.87
521.52	425.98
521.69	423.64
521.86	397.89
522.03	379.17
522.20	390.87
522.38	416.62
522.55	390.87
522.72	447.04
522.89	397.89
523.07	437.68
523.24	411.93
523.41	386.19
523.58	379.17
523.75	404.91
523.92	423.64
524.10	393.21
524.27	425.98
524.44	411.93
524.61	449.38
524.78	381.51
524.96	369.80
525.13	454.06
525.30	456.40
525.47	440.02
525.64	498.53
525.81	447.04
525.98	444.70
526.16	454.06
526.33	386.19
526.50	381.51
526.67	348.74
526.84	367.46
527.01	372.15
527.18	407.25
527.36	465.77
527.53	447.04
527.70	395.55
527.87	416.62
528.04	512.58
528.21	414.27
528.38	479.81
528.55	425.98
528.72	400.23
528.89	411.93
529.07	435.34
529.24	416.62
529.41	423.64
529.58	395.55
529.75	440.02
529.92	456.40
530.09	475.13
530.26	468.11
530.43	416.62
530.60	468.11
530.77	425.98
530.94	503.22
531.11	430.66
531.28	449.38
531.46	433.00
531.63	472.79
531.80	447.04
531.97	444.70
532.14	397.89
532.31	383.85
532.48	470.45
532.65	440.02
532.82	400.23
532.99	437.68
533.16	418.96
533.33	388.53
533.50	475.13
533.67	428.32
533.84	475.13
534.01	418.96
534.18	390.87
534.35	386.19
534.52	383.85
534.69	402.57
534.86	344.06
535.03	402.57
535.20	430.66
535.37	447.04
535.54	428.32
535.71	425.98
535.88	437.68
536.05	456.40
536.22	477.47
536.38	346.40
536.55	379.17
536.72	423.64
536.89	449.38
537.06	454.06
537.23	440.02
537.40	337.04
537.57	400.23
537.74	442.36
537.91	407.25
538.08	409.59
538.25	433.00
538.42	367.46
538.59	437.68
538.75	344.06
538.92	372.15
539.09	423.64
539.26	393.21
539.43	500.87
539.60	397.89
539.77	416.62
539.94	423.64
540.11	407.25
540.28	472.79
540.44	423.64
540.61	425.98
540.78	486.83
540.95	388.53
541.12	425.98
541.29	407.25
541.46	442.36
541.62	449.38
541.79	402.57
541.96	402.57
542.13	404.91
542.30	386.19
542.47	472.79
542.63	421.30
542.80	447.04
542.97	400.23
543.14	393.21
543.31	435.34
543.48	365.12
543.64	393.21
543.81	355.76
543.98	414.27
544.15	409.59
544.32	430.66
544.48	402.57
544.65	404.91
544.82	397.89
544.99	428.32
545.16	430.66
545.32	320.65
545.49	362.78
545.66	402.57
545.83	379.17
546.00	475.13
546.16	449.38
546.33	411.93
546.50	470.45
546.67	411.93
546.83	430.66
547.00	416.62
547.17	430.66
547.34	456.40
547.50	418.96
547.67	428.32
547.84	411.93
548.00	425.98
548.17	416.62
548.34	458.74
548.51	451.72
548.67	411.93
548.84	454.06
549.01	390.87
549.18	423.64
549.34	409.59
549.51	454.06
549.68	440.02
549.84	461.09
550.01	421.30
550.18	468.11
550.34	451.72
550.51	388.53
550.68	454.06
550.84	489.17
551.01	428.32
551.18	395.55
551.34	365.12
551.51	444.70
551.68	425.98
551.84	423.64
552.01	451.72
552.18	418.96
552.34	367.46
552.51	493.85
552.68	458.74
552.84	463.43
553.01	463.43
553.18	458.74
553.34	451.72
553.51	327.68
553.67	482.15
553.84	440.02
554.01	400.23
554.17	510.24
554.34	442.36
554.51	409.59
554.67	430.66
554.84	407.25
555.00	400.23
555.17	433.00
555.33	454.06
555.50	449.38
555.67	418.96
555.83	409.59
556.00	472.79
556.16	547.69
556.33	491.51
556.50	414.27
556.66	395.55
556.83	327.68
556.99	458.74
557.16	468.11
557.32	444.70
557.49	393.21
557.65	418.96
557.82	423.64
557.98	491.51
558.15	428.32
558.32	470.45
558.48	416.62
558.65	433.00
558.81	482.15
558.98	400.23
559.14	435.34
559.31	353.42
559.47	404.91
559.64	390.87
559.80	418.96
559.97	456.40
560.13	442.36
560.30	376.83
560.46	482.15
560.63	397.89
560.79	414.27
560.96	421.30
561.12	421.30
561.29	397.89
561.45	533.64
561.61	407.25
561.78	470.45
561.94	433.00
562.11	428.32
562.27	435.34
562.44	414.27
562.60	397.89
562.77	470.45
562.93	463.43
563.10	388.53
563.26	407.25
563.42	468.11
563.59	437.68
563.75	388.53
563.92	404.91
564.08	365.12
564.24	456.40
564.41	472.79
564.57	372.15
564.74	435.34
564.90	421.30
565.07	430.66
565.23	463.43
565.39	395.55
565.56	437.68
565.72	414.27
565.88	423.64
566.05	397.89
566.21	433.00
566.38	360.44
566.54	353.42
566.70	365.12
566.87	442.36
567.03	355.76
567.19	435.34
567.36	470.45
567.52	421.30
567.68	390.87
567.85	451.72
568.01	519.60
568.17	404.91
568.34	435.34
568.50	400.23
568.66	322.99
568.83	507.90
568.99	465.77
569.15	451.72
569.32	493.85
569.48	425.98
569.64	411.93
569.81	383.85
569.97	390.87
570.13	414.27
570.30	418.96
570.46	407.25
570.62	430.66
570.78	414.27
570.95	379.17
571.11	435.34
571.27	423.64
571.43	461.09
571.60	421.30
571.76	388.53
571.92	353.42
572.09	379.17
572.25	425.98
572.41	397.89
572.57	475.13
572.74	470.45
572.90	423.64
573.06	383.85
573.22	442.36
573.38	447.04
573.55	444.70
573.71	379.17
573.87	442.36
574.03	379.17
574.20	407.25
574.36	395.55
574.52	379.17
574.68	390.87
574.84	418.96
575.01	365.12
575.17	447.04
575.33	423.64
575.49	425.98
575.65	379.17
575.82	451.72
575.98	425.98
576.14	411.93
576.30	414.27
576.46	463.43
576.62	386.19
576.79	400.23
576.95	440.02
577.11	388.53
577.27	428.32
577.43	435.34
577.59	409.59
577.75	428.32
577.92	437.68
578.08	430.66
578.24	355.76
578.40	397.89
578.56	461.09
578.72	491.51
578.88	482.15
579.04	421.30
579.21	433.00
579.37	449.38
579.53	425.98
579.69	451.72
579.85	395.55
580.01	461.09
580.17	423.64
580.33	381.51
580.49	393.21
580.65	411.93
580.82	400.23
580.98	437.68
581.14	409.59
581.30	409.59
581.46	468.11
581.62	435.34
581.78	411.93
581.94	393.21
582.10	348.74
582.26	465.77
582.42	355.76
582.58	372.15
582.74	388.53
582.90	421.30
583.06	512.58
583.22	381.51
583.38	442.36
583.54	447.04
583.70	456.40
583.86	451.72
584.02	411.93
584.18	393.21
584.34	386.19
584.50	409.59
584.66	458.74
584.82	425.98
584.98	374.49
585.14	386.19
585.30	409.59
585.46	449.38
585.62	414.27
585.78	435.34
585.94	395.55
586.10	404.91
586.26	362.78
586.42	400.23
586.58	423.64
586.74	440.02
586.90	423.64
587.06	395.55
587.22	416.62
587.38	428.32
587.54	451.72
587.70	451.72
587.86	418.96
588.02	477.47
588.18	407.25
588.34	451.72
588.49	376.83
588.65	437.68
588.81	435.34
588.97	447.04
589.13	381.51
589.29	407.25
589.45	482.15
589.61	484.49
589.77	449.38
589.93	337.04
590.08	409.59
590.24	411.93
590.40	393.21
590.56	423.64
590.72	388.53
590.88	416.62
591.04	430.66
591.20	395.55
591.35	449.38
591.51	414.27
591.67	409.59
591.83	374.49
591.99	500.87
592.15	461.09
592.31	461.09
592.46	376.83
592.62	463.43
592.78	372.15
592.94	369.80
593.10	400.23
593.26	383.85
593.41	397.89
593.57	409.59
593.73	358.10
593.89	423.64
594.05	374.49
594.20	372.15
594.36	411.93
594.52	395.55
594.68	402.57
594.84	416.62
594.99	397.89
595.15	416.62
595.31	337.04
595.47	386.19
595.62	423.64
595.78	421.30
595.94	454.06
596.10	435.34
596.25	519.60
596.41	383.85
596.57	423.64
596.73	390.87
596.88	379.17
597.04	414.27
597.20	451.72
597.36	409.59
597.51	437.68
597.67	395.55
597.83	425.98
597.99	407.25
598.14	444.70
598.30	395.55
598.46	428.32
598.61	456.40
598.77	423.64
598.93	435.34
599.09	461.09
599.24	461.09
599.40	484.49
599.56	376.83
599.71	411.93
599.87	416.62
600.03	428.32
600.18	447.04
600.34	470.45
600.50	449.38
600.65	458.74
600.81	397.89
600.97	372.15
601.12	428.32
601.28	491.51
601.44	332.36
601.59	451.72
601.75	416.62
601.91	454.06
602.06	409.59
602.22	440.02
602.37	423.64
602.53	447.04
602.69	461.09
602.84	383.85
603.00	456.40
603.16	425.98
603.31	433.00
603.47	482.15
603.62	393.21
603.78	416.62
603.94	418.96
604.09	447.04
604.25	454.06
604.40	308.95
604.56	376.83
604.71	388.53
604.87	393.21
605.03	470.45
605.18	470.45
605.34	477.47
605.49	472.79
605.65	414.27
605.80	395.55
605.96	395.55
606.12	442.36
606.27	423.64
606.43	407.25
606.58	379.17
606.74	458.74
606.89	449.38
607.05	472.79
607.20	404.91
607.36	512.58
607.51	407.25
607.67	451.72
607.82	472.79
607.98	505.56
608.13	428.32
608.29	512.58
608.44	475.13
608.60	346.40
608.75	421.30
608.91	442.36
609.06	444.70
609.22	430.66
609.37	411.93
609.53	404.91
609.68	440.02
609.84	386.19
609.99	344.06
610.15	447.04
