SpectraSuite Data File
++++++++++++++++++++++++++++++++++++
Date: Fri Oct 25 12:10:22 EDT 2013
User: price-jones
Dark Spectrum Present: No
Reference Spectrum Present: No
Number of Sampled Component Spectra: 1
Spectrometers: USB2+H05261
Integration Time (usec): 100000 (USB2+H05261)
Spectra Averaged: 1 (USB2+H05261)
Boxcar Smoothing: 0 (USB2+H05261)
Correct for Electrical Dark: No (USB2+H05261)
Strobe/Lamp Enabled: No (USB2+H05261)
Correct for Detector Non-linearity: No (USB2+H05261)
Correct for Stray Light: No (USB2+H05261)
Number of Pixels in Processed Spectrum: 2048
>>>>>Begin Processed Spectral Data<<<<<
365.73	327.68
365.92	327.68
366.12	327.68
366.32	229.37
366.52	278.52
366.72	276.18
366.91	243.42
367.11	299.59
367.31	257.46
367.51	163.84
367.70	187.24
367.90	304.27
368.10	224.69
368.30	271.50
368.49	259.80
368.69	290.23
368.89	287.89
369.09	280.86
369.28	273.84
369.48	264.48
369.68	248.10
369.87	348.74
370.07	322.99
370.27	400.23
370.47	306.61
370.66	245.76
370.86	411.93
371.06	409.59
371.25	435.34
371.45	475.13
371.65	407.25
371.84	330.02
372.04	341.72
372.24	372.15
372.44	404.91
372.63	402.57
372.83	421.30
373.03	395.55
373.22	468.11
373.42	491.51
373.62	416.62
373.81	409.59
374.01	386.19
374.21	477.47
374.40	348.74
374.60	440.02
374.79	433.00
374.99	435.34
375.19	411.93
375.38	444.70
375.58	425.98
375.78	433.00
375.97	500.87
376.17	402.57
376.37	416.62
376.56	456.40
376.76	395.55
376.95	437.68
377.15	390.87
377.35	404.91
377.54	383.85
377.74	430.66
377.93	418.96
378.13	418.96
378.33	404.91
378.52	409.59
378.72	409.59
378.91	428.32
379.11	404.91
379.31	369.80
379.50	423.64
379.70	491.51
379.89	367.46
380.09	390.87
380.28	423.64
380.48	423.64
380.68	376.83
380.87	362.78
381.07	358.10
381.26	400.23
381.46	383.85
381.65	353.42
381.85	440.02
382.04	400.23
382.24	449.38
382.43	393.21
382.63	400.23
382.83	416.62
383.02	402.57
383.22	423.64
383.41	379.17
383.61	353.42
383.80	409.59
384.00	365.12
384.19	477.47
384.39	458.74
384.58	346.40
384.78	404.91
384.97	409.59
385.17	449.38
385.36	428.32
385.56	421.30
385.75	402.57
385.95	372.15
386.14	393.21
386.34	362.78
386.53	388.53
386.72	451.72
386.92	369.80
387.11	376.83
387.31	367.46
387.50	404.91
387.70	428.32
387.89	444.70
388.09	358.10
388.28	404.91
388.48	402.57
388.67	358.10
388.86	409.59
389.06	411.93
389.25	454.06
389.45	386.19
389.64	287.89
389.84	407.25
390.03	393.21
390.22	395.55
390.42	409.59
390.61	388.53
390.81	351.08
391.00	386.19
391.19	369.80
391.39	428.32
391.58	435.34
391.78	379.17
391.97	458.74
392.16	369.80
392.36	381.51
392.55	461.09
392.75	374.49
392.94	351.08
393.13	414.27
393.33	433.00
393.52	376.83
393.71	395.55
393.91	348.74
394.10	423.64
394.29	367.46
394.49	390.87
394.68	330.02
394.88	362.78
395.07	454.06
395.26	421.30
395.46	393.21
395.65	454.06
395.84	404.91
396.04	409.59
396.23	458.74
396.42	372.15
396.62	418.96
396.81	447.04
397.00	383.85
397.19	386.19
397.39	454.06
397.58	451.72
397.77	461.09
397.97	414.27
398.16	374.49
398.35	367.46
398.55	430.66
398.74	402.57
398.93	390.87
399.12	418.96
399.32	411.93
399.51	421.30
399.70	416.62
399.90	425.98
400.09	409.59
400.28	430.66
400.47	351.08
400.67	475.13
400.86	332.36
401.05	365.12
401.24	463.43
401.44	407.25
401.63	353.42
401.82	423.64
402.01	400.23
402.21	418.96
402.40	400.23
402.59	425.98
402.78	404.91
402.97	397.89
403.17	416.62
403.36	397.89
403.55	430.66
403.74	425.98
403.93	465.77
404.13	388.53
404.32	437.68
404.51	421.30
404.70	430.66
404.89	374.49
405.09	390.87
405.28	383.85
405.47	440.02
405.66	365.12
405.85	503.22
406.05	369.80
406.24	404.91
406.43	372.15
406.62	430.66
406.81	390.87
407.00	416.62
407.20	475.13
407.39	397.89
407.58	482.15
407.77	372.15
407.96	442.36
408.15	463.43
408.34	416.62
408.54	397.89
408.73	372.15
408.92	379.17
409.11	414.27
409.30	425.98
409.49	381.51
409.68	341.72
409.87	430.66
410.07	458.74
410.26	367.46
410.45	374.49
410.64	346.40
410.83	425.98
411.02	404.91
411.21	428.32
411.40	423.64
411.59	411.93
411.78	365.12
411.98	397.89
412.17	337.04
412.36	435.34
412.55	437.68
412.74	421.30
412.93	430.66
413.12	367.46
413.31	395.55
413.50	477.47
413.69	423.64
413.88	454.06
414.07	367.46
414.26	456.40
414.45	341.72
414.64	437.68
414.83	369.80
415.02	456.40
415.22	388.53
415.41	393.21
415.60	381.51
415.79	428.32
415.98	327.68
416.17	400.23
416.36	315.97
416.55	383.85
416.74	397.89
416.93	374.49
417.12	437.68
417.31	442.36
417.50	404.91
417.69	440.02
417.88	353.42
418.07	442.36
418.26	386.19
418.45	381.51
418.64	383.85
418.83	416.62
419.02	369.80
419.21	402.57
419.39	447.04
419.58	397.89
419.77	400.23
419.96	435.34
420.15	390.87
420.34	507.90
420.53	440.02
420.72	397.89
420.91	411.93
421.10	416.62
421.29	400.23
421.48	440.02
421.67	433.00
421.86	374.49
422.05	400.23
422.24	449.38
422.43	397.89
422.61	421.30
422.80	440.02
422.99	409.59
423.18	435.34
423.37	465.77
423.56	409.59
423.75	437.68
423.94	386.19
424.13	418.96
424.32	435.34
424.50	425.98
424.69	407.25
424.88	484.49
425.07	421.30
425.26	355.76
425.45	402.57
425.64	402.57
425.83	351.08
426.01	442.36
426.20	470.45
426.39	458.74
426.58	411.93
426.77	451.72
426.96	414.27
427.15	435.34
427.33	430.66
427.52	362.78
427.71	477.47
427.90	447.04
428.09	468.11
428.28	416.62
428.46	430.66
428.65	400.23
428.84	498.53
429.03	442.36
429.22	433.00
429.40	395.55
429.59	397.89
429.78	444.70
429.97	437.68
430.16	348.74
430.34	407.25
430.53	430.66
430.72	365.12
430.91	400.23
431.10	374.49
431.28	414.27
431.47	454.06
431.66	437.68
431.85	369.80
432.03	365.12
432.22	475.13
432.41	362.78
432.60	421.30
432.79	330.02
432.97	404.91
433.16	367.46
433.35	393.21
433.54	451.72
433.72	437.68
433.91	458.74
434.10	458.74
434.28	418.96
434.47	386.19
434.66	414.27
434.85	409.59
435.03	386.19
435.22	395.55
435.41	409.59
435.59	423.64
435.78	369.80
435.97	414.27
436.16	372.15
436.34	341.72
436.53	395.55
436.72	444.70
436.90	386.19
437.09	449.38
437.28	414.27
437.46	416.62
437.65	404.91
437.84	442.36
438.02	330.02
438.21	428.32
438.40	433.00
438.58	411.93
438.77	374.49
438.96	379.17
439.14	376.83
439.33	449.38
439.52	395.55
439.70	411.93
439.89	423.64
440.08	437.68
440.26	379.17
440.45	402.57
440.63	477.47
440.82	418.96
441.01	334.70
441.19	458.74
441.38	332.36
441.57	386.19
441.75	404.91
441.94	414.27
442.12	416.62
442.31	482.15
442.50	393.21
442.68	454.06
442.87	423.64
443.05	454.06
443.24	479.81
443.43	404.91
443.61	400.23
443.80	472.79
443.98	409.59
444.17	411.93
444.35	381.51
444.54	454.06
444.73	442.36
444.91	437.68
445.10	437.68
445.28	418.96
445.47	503.22
445.65	484.49
445.84	395.55
446.02	374.49
446.21	304.27
446.39	372.15
446.58	379.17
446.77	400.23
446.95	461.09
447.14	433.00
447.32	425.98
447.51	421.30
447.69	435.34
447.88	418.96
448.06	376.83
448.25	437.68
448.43	433.00
448.62	475.13
448.80	458.74
448.99	435.34
449.17	456.40
449.36	414.27
449.54	381.51
449.73	451.72
449.91	451.72
450.10	409.59
450.28	430.66
450.46	409.59
450.65	442.36
450.83	472.79
451.02	376.83
451.20	411.93
451.39	458.74
451.57	437.68
451.76	447.04
451.94	435.34
452.13	414.27
452.31	435.34
452.49	421.30
452.68	409.59
452.86	358.10
453.05	433.00
453.23	461.09
453.42	381.51
453.60	397.89
453.78	456.40
453.97	423.64
454.15	348.74
454.34	416.62
454.52	414.27
454.70	477.47
454.89	444.70
455.07	365.12
455.26	395.55
455.44	425.98
455.62	409.59
455.81	409.59
455.99	409.59
456.17	479.81
456.36	390.87
456.54	330.02
456.73	358.10
456.91	362.78
457.09	404.91
457.28	369.80
457.46	367.46
457.64	463.43
457.83	407.25
458.01	418.96
458.19	449.38
458.38	390.87
458.56	440.02
458.74	414.27
458.93	437.68
459.11	440.02
459.29	442.36
459.48	425.98
459.66	472.79
459.84	440.02
460.03	433.00
460.21	428.32
460.39	409.59
460.57	390.87
460.76	402.57
460.94	411.93
461.12	421.30
461.31	442.36
461.49	374.49
461.67	425.98
461.85	454.06
462.04	475.13
462.22	713.86
462.40	404.91
462.59	482.15
462.77	379.17
462.95	404.91
463.13	367.46
463.32	423.64
463.50	400.23
463.68	477.47
463.86	458.74
464.05	404.91
464.23	402.57
464.41	372.15
464.59	433.00
464.78	414.27
464.96	430.66
465.14	428.32
465.32	458.74
465.50	447.04
465.69	428.32
465.87	425.98
466.05	447.04
466.23	383.85
466.41	358.10
466.60	414.27
466.78	411.93
466.96	383.85
467.14	344.06
467.32	379.17
467.51	400.23
467.69	423.64
467.87	404.91
468.05	519.60
468.23	470.45
468.41	425.98
468.60	395.55
468.78	381.51
468.96	458.74
469.14	374.49
469.32	339.38
469.50	341.72
469.69	484.49
469.87	461.09
470.05	442.36
470.23	402.57
470.41	390.87
470.59	393.21
470.77	388.53
470.95	393.21
471.14	451.72
471.32	444.70
471.50	484.49
471.68	390.87
471.86	367.46
472.04	435.34
472.22	454.06
472.40	390.87
472.58	451.72
472.77	418.96
472.95	442.36
473.13	447.04
473.31	456.40
473.49	388.53
473.67	386.19
473.85	346.40
474.03	376.83
474.21	479.81
474.39	402.57
474.57	482.15
474.75	395.55
474.93	376.83
475.12	400.23
475.30	362.78
475.48	418.96
475.66	341.72
475.84	421.30
476.02	369.80
476.20	433.00
476.38	411.93
476.56	468.11
476.74	425.98
476.92	348.74
477.10	425.98
477.28	472.79
477.46	390.87
477.64	425.98
477.82	358.10
478.00	360.44
478.18	390.87
478.36	430.66
478.54	442.36
478.72	468.11
478.90	416.62
479.08	404.91
479.26	472.79
479.44	404.91
479.62	423.64
479.80	381.51
479.98	390.87
480.16	411.93
480.34	376.83
480.52	409.59
480.70	400.23
480.88	397.89
481.06	393.21
481.24	423.64
481.41	458.74
481.59	425.98
481.77	440.02
481.95	407.25
482.13	442.36
482.31	374.49
482.49	367.46
482.67	418.96
482.85	376.83
483.03	458.74
483.21	521.94
483.39	388.53
483.57	428.32
483.74	414.27
483.92	402.57
484.10	470.45
484.28	397.89
484.46	475.13
484.64	454.06
484.82	325.33
485.00	482.15
485.18	407.25
485.35	379.17
485.53	440.02
485.71	430.66
485.89	393.21
486.07	428.32
486.25	407.25
486.43	454.06
486.61	451.72
486.78	409.59
486.96	372.15
487.14	409.59
487.32	442.36
487.50	418.96
487.68	463.43
487.85	388.53
488.03	402.57
488.21	430.66
488.39	360.44
488.57	395.55
488.75	428.32
488.92	519.60
489.10	407.25
489.28	388.53
489.46	433.00
489.64	379.17
489.81	433.00
489.99	442.36
490.17	346.40
490.35	496.19
490.53	358.10
490.70	397.89
490.88	327.68
491.06	423.64
491.24	386.19
491.41	416.62
491.59	440.02
491.77	397.89
491.95	388.53
492.13	383.85
492.30	407.25
492.48	430.66
492.66	517.26
492.84	416.62
493.01	411.93
493.19	339.38
493.37	409.59
493.54	435.34
493.72	355.76
493.90	428.32
494.08	404.91
494.25	433.00
494.43	444.70
494.61	339.38
494.79	362.78
494.96	430.66
495.14	355.76
495.32	484.49
495.49	414.27
495.67	400.23
495.85	362.78
496.02	444.70
496.20	395.55
496.38	393.21
496.55	390.87
496.73	425.98
496.91	339.38
497.09	468.11
497.26	409.59
497.44	355.76
497.62	458.74
497.79	411.93
497.97	344.06
498.14	458.74
498.32	416.62
498.50	381.51
498.67	407.25
498.85	386.19
499.03	400.23
499.20	435.34
499.38	407.25
499.56	433.00
499.73	407.25
499.91	344.06
500.08	404.91
500.26	430.66
500.44	461.09
500.61	428.32
500.79	425.98
500.97	430.66
501.14	475.13
501.32	430.66
501.49	425.98
501.67	447.04
501.84	416.62
502.02	400.23
502.20	465.77
502.37	491.51
502.55	393.21
502.72	435.34
502.90	388.53
503.07	372.15
503.25	409.59
503.43	444.70
503.60	444.70
503.78	425.98
503.95	449.38
504.13	437.68
504.30	421.30
504.48	475.13
504.65	475.13
504.83	388.53
505.01	379.17
505.18	409.59
505.36	428.32
505.53	365.12
505.71	411.93
505.88	430.66
506.06	369.80
506.23	428.32
506.41	397.89
506.58	435.34
506.76	393.21
506.93	505.56
507.11	383.85
507.28	444.70
507.46	425.98
507.63	404.91
507.81	454.06
507.98	367.46
508.16	440.02
508.33	475.13
508.50	360.44
508.68	402.57
508.85	423.64
509.03	374.49
509.20	395.55
509.38	404.91
509.55	400.23
509.73	400.23
509.90	388.53
510.08	470.45
510.25	437.68
510.42	388.53
510.60	479.81
510.77	423.64
510.95	362.78
511.12	423.64
511.30	442.36
511.47	433.00
511.64	472.79
511.82	421.30
511.99	381.51
512.17	376.83
512.34	360.44
512.51	418.96
512.69	407.25
512.86	416.62
513.04	372.15
513.21	402.57
513.38	383.85
513.56	423.64
513.73	435.34
513.90	440.02
514.08	369.80
514.25	496.19
514.43	428.32
514.60	313.63
514.77	374.49
514.95	451.72
515.12	400.23
515.29	411.93
515.47	411.93
515.64	388.53
515.81	428.32
515.99	395.55
516.16	449.38
516.33	416.62
516.51	456.40
516.68	365.12
516.85	489.17
517.03	421.30
517.20	458.74
517.37	383.85
517.54	360.44
517.72	465.77
517.89	423.64
518.06	365.12
518.24	395.55
518.41	437.68
518.58	482.15
518.75	423.64
518.93	456.40
519.10	442.36
519.27	393.21
519.45	402.57
519.62	421.30
519.79	423.64
519.96	390.87
520.14	404.91
520.31	395.55
520.48	421.30
520.65	409.59
520.83	374.49
521.00	351.08
521.17	421.30
521.34	376.83
521.52	416.62
521.69	425.98
521.86	456.40
522.03	395.55
522.20	482.15
522.38	418.96
522.55	379.17
522.72	341.72
522.89	381.51
523.07	442.36
523.24	374.49
523.41	374.49
523.58	386.19
523.75	416.62
523.92	416.62
524.10	416.62
524.27	433.00
524.44	409.59
524.61	428.32
524.78	404.91
524.96	447.04
525.13	400.23
525.30	407.25
525.47	327.68
525.64	458.74
525.81	402.57
525.98	428.32
526.16	454.06
526.33	482.15
526.50	428.32
526.67	400.23
526.84	383.85
527.01	369.80
527.18	414.27
527.36	498.53
527.53	400.23
527.70	411.93
527.87	402.57
528.04	404.91
528.21	395.55
528.38	404.91
528.55	461.09
528.72	435.34
528.89	463.43
529.07	379.17
529.24	383.85
529.41	402.57
529.58	365.12
529.75	381.51
529.92	390.87
530.09	463.43
530.26	456.40
530.43	397.89
530.60	374.49
530.77	447.04
530.94	376.83
531.11	458.74
531.28	458.74
531.46	400.23
531.63	435.34
531.80	372.15
531.97	369.80
532.14	440.02
532.31	425.98
532.48	433.00
532.65	479.81
532.82	425.98
532.99	346.40
533.16	388.53
533.33	428.32
533.50	454.06
533.67	390.87
533.84	454.06
534.01	425.98
534.18	428.32
534.35	400.23
534.52	416.62
534.69	425.98
534.86	444.70
535.03	463.43
535.20	433.00
535.37	449.38
535.54	470.45
535.71	409.59
535.88	437.68
536.05	393.21
536.22	374.49
536.38	458.74
536.55	440.02
536.72	433.00
536.89	400.23
537.06	351.08
537.23	430.66
537.40	428.32
537.57	475.13
537.74	390.87
537.91	461.09
538.08	346.40
538.25	400.23
538.42	379.17
538.59	402.57
538.75	367.46
538.92	416.62
539.09	376.83
539.26	425.98
539.43	472.79
539.60	440.02
539.77	428.32
539.94	402.57
540.11	470.45
540.28	423.64
540.44	341.72
540.61	440.02
540.78	386.19
540.95	390.87
541.12	447.04
541.29	358.10
541.46	451.72
541.62	435.34
541.79	423.64
541.96	444.70
542.13	425.98
542.30	376.83
542.47	477.47
542.63	372.15
542.80	393.21
542.97	489.17
543.14	465.77
543.31	411.93
543.48	414.27
543.64	442.36
543.81	449.38
543.98	386.19
544.15	440.02
544.32	379.17
544.48	409.59
544.65	379.17
544.82	442.36
544.99	411.93
545.16	461.09
545.32	372.15
545.49	393.21
545.66	393.21
545.83	400.23
546.00	421.30
546.16	411.93
546.33	440.02
546.50	437.68
546.67	472.79
546.83	430.66
547.00	404.91
547.17	421.30
547.34	430.66
547.50	437.68
547.67	416.62
547.84	418.96
548.00	496.19
548.17	437.68
548.34	400.23
548.51	421.30
548.67	374.49
548.84	390.87
549.01	404.91
549.18	454.06
549.34	411.93
549.51	433.00
549.68	514.92
549.84	411.93
550.01	433.00
550.18	528.96
550.34	486.83
550.51	465.77
550.68	477.47
550.84	463.43
551.01	376.83
551.18	360.44
551.34	433.00
551.51	393.21
551.68	393.21
551.84	458.74
552.01	383.85
552.18	416.62
552.34	414.27
552.51	451.72
552.68	421.30
552.84	414.27
553.01	449.38
553.18	407.25
553.34	379.17
553.51	423.64
553.67	449.38
553.84	489.17
554.01	355.76
554.17	451.72
554.34	390.87
554.51	402.57
554.67	503.22
554.84	468.11
555.00	479.81
555.17	402.57
555.33	397.89
555.50	479.81
555.67	451.72
555.83	409.59
556.00	351.08
556.16	470.45
556.33	470.45
556.50	402.57
556.66	402.57
556.83	374.49
556.99	435.34
557.16	458.74
557.32	418.96
557.49	369.80
557.65	440.02
557.82	449.38
557.98	404.91
558.15	433.00
558.32	346.40
558.48	388.53
558.65	381.51
558.81	435.34
558.98	330.02
559.14	395.55
559.31	416.62
559.47	411.93
559.64	433.00
559.80	421.30
559.97	376.83
560.13	442.36
560.30	461.09
560.46	402.57
560.63	524.28
560.79	428.32
560.96	400.23
561.12	498.53
561.29	397.89
561.45	437.68
561.61	421.30
561.78	484.49
561.94	372.15
562.11	325.33
562.27	423.64
562.44	411.93
562.60	418.96
562.77	423.64
562.93	383.85
563.10	379.17
563.26	369.80
563.42	470.45
563.59	425.98
563.75	454.06
563.92	470.45
564.08	411.93
564.24	397.89
564.41	423.64
564.57	395.55
564.74	402.57
564.90	468.11
565.07	430.66
565.23	372.15
565.39	400.23
565.56	475.13
565.72	348.74
565.88	388.53
566.05	386.19
566.21	372.15
566.38	475.13
566.54	437.68
566.70	416.62
566.87	437.68
567.03	397.89
567.19	433.00
567.36	437.68
567.52	390.87
567.68	482.15
567.85	383.85
568.01	372.15
568.17	430.66
568.34	430.66
568.50	472.79
568.66	383.85
568.83	444.70
568.99	435.34
569.15	456.40
569.32	444.70
569.48	383.85
569.64	456.40
569.81	390.87
569.97	430.66
570.13	461.09
570.30	376.83
570.46	407.25
570.62	379.17
570.78	402.57
570.95	472.79
571.11	489.17
571.27	458.74
571.43	402.57
571.60	433.00
571.76	402.57
571.92	376.83
572.09	409.59
572.25	395.55
572.41	395.55
572.57	416.62
572.74	437.68
572.90	400.23
573.06	477.47
573.22	444.70
573.38	449.38
573.55	461.09
573.71	433.00
573.87	425.98
574.03	461.09
574.20	393.21
574.36	454.06
574.52	519.60
574.68	433.00
574.84	400.23
575.01	433.00
575.17	461.09
575.33	379.17
575.49	482.15
575.65	472.79
575.82	433.00
575.98	397.89
576.14	444.70
576.30	344.06
576.46	318.31
576.62	470.45
576.79	472.79
576.95	402.57
577.11	437.68
577.27	386.19
577.43	454.06
577.59	451.72
577.75	447.04
577.92	461.09
578.08	379.17
578.24	411.93
578.40	388.53
578.56	407.25
578.72	404.91
578.88	355.76
579.04	416.62
579.21	433.00
579.37	400.23
579.53	425.98
579.69	456.40
579.85	421.30
580.01	423.64
580.17	348.74
580.33	374.49
580.49	484.49
580.65	402.57
580.82	407.25
580.98	421.30
581.14	358.10
581.30	454.06
581.46	369.80
581.62	433.00
581.78	418.96
581.94	355.76
582.10	372.15
582.26	390.87
582.42	425.98
582.58	390.87
582.74	404.91
582.90	409.59
583.06	479.81
583.22	409.59
583.38	442.36
583.54	454.06
583.70	475.13
583.86	386.19
584.02	400.23
584.18	510.24
584.34	313.63
584.50	393.21
584.66	433.00
584.82	416.62
584.98	402.57
585.14	411.93
585.30	458.74
585.46	407.25
585.62	428.32
585.78	381.51
585.94	451.72
586.10	423.64
586.26	496.19
586.42	390.87
586.58	496.19
586.74	383.85
586.90	440.02
587.06	418.96
587.22	353.42
587.38	454.06
587.54	433.00
587.70	451.72
587.86	421.30
588.02	381.51
588.18	402.57
588.34	409.59
588.49	430.66
588.65	465.77
588.81	433.00
588.97	330.02
589.13	407.25
589.29	440.02
589.45	475.13
589.61	437.68
589.77	493.85
589.93	433.00
590.08	461.09
590.24	397.89
590.40	430.66
590.56	435.34
590.72	374.49
590.88	369.80
591.04	545.34
591.20	437.68
591.35	388.53
591.51	421.30
591.67	341.72
591.83	386.19
591.99	458.74
592.15	461.09
592.31	337.04
592.46	416.62
592.62	500.87
592.78	355.76
592.94	430.66
593.10	379.17
593.26	468.11
593.41	421.30
593.57	440.02
593.73	479.81
593.89	461.09
594.05	400.23
594.20	428.32
594.36	393.21
594.52	332.36
594.68	386.19
594.84	519.60
594.99	435.34
595.15	404.91
595.31	402.57
595.47	472.79
595.62	425.98
595.78	421.30
595.94	425.98
596.10	484.49
596.25	461.09
596.41	425.98
596.57	386.19
596.73	409.59
596.88	397.89
597.04	388.53
597.20	351.08
597.36	451.72
597.51	397.89
597.67	421.30
597.83	367.46
597.99	418.96
598.14	395.55
598.30	414.27
598.46	433.00
598.61	468.11
598.77	353.42
598.93	388.53
599.09	367.46
599.24	390.87
599.40	447.04
599.56	395.55
599.71	416.62
599.87	440.02
600.03	393.21
600.18	447.04
600.34	334.70
600.50	442.36
600.65	447.04
600.81	395.55
600.97	383.85
601.12	430.66
601.28	491.51
601.44	425.98
601.59	416.62
601.75	437.68
601.91	407.25
602.06	454.06
602.22	538.32
602.37	456.40
602.53	458.74
602.69	372.15
602.84	376.83
603.00	416.62
603.16	437.68
603.31	388.53
603.47	425.98
603.62	472.79
603.78	365.12
603.94	409.59
604.09	409.59
604.25	458.74
604.40	386.19
604.56	395.55
604.71	414.27
604.87	435.34
605.03	470.45
605.18	470.45
605.34	433.00
605.49	468.11
605.65	418.96
605.80	390.87
605.96	423.64
606.12	465.77
606.27	444.70
606.43	456.40
606.58	400.23
606.74	376.83
606.89	437.68
607.05	447.04
607.20	449.38
607.36	393.21
607.51	358.10
607.67	386.19
607.82	440.02
607.98	433.00
608.13	447.04
608.29	472.79
608.44	449.38
608.60	493.85
608.75	463.43
608.91	428.32
609.06	477.47
609.22	411.93
609.37	458.74
609.53	435.34
609.68	395.55
609.84	454.06
609.99	402.57
610.15	470.45
