SpectraSuite Data File
++++++++++++++++++++++++++++++++++++
Date: Fri Oct 25 12:11:40 EDT 2013
User: price-jones
Dark Spectrum Present: No
Reference Spectrum Present: No
Number of Sampled Component Spectra: 1
Spectrometers: USB2+H05261
Integration Time (usec): 100000 (USB2+H05261)
Spectra Averaged: 1 (USB2+H05261)
Boxcar Smoothing: 0 (USB2+H05261)
Correct for Electrical Dark: No (USB2+H05261)
Strobe/Lamp Enabled: No (USB2+H05261)
Correct for Detector Non-linearity: No (USB2+H05261)
Correct for Stray Light: No (USB2+H05261)
Number of Pixels in Processed Spectrum: 2048
>>>>>Begin Processed Spectral Data<<<<<
365.73	355.76
365.92	355.76
366.12	355.76
366.32	297.25
366.52	266.82
366.72	306.61
366.91	271.50
367.11	236.39
367.31	250.44
367.51	234.05
367.70	238.73
367.90	255.12
368.10	266.82
368.30	248.10
368.49	250.44
368.69	210.65
368.89	301.93
369.09	257.46
369.28	243.42
369.48	334.70
369.68	276.18
369.87	304.27
370.07	308.95
370.27	379.17
370.47	383.85
370.66	306.61
370.86	339.38
371.06	383.85
371.25	374.49
371.45	355.76
371.65	362.78
371.84	341.72
372.04	451.72
372.24	411.93
372.44	444.70
372.63	407.25
372.83	435.34
373.03	472.79
373.22	411.93
373.42	376.83
373.62	374.49
373.81	456.40
374.01	421.30
374.21	430.66
374.40	433.00
374.60	404.91
374.79	395.55
374.99	369.80
375.19	376.83
375.38	437.68
375.58	372.15
375.78	400.23
375.97	416.62
376.17	423.64
376.37	475.13
376.56	360.44
376.76	402.57
376.95	386.19
377.15	447.04
377.35	428.32
377.54	369.80
377.74	404.91
377.93	468.11
378.13	414.27
378.33	465.77
378.52	451.72
378.72	411.93
378.91	376.83
379.11	416.62
379.31	416.62
379.50	383.85
379.70	458.74
379.89	404.91
380.09	348.74
380.28	383.85
380.48	351.08
380.68	372.15
380.87	344.06
381.07	428.32
381.26	358.10
381.46	386.19
381.65	332.36
381.85	360.44
382.04	449.38
382.24	400.23
382.43	414.27
382.63	379.17
382.83	390.87
383.02	496.19
383.22	456.40
383.41	402.57
383.61	393.21
383.80	449.38
384.00	311.29
384.19	404.91
384.39	344.06
384.58	383.85
384.78	428.32
384.97	425.98
385.17	461.09
385.36	418.96
385.56	468.11
385.75	458.74
385.95	400.23
386.14	425.98
386.34	383.85
386.53	393.21
386.72	402.57
386.92	383.85
387.11	425.98
387.31	397.89
387.50	407.25
387.70	386.19
387.89	435.34
388.09	404.91
388.28	395.55
388.48	407.25
388.67	444.70
388.86	355.76
389.06	358.10
389.25	367.46
389.45	407.25
389.64	418.96
389.84	386.19
390.03	433.00
390.22	411.93
390.42	409.59
390.61	423.64
390.81	386.19
391.00	496.19
391.19	444.70
391.39	435.34
391.58	433.00
391.78	402.57
391.97	416.62
392.16	425.98
392.36	463.43
392.55	416.62
392.75	388.53
392.94	386.19
393.13	442.36
393.33	386.19
393.52	374.49
393.71	421.30
393.91	362.78
394.10	358.10
394.29	390.87
394.49	367.46
394.68	311.29
394.88	435.34
395.07	400.23
395.26	390.87
395.46	414.27
395.65	393.21
395.84	416.62
396.04	421.30
396.23	442.36
396.42	367.46
396.62	381.51
396.81	416.62
397.00	355.76
397.19	393.21
397.39	411.93
397.58	447.04
397.77	418.96
397.97	404.91
398.16	386.19
398.35	437.68
398.55	346.40
398.74	470.45
398.93	390.87
399.12	428.32
399.32	411.93
399.51	383.85
399.70	458.74
399.90	402.57
400.09	395.55
400.28	482.15
400.47	496.19
400.67	435.34
400.86	444.70
401.05	388.53
401.24	428.32
401.44	360.44
401.63	458.74
401.82	468.11
402.01	428.32
402.21	416.62
402.40	365.12
402.59	383.85
402.78	428.32
402.97	496.19
403.17	442.36
403.36	444.70
403.55	454.06
403.74	372.15
403.93	414.27
404.13	486.83
404.32	383.85
404.51	402.57
404.70	437.68
404.89	383.85
405.09	397.89
405.28	440.02
405.47	430.66
405.66	414.27
405.85	365.12
406.05	458.74
406.24	418.96
406.43	447.04
406.62	447.04
406.81	475.13
407.00	428.32
407.20	397.89
407.39	369.80
407.58	351.08
407.77	503.22
407.96	383.85
408.15	517.26
408.34	411.93
408.54	451.72
408.73	404.91
408.92	465.77
409.11	482.15
409.30	512.58
409.49	475.13
409.68	337.04
409.87	404.91
410.07	416.62
410.26	458.74
410.45	348.74
410.64	465.77
410.83	418.96
411.02	475.13
411.21	379.17
411.40	442.36
411.59	444.70
411.78	376.83
411.98	454.06
412.17	421.30
412.36	402.57
412.55	409.59
412.74	421.30
412.93	414.27
413.12	339.38
413.31	423.64
413.50	348.74
413.69	416.62
413.88	402.57
414.07	381.51
414.26	414.27
414.45	346.40
414.64	414.27
414.83	421.30
415.02	404.91
415.22	430.66
415.41	404.91
415.60	397.89
415.79	421.30
415.98	442.36
416.17	423.64
416.36	414.27
416.55	383.85
416.74	360.44
416.93	454.06
417.12	388.53
417.31	423.64
417.50	421.30
417.69	428.32
417.88	468.11
418.07	372.15
418.26	414.27
418.45	376.83
418.64	397.89
418.83	395.55
419.02	365.12
419.21	409.59
419.39	461.09
419.58	451.72
419.77	395.55
419.96	383.85
420.15	397.89
420.34	449.38
420.53	402.57
420.72	463.43
420.91	402.57
421.10	421.30
421.29	425.98
421.48	433.00
421.67	454.06
421.86	430.66
422.05	418.96
422.24	409.59
422.43	369.80
422.61	362.78
422.80	442.36
422.99	463.43
423.18	360.44
423.37	409.59
423.56	475.13
423.75	437.68
423.94	421.30
424.13	451.72
424.32	433.00
424.50	409.59
424.69	367.46
424.88	416.62
425.07	430.66
425.26	404.91
425.45	465.77
425.64	447.04
425.83	400.23
426.01	447.04
426.20	404.91
426.39	393.21
426.58	353.42
426.77	376.83
426.96	444.70
427.15	381.51
427.33	386.19
427.52	463.43
427.71	463.43
427.90	463.43
428.09	402.57
428.28	440.02
428.46	465.77
428.65	428.32
428.84	400.23
429.03	383.85
429.22	407.25
429.40	362.78
429.59	388.53
429.78	425.98
429.97	433.00
430.16	416.62
430.34	440.02
430.53	395.55
430.72	386.19
430.91	479.81
431.10	383.85
431.28	341.72
431.47	470.45
431.66	411.93
431.85	344.06
432.03	414.27
432.22	418.96
432.41	367.46
432.60	444.70
432.79	351.08
432.97	484.49
433.16	395.55
433.35	395.55
433.54	393.21
433.72	423.64
433.91	440.02
434.10	386.19
434.28	402.57
434.47	381.51
434.66	390.87
434.85	451.72
435.03	383.85
435.22	486.83
435.41	416.62
435.59	435.34
435.78	407.25
435.97	313.63
436.16	430.66
436.34	442.36
436.53	351.08
436.72	411.93
436.90	351.08
437.09	402.57
437.28	458.74
437.46	374.49
437.65	404.91
437.84	365.12
438.02	411.93
438.21	461.09
438.40	358.10
438.58	353.42
438.77	400.23
438.96	442.36
439.14	379.17
439.33	395.55
439.52	402.57
439.70	416.62
439.89	425.98
440.08	430.66
440.26	393.21
440.45	397.89
440.63	444.70
440.82	400.23
441.01	404.91
441.19	418.96
441.38	402.57
441.57	463.43
441.75	430.66
441.94	442.36
442.12	428.32
442.31	430.66
442.50	458.74
442.68	444.70
442.87	393.21
443.05	451.72
443.24	430.66
443.43	390.87
443.61	390.87
443.80	409.59
443.98	407.25
444.17	491.51
444.35	425.98
444.54	425.98
444.73	451.72
444.91	381.51
445.10	376.83
445.28	330.02
445.47	376.83
445.65	430.66
445.84	404.91
446.02	411.93
446.21	463.43
446.39	411.93
446.58	411.93
446.77	374.49
446.95	411.93
447.14	428.32
447.32	451.72
447.51	435.34
447.69	435.34
447.88	379.17
448.06	383.85
448.25	442.36
448.43	348.74
448.62	456.40
448.80	421.30
448.99	578.11
449.17	393.21
449.36	397.89
449.54	433.00
449.73	433.00
449.91	425.98
450.10	409.59
450.28	402.57
450.46	482.15
450.65	449.38
450.83	454.06
451.02	505.56
451.20	491.51
451.39	367.46
451.57	367.46
451.76	322.99
451.94	395.55
452.13	390.87
452.31	418.96
452.49	456.40
452.68	428.32
452.86	416.62
453.05	430.66
453.23	468.11
453.42	425.98
453.60	390.87
453.78	407.25
453.97	400.23
454.15	402.57
454.34	344.06
454.52	381.51
454.70	414.27
454.89	404.91
455.07	447.04
455.26	428.32
455.44	435.34
455.62	381.51
455.81	351.08
455.99	332.36
456.17	444.70
456.36	423.64
456.54	353.42
456.73	447.04
456.91	409.59
457.09	454.06
457.28	449.38
457.46	435.34
457.64	428.32
457.83	297.25
458.01	456.40
458.19	465.77
458.38	367.46
458.56	425.98
458.74	337.04
458.93	400.23
459.11	557.05
459.29	416.62
459.48	411.93
459.66	407.25
459.84	388.53
460.03	510.24
460.21	540.66
460.39	454.06
460.57	418.96
460.76	407.25
460.94	425.98
461.12	411.93
461.31	512.58
461.49	421.30
461.67	388.53
461.85	414.27
462.04	348.74
462.22	727.91
462.40	393.21
462.59	423.64
462.77	411.93
462.95	369.80
463.13	409.59
463.32	418.96
463.50	388.53
463.68	486.83
463.86	433.00
464.05	327.68
464.23	404.91
464.41	409.59
464.59	372.15
464.78	395.55
464.96	346.40
465.14	390.87
465.32	365.12
465.50	390.87
465.69	411.93
465.87	416.62
466.05	402.57
466.23	449.38
466.41	435.34
466.60	428.32
466.78	395.55
466.96	381.51
467.14	425.98
467.32	449.38
467.51	416.62
467.69	407.25
467.87	416.62
468.05	454.06
468.23	461.09
468.41	383.85
468.60	379.17
468.78	381.51
468.96	409.59
469.14	440.02
469.32	454.06
469.50	433.00
469.69	402.57
469.87	395.55
470.05	402.57
470.23	423.64
470.41	433.00
470.59	381.51
470.77	397.89
470.95	437.68
471.14	449.38
471.32	428.32
471.50	475.13
471.68	416.62
471.86	409.59
472.04	390.87
472.22	425.98
472.40	397.89
472.58	430.66
472.77	400.23
472.95	430.66
473.13	519.60
473.31	447.04
473.49	395.55
473.67	414.27
473.85	451.72
474.03	451.72
474.21	411.93
474.39	479.81
474.57	470.45
474.75	367.46
474.93	388.53
475.12	367.46
475.30	351.08
475.48	379.17
475.66	362.78
475.84	444.70
476.02	423.64
476.20	472.79
476.38	376.83
476.56	423.64
476.74	411.93
476.92	428.32
477.10	428.32
477.28	449.38
477.46	425.98
477.64	402.57
477.82	400.23
478.00	458.74
478.18	444.70
478.36	416.62
478.54	374.49
478.72	442.36
478.90	425.98
479.08	416.62
479.26	435.34
479.44	442.36
479.62	411.93
479.80	397.89
479.98	409.59
480.16	315.97
480.34	442.36
480.52	421.30
480.70	442.36
480.88	400.23
481.06	386.19
481.24	374.49
481.41	416.62
481.59	409.59
481.77	512.58
481.95	402.57
482.13	430.66
482.31	475.13
482.49	444.70
482.67	344.06
482.85	395.55
483.03	414.27
483.21	400.23
483.39	348.74
483.57	430.66
483.74	379.17
483.92	386.19
484.10	386.19
484.28	416.62
484.46	440.02
484.64	402.57
484.82	397.89
485.00	449.38
485.18	428.32
485.35	416.62
485.53	458.74
485.71	411.93
485.89	433.00
486.07	369.80
486.25	435.34
486.43	484.49
486.61	395.55
486.78	465.77
486.96	447.04
487.14	397.89
487.32	433.00
487.50	435.34
487.68	482.15
487.85	393.21
488.03	369.80
488.21	418.96
488.39	372.15
488.57	433.00
488.75	407.25
488.92	440.02
489.10	423.64
489.28	395.55
489.46	409.59
489.64	374.49
489.81	372.15
489.99	404.91
490.17	395.55
490.35	461.09
490.53	400.23
490.70	386.19
490.88	425.98
491.06	355.76
491.24	451.72
491.41	430.66
491.59	451.72
491.77	428.32
491.95	393.21
492.13	369.80
492.30	381.51
492.48	348.74
492.66	372.15
492.84	482.15
493.01	418.96
493.19	402.57
493.37	414.27
493.54	404.91
493.72	463.43
493.90	411.93
494.08	451.72
494.25	374.49
494.43	430.66
494.61	400.23
494.79	386.19
494.96	425.98
495.14	475.13
495.32	339.38
495.49	411.93
495.67	458.74
495.85	440.02
496.02	404.91
496.20	425.98
496.38	475.13
496.55	414.27
496.73	404.91
496.91	447.04
497.09	444.70
497.26	430.66
497.44	414.27
497.62	428.32
497.79	386.19
497.97	449.38
498.14	486.83
498.32	379.17
498.50	409.59
498.67	416.62
498.85	393.21
499.03	386.19
499.20	358.10
499.38	456.40
499.56	388.53
499.73	390.87
499.91	346.40
500.08	409.59
500.26	458.74
500.44	327.68
500.61	386.19
500.79	390.87
500.97	411.93
501.14	418.96
501.32	404.91
501.49	451.72
501.67	447.04
501.84	400.23
502.02	381.51
502.20	500.87
502.37	510.24
502.55	400.23
502.72	437.68
502.90	444.70
503.07	437.68
503.25	369.80
503.43	440.02
503.60	440.02
503.78	418.96
503.95	430.66
504.13	365.12
504.30	393.21
504.48	437.68
504.65	470.45
504.83	411.93
505.01	414.27
505.18	433.00
505.36	418.96
505.53	409.59
505.71	395.55
505.88	449.38
506.06	428.32
506.23	409.59
506.41	372.15
506.58	416.62
506.76	433.00
506.93	379.17
507.11	353.42
507.28	395.55
507.46	500.87
507.63	468.11
507.81	376.83
507.98	521.94
508.16	442.36
508.33	407.25
508.50	447.04
508.68	454.06
508.85	433.00
509.03	390.87
509.20	444.70
509.38	444.70
509.55	423.64
509.73	425.98
509.90	433.00
510.08	379.17
510.25	411.93
510.42	416.62
510.60	437.68
510.77	400.23
510.95	433.00
511.12	430.66
511.30	437.68
511.47	381.51
511.64	376.83
511.82	388.53
511.99	489.17
512.17	395.55
512.34	383.85
512.51	390.87
512.69	390.87
512.86	400.23
513.04	519.60
513.21	402.57
513.38	416.62
513.56	367.46
513.73	411.93
513.90	414.27
514.08	362.78
514.25	468.11
514.43	397.89
514.60	437.68
514.77	383.85
514.95	468.11
515.12	456.40
515.29	468.11
515.47	393.21
515.64	447.04
515.81	418.96
515.99	491.51
516.16	463.43
516.33	454.06
516.51	472.79
516.68	388.53
516.85	425.98
517.03	322.99
517.20	404.91
517.37	423.64
517.54	479.81
517.72	447.04
517.89	322.99
518.06	507.90
518.24	437.68
518.41	411.93
518.58	430.66
518.75	475.13
518.93	409.59
519.10	428.32
519.27	367.46
519.45	400.23
519.62	414.27
519.79	390.87
519.96	395.55
520.14	428.32
520.31	475.13
520.48	407.25
520.65	456.40
520.83	386.19
521.00	489.17
521.17	463.43
521.34	397.89
521.52	482.15
521.69	416.62
521.86	414.27
522.03	444.70
522.20	416.62
522.38	423.64
522.55	442.36
522.72	409.59
522.89	418.96
523.07	484.49
523.24	475.13
523.41	409.59
523.58	428.32
523.75	395.55
523.92	383.85
524.10	454.06
524.27	444.70
524.44	393.21
524.61	400.23
524.78	397.89
524.96	390.87
525.13	435.34
525.30	390.87
525.47	372.15
525.64	376.83
525.81	430.66
525.98	409.59
526.16	381.51
526.33	414.27
526.50	411.93
526.67	395.55
526.84	421.30
527.01	435.34
527.18	435.34
527.36	383.85
527.53	442.36
527.70	454.06
527.87	386.19
528.04	437.68
528.21	430.66
528.38	393.21
528.55	447.04
528.72	379.17
528.89	407.25
529.07	383.85
529.24	416.62
529.41	447.04
529.58	454.06
529.75	346.40
529.92	437.68
530.09	430.66
530.26	372.15
530.43	411.93
530.60	379.17
530.77	400.23
530.94	390.87
531.11	315.97
531.28	425.98
531.46	414.27
531.63	458.74
531.80	404.91
531.97	437.68
532.14	447.04
532.31	498.53
532.48	433.00
532.65	517.26
532.82	421.30
532.99	400.23
533.16	311.29
533.33	421.30
533.50	447.04
533.67	409.59
533.84	386.19
534.01	390.87
534.18	362.78
534.35	433.00
534.52	393.21
534.69	320.65
534.86	442.36
535.03	418.96
535.20	440.02
535.37	416.62
535.54	425.98
535.71	493.85
535.88	372.15
536.05	390.87
536.22	454.06
536.38	402.57
536.55	372.15
536.72	519.60
536.89	418.96
537.06	367.46
537.23	348.74
537.40	465.77
537.57	430.66
537.74	440.02
537.91	454.06
538.08	411.93
538.25	475.13
538.42	463.43
538.59	390.87
538.75	461.09
538.92	355.76
539.09	376.83
539.26	454.06
539.43	421.30
539.60	451.72
539.77	475.13
539.94	402.57
540.11	421.30
540.28	468.11
540.44	482.15
540.61	411.93
540.78	416.62
540.95	369.80
541.12	458.74
541.29	404.91
541.46	456.40
541.62	423.64
541.79	503.22
541.96	444.70
542.13	367.46
542.30	374.49
542.47	421.30
542.63	425.98
542.80	360.44
542.97	454.06
543.14	395.55
543.31	418.96
543.48	472.79
543.64	430.66
543.81	362.78
543.98	461.09
544.15	402.57
544.32	461.09
544.48	397.89
544.65	416.62
544.82	430.66
544.99	442.36
545.16	381.51
545.32	428.32
545.49	414.27
545.66	372.15
545.83	348.74
546.00	330.02
546.16	456.40
546.33	428.32
546.50	362.78
546.67	454.06
546.83	477.47
547.00	428.32
547.17	381.51
547.34	444.70
547.50	442.36
547.67	418.96
547.84	407.25
548.00	414.27
548.17	444.70
548.34	444.70
548.51	390.87
548.67	447.04
548.84	435.34
549.01	397.89
549.18	404.91
549.34	386.19
549.51	416.62
549.68	449.38
549.84	365.12
550.01	418.96
550.18	440.02
550.34	496.19
550.51	407.25
550.68	477.47
550.84	416.62
551.01	379.17
551.18	461.09
551.34	411.93
551.51	376.83
551.68	430.66
551.84	437.68
552.01	311.29
552.18	411.93
552.34	393.21
552.51	428.32
552.68	414.27
552.84	451.72
553.01	440.02
553.18	381.51
553.34	503.22
553.51	365.12
553.67	491.51
553.84	486.83
554.01	428.32
554.17	433.00
554.34	430.66
554.51	430.66
554.67	435.34
554.84	489.17
555.00	428.32
555.17	470.45
555.33	489.17
555.50	454.06
555.67	456.40
555.83	374.49
556.00	442.36
556.16	514.92
556.33	458.74
556.50	477.47
556.66	400.23
556.83	402.57
556.99	367.46
557.16	463.43
557.32	376.83
557.49	388.53
557.65	444.70
557.82	418.96
557.98	376.83
558.15	360.44
558.32	416.62
558.48	388.53
558.65	414.27
558.81	437.68
558.98	425.98
559.14	433.00
559.31	397.89
559.47	482.15
559.64	433.00
559.80	397.89
559.97	397.89
560.13	393.21
560.30	411.93
560.46	421.30
560.63	491.51
560.79	451.72
560.96	425.98
561.12	409.59
561.29	379.17
561.45	407.25
561.61	365.12
561.78	442.36
561.94	313.63
562.11	425.98
562.27	418.96
562.44	440.02
562.60	407.25
562.77	463.43
562.93	458.74
563.10	395.55
563.26	451.72
563.42	440.02
563.59	425.98
563.75	435.34
563.92	493.85
564.08	519.60
564.24	468.11
564.41	393.21
564.57	383.85
564.74	365.12
564.90	407.25
565.07	472.79
565.23	337.04
565.39	390.87
565.56	400.23
565.72	407.25
565.88	404.91
566.05	451.72
566.21	355.76
566.38	428.32
566.54	451.72
566.70	395.55
566.87	379.17
567.03	447.04
567.19	489.17
567.36	365.12
567.52	374.49
567.68	465.77
567.85	451.72
568.01	388.53
568.17	411.93
568.34	390.87
568.50	449.38
568.66	374.49
568.83	447.04
568.99	411.93
569.15	407.25
569.32	433.00
569.48	407.25
569.64	355.76
569.81	463.43
569.97	381.51
570.13	381.51
570.30	397.89
570.46	402.57
570.62	451.72
570.78	339.38
570.95	388.53
571.11	379.17
571.27	472.79
571.43	421.30
571.60	423.64
571.76	423.64
571.92	355.76
572.09	430.66
572.25	414.27
572.41	428.32
572.57	360.44
572.74	465.77
572.90	414.27
573.06	402.57
573.22	423.64
573.38	465.77
573.55	367.46
573.71	435.34
573.87	433.00
574.03	433.00
574.20	428.32
574.36	454.06
574.52	470.45
574.68	449.38
574.84	440.02
575.01	475.13
575.17	397.89
575.33	386.19
575.49	458.74
575.65	449.38
575.82	514.92
575.98	449.38
576.14	402.57
576.30	407.25
576.46	376.83
576.62	491.51
576.79	472.79
576.95	475.13
577.11	388.53
577.27	381.51
577.43	430.66
577.59	416.62
577.75	425.98
577.92	395.55
578.08	435.34
578.24	397.89
578.40	479.81
578.56	423.64
578.72	472.79
578.88	409.59
579.04	435.34
579.21	442.36
579.37	383.85
579.53	425.98
579.69	433.00
579.85	395.55
580.01	381.51
580.17	423.64
580.33	442.36
580.49	423.64
580.65	414.27
580.82	433.00
580.98	435.34
581.14	379.17
581.30	545.34
581.46	468.11
581.62	414.27
581.78	449.38
581.94	486.83
582.10	416.62
582.26	393.21
582.42	346.40
582.58	456.40
582.74	390.87
582.90	475.13
583.06	475.13
583.22	402.57
583.38	402.57
583.54	369.80
583.70	472.79
583.86	379.17
584.02	390.87
584.18	379.17
584.34	416.62
584.50	416.62
584.66	397.89
584.82	386.19
584.98	374.49
585.14	404.91
585.30	355.76
585.46	407.25
585.62	486.83
585.78	402.57
585.94	437.68
586.10	430.66
586.26	435.34
586.42	444.70
586.58	482.15
586.74	451.72
586.90	414.27
587.06	430.66
587.22	454.06
587.38	411.93
587.54	425.98
587.70	407.25
587.86	454.06
588.02	482.15
588.18	472.79
588.34	421.30
588.49	454.06
588.65	482.15
588.81	425.98
588.97	437.68
589.13	381.51
589.29	414.27
589.45	421.30
589.61	418.96
589.77	423.64
589.93	409.59
590.08	411.93
590.24	393.21
590.40	449.38
590.56	447.04
590.72	442.36
590.88	402.57
591.04	374.49
591.20	402.57
591.35	496.19
591.51	437.68
591.67	404.91
591.83	442.36
591.99	390.87
592.15	500.87
592.31	449.38
592.46	449.38
592.62	470.45
592.78	353.42
592.94	423.64
593.10	409.59
593.26	402.57
593.41	463.43
593.57	421.30
593.73	416.62
593.89	458.74
594.05	369.80
594.20	458.74
594.36	461.09
594.52	365.12
594.68	430.66
594.84	416.62
594.99	437.68
595.15	461.09
595.31	435.34
595.47	433.00
595.62	369.80
595.78	442.36
595.94	386.19
596.10	442.36
596.25	409.59
596.41	414.27
596.57	451.72
596.73	489.17
596.88	379.17
597.04	381.51
597.20	407.25
597.36	416.62
597.51	449.38
597.67	407.25
597.83	421.30
597.99	479.81
598.14	475.13
598.30	369.80
598.46	386.19
598.61	447.04
598.77	442.36
598.93	372.15
599.09	468.11
599.24	381.51
599.40	472.79
599.56	407.25
599.71	367.46
599.87	397.89
600.03	449.38
600.18	428.32
600.34	411.93
600.50	451.72
600.65	442.36
600.81	407.25
600.97	388.53
601.12	421.30
601.28	428.32
601.44	456.40
601.59	400.23
601.75	433.00
601.91	451.72
602.06	416.62
602.22	540.66
602.37	449.38
602.53	437.68
602.69	468.11
602.84	367.46
603.00	374.49
603.16	416.62
603.31	414.27
603.47	388.53
603.62	381.51
603.78	402.57
603.94	428.32
604.09	393.21
604.25	489.17
604.40	444.70
604.56	435.34
604.71	421.30
604.87	482.15
605.03	402.57
605.18	430.66
605.34	477.47
605.49	362.78
605.65	428.32
605.80	386.19
605.96	430.66
606.12	416.62
606.27	461.09
606.43	383.85
606.58	339.38
606.74	418.96
606.89	379.17
607.05	447.04
607.20	475.13
607.36	447.04
607.51	461.09
607.67	458.74
607.82	437.68
607.98	447.04
608.13	456.40
608.29	451.72
608.44	383.85
608.60	360.44
608.75	409.59
608.91	416.62
609.06	390.87
609.22	447.04
609.37	379.17
609.53	372.15
609.68	367.46
609.84	425.98
609.99	449.38
610.15	454.06
