SpectraSuite Data File
++++++++++++++++++++++++++++++++++++
Date: Fri Oct 25 12:11:29 EDT 2013
User: price-jones
Dark Spectrum Present: No
Reference Spectrum Present: No
Number of Sampled Component Spectra: 1
Spectrometers: USB2+H05261
Integration Time (usec): 100000 (USB2+H05261)
Spectra Averaged: 1 (USB2+H05261)
Boxcar Smoothing: 0 (USB2+H05261)
Correct for Electrical Dark: No (USB2+H05261)
Strobe/Lamp Enabled: No (USB2+H05261)
Correct for Detector Non-linearity: No (USB2+H05261)
Correct for Stray Light: No (USB2+H05261)
Number of Pixels in Processed Spectrum: 2048
>>>>>Begin Processed Spectral Data<<<<<
365.73	334.70
365.92	334.70
366.12	334.70
366.32	266.82
366.52	224.69
366.72	294.91
366.91	205.97
367.11	245.76
367.31	215.33
367.51	280.86
367.70	205.97
367.90	245.76
368.10	217.67
368.30	283.20
368.49	163.84
368.69	252.78
368.89	292.57
369.09	266.82
369.28	278.52
369.48	257.46
369.68	259.80
369.87	369.80
370.07	351.08
370.27	301.93
370.47	322.99
370.66	358.10
370.86	332.36
371.06	362.78
371.25	456.40
371.45	423.64
371.65	367.46
371.84	374.49
372.04	465.77
372.24	372.15
372.44	365.12
372.63	383.85
372.83	360.44
373.03	433.00
373.22	393.21
373.42	437.68
373.62	458.74
373.81	428.32
374.01	425.98
374.21	435.34
374.40	500.87
374.60	444.70
374.79	381.51
374.99	388.53
375.19	381.51
375.38	404.91
375.58	411.93
375.78	475.13
375.97	425.98
376.17	456.40
376.37	491.51
376.56	365.12
376.76	374.49
376.95	468.11
377.15	470.45
377.35	348.74
377.54	421.30
377.74	341.72
377.93	386.19
378.13	423.64
378.33	379.17
378.52	358.10
378.72	400.23
378.91	414.27
379.11	409.59
379.31	468.11
379.50	428.32
379.70	376.83
379.89	437.68
380.09	456.40
380.28	397.89
380.48	395.55
380.68	369.80
380.87	376.83
381.07	421.30
381.26	365.12
381.46	339.38
381.65	379.17
381.85	374.49
382.04	362.78
382.24	414.27
382.43	440.02
382.63	437.68
382.83	372.15
383.02	393.21
383.22	428.32
383.41	395.55
383.61	428.32
383.80	475.13
384.00	498.53
384.19	449.38
384.39	416.62
384.58	402.57
384.78	409.59
384.97	416.62
385.17	458.74
385.36	425.98
385.56	397.89
385.75	379.17
385.95	358.10
386.14	437.68
386.34	395.55
386.53	463.43
386.72	421.30
386.92	374.49
387.11	449.38
387.31	365.12
387.50	433.00
387.70	428.32
387.89	411.93
388.09	400.23
388.28	393.21
388.48	479.81
388.67	433.00
388.86	416.62
389.06	425.98
389.25	414.27
389.45	374.49
389.64	376.83
389.84	442.36
390.03	358.10
390.22	425.98
390.42	386.19
390.61	472.79
390.81	355.76
391.00	421.30
391.19	447.04
391.39	482.15
391.58	390.87
391.78	404.91
391.97	393.21
392.16	430.66
392.36	416.62
392.55	407.25
392.75	461.09
392.94	360.44
393.13	395.55
393.33	386.19
393.52	348.74
393.71	416.62
393.91	365.12
394.10	409.59
394.29	414.27
394.49	360.44
394.68	386.19
394.88	332.36
395.07	411.93
395.26	395.55
395.46	442.36
395.65	456.40
395.84	369.80
396.04	425.98
396.23	383.85
396.42	397.89
396.62	496.19
396.81	498.53
397.00	454.06
397.19	369.80
397.39	428.32
397.58	479.81
397.77	407.25
397.97	428.32
398.16	344.06
398.35	360.44
398.55	308.95
398.74	374.49
398.93	428.32
399.12	444.70
399.32	435.34
399.51	379.17
399.70	390.87
399.90	425.98
400.09	369.80
400.28	414.27
400.47	353.42
400.67	435.34
400.86	376.83
401.05	465.77
401.24	465.77
401.44	435.34
401.63	465.77
401.82	423.64
402.01	500.87
402.21	430.66
402.40	383.85
402.59	404.91
402.78	454.06
402.97	393.21
403.17	365.12
403.36	397.89
403.55	353.42
403.74	416.62
403.93	358.10
404.13	482.15
404.32	372.15
404.51	477.47
404.70	440.02
404.89	430.66
405.09	388.53
405.28	393.21
405.47	365.12
405.66	416.62
405.85	393.21
406.05	416.62
406.24	362.78
406.43	458.74
406.62	447.04
406.81	451.72
407.00	388.53
407.20	346.40
407.39	353.42
407.58	383.85
407.77	411.93
407.96	447.04
408.15	402.57
408.34	454.06
408.54	442.36
408.73	435.34
408.92	362.78
409.11	414.27
409.30	447.04
409.49	388.53
409.68	386.19
409.87	332.36
410.07	470.45
410.26	444.70
410.45	374.49
410.64	477.47
410.83	360.44
411.02	395.55
411.21	416.62
411.40	379.17
411.59	451.72
411.78	283.20
411.98	447.04
412.17	376.83
412.36	416.62
412.55	390.87
412.74	362.78
412.93	435.34
413.12	362.78
413.31	505.56
413.50	395.55
413.69	447.04
413.88	414.27
414.07	421.30
414.26	337.04
414.45	365.12
414.64	416.62
414.83	437.68
415.02	383.85
415.22	386.19
415.41	400.23
415.60	421.30
415.79	414.27
415.98	421.30
416.17	430.66
416.36	360.44
416.55	383.85
416.74	496.19
416.93	444.70
417.12	442.36
417.31	409.59
417.50	411.93
417.69	503.22
417.88	451.72
418.07	421.30
418.26	397.89
418.45	442.36
418.64	423.64
418.83	423.64
419.02	388.53
419.21	386.19
419.39	388.53
419.58	362.78
419.77	393.21
419.96	386.19
420.15	465.77
420.34	374.49
420.53	447.04
420.72	409.59
420.91	367.46
421.10	379.17
421.29	390.87
421.48	421.30
421.67	416.62
421.86	414.27
422.05	477.47
422.24	402.57
422.43	435.34
422.61	367.46
422.80	358.10
422.99	435.34
423.18	414.27
423.37	409.59
423.56	393.21
423.75	367.46
423.94	416.62
424.13	435.34
424.32	388.53
424.50	454.06
424.69	318.31
424.88	449.38
425.07	407.25
425.26	369.80
425.45	423.64
425.64	411.93
425.83	463.43
426.01	440.02
426.20	425.98
426.39	376.83
426.58	360.44
426.77	449.38
426.96	374.49
427.15	355.76
427.33	376.83
427.52	449.38
427.71	472.79
427.90	365.12
428.09	362.78
428.28	358.10
428.46	425.98
428.65	330.02
428.84	454.06
429.03	454.06
429.22	416.62
429.40	388.53
429.59	404.91
429.78	519.60
429.97	479.81
430.16	428.32
430.34	430.66
430.53	304.27
430.72	447.04
430.91	444.70
431.10	409.59
431.28	484.49
431.47	409.59
431.66	327.68
431.85	400.23
432.03	409.59
432.22	400.23
432.41	374.49
432.60	411.93
432.79	374.49
432.97	430.66
433.16	346.40
433.35	372.15
433.54	393.21
433.72	367.46
433.91	409.59
434.10	402.57
434.28	449.38
434.47	416.62
434.66	444.70
434.85	381.51
435.03	395.55
435.22	472.79
435.41	451.72
435.59	463.43
435.78	339.38
435.97	393.21
436.16	468.11
436.34	376.83
436.53	456.40
436.72	491.51
436.90	425.98
437.09	409.59
437.28	451.72
437.46	407.25
437.65	407.25
437.84	475.13
438.02	411.93
438.21	381.51
438.40	437.68
438.58	386.19
438.77	472.79
438.96	468.11
439.14	388.53
439.33	479.81
439.52	428.32
439.70	458.74
439.89	505.56
440.08	477.47
440.26	383.85
440.45	369.80
440.63	411.93
440.82	409.59
441.01	423.64
441.19	414.27
441.38	400.23
441.57	482.15
441.75	435.34
441.94	411.93
442.12	479.81
442.31	440.02
442.50	400.23
442.68	374.49
442.87	468.11
443.05	397.89
443.24	376.83
443.43	416.62
443.61	465.77
443.80	433.00
443.98	447.04
444.17	416.62
444.35	423.64
444.54	388.53
444.73	411.93
444.91	379.17
445.10	386.19
445.28	444.70
445.47	414.27
445.65	390.87
445.84	423.64
446.02	447.04
446.21	395.55
446.39	421.30
446.58	442.36
446.77	468.11
446.95	423.64
447.14	444.70
447.32	456.40
447.51	430.66
447.69	433.00
447.88	390.87
448.06	437.68
448.25	393.21
448.43	400.23
448.62	421.30
448.80	395.55
448.99	435.34
449.17	409.59
449.36	365.12
449.54	404.91
449.73	440.02
449.91	411.93
450.10	386.19
450.28	454.06
450.46	381.51
450.65	376.83
450.83	358.10
451.02	395.55
451.20	388.53
451.39	341.72
451.57	407.25
451.76	360.44
451.94	411.93
452.13	482.15
452.31	435.34
452.49	425.98
452.68	395.55
452.86	442.36
453.05	411.93
453.23	463.43
453.42	491.51
453.60	428.32
453.78	411.93
453.97	447.04
454.15	400.23
454.34	404.91
454.52	360.44
454.70	510.24
454.89	402.57
455.07	402.57
455.26	435.34
455.44	409.59
455.62	381.51
455.81	395.55
455.99	461.09
456.17	390.87
456.36	379.17
456.54	418.96
456.73	416.62
456.91	390.87
457.09	414.27
457.28	372.15
457.46	414.27
457.64	454.06
457.83	437.68
458.01	402.57
458.19	388.53
458.38	442.36
458.56	500.87
458.74	404.91
458.93	374.49
459.11	449.38
459.29	402.57
459.48	428.32
459.66	470.45
459.84	409.59
460.03	498.53
460.21	411.93
460.39	517.26
460.57	418.96
460.76	416.62
460.94	397.89
461.12	388.53
461.31	409.59
461.49	444.70
461.67	458.74
461.85	421.30
462.04	423.64
462.22	767.70
462.40	348.74
462.59	404.91
462.77	454.06
462.95	379.17
463.13	400.23
463.32	376.83
463.50	433.00
463.68	393.21
463.86	395.55
464.05	353.42
464.23	416.62
464.41	470.45
464.59	393.21
464.78	407.25
464.96	430.66
465.14	407.25
465.32	423.64
465.50	451.72
465.69	479.81
465.87	379.17
466.05	510.24
466.23	360.44
466.41	418.96
466.60	437.68
466.78	428.32
466.96	489.17
467.14	458.74
467.32	435.34
467.51	418.96
467.69	425.98
467.87	444.70
468.05	463.43
468.23	479.81
468.41	442.36
468.60	458.74
468.78	465.77
468.96	411.93
469.14	411.93
469.32	449.38
469.50	374.49
469.69	491.51
469.87	397.89
470.05	535.98
470.23	388.53
470.41	379.17
470.59	358.10
470.77	416.62
470.95	353.42
471.14	442.36
471.32	374.49
471.50	369.80
471.68	433.00
471.86	400.23
472.04	449.38
472.22	444.70
472.40	379.17
472.58	416.62
472.77	411.93
472.95	421.30
473.13	458.74
473.31	512.58
473.49	355.76
473.67	416.62
473.85	435.34
474.03	409.59
474.21	381.51
474.39	435.34
474.57	372.15
474.75	411.93
474.93	409.59
475.12	367.46
475.30	390.87
475.48	355.76
475.66	512.58
475.84	442.36
476.02	447.04
476.20	414.27
476.38	472.79
476.56	503.22
476.74	416.62
476.92	444.70
477.10	393.21
477.28	423.64
477.46	433.00
477.64	430.66
477.82	447.04
478.00	428.32
478.18	437.68
478.36	362.78
478.54	381.51
478.72	496.19
478.90	388.53
479.08	402.57
479.26	440.02
479.44	369.80
479.62	447.04
479.80	407.25
479.98	348.74
480.16	437.68
480.34	395.55
480.52	428.32
480.70	421.30
480.88	404.91
481.06	381.51
481.24	428.32
481.41	456.40
481.59	404.91
481.77	404.91
481.95	379.17
482.13	425.98
482.31	428.32
482.49	416.62
482.67	416.62
482.85	416.62
483.03	430.66
483.21	470.45
483.39	430.66
483.57	388.53
483.74	428.32
483.92	341.72
484.10	404.91
484.28	414.27
484.46	475.13
484.64	337.04
484.82	386.19
485.00	358.10
485.18	435.34
485.35	456.40
485.53	456.40
485.71	479.81
485.89	402.57
486.07	386.19
486.25	454.06
486.43	493.85
486.61	456.40
486.78	440.02
486.96	414.27
487.14	477.47
487.32	458.74
487.50	442.36
487.68	463.43
487.85	374.49
488.03	433.00
488.21	498.53
488.39	514.92
488.57	425.98
488.75	416.62
488.92	451.72
489.10	365.12
489.28	397.89
489.46	358.10
489.64	440.02
489.81	484.49
489.99	433.00
490.17	374.49
490.35	493.85
490.53	367.46
490.70	397.89
490.88	388.53
491.06	484.49
491.24	447.04
491.41	472.79
491.59	402.57
491.77	414.27
491.95	346.40
492.13	472.79
492.30	379.17
492.48	402.57
492.66	484.49
492.84	376.83
493.01	397.89
493.19	430.66
493.37	451.72
493.54	365.12
493.72	376.83
493.90	402.57
494.08	437.68
494.25	409.59
494.43	390.87
494.61	425.98
494.79	440.02
494.96	472.79
495.14	404.91
495.32	362.78
495.49	449.38
495.67	402.57
495.85	381.51
496.02	418.96
496.20	491.51
496.38	454.06
496.55	393.21
496.73	461.09
496.91	414.27
497.09	444.70
497.26	500.87
497.44	454.06
497.62	397.89
497.79	409.59
497.97	428.32
498.14	341.72
498.32	428.32
498.50	400.23
498.67	423.64
498.85	402.57
499.03	449.38
499.20	449.38
499.38	468.11
499.56	400.23
499.73	465.77
499.91	430.66
500.08	437.68
500.26	411.93
500.44	435.34
500.61	505.56
500.79	433.00
500.97	425.98
501.14	447.04
501.32	379.17
501.49	463.43
501.67	381.51
501.84	381.51
502.02	360.44
502.20	461.09
502.37	411.93
502.55	468.11
502.72	402.57
502.90	423.64
503.07	437.68
503.25	433.00
503.43	374.49
503.60	381.51
503.78	374.49
503.95	447.04
504.13	449.38
504.30	383.85
504.48	463.43
504.65	430.66
504.83	395.55
505.01	451.72
505.18	486.83
505.36	395.55
505.53	425.98
505.71	362.78
505.88	482.15
506.06	409.59
506.23	411.93
506.41	435.34
506.58	376.83
506.76	440.02
506.93	400.23
507.11	407.25
507.28	390.87
507.46	374.49
507.63	465.77
507.81	409.59
507.98	456.40
508.16	437.68
508.33	461.09
508.50	433.00
508.68	423.64
508.85	430.66
509.03	376.83
509.20	416.62
509.38	477.47
509.55	456.40
509.73	433.00
509.90	482.15
510.08	414.27
510.25	388.53
510.42	376.83
510.60	376.83
510.77	503.22
510.95	461.09
511.12	440.02
511.30	386.19
511.47	454.06
511.64	402.57
511.82	442.36
511.99	386.19
512.17	400.23
512.34	388.53
512.51	421.30
512.69	454.06
512.86	456.40
513.04	425.98
513.21	362.78
513.38	425.98
513.56	472.79
513.73	409.59
513.90	444.70
514.08	430.66
514.25	322.99
514.43	507.90
514.60	458.74
514.77	425.98
514.95	449.38
515.12	397.89
515.29	386.19
515.47	489.17
515.64	348.74
515.81	433.00
515.99	425.98
516.16	458.74
516.33	390.87
516.51	465.77
516.68	397.89
516.85	414.27
517.03	440.02
517.20	430.66
517.37	437.68
517.54	482.15
517.72	308.95
517.89	397.89
518.06	393.21
518.24	442.36
518.41	454.06
518.58	456.40
518.75	407.25
518.93	369.80
519.10	351.08
519.27	416.62
519.45	442.36
519.62	411.93
519.79	461.09
519.96	461.09
520.14	505.56
520.31	470.45
520.48	425.98
520.65	435.34
520.83	454.06
521.00	414.27
521.17	433.00
521.34	351.08
521.52	376.83
521.69	475.13
521.86	461.09
522.03	435.34
522.20	435.34
522.38	400.23
522.55	376.83
522.72	425.98
522.89	451.72
523.07	458.74
523.24	411.93
523.41	430.66
523.58	458.74
523.75	437.68
523.92	376.83
524.10	430.66
524.27	447.04
524.44	425.98
524.61	425.98
524.78	411.93
524.96	421.30
525.13	376.83
525.30	486.83
525.47	463.43
525.64	346.40
525.81	404.91
525.98	477.47
526.16	367.46
526.33	376.83
526.50	425.98
526.67	358.10
526.84	421.30
527.01	346.40
527.18	388.53
527.36	358.10
527.53	430.66
527.70	440.02
527.87	418.96
528.04	500.87
528.21	444.70
528.38	479.81
528.55	482.15
528.72	440.02
528.89	479.81
529.07	500.87
529.24	418.96
529.41	468.11
529.58	414.27
529.75	383.85
529.92	428.32
530.09	435.34
530.26	454.06
530.43	430.66
530.60	416.62
530.77	444.70
530.94	407.25
531.11	444.70
531.28	416.62
531.46	414.27
531.63	402.57
531.80	400.23
531.97	421.30
532.14	454.06
532.31	397.89
532.48	482.15
532.65	407.25
532.82	414.27
532.99	505.56
533.16	454.06
533.33	421.30
533.50	484.49
533.67	390.87
533.84	404.91
534.01	428.32
534.18	386.19
534.35	404.91
534.52	428.32
534.69	374.49
534.86	451.72
535.03	395.55
535.20	444.70
535.37	447.04
535.54	346.40
535.71	477.47
535.88	491.51
536.05	421.30
536.22	435.34
536.38	374.49
536.55	461.09
536.72	444.70
536.89	430.66
537.06	428.32
537.23	416.62
537.40	444.70
537.57	461.09
537.74	454.06
537.91	458.74
538.08	435.34
538.25	489.17
538.42	327.68
538.59	423.64
538.75	400.23
538.92	390.87
539.09	433.00
539.26	409.59
539.43	468.11
539.60	402.57
539.77	463.43
539.94	418.96
540.11	322.99
540.28	470.45
540.44	454.06
540.61	454.06
540.78	435.34
540.95	411.93
541.12	444.70
541.29	395.55
541.46	435.34
541.62	442.36
541.79	428.32
541.96	393.21
542.13	372.15
542.30	428.32
542.47	435.34
542.63	463.43
542.80	320.65
542.97	386.19
543.14	463.43
543.31	430.66
543.48	458.74
543.64	421.30
543.81	383.85
543.98	400.23
544.15	428.32
544.32	451.72
544.48	383.85
544.65	423.64
544.82	493.85
544.99	407.25
545.16	489.17
545.32	449.38
545.49	468.11
545.66	404.91
545.83	428.32
546.00	402.57
546.16	470.45
546.33	418.96
546.50	386.19
546.67	393.21
546.83	374.49
547.00	468.11
547.17	390.87
547.34	372.15
547.50	386.19
547.67	390.87
547.84	414.27
548.00	458.74
548.17	428.32
548.34	451.72
548.51	472.79
548.67	444.70
548.84	409.59
549.01	458.74
549.18	440.02
549.34	437.68
549.51	418.96
549.68	404.91
549.84	437.68
550.01	386.19
550.18	447.04
550.34	444.70
550.51	376.83
550.68	404.91
550.84	421.30
551.01	472.79
551.18	313.63
551.34	388.53
551.51	425.98
551.68	379.17
551.84	435.34
552.01	472.79
552.18	437.68
552.34	418.96
552.51	442.36
552.68	463.43
552.84	388.53
553.01	433.00
553.18	395.55
553.34	404.91
553.51	418.96
553.67	414.27
553.84	416.62
554.01	411.93
554.17	315.97
554.34	425.98
554.51	344.06
554.67	482.15
554.84	416.62
555.00	395.55
555.17	416.62
555.33	444.70
555.50	430.66
555.67	393.21
555.83	421.30
556.00	407.25
556.16	465.77
556.33	433.00
556.50	411.93
556.66	388.53
556.83	451.72
556.99	414.27
557.16	402.57
557.32	390.87
557.49	449.38
557.65	372.15
557.82	423.64
557.98	383.85
558.15	447.04
558.32	425.98
558.48	418.96
558.65	395.55
558.81	440.02
558.98	418.96
559.14	498.53
559.31	393.21
559.47	440.02
559.64	421.30
559.80	383.85
559.97	437.68
560.13	416.62
560.30	348.74
560.46	421.30
560.63	423.64
560.79	414.27
560.96	341.72
561.12	407.25
561.29	414.27
561.45	491.51
561.61	435.34
561.78	533.64
561.94	461.09
562.11	395.55
562.27	386.19
562.44	365.12
562.60	397.89
562.77	381.51
562.93	447.04
563.10	348.74
563.26	421.30
563.42	435.34
563.59	388.53
563.75	320.65
563.92	435.34
564.08	484.49
564.24	444.70
564.41	393.21
564.57	428.32
564.74	388.53
564.90	489.17
565.07	470.45
565.23	484.49
565.39	484.49
565.56	461.09
565.72	409.59
565.88	402.57
566.05	423.64
566.21	449.38
566.38	374.49
566.54	477.47
566.70	423.64
566.87	447.04
567.03	346.40
567.19	493.85
567.36	411.93
567.52	402.57
567.68	454.06
567.85	423.64
568.01	465.77
568.17	393.21
568.34	465.77
568.50	458.74
568.66	383.85
568.83	482.15
568.99	430.66
569.15	388.53
569.32	407.25
569.48	407.25
569.64	374.49
569.81	414.27
569.97	461.09
570.13	416.62
570.30	386.19
570.46	411.93
570.62	337.04
570.78	435.34
570.95	409.59
571.11	440.02
571.27	461.09
571.43	411.93
571.60	463.43
571.76	433.00
571.92	454.06
572.09	454.06
572.25	463.43
572.41	395.55
572.57	444.70
572.74	472.79
572.90	365.12
573.06	423.64
573.22	404.91
573.38	479.81
573.55	440.02
573.71	447.04
573.87	435.34
574.03	386.19
574.20	433.00
574.36	470.45
574.52	358.10
574.68	390.87
574.84	358.10
575.01	416.62
575.17	418.96
575.33	418.96
575.49	437.68
575.65	442.36
575.82	360.44
575.98	383.85
576.14	437.68
576.30	386.19
576.46	416.62
576.62	435.34
576.79	388.53
576.95	407.25
577.11	428.32
577.27	376.83
577.43	456.40
577.59	435.34
577.75	503.22
577.92	435.34
578.08	470.45
578.24	489.17
578.40	418.96
578.56	423.64
578.72	496.19
578.88	430.66
579.04	294.91
579.21	430.66
579.37	428.32
579.53	428.32
579.69	437.68
579.85	388.53
580.01	475.13
580.17	414.27
580.33	355.76
580.49	461.09
580.65	409.59
580.82	468.11
580.98	425.98
581.14	458.74
581.30	407.25
581.46	409.59
581.62	447.04
581.78	421.30
581.94	479.81
582.10	442.36
582.26	393.21
582.42	400.23
582.58	388.53
582.74	339.38
582.90	447.04
583.06	482.15
583.22	472.79
583.38	440.02
583.54	461.09
583.70	484.49
583.86	355.76
584.02	454.06
584.18	451.72
584.34	395.55
584.50	390.87
584.66	395.55
584.82	341.72
584.98	430.66
585.14	416.62
585.30	414.27
585.46	397.89
585.62	451.72
585.78	440.02
585.94	514.92
586.10	379.17
586.26	397.89
586.42	491.51
586.58	411.93
586.74	383.85
586.90	411.93
587.06	486.83
587.22	404.91
587.38	388.53
587.54	423.64
587.70	496.19
587.86	458.74
588.02	461.09
588.18	451.72
588.34	437.68
588.49	411.93
588.65	388.53
588.81	379.17
588.97	337.04
589.13	423.64
589.29	397.89
589.45	404.91
589.61	433.00
589.77	395.55
589.93	379.17
590.08	435.34
590.24	423.64
590.40	348.74
590.56	479.81
590.72	425.98
590.88	425.98
591.04	449.38
591.20	477.47
591.35	505.56
591.51	442.36
591.67	402.57
591.83	440.02
591.99	475.13
592.15	493.85
592.31	524.28
592.46	365.12
592.62	390.87
592.78	425.98
592.94	451.72
593.10	409.59
593.26	400.23
593.41	395.55
593.57	430.66
593.73	423.64
593.89	461.09
594.05	388.53
594.20	395.55
594.36	393.21
594.52	386.19
594.68	388.53
594.84	433.00
594.99	482.15
595.15	451.72
595.31	454.06
595.47	484.49
595.62	496.19
595.78	404.91
595.94	397.89
596.10	475.13
596.25	425.98
596.41	433.00
596.57	374.49
596.73	428.32
596.88	435.34
597.04	383.85
597.20	468.11
597.36	491.51
597.51	379.17
597.67	362.78
597.83	416.62
597.99	440.02
598.14	489.17
598.30	472.79
598.46	416.62
598.61	442.36
598.77	390.87
598.93	376.83
599.09	442.36
599.24	437.68
599.40	449.38
599.56	498.53
599.71	447.04
599.87	449.38
600.03	365.12
600.18	393.21
600.34	421.30
600.50	360.44
600.65	379.17
600.81	362.78
600.97	395.55
601.12	442.36
601.28	491.51
601.44	393.21
601.59	388.53
601.75	383.85
601.91	428.32
602.06	421.30
602.22	433.00
602.37	442.36
602.53	458.74
602.69	395.55
602.84	447.04
603.00	435.34
603.16	486.83
603.31	449.38
603.47	393.21
603.62	414.27
603.78	482.15
603.94	463.43
604.09	360.44
604.25	409.59
604.40	390.87
604.56	381.51
604.71	381.51
604.87	430.66
605.03	550.03
605.18	458.74
605.34	463.43
605.49	428.32
605.65	355.76
605.80	372.15
605.96	330.02
606.12	376.83
606.27	505.56
606.43	489.17
606.58	416.62
606.74	409.59
606.89	348.74
607.05	386.19
607.20	444.70
607.36	437.68
607.51	402.57
607.67	421.30
607.82	435.34
607.98	496.19
608.13	458.74
608.29	454.06
608.44	435.34
608.60	458.74
608.75	435.34
608.91	507.90
609.06	444.70
609.22	470.45
609.37	465.77
609.53	423.64
609.68	388.53
609.84	435.34
609.99	376.83
610.15	409.59
