SpectraSuite Data File
++++++++++++++++++++++++++++++++++++
Date: Fri Oct 25 12:10:05 EDT 2013
User: price-jones
Dark Spectrum Present: No
Reference Spectrum Present: No
Number of Sampled Component Spectra: 1
Spectrometers: USB2+H05261
Integration Time (usec): 100000 (USB2+H05261)
Spectra Averaged: 1 (USB2+H05261)
Boxcar Smoothing: 0 (USB2+H05261)
Correct for Electrical Dark: No (USB2+H05261)
Strobe/Lamp Enabled: No (USB2+H05261)
Correct for Detector Non-linearity: No (USB2+H05261)
Correct for Stray Light: No (USB2+H05261)
Number of Pixels in Processed Spectrum: 2048
>>>>>Begin Processed Spectral Data<<<<<
365.73	322.99
365.92	322.99
366.12	322.99
366.32	227.03
366.52	243.42
366.72	220.01
366.91	220.01
367.11	184.90
367.31	173.20
367.51	220.01
367.70	231.71
367.90	224.69
368.10	283.20
368.30	271.50
368.49	201.29
368.69	250.44
368.89	243.42
369.09	189.58
369.28	252.78
369.48	184.90
369.68	304.27
369.87	283.20
370.07	297.25
370.27	320.65
370.47	351.08
370.66	367.46
370.86	332.36
371.06	381.51
371.25	365.12
371.45	402.57
371.65	365.12
371.84	409.59
372.04	353.42
372.24	423.64
372.44	348.74
372.63	379.17
372.83	322.99
373.03	369.80
373.22	400.23
373.42	374.49
373.62	442.36
373.81	388.53
374.01	428.32
374.21	411.93
374.40	486.83
374.60	418.96
374.79	402.57
374.99	381.51
375.19	404.91
375.38	388.53
375.58	381.51
375.78	437.68
375.97	388.53
376.17	447.04
376.37	486.83
376.56	440.02
376.76	381.51
376.95	461.09
377.15	414.27
377.35	337.04
377.54	390.87
377.74	372.15
377.93	442.36
378.13	390.87
378.33	437.68
378.52	376.83
378.72	409.59
378.91	407.25
379.11	372.15
379.31	388.53
379.50	411.93
379.70	491.51
379.89	372.15
380.09	433.00
380.28	388.53
380.48	418.96
380.68	407.25
380.87	372.15
381.07	451.72
381.26	447.04
381.46	470.45
381.65	411.93
381.85	402.57
382.04	397.89
382.24	449.38
382.43	411.93
382.63	444.70
382.83	365.12
383.02	411.93
383.22	414.27
383.41	407.25
383.61	376.83
383.80	421.30
384.00	388.53
384.19	435.34
384.39	355.76
384.58	358.10
384.78	395.55
384.97	374.49
385.17	379.17
385.36	360.44
385.56	400.23
385.75	414.27
385.95	315.97
386.14	325.33
386.34	360.44
386.53	400.23
386.72	381.51
386.92	418.96
387.11	393.21
387.31	297.25
387.50	491.51
387.70	404.91
387.89	365.12
388.09	400.23
388.28	404.91
388.48	393.21
388.67	395.55
388.86	423.64
389.06	337.04
389.25	454.06
389.45	397.89
389.64	418.96
389.84	430.66
390.03	454.06
390.22	407.25
390.42	423.64
390.61	348.74
390.81	404.91
391.00	379.17
391.19	393.21
391.39	390.87
391.58	461.09
391.78	458.74
391.97	362.78
392.16	465.77
392.36	442.36
392.55	463.43
392.75	484.49
392.94	369.80
393.13	435.34
393.33	414.27
393.52	442.36
393.71	472.79
393.91	475.13
394.10	397.89
394.29	330.02
394.49	414.27
394.68	430.66
394.88	451.72
395.07	386.19
395.26	444.70
395.46	383.85
395.65	416.62
395.84	440.02
396.04	463.43
396.23	409.59
396.42	395.55
396.62	395.55
396.81	372.15
397.00	388.53
397.19	400.23
397.39	425.98
397.58	440.02
397.77	440.02
397.97	444.70
398.16	402.57
398.35	449.38
398.55	440.02
398.74	421.30
398.93	397.89
399.12	393.21
399.32	411.93
399.51	388.53
399.70	383.85
399.90	351.08
400.09	393.21
400.28	472.79
400.47	421.30
400.67	397.89
400.86	430.66
401.05	425.98
401.24	388.53
401.44	486.83
401.63	386.19
401.82	470.45
402.01	353.42
402.21	421.30
402.40	304.27
402.59	447.04
402.78	479.81
402.97	437.68
403.17	367.46
403.36	379.17
403.55	425.98
403.74	390.87
403.93	304.27
404.13	423.64
404.32	440.02
404.51	337.04
404.70	435.34
404.89	428.32
405.09	428.32
405.28	407.25
405.47	365.12
405.66	430.66
405.85	435.34
406.05	433.00
406.24	383.85
406.43	425.98
406.62	463.43
406.81	454.06
407.00	344.06
407.20	411.93
407.39	372.15
407.58	440.02
407.77	416.62
407.96	493.85
408.15	425.98
408.34	404.91
408.54	421.30
408.73	348.74
408.92	428.32
409.11	416.62
409.30	411.93
409.49	425.98
409.68	367.46
409.87	430.66
410.07	435.34
410.26	421.30
410.45	393.21
410.64	332.36
410.83	444.70
411.02	402.57
411.21	367.46
411.40	407.25
411.59	320.65
411.78	407.25
411.98	386.19
412.17	465.77
412.36	402.57
412.55	416.62
412.74	393.21
412.93	468.11
413.12	409.59
413.31	346.40
413.50	379.17
413.69	444.70
413.88	411.93
414.07	442.36
414.26	393.21
414.45	348.74
414.64	425.98
414.83	397.89
415.02	407.25
415.22	409.59
415.41	404.91
415.60	411.93
415.79	454.06
415.98	372.15
416.17	386.19
416.36	423.64
416.55	458.74
416.74	461.09
416.93	440.02
417.12	369.80
417.31	465.77
417.50	414.27
417.69	374.49
417.88	444.70
418.07	351.08
418.26	435.34
418.45	430.66
418.64	465.77
418.83	444.70
419.02	461.09
419.21	362.78
419.39	402.57
419.58	376.83
419.77	358.10
419.96	465.77
420.15	451.72
420.34	437.68
420.53	437.68
420.72	400.23
420.91	341.72
421.10	381.51
421.29	402.57
421.48	442.36
421.67	416.62
421.86	339.38
422.05	416.62
422.24	388.53
422.43	437.68
422.61	390.87
422.80	440.02
422.99	404.91
423.18	327.68
423.37	486.83
423.56	437.68
423.75	451.72
423.94	437.68
424.13	425.98
424.32	416.62
424.50	395.55
424.69	414.27
424.88	411.93
425.07	440.02
425.26	470.45
425.45	444.70
425.64	454.06
425.83	393.21
426.01	416.62
426.20	433.00
426.39	348.74
426.58	369.80
426.77	437.68
426.96	416.62
427.15	430.66
427.33	418.96
427.52	374.49
427.71	449.38
427.90	411.93
428.09	348.74
428.28	421.30
428.46	409.59
428.65	393.21
428.84	367.46
429.03	449.38
429.22	428.32
429.40	521.94
429.59	433.00
429.78	367.46
429.97	482.15
430.16	379.17
430.34	400.23
430.53	437.68
430.72	386.19
430.91	465.77
431.10	409.59
431.28	395.55
431.47	433.00
431.66	503.22
431.85	449.38
432.03	416.62
432.22	351.08
432.41	404.91
432.60	428.32
432.79	430.66
432.97	425.98
433.16	433.00
433.35	435.34
433.54	425.98
433.72	416.62
433.91	409.59
434.10	409.59
434.28	472.79
434.47	449.38
434.66	409.59
434.85	404.91
435.03	482.15
435.22	416.62
435.41	491.51
435.59	430.66
435.78	379.17
435.97	390.87
436.16	430.66
436.34	304.27
436.53	444.70
436.72	423.64
436.90	447.04
437.09	421.30
437.28	454.06
437.46	430.66
437.65	472.79
437.84	383.85
438.02	386.19
438.21	390.87
438.40	374.49
438.58	390.87
438.77	433.00
438.96	346.40
439.14	334.70
439.33	435.34
439.52	395.55
439.70	435.34
439.89	440.02
440.08	465.77
440.26	456.40
440.45	358.10
440.63	449.38
440.82	390.87
441.01	390.87
441.19	390.87
441.38	379.17
441.57	386.19
441.75	477.47
441.94	376.83
442.12	430.66
442.31	411.93
442.50	397.89
442.68	390.87
442.87	395.55
443.05	447.04
443.24	472.79
443.43	486.83
443.61	365.12
443.80	435.34
443.98	409.59
444.17	484.49
444.35	425.98
444.54	362.78
444.73	491.51
444.91	482.15
445.10	437.68
445.28	451.72
445.47	437.68
445.65	400.23
445.84	416.62
446.02	400.23
446.21	435.34
446.39	367.46
446.58	334.70
446.77	360.44
446.95	393.21
447.14	404.91
447.32	425.98
447.51	430.66
447.69	416.62
447.88	416.62
448.06	437.68
448.25	442.36
448.43	374.49
448.62	376.83
448.80	376.83
448.99	468.11
449.17	421.30
449.36	367.46
449.54	416.62
449.73	411.93
449.91	388.53
450.10	465.77
450.28	435.34
450.46	444.70
450.65	397.89
450.83	393.21
451.02	411.93
451.20	442.36
451.39	369.80
451.57	383.85
451.76	433.00
451.94	437.68
452.13	524.28
452.31	425.98
452.49	411.93
452.68	353.42
452.86	498.53
453.05	414.27
453.23	397.89
453.42	418.96
453.60	423.64
453.78	440.02
453.97	425.98
454.15	404.91
454.34	414.27
454.52	517.26
454.70	418.96
454.89	437.68
455.07	409.59
455.26	404.91
455.44	442.36
455.62	381.51
455.81	475.13
455.99	407.25
456.17	330.02
456.36	425.98
456.54	425.98
456.73	411.93
456.91	388.53
457.09	444.70
457.28	507.90
457.46	430.66
457.64	435.34
457.83	369.80
458.01	381.51
458.19	418.96
458.38	482.15
458.56	414.27
458.74	416.62
458.93	428.32
459.11	362.78
459.29	411.93
459.48	442.36
459.66	451.72
459.84	404.91
460.03	435.34
460.21	433.00
460.39	379.17
460.57	491.51
460.76	411.93
460.94	416.62
461.12	418.96
461.31	519.60
461.49	402.57
461.67	388.53
461.85	458.74
462.04	381.51
462.22	777.06
462.40	428.32
462.59	458.74
462.77	407.25
462.95	449.38
463.13	393.21
463.32	414.27
463.50	411.93
463.68	472.79
463.86	498.53
464.05	440.02
464.23	381.51
464.41	430.66
464.59	423.64
464.78	430.66
464.96	402.57
465.14	397.89
465.32	379.17
465.50	416.62
465.69	435.34
465.87	409.59
466.05	395.55
466.23	374.49
466.41	428.32
466.60	351.08
466.78	423.64
466.96	414.27
467.14	397.89
467.32	430.66
467.51	414.27
467.69	397.89
467.87	386.19
468.05	388.53
468.23	447.04
468.41	440.02
468.60	440.02
468.78	411.93
468.96	404.91
469.14	444.70
469.32	402.57
469.50	372.15
469.69	351.08
469.87	379.17
470.05	423.64
470.23	454.06
470.41	362.78
470.59	430.66
470.77	456.40
470.95	465.77
471.14	463.43
471.32	489.17
471.50	374.49
471.68	423.64
471.86	383.85
472.04	362.78
472.22	458.74
472.40	346.40
472.58	409.59
472.77	362.78
472.95	463.43
473.13	433.00
473.31	472.79
473.49	397.89
473.67	423.64
473.85	458.74
474.03	477.47
474.21	447.04
474.39	447.04
474.57	517.26
474.75	423.64
474.93	372.15
475.12	353.42
475.30	409.59
475.48	425.98
475.66	423.64
475.84	444.70
476.02	402.57
476.20	390.87
476.38	418.96
476.56	512.58
476.74	390.87
476.92	334.70
477.10	404.91
477.28	407.25
477.46	360.44
477.64	456.40
477.82	395.55
478.00	397.89
478.18	437.68
478.36	372.15
478.54	482.15
478.72	325.33
478.90	479.81
479.08	430.66
479.26	395.55
479.44	423.64
479.62	344.06
479.80	491.51
479.98	397.89
480.16	421.30
480.34	437.68
480.52	418.96
480.70	376.83
480.88	369.80
481.06	407.25
481.24	435.34
481.41	444.70
481.59	369.80
481.77	386.19
481.95	388.53
482.13	468.11
482.31	414.27
482.49	358.10
482.67	425.98
482.85	395.55
483.03	428.32
483.21	393.21
483.39	407.25
483.57	454.06
483.74	386.19
483.92	423.64
484.10	425.98
484.28	477.47
484.46	470.45
484.64	444.70
484.82	414.27
485.00	451.72
485.18	428.32
485.35	421.30
485.53	435.34
485.71	465.77
485.89	374.49
486.07	386.19
486.25	430.66
486.43	390.87
486.61	376.83
486.78	458.74
486.96	451.72
487.14	433.00
487.32	442.36
487.50	355.76
487.68	346.40
487.85	409.59
488.03	493.85
488.21	428.32
488.39	367.46
488.57	407.25
488.75	365.12
488.92	540.66
489.10	428.32
489.28	402.57
489.46	358.10
489.64	433.00
489.81	376.83
489.99	437.68
490.17	440.02
490.35	369.80
490.53	468.11
490.70	421.30
490.88	437.68
491.06	404.91
491.24	362.78
491.41	451.72
491.59	435.34
491.77	390.87
491.95	341.72
492.13	409.59
492.30	379.17
492.48	484.49
492.66	390.87
492.84	369.80
493.01	383.85
493.19	355.76
493.37	404.91
493.54	390.87
493.72	376.83
493.90	395.55
494.08	447.04
494.25	444.70
494.43	355.76
494.61	374.49
494.79	421.30
494.96	395.55
495.14	449.38
495.32	433.00
495.49	437.68
495.67	454.06
495.85	395.55
496.02	369.80
496.20	383.85
496.38	465.77
496.55	440.02
496.73	407.25
496.91	442.36
497.09	425.98
497.26	383.85
497.44	507.90
497.62	393.21
497.79	369.80
497.97	433.00
498.14	470.45
498.32	414.27
498.50	463.43
498.67	332.36
498.85	451.72
499.03	470.45
499.20	381.51
499.38	341.72
499.56	423.64
499.73	458.74
499.91	421.30
500.08	414.27
500.26	463.43
500.44	472.79
500.61	400.23
500.79	402.57
500.97	390.87
501.14	397.89
501.32	365.12
501.49	437.68
501.67	463.43
501.84	400.23
502.02	440.02
502.20	390.87
502.37	348.74
502.55	435.34
502.72	390.87
502.90	500.87
503.07	468.11
503.25	451.72
503.43	400.23
503.60	407.25
503.78	430.66
503.95	390.87
504.13	421.30
504.30	430.66
504.48	395.55
504.65	461.09
504.83	337.04
505.01	386.19
505.18	433.00
505.36	376.83
505.53	451.72
505.71	395.55
505.88	437.68
506.06	409.59
506.23	407.25
506.41	402.57
506.58	369.80
506.76	397.89
506.93	365.12
507.11	442.36
507.28	437.68
507.46	407.25
507.63	400.23
507.81	421.30
507.98	421.30
508.16	395.55
508.33	397.89
508.50	421.30
508.68	421.30
508.85	351.08
509.03	355.76
509.20	374.49
509.38	435.34
509.55	505.56
509.73	407.25
509.90	428.32
510.08	482.15
510.25	407.25
510.42	381.51
510.60	383.85
510.77	358.10
510.95	433.00
511.12	510.24
511.30	400.23
511.47	498.53
511.64	514.92
511.82	386.19
511.99	334.70
512.17	383.85
512.34	451.72
512.51	470.45
512.69	437.68
512.86	479.81
513.04	428.32
513.21	407.25
513.38	461.09
513.56	440.02
513.73	388.53
513.90	351.08
514.08	470.45
514.25	393.21
514.43	442.36
514.60	386.19
514.77	440.02
514.95	414.27
515.12	362.78
515.29	390.87
515.47	388.53
515.64	468.11
515.81	416.62
515.99	423.64
516.16	395.55
516.33	447.04
516.51	402.57
516.68	395.55
516.85	414.27
517.03	381.51
517.20	365.12
517.37	428.32
517.54	507.90
517.72	437.68
517.89	425.98
518.06	404.91
518.24	407.25
518.41	423.64
518.58	421.30
518.75	372.15
518.93	437.68
519.10	327.68
519.27	435.34
519.45	440.02
519.62	416.62
519.79	397.89
519.96	414.27
520.14	414.27
520.31	409.59
520.48	414.27
520.65	479.81
520.83	411.93
521.00	411.93
521.17	416.62
521.34	395.55
521.52	313.63
521.69	414.27
521.86	395.55
522.03	390.87
522.20	468.11
522.38	390.87
522.55	411.93
522.72	461.09
522.89	458.74
523.07	442.36
523.24	421.30
523.41	379.17
523.58	369.80
523.75	409.59
523.92	374.49
524.10	440.02
524.27	475.13
524.44	374.49
524.61	444.70
524.78	425.98
524.96	517.26
525.13	416.62
525.30	435.34
525.47	458.74
525.64	454.06
525.81	437.68
525.98	447.04
526.16	400.23
526.33	395.55
526.50	440.02
526.67	437.68
526.84	421.30
527.01	437.68
527.18	397.89
527.36	407.25
527.53	454.06
527.70	425.98
527.87	461.09
528.04	409.59
528.21	365.12
528.38	414.27
528.55	407.25
528.72	447.04
528.89	444.70
529.07	397.89
529.24	372.15
529.41	456.40
529.58	418.96
529.75	376.83
529.92	393.21
530.09	397.89
530.26	388.53
530.43	402.57
530.60	383.85
530.77	456.40
530.94	468.11
531.11	428.32
531.28	430.66
531.46	344.06
531.63	390.87
531.80	458.74
531.97	372.15
532.14	514.92
532.31	437.68
532.48	421.30
532.65	479.81
532.82	437.68
532.99	414.27
533.16	423.64
533.33	440.02
533.50	456.40
533.67	423.64
533.84	397.89
534.01	444.70
534.18	383.85
534.35	449.38
534.52	421.30
534.69	449.38
534.86	360.44
535.03	402.57
535.20	355.76
535.37	461.09
535.54	390.87
535.71	433.00
535.88	524.28
536.05	390.87
536.22	475.13
536.38	330.02
536.55	430.66
536.72	458.74
536.89	376.83
537.06	388.53
537.23	404.91
537.40	458.74
537.57	463.43
537.74	428.32
537.91	393.21
538.08	444.70
538.25	482.15
538.42	334.70
538.59	444.70
538.75	400.23
538.92	409.59
539.09	381.51
539.26	393.21
539.43	381.51
539.60	425.98
539.77	404.91
539.94	404.91
540.11	397.89
540.28	421.30
540.44	418.96
540.61	381.51
540.78	425.98
540.95	397.89
541.12	472.79
541.29	482.15
541.46	358.10
541.62	393.21
541.79	416.62
541.96	304.27
542.13	376.83
542.30	402.57
542.47	430.66
542.63	454.06
542.80	404.91
542.97	470.45
543.14	430.66
543.31	435.34
543.48	451.72
543.64	383.85
543.81	411.93
543.98	386.19
544.15	381.51
544.32	416.62
544.48	435.34
544.65	383.85
544.82	423.64
544.99	407.25
545.16	437.68
545.32	482.15
545.49	393.21
545.66	362.78
545.83	409.59
546.00	451.72
546.16	372.15
546.33	458.74
546.50	430.66
546.67	430.66
546.83	440.02
547.00	414.27
547.17	386.19
547.34	437.68
547.50	393.21
547.67	407.25
547.84	376.83
548.00	484.49
548.17	442.36
548.34	421.30
548.51	496.19
548.67	456.40
548.84	381.51
549.01	468.11
549.18	472.79
549.34	451.72
549.51	327.68
549.68	458.74
549.84	461.09
550.01	369.80
550.18	521.94
550.34	484.49
550.51	402.57
550.68	477.47
550.84	423.64
551.01	416.62
551.18	402.57
551.34	437.68
551.51	454.06
551.68	449.38
551.84	510.24
552.01	402.57
552.18	353.42
552.34	369.80
552.51	440.02
552.68	383.85
552.84	404.91
553.01	423.64
553.18	425.98
553.34	369.80
553.51	379.17
553.67	444.70
553.84	517.26
554.01	407.25
554.17	409.59
554.34	381.51
554.51	433.00
554.67	486.83
554.84	397.89
555.00	393.21
555.17	447.04
555.33	402.57
555.50	433.00
555.67	479.81
555.83	376.83
556.00	379.17
556.16	566.41
556.33	463.43
556.50	444.70
556.66	409.59
556.83	418.96
556.99	423.64
557.16	451.72
557.32	402.57
557.49	348.74
557.65	379.17
557.82	334.70
557.98	472.79
558.15	407.25
558.32	468.11
558.48	463.43
558.65	454.06
558.81	440.02
558.98	395.55
559.14	421.30
559.31	395.55
559.47	414.27
559.64	360.44
559.80	418.96
559.97	444.70
560.13	367.46
560.30	437.68
560.46	456.40
560.63	353.42
560.79	449.38
560.96	381.51
561.12	341.72
561.29	421.30
561.45	322.99
561.61	400.23
561.78	503.22
561.94	442.36
562.11	451.72
562.27	409.59
562.44	348.74
562.60	416.62
562.77	348.74
562.93	449.38
563.10	440.02
563.26	395.55
563.42	397.89
563.59	388.53
563.75	435.34
563.92	430.66
564.08	374.49
564.24	444.70
564.41	404.91
564.57	393.21
564.74	400.23
564.90	341.72
565.07	500.87
565.23	444.70
565.39	449.38
565.56	407.25
565.72	451.72
565.88	456.40
566.05	407.25
566.21	332.36
566.38	369.80
566.54	409.59
566.70	351.08
566.87	430.66
567.03	430.66
567.19	397.89
567.36	402.57
567.52	369.80
567.68	397.89
567.85	411.93
568.01	376.83
568.17	461.09
568.34	444.70
568.50	365.12
568.66	402.57
568.83	421.30
568.99	465.77
569.15	486.83
569.32	411.93
569.48	437.68
569.64	395.55
569.81	435.34
569.97	428.32
570.13	428.32
570.30	425.98
570.46	430.66
570.62	393.21
570.78	400.23
570.95	423.64
571.11	456.40
571.27	411.93
571.43	402.57
571.60	447.04
571.76	379.17
571.92	421.30
572.09	423.64
572.25	402.57
572.41	421.30
572.57	397.89
572.74	440.02
572.90	409.59
573.06	388.53
573.22	458.74
573.38	383.85
573.55	463.43
573.71	433.00
573.87	468.11
574.03	407.25
574.20	416.62
574.36	454.06
574.52	400.23
574.68	395.55
574.84	379.17
575.01	351.08
575.17	407.25
575.33	344.06
575.49	447.04
575.65	367.46
575.82	409.59
575.98	421.30
576.14	444.70
576.30	416.62
576.46	411.93
576.62	416.62
576.79	503.22
576.95	440.02
577.11	409.59
577.27	344.06
577.43	411.93
577.59	475.13
577.75	376.83
577.92	397.89
578.08	421.30
578.24	351.08
578.40	379.17
578.56	437.68
578.72	465.77
578.88	505.56
579.04	428.32
579.21	421.30
579.37	451.72
579.53	418.96
579.69	418.96
579.85	313.63
580.01	409.59
580.17	433.00
580.33	395.55
580.49	442.36
580.65	395.55
580.82	397.89
580.98	477.47
581.14	409.59
581.30	409.59
581.46	379.17
581.62	489.17
581.78	440.02
581.94	397.89
582.10	379.17
582.26	468.11
582.42	444.70
582.58	454.06
582.74	414.27
582.90	397.89
583.06	463.43
583.22	414.27
583.38	400.23
583.54	463.43
583.70	381.51
583.86	430.66
584.02	421.30
584.18	491.51
584.34	507.90
584.50	411.93
584.66	381.51
584.82	388.53
584.98	400.23
585.14	430.66
585.30	442.36
585.46	416.62
585.62	433.00
585.78	400.23
585.94	454.06
586.10	386.19
586.26	383.85
586.42	491.51
586.58	388.53
586.74	407.25
586.90	386.19
587.06	404.91
587.22	374.49
587.38	341.72
587.54	409.59
587.70	451.72
587.86	428.32
588.02	374.49
588.18	416.62
588.34	418.96
588.49	374.49
588.65	447.04
588.81	390.87
588.97	322.99
589.13	407.25
589.29	435.34
589.45	514.92
589.61	435.34
589.77	435.34
589.93	400.23
590.08	395.55
590.24	388.53
590.40	456.40
590.56	451.72
590.72	435.34
590.88	372.15
591.04	425.98
591.20	433.00
591.35	407.25
591.51	411.93
591.67	444.70
591.83	479.81
591.99	402.57
592.15	393.21
592.31	428.32
592.46	402.57
592.62	404.91
592.78	440.02
592.94	388.53
593.10	367.46
593.26	383.85
593.41	397.89
593.57	411.93
593.73	435.34
593.89	402.57
594.05	475.13
594.20	407.25
594.36	444.70
594.52	423.64
594.68	437.68
594.84	475.13
594.99	444.70
595.15	411.93
595.31	423.64
595.47	402.57
595.62	400.23
595.78	484.49
595.94	362.78
596.10	379.17
596.25	386.19
596.41	379.17
596.57	458.74
596.73	486.83
596.88	442.36
597.04	376.83
597.20	461.09
597.36	397.89
597.51	407.25
597.67	456.40
597.83	365.12
597.99	430.66
598.14	362.78
598.30	390.87
598.46	395.55
598.61	449.38
598.77	414.27
598.93	402.57
599.09	397.89
599.24	421.30
599.40	437.68
599.56	411.93
599.71	393.21
599.87	472.79
600.03	418.96
600.18	465.77
600.34	444.70
600.50	381.51
600.65	379.17
600.81	402.57
600.97	381.51
601.12	421.30
601.28	425.98
601.44	437.68
601.59	379.17
601.75	386.19
601.91	456.40
602.06	355.76
602.22	482.15
602.37	435.34
602.53	367.46
602.69	407.25
602.84	395.55
603.00	365.12
603.16	379.17
603.31	465.77
603.47	433.00
603.62	444.70
603.78	367.46
603.94	395.55
604.09	379.17
604.25	418.96
604.40	444.70
604.56	425.98
604.71	351.08
604.87	369.80
605.03	355.76
605.18	479.81
605.34	428.32
605.49	458.74
605.65	395.55
605.80	411.93
605.96	435.34
606.12	397.89
606.27	369.80
606.43	454.06
606.58	421.30
606.74	416.62
606.89	475.13
607.05	416.62
607.20	468.11
607.36	404.91
607.51	407.25
607.67	358.10
607.82	400.23
607.98	421.30
608.13	400.23
608.29	449.38
608.44	442.36
608.60	454.06
608.75	477.47
608.91	421.30
609.06	472.79
609.22	416.62
609.37	444.70
609.53	435.34
609.68	365.12
609.84	461.09
609.99	402.57
610.15	430.66
