SpectraSuite Data File
++++++++++++++++++++++++++++++++++++
Date: Fri Oct 25 12:11:47 EDT 2013
User: price-jones
Dark Spectrum Present: No
Reference Spectrum Present: No
Number of Sampled Component Spectra: 1
Spectrometers: USB2+H05261
Integration Time (usec): 100000 (USB2+H05261)
Spectra Averaged: 1 (USB2+H05261)
Boxcar Smoothing: 0 (USB2+H05261)
Correct for Electrical Dark: No (USB2+H05261)
Strobe/Lamp Enabled: No (USB2+H05261)
Correct for Detector Non-linearity: No (USB2+H05261)
Correct for Stray Light: No (USB2+H05261)
Number of Pixels in Processed Spectrum: 2048
>>>>>Begin Processed Spectral Data<<<<<
365.73	351.08
365.92	351.08
366.12	351.08
366.32	231.71
366.52	278.52
366.72	215.33
366.91	168.52
367.11	318.31
367.31	201.29
367.51	248.10
367.70	234.05
367.90	220.01
368.10	234.05
368.30	196.60
368.49	170.86
368.69	238.73
368.89	304.27
369.09	294.91
369.28	182.56
369.48	292.57
369.68	273.84
369.87	273.84
370.07	313.63
370.27	301.93
370.47	285.55
370.66	344.06
370.86	355.76
371.06	374.49
371.25	390.87
371.45	386.19
371.65	414.27
371.84	358.10
372.04	386.19
372.24	428.32
372.44	463.43
372.63	318.31
372.83	367.46
373.03	372.15
373.22	423.64
373.42	395.55
373.62	454.06
373.81	365.12
374.01	435.34
374.21	465.77
374.40	440.02
374.60	409.59
374.79	388.53
374.99	411.93
375.19	379.17
375.38	442.36
375.58	447.04
375.78	421.30
375.97	339.38
376.17	444.70
376.37	407.25
376.56	435.34
376.76	383.85
376.95	383.85
377.15	397.89
377.35	437.68
377.54	404.91
377.74	454.06
377.93	433.00
378.13	393.21
378.33	407.25
378.52	369.80
378.72	393.21
378.91	360.44
379.11	381.51
379.31	416.62
379.50	315.97
379.70	423.64
379.89	430.66
380.09	379.17
380.28	435.34
380.48	369.80
380.68	388.53
380.87	353.42
381.07	390.87
381.26	376.83
381.46	442.36
381.65	498.53
381.85	425.98
382.04	367.46
382.24	442.36
382.43	442.36
382.63	362.78
382.83	367.46
383.02	442.36
383.22	404.91
383.41	461.09
383.61	435.34
383.80	456.40
384.00	379.17
384.19	369.80
384.39	423.64
384.58	400.23
384.78	409.59
384.97	428.32
385.17	454.06
385.36	447.04
385.56	344.06
385.75	430.66
385.95	360.44
386.14	409.59
386.34	397.89
386.53	425.98
386.72	414.27
386.92	414.27
387.11	456.40
387.31	393.21
387.50	381.51
387.70	477.47
387.89	440.02
388.09	430.66
388.28	440.02
388.48	475.13
388.67	393.21
388.86	430.66
389.06	447.04
389.25	477.47
389.45	409.59
389.64	379.17
389.84	451.72
390.03	425.98
390.22	414.27
390.42	386.19
390.61	376.83
390.81	421.30
391.00	440.02
391.19	388.53
391.39	470.45
391.58	379.17
391.78	409.59
391.97	433.00
392.16	409.59
392.36	430.66
392.55	400.23
392.75	330.02
392.94	301.93
393.13	360.44
393.33	376.83
393.52	402.57
393.71	442.36
393.91	449.38
394.10	358.10
394.29	344.06
394.49	430.66
394.68	444.70
394.88	545.34
395.07	376.83
395.26	451.72
395.46	435.34
395.65	369.80
395.84	411.93
396.04	454.06
396.23	461.09
396.42	451.72
396.62	418.96
396.81	418.96
397.00	404.91
397.19	374.49
397.39	400.23
397.58	416.62
397.77	395.55
397.97	477.47
398.16	421.30
398.35	418.96
398.55	442.36
398.74	430.66
398.93	440.02
399.12	444.70
399.32	390.87
399.51	472.79
399.70	400.23
399.90	390.87
400.09	449.38
400.28	437.68
400.47	461.09
400.67	367.46
400.86	465.77
401.05	348.74
401.24	395.55
401.44	440.02
401.63	437.68
401.82	477.47
402.01	383.85
402.21	358.10
402.40	407.25
402.59	430.66
402.78	388.53
402.97	355.76
403.17	369.80
403.36	435.34
403.55	437.68
403.74	383.85
403.93	517.26
404.13	402.57
404.32	374.49
404.51	418.96
404.70	381.51
404.89	442.36
405.09	430.66
405.28	390.87
405.47	383.85
405.66	351.08
405.85	458.74
406.05	383.85
406.24	437.68
406.43	475.13
406.62	393.21
406.81	440.02
407.00	451.72
407.20	414.27
407.39	404.91
407.58	456.40
407.77	421.30
407.96	383.85
408.15	367.46
408.34	449.38
408.54	411.93
408.73	423.64
408.92	388.53
409.11	421.30
409.30	456.40
409.49	390.87
409.68	348.74
409.87	374.49
410.07	395.55
410.26	379.17
410.45	383.85
410.64	379.17
410.83	479.81
411.02	360.44
411.21	461.09
411.40	458.74
411.59	393.21
411.78	367.46
411.98	395.55
412.17	395.55
412.36	458.74
412.55	416.62
412.74	458.74
412.93	470.45
413.12	386.19
413.31	505.56
413.50	393.21
413.69	421.30
413.88	440.02
414.07	362.78
414.26	484.49
414.45	348.74
414.64	433.00
414.83	367.46
415.02	454.06
415.22	404.91
415.41	461.09
415.60	395.55
415.79	388.53
415.98	458.74
416.17	388.53
416.36	437.68
416.55	433.00
416.74	437.68
416.93	383.85
417.12	414.27
417.31	482.15
417.50	369.80
417.69	444.70
417.88	365.12
418.07	404.91
418.26	362.78
418.45	386.19
418.64	414.27
418.83	465.77
419.02	411.93
419.21	437.68
419.39	425.98
419.58	411.93
419.77	437.68
419.96	395.55
420.15	430.66
420.34	461.09
420.53	458.74
420.72	454.06
420.91	447.04
421.10	433.00
421.29	369.80
421.48	463.43
421.67	381.51
421.86	404.91
422.05	383.85
422.24	437.68
422.43	376.83
422.61	383.85
422.80	400.23
422.99	397.89
423.18	491.51
423.37	402.57
423.56	437.68
423.75	440.02
423.94	365.12
424.13	425.98
424.32	421.30
424.50	425.98
424.69	468.11
424.88	447.04
425.07	407.25
425.26	397.89
425.45	440.02
425.64	386.19
425.83	458.74
426.01	470.45
426.20	374.49
426.39	423.64
426.58	442.36
426.77	447.04
426.96	489.17
427.15	465.77
427.33	447.04
427.52	482.15
427.71	442.36
427.90	447.04
428.09	411.93
428.28	416.62
428.46	395.55
428.65	409.59
428.84	393.21
429.03	430.66
429.22	355.76
429.40	414.27
429.59	458.74
429.78	397.89
429.97	339.38
430.16	339.38
430.34	428.32
430.53	430.66
430.72	468.11
430.91	414.27
431.10	360.44
431.28	395.55
431.47	430.66
431.66	395.55
431.85	390.87
432.03	374.49
432.22	447.04
432.41	355.76
432.60	451.72
432.79	393.21
432.97	386.19
433.16	411.93
433.35	383.85
433.54	433.00
433.72	369.80
433.91	411.93
434.10	425.98
434.28	400.23
434.47	365.12
434.66	437.68
434.85	421.30
435.03	440.02
435.22	397.89
435.41	433.00
435.59	404.91
435.78	472.79
435.97	447.04
436.16	477.47
436.34	381.51
436.53	458.74
436.72	456.40
436.90	470.45
437.09	447.04
437.28	397.89
437.46	390.87
437.65	411.93
437.84	325.33
438.02	425.98
438.21	358.10
438.40	390.87
438.58	374.49
438.77	493.85
438.96	393.21
439.14	393.21
439.33	437.68
439.52	414.27
439.70	386.19
439.89	433.00
440.08	416.62
440.26	393.21
440.45	433.00
440.63	433.00
440.82	421.30
441.01	372.15
441.19	390.87
441.38	454.06
441.57	461.09
441.75	416.62
441.94	395.55
442.12	447.04
442.31	430.66
442.50	421.30
442.68	374.49
442.87	454.06
443.05	409.59
443.24	456.40
443.43	425.98
443.61	421.30
443.80	386.19
443.98	355.76
444.17	404.91
444.35	372.15
444.54	428.32
444.73	440.02
444.91	451.72
445.10	393.21
445.28	440.02
445.47	397.89
445.65	386.19
445.84	374.49
446.02	418.96
446.21	411.93
446.39	390.87
446.58	381.51
446.77	425.98
446.95	472.79
447.14	402.57
447.32	414.27
447.51	437.68
447.69	430.66
447.88	383.85
448.06	444.70
448.25	425.98
448.43	404.91
448.62	374.49
448.80	390.87
448.99	435.34
449.17	409.59
449.36	390.87
449.54	425.98
449.73	397.89
449.91	383.85
450.10	339.38
450.28	447.04
450.46	411.93
450.65	447.04
450.83	423.64
451.02	353.42
451.20	444.70
451.39	402.57
451.57	414.27
451.76	374.49
451.94	383.85
452.13	475.13
452.31	379.17
452.49	341.72
452.68	425.98
452.86	416.62
453.05	390.87
453.23	409.59
453.42	362.78
453.60	353.42
453.78	470.45
453.97	437.68
454.15	477.47
454.34	390.87
454.52	395.55
454.70	386.19
454.89	475.13
455.07	397.89
455.26	404.91
455.44	442.36
455.62	442.36
455.81	449.38
455.99	465.77
456.17	400.23
456.36	365.12
456.54	369.80
456.73	540.66
456.91	346.40
457.09	430.66
457.28	369.80
457.46	358.10
457.64	400.23
457.83	381.51
458.01	402.57
458.19	397.89
458.38	346.40
458.56	461.09
458.74	411.93
458.93	409.59
459.11	454.06
459.29	381.51
459.48	440.02
459.66	442.36
459.84	430.66
460.03	524.28
460.21	477.47
460.39	407.25
460.57	451.72
460.76	409.59
460.94	409.59
461.12	447.04
461.31	444.70
461.49	456.40
461.67	393.21
461.85	341.72
462.04	458.74
462.22	765.36
462.40	421.30
462.59	454.06
462.77	425.98
462.95	409.59
463.13	411.93
463.32	472.79
463.50	383.85
463.68	456.40
463.86	358.10
464.05	435.34
464.23	430.66
464.41	369.80
464.59	463.43
464.78	470.45
464.96	374.49
465.14	428.32
465.32	372.15
465.50	400.23
465.69	430.66
465.87	447.04
466.05	404.91
466.23	463.43
466.41	430.66
466.60	433.00
466.78	451.72
466.96	444.70
467.14	379.17
467.32	444.70
467.51	456.40
467.69	475.13
467.87	472.79
468.05	444.70
468.23	374.49
468.41	444.70
468.60	407.25
468.78	442.36
468.96	507.90
469.14	365.12
469.32	374.49
469.50	449.38
469.69	351.08
469.87	458.74
470.05	482.15
470.23	374.49
470.41	442.36
470.59	404.91
470.77	507.90
470.95	470.45
471.14	428.32
471.32	407.25
471.50	449.38
471.68	454.06
471.86	393.21
472.04	430.66
472.22	393.21
472.40	365.12
472.58	311.29
472.77	440.02
472.95	372.15
473.13	463.43
473.31	468.11
473.49	433.00
473.67	383.85
473.85	393.21
474.03	386.19
474.21	411.93
474.39	475.13
474.57	477.47
474.75	407.25
474.93	423.64
475.12	486.83
475.30	416.62
475.48	425.98
475.66	423.64
475.84	409.59
476.02	447.04
476.20	421.30
476.38	397.89
476.56	498.53
476.74	402.57
476.92	414.27
477.10	465.77
477.28	451.72
477.46	407.25
477.64	404.91
477.82	437.68
478.00	372.15
478.18	491.51
478.36	430.66
478.54	390.87
478.72	337.04
478.90	411.93
479.08	390.87
479.26	475.13
479.44	435.34
479.62	411.93
479.80	367.46
479.98	416.62
480.16	388.53
480.34	449.38
480.52	489.17
480.70	322.99
480.88	353.42
481.06	404.91
481.24	423.64
481.41	437.68
481.59	425.98
481.77	400.23
481.95	397.89
482.13	421.30
482.31	348.74
482.49	374.49
482.67	330.02
482.85	430.66
483.03	461.09
483.21	402.57
483.39	458.74
483.57	351.08
483.74	507.90
483.92	425.98
484.10	409.59
484.28	475.13
484.46	507.90
484.64	435.34
484.82	463.43
485.00	435.34
485.18	404.91
485.35	430.66
485.53	381.51
485.71	479.81
485.89	351.08
486.07	409.59
486.25	468.11
486.43	376.83
486.61	367.46
486.78	442.36
486.96	416.62
487.14	447.04
487.32	440.02
487.50	447.04
487.68	454.06
487.85	442.36
488.03	358.10
488.21	390.87
488.39	430.66
488.57	421.30
488.75	390.87
488.92	479.81
489.10	414.27
489.28	454.06
489.46	414.27
489.64	484.49
489.81	421.30
489.99	416.62
490.17	369.80
490.35	416.62
490.53	433.00
490.70	393.21
490.88	442.36
491.06	423.64
491.24	428.32
491.41	332.36
491.59	374.49
491.77	409.59
491.95	358.10
492.13	388.53
492.30	372.15
492.48	428.32
492.66	470.45
492.84	395.55
493.01	484.49
493.19	379.17
493.37	362.78
493.54	489.17
493.72	421.30
493.90	390.87
494.08	437.68
494.25	447.04
494.43	447.04
494.61	433.00
494.79	365.12
494.96	379.17
495.14	409.59
495.32	339.38
495.49	423.64
495.67	351.08
495.85	395.55
496.02	421.30
496.20	421.30
496.38	388.53
496.55	390.87
496.73	367.46
496.91	407.25
497.09	451.72
497.26	374.49
497.44	440.02
497.62	353.42
497.79	484.49
497.97	414.27
498.14	423.64
498.32	430.66
498.50	486.83
498.67	374.49
498.85	477.47
499.03	470.45
499.20	418.96
499.38	468.11
499.56	458.74
499.73	416.62
499.91	383.85
500.08	496.19
500.26	416.62
500.44	404.91
500.61	470.45
500.79	461.09
500.97	397.89
501.14	470.45
501.32	442.36
501.49	433.00
501.67	500.87
501.84	397.89
502.02	430.66
502.20	451.72
502.37	430.66
502.55	451.72
502.72	404.91
502.90	442.36
503.07	461.09
503.25	365.12
503.43	379.17
503.60	344.06
503.78	388.53
503.95	367.46
504.13	395.55
504.30	437.68
504.48	498.53
504.65	477.47
504.83	397.89
505.01	472.79
505.18	400.23
505.36	397.89
505.53	365.12
505.71	416.62
505.88	510.24
506.06	463.43
506.23	402.57
506.41	423.64
506.58	435.34
506.76	461.09
506.93	379.17
507.11	475.13
507.28	425.98
507.46	379.17
507.63	423.64
507.81	372.15
507.98	411.93
508.16	353.42
508.33	407.25
508.50	428.32
508.68	449.38
508.85	428.32
509.03	407.25
509.20	428.32
509.38	409.59
509.55	458.74
509.73	442.36
509.90	468.11
510.08	416.62
510.25	376.83
510.42	379.17
510.60	423.64
510.77	458.74
510.95	442.36
511.12	428.32
511.30	442.36
511.47	444.70
511.64	414.27
511.82	482.15
511.99	435.34
512.17	449.38
512.34	395.55
512.51	418.96
512.69	425.98
512.86	503.22
513.04	372.15
513.21	440.02
513.38	330.02
513.56	479.81
513.73	428.32
513.90	407.25
514.08	397.89
514.25	442.36
514.43	400.23
514.60	374.49
514.77	428.32
514.95	428.32
515.12	383.85
515.29	381.51
515.47	374.49
515.64	341.72
515.81	367.46
515.99	404.91
516.16	402.57
516.33	479.81
516.51	437.68
516.68	418.96
516.85	409.59
517.03	505.56
517.20	402.57
517.37	423.64
517.54	430.66
517.72	374.49
517.89	327.68
518.06	390.87
518.24	493.85
518.41	451.72
518.58	442.36
518.75	421.30
518.93	484.49
519.10	346.40
519.27	435.34
519.45	510.24
519.62	482.15
519.79	463.43
519.96	430.66
520.14	390.87
520.31	421.30
520.48	393.21
520.65	416.62
520.83	484.49
521.00	423.64
521.17	388.53
521.34	383.85
521.52	383.85
521.69	430.66
521.86	400.23
522.03	402.57
522.20	365.12
522.38	381.51
522.55	358.10
522.72	409.59
522.89	425.98
523.07	486.83
523.24	381.51
523.41	402.57
523.58	386.19
523.75	440.02
523.92	468.11
524.10	449.38
524.27	435.34
524.44	425.98
524.61	395.55
524.78	376.83
524.96	379.17
525.13	393.21
525.30	456.40
525.47	458.74
525.64	430.66
525.81	400.23
525.98	433.00
526.16	402.57
526.33	414.27
526.50	315.97
526.67	390.87
526.84	470.45
527.01	435.34
527.18	437.68
527.36	433.00
527.53	440.02
527.70	421.30
527.87	346.40
528.04	489.17
528.21	348.74
528.38	381.51
528.55	409.59
528.72	409.59
528.89	458.74
529.07	451.72
529.24	418.96
529.41	402.57
529.58	491.51
529.75	409.59
529.92	416.62
530.09	388.53
530.26	456.40
530.43	433.00
530.60	379.17
530.77	458.74
530.94	454.06
531.11	468.11
531.28	437.68
531.46	428.32
531.63	372.15
531.80	414.27
531.97	479.81
532.14	465.77
532.31	388.53
532.48	414.27
532.65	395.55
532.82	301.93
532.99	379.17
533.16	449.38
533.33	367.46
533.50	454.06
533.67	390.87
533.84	440.02
534.01	449.38
534.18	395.55
534.35	386.19
534.52	486.83
534.69	383.85
534.86	369.80
535.03	386.19
535.20	493.85
535.37	404.91
535.54	435.34
535.71	388.53
535.88	444.70
536.05	423.64
536.22	449.38
536.38	404.91
536.55	348.74
536.72	407.25
536.89	390.87
537.06	388.53
537.23	393.21
537.40	355.76
537.57	421.30
537.74	428.32
537.91	414.27
538.08	416.62
538.25	400.23
538.42	351.08
538.59	433.00
538.75	444.70
538.92	402.57
539.09	475.13
539.26	416.62
539.43	411.93
539.60	400.23
539.77	482.15
539.94	482.15
540.11	496.19
540.28	528.96
540.44	447.04
540.61	365.12
540.78	442.36
540.95	395.55
541.12	479.81
541.29	386.19
541.46	442.36
541.62	402.57
541.79	447.04
541.96	393.21
542.13	418.96
542.30	433.00
542.47	442.36
542.63	409.59
542.80	421.30
542.97	454.06
543.14	425.98
543.31	360.44
543.48	381.51
543.64	376.83
543.81	468.11
543.98	397.89
544.15	402.57
544.32	421.30
544.48	367.46
544.65	475.13
544.82	428.32
544.99	397.89
545.16	482.15
545.32	414.27
545.49	421.30
545.66	418.96
545.83	393.21
546.00	411.93
546.16	348.74
546.33	388.53
546.50	418.96
546.67	468.11
546.83	421.30
547.00	430.66
547.17	379.17
547.34	423.64
547.50	416.62
547.67	383.85
547.84	397.89
548.00	456.40
548.17	449.38
548.34	456.40
548.51	423.64
548.67	416.62
548.84	435.34
549.01	435.34
549.18	418.96
549.34	421.30
549.51	437.68
549.68	470.45
549.84	425.98
550.01	381.51
550.18	468.11
550.34	451.72
550.51	404.91
550.68	465.77
550.84	416.62
551.01	393.21
551.18	442.36
551.34	360.44
551.51	421.30
551.68	383.85
551.84	463.43
552.01	388.53
552.18	407.25
552.34	428.32
552.51	451.72
552.68	461.09
552.84	407.25
553.01	421.30
553.18	430.66
553.34	400.23
553.51	397.89
553.67	421.30
553.84	465.77
554.01	475.13
554.17	416.62
554.34	374.49
554.51	416.62
554.67	430.66
554.84	458.74
555.00	414.27
555.17	463.43
555.33	404.91
555.50	440.02
555.67	479.81
555.83	444.70
556.00	376.83
556.16	435.34
556.33	430.66
556.50	428.32
556.66	353.42
556.83	425.98
556.99	322.99
557.16	386.19
557.32	402.57
557.49	475.13
557.65	393.21
557.82	451.72
557.98	430.66
558.15	381.51
558.32	416.62
558.48	325.33
558.65	367.46
558.81	393.21
558.98	407.25
559.14	454.06
559.31	383.85
559.47	433.00
559.64	440.02
559.80	418.96
559.97	435.34
560.13	463.43
560.30	372.15
560.46	360.44
560.63	358.10
560.79	404.91
560.96	437.68
561.12	449.38
561.29	433.00
561.45	418.96
561.61	423.64
561.78	454.06
561.94	386.19
562.11	442.36
562.27	386.19
562.44	433.00
562.60	437.68
562.77	472.79
562.93	533.64
563.10	402.57
563.26	456.40
563.42	440.02
563.59	376.83
563.75	425.98
563.92	416.62
564.08	404.91
564.24	395.55
564.41	414.27
564.57	381.51
564.74	372.15
564.90	358.10
565.07	435.34
565.23	468.11
565.39	383.85
565.56	404.91
565.72	397.89
565.88	397.89
566.05	440.02
566.21	418.96
566.38	407.25
566.54	447.04
566.70	491.51
566.87	388.53
567.03	421.30
567.19	472.79
567.36	428.32
567.52	458.74
567.68	367.46
567.85	395.55
568.01	409.59
568.17	425.98
568.34	430.66
568.50	503.22
568.66	383.85
568.83	526.62
568.99	468.11
569.15	472.79
569.32	397.89
569.48	381.51
569.64	395.55
569.81	437.68
569.97	421.30
570.13	435.34
570.30	395.55
570.46	411.93
570.62	393.21
570.78	416.62
570.95	404.91
571.11	479.81
571.27	470.45
571.43	318.31
571.60	454.06
571.76	421.30
571.92	461.09
572.09	358.10
572.25	390.87
572.41	365.12
572.57	433.00
572.74	449.38
572.90	498.53
573.06	440.02
573.22	416.62
573.38	428.32
573.55	484.49
573.71	395.55
573.87	369.80
574.03	421.30
574.20	402.57
574.36	404.91
574.52	425.98
574.68	372.15
574.84	346.40
575.01	430.66
575.17	472.79
575.33	383.85
575.49	360.44
575.65	470.45
575.82	482.15
575.98	435.34
576.14	409.59
576.30	414.27
576.46	411.93
576.62	369.80
576.79	339.38
576.95	430.66
577.11	421.30
577.27	468.11
577.43	496.19
577.59	477.47
577.75	416.62
577.92	479.81
578.08	409.59
578.24	407.25
578.40	400.23
578.56	435.34
578.72	404.91
578.88	493.85
579.04	449.38
579.21	416.62
579.37	463.43
579.53	358.10
579.69	435.34
579.85	400.23
580.01	362.78
580.17	400.23
580.33	461.09
580.49	404.91
580.65	423.64
580.82	402.57
580.98	472.79
581.14	430.66
581.30	456.40
581.46	402.57
581.62	444.70
581.78	440.02
581.94	402.57
582.10	379.17
582.26	456.40
582.42	332.36
582.58	430.66
582.74	353.42
582.90	444.70
583.06	386.19
583.22	367.46
583.38	486.83
583.54	393.21
583.70	440.02
583.86	395.55
584.02	414.27
584.18	463.43
584.34	407.25
584.50	411.93
584.66	444.70
584.82	381.51
584.98	440.02
585.14	425.98
585.30	435.34
585.46	517.26
585.62	454.06
585.78	440.02
585.94	390.87
586.10	360.44
586.26	472.79
586.42	482.15
586.58	425.98
586.74	348.74
586.90	358.10
587.06	444.70
587.22	442.36
587.38	404.91
587.54	440.02
587.70	435.34
587.86	482.15
588.02	451.72
588.18	433.00
588.34	423.64
588.49	416.62
588.65	409.59
588.81	407.25
588.97	404.91
589.13	416.62
589.29	425.98
589.45	447.04
589.61	456.40
589.77	421.30
589.93	390.87
590.08	388.53
590.24	402.57
590.40	397.89
590.56	381.51
590.72	449.38
590.88	353.42
591.04	451.72
591.20	404.91
591.35	442.36
591.51	421.30
591.67	435.34
591.83	407.25
591.99	470.45
592.15	470.45
592.31	442.36
592.46	383.85
592.62	442.36
592.78	444.70
592.94	451.72
593.10	416.62
593.26	451.72
593.41	444.70
593.57	423.64
593.73	454.06
593.89	449.38
594.05	517.26
594.20	414.27
594.36	465.77
594.52	442.36
594.68	360.44
594.84	444.70
594.99	425.98
595.15	428.32
595.31	472.79
595.47	411.93
595.62	468.11
595.78	393.21
595.94	440.02
596.10	360.44
596.25	418.96
596.41	400.23
596.57	430.66
596.73	428.32
596.88	416.62
597.04	465.77
597.20	456.40
597.36	409.59
597.51	465.77
597.67	397.89
597.83	430.66
597.99	404.91
598.14	411.93
598.30	463.43
598.46	491.51
598.61	430.66
598.77	461.09
598.93	376.83
599.09	472.79
599.24	409.59
599.40	442.36
599.56	393.21
599.71	365.12
599.87	430.66
600.03	447.04
600.18	428.32
600.34	423.64
600.50	376.83
600.65	351.08
600.81	407.25
600.97	383.85
601.12	409.59
601.28	451.72
601.44	400.23
601.59	491.51
601.75	348.74
601.91	393.21
602.06	463.43
602.22	437.68
602.37	414.27
602.53	430.66
602.69	400.23
602.84	381.51
603.00	447.04
603.16	409.59
603.31	475.13
603.47	477.47
603.62	423.64
603.78	440.02
603.94	447.04
604.09	393.21
604.25	404.91
604.40	442.36
604.56	444.70
604.71	365.12
604.87	383.85
605.03	409.59
605.18	456.40
605.34	433.00
605.49	402.57
605.65	365.12
605.80	486.83
605.96	437.68
606.12	470.45
606.27	423.64
606.43	423.64
606.58	489.17
606.74	386.19
606.89	358.10
607.05	418.96
607.20	418.96
607.36	327.68
607.51	397.89
607.67	444.70
607.82	395.55
607.98	533.64
608.13	428.32
608.29	475.13
608.44	411.93
608.60	428.32
608.75	456.40
608.91	433.00
609.06	414.27
609.22	421.30
609.37	416.62
609.53	418.96
609.68	402.57
609.84	437.68
609.99	484.49
610.15	496.19
