SpectraSuite Data File
++++++++++++++++++++++++++++++++++++
Date: Fri Oct 25 12:10:27 EDT 2013
User: price-jones
Dark Spectrum Present: No
Reference Spectrum Present: No
Number of Sampled Component Spectra: 1
Spectrometers: USB2+H05261
Integration Time (usec): 100000 (USB2+H05261)
Spectra Averaged: 1 (USB2+H05261)
Boxcar Smoothing: 0 (USB2+H05261)
Correct for Electrical Dark: No (USB2+H05261)
Strobe/Lamp Enabled: No (USB2+H05261)
Correct for Detector Non-linearity: No (USB2+H05261)
Correct for Stray Light: No (USB2+H05261)
Number of Pixels in Processed Spectrum: 2048
>>>>>Begin Processed Spectral Data<<<<<
365.73	322.99
365.92	322.99
366.12	322.99
366.32	229.37
366.52	222.35
366.72	294.91
366.91	224.69
367.11	205.97
367.31	243.42
367.51	210.65
367.70	208.31
367.90	245.76
368.10	196.60
368.30	245.76
368.49	262.14
368.69	234.05
368.89	271.50
369.09	163.84
369.28	234.05
369.48	257.46
369.68	292.57
369.87	297.25
370.07	287.89
370.27	318.31
370.47	287.89
370.66	372.15
370.86	299.59
371.06	374.49
371.25	402.57
371.45	409.59
371.65	400.23
371.84	297.25
372.04	428.32
372.24	390.87
372.44	440.02
372.63	437.68
372.83	411.93
373.03	400.23
373.22	379.17
373.42	395.55
373.62	428.32
373.81	409.59
374.01	472.79
374.21	404.91
374.40	397.89
374.60	353.42
374.79	428.32
374.99	435.34
375.19	449.38
375.38	404.91
375.58	376.83
375.78	493.85
375.97	475.13
376.17	400.23
376.37	435.34
376.56	437.68
376.76	374.49
376.95	383.85
377.15	442.36
377.35	421.30
377.54	381.51
377.74	381.51
377.93	440.02
378.13	454.06
378.33	390.87
378.52	444.70
378.72	442.36
378.91	374.49
379.11	407.25
379.31	416.62
379.50	325.33
379.70	365.12
379.89	433.00
380.09	435.34
380.28	437.68
380.48	337.04
380.68	287.89
380.87	301.93
381.07	339.38
381.26	477.47
381.46	386.19
381.65	362.78
381.85	414.27
382.04	400.23
382.24	430.66
382.43	444.70
382.63	369.80
382.83	435.34
383.02	353.42
383.22	423.64
383.41	416.62
383.61	463.43
383.80	381.51
384.00	423.64
384.19	409.59
384.39	451.72
384.58	372.15
384.78	442.36
384.97	428.32
385.17	421.30
385.36	461.09
385.56	381.51
385.75	402.57
385.95	383.85
386.14	482.15
386.34	465.77
386.53	414.27
386.72	454.06
386.92	433.00
387.11	519.60
387.31	409.59
387.50	421.30
387.70	374.49
387.89	397.89
388.09	428.32
388.28	376.83
388.48	400.23
388.67	416.62
388.86	421.30
389.06	423.64
389.25	416.62
389.45	311.29
389.64	372.15
389.84	442.36
390.03	322.99
390.22	379.17
390.42	372.15
390.61	346.40
390.81	449.38
391.00	447.04
391.19	386.19
391.39	330.02
391.58	442.36
391.78	358.10
391.97	341.72
392.16	390.87
392.36	404.91
392.55	470.45
392.75	505.56
392.94	372.15
393.13	379.17
393.33	379.17
393.52	465.77
393.71	430.66
393.91	367.46
394.10	447.04
394.29	423.64
394.49	435.34
394.68	411.93
394.88	461.09
395.07	383.85
395.26	332.36
395.46	339.38
395.65	409.59
395.84	388.53
396.04	395.55
396.23	358.10
396.42	489.17
396.62	402.57
396.81	411.93
397.00	423.64
397.19	416.62
397.39	428.32
397.58	430.66
397.77	339.38
397.97	402.57
398.16	442.36
398.35	367.46
398.55	421.30
398.74	442.36
398.93	418.96
399.12	435.34
399.32	477.47
399.51	374.49
399.70	348.74
399.90	444.70
400.09	440.02
400.28	507.90
400.47	428.32
400.67	383.85
400.86	461.09
401.05	479.81
401.24	372.15
401.44	379.17
401.63	404.91
401.82	334.70
402.01	341.72
402.21	442.36
402.40	379.17
402.59	362.78
402.78	313.63
402.97	418.96
403.17	367.46
403.36	428.32
403.55	330.02
403.74	299.59
403.93	339.38
404.13	433.00
404.32	404.91
404.51	334.70
404.70	423.64
404.89	365.12
405.09	397.89
405.28	379.17
405.47	421.30
405.66	451.72
405.85	400.23
406.05	416.62
406.24	404.91
406.43	418.96
406.62	472.79
406.81	369.80
407.00	393.21
407.20	416.62
407.39	372.15
407.58	381.51
407.77	425.98
407.96	454.06
408.15	437.68
408.34	393.21
408.54	425.98
408.73	416.62
408.92	416.62
409.11	407.25
409.30	430.66
409.49	423.64
409.68	404.91
409.87	449.38
410.07	360.44
410.26	421.30
410.45	409.59
410.64	355.76
410.83	334.70
411.02	322.99
411.21	421.30
411.40	351.08
411.59	393.21
411.78	451.72
411.98	463.43
412.17	313.63
412.36	407.25
412.55	404.91
412.74	379.17
412.93	437.68
413.12	395.55
413.31	454.06
413.50	404.91
413.69	383.85
413.88	472.79
414.07	456.40
414.26	393.21
414.45	390.87
414.64	442.36
414.83	404.91
415.02	386.19
415.22	484.49
415.41	484.49
415.60	376.83
415.79	372.15
415.98	484.49
416.17	423.64
416.36	388.53
416.55	421.30
416.74	463.43
416.93	348.74
417.12	374.49
417.31	346.40
417.50	430.66
417.69	393.21
417.88	362.78
418.07	376.83
418.26	388.53
418.45	353.42
418.64	360.44
418.83	414.27
419.02	390.87
419.21	360.44
419.39	383.85
419.58	351.08
419.77	395.55
419.96	386.19
420.15	421.30
420.34	435.34
420.53	444.70
420.72	451.72
420.91	425.98
421.10	337.04
421.29	463.43
421.48	414.27
421.67	418.96
421.86	397.89
422.05	433.00
422.24	379.17
422.43	344.06
422.61	440.02
422.80	428.32
422.99	442.36
423.18	369.80
423.37	404.91
423.56	433.00
423.75	402.57
423.94	465.77
424.13	458.74
424.32	425.98
424.50	449.38
424.69	383.85
424.88	477.47
425.07	463.43
425.26	421.30
425.45	449.38
425.64	430.66
425.83	447.04
426.01	423.64
426.20	390.87
426.39	442.36
426.58	416.62
426.77	390.87
426.96	383.85
427.15	468.11
427.33	442.36
427.52	416.62
427.71	425.98
427.90	418.96
428.09	416.62
428.28	407.25
428.46	430.66
428.65	397.89
428.84	355.76
429.03	451.72
429.22	367.46
429.40	376.83
429.59	414.27
429.78	367.46
429.97	418.96
430.16	381.51
430.34	421.30
430.53	414.27
430.72	334.70
430.91	369.80
431.10	442.36
431.28	397.89
431.47	435.34
431.66	404.91
431.85	393.21
432.03	393.21
432.22	507.90
432.41	395.55
432.60	451.72
432.79	337.04
432.97	425.98
433.16	360.44
433.35	409.59
433.54	393.21
433.72	498.53
433.91	482.15
434.10	458.74
434.28	451.72
434.47	372.15
434.66	402.57
434.85	355.76
435.03	397.89
435.22	428.32
435.41	465.77
435.59	414.27
435.78	386.19
435.97	369.80
436.16	463.43
436.34	383.85
436.53	390.87
436.72	423.64
436.90	425.98
437.09	440.02
437.28	444.70
437.46	444.70
437.65	383.85
437.84	379.17
438.02	409.59
438.21	421.30
438.40	397.89
438.58	397.89
438.77	409.59
438.96	425.98
439.14	390.87
439.33	451.72
439.52	409.59
439.70	393.21
439.89	423.64
440.08	397.89
440.26	383.85
440.45	416.62
440.63	435.34
440.82	358.10
441.01	383.85
441.19	395.55
441.38	362.78
441.57	337.04
441.75	475.13
441.94	397.89
442.12	383.85
442.31	430.66
442.50	458.74
442.68	346.40
442.87	423.64
443.05	428.32
443.24	428.32
443.43	430.66
443.61	451.72
443.80	444.70
443.98	440.02
444.17	449.38
444.35	477.47
444.54	400.23
444.73	388.53
444.91	425.98
445.10	454.06
445.28	393.21
445.47	425.98
445.65	360.44
445.84	358.10
446.02	341.72
446.21	381.51
446.39	351.08
446.58	444.70
446.77	374.49
446.95	388.53
447.14	416.62
447.32	409.59
447.51	414.27
447.69	425.98
447.88	397.89
448.06	470.45
448.25	470.45
448.43	418.96
448.62	418.96
448.80	367.46
448.99	358.10
449.17	393.21
449.36	393.21
449.54	423.64
449.73	393.21
449.91	386.19
450.10	433.00
450.28	479.81
450.46	374.49
450.65	374.49
450.83	407.25
451.02	388.53
451.20	351.08
451.39	423.64
451.57	430.66
451.76	404.91
451.94	442.36
452.13	388.53
452.31	477.47
452.49	482.15
452.68	339.38
452.86	416.62
453.05	423.64
453.23	409.59
453.42	374.49
453.60	393.21
453.78	470.45
453.97	421.30
454.15	393.21
454.34	463.43
454.52	367.46
454.70	435.34
454.89	376.83
455.07	390.87
455.26	407.25
455.44	421.30
455.62	444.70
455.81	449.38
455.99	409.59
456.17	437.68
456.36	372.15
456.54	411.93
456.73	425.98
456.91	397.89
457.09	360.44
457.28	433.00
457.46	374.49
457.64	428.32
457.83	337.04
458.01	353.42
458.19	454.06
458.38	435.34
458.56	369.80
458.74	404.91
458.93	447.04
459.11	435.34
459.29	416.62
459.48	393.21
459.66	390.87
459.84	402.57
460.03	414.27
460.21	402.57
460.39	421.30
460.57	489.17
460.76	454.06
460.94	498.53
461.12	491.51
461.31	430.66
461.49	416.62
461.67	367.46
461.85	360.44
462.04	393.21
462.22	805.14
462.40	416.62
462.59	454.06
462.77	418.96
462.95	393.21
463.13	451.72
463.32	428.32
463.50	376.83
463.68	425.98
463.86	414.27
464.05	437.68
464.23	418.96
464.41	437.68
464.59	397.89
464.78	416.62
464.96	381.51
465.14	414.27
465.32	381.51
465.50	430.66
465.69	404.91
465.87	344.06
466.05	344.06
466.23	468.11
466.41	428.32
466.60	414.27
466.78	397.89
466.96	395.55
467.14	425.98
467.32	416.62
467.51	393.21
467.69	482.15
467.87	491.51
468.05	421.30
468.23	437.68
468.41	447.04
468.60	425.98
468.78	414.27
468.96	484.49
469.14	414.27
469.32	404.91
469.50	388.53
469.69	435.34
469.87	416.62
470.05	447.04
470.23	458.74
470.41	409.59
470.59	374.49
470.77	440.02
470.95	407.25
471.14	397.89
471.32	425.98
471.50	411.93
471.68	390.87
471.86	456.40
472.04	395.55
472.22	393.21
472.40	437.68
472.58	425.98
472.77	423.64
472.95	383.85
473.13	454.06
473.31	407.25
473.49	407.25
473.67	404.91
473.85	472.79
474.03	435.34
474.21	484.49
474.39	461.09
474.57	409.59
474.75	372.15
474.93	379.17
475.12	348.74
475.30	461.09
475.48	496.19
475.66	360.44
475.84	440.02
476.02	400.23
476.20	433.00
476.38	421.30
476.56	456.40
476.74	388.53
476.92	421.30
477.10	416.62
477.28	468.11
477.46	395.55
477.64	397.89
477.82	409.59
478.00	428.32
478.18	407.25
478.36	425.98
478.54	374.49
478.72	435.34
478.90	362.78
479.08	479.81
479.26	400.23
479.44	442.36
479.62	423.64
479.80	437.68
479.98	386.19
480.16	442.36
480.34	451.72
480.52	407.25
480.70	383.85
480.88	358.10
481.06	395.55
481.24	437.68
481.41	386.19
481.59	395.55
481.77	468.11
481.95	390.87
482.13	461.09
482.31	484.49
482.49	414.27
482.67	397.89
482.85	414.27
483.03	395.55
483.21	411.93
483.39	409.59
483.57	348.74
483.74	482.15
483.92	486.83
484.10	470.45
484.28	482.15
484.46	479.81
484.64	395.55
484.82	369.80
485.00	400.23
485.18	407.25
485.35	491.51
485.53	475.13
485.71	454.06
485.89	449.38
486.07	451.72
486.25	458.74
486.43	444.70
486.61	444.70
486.78	458.74
486.96	381.51
487.14	390.87
487.32	381.51
487.50	374.49
487.68	470.45
487.85	435.34
488.03	421.30
488.21	418.96
488.39	390.87
488.57	428.32
488.75	337.04
488.92	470.45
489.10	351.08
489.28	411.93
489.46	388.53
489.64	388.53
489.81	451.72
489.99	477.47
490.17	395.55
490.35	475.13
490.53	395.55
490.70	402.57
490.88	388.53
491.06	404.91
491.24	395.55
491.41	470.45
491.59	386.19
491.77	393.21
491.95	404.91
492.13	372.15
492.30	447.04
492.48	451.72
492.66	383.85
492.84	400.23
493.01	414.27
493.19	437.68
493.37	425.98
493.54	449.38
493.72	461.09
493.90	416.62
494.08	402.57
494.25	475.13
494.43	482.15
494.61	514.92
494.79	383.85
494.96	386.19
495.14	402.57
495.32	376.83
495.49	463.43
495.67	397.89
495.85	425.98
496.02	383.85
496.20	365.12
496.38	423.64
496.55	376.83
496.73	339.38
496.91	334.70
497.09	479.81
497.26	395.55
497.44	423.64
497.62	409.59
497.79	444.70
497.97	383.85
498.14	468.11
498.32	449.38
498.50	465.77
498.67	428.32
498.85	358.10
499.03	393.21
499.20	407.25
499.38	355.76
499.56	449.38
499.73	496.19
499.91	330.02
500.08	397.89
500.26	411.93
500.44	332.36
500.61	433.00
500.79	423.64
500.97	421.30
501.14	477.47
501.32	348.74
501.49	433.00
501.67	421.30
501.84	458.74
502.02	416.62
502.20	433.00
502.37	409.59
502.55	437.68
502.72	337.04
502.90	395.55
503.07	395.55
503.25	454.06
503.43	407.25
503.60	463.43
503.78	454.06
503.95	437.68
504.13	433.00
504.30	400.23
504.48	491.51
504.65	456.40
504.83	524.28
505.01	444.70
505.18	351.08
505.36	447.04
505.53	372.15
505.71	444.70
505.88	444.70
506.06	421.30
506.23	374.49
506.41	463.43
506.58	470.45
506.76	475.13
506.93	362.78
507.11	383.85
507.28	315.97
507.46	447.04
507.63	418.96
507.81	379.17
507.98	404.91
508.16	484.49
508.33	458.74
508.50	440.02
508.68	369.80
508.85	374.49
509.03	379.17
509.20	409.59
509.38	418.96
509.55	402.57
509.73	475.13
509.90	393.21
510.08	407.25
510.25	463.43
510.42	367.46
510.60	409.59
510.77	411.93
510.95	414.27
511.12	435.34
511.30	334.70
511.47	435.34
511.64	447.04
511.82	355.76
511.99	416.62
512.17	383.85
512.34	397.89
512.51	461.09
512.69	395.55
512.86	437.68
513.04	428.32
513.21	400.23
513.38	423.64
513.56	393.21
513.73	341.72
513.90	430.66
514.08	374.49
514.25	479.81
514.43	475.13
514.60	430.66
514.77	440.02
514.95	395.55
515.12	449.38
515.29	358.10
515.47	461.09
515.64	421.30
515.81	402.57
515.99	433.00
516.16	425.98
516.33	376.83
516.51	444.70
516.68	379.17
516.85	430.66
517.03	409.59
517.20	423.64
517.37	397.89
517.54	411.93
517.72	418.96
517.89	411.93
518.06	433.00
518.24	479.81
518.41	381.51
518.58	468.11
518.75	421.30
518.93	390.87
519.10	468.11
519.27	388.53
519.45	362.78
519.62	320.65
519.79	498.53
519.96	360.44
520.14	425.98
520.31	400.23
520.48	388.53
520.65	409.59
520.83	407.25
521.00	421.30
521.17	482.15
521.34	456.40
521.52	458.74
521.69	372.15
521.86	479.81
522.03	407.25
522.20	390.87
522.38	402.57
522.55	407.25
522.72	393.21
522.89	393.21
523.07	463.43
523.24	397.89
523.41	421.30
523.58	463.43
523.75	367.46
523.92	353.42
524.10	423.64
524.27	440.02
524.44	421.30
524.61	477.47
524.78	423.64
524.96	423.64
525.13	393.21
525.30	433.00
525.47	465.77
525.64	374.49
525.81	374.49
525.98	397.89
526.16	402.57
526.33	430.66
526.50	430.66
526.67	463.43
526.84	425.98
527.01	435.34
527.18	409.59
527.36	416.62
527.53	418.96
527.70	475.13
527.87	397.89
528.04	500.87
528.21	376.83
528.38	477.47
528.55	454.06
528.72	489.17
528.89	365.12
529.07	428.32
529.24	454.06
529.41	433.00
529.58	468.11
529.75	404.91
529.92	440.02
530.09	447.04
530.26	468.11
530.43	430.66
530.60	463.43
530.77	433.00
530.94	470.45
531.11	393.21
531.28	477.47
531.46	414.27
531.63	428.32
531.80	423.64
531.97	433.00
532.14	393.21
532.31	451.72
532.48	440.02
532.65	428.32
532.82	367.46
532.99	402.57
533.16	407.25
533.33	421.30
533.50	458.74
533.67	376.83
533.84	423.64
534.01	395.55
534.18	393.21
534.35	407.25
534.52	514.92
534.69	395.55
534.86	496.19
535.03	425.98
535.20	416.62
535.37	442.36
535.54	386.19
535.71	404.91
535.88	388.53
536.05	409.59
536.22	482.15
536.38	470.45
536.55	437.68
536.72	451.72
536.89	468.11
537.06	362.78
537.23	351.08
537.40	430.66
537.57	395.55
537.74	449.38
537.91	463.43
538.08	386.19
538.25	451.72
538.42	390.87
538.59	418.96
538.75	440.02
538.92	376.83
539.09	437.68
539.26	428.32
539.43	461.09
539.60	409.59
539.77	437.68
539.94	435.34
540.11	386.19
540.28	395.55
540.44	428.32
540.61	421.30
540.78	400.23
540.95	383.85
541.12	390.87
541.29	442.36
541.46	517.26
541.62	437.68
541.79	456.40
541.96	437.68
542.13	428.32
542.30	449.38
542.47	407.25
542.63	383.85
542.80	388.53
542.97	395.55
543.14	390.87
543.31	425.98
543.48	411.93
543.64	407.25
543.81	428.32
543.98	444.70
544.15	402.57
544.32	386.19
544.48	418.96
544.65	402.57
544.82	393.21
544.99	409.59
545.16	491.51
545.32	416.62
545.49	395.55
545.66	407.25
545.83	449.38
546.00	402.57
546.16	397.89
546.33	390.87
546.50	411.93
546.67	374.49
546.83	425.98
547.00	435.34
547.17	395.55
547.34	332.36
547.50	447.04
547.67	334.70
547.84	435.34
548.00	489.17
548.17	355.76
548.34	421.30
548.51	451.72
548.67	423.64
548.84	437.68
549.01	414.27
549.18	402.57
549.34	503.22
549.51	346.40
549.68	414.27
549.84	458.74
550.01	421.30
550.18	437.68
550.34	423.64
550.51	428.32
550.68	451.72
550.84	390.87
551.01	428.32
551.18	463.43
551.34	447.04
551.51	397.89
551.68	500.87
551.84	411.93
552.01	379.17
552.18	393.21
552.34	414.27
552.51	416.62
552.68	423.64
552.84	423.64
553.01	423.64
553.18	372.15
553.34	482.15
553.51	411.93
553.67	463.43
553.84	500.87
554.01	505.56
554.17	376.83
554.34	351.08
554.51	430.66
554.67	451.72
554.84	393.21
555.00	465.77
555.17	447.04
555.33	468.11
555.50	409.59
555.67	428.32
555.83	381.51
556.00	454.06
556.16	589.82
556.33	479.81
556.50	435.34
556.66	479.81
556.83	444.70
556.99	411.93
557.16	395.55
557.32	353.42
557.49	465.77
557.65	400.23
557.82	374.49
557.98	418.96
558.15	344.06
558.32	411.93
558.48	404.91
558.65	435.34
558.81	411.93
558.98	397.89
559.14	454.06
559.31	435.34
559.47	433.00
559.64	421.30
559.80	393.21
559.97	425.98
560.13	454.06
560.30	414.27
560.46	411.93
560.63	461.09
560.79	442.36
560.96	411.93
561.12	440.02
561.29	397.89
561.45	362.78
561.61	390.87
561.78	376.83
561.94	416.62
562.11	379.17
562.27	416.62
562.44	346.40
562.60	409.59
562.77	407.25
562.93	428.32
563.10	411.93
563.26	440.02
563.42	386.19
563.59	381.51
563.75	461.09
563.92	411.93
564.08	454.06
564.24	435.34
564.41	482.15
564.57	337.04
564.74	402.57
564.90	395.55
565.07	475.13
565.23	444.70
565.39	430.66
565.56	451.72
565.72	451.72
565.88	397.89
566.05	400.23
566.21	360.44
566.38	393.21
566.54	510.24
566.70	430.66
566.87	395.55
567.03	365.12
567.19	430.66
567.36	409.59
567.52	397.89
567.68	374.49
567.85	407.25
568.01	393.21
568.17	407.25
568.34	388.53
568.50	402.57
568.66	372.15
568.83	367.46
568.99	470.45
569.15	461.09
569.32	433.00
569.48	397.89
569.64	442.36
569.81	416.62
569.97	414.27
570.13	475.13
570.30	470.45
570.46	421.30
570.62	407.25
570.78	362.78
570.95	376.83
571.11	449.38
571.27	498.53
571.43	500.87
571.60	475.13
571.76	451.72
571.92	414.27
572.09	461.09
572.25	421.30
572.41	477.47
572.57	447.04
572.74	451.72
572.90	400.23
573.06	386.19
573.22	468.11
573.38	517.26
573.55	449.38
573.71	456.40
573.87	449.38
574.03	376.83
574.20	374.49
574.36	454.06
574.52	454.06
574.68	468.11
574.84	411.93
575.01	435.34
575.17	470.45
575.33	369.80
575.49	395.55
575.65	447.04
575.82	433.00
575.98	402.57
576.14	458.74
576.30	414.27
576.46	421.30
576.62	374.49
576.79	465.77
576.95	372.15
577.11	435.34
577.27	381.51
577.43	435.34
577.59	470.45
577.75	418.96
577.92	393.21
578.08	376.83
578.24	395.55
578.40	414.27
578.56	437.68
578.72	440.02
578.88	507.90
579.04	428.32
579.21	416.62
579.37	390.87
579.53	379.17
579.69	421.30
579.85	421.30
580.01	456.40
580.17	482.15
580.33	411.93
580.49	461.09
580.65	425.98
580.82	418.96
580.98	355.76
581.14	348.74
581.30	493.85
581.46	454.06
581.62	444.70
581.78	486.83
581.94	428.32
582.10	414.27
582.26	404.91
582.42	444.70
582.58	353.42
582.74	397.89
582.90	404.91
583.06	383.85
583.22	400.23
583.38	400.23
583.54	355.76
583.70	456.40
583.86	315.97
584.02	383.85
584.18	428.32
584.34	407.25
584.50	416.62
584.66	458.74
584.82	418.96
584.98	543.00
585.14	433.00
585.30	437.68
585.46	428.32
585.62	425.98
585.78	367.46
585.94	397.89
586.10	437.68
586.26	435.34
586.42	430.66
586.58	458.74
586.74	468.11
586.90	376.83
587.06	416.62
587.22	468.11
587.38	393.21
587.54	425.98
587.70	409.59
587.86	421.30
588.02	451.72
588.18	440.02
588.34	437.68
588.49	425.98
588.65	482.15
588.81	430.66
588.97	365.12
589.13	440.02
589.29	369.80
589.45	470.45
589.61	411.93
589.77	402.57
589.93	456.40
590.08	400.23
590.24	379.17
590.40	393.21
590.56	491.51
590.72	348.74
590.88	390.87
591.04	395.55
591.20	411.93
591.35	444.70
591.51	421.30
591.67	411.93
591.83	402.57
591.99	388.53
592.15	393.21
592.31	425.98
592.46	414.27
592.62	465.77
592.78	402.57
592.94	355.76
593.10	430.66
593.26	344.06
593.41	360.44
593.57	435.34
593.73	444.70
593.89	482.15
594.05	458.74
594.20	428.32
594.36	468.11
594.52	414.27
594.68	451.72
594.84	489.17
594.99	458.74
595.15	404.91
595.31	386.19
595.47	407.25
595.62	475.13
595.78	376.83
595.94	428.32
596.10	423.64
596.25	362.78
596.41	503.22
596.57	423.64
596.73	503.22
596.88	320.65
597.04	414.27
597.20	341.72
597.36	388.53
597.51	393.21
597.67	442.36
597.83	334.70
597.99	404.91
598.14	374.49
598.30	521.94
598.46	409.59
598.61	383.85
598.77	411.93
598.93	374.49
599.09	449.38
599.24	470.45
599.40	395.55
599.56	430.66
599.71	444.70
599.87	407.25
600.03	393.21
600.18	454.06
600.34	393.21
600.50	411.93
600.65	458.74
600.81	423.64
600.97	409.59
601.12	454.06
601.28	442.36
601.44	400.23
601.59	407.25
601.75	418.96
601.91	414.27
602.06	430.66
602.22	496.19
602.37	390.87
602.53	433.00
602.69	475.13
602.84	390.87
603.00	411.93
603.16	402.57
603.31	407.25
603.47	430.66
603.62	444.70
603.78	463.43
603.94	437.68
604.09	468.11
604.25	444.70
604.40	461.09
604.56	435.34
604.71	477.47
604.87	395.55
605.03	458.74
605.18	505.56
605.34	423.64
605.49	491.51
605.65	449.38
605.80	395.55
605.96	402.57
606.12	430.66
606.27	451.72
606.43	381.51
606.58	358.10
606.74	444.70
606.89	376.83
607.05	383.85
607.20	463.43
607.36	388.53
607.51	447.04
607.67	318.31
607.82	447.04
607.98	390.87
608.13	360.44
608.29	428.32
608.44	411.93
608.60	379.17
608.75	461.09
608.91	379.17
609.06	493.85
609.22	472.79
609.37	397.89
609.53	472.79
609.68	348.74
609.84	479.81
609.99	414.27
610.15	425.98
