SpectraSuite Data File
++++++++++++++++++++++++++++++++++++
Date: Fri Oct 25 12:10:19 EDT 2013
User: price-jones
Dark Spectrum Present: No
Reference Spectrum Present: No
Number of Sampled Component Spectra: 1
Spectrometers: USB2+H05261
Integration Time (usec): 100000 (USB2+H05261)
Spectra Averaged: 1 (USB2+H05261)
Boxcar Smoothing: 0 (USB2+H05261)
Correct for Electrical Dark: No (USB2+H05261)
Strobe/Lamp Enabled: No (USB2+H05261)
Correct for Detector Non-linearity: No (USB2+H05261)
Correct for Stray Light: No (USB2+H05261)
Number of Pixels in Processed Spectrum: 2048
>>>>>Begin Processed Spectral Data<<<<<
365.73	311.29
365.92	311.29
366.12	311.29
366.32	222.35
366.52	306.61
366.72	278.52
366.91	278.52
367.11	217.67
367.31	194.26
367.51	212.99
367.70	222.35
367.90	187.24
368.10	238.73
368.30	250.44
368.49	248.10
368.69	278.52
368.89	257.46
369.09	292.57
369.28	337.04
369.48	231.71
369.68	278.52
369.87	320.65
370.07	280.86
370.27	362.78
370.47	358.10
370.66	311.29
370.86	283.20
371.06	278.52
371.25	365.12
371.45	388.53
371.65	355.76
371.84	358.10
372.04	360.44
372.24	407.25
372.44	360.44
372.63	425.98
372.83	482.15
373.03	430.66
373.22	433.00
373.42	477.47
373.62	440.02
373.81	433.00
374.01	362.78
374.21	470.45
374.40	416.62
374.60	418.96
374.79	421.30
374.99	430.66
375.19	491.51
375.38	423.64
375.58	458.74
375.78	411.93
375.97	369.80
376.17	463.43
376.37	447.04
376.56	395.55
376.76	409.59
376.95	404.91
377.15	463.43
377.35	372.15
377.54	414.27
377.74	355.76
377.93	397.89
378.13	407.25
378.33	353.42
378.52	423.64
378.72	440.02
378.91	423.64
379.11	369.80
379.31	388.53
379.50	395.55
379.70	414.27
379.89	409.59
380.09	463.43
380.28	472.79
380.48	437.68
380.68	365.12
380.87	360.44
381.07	440.02
381.26	397.89
381.46	437.68
381.65	423.64
381.85	372.15
382.04	362.78
382.24	465.77
382.43	351.08
382.63	355.76
382.83	393.21
383.02	339.38
383.22	386.19
383.41	407.25
383.61	334.70
383.80	407.25
384.00	435.34
384.19	367.46
384.39	360.44
384.58	407.25
384.78	381.51
384.97	468.11
385.17	475.13
385.36	433.00
385.56	393.21
385.75	433.00
385.95	397.89
386.14	402.57
386.34	400.23
386.53	379.17
386.72	278.52
386.92	400.23
387.11	519.60
387.31	404.91
387.50	381.51
387.70	411.93
387.89	383.85
388.09	393.21
388.28	402.57
388.48	337.04
388.67	423.64
388.86	369.80
389.06	388.53
389.25	409.59
389.45	407.25
389.64	386.19
389.84	372.15
390.03	454.06
390.22	379.17
390.42	360.44
390.61	367.46
390.81	381.51
391.00	351.08
391.19	425.98
391.39	386.19
391.58	400.23
391.78	369.80
391.97	379.17
392.16	393.21
392.36	437.68
392.55	461.09
392.75	479.81
392.94	428.32
393.13	461.09
393.33	470.45
393.52	386.19
393.71	500.87
393.91	465.77
394.10	402.57
394.29	369.80
394.49	388.53
394.68	397.89
394.88	430.66
395.07	505.56
395.26	444.70
395.46	395.55
395.65	458.74
395.84	390.87
396.04	454.06
396.23	402.57
396.42	334.70
396.62	393.21
396.81	425.98
397.00	430.66
397.19	465.77
397.39	348.74
397.58	393.21
397.77	425.98
397.97	500.87
398.16	386.19
398.35	449.38
398.55	397.89
398.74	418.96
398.93	463.43
399.12	458.74
399.32	388.53
399.51	444.70
399.70	367.46
399.90	395.55
400.09	395.55
400.28	472.79
400.47	409.59
400.67	433.00
400.86	404.91
401.05	444.70
401.24	433.00
401.44	400.23
401.63	404.91
401.82	374.49
402.01	351.08
402.21	447.04
402.40	475.13
402.59	351.08
402.78	411.93
402.97	472.79
403.17	383.85
403.36	416.62
403.55	372.15
403.74	402.57
403.93	435.34
404.13	425.98
404.32	372.15
404.51	360.44
404.70	367.46
404.89	428.32
405.09	381.51
405.28	425.98
405.47	372.15
405.66	386.19
405.85	451.72
406.05	425.98
406.24	397.89
406.43	409.59
406.62	400.23
406.81	433.00
407.00	454.06
407.20	353.42
407.39	369.80
407.58	381.51
407.77	407.25
407.96	461.09
408.15	386.19
408.34	351.08
408.54	386.19
408.73	362.78
408.92	386.19
409.11	397.89
409.30	390.87
409.49	330.02
409.68	381.51
409.87	444.70
410.07	418.96
410.26	351.08
410.45	414.27
410.64	393.21
410.83	358.10
411.02	365.12
411.21	393.21
411.40	435.34
411.59	470.45
411.78	376.83
411.98	311.29
412.17	358.10
412.36	416.62
412.55	374.49
412.74	381.51
412.93	390.87
413.12	376.83
413.31	444.70
413.50	402.57
413.69	374.49
413.88	447.04
414.07	381.51
414.26	482.15
414.45	440.02
414.64	477.47
414.83	411.93
415.02	390.87
415.22	386.19
415.41	423.64
415.60	404.91
415.79	388.53
415.98	456.40
416.17	428.32
416.36	440.02
416.55	369.80
416.74	484.49
416.93	418.96
417.12	346.40
417.31	374.49
417.50	346.40
417.69	397.89
417.88	411.93
418.07	414.27
418.26	358.10
418.45	411.93
418.64	418.96
418.83	369.80
419.02	388.53
419.21	430.66
419.39	327.68
419.58	456.40
419.77	390.87
419.96	381.51
420.15	444.70
420.34	407.25
420.53	411.93
420.72	458.74
420.91	421.30
421.10	449.38
421.29	402.57
421.48	444.70
421.67	423.64
421.86	421.30
422.05	428.32
422.24	376.83
422.43	458.74
422.61	423.64
422.80	397.89
422.99	372.15
423.18	379.17
423.37	353.42
423.56	402.57
423.75	447.04
423.94	421.30
424.13	381.51
424.32	362.78
424.50	442.36
424.69	416.62
424.88	482.15
425.07	344.06
425.26	521.94
425.45	425.98
425.64	404.91
425.83	341.72
426.01	414.27
426.20	411.93
426.39	397.89
426.58	383.85
426.77	400.23
426.96	397.89
427.15	425.98
427.33	505.56
427.52	383.85
427.71	397.89
427.90	421.30
428.09	369.80
428.28	369.80
428.46	416.62
428.65	414.27
428.84	465.77
429.03	404.91
429.22	318.31
429.40	407.25
429.59	402.57
429.78	421.30
429.97	393.21
430.16	395.55
430.34	444.70
430.53	388.53
430.72	425.98
430.91	477.47
431.10	369.80
431.28	390.87
431.47	416.62
431.66	397.89
431.85	435.34
432.03	447.04
432.22	486.83
432.41	353.42
432.60	409.59
432.79	437.68
432.97	367.46
433.16	353.42
433.35	400.23
433.54	421.30
433.72	447.04
433.91	416.62
434.10	390.87
434.28	393.21
434.47	308.95
434.66	379.17
434.85	390.87
435.03	337.04
435.22	451.72
435.41	444.70
435.59	390.87
435.78	372.15
435.97	369.80
436.16	428.32
436.34	386.19
436.53	407.25
436.72	416.62
436.90	404.91
437.09	397.89
437.28	400.23
437.46	386.19
437.65	381.51
437.84	414.27
438.02	463.43
438.21	414.27
438.40	379.17
438.58	327.68
438.77	454.06
438.96	437.68
439.14	449.38
439.33	465.77
439.52	421.30
439.70	416.62
439.89	379.17
440.08	482.15
440.26	386.19
440.45	414.27
440.63	397.89
440.82	430.66
441.01	493.85
441.19	404.91
441.38	376.83
441.57	390.87
441.75	451.72
441.94	358.10
442.12	372.15
442.31	358.10
442.50	437.68
442.68	404.91
442.87	369.80
443.05	416.62
443.24	404.91
443.43	400.23
443.61	463.43
443.80	397.89
443.98	421.30
444.17	381.51
444.35	440.02
444.54	372.15
444.73	451.72
444.91	440.02
445.10	313.63
445.28	447.04
445.47	491.51
445.65	386.19
445.84	383.85
446.02	397.89
446.21	383.85
446.39	418.96
446.58	435.34
446.77	388.53
446.95	386.19
447.14	407.25
447.32	456.40
447.51	407.25
447.69	367.46
447.88	440.02
448.06	404.91
448.25	367.46
448.43	437.68
448.62	376.83
448.80	395.55
448.99	381.51
449.17	367.46
449.36	332.36
449.54	414.27
449.73	369.80
449.91	397.89
450.10	440.02
450.28	423.64
450.46	491.51
450.65	390.87
450.83	383.85
451.02	433.00
451.20	362.78
451.39	444.70
451.57	411.93
451.76	358.10
451.94	433.00
452.13	390.87
452.31	433.00
452.49	428.32
452.68	402.57
452.86	475.13
453.05	447.04
453.23	411.93
453.42	489.17
453.60	367.46
453.78	470.45
453.97	395.55
454.15	348.74
454.34	442.36
454.52	386.19
454.70	421.30
454.89	400.23
455.07	414.27
455.26	442.36
455.44	376.83
455.62	404.91
455.81	454.06
455.99	423.64
456.17	402.57
456.36	379.17
456.54	418.96
456.73	416.62
456.91	475.13
457.09	388.53
457.28	358.10
457.46	470.45
457.64	428.32
457.83	409.59
458.01	341.72
458.19	395.55
458.38	388.53
458.56	390.87
458.74	381.51
458.93	430.66
459.11	404.91
459.29	369.80
459.48	388.53
459.66	435.34
459.84	475.13
460.03	456.40
460.21	416.62
460.39	442.36
460.57	440.02
460.76	411.93
460.94	442.36
461.12	458.74
461.31	393.21
461.49	475.13
461.67	433.00
461.85	402.57
462.04	383.85
462.22	770.04
462.40	454.06
462.59	477.47
462.77	381.51
462.95	418.96
463.13	428.32
463.32	379.17
463.50	379.17
463.68	451.72
463.86	395.55
464.05	402.57
464.23	425.98
464.41	409.59
464.59	430.66
464.78	414.27
464.96	433.00
465.14	381.51
465.32	407.25
465.50	379.17
465.69	388.53
465.87	390.87
466.05	381.51
466.23	320.65
466.41	404.91
466.60	393.21
466.78	409.59
466.96	425.98
467.14	418.96
467.32	374.49
467.51	400.23
467.69	444.70
467.87	416.62
468.05	451.72
468.23	468.11
468.41	451.72
468.60	388.53
468.78	414.27
468.96	418.96
469.14	414.27
469.32	383.85
469.50	386.19
469.69	400.23
469.87	390.87
470.05	423.64
470.23	433.00
470.41	430.66
470.59	393.21
470.77	421.30
470.95	447.04
471.14	395.55
471.32	418.96
471.50	456.40
471.68	367.46
471.86	402.57
472.04	407.25
472.22	407.25
472.40	341.72
472.58	463.43
472.77	411.93
472.95	383.85
473.13	449.38
473.31	444.70
473.49	411.93
473.67	468.11
473.85	390.87
474.03	433.00
474.21	367.46
474.39	454.06
474.57	421.30
474.75	440.02
474.93	374.49
475.12	351.08
475.30	402.57
475.48	402.57
475.66	372.15
475.84	454.06
476.02	376.83
476.20	409.59
476.38	372.15
476.56	433.00
476.74	400.23
476.92	444.70
477.10	433.00
477.28	430.66
477.46	423.64
477.64	440.02
477.82	528.96
478.00	404.91
478.18	409.59
478.36	440.02
478.54	423.64
478.72	341.72
478.90	393.21
479.08	458.74
479.26	409.59
479.44	428.32
479.62	421.30
479.80	376.83
479.98	428.32
480.16	416.62
480.34	461.09
480.52	386.19
480.70	407.25
480.88	423.64
481.06	362.78
481.24	416.62
481.41	507.90
481.59	407.25
481.77	407.25
481.95	362.78
482.13	437.68
482.31	390.87
482.49	402.57
482.67	416.62
482.85	407.25
483.03	430.66
483.21	400.23
483.39	388.53
483.57	411.93
483.74	456.40
483.92	444.70
484.10	454.06
484.28	369.80
484.46	369.80
484.64	400.23
484.82	383.85
485.00	376.83
485.18	463.43
485.35	449.38
485.53	447.04
485.71	411.93
485.89	440.02
486.07	374.49
486.25	395.55
486.43	482.15
486.61	489.17
486.78	451.72
486.96	414.27
487.14	381.51
487.32	374.49
487.50	468.11
487.68	379.17
487.85	397.89
488.03	456.40
488.21	400.23
488.39	374.49
488.57	458.74
488.75	425.98
488.92	479.81
489.10	358.10
489.28	435.34
489.46	411.93
489.64	468.11
489.81	451.72
489.99	430.66
490.17	442.36
490.35	489.17
490.53	437.68
490.70	365.12
490.88	430.66
491.06	379.17
491.24	449.38
491.41	498.53
491.59	421.30
491.77	367.46
491.95	447.04
492.13	383.85
492.30	421.30
492.48	409.59
492.66	390.87
492.84	440.02
493.01	449.38
493.19	461.09
493.37	475.13
493.54	376.83
493.72	458.74
493.90	447.04
494.08	418.96
494.25	435.34
494.43	404.91
494.61	407.25
494.79	306.61
494.96	332.36
495.14	423.64
495.32	337.04
495.49	362.78
495.67	390.87
495.85	383.85
496.02	353.42
496.20	440.02
496.38	493.85
496.55	430.66
496.73	337.04
496.91	346.40
497.09	334.70
497.26	447.04
497.44	379.17
497.62	451.72
497.79	456.40
497.97	421.30
498.14	376.83
498.32	367.46
498.50	451.72
498.67	449.38
498.85	418.96
499.03	430.66
499.20	395.55
499.38	418.96
499.56	414.27
499.73	461.09
499.91	400.23
500.08	440.02
500.26	397.89
500.44	430.66
500.61	372.15
500.79	372.15
500.97	468.11
501.14	404.91
501.32	456.40
501.49	489.17
501.67	433.00
501.84	390.87
502.02	404.91
502.20	421.30
502.37	404.91
502.55	451.72
502.72	421.30
502.90	458.74
503.07	451.72
503.25	390.87
503.43	458.74
503.60	367.46
503.78	400.23
503.95	400.23
504.13	372.15
504.30	458.74
504.48	402.57
504.65	416.62
504.83	465.77
505.01	458.74
505.18	430.66
505.36	372.15
505.53	346.40
505.71	386.19
505.88	416.62
506.06	348.74
506.23	397.89
506.41	383.85
506.58	425.98
506.76	421.30
506.93	407.25
507.11	395.55
507.28	362.78
507.46	374.49
507.63	423.64
507.81	404.91
507.98	444.70
508.16	386.19
508.33	372.15
508.50	482.15
508.68	430.66
508.85	400.23
509.03	360.44
509.20	379.17
509.38	414.27
509.55	437.68
509.73	463.43
509.90	407.25
510.08	390.87
510.25	442.36
510.42	395.55
510.60	407.25
510.77	414.27
510.95	404.91
511.12	416.62
511.30	444.70
511.47	517.26
511.64	386.19
511.82	376.83
511.99	414.27
512.17	341.72
512.34	428.32
512.51	418.96
512.69	411.93
512.86	475.13
513.04	344.06
513.21	362.78
513.38	430.66
513.56	393.21
513.73	369.80
513.90	395.55
514.08	369.80
514.25	430.66
514.43	397.89
514.60	383.85
514.77	376.83
514.95	407.25
515.12	376.83
515.29	425.98
515.47	437.68
515.64	451.72
515.81	440.02
515.99	447.04
516.16	400.23
516.33	409.59
516.51	416.62
516.68	390.87
516.85	447.04
517.03	428.32
517.20	411.93
517.37	383.85
517.54	442.36
517.72	425.98
517.89	444.70
518.06	433.00
518.24	449.38
518.41	472.79
518.58	390.87
518.75	407.25
518.93	430.66
519.10	402.57
519.27	421.30
519.45	409.59
519.62	388.53
519.79	390.87
519.96	418.96
520.14	379.17
520.31	489.17
520.48	428.32
520.65	425.98
520.83	409.59
521.00	428.32
521.17	411.93
521.34	388.53
521.52	383.85
521.69	355.76
521.86	437.68
522.03	456.40
522.20	397.89
522.38	355.76
522.55	393.21
522.72	341.72
522.89	348.74
523.07	486.83
523.24	369.80
523.41	437.68
523.58	433.00
523.75	433.00
523.92	454.06
524.10	381.51
524.27	461.09
524.44	393.21
524.61	395.55
524.78	456.40
524.96	425.98
525.13	484.49
525.30	456.40
525.47	435.34
525.64	365.12
525.81	444.70
525.98	388.53
526.16	472.79
526.33	414.27
526.50	423.64
526.67	351.08
526.84	337.04
527.01	461.09
527.18	372.15
527.36	416.62
527.53	409.59
527.70	418.96
527.87	447.04
528.04	521.94
528.21	489.17
528.38	507.90
528.55	449.38
528.72	404.91
528.89	428.32
529.07	463.43
529.24	433.00
529.41	468.11
529.58	444.70
529.75	437.68
529.92	425.98
530.09	390.87
530.26	421.30
530.43	395.55
530.60	381.51
530.77	414.27
530.94	454.06
531.11	402.57
531.28	383.85
531.46	421.30
531.63	346.40
531.80	418.96
531.97	475.13
532.14	388.53
532.31	376.83
532.48	414.27
532.65	472.79
532.82	423.64
532.99	393.21
533.16	479.81
533.33	390.87
533.50	444.70
533.67	425.98
533.84	440.02
534.01	416.62
534.18	369.80
534.35	421.30
534.52	430.66
534.69	421.30
534.86	428.32
535.03	386.19
535.20	407.25
535.37	416.62
535.54	461.09
535.71	400.23
535.88	484.49
536.05	461.09
536.22	435.34
536.38	381.51
536.55	444.70
536.72	456.40
536.89	428.32
537.06	381.51
537.23	390.87
537.40	351.08
537.57	425.98
537.74	465.77
537.91	486.83
538.08	461.09
538.25	433.00
538.42	411.93
538.59	463.43
538.75	388.53
538.92	383.85
539.09	468.11
539.26	407.25
539.43	437.68
539.60	397.89
539.77	390.87
539.94	433.00
540.11	416.62
540.28	472.79
540.44	461.09
540.61	454.06
540.78	435.34
540.95	332.36
541.12	435.34
541.29	468.11
541.46	472.79
541.62	416.62
541.79	414.27
541.96	355.76
542.13	451.72
542.30	376.83
542.47	449.38
542.63	381.51
542.80	402.57
542.97	489.17
543.14	411.93
543.31	470.45
543.48	397.89
543.64	416.62
543.81	400.23
543.98	341.72
544.15	346.40
544.32	388.53
544.48	418.96
544.65	346.40
544.82	397.89
544.99	411.93
545.16	404.91
545.32	433.00
545.49	456.40
545.66	409.59
545.83	463.43
546.00	379.17
546.16	379.17
546.33	447.04
546.50	423.64
546.67	428.32
546.83	339.38
547.00	393.21
547.17	393.21
547.34	374.49
547.50	435.34
547.67	379.17
547.84	411.93
548.00	388.53
548.17	344.06
548.34	451.72
548.51	465.77
548.67	383.85
548.84	444.70
549.01	388.53
549.18	449.38
549.34	372.15
549.51	449.38
549.68	510.24
549.84	423.64
550.01	348.74
550.18	440.02
550.34	458.74
550.51	386.19
550.68	442.36
550.84	414.27
551.01	437.68
551.18	425.98
551.34	393.21
551.51	376.83
551.68	421.30
551.84	369.80
552.01	400.23
552.18	390.87
552.34	423.64
552.51	428.32
552.68	458.74
552.84	418.96
553.01	402.57
553.18	442.36
553.34	433.00
553.51	449.38
553.67	358.10
553.84	440.02
554.01	416.62
554.17	435.34
554.34	388.53
554.51	407.25
554.67	461.09
554.84	374.49
555.00	400.23
555.17	400.23
555.33	407.25
555.50	468.11
555.67	423.64
555.83	301.93
556.00	444.70
556.16	517.26
556.33	528.96
556.50	507.90
556.66	421.30
556.83	404.91
556.99	440.02
557.16	444.70
557.32	339.38
557.49	449.38
557.65	318.31
557.82	383.85
557.98	428.32
558.15	407.25
558.32	430.66
558.48	491.51
558.65	418.96
558.81	362.78
558.98	402.57
559.14	449.38
559.31	430.66
559.47	528.96
559.64	383.85
559.80	409.59
559.97	388.53
560.13	353.42
560.30	451.72
560.46	425.98
560.63	386.19
560.79	425.98
560.96	346.40
561.12	416.62
561.29	440.02
561.45	465.77
561.61	360.44
561.78	437.68
561.94	404.91
562.11	374.49
562.27	493.85
562.44	423.64
562.60	372.15
562.77	442.36
562.93	454.06
563.10	383.85
563.26	407.25
563.42	435.34
563.59	493.85
563.75	482.15
563.92	451.72
564.08	465.77
564.24	465.77
564.41	421.30
564.57	400.23
564.74	330.02
564.90	322.99
565.07	447.04
565.23	395.55
565.39	414.27
565.56	379.17
565.72	407.25
565.88	430.66
566.05	374.49
566.21	376.83
566.38	411.93
566.54	430.66
566.70	440.02
566.87	425.98
567.03	449.38
567.19	447.04
567.36	393.21
567.52	423.64
567.68	421.30
567.85	491.51
568.01	400.23
568.17	402.57
568.34	400.23
568.50	418.96
568.66	411.93
568.83	465.77
568.99	388.53
569.15	425.98
569.32	414.27
569.48	435.34
569.64	423.64
569.81	397.89
569.97	442.36
570.13	423.64
570.30	320.65
570.46	421.30
570.62	379.17
570.78	433.00
570.95	376.83
571.11	484.49
571.27	505.56
571.43	430.66
571.60	379.17
571.76	369.80
571.92	397.89
572.09	407.25
572.25	465.77
572.41	414.27
572.57	425.98
572.74	397.89
572.90	430.66
573.06	383.85
573.22	454.06
573.38	430.66
573.55	409.59
573.71	388.53
573.87	395.55
574.03	393.21
574.20	423.64
574.36	456.40
574.52	407.25
574.68	376.83
574.84	400.23
575.01	477.47
575.17	505.56
575.33	390.87
575.49	437.68
575.65	507.90
575.82	374.49
575.98	388.53
576.14	407.25
576.30	451.72
576.46	397.89
576.62	411.93
576.79	456.40
576.95	428.32
577.11	444.70
577.27	395.55
577.43	386.19
577.59	400.23
577.75	411.93
577.92	440.02
578.08	341.72
578.24	449.38
578.40	451.72
578.56	454.06
578.72	470.45
578.88	433.00
579.04	421.30
579.21	397.89
579.37	407.25
579.53	416.62
579.69	400.23
579.85	390.87
580.01	355.76
580.17	414.27
580.33	440.02
580.49	388.53
580.65	425.98
580.82	433.00
580.98	388.53
581.14	374.49
581.30	470.45
581.46	379.17
581.62	461.09
581.78	325.33
581.94	393.21
582.10	449.38
582.26	397.89
582.42	402.57
582.58	470.45
582.74	374.49
582.90	411.93
583.06	365.12
583.22	365.12
583.38	334.70
583.54	418.96
583.70	404.91
583.86	374.49
584.02	365.12
584.18	386.19
584.34	320.65
584.50	400.23
584.66	386.19
584.82	433.00
584.98	383.85
585.14	444.70
585.30	421.30
585.46	423.64
585.62	470.45
585.78	418.96
585.94	456.40
586.10	414.27
586.26	437.68
586.42	482.15
586.58	449.38
586.74	395.55
586.90	484.49
587.06	381.51
587.22	402.57
587.38	435.34
587.54	400.23
587.70	442.36
587.86	447.04
588.02	435.34
588.18	456.40
588.34	451.72
588.49	374.49
588.65	433.00
588.81	428.32
588.97	423.64
589.13	404.91
589.29	346.40
589.45	400.23
589.61	425.98
589.77	517.26
589.93	437.68
590.08	440.02
590.24	440.02
590.40	386.19
590.56	402.57
590.72	416.62
590.88	425.98
591.04	458.74
591.20	369.80
591.35	489.17
591.51	437.68
591.67	416.62
591.83	437.68
591.99	418.96
592.15	505.56
592.31	416.62
592.46	463.43
592.62	447.04
592.78	428.32
592.94	442.36
593.10	447.04
593.26	388.53
593.41	379.17
593.57	437.68
593.73	440.02
593.89	449.38
594.05	421.30
594.20	472.79
594.36	484.49
594.52	388.53
594.68	416.62
594.84	428.32
594.99	409.59
595.15	402.57
595.31	369.80
595.47	465.77
595.62	337.04
595.78	463.43
595.94	376.83
596.10	423.64
596.25	463.43
596.41	493.85
596.57	372.15
596.73	418.96
596.88	393.21
597.04	507.90
597.20	402.57
597.36	470.45
597.51	390.87
597.67	390.87
597.83	400.23
597.99	437.68
598.14	425.98
598.30	400.23
598.46	423.64
598.61	479.81
598.77	440.02
598.93	418.96
599.09	404.91
599.24	376.83
599.40	409.59
599.56	468.11
599.71	423.64
599.87	402.57
600.03	491.51
600.18	449.38
600.34	372.15
600.50	421.30
600.65	407.25
600.81	404.91
600.97	386.19
601.12	458.74
601.28	444.70
601.44	463.43
601.59	416.62
601.75	425.98
601.91	400.23
602.06	454.06
602.22	482.15
602.37	454.06
602.53	458.74
602.69	421.30
602.84	442.36
603.00	475.13
603.16	444.70
603.31	477.47
603.47	379.17
603.62	330.02
603.78	393.21
603.94	493.85
604.09	421.30
604.25	435.34
604.40	425.98
604.56	376.83
604.71	444.70
604.87	407.25
605.03	362.78
605.18	430.66
605.34	404.91
605.49	337.04
605.65	374.49
605.80	362.78
605.96	362.78
606.12	404.91
606.27	409.59
606.43	404.91
606.58	428.32
606.74	381.51
606.89	433.00
607.05	404.91
607.20	418.96
607.36	348.74
607.51	362.78
607.67	428.32
607.82	418.96
607.98	458.74
608.13	425.98
608.29	423.64
608.44	512.58
608.60	428.32
608.75	461.09
608.91	414.27
609.06	416.62
609.22	365.12
609.37	383.85
609.53	397.89
609.68	390.87
609.84	383.85
609.99	409.59
610.15	447.04
