SpectraSuite Data File
++++++++++++++++++++++++++++++++++++
Date: Fri Oct 25 12:10:15 EDT 2013
User: price-jones
Dark Spectrum Present: No
Reference Spectrum Present: No
Number of Sampled Component Spectra: 1
Spectrometers: USB2+H05261
Integration Time (usec): 100000 (USB2+H05261)
Spectra Averaged: 1 (USB2+H05261)
Boxcar Smoothing: 0 (USB2+H05261)
Correct for Electrical Dark: No (USB2+H05261)
Strobe/Lamp Enabled: No (USB2+H05261)
Correct for Detector Non-linearity: No (USB2+H05261)
Correct for Stray Light: No (USB2+H05261)
Number of Pixels in Processed Spectrum: 2048
>>>>>Begin Processed Spectral Data<<<<<
365.73	315.97
365.92	315.97
366.12	315.97
366.32	245.76
366.52	304.27
366.72	196.60
366.91	220.01
367.11	243.42
367.31	224.69
367.51	217.67
367.70	236.39
367.90	271.50
368.10	255.12
368.30	194.26
368.49	201.29
368.69	257.46
368.89	201.29
369.09	320.65
369.28	322.99
369.48	266.82
369.68	255.12
369.87	320.65
370.07	220.01
370.27	379.17
370.47	264.48
370.66	252.78
370.86	383.85
371.06	374.49
371.25	348.74
371.45	358.10
371.65	421.30
371.84	395.55
372.04	383.85
372.24	395.55
372.44	365.12
372.63	379.17
372.83	423.64
373.03	379.17
373.22	418.96
373.42	383.85
373.62	451.72
373.81	428.32
374.01	421.30
374.21	503.22
374.40	388.53
374.60	386.19
374.79	402.57
374.99	397.89
375.19	416.62
375.38	372.15
375.58	421.30
375.78	421.30
375.97	451.72
376.17	482.15
376.37	400.23
376.56	376.83
376.76	360.44
376.95	362.78
377.15	456.40
377.35	360.44
377.54	388.53
377.74	360.44
377.93	418.96
378.13	447.04
378.33	451.72
378.52	456.40
378.72	372.15
378.91	395.55
379.11	369.80
379.31	372.15
379.50	423.64
379.70	430.66
379.89	397.89
380.09	484.49
380.28	374.49
380.48	458.74
380.68	484.49
380.87	404.91
381.07	411.93
381.26	454.06
381.46	428.32
381.65	416.62
381.85	407.25
382.04	461.09
382.24	402.57
382.43	365.12
382.63	447.04
382.83	404.91
383.02	376.83
383.22	472.79
383.41	498.53
383.61	355.76
383.80	414.27
384.00	475.13
384.19	379.17
384.39	456.40
384.58	400.23
384.78	442.36
384.97	465.77
385.17	381.51
385.36	411.93
385.56	395.55
385.75	374.49
385.95	327.68
386.14	447.04
386.34	411.93
386.53	383.85
386.72	477.47
386.92	428.32
387.11	447.04
387.31	325.33
387.50	318.31
387.70	468.11
387.89	374.49
388.09	416.62
388.28	355.76
388.48	388.53
388.67	374.49
388.86	344.06
389.06	376.83
389.25	428.32
389.45	409.59
389.64	362.78
389.84	386.19
390.03	369.80
390.22	393.21
390.42	407.25
390.61	355.76
390.81	423.64
391.00	351.08
391.19	468.11
391.39	451.72
391.58	400.23
391.78	383.85
391.97	327.68
392.16	454.06
392.36	418.96
392.55	444.70
392.75	388.53
392.94	418.96
393.13	388.53
393.33	372.15
393.52	454.06
393.71	411.93
393.91	397.89
394.10	411.93
394.29	449.38
394.49	400.23
394.68	395.55
394.88	470.45
395.07	369.80
395.26	400.23
395.46	418.96
395.65	454.06
395.84	388.53
396.04	484.49
396.23	437.68
396.42	353.42
396.62	341.72
396.81	360.44
397.00	428.32
397.19	367.46
397.39	383.85
397.58	360.44
397.77	388.53
397.97	437.68
398.16	346.40
398.35	430.66
398.55	411.93
398.74	390.87
398.93	409.59
399.12	372.15
399.32	395.55
399.51	365.12
399.70	435.34
399.90	393.21
400.09	390.87
400.28	395.55
400.47	402.57
400.67	339.38
400.86	393.21
401.05	428.32
401.24	346.40
401.44	447.04
401.63	393.21
401.82	376.83
402.01	376.83
402.21	418.96
402.40	440.02
402.59	425.98
402.78	362.78
402.97	395.55
403.17	367.46
403.36	430.66
403.55	372.15
403.74	411.93
403.93	423.64
404.13	409.59
404.32	376.83
404.51	440.02
404.70	411.93
404.89	444.70
405.09	418.96
405.28	393.21
405.47	369.80
405.66	428.32
405.85	493.85
406.05	395.55
406.24	430.66
406.43	440.02
406.62	360.44
406.81	407.25
407.00	421.30
407.20	360.44
407.39	416.62
407.58	351.08
407.77	390.87
407.96	407.25
408.15	376.83
408.34	409.59
408.54	381.51
408.73	421.30
408.92	404.91
409.11	425.98
409.30	376.83
409.49	339.38
409.68	465.77
409.87	383.85
410.07	418.96
410.26	425.98
410.45	353.42
410.64	358.10
410.83	376.83
411.02	416.62
411.21	402.57
411.40	381.51
411.59	355.76
411.78	395.55
411.98	440.02
412.17	423.64
412.36	409.59
412.55	383.85
412.74	416.62
412.93	442.36
413.12	381.51
413.31	421.30
413.50	461.09
413.69	444.70
413.88	407.25
414.07	374.49
414.26	393.21
414.45	383.85
414.64	531.30
414.83	461.09
415.02	369.80
415.22	428.32
415.41	411.93
415.60	374.49
415.79	348.74
415.98	444.70
416.17	404.91
416.36	395.55
416.55	458.74
416.74	472.79
416.93	440.02
417.12	393.21
417.31	409.59
417.50	404.91
417.69	423.64
417.88	402.57
418.07	411.93
418.26	414.27
418.45	430.66
418.64	428.32
418.83	341.72
419.02	374.49
419.21	362.78
419.39	449.38
419.58	416.62
419.77	430.66
419.96	393.21
420.15	404.91
420.34	423.64
420.53	369.80
420.72	458.74
420.91	468.11
421.10	430.66
421.29	411.93
421.48	423.64
421.67	421.30
421.86	433.00
422.05	416.62
422.24	400.23
422.43	330.02
422.61	393.21
422.80	358.10
422.99	362.78
423.18	372.15
423.37	411.93
423.56	470.45
423.75	472.79
423.94	362.78
424.13	430.66
424.32	327.68
424.50	425.98
424.69	421.30
424.88	472.79
425.07	447.04
425.26	374.49
425.45	390.87
425.64	451.72
425.83	402.57
426.01	425.98
426.20	428.32
426.39	418.96
426.58	425.98
426.77	393.21
426.96	444.70
427.15	411.93
427.33	306.61
427.52	393.21
427.71	395.55
427.90	447.04
428.09	423.64
428.28	447.04
428.46	339.38
428.65	407.25
428.84	411.93
429.03	418.96
429.22	355.76
429.40	395.55
429.59	407.25
429.78	372.15
429.97	397.89
430.16	421.30
430.34	390.87
430.53	348.74
430.72	351.08
430.91	442.36
431.10	430.66
431.28	465.77
431.47	418.96
431.66	381.51
431.85	386.19
432.03	411.93
432.22	421.30
432.41	414.27
432.60	442.36
432.79	444.70
432.97	447.04
433.16	435.34
433.35	423.64
433.54	355.76
433.72	397.89
433.91	393.21
434.10	421.30
434.28	337.04
434.47	454.06
434.66	447.04
434.85	421.30
435.03	374.49
435.22	458.74
435.41	449.38
435.59	503.22
435.78	414.27
435.97	423.64
436.16	388.53
436.34	390.87
436.53	428.32
436.72	411.93
436.90	496.19
437.09	418.96
437.28	379.17
437.46	409.59
437.65	418.96
437.84	416.62
438.02	421.30
438.21	409.59
438.40	421.30
438.58	388.53
438.77	344.06
438.96	362.78
439.14	334.70
439.33	330.02
439.52	379.17
439.70	400.23
439.89	456.40
440.08	430.66
440.26	393.21
440.45	407.25
440.63	414.27
440.82	425.98
441.01	395.55
441.19	393.21
441.38	397.89
441.57	442.36
441.75	400.23
441.94	454.06
442.12	367.46
442.31	367.46
442.50	440.02
442.68	397.89
442.87	369.80
443.05	330.02
443.24	428.32
443.43	433.00
443.61	482.15
443.80	376.83
443.98	421.30
444.17	437.68
444.35	416.62
444.54	435.34
444.73	458.74
444.91	449.38
445.10	341.72
445.28	388.53
445.47	451.72
445.65	365.12
445.84	341.72
446.02	433.00
446.21	374.49
446.39	437.68
446.58	423.64
446.77	379.17
446.95	421.30
447.14	470.45
447.32	498.53
447.51	367.46
447.69	430.66
447.88	435.34
448.06	500.87
448.25	390.87
448.43	472.79
448.62	358.10
448.80	376.83
448.99	390.87
449.17	386.19
449.36	367.46
449.54	454.06
449.73	393.21
449.91	386.19
450.10	402.57
450.28	475.13
450.46	472.79
450.65	500.87
450.83	369.80
451.02	409.59
451.20	404.91
451.39	437.68
451.57	470.45
451.76	390.87
451.94	379.17
452.13	400.23
452.31	402.57
452.49	421.30
452.68	463.43
452.86	367.46
453.05	465.77
453.23	374.49
453.42	379.17
453.60	390.87
453.78	402.57
453.97	425.98
454.15	447.04
454.34	386.19
454.52	388.53
454.70	369.80
454.89	388.53
455.07	376.83
455.26	479.81
455.44	423.64
455.62	440.02
455.81	454.06
455.99	393.21
456.17	435.34
456.36	449.38
456.54	435.34
456.73	409.59
456.91	440.02
457.09	390.87
457.28	400.23
457.46	388.53
457.64	472.79
457.83	430.66
458.01	409.59
458.19	365.12
458.38	330.02
458.56	365.12
458.74	428.32
458.93	407.25
459.11	367.46
459.29	353.42
459.48	346.40
459.66	397.89
459.84	404.91
460.03	512.58
460.21	454.06
460.39	351.08
460.57	498.53
460.76	386.19
460.94	383.85
461.12	465.77
461.31	475.13
461.49	402.57
461.67	379.17
461.85	416.62
462.04	472.79
462.22	760.67
462.40	449.38
462.59	435.34
462.77	440.02
462.95	447.04
463.13	374.49
463.32	337.04
463.50	437.68
463.68	428.32
463.86	444.70
464.05	397.89
464.23	395.55
464.41	390.87
464.59	425.98
464.78	477.47
464.96	458.74
465.14	402.57
465.32	383.85
465.50	337.04
465.69	395.55
465.87	367.46
466.05	327.68
466.23	418.96
466.41	390.87
466.60	388.53
466.78	395.55
466.96	407.25
467.14	355.76
467.32	430.66
467.51	475.13
467.69	421.30
467.87	519.60
468.05	421.30
468.23	458.74
468.41	447.04
468.60	402.57
468.78	456.40
468.96	416.62
469.14	376.83
469.32	332.36
469.50	358.10
469.69	440.02
469.87	395.55
470.05	482.15
470.23	386.19
470.41	423.64
470.59	437.68
470.77	362.78
470.95	397.89
471.14	444.70
471.32	395.55
471.50	411.93
471.68	440.02
471.86	388.53
472.04	414.27
472.22	362.78
472.40	388.53
472.58	421.30
472.77	418.96
472.95	444.70
473.13	425.98
473.31	433.00
473.49	437.68
473.67	390.87
473.85	397.89
474.03	428.32
474.21	440.02
474.39	322.99
474.57	510.24
474.75	437.68
474.93	339.38
475.12	386.19
475.30	393.21
475.48	416.62
475.66	402.57
475.84	444.70
476.02	369.80
476.20	421.30
476.38	400.23
476.56	531.30
476.74	372.15
476.92	414.27
477.10	411.93
477.28	435.34
477.46	409.59
477.64	486.83
477.82	411.93
478.00	470.45
478.18	437.68
478.36	477.47
478.54	383.85
478.72	397.89
478.90	388.53
479.08	365.12
479.26	435.34
479.44	379.17
479.62	407.25
479.80	404.91
479.98	388.53
480.16	360.44
480.34	416.62
480.52	404.91
480.70	428.32
480.88	376.83
481.06	358.10
481.24	381.51
481.41	395.55
481.59	435.34
481.77	456.40
481.95	470.45
482.13	376.83
482.31	395.55
482.49	430.66
482.67	456.40
482.85	470.45
483.03	463.43
483.21	430.66
483.39	409.59
483.57	386.19
483.74	404.91
483.92	418.96
484.10	498.53
484.28	449.38
484.46	482.15
484.64	428.32
484.82	465.77
485.00	402.57
485.18	451.72
485.35	421.30
485.53	395.55
485.71	397.89
485.89	461.09
486.07	395.55
486.25	484.49
486.43	421.30
486.61	458.74
486.78	393.21
486.96	454.06
487.14	440.02
487.32	421.30
487.50	386.19
487.68	372.15
487.85	367.46
488.03	442.36
488.21	430.66
488.39	407.25
488.57	390.87
488.75	425.98
488.92	503.22
489.10	437.68
489.28	477.47
489.46	423.64
489.64	458.74
489.81	367.46
489.99	358.10
490.17	362.78
490.35	428.32
490.53	367.46
490.70	381.51
490.88	484.49
491.06	355.76
491.24	503.22
491.41	388.53
491.59	381.51
491.77	388.53
491.95	397.89
492.13	337.04
492.30	442.36
492.48	411.93
492.66	458.74
492.84	404.91
493.01	402.57
493.19	397.89
493.37	468.11
493.54	411.93
493.72	400.23
493.90	430.66
494.08	358.10
494.25	461.09
494.43	479.81
494.61	421.30
494.79	414.27
494.96	360.44
495.14	397.89
495.32	395.55
495.49	428.32
495.67	435.34
495.85	369.80
496.02	454.06
496.20	456.40
496.38	498.53
496.55	477.47
496.73	397.89
496.91	444.70
497.09	444.70
497.26	428.32
497.44	397.89
497.62	493.85
497.79	407.25
497.97	400.23
498.14	416.62
498.32	433.00
498.50	470.45
498.67	374.49
498.85	479.81
499.03	346.40
499.20	454.06
499.38	491.51
499.56	430.66
499.73	500.87
499.91	435.34
500.08	470.45
500.26	379.17
500.44	409.59
500.61	379.17
500.79	437.68
500.97	369.80
501.14	393.21
501.32	440.02
501.49	388.53
501.67	475.13
501.84	423.64
502.02	458.74
502.20	423.64
502.37	482.15
502.55	409.59
502.72	461.09
502.90	397.89
503.07	414.27
503.25	400.23
503.43	360.44
503.60	376.83
503.78	409.59
503.95	423.64
504.13	367.46
504.30	360.44
504.48	407.25
504.65	447.04
504.83	444.70
505.01	360.44
505.18	388.53
505.36	395.55
505.53	449.38
505.71	360.44
505.88	482.15
506.06	393.21
506.23	353.42
506.41	383.85
506.58	440.02
506.76	428.32
506.93	348.74
507.11	472.79
507.28	440.02
507.46	374.49
507.63	344.06
507.81	414.27
507.98	367.46
508.16	367.46
508.33	393.21
508.50	407.25
508.68	442.36
508.85	421.30
509.03	423.64
509.20	433.00
509.38	341.72
509.55	414.27
509.73	402.57
509.90	423.64
510.08	379.17
510.25	440.02
510.42	416.62
510.60	442.36
510.77	437.68
510.95	465.77
511.12	330.02
511.30	411.93
511.47	447.04
511.64	449.38
511.82	449.38
511.99	367.46
512.17	409.59
512.34	423.64
512.51	358.10
512.69	407.25
512.86	456.40
513.04	463.43
513.21	440.02
513.38	372.15
513.56	425.98
513.73	433.00
513.90	306.61
514.08	362.78
514.25	451.72
514.43	386.19
514.60	376.83
514.77	393.21
514.95	369.80
515.12	421.30
515.29	418.96
515.47	463.43
515.64	388.53
515.81	449.38
515.99	526.62
516.16	435.34
516.33	390.87
516.51	348.74
516.68	430.66
516.85	407.25
517.03	444.70
517.20	444.70
517.37	535.98
517.54	475.13
517.72	435.34
517.89	395.55
518.06	404.91
518.24	472.79
518.41	454.06
518.58	400.23
518.75	423.64
518.93	411.93
519.10	454.06
519.27	421.30
519.45	395.55
519.62	376.83
519.79	489.17
519.96	365.12
520.14	442.36
520.31	433.00
520.48	444.70
520.65	395.55
520.83	444.70
521.00	400.23
521.17	433.00
521.34	374.49
521.52	344.06
521.69	421.30
521.86	393.21
522.03	468.11
522.20	400.23
522.38	388.53
522.55	423.64
522.72	430.66
522.89	428.32
523.07	514.92
523.24	404.91
523.41	421.30
523.58	315.97
523.75	365.12
523.92	468.11
524.10	428.32
524.27	402.57
524.44	428.32
524.61	440.02
524.78	409.59
524.96	449.38
525.13	461.09
525.30	463.43
525.47	393.21
525.64	418.96
525.81	376.83
525.98	484.49
526.16	390.87
526.33	423.64
526.50	358.10
526.67	423.64
526.84	447.04
527.01	454.06
527.18	430.66
527.36	409.59
527.53	386.19
527.70	517.26
527.87	393.21
528.04	416.62
528.21	428.32
528.38	486.83
528.55	404.91
528.72	428.32
528.89	461.09
529.07	388.53
529.24	409.59
529.41	435.34
529.58	468.11
529.75	430.66
529.92	442.36
530.09	451.72
530.26	449.38
530.43	430.66
530.60	440.02
530.77	435.34
530.94	428.32
531.11	411.93
531.28	414.27
531.46	402.57
531.63	517.26
531.80	393.21
531.97	423.64
532.14	414.27
532.31	383.85
532.48	444.70
532.65	407.25
532.82	414.27
532.99	435.34
533.16	454.06
533.33	442.36
533.50	456.40
533.67	374.49
533.84	444.70
534.01	386.19
534.18	449.38
534.35	472.79
534.52	444.70
534.69	414.27
534.86	418.96
535.03	444.70
535.20	416.62
535.37	425.98
535.54	397.89
535.71	416.62
535.88	379.17
536.05	407.25
536.22	411.93
536.38	430.66
536.55	454.06
536.72	423.64
536.89	418.96
537.06	400.23
537.23	411.93
537.40	407.25
537.57	395.55
537.74	512.58
537.91	449.38
538.08	404.91
538.25	369.80
538.42	367.46
538.59	444.70
538.75	400.23
538.92	475.13
539.09	400.23
539.26	416.62
539.43	489.17
539.60	390.87
539.77	496.19
539.94	475.13
540.11	393.21
540.28	475.13
540.44	489.17
540.61	442.36
540.78	437.68
540.95	409.59
541.12	472.79
541.29	362.78
541.46	421.30
541.62	416.62
541.79	435.34
541.96	362.78
542.13	376.83
542.30	454.06
542.47	418.96
542.63	358.10
542.80	414.27
542.97	423.64
543.14	425.98
543.31	458.74
543.48	395.55
543.64	414.27
543.81	447.04
543.98	332.36
544.15	355.76
544.32	447.04
544.48	374.49
544.65	402.57
544.82	390.87
544.99	374.49
545.16	418.96
545.32	449.38
545.49	376.83
545.66	400.23
545.83	428.32
546.00	362.78
546.16	414.27
546.33	383.85
546.50	454.06
546.67	386.19
546.83	411.93
547.00	393.21
547.17	388.53
547.34	414.27
547.50	437.68
547.67	344.06
547.84	400.23
548.00	334.70
548.17	407.25
548.34	423.64
548.51	449.38
548.67	433.00
548.84	395.55
549.01	416.62
549.18	383.85
549.34	428.32
549.51	421.30
549.68	433.00
549.84	379.17
550.01	435.34
550.18	458.74
550.34	381.51
550.51	421.30
550.68	475.13
550.84	393.21
551.01	421.30
551.18	454.06
551.34	423.64
551.51	425.98
551.68	381.51
551.84	414.27
552.01	369.80
552.18	430.66
552.34	421.30
552.51	404.91
552.68	498.53
552.84	458.74
553.01	409.59
553.18	475.13
553.34	374.49
553.51	304.27
553.67	442.36
553.84	395.55
554.01	468.11
554.17	458.74
554.34	444.70
554.51	444.70
554.67	423.64
554.84	435.34
555.00	489.17
555.17	409.59
555.33	395.55
555.50	355.76
555.67	381.51
555.83	411.93
556.00	397.89
556.16	582.79
556.33	465.77
556.50	418.96
556.66	449.38
556.83	433.00
556.99	458.74
557.16	358.10
557.32	327.68
557.49	402.57
557.65	421.30
557.82	425.98
557.98	418.96
558.15	465.77
558.32	407.25
558.48	393.21
558.65	381.51
558.81	444.70
558.98	416.62
559.14	435.34
559.31	458.74
559.47	409.59
559.64	437.68
559.80	404.91
559.97	395.55
560.13	381.51
560.30	400.23
560.46	433.00
560.63	416.62
560.79	430.66
560.96	484.49
561.12	421.30
561.29	535.98
561.45	402.57
561.61	433.00
561.78	496.19
561.94	332.36
562.11	353.42
562.27	407.25
562.44	341.72
562.60	404.91
562.77	470.45
562.93	489.17
563.10	449.38
563.26	463.43
563.42	428.32
563.59	425.98
563.75	365.12
563.92	425.98
564.08	454.06
564.24	421.30
564.41	444.70
564.57	409.59
564.74	428.32
564.90	430.66
565.07	475.13
565.23	381.51
565.39	402.57
565.56	440.02
565.72	461.09
565.88	367.46
566.05	374.49
566.21	418.96
566.38	327.68
566.54	458.74
566.70	468.11
566.87	416.62
567.03	395.55
567.19	388.53
567.36	433.00
567.52	360.44
567.68	414.27
567.85	447.04
568.01	425.98
568.17	472.79
568.34	428.32
568.50	393.21
568.66	362.78
568.83	414.27
568.99	437.68
569.15	416.62
569.32	444.70
569.48	360.44
569.64	430.66
569.81	381.51
569.97	451.72
570.13	372.15
570.30	447.04
570.46	421.30
570.62	437.68
570.78	402.57
570.95	433.00
571.11	461.09
571.27	463.43
571.43	367.46
571.60	411.93
571.76	411.93
571.92	369.80
572.09	472.79
572.25	397.89
572.41	430.66
572.57	344.06
572.74	430.66
572.90	407.25
573.06	510.24
573.22	416.62
573.38	435.34
573.55	470.45
573.71	477.47
573.87	484.49
574.03	372.15
574.20	437.68
574.36	470.45
574.52	409.59
574.68	430.66
574.84	435.34
575.01	444.70
575.17	425.98
575.33	400.23
575.49	482.15
575.65	397.89
575.82	440.02
575.98	477.47
576.14	414.27
576.30	315.97
576.46	381.51
576.62	437.68
576.79	372.15
576.95	393.21
577.11	435.34
577.27	423.64
577.43	407.25
577.59	454.06
577.75	418.96
577.92	423.64
578.08	456.40
578.24	395.55
578.40	468.11
578.56	500.87
578.72	440.02
578.88	416.62
579.04	430.66
579.21	409.59
579.37	449.38
579.53	411.93
579.69	409.59
579.85	437.68
580.01	428.32
580.17	461.09
580.33	435.34
580.49	411.93
580.65	421.30
580.82	454.06
580.98	409.59
581.14	475.13
581.30	482.15
581.46	395.55
581.62	428.32
581.78	400.23
581.94	381.51
582.10	327.68
582.26	458.74
582.42	360.44
582.58	433.00
582.74	402.57
582.90	477.47
583.06	456.40
583.22	383.85
583.38	463.43
583.54	330.02
583.70	374.49
583.86	477.47
584.02	383.85
584.18	395.55
584.34	416.62
584.50	435.34
584.66	376.83
584.82	402.57
584.98	390.87
585.14	451.72
585.30	388.53
585.46	386.19
585.62	341.72
585.78	409.59
585.94	433.00
586.10	470.45
586.26	388.53
586.42	503.22
586.58	362.78
586.74	376.83
586.90	444.70
587.06	379.17
587.22	402.57
587.38	416.62
587.54	404.91
587.70	418.96
587.86	461.09
588.02	425.98
588.18	404.91
588.34	493.85
588.49	395.55
588.65	437.68
588.81	395.55
588.97	442.36
589.13	407.25
589.29	418.96
589.45	447.04
589.61	376.83
589.77	468.11
589.93	465.77
590.08	447.04
590.24	430.66
590.40	381.51
590.56	367.46
590.72	358.10
590.88	463.43
591.04	475.13
591.20	379.17
591.35	428.32
591.51	379.17
591.67	423.64
591.83	465.77
591.99	503.22
592.15	479.81
592.31	454.06
592.46	402.57
592.62	393.21
592.78	393.21
592.94	365.12
593.10	451.72
593.26	447.04
593.41	341.72
593.57	451.72
593.73	425.98
593.89	423.64
594.05	355.76
594.20	386.19
594.36	400.23
594.52	414.27
594.68	388.53
594.84	461.09
594.99	442.36
595.15	376.83
595.31	465.77
595.47	472.79
595.62	414.27
595.78	344.06
595.94	393.21
596.10	484.49
596.25	365.12
596.41	444.70
596.57	400.23
596.73	435.34
596.88	437.68
597.04	423.64
597.20	388.53
597.36	407.25
597.51	440.02
597.67	402.57
597.83	367.46
597.99	414.27
598.14	465.77
598.30	374.49
598.46	393.21
598.61	475.13
598.77	407.25
598.93	468.11
599.09	395.55
599.24	407.25
599.40	482.15
599.56	414.27
599.71	423.64
599.87	360.44
600.03	388.53
600.18	421.30
600.34	402.57
600.50	421.30
600.65	425.98
600.81	381.51
600.97	404.91
601.12	395.55
601.28	479.81
601.44	442.36
601.59	416.62
601.75	425.98
601.91	376.83
602.06	390.87
602.22	430.66
602.37	454.06
602.53	433.00
602.69	442.36
602.84	374.49
603.00	353.42
603.16	381.51
603.31	461.09
603.47	397.89
603.62	444.70
603.78	440.02
603.94	500.87
604.09	404.91
604.25	411.93
604.40	428.32
604.56	318.31
604.71	411.93
604.87	451.72
605.03	433.00
605.18	404.91
605.34	519.60
605.49	334.70
605.65	355.76
605.80	320.65
605.96	395.55
606.12	404.91
606.27	414.27
606.43	355.76
606.58	447.04
606.74	442.36
606.89	365.12
607.05	493.85
607.20	447.04
607.36	374.49
607.51	372.15
607.67	397.89
607.82	463.43
607.98	528.96
608.13	425.98
608.29	372.15
608.44	372.15
608.60	421.30
608.75	425.98
608.91	423.64
609.06	404.91
609.22	402.57
609.37	393.21
609.53	477.47
609.68	451.72
609.84	355.76
609.99	411.93
610.15	346.40
