SpectraSuite Data File
++++++++++++++++++++++++++++++++++++
Date: Fri Oct 25 12:11:15 EDT 2013
User: price-jones
Dark Spectrum Present: No
Reference Spectrum Present: No
Number of Sampled Component Spectra: 1
Spectrometers: USB2+H05261
Integration Time (usec): 100000 (USB2+H05261)
Spectra Averaged: 1 (USB2+H05261)
Boxcar Smoothing: 0 (USB2+H05261)
Correct for Electrical Dark: No (USB2+H05261)
Strobe/Lamp Enabled: No (USB2+H05261)
Correct for Detector Non-linearity: No (USB2+H05261)
Correct for Stray Light: No (USB2+H05261)
Number of Pixels in Processed Spectrum: 2048
>>>>>Begin Processed Spectral Data<<<<<
365.73	372.15
365.92	372.15
366.12	372.15
366.32	264.48
366.52	229.37
366.72	257.46
366.91	191.92
367.11	168.52
367.31	191.92
367.51	189.58
367.70	248.10
367.90	264.48
368.10	184.90
368.30	264.48
368.49	217.67
368.69	266.82
368.89	220.01
369.09	194.26
369.28	285.55
369.48	264.48
369.68	243.42
369.87	250.44
370.07	358.10
370.27	318.31
370.47	322.99
370.66	290.23
370.86	322.99
371.06	404.91
371.25	428.32
371.45	341.72
371.65	381.51
371.84	379.17
372.04	454.06
372.24	386.19
372.44	355.76
372.63	447.04
372.83	339.38
373.03	348.74
373.22	411.93
373.42	433.00
373.62	425.98
373.81	430.66
374.01	435.34
374.21	475.13
374.40	374.49
374.60	430.66
374.79	430.66
374.99	463.43
375.19	409.59
375.38	381.51
375.58	355.76
375.78	500.87
375.97	428.32
376.17	465.77
376.37	386.19
376.56	397.89
376.76	456.40
376.95	383.85
377.15	381.51
377.35	433.00
377.54	348.74
377.74	369.80
377.93	454.06
378.13	348.74
378.33	442.36
378.52	360.44
378.72	425.98
378.91	404.91
379.11	449.38
379.31	416.62
379.50	365.12
379.70	388.53
379.89	430.66
380.09	510.24
380.28	402.57
380.48	447.04
380.68	505.56
380.87	383.85
381.07	411.93
381.26	414.27
381.46	428.32
381.65	449.38
381.85	411.93
382.04	297.25
382.24	395.55
382.43	425.98
382.63	393.21
382.83	442.36
383.02	428.32
383.22	418.96
383.41	414.27
383.61	425.98
383.80	395.55
384.00	404.91
384.19	409.59
384.39	332.36
384.58	456.40
384.78	414.27
384.97	433.00
385.17	435.34
385.36	362.78
385.56	397.89
385.75	437.68
385.95	416.62
386.14	376.83
386.34	440.02
386.53	458.74
386.72	404.91
386.92	444.70
387.11	409.59
387.31	435.34
387.50	390.87
387.70	344.06
387.89	402.57
388.09	381.51
388.28	465.77
388.48	339.38
388.67	444.70
388.86	454.06
389.06	442.36
389.25	367.46
389.45	430.66
389.64	414.27
389.84	416.62
390.03	360.44
390.22	353.42
390.42	402.57
390.61	430.66
390.81	341.72
391.00	447.04
391.19	449.38
391.39	393.21
391.58	416.62
391.78	400.23
391.97	458.74
392.16	374.49
392.36	418.96
392.55	402.57
392.75	423.64
392.94	437.68
393.13	454.06
393.33	369.80
393.52	372.15
393.71	449.38
393.91	477.47
394.10	440.02
394.29	379.17
394.49	468.11
394.68	421.30
394.88	440.02
395.07	416.62
395.26	416.62
395.46	393.21
395.65	461.09
395.84	348.74
396.04	514.92
396.23	477.47
396.42	430.66
396.62	365.12
396.81	433.00
397.00	341.72
397.19	386.19
397.39	470.45
397.58	376.83
397.77	353.42
397.97	395.55
398.16	381.51
398.35	456.40
398.55	397.89
398.74	388.53
398.93	416.62
399.12	421.30
399.32	435.34
399.51	360.44
399.70	381.51
399.90	409.59
400.09	416.62
400.28	390.87
400.47	428.32
400.67	447.04
400.86	435.34
401.05	442.36
401.24	395.55
401.44	451.72
401.63	458.74
401.82	465.77
402.01	442.36
402.21	454.06
402.40	418.96
402.59	311.29
402.78	386.19
402.97	376.83
403.17	411.93
403.36	386.19
403.55	458.74
403.74	411.93
403.93	411.93
404.13	409.59
404.32	447.04
404.51	425.98
404.70	465.77
404.89	332.36
405.09	456.40
405.28	423.64
405.47	367.46
405.66	444.70
405.85	411.93
406.05	421.30
406.24	447.04
406.43	409.59
406.62	395.55
406.81	440.02
407.00	372.15
407.20	411.93
407.39	496.19
407.58	400.23
407.77	425.98
407.96	454.06
408.15	425.98
408.34	388.53
408.54	367.46
408.73	416.62
408.92	341.72
409.11	339.38
409.30	442.36
409.49	421.30
409.68	428.32
409.87	425.98
410.07	362.78
410.26	421.30
410.45	404.91
410.64	472.79
410.83	414.27
411.02	442.36
411.21	444.70
411.40	451.72
411.59	423.64
411.78	355.76
411.98	334.70
412.17	322.99
412.36	390.87
412.55	404.91
412.74	388.53
412.93	423.64
413.12	437.68
413.31	465.77
413.50	477.47
413.69	430.66
413.88	435.34
414.07	411.93
414.26	440.02
414.45	444.70
414.64	421.30
414.83	442.36
415.02	430.66
415.22	465.77
415.41	353.42
415.60	428.32
415.79	433.00
415.98	353.42
416.17	388.53
416.36	411.93
416.55	395.55
416.74	461.09
416.93	404.91
417.12	479.81
417.31	447.04
417.50	383.85
417.69	433.00
417.88	404.91
418.07	376.83
418.26	416.62
418.45	454.06
418.64	435.34
418.83	456.40
419.02	458.74
419.21	454.06
419.39	400.23
419.58	362.78
419.77	414.27
419.96	418.96
420.15	367.46
420.34	381.51
420.53	454.06
420.72	407.25
420.91	430.66
421.10	383.85
421.29	430.66
421.48	414.27
421.67	510.24
421.86	407.25
422.05	463.43
422.24	358.10
422.43	393.21
422.61	337.04
422.80	379.17
422.99	346.40
423.18	435.34
423.37	425.98
423.56	376.83
423.75	454.06
423.94	458.74
424.13	402.57
424.32	472.79
424.50	442.36
424.69	374.49
424.88	486.83
425.07	430.66
425.26	433.00
425.45	421.30
425.64	451.72
425.83	386.19
426.01	475.13
426.20	379.17
426.39	390.87
426.58	365.12
426.77	351.08
426.96	390.87
427.15	383.85
427.33	437.68
427.52	433.00
427.71	409.59
427.90	372.15
428.09	402.57
428.28	461.09
428.46	418.96
428.65	468.11
428.84	383.85
429.03	425.98
429.22	395.55
429.40	353.42
429.59	421.30
429.78	458.74
429.97	423.64
430.16	414.27
430.34	428.32
430.53	411.93
430.72	428.32
430.91	484.49
431.10	449.38
431.28	369.80
431.47	510.24
431.66	447.04
431.85	444.70
432.03	449.38
432.22	421.30
432.41	440.02
432.60	421.30
432.79	442.36
432.97	367.46
433.16	390.87
433.35	411.93
433.54	442.36
433.72	433.00
433.91	463.43
434.10	388.53
434.28	421.30
434.47	454.06
434.66	447.04
434.85	402.57
435.03	411.93
435.22	472.79
435.41	456.40
435.59	369.80
435.78	381.51
435.97	386.19
436.16	489.17
436.34	435.34
436.53	435.34
436.72	407.25
436.90	367.46
437.09	456.40
437.28	374.49
437.46	327.68
437.65	421.30
437.84	447.04
438.02	451.72
438.21	416.62
438.40	454.06
438.58	451.72
438.77	320.65
438.96	353.42
439.14	374.49
439.33	435.34
439.52	493.85
439.70	430.66
439.89	442.36
440.08	381.51
440.26	430.66
440.45	355.76
440.63	435.34
440.82	376.83
441.01	489.17
441.19	416.62
441.38	421.30
441.57	393.21
441.75	393.21
441.94	372.15
442.12	381.51
442.31	458.74
442.50	369.80
442.68	414.27
442.87	416.62
443.05	379.17
443.24	440.02
443.43	421.30
443.61	428.32
443.80	404.91
443.98	388.53
444.17	463.43
444.35	437.68
444.54	404.91
444.73	468.11
444.91	423.64
445.10	348.74
445.28	444.70
445.47	402.57
445.65	341.72
445.84	404.91
446.02	447.04
446.21	479.81
446.39	372.15
446.58	390.87
446.77	444.70
446.95	386.19
447.14	339.38
447.32	472.79
447.51	430.66
447.69	444.70
447.88	400.23
448.06	383.85
448.25	337.04
448.43	440.02
448.62	402.57
448.80	346.40
448.99	475.13
449.17	381.51
449.36	411.93
449.54	454.06
449.73	428.32
449.91	327.68
450.10	418.96
450.28	423.64
450.46	409.59
450.65	503.22
450.83	400.23
451.02	395.55
451.20	376.83
451.39	360.44
451.57	435.34
451.76	383.85
451.94	449.38
452.13	428.32
452.31	393.21
452.49	416.62
452.68	337.04
452.86	421.30
453.05	440.02
453.23	465.77
453.42	376.83
453.60	369.80
453.78	400.23
453.97	416.62
454.15	458.74
454.34	414.27
454.52	433.00
454.70	425.98
454.89	395.55
455.07	411.93
455.26	435.34
455.44	346.40
455.62	402.57
455.81	451.72
455.99	430.66
456.17	388.53
456.36	440.02
456.54	440.02
456.73	379.17
456.91	402.57
457.09	407.25
457.28	440.02
457.46	372.15
457.64	390.87
457.83	407.25
458.01	440.02
458.19	430.66
458.38	369.80
458.56	414.27
458.74	395.55
458.93	397.89
459.11	360.44
459.29	360.44
459.48	423.64
459.66	442.36
459.84	421.30
460.03	463.43
460.21	421.30
460.39	383.85
460.57	425.98
460.76	397.89
460.94	348.74
461.12	428.32
461.31	458.74
461.49	381.51
461.67	416.62
461.85	425.98
462.04	465.77
462.22	800.46
462.40	475.13
462.59	386.19
462.77	428.32
462.95	423.64
463.13	374.49
463.32	423.64
463.50	430.66
463.68	390.87
463.86	451.72
464.05	353.42
464.23	472.79
464.41	479.81
464.59	395.55
464.78	322.99
464.96	393.21
465.14	379.17
465.32	456.40
465.50	421.30
465.69	437.68
465.87	341.72
466.05	428.32
466.23	400.23
466.41	395.55
466.60	437.68
466.78	449.38
466.96	451.72
467.14	428.32
467.32	418.96
467.51	409.59
467.69	435.34
467.87	440.02
468.05	491.51
468.23	447.04
468.41	404.91
468.60	449.38
468.78	404.91
468.96	414.27
469.14	454.06
469.32	400.23
469.50	400.23
469.69	440.02
469.87	423.64
470.05	381.51
470.23	435.34
470.41	358.10
470.59	416.62
470.77	433.00
470.95	381.51
471.14	376.83
471.32	430.66
471.50	409.59
471.68	444.70
471.86	395.55
472.04	341.72
472.22	463.43
472.40	430.66
472.58	313.63
472.77	360.44
472.95	376.83
473.13	447.04
473.31	510.24
473.49	395.55
473.67	393.21
473.85	409.59
474.03	456.40
474.21	402.57
474.39	437.68
474.57	442.36
474.75	332.36
474.93	451.72
475.12	390.87
475.30	395.55
475.48	407.25
475.66	470.45
475.84	425.98
476.02	344.06
476.20	416.62
476.38	404.91
476.56	477.47
476.74	449.38
476.92	433.00
477.10	397.89
477.28	421.30
477.46	465.77
477.64	435.34
477.82	414.27
478.00	376.83
478.18	428.32
478.36	404.91
478.54	355.76
478.72	411.93
478.90	397.89
479.08	486.83
479.26	451.72
479.44	440.02
479.62	425.98
479.80	369.80
479.98	334.70
480.16	388.53
480.34	435.34
480.52	386.19
480.70	400.23
480.88	477.47
481.06	397.89
481.24	404.91
481.41	463.43
481.59	440.02
481.77	369.80
481.95	395.55
482.13	404.91
482.31	440.02
482.49	407.25
482.67	372.15
482.85	428.32
483.03	428.32
483.21	409.59
483.39	425.98
483.57	442.36
483.74	484.49
483.92	404.91
484.10	449.38
484.28	449.38
484.46	456.40
484.64	395.55
484.82	362.78
485.00	411.93
485.18	418.96
485.35	479.81
485.53	449.38
485.71	465.77
485.89	425.98
486.07	416.62
486.25	440.02
486.43	491.51
486.61	447.04
486.78	479.81
486.96	386.19
487.14	479.81
487.32	409.59
487.50	386.19
487.68	433.00
487.85	381.51
488.03	416.62
488.21	484.49
488.39	411.93
488.57	407.25
488.75	407.25
488.92	547.69
489.10	369.80
489.28	470.45
489.46	454.06
489.64	407.25
489.81	425.98
489.99	400.23
490.17	449.38
490.35	493.85
490.53	400.23
490.70	390.87
490.88	440.02
491.06	430.66
491.24	416.62
491.41	472.79
491.59	444.70
491.77	372.15
491.95	440.02
492.13	418.96
492.30	447.04
492.48	451.72
492.66	327.68
492.84	407.25
493.01	390.87
493.19	416.62
493.37	440.02
493.54	383.85
493.72	425.98
493.90	376.83
494.08	383.85
494.25	479.81
494.43	409.59
494.61	425.98
494.79	437.68
494.96	411.93
495.14	407.25
495.32	440.02
495.49	407.25
495.67	472.79
495.85	425.98
496.02	393.21
496.20	393.21
496.38	437.68
496.55	458.74
496.73	444.70
496.91	379.17
497.09	367.46
497.26	379.17
497.44	440.02
497.62	393.21
497.79	360.44
497.97	390.87
498.14	416.62
498.32	393.21
498.50	433.00
498.67	360.44
498.85	395.55
499.03	416.62
499.20	411.93
499.38	397.89
499.56	390.87
499.73	463.43
499.91	425.98
500.08	461.09
500.26	449.38
500.44	416.62
500.61	418.96
500.79	344.06
500.97	395.55
501.14	454.06
501.32	416.62
501.49	472.79
501.67	386.19
501.84	407.25
502.02	447.04
502.20	477.47
502.37	425.98
502.55	430.66
502.72	449.38
502.90	456.40
503.07	379.17
503.25	397.89
503.43	393.21
503.60	447.04
503.78	418.96
503.95	395.55
504.13	397.89
504.30	468.11
504.48	425.98
504.65	402.57
504.83	470.45
505.01	381.51
505.18	428.32
505.36	358.10
505.53	421.30
505.71	393.21
505.88	437.68
506.06	407.25
506.23	341.72
506.41	400.23
506.58	447.04
506.76	486.83
506.93	376.83
507.11	447.04
507.28	393.21
507.46	440.02
507.63	416.62
507.81	442.36
507.98	454.06
508.16	393.21
508.33	402.57
508.50	397.89
508.68	367.46
508.85	449.38
509.03	362.78
509.20	430.66
509.38	369.80
509.55	433.00
509.73	440.02
509.90	482.15
510.08	402.57
510.25	393.21
510.42	376.83
510.60	397.89
510.77	442.36
510.95	454.06
511.12	430.66
511.30	416.62
511.47	489.17
511.64	444.70
511.82	414.27
511.99	397.89
512.17	381.51
512.34	423.64
512.51	402.57
512.69	358.10
512.86	423.64
513.04	411.93
513.21	451.72
513.38	374.49
513.56	479.81
513.73	376.83
513.90	330.02
514.08	423.64
514.25	425.98
514.43	477.47
514.60	402.57
514.77	390.87
514.95	416.62
515.12	463.43
515.29	348.74
515.47	425.98
515.64	390.87
515.81	400.23
515.99	397.89
516.16	461.09
516.33	433.00
516.51	428.32
516.68	435.34
516.85	435.34
517.03	461.09
517.20	468.11
517.37	465.77
517.54	416.62
517.72	358.10
517.89	425.98
518.06	440.02
518.24	414.27
518.41	400.23
518.58	437.68
518.75	430.66
518.93	454.06
519.10	440.02
519.27	346.40
519.45	526.62
519.62	430.66
519.79	505.56
519.96	390.87
520.14	383.85
520.31	461.09
520.48	397.89
520.65	395.55
520.83	402.57
521.00	386.19
521.17	428.32
521.34	454.06
521.52	437.68
521.69	365.12
521.86	458.74
522.03	484.49
522.20	421.30
522.38	472.79
522.55	411.93
522.72	388.53
522.89	442.36
523.07	407.25
523.24	430.66
523.41	414.27
523.58	425.98
523.75	369.80
523.92	381.51
524.10	425.98
524.27	381.51
524.44	369.80
524.61	425.98
524.78	381.51
524.96	425.98
525.13	430.66
525.30	465.77
525.47	447.04
525.64	341.72
525.81	395.55
525.98	355.76
526.16	365.12
526.33	367.46
526.50	402.57
526.67	421.30
526.84	428.32
527.01	337.04
527.18	461.09
527.36	353.42
527.53	379.17
527.70	428.32
527.87	374.49
528.04	414.27
528.21	348.74
528.38	440.02
528.55	440.02
528.72	454.06
528.89	479.81
529.07	372.15
529.24	383.85
529.41	355.76
529.58	444.70
529.75	409.59
529.92	411.93
530.09	477.47
530.26	456.40
530.43	409.59
530.60	362.78
530.77	454.06
530.94	388.53
531.11	379.17
531.28	421.30
531.46	414.27
531.63	414.27
531.80	409.59
531.97	379.17
532.14	456.40
532.31	477.47
532.48	472.79
532.65	440.02
532.82	365.12
532.99	491.51
533.16	386.19
533.33	435.34
533.50	461.09
533.67	428.32
533.84	376.83
534.01	404.91
534.18	404.91
534.35	425.98
534.52	442.36
534.69	397.89
534.86	425.98
535.03	365.12
535.20	407.25
535.37	505.56
535.54	409.59
535.71	444.70
535.88	428.32
536.05	383.85
536.22	397.89
536.38	409.59
536.55	386.19
536.72	360.44
536.89	388.53
537.06	442.36
537.23	287.89
537.40	411.93
537.57	416.62
537.74	404.91
537.91	472.79
538.08	475.13
538.25	425.98
538.42	400.23
538.59	400.23
538.75	383.85
538.92	472.79
539.09	402.57
539.26	414.27
539.43	386.19
539.60	376.83
539.77	390.87
539.94	362.78
540.11	402.57
540.28	409.59
540.44	437.68
540.61	353.42
540.78	433.00
540.95	409.59
541.12	402.57
541.29	444.70
541.46	383.85
541.62	379.17
541.79	376.83
541.96	386.19
542.13	388.53
542.30	372.15
542.47	379.17
542.63	440.02
542.80	414.27
542.97	484.49
543.14	388.53
543.31	348.74
543.48	381.51
543.64	489.17
543.81	454.06
543.98	433.00
544.15	355.76
544.32	381.51
544.48	376.83
544.65	470.45
544.82	416.62
544.99	367.46
545.16	526.62
545.32	402.57
545.49	374.49
545.66	489.17
545.83	449.38
546.00	409.59
546.16	351.08
546.33	372.15
546.50	365.12
546.67	510.24
546.83	454.06
547.00	362.78
547.17	414.27
547.34	379.17
547.50	402.57
547.67	374.49
547.84	477.47
548.00	449.38
548.17	407.25
548.34	374.49
548.51	512.58
548.67	390.87
548.84	388.53
549.01	447.04
549.18	404.91
549.34	425.98
549.51	425.98
549.68	351.08
549.84	477.47
550.01	437.68
550.18	440.02
550.34	475.13
550.51	491.51
550.68	479.81
550.84	355.76
551.01	386.19
551.18	411.93
551.34	402.57
551.51	430.66
551.68	517.26
551.84	440.02
552.01	367.46
552.18	383.85
552.34	437.68
552.51	552.37
552.68	435.34
552.84	390.87
553.01	360.44
553.18	407.25
553.34	404.91
553.51	393.21
553.67	444.70
553.84	444.70
554.01	418.96
554.17	484.49
554.34	465.77
554.51	423.64
554.67	437.68
554.84	416.62
555.00	332.36
555.17	362.78
555.33	367.46
555.50	428.32
555.67	379.17
555.83	416.62
556.00	418.96
556.16	500.87
556.33	458.74
556.50	390.87
556.66	383.85
556.83	456.40
556.99	465.77
557.16	411.93
557.32	362.78
557.49	416.62
557.65	400.23
557.82	456.40
557.98	414.27
558.15	369.80
558.32	451.72
558.48	404.91
558.65	388.53
558.81	425.98
558.98	482.15
559.14	418.96
559.31	400.23
559.47	395.55
559.64	341.72
559.80	463.43
559.97	486.83
560.13	468.11
560.30	421.30
560.46	423.64
560.63	411.93
560.79	362.78
560.96	402.57
561.12	386.19
561.29	430.66
561.45	414.27
561.61	447.04
561.78	535.98
561.94	411.93
562.11	369.80
562.27	463.43
562.44	383.85
562.60	433.00
562.77	386.19
562.93	510.24
563.10	395.55
563.26	421.30
563.42	451.72
563.59	437.68
563.75	395.55
563.92	479.81
564.08	454.06
564.24	437.68
564.41	407.25
564.57	381.51
564.74	430.66
564.90	475.13
565.07	500.87
565.23	428.32
565.39	355.76
565.56	489.17
565.72	433.00
565.88	395.55
566.05	400.23
566.21	379.17
566.38	498.53
566.54	491.51
566.70	341.72
566.87	400.23
567.03	348.74
567.19	414.27
567.36	437.68
567.52	428.32
567.68	498.53
567.85	458.74
568.01	425.98
568.17	425.98
568.34	461.09
568.50	358.10
568.66	346.40
568.83	489.17
568.99	360.44
569.15	440.02
569.32	400.23
569.48	463.43
569.64	421.30
569.81	365.12
569.97	362.78
570.13	433.00
570.30	472.79
570.46	470.45
570.62	458.74
570.78	425.98
570.95	395.55
571.11	531.30
571.27	440.02
571.43	360.44
571.60	402.57
571.76	428.32
571.92	484.49
572.09	322.99
572.25	433.00
572.41	442.36
572.57	386.19
572.74	397.89
572.90	442.36
573.06	461.09
573.22	407.25
573.38	402.57
573.55	376.83
573.71	444.70
573.87	423.64
574.03	372.15
574.20	374.49
574.36	425.98
574.52	397.89
574.68	418.96
574.84	397.89
575.01	421.30
575.17	458.74
575.33	409.59
575.49	440.02
575.65	402.57
575.82	477.47
575.98	449.38
576.14	421.30
576.30	395.55
576.46	393.21
576.62	395.55
576.79	411.93
576.95	444.70
577.11	358.10
577.27	409.59
577.43	444.70
577.59	451.72
577.75	447.04
577.92	414.27
578.08	379.17
578.24	447.04
578.40	447.04
578.56	435.34
578.72	437.68
578.88	409.59
579.04	409.59
579.21	367.46
579.37	435.34
579.53	458.74
579.69	327.68
579.85	402.57
580.01	425.98
580.17	397.89
580.33	404.91
580.49	505.56
580.65	456.40
580.82	372.15
580.98	454.06
581.14	418.96
581.30	397.89
581.46	456.40
581.62	369.80
581.78	379.17
581.94	393.21
582.10	428.32
582.26	362.78
582.42	409.59
582.58	444.70
582.74	454.06
582.90	390.87
583.06	374.49
583.22	407.25
583.38	440.02
583.54	404.91
583.70	440.02
583.86	411.93
584.02	463.43
584.18	404.91
584.34	442.36
584.50	374.49
584.66	358.10
584.82	458.74
584.98	435.34
585.14	414.27
585.30	456.40
585.46	479.81
585.62	421.30
585.78	407.25
585.94	414.27
586.10	416.62
586.26	449.38
586.42	423.64
586.58	332.36
586.74	468.11
586.90	404.91
587.06	365.12
587.22	400.23
587.38	454.06
587.54	414.27
587.70	365.12
587.86	449.38
588.02	444.70
588.18	383.85
588.34	386.19
588.49	447.04
588.65	454.06
588.81	393.21
588.97	449.38
589.13	461.09
589.29	372.15
589.45	528.96
589.61	484.49
589.77	421.30
589.93	486.83
590.08	376.83
590.24	308.95
590.40	344.06
590.56	451.72
590.72	479.81
590.88	456.40
591.04	372.15
591.20	416.62
591.35	437.68
591.51	400.23
591.67	358.10
591.83	418.96
591.99	402.57
592.15	456.40
592.31	372.15
592.46	353.42
592.62	463.43
592.78	444.70
592.94	409.59
593.10	447.04
593.26	414.27
593.41	411.93
593.57	425.98
593.73	400.23
593.89	407.25
594.05	390.87
594.20	404.91
594.36	458.74
594.52	440.02
594.68	472.79
594.84	463.43
594.99	402.57
595.15	411.93
595.31	393.21
595.47	496.19
595.62	461.09
595.78	416.62
595.94	442.36
596.10	397.89
596.25	456.40
596.41	503.22
596.57	397.89
596.73	449.38
596.88	414.27
597.04	374.49
597.20	444.70
597.36	407.25
597.51	332.36
597.67	374.49
597.83	433.00
597.99	465.77
598.14	430.66
598.30	397.89
598.46	395.55
598.61	428.32
598.77	374.49
598.93	395.55
599.09	451.72
599.24	433.00
599.40	428.32
599.56	433.00
599.71	390.87
599.87	402.57
600.03	395.55
600.18	444.70
600.34	444.70
600.50	395.55
600.65	409.59
600.81	479.81
600.97	404.91
601.12	496.19
601.28	461.09
601.44	421.30
601.59	411.93
601.75	404.91
601.91	367.46
602.06	404.91
602.22	442.36
602.37	454.06
602.53	430.66
602.69	503.22
602.84	433.00
603.00	433.00
603.16	482.15
603.31	437.68
603.47	505.56
603.62	454.06
603.78	428.32
603.94	433.00
604.09	362.78
604.25	435.34
604.40	433.00
604.56	397.89
604.71	472.79
604.87	430.66
605.03	402.57
605.18	472.79
605.34	404.91
605.49	461.09
605.65	479.81
605.80	416.62
605.96	449.38
606.12	407.25
606.27	475.13
606.43	379.17
606.58	444.70
606.74	437.68
606.89	423.64
607.05	374.49
607.20	339.38
607.36	397.89
607.51	442.36
607.67	454.06
607.82	407.25
607.98	407.25
608.13	407.25
608.29	390.87
608.44	416.62
608.60	425.98
608.75	468.11
608.91	437.68
609.06	414.27
609.22	411.93
609.37	461.09
609.53	454.06
609.68	367.46
609.84	458.74
609.99	362.78
610.15	428.32
