SpectraSuite Data File
++++++++++++++++++++++++++++++++++++
Date: Fri Oct 25 12:11:36 EDT 2013
User: price-jones
Dark Spectrum Present: No
Reference Spectrum Present: No
Number of Sampled Component Spectra: 1
Spectrometers: USB2+H05261
Integration Time (usec): 100000 (USB2+H05261)
Spectra Averaged: 1 (USB2+H05261)
Boxcar Smoothing: 0 (USB2+H05261)
Correct for Electrical Dark: No (USB2+H05261)
Strobe/Lamp Enabled: No (USB2+H05261)
Correct for Detector Non-linearity: No (USB2+H05261)
Correct for Stray Light: No (USB2+H05261)
Number of Pixels in Processed Spectrum: 2048
>>>>>Begin Processed Spectral Data<<<<<
365.73	379.17
365.92	379.17
366.12	379.17
366.32	234.05
366.52	205.97
366.72	271.50
366.91	191.92
367.11	259.80
367.31	262.14
367.51	184.90
367.70	276.18
367.90	252.78
368.10	201.29
368.30	269.16
368.49	332.36
368.69	271.50
368.89	173.20
369.09	266.82
369.28	187.24
369.48	238.73
369.68	250.44
369.87	262.14
370.07	269.16
370.27	372.15
370.47	353.42
370.66	351.08
370.86	346.40
371.06	411.93
371.25	428.32
371.45	397.89
371.65	381.51
371.84	355.76
372.04	372.15
372.24	404.91
372.44	381.51
372.63	402.57
372.83	334.70
373.03	404.91
373.22	299.59
373.42	472.79
373.62	435.34
373.81	407.25
374.01	496.19
374.21	454.06
374.40	454.06
374.60	437.68
374.79	451.72
374.99	461.09
375.19	388.53
375.38	365.12
375.58	374.49
375.78	425.98
375.97	479.81
376.17	477.47
376.37	376.83
376.56	351.08
376.76	418.96
376.95	421.30
377.15	388.53
377.35	435.34
377.54	463.43
377.74	400.23
377.93	397.89
378.13	397.89
378.33	418.96
378.52	418.96
378.72	461.09
378.91	414.27
379.11	395.55
379.31	407.25
379.50	374.49
379.70	433.00
379.89	461.09
380.09	381.51
380.28	404.91
380.48	400.23
380.68	337.04
380.87	362.78
381.07	386.19
381.26	407.25
381.46	465.77
381.65	390.87
381.85	435.34
382.04	397.89
382.24	468.11
382.43	470.45
382.63	437.68
382.83	456.40
383.02	458.74
383.22	433.00
383.41	362.78
383.61	362.78
383.80	409.59
384.00	468.11
384.19	414.27
384.39	355.76
384.58	353.42
384.78	423.64
384.97	430.66
385.17	423.64
385.36	374.49
385.56	444.70
385.75	407.25
385.95	381.51
386.14	430.66
386.34	376.83
386.53	496.19
386.72	461.09
386.92	472.79
387.11	390.87
387.31	397.89
387.50	372.15
387.70	416.62
387.89	395.55
388.09	409.59
388.28	442.36
388.48	383.85
388.67	430.66
388.86	402.57
389.06	395.55
389.25	407.25
389.45	388.53
389.64	355.76
389.84	397.89
390.03	475.13
390.22	404.91
390.42	397.89
390.61	374.49
390.81	395.55
391.00	409.59
391.19	390.87
391.39	468.11
391.58	388.53
391.78	411.93
391.97	416.62
392.16	397.89
392.36	500.87
392.55	456.40
392.75	472.79
392.94	461.09
393.13	437.68
393.33	390.87
393.52	355.76
393.71	470.45
393.91	374.49
394.10	376.83
394.29	404.91
394.49	360.44
394.68	414.27
394.88	463.43
395.07	468.11
395.26	374.49
395.46	425.98
395.65	444.70
395.84	358.10
396.04	491.51
396.23	423.64
396.42	365.12
396.62	369.80
396.81	425.98
397.00	444.70
397.19	402.57
397.39	407.25
397.58	402.57
397.77	402.57
397.97	447.04
398.16	386.19
398.35	496.19
398.55	444.70
398.74	421.30
398.93	395.55
399.12	416.62
399.32	353.42
399.51	386.19
399.70	425.98
399.90	421.30
400.09	416.62
400.28	451.72
400.47	308.95
400.67	407.25
400.86	461.09
401.05	423.64
401.24	463.43
401.44	461.09
401.63	447.04
401.82	428.32
402.01	383.85
402.21	386.19
402.40	355.76
402.59	376.83
402.78	442.36
402.97	372.15
403.17	430.66
403.36	400.23
403.55	454.06
403.74	411.93
403.93	334.70
404.13	376.83
404.32	411.93
404.51	348.74
404.70	472.79
404.89	444.70
405.09	484.49
405.28	402.57
405.47	330.02
405.66	454.06
405.85	461.09
406.05	407.25
406.24	444.70
406.43	472.79
406.62	362.78
406.81	433.00
407.00	395.55
407.20	374.49
407.39	463.43
407.58	397.89
407.77	409.59
407.96	521.94
408.15	386.19
408.34	411.93
408.54	386.19
408.73	369.80
408.92	428.32
409.11	430.66
409.30	411.93
409.49	421.30
409.68	322.99
409.87	374.49
410.07	365.12
410.26	346.40
410.45	461.09
410.64	430.66
410.83	475.13
411.02	442.36
411.21	425.98
411.40	383.85
411.59	402.57
411.78	407.25
411.98	449.38
412.17	456.40
412.36	365.12
412.55	365.12
412.74	451.72
412.93	472.79
413.12	351.08
413.31	397.89
413.50	393.21
413.69	440.02
413.88	393.21
414.07	379.17
414.26	397.89
414.45	376.83
414.64	397.89
414.83	423.64
415.02	416.62
415.22	425.98
415.41	461.09
415.60	423.64
415.79	421.30
415.98	465.77
416.17	355.76
416.36	472.79
416.55	425.98
416.74	421.30
416.93	418.96
417.12	407.25
417.31	425.98
417.50	407.25
417.69	500.87
417.88	337.04
418.07	393.21
418.26	482.15
418.45	479.81
418.64	433.00
418.83	360.44
419.02	367.46
419.21	461.09
419.39	348.74
419.58	376.83
419.77	442.36
419.96	463.43
420.15	400.23
420.34	334.70
420.53	437.68
420.72	428.32
420.91	435.34
421.10	421.30
421.29	433.00
421.48	449.38
421.67	390.87
421.86	447.04
422.05	461.09
422.24	447.04
422.43	383.85
422.61	421.30
422.80	402.57
422.99	500.87
423.18	362.78
423.37	458.74
423.56	404.91
423.75	409.59
423.94	407.25
424.13	376.83
424.32	386.19
424.50	400.23
424.69	423.64
424.88	365.12
425.07	421.30
425.26	477.47
425.45	425.98
425.64	395.55
425.83	381.51
426.01	395.55
426.20	376.83
426.39	435.34
426.58	376.83
426.77	407.25
426.96	430.66
427.15	381.51
427.33	425.98
427.52	416.62
427.71	409.59
427.90	479.81
428.09	416.62
428.28	404.91
428.46	397.89
428.65	404.91
428.84	327.68
429.03	437.68
429.22	372.15
429.40	400.23
429.59	372.15
429.78	421.30
429.97	404.91
430.16	379.17
430.34	409.59
430.53	433.00
430.72	423.64
430.91	414.27
431.10	386.19
431.28	423.64
431.47	435.34
431.66	416.62
431.85	440.02
432.03	308.95
432.22	430.66
432.41	367.46
432.60	409.59
432.79	423.64
432.97	383.85
433.16	379.17
433.35	346.40
433.54	369.80
433.72	482.15
433.91	414.27
434.10	397.89
434.28	421.30
434.47	442.36
434.66	440.02
434.85	416.62
435.03	423.64
435.22	435.34
435.41	449.38
435.59	430.66
435.78	407.25
435.97	369.80
436.16	421.30
436.34	334.70
436.53	470.45
436.72	425.98
436.90	414.27
437.09	428.32
437.28	397.89
437.46	414.27
437.65	493.85
437.84	388.53
438.02	411.93
438.21	393.21
438.40	400.23
438.58	418.96
438.77	407.25
438.96	418.96
439.14	425.98
439.33	409.59
439.52	395.55
439.70	414.27
439.89	395.55
440.08	454.06
440.26	447.04
440.45	404.91
440.63	383.85
440.82	444.70
441.01	425.98
441.19	479.81
441.38	421.30
441.57	414.27
441.75	435.34
441.94	407.25
442.12	449.38
442.31	451.72
442.50	479.81
442.68	454.06
442.87	479.81
443.05	351.08
443.24	458.74
443.43	428.32
443.61	437.68
443.80	374.49
443.98	388.53
444.17	362.78
444.35	404.91
444.54	390.87
444.73	393.21
444.91	397.89
445.10	390.87
445.28	409.59
445.47	395.55
445.65	386.19
445.84	435.34
446.02	372.15
446.21	449.38
446.39	423.64
446.58	475.13
446.77	425.98
446.95	461.09
447.14	374.49
447.32	444.70
447.51	337.04
447.69	369.80
447.88	423.64
448.06	503.22
448.25	374.49
448.43	402.57
448.62	367.46
448.80	451.72
448.99	400.23
449.17	393.21
449.36	374.49
449.54	423.64
449.73	433.00
449.91	447.04
450.10	367.46
450.28	402.57
450.46	479.81
450.65	437.68
450.83	454.06
451.02	402.57
451.20	486.83
451.39	395.55
451.57	421.30
451.76	463.43
451.94	393.21
452.13	423.64
452.31	435.34
452.49	344.06
452.68	374.49
452.86	374.49
453.05	454.06
453.23	407.25
453.42	367.46
453.60	411.93
453.78	409.59
453.97	503.22
454.15	440.02
454.34	433.00
454.52	404.91
454.70	423.64
454.89	351.08
455.07	360.44
455.26	440.02
455.44	440.02
455.62	402.57
455.81	397.89
455.99	374.49
456.17	454.06
456.36	393.21
456.54	409.59
456.73	404.91
456.91	430.66
457.09	442.36
457.28	454.06
457.46	390.87
457.64	454.06
457.83	395.55
458.01	463.43
458.19	374.49
458.38	346.40
458.56	395.55
458.74	369.80
458.93	404.91
459.11	433.00
459.29	400.23
459.48	465.77
459.66	402.57
459.84	500.87
460.03	491.51
460.21	397.89
460.39	425.98
460.57	393.21
460.76	395.55
460.94	372.15
461.12	400.23
461.31	358.10
461.49	404.91
461.67	433.00
461.85	486.83
462.04	482.15
462.22	847.27
462.40	388.53
462.59	376.83
462.77	400.23
462.95	425.98
463.13	416.62
463.32	447.04
463.50	442.36
463.68	442.36
463.86	367.46
464.05	418.96
464.23	437.68
464.41	451.72
464.59	353.42
464.78	374.49
464.96	418.96
465.14	369.80
465.32	400.23
465.50	362.78
465.69	447.04
465.87	475.13
466.05	379.17
466.23	400.23
466.41	407.25
466.60	353.42
466.78	379.17
466.96	482.15
467.14	402.57
467.32	489.17
467.51	463.43
467.69	395.55
467.87	447.04
468.05	411.93
468.23	472.79
468.41	482.15
468.60	440.02
468.78	475.13
468.96	423.64
469.14	411.93
469.32	416.62
469.50	390.87
469.69	493.85
469.87	458.74
470.05	397.89
470.23	428.32
470.41	425.98
470.59	416.62
470.77	475.13
470.95	409.59
471.14	451.72
471.32	451.72
471.50	451.72
471.68	454.06
471.86	477.47
472.04	428.32
472.22	379.17
472.40	341.72
472.58	374.49
472.77	447.04
472.95	451.72
473.13	397.89
473.31	444.70
473.49	353.42
473.67	421.30
473.85	444.70
474.03	353.42
474.21	381.51
474.39	454.06
474.57	395.55
474.75	388.53
474.93	381.51
475.12	362.78
475.30	344.06
475.48	386.19
475.66	454.06
475.84	442.36
476.02	409.59
476.20	388.53
476.38	435.34
476.56	470.45
476.74	355.76
476.92	404.91
477.10	411.93
477.28	451.72
477.46	440.02
477.64	454.06
477.82	388.53
478.00	388.53
478.18	425.98
478.36	416.62
478.54	454.06
478.72	470.45
478.90	468.11
479.08	409.59
479.26	381.51
479.44	461.09
479.62	468.11
479.80	421.30
479.98	437.68
480.16	381.51
480.34	421.30
480.52	444.70
480.70	395.55
480.88	416.62
481.06	374.49
481.24	430.66
481.41	404.91
481.59	372.15
481.77	418.96
481.95	456.40
482.13	348.74
482.31	374.49
482.49	386.19
482.67	449.38
482.85	477.47
483.03	409.59
483.21	390.87
483.39	374.49
483.57	374.49
483.74	386.19
483.92	421.30
484.10	425.98
484.28	444.70
484.46	482.15
484.64	379.17
484.82	404.91
485.00	444.70
485.18	369.80
485.35	411.93
485.53	341.72
485.71	421.30
485.89	409.59
486.07	383.85
486.25	493.85
486.43	360.44
486.61	409.59
486.78	470.45
486.96	376.83
487.14	435.34
487.32	440.02
487.50	409.59
487.68	437.68
487.85	418.96
488.03	409.59
488.21	327.68
488.39	414.27
488.57	449.38
488.75	418.96
488.92	568.75
489.10	418.96
489.28	430.66
489.46	468.11
489.64	397.89
489.81	442.36
489.99	414.27
490.17	369.80
490.35	491.51
490.53	409.59
490.70	425.98
490.88	402.57
491.06	362.78
491.24	379.17
491.41	351.08
491.59	414.27
491.77	447.04
491.95	428.32
492.13	348.74
492.30	400.23
492.48	449.38
492.66	376.83
492.84	362.78
493.01	395.55
493.19	402.57
493.37	369.80
493.54	449.38
493.72	383.85
493.90	444.70
494.08	395.55
494.25	425.98
494.43	470.45
494.61	416.62
494.79	451.72
494.96	411.93
495.14	411.93
495.32	418.96
495.49	381.51
495.67	472.79
495.85	489.17
496.02	470.45
496.20	367.46
496.38	430.66
496.55	414.27
496.73	409.59
496.91	447.04
497.09	421.30
497.26	418.96
497.44	386.19
497.62	411.93
497.79	428.32
497.97	465.77
498.14	433.00
498.32	477.47
498.50	444.70
498.67	400.23
498.85	414.27
499.03	365.12
499.20	386.19
499.38	386.19
499.56	358.10
499.73	435.34
499.91	507.90
500.08	519.60
500.26	425.98
500.44	402.57
500.61	423.64
500.79	379.17
500.97	390.87
501.14	507.90
501.32	430.66
501.49	428.32
501.67	435.34
501.84	386.19
502.02	433.00
502.20	444.70
502.37	423.64
502.55	395.55
502.72	482.15
502.90	393.21
503.07	468.11
503.25	407.25
503.43	355.76
503.60	395.55
503.78	461.09
503.95	416.62
504.13	451.72
504.30	418.96
504.48	456.40
504.65	414.27
504.83	503.22
505.01	482.15
505.18	449.38
505.36	437.68
505.53	428.32
505.71	372.15
505.88	454.06
506.06	411.93
506.23	383.85
506.41	397.89
506.58	425.98
506.76	425.98
506.93	407.25
507.11	447.04
507.28	351.08
507.46	404.91
507.63	360.44
507.81	306.61
507.98	407.25
508.16	428.32
508.33	404.91
508.50	372.15
508.68	454.06
508.85	416.62
509.03	428.32
509.20	397.89
509.38	430.66
509.55	416.62
509.73	458.74
509.90	381.51
510.08	348.74
510.25	456.40
510.42	444.70
510.60	414.27
510.77	456.40
510.95	390.87
511.12	428.32
511.30	433.00
511.47	393.21
511.64	461.09
511.82	442.36
511.99	409.59
512.17	393.21
512.34	369.80
512.51	402.57
512.69	400.23
512.86	414.27
513.04	383.85
513.21	465.77
513.38	402.57
513.56	440.02
513.73	444.70
513.90	379.17
514.08	372.15
514.25	414.27
514.43	393.21
514.60	416.62
514.77	393.21
514.95	454.06
515.12	435.34
515.29	418.96
515.47	472.79
515.64	374.49
515.81	374.49
515.99	421.30
516.16	365.12
516.33	383.85
516.51	341.72
516.68	383.85
516.85	409.59
517.03	383.85
517.20	416.62
517.37	374.49
517.54	503.22
517.72	393.21
517.89	393.21
518.06	414.27
518.24	477.47
518.41	510.24
518.58	435.34
518.75	437.68
518.93	416.62
519.10	430.66
519.27	503.22
519.45	383.85
519.62	418.96
519.79	383.85
519.96	435.34
520.14	440.02
520.31	411.93
520.48	477.47
520.65	437.68
520.83	416.62
521.00	470.45
521.17	470.45
521.34	381.51
521.52	358.10
521.69	437.68
521.86	390.87
522.03	411.93
522.20	458.74
522.38	498.53
522.55	507.90
522.72	449.38
522.89	411.93
523.07	433.00
523.24	465.77
523.41	437.68
523.58	416.62
523.75	409.59
523.92	402.57
524.10	421.30
524.27	428.32
524.44	456.40
524.61	423.64
524.78	411.93
524.96	365.12
525.13	407.25
525.30	437.68
525.47	433.00
525.64	372.15
525.81	400.23
525.98	425.98
526.16	447.04
526.33	397.89
526.50	418.96
526.67	447.04
526.84	369.80
527.01	475.13
527.18	510.24
527.36	442.36
527.53	390.87
527.70	425.98
527.87	344.06
528.04	421.30
528.21	447.04
528.38	388.53
528.55	463.43
528.72	472.79
528.89	491.51
529.07	402.57
529.24	355.76
529.41	404.91
529.58	435.34
529.75	393.21
529.92	381.51
530.09	423.64
530.26	430.66
530.43	390.87
530.60	365.12
530.77	517.26
530.94	388.53
531.11	463.43
531.28	416.62
531.46	348.74
531.63	351.08
531.80	348.74
531.97	397.89
532.14	489.17
532.31	414.27
532.48	402.57
532.65	423.64
532.82	425.98
532.99	437.68
533.16	477.47
533.33	428.32
533.50	428.32
533.67	454.06
533.84	479.81
534.01	407.25
534.18	444.70
534.35	388.53
534.52	404.91
534.69	428.32
534.86	505.56
535.03	433.00
535.20	381.51
535.37	454.06
535.54	411.93
535.71	402.57
535.88	437.68
536.05	351.08
536.22	491.51
536.38	444.70
536.55	390.87
536.72	468.11
536.89	472.79
537.06	308.95
537.23	372.15
537.40	418.96
537.57	411.93
537.74	472.79
537.91	447.04
538.08	407.25
538.25	395.55
538.42	418.96
538.59	400.23
538.75	400.23
538.92	346.40
539.09	454.06
539.26	440.02
539.43	505.56
539.60	346.40
539.77	428.32
539.94	444.70
540.11	430.66
540.28	440.02
540.44	313.63
540.61	393.21
540.78	358.10
540.95	442.36
541.12	404.91
541.29	339.38
541.46	407.25
541.62	416.62
541.79	414.27
541.96	355.76
542.13	411.93
542.30	388.53
542.47	372.15
542.63	348.74
542.80	449.38
542.97	433.00
543.14	475.13
543.31	416.62
543.48	496.19
543.64	369.80
543.81	503.22
543.98	423.64
544.15	447.04
544.32	402.57
544.48	461.09
544.65	454.06
544.82	416.62
544.99	451.72
545.16	418.96
545.32	416.62
545.49	395.55
545.66	402.57
545.83	437.68
546.00	423.64
546.16	411.93
546.33	433.00
546.50	477.47
546.67	470.45
546.83	428.32
547.00	423.64
547.17	365.12
547.34	388.53
547.50	430.66
547.67	449.38
547.84	435.34
548.00	411.93
548.17	425.98
548.34	461.09
548.51	493.85
548.67	388.53
548.84	383.85
549.01	430.66
549.18	463.43
549.34	411.93
549.51	484.49
549.68	440.02
549.84	360.44
550.01	400.23
550.18	519.60
550.34	500.87
550.51	486.83
550.68	379.17
550.84	334.70
551.01	423.64
551.18	440.02
551.34	400.23
551.51	461.09
551.68	404.91
551.84	337.04
552.01	334.70
552.18	430.66
552.34	463.43
552.51	365.12
552.68	416.62
552.84	400.23
553.01	428.32
553.18	489.17
553.34	535.98
553.51	383.85
553.67	379.17
553.84	428.32
554.01	444.70
554.17	475.13
554.34	416.62
554.51	418.96
554.67	458.74
554.84	411.93
555.00	472.79
555.17	498.53
555.33	407.25
555.50	390.87
555.67	435.34
555.83	407.25
556.00	433.00
556.16	540.66
556.33	423.64
556.50	430.66
556.66	435.34
556.83	421.30
556.99	365.12
557.16	372.15
557.32	425.98
557.49	479.81
557.65	376.83
557.82	404.91
557.98	444.70
558.15	447.04
558.32	334.70
558.48	393.21
558.65	423.64
558.81	430.66
558.98	423.64
559.14	325.33
559.31	353.42
559.47	421.30
559.64	372.15
559.80	472.79
559.97	456.40
560.13	353.42
560.30	421.30
560.46	379.17
560.63	449.38
560.79	451.72
560.96	341.72
561.12	397.89
561.29	358.10
561.45	498.53
561.61	430.66
561.78	461.09
561.94	393.21
562.11	463.43
562.27	383.85
562.44	393.21
562.60	421.30
562.77	444.70
562.93	514.92
563.10	449.38
563.26	388.53
563.42	528.96
563.59	425.98
563.75	386.19
563.92	519.60
564.08	430.66
564.24	428.32
564.41	486.83
564.57	444.70
564.74	423.64
564.90	383.85
565.07	444.70
565.23	458.74
565.39	545.34
565.56	440.02
565.72	365.12
565.88	386.19
566.05	330.02
566.21	390.87
566.38	463.43
566.54	411.93
566.70	411.93
566.87	454.06
567.03	362.78
567.19	421.30
567.36	425.98
567.52	404.91
567.68	444.70
567.85	528.96
568.01	442.36
568.17	498.53
568.34	386.19
568.50	486.83
568.66	348.74
568.83	500.87
568.99	409.59
569.15	484.49
569.32	409.59
569.48	388.53
569.64	435.34
569.81	383.85
569.97	353.42
570.13	425.98
570.30	418.96
570.46	418.96
570.62	433.00
570.78	397.89
570.95	400.23
571.11	463.43
571.27	519.60
571.43	376.83
571.60	388.53
571.76	369.80
571.92	421.30
572.09	402.57
572.25	374.49
572.41	449.38
572.57	344.06
572.74	421.30
572.90	458.74
573.06	400.23
573.22	390.87
573.38	367.46
573.55	409.59
573.71	402.57
573.87	404.91
574.03	454.06
574.20	390.87
574.36	430.66
574.52	463.43
574.68	360.44
574.84	381.51
575.01	433.00
575.17	475.13
575.33	465.77
575.49	430.66
575.65	435.34
575.82	421.30
575.98	383.85
576.14	437.68
576.30	416.62
576.46	393.21
576.62	393.21
576.79	486.83
576.95	409.59
577.11	407.25
577.27	430.66
577.43	519.60
577.59	376.83
577.75	461.09
577.92	360.44
578.08	430.66
578.24	341.72
578.40	381.51
578.56	423.64
578.72	444.70
578.88	428.32
579.04	449.38
579.21	433.00
579.37	421.30
579.53	383.85
579.69	435.34
579.85	400.23
580.01	416.62
580.17	386.19
580.33	418.96
580.49	381.51
580.65	475.13
580.82	407.25
580.98	402.57
581.14	470.45
581.30	468.11
581.46	421.30
581.62	376.83
581.78	397.89
581.94	386.19
582.10	372.15
582.26	374.49
582.42	395.55
582.58	379.17
582.74	465.77
582.90	386.19
583.06	355.76
583.22	440.02
583.38	400.23
583.54	388.53
583.70	435.34
583.86	458.74
584.02	430.66
584.18	458.74
584.34	437.68
584.50	414.27
584.66	444.70
584.82	409.59
584.98	395.55
585.14	365.12
585.30	456.40
585.46	360.44
585.62	397.89
585.78	442.36
585.94	402.57
586.10	362.78
586.26	379.17
586.42	404.91
586.58	400.23
586.74	451.72
586.90	423.64
587.06	486.83
587.22	395.55
587.38	383.85
587.54	341.72
587.70	440.02
587.86	390.87
588.02	362.78
588.18	418.96
588.34	475.13
588.49	461.09
588.65	362.78
588.81	362.78
588.97	348.74
589.13	409.59
589.29	449.38
589.45	386.19
589.61	421.30
589.77	491.51
589.93	411.93
590.08	440.02
590.24	411.93
590.40	428.32
590.56	416.62
590.72	472.79
590.88	404.91
591.04	421.30
591.20	444.70
591.35	400.23
591.51	421.30
591.67	458.74
591.83	393.21
591.99	358.10
592.15	416.62
592.31	390.87
592.46	433.00
592.62	430.66
592.78	442.36
592.94	428.32
593.10	395.55
593.26	440.02
593.41	395.55
593.57	418.96
593.73	409.59
593.89	423.64
594.05	395.55
594.20	447.04
594.36	465.77
594.52	416.62
594.68	430.66
594.84	404.91
594.99	454.06
595.15	479.81
595.31	411.93
595.47	454.06
595.62	442.36
595.78	397.89
595.94	404.91
596.10	482.15
596.25	407.25
596.41	351.08
596.57	341.72
596.73	337.04
596.88	379.17
597.04	440.02
597.20	447.04
597.36	461.09
597.51	449.38
597.67	444.70
597.83	348.74
597.99	367.46
598.14	414.27
598.30	416.62
598.46	411.93
598.61	348.74
598.77	440.02
598.93	322.99
599.09	383.85
599.24	404.91
599.40	454.06
599.56	468.11
599.71	411.93
599.87	383.85
600.03	360.44
600.18	409.59
600.34	355.76
600.50	369.80
600.65	409.59
600.81	454.06
600.97	430.66
601.12	435.34
601.28	456.40
601.44	421.30
601.59	425.98
601.75	414.27
601.91	393.21
602.06	423.64
602.22	482.15
602.37	465.77
602.53	388.53
602.69	409.59
602.84	435.34
603.00	479.81
603.16	425.98
603.31	411.93
603.47	404.91
603.62	486.83
603.78	430.66
603.94	414.27
604.09	440.02
604.25	411.93
604.40	430.66
604.56	372.15
604.71	374.49
604.87	376.83
605.03	484.49
605.18	358.10
605.34	461.09
605.49	456.40
605.65	416.62
605.80	358.10
605.96	400.23
606.12	489.17
606.27	440.02
606.43	423.64
606.58	409.59
606.74	472.79
606.89	456.40
607.05	454.06
607.20	425.98
607.36	451.72
607.51	449.38
607.67	381.51
607.82	341.72
607.98	423.64
608.13	358.10
608.29	458.74
608.44	482.15
608.60	425.98
608.75	479.81
608.91	374.49
609.06	472.79
609.22	367.46
609.37	376.83
609.53	456.40
609.68	414.27
609.84	400.23
609.99	442.36
610.15	454.06
