SpectraSuite Data File
++++++++++++++++++++++++++++++++++++
Date: Fri Oct 25 12:11:15 EDT 2013
User: price-jones
Dark Spectrum Present: No
Reference Spectrum Present: No
Number of Sampled Component Spectra: 1
Spectrometers: USB2+H05261
Integration Time (usec): 100000 (USB2+H05261)
Spectra Averaged: 1 (USB2+H05261)
Boxcar Smoothing: 0 (USB2+H05261)
Correct for Electrical Dark: No (USB2+H05261)
Strobe/Lamp Enabled: No (USB2+H05261)
Correct for Detector Non-linearity: No (USB2+H05261)
Correct for Stray Light: No (USB2+H05261)
Number of Pixels in Processed Spectrum: 2048
>>>>>Begin Processed Spectral Data<<<<<
365.73	414.27
365.92	414.27
366.12	414.27
366.32	332.36
366.52	257.46
366.72	360.44
366.91	318.31
367.11	285.55
367.31	196.60
367.51	269.16
367.70	280.86
367.90	231.71
368.10	322.99
368.30	276.18
368.49	283.20
368.69	243.42
368.89	257.46
369.09	283.20
369.28	259.80
369.48	292.57
369.68	271.50
369.87	273.84
370.07	278.52
370.27	315.97
370.47	402.57
370.66	344.06
370.86	337.04
371.06	449.38
371.25	435.34
371.45	411.93
371.65	383.85
371.84	369.80
372.04	393.21
372.24	358.10
372.44	416.62
372.63	414.27
372.83	411.93
373.03	442.36
373.22	425.98
373.42	444.70
373.62	470.45
373.81	421.30
374.01	458.74
374.21	372.15
374.40	379.17
374.60	428.32
374.79	447.04
374.99	374.49
375.19	430.66
375.38	402.57
375.58	458.74
375.78	433.00
375.97	414.27
376.17	489.17
376.37	458.74
376.56	374.49
376.76	416.62
376.95	442.36
377.15	447.04
377.35	428.32
377.54	458.74
377.74	400.23
377.93	374.49
378.13	365.12
378.33	463.43
378.52	465.77
378.72	390.87
378.91	414.27
379.11	393.21
379.31	376.83
379.50	425.98
379.70	407.25
379.89	433.00
380.09	386.19
380.28	318.31
380.48	374.49
380.68	360.44
380.87	367.46
381.07	400.23
381.26	397.89
381.46	414.27
381.65	435.34
381.85	435.34
382.04	470.45
382.24	395.55
382.43	355.76
382.63	407.25
382.83	437.68
383.02	353.42
383.22	463.43
383.41	388.53
383.61	365.12
383.80	433.00
384.00	395.55
384.19	472.79
384.39	404.91
384.58	425.98
384.78	409.59
384.97	337.04
385.17	369.80
385.36	404.91
385.56	390.87
385.75	397.89
385.95	383.85
386.14	372.15
386.34	355.76
386.53	437.68
386.72	423.64
386.92	381.51
387.11	486.83
387.31	379.17
387.50	355.76
387.70	369.80
387.89	482.15
388.09	369.80
388.28	442.36
388.48	402.57
388.67	404.91
388.86	374.49
389.06	372.15
389.25	414.27
389.45	386.19
389.64	311.29
389.84	435.34
390.03	430.66
390.22	386.19
390.42	414.27
390.61	320.65
390.81	395.55
391.00	346.40
391.19	367.46
391.39	337.04
391.58	386.19
391.78	414.27
391.97	383.85
392.16	381.51
392.36	482.15
392.55	456.40
392.75	411.93
392.94	402.57
393.13	416.62
393.33	414.27
393.52	423.64
393.71	477.47
393.91	449.38
394.10	355.76
394.29	461.09
394.49	470.45
394.68	346.40
394.88	435.34
395.07	418.96
395.26	362.78
395.46	449.38
395.65	353.42
395.84	449.38
396.04	521.94
396.23	407.25
396.42	404.91
396.62	491.51
396.81	561.73
397.00	435.34
397.19	402.57
397.39	365.12
397.58	430.66
397.77	369.80
397.97	327.68
398.16	425.98
398.35	339.38
398.55	407.25
398.74	433.00
398.93	404.91
399.12	358.10
399.32	430.66
399.51	409.59
399.70	423.64
399.90	428.32
400.09	348.74
400.28	444.70
400.47	421.30
400.67	472.79
400.86	397.89
401.05	402.57
401.24	402.57
401.44	379.17
401.63	390.87
401.82	379.17
402.01	454.06
402.21	491.51
402.40	416.62
402.59	404.91
402.78	418.96
402.97	444.70
403.17	386.19
403.36	414.27
403.55	440.02
403.74	470.45
403.93	430.66
404.13	416.62
404.32	311.29
404.51	468.11
404.70	407.25
404.89	388.53
405.09	449.38
405.28	440.02
405.47	468.11
405.66	435.34
405.85	383.85
406.05	430.66
406.24	390.87
406.43	484.49
406.62	379.17
406.81	388.53
407.00	372.15
407.20	374.49
407.39	372.15
407.58	404.91
407.77	491.51
407.96	444.70
408.15	409.59
408.34	428.32
408.54	374.49
408.73	421.30
408.92	388.53
409.11	374.49
409.30	463.43
409.49	386.19
409.68	395.55
409.87	393.21
410.07	393.21
410.26	498.53
410.45	468.11
410.64	456.40
410.83	430.66
411.02	456.40
411.21	472.79
411.40	362.78
411.59	447.04
411.78	341.72
411.98	428.32
412.17	372.15
412.36	367.46
412.55	367.46
412.74	376.83
412.93	442.36
413.12	418.96
413.31	388.53
413.50	402.57
413.69	411.93
413.88	409.59
414.07	355.76
414.26	374.49
414.45	369.80
414.64	437.68
414.83	355.76
415.02	402.57
415.22	404.91
415.41	411.93
415.60	381.51
415.79	428.32
415.98	402.57
416.17	402.57
416.36	449.38
416.55	421.30
416.74	411.93
416.93	414.27
417.12	358.10
417.31	346.40
417.50	365.12
417.69	461.09
417.88	440.02
418.07	393.21
418.26	369.80
418.45	383.85
418.64	491.51
418.83	482.15
419.02	402.57
419.21	409.59
419.39	353.42
419.58	433.00
419.77	442.36
419.96	369.80
420.15	402.57
420.34	402.57
420.53	421.30
420.72	372.15
420.91	423.64
421.10	484.49
421.29	376.83
421.48	351.08
421.67	414.27
421.86	437.68
422.05	498.53
422.24	440.02
422.43	428.32
422.61	400.23
422.80	414.27
422.99	416.62
423.18	444.70
423.37	400.23
423.56	402.57
423.75	433.00
423.94	425.98
424.13	383.85
424.32	475.13
424.50	437.68
424.69	465.77
424.88	444.70
425.07	346.40
425.26	444.70
425.45	456.40
425.64	379.17
425.83	355.76
426.01	458.74
426.20	465.77
426.39	435.34
426.58	390.87
426.77	444.70
426.96	404.91
427.15	425.98
427.33	381.51
427.52	376.83
427.71	418.96
427.90	437.68
428.09	437.68
428.28	393.21
428.46	407.25
428.65	379.17
428.84	379.17
429.03	418.96
429.22	454.06
429.40	388.53
429.59	374.49
429.78	414.27
429.97	376.83
430.16	381.51
430.34	465.77
430.53	411.93
430.72	433.00
430.91	428.32
431.10	435.34
431.28	472.79
431.47	376.83
431.66	402.57
431.85	402.57
432.03	362.78
432.22	407.25
432.41	404.91
432.60	435.34
432.79	416.62
432.97	400.23
433.16	416.62
433.35	397.89
433.54	388.53
433.72	351.08
433.91	484.49
434.10	390.87
434.28	428.32
434.47	414.27
434.66	425.98
434.85	393.21
435.03	449.38
435.22	414.27
435.41	465.77
435.59	468.11
435.78	418.96
435.97	463.43
436.16	414.27
436.34	428.32
436.53	376.83
436.72	458.74
436.90	351.08
437.09	421.30
437.28	395.55
437.46	433.00
437.65	372.15
437.84	423.64
438.02	388.53
438.21	435.34
438.40	334.70
438.58	372.15
438.77	456.40
438.96	374.49
439.14	458.74
439.33	400.23
439.52	397.89
439.70	383.85
439.89	416.62
440.08	430.66
440.26	437.68
440.45	390.87
440.63	400.23
440.82	442.36
441.01	409.59
441.19	407.25
441.38	425.98
441.57	386.19
441.75	433.00
441.94	393.21
442.12	484.49
442.31	404.91
442.50	433.00
442.68	407.25
442.87	465.77
443.05	435.34
443.24	374.49
443.43	486.83
443.61	360.44
443.80	407.25
443.98	320.65
444.17	421.30
444.35	470.45
444.54	433.00
444.73	393.21
444.91	514.92
445.10	393.21
445.28	428.32
445.47	458.74
445.65	322.99
445.84	425.98
446.02	433.00
446.21	418.96
446.39	376.83
446.58	430.66
446.77	367.46
446.95	482.15
447.14	435.34
447.32	388.53
447.51	418.96
447.69	470.45
447.88	381.51
448.06	400.23
448.25	404.91
448.43	388.53
448.62	404.91
448.80	475.13
448.99	369.80
449.17	334.70
449.36	442.36
449.54	416.62
449.73	381.51
449.91	402.57
450.10	444.70
450.28	393.21
450.46	421.30
450.65	472.79
450.83	461.09
451.02	407.25
451.20	409.59
451.39	365.12
451.57	390.87
451.76	465.77
451.94	421.30
452.13	442.36
452.31	463.43
452.49	447.04
452.68	430.66
452.86	484.49
453.05	341.72
453.23	423.64
453.42	435.34
453.60	372.15
453.78	444.70
453.97	381.51
454.15	421.30
454.34	362.78
454.52	411.93
454.70	376.83
454.89	486.83
455.07	463.43
455.26	442.36
455.44	435.34
455.62	458.74
455.81	369.80
455.99	416.62
456.17	454.06
456.36	362.78
456.54	346.40
456.73	414.27
456.91	376.83
457.09	414.27
457.28	355.76
457.46	463.43
457.64	435.34
457.83	388.53
458.01	414.27
458.19	449.38
458.38	407.25
458.56	430.66
458.74	365.12
458.93	360.44
459.11	503.22
459.29	433.00
459.48	390.87
459.66	538.32
459.84	486.83
460.03	468.11
460.21	414.27
460.39	468.11
460.57	440.02
460.76	437.68
460.94	402.57
461.12	430.66
461.31	442.36
461.49	433.00
461.67	407.25
461.85	444.70
462.04	313.63
462.22	765.36
462.40	489.17
462.59	437.68
462.77	433.00
462.95	449.38
463.13	421.30
463.32	449.38
463.50	425.98
463.68	388.53
463.86	402.57
464.05	400.23
464.23	451.72
464.41	442.36
464.59	411.93
464.78	400.23
464.96	369.80
465.14	376.83
465.32	393.21
465.50	418.96
465.69	433.00
465.87	449.38
466.05	416.62
466.23	470.45
466.41	393.21
466.60	437.68
466.78	435.34
466.96	437.68
467.14	449.38
467.32	461.09
467.51	414.27
467.69	397.89
467.87	386.19
468.05	421.30
468.23	472.79
468.41	447.04
468.60	404.91
468.78	414.27
468.96	360.44
469.14	383.85
469.32	454.06
469.50	423.64
469.69	440.02
469.87	411.93
470.05	435.34
470.23	458.74
470.41	411.93
470.59	428.32
470.77	418.96
470.95	397.89
471.14	442.36
471.32	381.51
471.50	423.64
471.68	393.21
471.86	325.33
472.04	353.42
472.22	376.83
472.40	407.25
472.58	353.42
472.77	433.00
472.95	437.68
473.13	472.79
473.31	442.36
473.49	397.89
473.67	358.10
473.85	449.38
474.03	418.96
474.21	397.89
474.39	498.53
474.57	435.34
474.75	374.49
474.93	447.04
475.12	318.31
475.30	425.98
475.48	381.51
475.66	379.17
475.84	437.68
476.02	414.27
476.20	358.10
476.38	433.00
476.56	437.68
476.74	461.09
476.92	395.55
477.10	376.83
477.28	416.62
477.46	430.66
477.64	447.04
477.82	461.09
478.00	425.98
478.18	449.38
478.36	447.04
478.54	440.02
478.72	468.11
478.90	463.43
479.08	409.59
479.26	425.98
479.44	402.57
479.62	456.40
479.80	402.57
479.98	386.19
480.16	297.25
480.34	451.72
480.52	458.74
480.70	430.66
480.88	355.76
481.06	440.02
481.24	414.27
481.41	383.85
481.59	444.70
481.77	393.21
481.95	416.62
482.13	496.19
482.31	374.49
482.49	411.93
482.67	437.68
482.85	500.87
483.03	402.57
483.21	402.57
483.39	376.83
483.57	468.11
483.74	423.64
483.92	379.17
484.10	341.72
484.28	414.27
484.46	423.64
484.64	423.64
484.82	475.13
485.00	442.36
485.18	330.02
485.35	351.08
485.53	458.74
485.71	418.96
485.89	463.43
486.07	461.09
486.25	512.58
486.43	442.36
486.61	447.04
486.78	449.38
486.96	411.93
487.14	355.76
487.32	374.49
487.50	374.49
487.68	425.98
487.85	369.80
488.03	444.70
488.21	423.64
488.39	402.57
488.57	486.83
488.75	423.64
488.92	475.13
489.10	472.79
489.28	493.85
489.46	369.80
489.64	428.32
489.81	390.87
489.99	447.04
490.17	482.15
490.35	430.66
490.53	407.25
490.70	332.36
490.88	437.68
491.06	402.57
491.24	374.49
491.41	468.11
491.59	451.72
491.77	388.53
491.95	418.96
492.13	339.38
492.30	402.57
492.48	381.51
492.66	407.25
492.84	395.55
493.01	421.30
493.19	318.31
493.37	468.11
493.54	369.80
493.72	444.70
493.90	358.10
494.08	311.29
494.25	383.85
494.43	393.21
494.61	341.72
494.79	334.70
494.96	414.27
495.14	468.11
495.32	435.34
495.49	414.27
495.67	388.53
495.85	425.98
496.02	458.74
496.20	425.98
496.38	470.45
496.55	430.66
496.73	423.64
496.91	404.91
497.09	442.36
497.26	423.64
497.44	454.06
497.62	397.89
497.79	421.30
497.97	395.55
498.14	477.47
498.32	407.25
498.50	465.77
498.67	381.51
498.85	484.49
499.03	486.83
499.20	386.19
499.38	402.57
499.56	425.98
499.73	418.96
499.91	454.06
500.08	425.98
500.26	395.55
500.44	365.12
500.61	468.11
500.79	482.15
500.97	430.66
501.14	489.17
501.32	376.83
501.49	463.43
501.67	416.62
501.84	435.34
502.02	440.02
502.20	423.64
502.37	449.38
502.55	409.59
502.72	442.36
502.90	407.25
503.07	418.96
503.25	407.25
503.43	390.87
503.60	435.34
503.78	444.70
503.95	447.04
504.13	388.53
504.30	421.30
504.48	421.30
504.65	484.49
504.83	388.53
505.01	451.72
505.18	456.40
505.36	451.72
505.53	454.06
505.71	407.25
505.88	435.34
506.06	390.87
506.23	430.66
506.41	414.27
506.58	395.55
506.76	496.19
506.93	395.55
507.11	411.93
507.28	327.68
507.46	456.40
507.63	428.32
507.81	423.64
507.98	425.98
508.16	374.49
508.33	327.68
508.50	430.66
508.68	447.04
508.85	409.59
509.03	430.66
509.20	372.15
509.38	407.25
509.55	566.41
509.73	444.70
509.90	512.58
510.08	358.10
510.25	397.89
510.42	400.23
510.60	416.62
510.77	381.51
510.95	416.62
511.12	411.93
511.30	388.53
511.47	437.68
511.64	468.11
511.82	433.00
511.99	433.00
512.17	397.89
512.34	423.64
512.51	416.62
512.69	404.91
512.86	397.89
513.04	411.93
513.21	369.80
513.38	414.27
513.56	456.40
513.73	458.74
513.90	379.17
514.08	442.36
514.25	421.30
514.43	402.57
514.60	409.59
514.77	397.89
514.95	372.15
515.12	390.87
515.29	402.57
515.47	358.10
515.64	414.27
515.81	386.19
515.99	463.43
516.16	416.62
516.33	484.49
516.51	519.60
516.68	369.80
516.85	407.25
517.03	407.25
517.20	423.64
517.37	430.66
517.54	440.02
517.72	423.64
517.89	416.62
518.06	390.87
518.24	428.32
518.41	463.43
518.58	418.96
518.75	372.15
518.93	456.40
519.10	414.27
519.27	365.12
519.45	362.78
519.62	425.98
519.79	477.47
519.96	376.83
520.14	451.72
520.31	484.49
520.48	458.74
520.65	461.09
520.83	418.96
521.00	442.36
521.17	416.62
521.34	409.59
521.52	362.78
521.69	395.55
521.86	409.59
522.03	416.62
522.20	400.23
522.38	376.83
522.55	397.89
522.72	325.33
522.89	491.51
523.07	383.85
523.24	479.81
523.41	383.85
523.58	447.04
523.75	411.93
523.92	362.78
524.10	425.98
524.27	451.72
524.44	423.64
524.61	402.57
524.78	407.25
524.96	379.17
525.13	407.25
525.30	433.00
525.47	423.64
525.64	351.08
525.81	486.83
525.98	397.89
526.16	374.49
526.33	454.06
526.50	393.21
526.67	383.85
526.84	463.43
527.01	411.93
527.18	454.06
527.36	411.93
527.53	376.83
527.70	416.62
527.87	409.59
528.04	468.11
528.21	397.89
528.38	447.04
528.55	430.66
528.72	463.43
528.89	444.70
529.07	456.40
529.24	400.23
529.41	440.02
529.58	444.70
529.75	379.17
529.92	493.85
530.09	416.62
530.26	395.55
530.43	418.96
530.60	468.11
530.77	395.55
530.94	416.62
531.11	470.45
531.28	411.93
531.46	383.85
531.63	414.27
531.80	468.11
531.97	463.43
532.14	433.00
532.31	416.62
532.48	332.36
532.65	433.00
532.82	425.98
532.99	414.27
533.16	388.53
533.33	430.66
533.50	496.19
533.67	414.27
533.84	447.04
534.01	358.10
534.18	423.64
534.35	353.42
534.52	425.98
534.69	402.57
534.86	393.21
535.03	423.64
535.20	386.19
535.37	418.96
535.54	475.13
535.71	395.55
535.88	440.02
536.05	416.62
536.22	376.83
536.38	402.57
536.55	355.76
536.72	496.19
536.89	374.49
537.06	437.68
537.23	433.00
537.40	465.77
537.57	360.44
537.74	447.04
537.91	421.30
538.08	344.06
538.25	465.77
538.42	355.76
538.59	428.32
538.75	428.32
538.92	414.27
539.09	456.40
539.26	472.79
539.43	416.62
539.60	407.25
539.77	400.23
539.94	505.56
540.11	449.38
540.28	458.74
540.44	421.30
540.61	421.30
540.78	435.34
540.95	409.59
541.12	496.19
541.29	440.02
541.46	465.77
541.62	458.74
541.79	449.38
541.96	358.10
542.13	456.40
542.30	334.70
542.47	400.23
542.63	386.19
542.80	400.23
542.97	404.91
543.14	461.09
543.31	416.62
543.48	404.91
543.64	372.15
543.81	372.15
543.98	330.02
544.15	463.43
544.32	411.93
544.48	425.98
544.65	418.96
544.82	461.09
544.99	414.27
545.16	430.66
545.32	411.93
545.49	388.53
545.66	367.46
545.83	435.34
546.00	393.21
546.16	463.43
546.33	407.25
546.50	418.96
546.67	433.00
546.83	402.57
547.00	444.70
547.17	454.06
547.34	360.44
547.50	416.62
547.67	358.10
547.84	369.80
548.00	433.00
548.17	365.12
548.34	332.36
548.51	475.13
548.67	414.27
548.84	402.57
549.01	311.29
549.18	395.55
549.34	395.55
549.51	440.02
549.68	365.12
549.84	411.93
550.01	388.53
550.18	538.32
550.34	475.13
550.51	449.38
550.68	433.00
550.84	400.23
551.01	433.00
551.18	407.25
551.34	423.64
551.51	376.83
551.68	418.96
551.84	442.36
552.01	421.30
552.18	430.66
552.34	367.46
552.51	428.32
552.68	337.04
552.84	465.77
553.01	376.83
553.18	381.51
553.34	330.02
553.51	397.89
553.67	423.64
553.84	468.11
554.01	468.11
554.17	425.98
554.34	369.80
554.51	470.45
554.67	425.98
554.84	491.51
555.00	437.68
555.17	409.59
555.33	372.15
555.50	479.81
555.67	447.04
555.83	411.93
556.00	344.06
556.16	526.62
556.33	463.43
556.50	449.38
556.66	395.55
556.83	381.51
556.99	404.91
557.16	402.57
557.32	402.57
557.49	458.74
557.65	444.70
557.82	409.59
557.98	346.40
558.15	430.66
558.32	411.93
558.48	484.49
558.65	365.12
558.81	404.91
558.98	454.06
559.14	407.25
559.31	425.98
559.47	423.64
559.64	414.27
559.80	423.64
559.97	400.23
560.13	400.23
560.30	409.59
560.46	409.59
560.63	337.04
560.79	404.91
560.96	411.93
561.12	379.17
561.29	479.81
561.45	360.44
561.61	465.77
561.78	456.40
561.94	416.62
562.11	458.74
562.27	390.87
562.44	374.49
562.60	433.00
562.77	407.25
562.93	470.45
563.10	430.66
563.26	402.57
563.42	437.68
563.59	362.78
563.75	311.29
563.92	484.49
564.08	425.98
564.24	383.85
564.41	428.32
564.57	409.59
564.74	414.27
564.90	454.06
565.07	484.49
565.23	430.66
565.39	421.30
565.56	461.09
565.72	496.19
565.88	400.23
566.05	383.85
566.21	428.32
566.38	407.25
566.54	407.25
566.70	465.77
566.87	425.98
567.03	397.89
567.19	414.27
567.36	358.10
567.52	425.98
567.68	360.44
567.85	411.93
568.01	442.36
568.17	404.91
568.34	393.21
568.50	407.25
568.66	386.19
568.83	451.72
568.99	411.93
569.15	447.04
569.32	421.30
569.48	458.74
569.64	353.42
569.81	435.34
569.97	409.59
570.13	496.19
570.30	433.00
570.46	463.43
570.62	414.27
570.78	451.72
570.95	414.27
571.11	425.98
571.27	475.13
571.43	454.06
571.60	425.98
571.76	372.15
571.92	479.81
572.09	400.23
572.25	486.83
572.41	421.30
572.57	409.59
572.74	517.26
572.90	376.83
573.06	421.30
573.22	456.40
573.38	468.11
573.55	409.59
573.71	421.30
573.87	461.09
574.03	388.53
574.20	411.93
574.36	400.23
574.52	376.83
574.68	456.40
574.84	372.15
575.01	479.81
575.17	437.68
575.33	379.17
575.49	407.25
575.65	454.06
575.82	327.68
575.98	512.58
576.14	461.09
576.30	428.32
576.46	353.42
576.62	414.27
576.79	425.98
576.95	458.74
577.11	404.91
577.27	402.57
577.43	395.55
577.59	393.21
577.75	447.04
577.92	423.64
578.08	381.51
578.24	512.58
578.40	428.32
578.56	489.17
578.72	397.89
578.88	423.64
579.04	477.47
579.21	430.66
579.37	379.17
579.53	346.40
579.69	423.64
579.85	400.23
580.01	397.89
580.17	468.11
580.33	493.85
580.49	477.47
580.65	404.91
580.82	376.83
580.98	381.51
581.14	421.30
581.30	442.36
581.46	404.91
581.62	433.00
581.78	430.66
581.94	421.30
582.10	353.42
582.26	386.19
582.42	423.64
582.58	435.34
582.74	390.87
582.90	425.98
583.06	421.30
583.22	421.30
583.38	402.57
583.54	491.51
583.70	386.19
583.86	411.93
584.02	454.06
584.18	447.04
584.34	372.15
584.50	433.00
584.66	383.85
584.82	470.45
584.98	440.02
585.14	376.83
585.30	433.00
585.46	463.43
585.62	456.40
585.78	440.02
585.94	470.45
586.10	465.77
586.26	351.08
586.42	433.00
586.58	365.12
586.74	353.42
586.90	482.15
587.06	418.96
587.22	407.25
587.38	388.53
587.54	372.15
587.70	397.89
587.86	404.91
588.02	433.00
588.18	428.32
588.34	472.79
588.49	454.06
588.65	484.49
588.81	425.98
588.97	416.62
589.13	442.36
589.29	383.85
589.45	414.27
589.61	418.96
589.77	463.43
589.93	409.59
590.08	411.93
590.24	451.72
590.40	440.02
590.56	421.30
590.72	425.98
590.88	409.59
591.04	435.34
591.20	456.40
591.35	411.93
591.51	477.47
591.67	423.64
591.83	477.47
591.99	404.91
592.15	423.64
592.31	484.49
592.46	440.02
592.62	451.72
592.78	393.21
592.94	430.66
593.10	341.72
593.26	386.19
593.41	414.27
593.57	353.42
593.73	461.09
593.89	447.04
594.05	397.89
594.20	418.96
594.36	386.19
594.52	344.06
594.68	421.30
594.84	458.74
594.99	456.40
595.15	458.74
595.31	461.09
595.47	486.83
595.62	379.17
595.78	505.56
595.94	369.80
596.10	451.72
596.25	423.64
596.41	425.98
596.57	414.27
596.73	477.47
596.88	437.68
597.04	344.06
597.20	486.83
597.36	397.89
597.51	454.06
597.67	437.68
597.83	418.96
597.99	498.53
598.14	388.53
598.30	372.15
598.46	395.55
598.61	440.02
598.77	365.12
598.93	461.09
599.09	360.44
599.24	421.30
599.40	451.72
599.56	454.06
599.71	358.10
599.87	435.34
600.03	428.32
600.18	428.32
600.34	496.19
600.50	437.68
600.65	451.72
600.81	482.15
600.97	390.87
601.12	454.06
601.28	437.68
601.44	444.70
601.59	433.00
601.75	411.93
601.91	416.62
602.06	407.25
602.22	468.11
602.37	444.70
602.53	458.74
602.69	414.27
602.84	395.55
603.00	339.38
603.16	447.04
603.31	423.64
603.47	461.09
603.62	402.57
603.78	444.70
603.94	468.11
604.09	414.27
604.25	407.25
604.40	395.55
604.56	447.04
604.71	442.36
604.87	407.25
605.03	411.93
605.18	365.12
605.34	472.79
605.49	421.30
605.65	411.93
605.80	353.42
605.96	482.15
606.12	425.98
606.27	402.57
606.43	390.87
606.58	404.91
606.74	442.36
606.89	372.15
607.05	423.64
607.20	395.55
607.36	510.24
607.51	411.93
607.67	442.36
607.82	447.04
607.98	423.64
608.13	454.06
608.29	468.11
608.44	503.22
608.60	449.38
608.75	442.36
608.91	465.77
609.06	444.70
609.22	346.40
609.37	421.30
609.53	430.66
609.68	397.89
609.84	507.90
609.99	486.83
610.15	447.04
