SpectraSuite Data File
++++++++++++++++++++++++++++++++++++
Date: Fri Oct 25 12:10:34 EDT 2013
User: price-jones
Dark Spectrum Present: No
Reference Spectrum Present: No
Number of Sampled Component Spectra: 1
Spectrometers: USB2+H05261
Integration Time (usec): 100000 (USB2+H05261)
Spectra Averaged: 1 (USB2+H05261)
Boxcar Smoothing: 0 (USB2+H05261)
Correct for Electrical Dark: No (USB2+H05261)
Strobe/Lamp Enabled: No (USB2+H05261)
Correct for Detector Non-linearity: No (USB2+H05261)
Correct for Stray Light: No (USB2+H05261)
Number of Pixels in Processed Spectrum: 2048
>>>>>Begin Processed Spectral Data<<<<<
365.73	334.70
365.92	334.70
366.12	334.70
366.32	285.55
366.52	215.33
366.72	304.27
366.91	278.52
367.11	210.65
367.31	187.24
367.51	285.55
367.70	271.50
367.90	241.08
368.10	262.14
368.30	243.42
368.49	238.73
368.69	271.50
368.89	245.76
369.09	243.42
369.28	257.46
369.48	334.70
369.68	271.50
369.87	301.93
370.07	301.93
370.27	313.63
370.47	322.99
370.66	280.86
370.86	334.70
371.06	416.62
371.25	440.02
371.45	348.74
371.65	360.44
371.84	353.42
372.04	407.25
372.24	381.51
372.44	402.57
372.63	425.98
372.83	442.36
373.03	421.30
373.22	390.87
373.42	402.57
373.62	365.12
373.81	491.51
374.01	395.55
374.21	409.59
374.40	404.91
374.60	491.51
374.79	437.68
374.99	435.34
375.19	472.79
375.38	414.27
375.58	433.00
375.78	376.83
375.97	458.74
376.17	440.02
376.37	411.93
376.56	425.98
376.76	402.57
376.95	425.98
377.15	390.87
377.35	383.85
377.54	437.68
377.74	409.59
377.93	404.91
378.13	411.93
378.33	360.44
378.52	379.17
378.72	386.19
378.91	409.59
379.11	418.96
379.31	355.76
379.50	383.85
379.70	430.66
379.89	386.19
380.09	365.12
380.28	360.44
380.48	369.80
380.68	374.49
380.87	395.55
381.07	393.21
381.26	390.87
381.46	409.59
381.65	409.59
381.85	416.62
382.04	416.62
382.24	416.62
382.43	362.78
382.63	388.53
382.83	397.89
383.02	353.42
383.22	433.00
383.41	447.04
383.61	416.62
383.80	411.93
384.00	383.85
384.19	430.66
384.39	463.43
384.58	470.45
384.78	395.55
384.97	409.59
385.17	365.12
385.36	330.02
385.56	393.21
385.75	341.72
385.95	299.59
386.14	346.40
386.34	472.79
386.53	416.62
386.72	430.66
386.92	435.34
387.11	421.30
387.31	367.46
387.50	346.40
387.70	402.57
387.89	379.17
388.09	327.68
388.28	402.57
388.48	369.80
388.67	346.40
388.86	372.15
389.06	451.72
389.25	458.74
389.45	463.43
389.64	440.02
389.84	353.42
390.03	430.66
390.22	433.00
390.42	393.21
390.61	407.25
390.81	386.19
391.00	465.77
391.19	416.62
391.39	374.49
391.58	477.47
391.78	365.12
391.97	418.96
392.16	381.51
392.36	383.85
392.55	421.30
392.75	456.40
392.94	386.19
393.13	407.25
393.33	386.19
393.52	435.34
393.71	444.70
393.91	456.40
394.10	400.23
394.29	425.98
394.49	423.64
394.68	372.15
394.88	365.12
395.07	407.25
395.26	437.68
395.46	395.55
395.65	376.83
395.84	400.23
396.04	470.45
396.23	362.78
396.42	376.83
396.62	458.74
396.81	390.87
397.00	475.13
397.19	449.38
397.39	360.44
397.58	496.19
397.77	376.83
397.97	379.17
398.16	444.70
398.35	402.57
398.55	369.80
398.74	454.06
398.93	416.62
399.12	395.55
399.32	404.91
399.51	461.09
399.70	414.27
399.90	393.21
400.09	442.36
400.28	395.55
400.47	402.57
400.67	437.68
400.86	421.30
401.05	383.85
401.24	449.38
401.44	372.15
401.63	414.27
401.82	444.70
402.01	407.25
402.21	433.00
402.40	402.57
402.59	414.27
402.78	498.53
402.97	376.83
403.17	397.89
403.36	472.79
403.55	435.34
403.74	416.62
403.93	447.04
404.13	463.43
404.32	376.83
404.51	409.59
404.70	463.43
404.89	409.59
405.09	444.70
405.28	430.66
405.47	388.53
405.66	442.36
405.85	409.59
406.05	458.74
406.24	435.34
406.43	395.55
406.62	397.89
406.81	425.98
407.00	442.36
407.20	468.11
407.39	423.64
407.58	381.51
407.77	367.46
407.96	388.53
408.15	346.40
408.34	425.98
408.54	425.98
408.73	404.91
408.92	355.76
409.11	400.23
409.30	369.80
409.49	332.36
409.68	358.10
409.87	351.08
410.07	414.27
410.26	423.64
410.45	437.68
410.64	397.89
410.83	379.17
411.02	416.62
411.21	388.53
411.40	388.53
411.59	449.38
411.78	376.83
411.98	465.77
412.17	367.46
412.36	423.64
412.55	351.08
412.74	451.72
412.93	374.49
413.12	428.32
413.31	430.66
413.50	381.51
413.69	355.76
413.88	468.11
414.07	454.06
414.26	360.44
414.45	381.51
414.64	447.04
414.83	463.43
415.02	425.98
415.22	355.76
415.41	421.30
415.60	425.98
415.79	402.57
415.98	496.19
416.17	449.38
416.36	376.83
416.55	360.44
416.74	440.02
416.93	416.62
417.12	479.81
417.31	418.96
417.50	393.21
417.69	440.02
417.88	456.40
418.07	397.89
418.26	390.87
418.45	376.83
418.64	372.15
418.83	320.65
419.02	374.49
419.21	447.04
419.39	395.55
419.58	440.02
419.77	433.00
419.96	390.87
420.15	409.59
420.34	409.59
420.53	367.46
420.72	348.74
420.91	428.32
421.10	395.55
421.29	423.64
421.48	404.91
421.67	337.04
421.86	404.91
422.05	421.30
422.24	433.00
422.43	435.34
422.61	369.80
422.80	416.62
422.99	386.19
423.18	425.98
423.37	421.30
423.56	421.30
423.75	451.72
423.94	442.36
424.13	433.00
424.32	433.00
424.50	463.43
424.69	414.27
424.88	395.55
425.07	461.09
425.26	447.04
425.45	404.91
425.64	411.93
425.83	334.70
426.01	477.47
426.20	393.21
426.39	379.17
426.58	451.72
426.77	470.45
426.96	425.98
427.15	376.83
427.33	395.55
427.52	395.55
427.71	348.74
427.90	425.98
428.09	372.15
428.28	411.93
428.46	383.85
428.65	409.59
428.84	346.40
429.03	421.30
429.22	444.70
429.40	362.78
429.59	360.44
429.78	390.87
429.97	383.85
430.16	379.17
430.34	423.64
430.53	390.87
430.72	402.57
430.91	440.02
431.10	423.64
431.28	334.70
431.47	437.68
431.66	376.83
431.85	390.87
432.03	339.38
432.22	451.72
432.41	421.30
432.60	430.66
432.79	351.08
432.97	428.32
433.16	376.83
433.35	369.80
433.54	386.19
433.72	416.62
433.91	379.17
434.10	411.93
434.28	449.38
434.47	400.23
434.66	425.98
434.85	409.59
435.03	447.04
435.22	442.36
435.41	503.22
435.59	505.56
435.78	414.27
435.97	395.55
436.16	395.55
436.34	421.30
436.53	407.25
436.72	430.66
436.90	425.98
437.09	414.27
437.28	411.93
437.46	404.91
437.65	379.17
437.84	447.04
438.02	397.89
438.21	430.66
438.40	369.80
438.58	430.66
438.77	468.11
438.96	411.93
439.14	365.12
439.33	454.06
439.52	433.00
439.70	400.23
439.89	407.25
440.08	437.68
440.26	409.59
440.45	437.68
440.63	397.89
440.82	397.89
441.01	395.55
441.19	454.06
441.38	437.68
441.57	386.19
441.75	444.70
441.94	486.83
442.12	475.13
442.31	353.42
442.50	362.78
442.68	397.89
442.87	444.70
443.05	397.89
443.24	390.87
443.43	458.74
443.61	404.91
443.80	381.51
443.98	390.87
444.17	360.44
444.35	400.23
444.54	397.89
444.73	454.06
444.91	423.64
445.10	421.30
445.28	421.30
445.47	383.85
445.65	386.19
445.84	472.79
446.02	346.40
446.21	383.85
446.39	393.21
446.58	433.00
446.77	444.70
446.95	388.53
447.14	470.45
447.32	402.57
447.51	435.34
447.69	430.66
447.88	458.74
448.06	421.30
448.25	409.59
448.43	433.00
448.62	416.62
448.80	440.02
448.99	344.06
449.17	383.85
449.36	421.30
449.54	383.85
449.73	423.64
449.91	388.53
450.10	414.27
450.28	435.34
450.46	454.06
450.65	404.91
450.83	444.70
451.02	411.93
451.20	425.98
451.39	433.00
451.57	440.02
451.76	362.78
451.94	407.25
452.13	486.83
452.31	449.38
452.49	510.24
452.68	411.93
452.86	362.78
453.05	449.38
453.23	411.93
453.42	425.98
453.60	456.40
453.78	386.19
453.97	400.23
454.15	503.22
454.34	404.91
454.52	456.40
454.70	470.45
454.89	433.00
455.07	287.89
455.26	369.80
455.44	379.17
455.62	425.98
455.81	407.25
455.99	421.30
456.17	451.72
456.36	348.74
456.54	353.42
456.73	395.55
456.91	367.46
457.09	454.06
457.28	411.93
457.46	414.27
457.64	477.47
457.83	402.57
458.01	372.15
458.19	479.81
458.38	381.51
458.56	428.32
458.74	418.96
458.93	393.21
459.11	418.96
459.29	404.91
459.48	395.55
459.66	458.74
459.84	414.27
460.03	397.89
460.21	395.55
460.39	355.76
460.57	505.56
460.76	470.45
460.94	365.12
461.12	425.98
461.31	458.74
461.49	360.44
461.67	404.91
461.85	390.87
462.04	407.25
462.22	772.38
462.40	393.21
462.59	456.40
462.77	421.30
462.95	402.57
463.13	440.02
463.32	421.30
463.50	337.04
463.68	472.79
463.86	348.74
464.05	402.57
464.23	454.06
464.41	435.34
464.59	475.13
464.78	379.17
464.96	482.15
465.14	423.64
465.32	397.89
465.50	383.85
465.69	449.38
465.87	388.53
466.05	395.55
466.23	397.89
466.41	425.98
466.60	418.96
466.78	484.49
466.96	416.62
467.14	433.00
467.32	463.43
467.51	442.36
467.69	374.49
467.87	465.77
468.05	369.80
468.23	475.13
468.41	376.83
468.60	397.89
468.78	409.59
468.96	430.66
469.14	437.68
469.32	451.72
469.50	383.85
469.69	447.04
469.87	386.19
470.05	367.46
470.23	442.36
470.41	484.49
470.59	433.00
470.77	510.24
470.95	390.87
471.14	362.78
471.32	423.64
471.50	414.27
471.68	423.64
471.86	472.79
472.04	369.80
472.22	409.59
472.40	449.38
472.58	407.25
472.77	402.57
472.95	437.68
473.13	421.30
473.31	479.81
473.49	388.53
473.67	404.91
473.85	435.34
474.03	404.91
474.21	433.00
474.39	369.80
474.57	425.98
474.75	447.04
474.93	416.62
475.12	421.30
475.30	388.53
475.48	451.72
475.66	360.44
475.84	477.47
476.02	355.76
476.20	358.10
476.38	428.32
476.56	475.13
476.74	407.25
476.92	393.21
477.10	404.91
477.28	423.64
477.46	379.17
477.64	437.68
477.82	395.55
478.00	386.19
478.18	395.55
478.36	362.78
478.54	390.87
478.72	344.06
478.90	407.25
479.08	418.96
479.26	365.12
479.44	409.59
479.62	374.49
479.80	451.72
479.98	440.02
480.16	334.70
480.34	437.68
480.52	344.06
480.70	421.30
480.88	397.89
481.06	411.93
481.24	397.89
481.41	430.66
481.59	437.68
481.77	444.70
481.95	437.68
482.13	409.59
482.31	379.17
482.49	440.02
482.67	390.87
482.85	433.00
483.03	418.96
483.21	362.78
483.39	407.25
483.57	402.57
483.74	477.47
483.92	332.36
484.10	440.02
484.28	468.11
484.46	528.96
484.64	425.98
484.82	409.59
485.00	425.98
485.18	330.02
485.35	447.04
485.53	411.93
485.71	409.59
485.89	458.74
486.07	484.49
486.25	475.13
486.43	414.27
486.61	449.38
486.78	437.68
486.96	393.21
487.14	348.74
487.32	421.30
487.50	397.89
487.68	451.72
487.85	369.80
488.03	411.93
488.21	449.38
488.39	463.43
488.57	346.40
488.75	433.00
488.92	407.25
489.10	416.62
489.28	440.02
489.46	416.62
489.64	379.17
489.81	332.36
489.99	423.64
490.17	367.46
490.35	475.13
490.53	400.23
490.70	454.06
490.88	437.68
491.06	402.57
491.24	440.02
491.41	472.79
491.59	423.64
491.77	358.10
491.95	360.44
492.13	468.11
492.30	496.19
492.48	407.25
492.66	365.12
492.84	402.57
493.01	360.44
493.19	372.15
493.37	402.57
493.54	395.55
493.72	358.10
493.90	365.12
494.08	369.80
494.25	376.83
494.43	423.64
494.61	442.36
494.79	383.85
494.96	456.40
495.14	456.40
495.32	372.15
495.49	369.80
495.67	428.32
495.85	440.02
496.02	355.76
496.20	414.27
496.38	423.64
496.55	435.34
496.73	435.34
496.91	372.15
497.09	362.78
497.26	461.09
497.44	442.36
497.62	447.04
497.79	372.15
497.97	425.98
498.14	379.17
498.32	416.62
498.50	433.00
498.67	379.17
498.85	369.80
499.03	353.42
499.20	400.23
499.38	444.70
499.56	461.09
499.73	491.51
499.91	500.87
500.08	458.74
500.26	435.34
500.44	358.10
500.61	381.51
500.79	383.85
500.97	442.36
501.14	437.68
501.32	367.46
501.49	447.04
501.67	428.32
501.84	458.74
502.02	416.62
502.20	381.51
502.37	397.89
502.55	383.85
502.72	425.98
502.90	447.04
503.07	402.57
503.25	400.23
503.43	351.08
503.60	367.46
503.78	395.55
503.95	430.66
504.13	404.91
504.30	383.85
504.48	421.30
504.65	416.62
504.83	425.98
505.01	411.93
505.18	416.62
505.36	423.64
505.53	437.68
505.71	456.40
505.88	451.72
506.06	477.47
506.23	447.04
506.41	440.02
506.58	393.21
506.76	407.25
506.93	458.74
507.11	397.89
507.28	409.59
507.46	451.72
507.63	390.87
507.81	339.38
507.98	479.81
508.16	388.53
508.33	360.44
508.50	465.77
508.68	374.49
508.85	451.72
509.03	444.70
509.20	421.30
509.38	400.23
509.55	468.11
509.73	369.80
509.90	449.38
510.08	341.72
510.25	376.83
510.42	423.64
510.60	418.96
510.77	414.27
510.95	421.30
511.12	423.64
511.30	456.40
511.47	421.30
511.64	433.00
511.82	402.57
511.99	376.83
512.17	425.98
512.34	355.76
512.51	395.55
512.69	470.45
512.86	430.66
513.04	430.66
513.21	379.17
513.38	402.57
513.56	325.33
513.73	390.87
513.90	393.21
514.08	332.36
514.25	416.62
514.43	468.11
514.60	388.53
514.77	468.11
514.95	461.09
515.12	430.66
515.29	393.21
515.47	414.27
515.64	418.96
515.81	404.91
515.99	365.12
516.16	454.06
516.33	465.77
516.51	423.64
516.68	414.27
516.85	362.78
517.03	491.51
517.20	397.89
517.37	456.40
517.54	449.38
517.72	463.43
517.89	428.32
518.06	374.49
518.24	332.36
518.41	477.47
518.58	447.04
518.75	367.46
518.93	341.72
519.10	461.09
519.27	430.66
519.45	351.08
519.62	409.59
519.79	381.51
519.96	341.72
520.14	304.27
520.31	468.11
520.48	411.93
520.65	425.98
520.83	454.06
521.00	358.10
521.17	428.32
521.34	402.57
521.52	435.34
521.69	397.89
521.86	388.53
522.03	409.59
522.20	472.79
522.38	440.02
522.55	440.02
522.72	379.17
522.89	418.96
523.07	500.87
523.24	430.66
523.41	442.36
523.58	381.51
523.75	386.19
523.92	444.70
524.10	376.83
524.27	449.38
524.44	484.49
524.61	470.45
524.78	383.85
524.96	470.45
525.13	435.34
525.30	409.59
525.47	440.02
525.64	416.62
525.81	411.93
525.98	433.00
526.16	411.93
526.33	418.96
526.50	472.79
526.67	348.74
526.84	409.59
527.01	376.83
527.18	379.17
527.36	386.19
527.53	416.62
527.70	433.00
527.87	416.62
528.04	428.32
528.21	479.81
528.38	486.83
528.55	372.15
528.72	517.26
528.89	409.59
529.07	409.59
529.24	465.77
529.41	468.11
529.58	444.70
529.75	425.98
529.92	402.57
530.09	379.17
530.26	461.09
530.43	425.98
530.60	428.32
530.77	360.44
530.94	425.98
531.11	407.25
531.28	416.62
531.46	390.87
531.63	386.19
531.80	395.55
531.97	468.11
532.14	381.51
532.31	416.62
532.48	463.43
532.65	447.04
532.82	437.68
532.99	421.30
533.16	444.70
533.33	390.87
533.50	393.21
533.67	334.70
533.84	402.57
534.01	451.72
534.18	447.04
534.35	435.34
534.52	465.77
534.69	430.66
534.86	404.91
535.03	402.57
535.20	437.68
535.37	428.32
535.54	500.87
535.71	400.23
535.88	458.74
536.05	437.68
536.22	411.93
536.38	447.04
536.55	435.34
536.72	458.74
536.89	381.51
537.06	362.78
537.23	362.78
537.40	444.70
537.57	409.59
537.74	461.09
537.91	395.55
538.08	421.30
538.25	414.27
538.42	409.59
538.59	358.10
538.75	388.53
538.92	433.00
539.09	454.06
539.26	486.83
539.43	414.27
539.60	482.15
539.77	449.38
539.94	437.68
540.11	388.53
540.28	461.09
540.44	442.36
540.61	447.04
540.78	414.27
540.95	407.25
541.12	477.47
541.29	355.76
541.46	421.30
541.62	430.66
541.79	414.27
541.96	465.77
542.13	397.89
542.30	484.49
542.47	409.59
542.63	386.19
542.80	428.32
542.97	442.36
543.14	454.06
543.31	407.25
543.48	470.45
543.64	395.55
543.81	430.66
543.98	430.66
544.15	425.98
544.32	400.23
544.48	425.98
544.65	390.87
544.82	470.45
544.99	505.56
545.16	444.70
545.32	367.46
545.49	404.91
545.66	383.85
545.83	430.66
546.00	388.53
546.16	404.91
546.33	435.34
546.50	465.77
546.67	465.77
546.83	491.51
547.00	416.62
547.17	339.38
547.34	430.66
547.50	409.59
547.67	388.53
547.84	390.87
548.00	407.25
548.17	416.62
548.34	437.68
548.51	416.62
548.67	454.06
548.84	425.98
549.01	435.34
549.18	440.02
549.34	433.00
549.51	461.09
549.68	383.85
549.84	379.17
550.01	428.32
550.18	500.87
550.34	526.62
550.51	428.32
550.68	519.60
550.84	472.79
551.01	472.79
551.18	409.59
551.34	454.06
551.51	428.32
551.68	444.70
551.84	430.66
552.01	379.17
552.18	416.62
552.34	386.19
552.51	379.17
552.68	435.34
552.84	498.53
553.01	428.32
553.18	414.27
553.34	444.70
553.51	428.32
553.67	463.43
553.84	433.00
554.01	421.30
554.17	404.91
554.34	428.32
554.51	486.83
554.67	442.36
554.84	407.25
555.00	395.55
555.17	386.19
555.33	414.27
555.50	477.47
555.67	402.57
555.83	362.78
556.00	437.68
556.16	503.22
556.33	416.62
556.50	358.10
556.66	400.23
556.83	475.13
556.99	437.68
557.16	360.44
557.32	435.34
557.49	367.46
557.65	374.49
557.82	444.70
557.98	402.57
558.15	395.55
558.32	381.51
558.48	411.93
558.65	433.00
558.81	409.59
558.98	414.27
559.14	440.02
559.31	397.89
559.47	421.30
559.64	449.38
559.80	428.32
559.97	395.55
560.13	442.36
560.30	503.22
560.46	414.27
560.63	407.25
560.79	407.25
560.96	477.47
561.12	442.36
561.29	386.19
561.45	360.44
561.61	411.93
561.78	517.26
561.94	355.76
562.11	383.85
562.27	423.64
562.44	433.00
562.60	353.42
562.77	344.06
562.93	430.66
563.10	409.59
563.26	425.98
563.42	393.21
563.59	348.74
563.75	414.27
563.92	447.04
564.08	367.46
564.24	430.66
564.41	423.64
564.57	388.53
564.74	411.93
564.90	388.53
565.07	505.56
565.23	421.30
565.39	386.19
565.56	407.25
565.72	390.87
565.88	421.30
566.05	454.06
566.21	468.11
566.38	435.34
566.54	470.45
566.70	433.00
566.87	444.70
567.03	428.32
567.19	418.96
567.36	411.93
567.52	407.25
567.68	421.30
567.85	402.57
568.01	423.64
568.17	423.64
568.34	358.10
568.50	449.38
568.66	421.30
568.83	430.66
568.99	362.78
569.15	437.68
569.32	383.85
569.48	414.27
569.64	374.49
569.81	397.89
569.97	362.78
570.13	472.79
570.30	416.62
570.46	397.89
570.62	409.59
570.78	411.93
570.95	425.98
571.11	437.68
571.27	433.00
571.43	400.23
571.60	390.87
571.76	463.43
571.92	435.34
572.09	442.36
572.25	461.09
572.41	379.17
572.57	440.02
572.74	388.53
572.90	437.68
573.06	428.32
573.22	367.46
573.38	423.64
573.55	449.38
573.71	435.34
573.87	465.77
574.03	423.64
574.20	388.53
574.36	444.70
574.52	339.38
574.68	409.59
574.84	454.06
575.01	414.27
575.17	414.27
575.33	409.59
575.49	407.25
575.65	372.15
575.82	362.78
575.98	458.74
576.14	470.45
576.30	360.44
576.46	348.74
576.62	458.74
576.79	484.49
576.95	440.02
577.11	423.64
577.27	390.87
577.43	512.58
577.59	491.51
577.75	482.15
577.92	386.19
578.08	425.98
578.24	379.17
578.40	461.09
578.56	484.49
578.72	449.38
578.88	369.80
579.04	411.93
579.21	428.32
579.37	454.06
579.53	440.02
579.69	447.04
579.85	416.62
580.01	435.34
580.17	454.06
580.33	451.72
580.49	433.00
580.65	428.32
580.82	430.66
580.98	409.59
581.14	390.87
581.30	430.66
581.46	395.55
581.62	416.62
581.78	332.36
581.94	404.91
582.10	447.04
582.26	444.70
582.42	388.53
582.58	425.98
582.74	470.45
582.90	463.43
583.06	454.06
583.22	454.06
583.38	416.62
583.54	367.46
583.70	369.80
583.86	451.72
584.02	437.68
584.18	456.40
584.34	383.85
584.50	409.59
584.66	411.93
584.82	430.66
584.98	395.55
585.14	383.85
585.30	437.68
585.46	404.91
585.62	341.72
585.78	409.59
585.94	402.57
586.10	465.77
586.26	411.93
586.42	409.59
586.58	433.00
586.74	461.09
586.90	404.91
587.06	372.15
587.22	425.98
587.38	374.49
587.54	404.91
587.70	430.66
587.86	395.55
588.02	449.38
588.18	381.51
588.34	456.40
588.49	421.30
588.65	414.27
588.81	414.27
588.97	362.78
589.13	486.83
589.29	421.30
589.45	400.23
589.61	461.09
589.77	428.32
589.93	388.53
590.08	421.30
590.24	367.46
590.40	423.64
590.56	414.27
590.72	407.25
590.88	440.02
591.04	472.79
591.20	454.06
591.35	451.72
591.51	461.09
591.67	355.76
591.83	433.00
591.99	407.25
592.15	421.30
592.31	397.89
592.46	440.02
592.62	454.06
592.78	433.00
592.94	379.17
593.10	423.64
593.26	390.87
593.41	503.22
593.57	451.72
593.73	376.83
593.89	477.47
594.05	355.76
594.20	393.21
594.36	500.87
594.52	414.27
594.68	376.83
594.84	543.00
594.99	482.15
595.15	435.34
595.31	425.98
595.47	430.66
595.62	327.68
595.78	442.36
595.94	449.38
596.10	414.27
596.25	409.59
596.41	468.11
596.57	404.91
596.73	339.38
596.88	416.62
597.04	421.30
597.20	423.64
597.36	486.83
597.51	393.21
597.67	400.23
597.83	425.98
597.99	449.38
598.14	416.62
598.30	372.15
598.46	447.04
598.61	463.43
598.77	416.62
598.93	400.23
599.09	402.57
599.24	510.24
599.40	423.64
599.56	470.45
599.71	409.59
599.87	433.00
600.03	414.27
600.18	484.49
600.34	411.93
600.50	362.78
600.65	407.25
600.81	461.09
600.97	447.04
601.12	451.72
601.28	472.79
601.44	411.93
601.59	341.72
601.75	444.70
601.91	344.06
602.06	383.85
602.22	421.30
602.37	393.21
602.53	376.83
602.69	435.34
602.84	428.32
603.00	418.96
603.16	365.12
603.31	416.62
603.47	472.79
603.62	407.25
603.78	360.44
603.94	397.89
604.09	369.80
604.25	393.21
604.40	465.77
604.56	435.34
604.71	418.96
604.87	407.25
605.03	447.04
605.18	444.70
605.34	435.34
605.49	404.91
605.65	390.87
605.80	351.08
605.96	435.34
606.12	411.93
606.27	463.43
606.43	435.34
606.58	379.17
606.74	390.87
606.89	425.98
607.05	458.74
607.20	425.98
607.36	386.19
607.51	360.44
607.67	404.91
607.82	444.70
607.98	437.68
608.13	465.77
608.29	407.25
608.44	526.62
608.60	390.87
608.75	465.77
608.91	358.10
609.06	386.19
609.22	337.04
609.37	402.57
609.53	372.15
609.68	404.91
609.84	358.10
609.99	418.96
610.15	435.34
