SpectraSuite Data File
++++++++++++++++++++++++++++++++++++
Date: Fri Oct 25 12:10:52 EDT 2013
User: price-jones
Dark Spectrum Present: No
Reference Spectrum Present: No
Number of Sampled Component Spectra: 1
Spectrometers: USB2+H05261
Integration Time (usec): 100000 (USB2+H05261)
Spectra Averaged: 1 (USB2+H05261)
Boxcar Smoothing: 0 (USB2+H05261)
Correct for Electrical Dark: No (USB2+H05261)
Strobe/Lamp Enabled: No (USB2+H05261)
Correct for Detector Non-linearity: No (USB2+H05261)
Correct for Stray Light: No (USB2+H05261)
Number of Pixels in Processed Spectrum: 2048
>>>>>Begin Processed Spectral Data<<<<<
365.73	400.23
365.92	400.23
366.12	400.23
366.32	299.59
366.52	184.90
366.72	191.92
366.91	187.24
367.11	217.67
367.31	259.80
367.51	189.58
367.70	222.35
367.90	252.78
368.10	222.35
368.30	229.37
368.49	198.95
368.69	243.42
368.89	224.69
369.09	308.95
369.28	231.71
369.48	287.89
369.68	294.91
369.87	262.14
370.07	262.14
370.27	348.74
370.47	330.02
370.66	337.04
370.86	433.00
371.06	395.55
371.25	409.59
371.45	337.04
371.65	341.72
371.84	325.33
372.04	411.93
372.24	367.46
372.44	341.72
372.63	383.85
372.83	407.25
373.03	440.02
373.22	395.55
373.42	388.53
373.62	404.91
373.81	465.77
374.01	503.22
374.21	451.72
374.40	416.62
374.60	423.64
374.79	456.40
374.99	468.11
375.19	430.66
375.38	381.51
375.58	468.11
375.78	416.62
375.97	395.55
376.17	433.00
376.37	463.43
376.56	435.34
376.76	430.66
376.95	390.87
377.15	414.27
377.35	407.25
377.54	482.15
377.74	442.36
377.93	468.11
378.13	498.53
378.33	444.70
378.52	390.87
378.72	447.04
378.91	393.21
379.11	348.74
379.31	358.10
379.50	407.25
379.70	388.53
379.89	381.51
380.09	346.40
380.28	386.19
380.48	388.53
380.68	416.62
380.87	402.57
381.07	381.51
381.26	423.64
381.46	407.25
381.65	468.11
381.85	393.21
382.04	428.32
382.24	475.13
382.43	421.30
382.63	367.46
382.83	428.32
383.02	458.74
383.22	444.70
383.41	320.65
383.61	376.83
383.80	365.12
384.00	407.25
384.19	454.06
384.39	437.68
384.58	411.93
384.78	414.27
384.97	409.59
385.17	477.47
385.36	386.19
385.56	372.15
385.75	341.72
385.95	444.70
386.14	346.40
386.34	376.83
386.53	465.77
386.72	355.76
386.92	425.98
387.11	358.10
387.31	407.25
387.50	390.87
387.70	379.17
387.89	451.72
388.09	472.79
388.28	418.96
388.48	341.72
388.67	411.93
388.86	433.00
389.06	369.80
389.25	355.76
389.45	416.62
389.64	393.21
389.84	381.51
390.03	411.93
390.22	456.40
390.42	428.32
390.61	358.10
390.81	397.89
391.00	379.17
391.19	358.10
391.39	367.46
391.58	407.25
391.78	482.15
391.97	369.80
392.16	365.12
392.36	353.42
392.55	423.64
392.75	447.04
392.94	390.87
393.13	423.64
393.33	381.51
393.52	393.21
393.71	416.62
393.91	461.09
394.10	395.55
394.29	400.23
394.49	332.36
394.68	423.64
394.88	400.23
395.07	449.38
395.26	383.85
395.46	346.40
395.65	400.23
395.84	435.34
396.04	409.59
396.23	376.83
396.42	437.68
396.62	383.85
396.81	386.19
397.00	409.59
397.19	397.89
397.39	479.81
397.58	440.02
397.77	346.40
397.97	407.25
398.16	444.70
398.35	416.62
398.55	414.27
398.74	397.89
398.93	400.23
399.12	400.23
399.32	386.19
399.51	381.51
399.70	461.09
399.90	369.80
400.09	442.36
400.28	465.77
400.47	383.85
400.67	428.32
400.86	411.93
401.05	437.68
401.24	376.83
401.44	442.36
401.63	437.68
401.82	430.66
402.01	388.53
402.21	386.19
402.40	423.64
402.59	355.76
402.78	341.72
402.97	341.72
403.17	374.49
403.36	390.87
403.55	334.70
403.74	374.49
403.93	435.34
404.13	479.81
404.32	414.27
404.51	381.51
404.70	414.27
404.89	372.15
405.09	465.77
405.28	404.91
405.47	348.74
405.66	407.25
405.85	360.44
406.05	404.91
406.24	454.06
406.43	423.64
406.62	411.93
406.81	374.49
407.00	414.27
407.20	400.23
407.39	355.76
407.58	430.66
407.77	339.38
407.96	318.31
408.15	435.34
408.34	360.44
408.54	404.91
408.73	468.11
408.92	383.85
409.11	369.80
409.30	346.40
409.49	346.40
409.68	374.49
409.87	454.06
410.07	409.59
410.26	339.38
410.45	430.66
410.64	463.43
410.83	409.59
411.02	435.34
411.21	430.66
411.40	423.64
411.59	472.79
411.78	376.83
411.98	390.87
412.17	362.78
412.36	341.72
412.55	407.25
412.74	421.30
412.93	376.83
413.12	444.70
413.31	428.32
413.50	365.12
413.69	379.17
413.88	444.70
414.07	397.89
414.26	425.98
414.45	428.32
414.64	414.27
414.83	416.62
415.02	472.79
415.22	440.02
415.41	421.30
415.60	428.32
415.79	379.17
415.98	433.00
416.17	358.10
416.36	409.59
416.55	367.46
416.74	379.17
416.93	400.23
417.12	461.09
417.31	365.12
417.50	400.23
417.69	533.64
417.88	423.64
418.07	404.91
418.26	414.27
418.45	414.27
418.64	337.04
418.83	442.36
419.02	374.49
419.21	369.80
419.39	437.68
419.58	386.19
419.77	372.15
419.96	498.53
420.15	421.30
420.34	414.27
420.53	421.30
420.72	367.46
420.91	423.64
421.10	376.83
421.29	416.62
421.48	390.87
421.67	411.93
421.86	390.87
422.05	381.51
422.24	447.04
422.43	468.11
422.61	390.87
422.80	376.83
422.99	374.49
423.18	437.68
423.37	440.02
423.56	374.49
423.75	383.85
423.94	367.46
424.13	414.27
424.32	407.25
424.50	383.85
424.69	397.89
424.88	440.02
425.07	355.76
425.26	440.02
425.45	351.08
425.64	390.87
425.83	325.33
426.01	360.44
426.20	444.70
426.39	421.30
426.58	397.89
426.77	390.87
426.96	440.02
427.15	430.66
427.33	339.38
427.52	407.25
427.71	470.45
427.90	388.53
428.09	444.70
428.28	447.04
428.46	425.98
428.65	435.34
428.84	322.99
429.03	447.04
429.22	444.70
429.40	414.27
429.59	463.43
429.78	470.45
429.97	362.78
430.16	397.89
430.34	365.12
430.53	367.46
430.72	407.25
430.91	421.30
431.10	484.49
431.28	409.59
431.47	383.85
431.66	444.70
431.85	407.25
432.03	414.27
432.22	411.93
432.41	433.00
432.60	360.44
432.79	425.98
432.97	425.98
433.16	388.53
433.35	344.06
433.54	322.99
433.72	414.27
433.91	379.17
434.10	386.19
434.28	437.68
434.47	348.74
434.66	381.51
434.85	421.30
435.03	369.80
435.22	428.32
435.41	381.51
435.59	421.30
435.78	440.02
435.97	402.57
436.16	379.17
436.34	449.38
436.53	402.57
436.72	402.57
436.90	482.15
437.09	425.98
437.28	437.68
437.46	362.78
437.65	454.06
437.84	442.36
438.02	411.93
438.21	430.66
438.40	395.55
438.58	362.78
438.77	369.80
438.96	496.19
439.14	376.83
439.33	402.57
439.52	414.27
439.70	451.72
439.89	451.72
440.08	369.80
440.26	393.21
440.45	447.04
440.63	475.13
440.82	397.89
441.01	353.42
441.19	444.70
441.38	449.38
441.57	447.04
441.75	383.85
441.94	425.98
442.12	437.68
442.31	379.17
442.50	479.81
442.68	447.04
442.87	383.85
443.05	402.57
443.24	379.17
443.43	454.06
443.61	400.23
443.80	411.93
443.98	379.17
444.17	423.64
444.35	472.79
444.54	477.47
444.73	400.23
444.91	442.36
445.10	447.04
445.28	409.59
445.47	435.34
445.65	390.87
445.84	407.25
446.02	416.62
446.21	402.57
446.39	374.49
446.58	397.89
446.77	348.74
446.95	407.25
447.14	416.62
447.32	423.64
447.51	458.74
447.69	430.66
447.88	379.17
448.06	433.00
448.25	484.49
448.43	404.91
448.62	449.38
448.80	330.02
448.99	440.02
449.17	362.78
449.36	437.68
449.54	442.36
449.73	383.85
449.91	421.30
450.10	414.27
450.28	468.11
450.46	470.45
450.65	414.27
450.83	456.40
451.02	362.78
451.20	435.34
451.39	444.70
451.57	355.76
451.76	425.98
451.94	369.80
452.13	407.25
452.31	416.62
452.49	442.36
452.68	390.87
452.86	355.76
453.05	421.30
453.23	423.64
453.42	358.10
453.60	372.15
453.78	409.59
453.97	454.06
454.15	409.59
454.34	430.66
454.52	367.46
454.70	365.12
454.89	411.93
455.07	395.55
455.26	414.27
455.44	458.74
455.62	351.08
455.81	423.64
455.99	456.40
456.17	414.27
456.36	388.53
456.54	463.43
456.73	393.21
456.91	388.53
457.09	425.98
457.28	367.46
457.46	416.62
457.64	430.66
457.83	341.72
458.01	337.04
458.19	456.40
458.38	411.93
458.56	395.55
458.74	440.02
458.93	404.91
459.11	395.55
459.29	330.02
459.48	435.34
459.66	383.85
459.84	421.30
460.03	463.43
460.21	435.34
460.39	428.32
460.57	454.06
460.76	390.87
460.94	442.36
461.12	442.36
461.31	458.74
461.49	369.80
461.67	454.06
461.85	447.04
462.04	379.17
462.22	741.95
462.40	437.68
462.59	383.85
462.77	404.91
462.95	482.15
463.13	372.15
463.32	393.21
463.50	458.74
463.68	447.04
463.86	397.89
464.05	404.91
464.23	461.09
464.41	482.15
464.59	402.57
464.78	386.19
464.96	388.53
465.14	360.44
465.32	437.68
465.50	381.51
465.69	409.59
465.87	418.96
466.05	472.79
466.23	416.62
466.41	409.59
466.60	400.23
466.78	360.44
466.96	435.34
467.14	337.04
467.32	430.66
467.51	472.79
467.69	475.13
467.87	404.91
468.05	409.59
468.23	407.25
468.41	379.17
468.60	454.06
468.78	496.19
468.96	470.45
469.14	421.30
469.32	444.70
469.50	334.70
469.69	411.93
469.87	372.15
470.05	433.00
470.23	435.34
470.41	465.77
470.59	400.23
470.77	411.93
470.95	414.27
471.14	400.23
471.32	393.21
471.50	402.57
471.68	447.04
471.86	512.58
472.04	358.10
472.22	397.89
472.40	461.09
472.58	332.36
472.77	435.34
472.95	449.38
473.13	514.92
473.31	407.25
473.49	376.83
473.67	397.89
473.85	421.30
474.03	381.51
474.21	374.49
474.39	440.02
474.57	454.06
474.75	411.93
474.93	388.53
475.12	322.99
475.30	365.12
475.48	355.76
475.66	456.40
475.84	430.66
476.02	421.30
476.20	463.43
476.38	365.12
476.56	451.72
476.74	500.87
476.92	440.02
477.10	451.72
477.28	402.57
477.46	421.30
477.64	374.49
477.82	418.96
478.00	386.19
478.18	442.36
478.36	369.80
478.54	400.23
478.72	442.36
478.90	393.21
479.08	472.79
479.26	421.30
479.44	437.68
479.62	397.89
479.80	451.72
479.98	414.27
480.16	435.34
480.34	409.59
480.52	428.32
480.70	418.96
480.88	400.23
481.06	409.59
481.24	393.21
481.41	374.49
481.59	461.09
481.77	353.42
481.95	423.64
482.13	482.15
482.31	411.93
482.49	418.96
482.67	465.77
482.85	397.89
483.03	449.38
483.21	437.68
483.39	458.74
483.57	311.29
483.74	468.11
483.92	376.83
484.10	404.91
484.28	365.12
484.46	442.36
484.64	482.15
484.82	381.51
485.00	367.46
485.18	374.49
485.35	451.72
485.53	379.17
485.71	451.72
485.89	430.66
486.07	404.91
486.25	416.62
486.43	440.02
486.61	456.40
486.78	479.81
486.96	461.09
487.14	425.98
487.32	393.21
487.50	339.38
487.68	409.59
487.85	358.10
488.03	425.98
488.21	376.83
488.39	379.17
488.57	493.85
488.75	503.22
488.92	498.53
489.10	440.02
489.28	433.00
489.46	463.43
489.64	437.68
489.81	402.57
489.99	390.87
490.17	390.87
490.35	470.45
490.53	365.12
490.70	409.59
490.88	369.80
491.06	440.02
491.24	414.27
491.41	510.24
491.59	416.62
491.77	374.49
491.95	416.62
492.13	418.96
492.30	407.25
492.48	440.02
492.66	404.91
492.84	390.87
493.01	372.15
493.19	393.21
493.37	409.59
493.54	449.38
493.72	334.70
493.90	344.06
494.08	414.27
494.25	465.77
494.43	421.30
494.61	367.46
494.79	407.25
494.96	433.00
495.14	390.87
495.32	414.27
495.49	376.83
495.67	411.93
495.85	421.30
496.02	369.80
496.20	454.06
496.38	437.68
496.55	428.32
496.73	418.96
496.91	383.85
497.09	355.76
497.26	379.17
497.44	470.45
497.62	461.09
497.79	421.30
497.97	447.04
498.14	395.55
498.32	416.62
498.50	503.22
498.67	428.32
498.85	381.51
499.03	447.04
499.20	315.97
499.38	400.23
499.56	437.68
499.73	409.59
499.91	458.74
500.08	404.91
500.26	416.62
500.44	362.78
500.61	449.38
500.79	428.32
500.97	386.19
501.14	449.38
501.32	428.32
501.49	482.15
501.67	421.30
501.84	458.74
502.02	390.87
502.20	418.96
502.37	423.64
502.55	484.49
502.72	451.72
502.90	402.57
503.07	437.68
503.25	388.53
503.43	421.30
503.60	430.66
503.78	390.87
503.95	449.38
504.13	395.55
504.30	421.30
504.48	437.68
504.65	379.17
504.83	404.91
505.01	416.62
505.18	430.66
505.36	465.77
505.53	484.49
505.71	423.64
505.88	468.11
506.06	407.25
506.23	482.15
506.41	351.08
506.58	369.80
506.76	372.15
506.93	376.83
507.11	411.93
507.28	390.87
507.46	402.57
507.63	414.27
507.81	425.98
507.98	423.64
508.16	416.62
508.33	437.68
508.50	425.98
508.68	400.23
508.85	351.08
509.03	421.30
509.20	425.98
509.38	400.23
509.55	407.25
509.73	449.38
509.90	388.53
510.08	430.66
510.25	362.78
510.42	404.91
510.60	447.04
510.77	458.74
510.95	437.68
511.12	465.77
511.30	479.81
511.47	428.32
511.64	475.13
511.82	353.42
511.99	447.04
512.17	388.53
512.34	484.49
512.51	400.23
512.69	428.32
512.86	421.30
513.04	442.36
513.21	416.62
513.38	376.83
513.56	407.25
513.73	496.19
513.90	447.04
514.08	402.57
514.25	440.02
514.43	437.68
514.60	367.46
514.77	472.79
514.95	491.51
515.12	435.34
515.29	442.36
515.47	393.21
515.64	362.78
515.81	358.10
515.99	468.11
516.16	437.68
516.33	376.83
516.51	404.91
516.68	376.83
516.85	447.04
517.03	402.57
517.20	447.04
517.37	465.77
517.54	400.23
517.72	454.06
517.89	386.19
518.06	435.34
518.24	400.23
518.41	430.66
518.58	360.44
518.75	341.72
518.93	409.59
519.10	414.27
519.27	435.34
519.45	430.66
519.62	416.62
519.79	456.40
519.96	437.68
520.14	451.72
520.31	479.81
520.48	402.57
520.65	418.96
520.83	437.68
521.00	423.64
521.17	393.21
521.34	353.42
521.52	440.02
521.69	353.42
521.86	376.83
522.03	428.32
522.20	470.45
522.38	418.96
522.55	409.59
522.72	411.93
522.89	404.91
523.07	451.72
523.24	374.49
523.41	348.74
523.58	381.51
523.75	435.34
523.92	367.46
524.10	421.30
524.27	416.62
524.44	428.32
524.61	416.62
524.78	428.32
524.96	421.30
525.13	416.62
525.30	435.34
525.47	486.83
525.64	402.57
525.81	444.70
525.98	409.59
526.16	407.25
526.33	416.62
526.50	451.72
526.67	447.04
526.84	365.12
527.01	465.77
527.18	397.89
527.36	372.15
527.53	444.70
527.70	477.47
527.87	353.42
528.04	383.85
528.21	400.23
528.38	367.46
528.55	437.68
528.72	390.87
528.89	437.68
529.07	353.42
529.24	482.15
529.41	433.00
529.58	486.83
529.75	397.89
529.92	416.62
530.09	437.68
530.26	409.59
530.43	388.53
530.60	395.55
530.77	411.93
530.94	409.59
531.11	433.00
531.28	374.49
531.46	367.46
531.63	444.70
531.80	447.04
531.97	440.02
532.14	440.02
532.31	461.09
532.48	437.68
532.65	397.89
532.82	376.83
532.99	461.09
533.16	393.21
533.33	449.38
533.50	362.78
533.67	449.38
533.84	451.72
534.01	397.89
534.18	425.98
534.35	369.80
534.52	411.93
534.69	491.51
534.86	358.10
535.03	458.74
535.20	379.17
535.37	444.70
535.54	454.06
535.71	461.09
535.88	463.43
536.05	414.27
536.22	442.36
536.38	449.38
536.55	348.74
536.72	528.96
536.89	409.59
537.06	428.32
537.23	465.77
537.40	386.19
537.57	379.17
537.74	400.23
537.91	433.00
538.08	393.21
538.25	463.43
538.42	362.78
538.59	376.83
538.75	433.00
538.92	409.59
539.09	381.51
539.26	414.27
539.43	505.56
539.60	433.00
539.77	482.15
539.94	393.21
540.11	458.74
540.28	402.57
540.44	423.64
540.61	379.17
540.78	442.36
540.95	372.15
541.12	418.96
541.29	393.21
541.46	484.49
541.62	433.00
541.79	351.08
541.96	383.85
542.13	433.00
542.30	374.49
542.47	418.96
542.63	430.66
542.80	458.74
542.97	390.87
543.14	397.89
543.31	407.25
543.48	407.25
543.64	425.98
543.81	365.12
543.98	411.93
544.15	423.64
544.32	444.70
544.48	430.66
544.65	383.85
544.82	390.87
544.99	397.89
545.16	451.72
545.32	435.34
545.49	479.81
545.66	472.79
545.83	418.96
546.00	435.34
546.16	447.04
546.33	451.72
546.50	404.91
546.67	397.89
546.83	423.64
547.00	425.98
547.17	355.76
547.34	369.80
547.50	454.06
547.67	409.59
547.84	379.17
548.00	428.32
548.17	404.91
548.34	461.09
548.51	425.98
548.67	362.78
548.84	376.83
549.01	397.89
549.18	418.96
549.34	381.51
549.51	376.83
549.68	505.56
549.84	428.32
550.01	355.76
550.18	496.19
550.34	491.51
550.51	411.93
550.68	433.00
550.84	390.87
551.01	449.38
551.18	435.34
551.34	430.66
551.51	409.59
551.68	407.25
551.84	414.27
552.01	388.53
552.18	411.93
552.34	428.32
552.51	367.46
552.68	365.12
552.84	409.59
553.01	458.74
553.18	440.02
553.34	421.30
553.51	402.57
553.67	372.15
553.84	449.38
554.01	463.43
554.17	423.64
554.34	400.23
554.51	470.45
554.67	477.47
554.84	430.66
555.00	484.49
555.17	383.85
555.33	416.62
555.50	388.53
555.67	461.09
555.83	407.25
556.00	409.59
556.16	517.26
556.33	526.62
556.50	379.17
556.66	416.62
556.83	449.38
556.99	444.70
557.16	430.66
557.32	367.46
557.49	411.93
557.65	388.53
557.82	360.44
557.98	355.76
558.15	407.25
558.32	496.19
558.48	414.27
558.65	421.30
558.81	376.83
558.98	372.15
559.14	397.89
559.31	425.98
559.47	468.11
559.64	386.19
559.80	386.19
559.97	358.10
560.13	463.43
560.30	416.62
560.46	339.38
560.63	388.53
560.79	393.21
560.96	421.30
561.12	367.46
561.29	430.66
561.45	468.11
561.61	442.36
561.78	489.17
561.94	376.83
562.11	468.11
562.27	379.17
562.44	383.85
562.60	456.40
562.77	463.43
562.93	505.56
563.10	414.27
563.26	486.83
563.42	463.43
563.59	409.59
563.75	437.68
563.92	458.74
564.08	369.80
564.24	395.55
564.41	472.79
564.57	404.91
564.74	409.59
564.90	388.53
565.07	365.12
565.23	400.23
565.39	423.64
565.56	489.17
565.72	395.55
565.88	362.78
566.05	461.09
566.21	433.00
566.38	381.51
566.54	409.59
566.70	397.89
566.87	458.74
567.03	421.30
567.19	428.32
567.36	395.55
567.52	456.40
567.68	369.80
567.85	463.43
568.01	409.59
568.17	360.44
568.34	470.45
568.50	440.02
568.66	407.25
568.83	444.70
568.99	454.06
569.15	433.00
569.32	418.96
569.48	411.93
569.64	390.87
569.81	411.93
569.97	414.27
570.13	367.46
570.30	402.57
570.46	440.02
570.62	425.98
570.78	365.12
570.95	425.98
571.11	411.93
571.27	449.38
571.43	395.55
571.60	465.77
571.76	433.00
571.92	362.78
572.09	428.32
572.25	437.68
572.41	423.64
572.57	414.27
572.74	491.51
572.90	468.11
573.06	433.00
573.22	372.15
573.38	414.27
573.55	407.25
573.71	484.49
573.87	456.40
574.03	337.04
574.20	475.13
574.36	435.34
574.52	404.91
574.68	514.92
574.84	538.32
575.01	449.38
575.17	437.68
575.33	449.38
575.49	416.62
575.65	388.53
575.82	367.46
575.98	449.38
576.14	479.81
576.30	440.02
576.46	402.57
576.62	437.68
576.79	374.49
576.95	430.66
577.11	379.17
577.27	386.19
577.43	454.06
577.59	433.00
577.75	444.70
577.92	393.21
578.08	479.81
578.24	395.55
578.40	395.55
578.56	390.87
578.72	517.26
578.88	362.78
579.04	407.25
579.21	355.76
579.37	390.87
579.53	430.66
579.69	414.27
579.85	409.59
580.01	444.70
580.17	454.06
580.33	383.85
580.49	393.21
580.65	383.85
580.82	402.57
580.98	404.91
581.14	407.25
581.30	477.47
581.46	369.80
581.62	447.04
581.78	369.80
581.94	444.70
582.10	351.08
582.26	470.45
582.42	390.87
582.58	390.87
582.74	348.74
582.90	414.27
583.06	561.73
583.22	416.62
583.38	379.17
583.54	418.96
583.70	360.44
583.86	404.91
584.02	440.02
584.18	428.32
584.34	414.27
584.50	416.62
584.66	346.40
584.82	376.83
584.98	447.04
585.14	386.19
585.30	470.45
585.46	454.06
585.62	454.06
585.78	421.30
585.94	409.59
586.10	449.38
586.26	425.98
586.42	418.96
586.58	440.02
586.74	304.27
586.90	409.59
587.06	447.04
587.22	397.89
587.38	395.55
587.54	418.96
587.70	416.62
587.86	468.11
588.02	437.68
588.18	409.59
588.34	416.62
588.49	442.36
588.65	418.96
588.81	379.17
588.97	430.66
589.13	416.62
589.29	414.27
589.45	379.17
589.61	418.96
589.77	449.38
589.93	425.98
590.08	425.98
590.24	383.85
590.40	404.91
590.56	491.51
590.72	425.98
590.88	351.08
591.04	397.89
591.20	383.85
591.35	404.91
591.51	407.25
591.67	428.32
591.83	428.32
591.99	381.51
592.15	407.25
592.31	435.34
592.46	418.96
592.62	435.34
592.78	407.25
592.94	390.87
593.10	386.19
593.26	461.09
593.41	418.96
593.57	425.98
593.73	428.32
593.89	444.70
594.05	395.55
594.20	362.78
594.36	514.92
594.52	400.23
594.68	383.85
594.84	447.04
594.99	456.40
595.15	449.38
595.31	447.04
595.47	428.32
595.62	400.23
595.78	383.85
595.94	409.59
596.10	409.59
596.25	355.76
596.41	482.15
596.57	376.83
596.73	416.62
596.88	404.91
597.04	458.74
597.20	465.77
597.36	437.68
597.51	365.12
597.67	440.02
597.83	409.59
597.99	456.40
598.14	355.76
598.30	458.74
598.46	402.57
598.61	465.77
598.77	447.04
598.93	355.76
599.09	407.25
599.24	411.93
599.40	435.34
599.56	337.04
599.71	435.34
599.87	383.85
600.03	468.11
600.18	388.53
600.34	451.72
600.50	430.66
600.65	409.59
600.81	538.32
600.97	500.87
601.12	449.38
601.28	416.62
601.44	430.66
601.59	388.53
601.75	362.78
601.91	425.98
602.06	407.25
602.22	491.51
602.37	447.04
602.53	430.66
602.69	414.27
602.84	376.83
603.00	395.55
603.16	381.51
603.31	409.59
603.47	447.04
603.62	332.36
603.78	411.93
603.94	402.57
604.09	395.55
604.25	472.79
604.40	411.93
604.56	386.19
604.71	409.59
604.87	388.53
605.03	395.55
605.18	444.70
605.34	435.34
605.49	447.04
605.65	390.87
605.80	393.21
605.96	418.96
606.12	395.55
606.27	411.93
606.43	407.25
606.58	400.23
606.74	369.80
606.89	430.66
607.05	442.36
607.20	435.34
607.36	393.21
607.51	376.83
607.67	433.00
607.82	425.98
607.98	407.25
608.13	360.44
608.29	407.25
608.44	449.38
608.60	414.27
608.75	435.34
608.91	440.02
609.06	430.66
609.22	388.53
609.37	435.34
609.53	390.87
609.68	388.53
609.84	393.21
609.99	374.49
610.15	416.62
