SpectraSuite Data File
++++++++++++++++++++++++++++++++++++
Date: Fri Oct 25 12:11:20 EDT 2013
User: price-jones
Dark Spectrum Present: No
Reference Spectrum Present: No
Number of Sampled Component Spectra: 1
Spectrometers: USB2+H05261
Integration Time (usec): 100000 (USB2+H05261)
Spectra Averaged: 1 (USB2+H05261)
Boxcar Smoothing: 0 (USB2+H05261)
Correct for Electrical Dark: No (USB2+H05261)
Strobe/Lamp Enabled: No (USB2+H05261)
Correct for Detector Non-linearity: No (USB2+H05261)
Correct for Stray Light: No (USB2+H05261)
Number of Pixels in Processed Spectrum: 2048
>>>>>Begin Processed Spectral Data<<<<<
365.73	374.49
365.92	374.49
366.12	374.49
366.32	259.80
366.52	257.46
366.72	255.12
366.91	269.16
367.11	224.69
367.31	238.73
367.51	278.52
367.70	198.95
367.90	203.63
368.10	198.95
368.30	278.52
368.49	215.33
368.69	248.10
368.89	241.08
369.09	264.48
369.28	297.25
369.48	215.33
369.68	287.89
369.87	306.61
370.07	217.67
370.27	301.93
370.47	362.78
370.66	304.27
370.86	411.93
371.06	414.27
371.25	425.98
371.45	337.04
371.65	388.53
371.84	381.51
372.04	416.62
372.24	397.89
372.44	404.91
372.63	407.25
372.83	414.27
373.03	400.23
373.22	395.55
373.42	440.02
373.62	404.91
373.81	444.70
374.01	381.51
374.21	404.91
374.40	418.96
374.60	456.40
374.79	383.85
374.99	449.38
375.19	393.21
375.38	437.68
375.58	400.23
375.78	447.04
375.97	411.93
376.17	435.34
376.37	472.79
376.56	454.06
376.76	379.17
376.95	486.83
377.15	440.02
377.35	372.15
377.54	407.25
377.74	414.27
377.93	416.62
378.13	430.66
378.33	465.77
378.52	390.87
378.72	433.00
378.91	437.68
379.11	423.64
379.31	365.12
379.50	379.17
379.70	369.80
379.89	465.77
380.09	365.12
380.28	409.59
380.48	414.27
380.68	463.43
380.87	416.62
381.07	390.87
381.26	461.09
381.46	362.78
381.65	458.74
381.85	433.00
382.04	386.19
382.24	390.87
382.43	435.34
382.63	435.34
382.83	416.62
383.02	400.23
383.22	383.85
383.41	395.55
383.61	442.36
383.80	421.30
384.00	388.53
384.19	383.85
384.39	421.30
384.58	404.91
384.78	381.51
384.97	381.51
385.17	393.21
385.36	372.15
385.56	400.23
385.75	454.06
385.95	393.21
386.14	461.09
386.34	369.80
386.53	358.10
386.72	447.04
386.92	418.96
387.11	437.68
387.31	386.19
387.50	400.23
387.70	435.34
387.89	397.89
388.09	355.76
388.28	374.49
388.48	407.25
388.67	344.06
388.86	362.78
389.06	411.93
389.25	315.97
389.45	395.55
389.64	425.98
389.84	454.06
390.03	397.89
390.22	339.38
390.42	404.91
390.61	414.27
390.81	451.72
391.00	414.27
391.19	423.64
391.39	435.34
391.58	411.93
391.78	383.85
391.97	430.66
392.16	407.25
392.36	449.38
392.55	407.25
392.75	337.04
392.94	390.87
393.13	428.32
393.33	365.12
393.52	423.64
393.71	468.11
393.91	428.32
394.10	367.46
394.29	376.83
394.49	423.64
394.68	390.87
394.88	416.62
395.07	477.47
395.26	411.93
395.46	404.91
395.65	463.43
395.84	358.10
396.04	468.11
396.23	400.23
396.42	444.70
396.62	440.02
396.81	430.66
397.00	395.55
397.19	388.53
397.39	372.15
397.58	496.19
397.77	393.21
397.97	421.30
398.16	447.04
398.35	339.38
398.55	395.55
398.74	418.96
398.93	379.17
399.12	397.89
399.32	376.83
399.51	425.98
399.70	351.08
399.90	437.68
400.09	393.21
400.28	402.57
400.47	365.12
400.67	358.10
400.86	372.15
401.05	442.36
401.24	454.06
401.44	386.19
401.63	428.32
401.82	414.27
402.01	362.78
402.21	395.55
402.40	454.06
402.59	496.19
402.78	365.12
402.97	456.40
403.17	425.98
403.36	404.91
403.55	400.23
403.74	400.23
403.93	411.93
404.13	458.74
404.32	425.98
404.51	451.72
404.70	416.62
404.89	400.23
405.09	463.43
405.28	428.32
405.47	397.89
405.66	428.32
405.85	372.15
406.05	402.57
406.24	435.34
406.43	433.00
406.62	402.57
406.81	430.66
407.00	472.79
407.20	421.30
407.39	365.12
407.58	440.02
407.77	425.98
407.96	397.89
408.15	435.34
408.34	416.62
408.54	374.49
408.73	369.80
408.92	449.38
409.11	470.45
409.30	433.00
409.49	381.51
409.68	404.91
409.87	416.62
410.07	383.85
410.26	362.78
410.45	400.23
410.64	425.98
410.83	451.72
411.02	433.00
411.21	404.91
411.40	472.79
411.59	416.62
411.78	365.12
411.98	351.08
412.17	360.44
412.36	395.55
412.55	388.53
412.74	386.19
412.93	477.47
413.12	416.62
413.31	383.85
413.50	456.40
413.69	463.43
413.88	463.43
414.07	376.83
414.26	404.91
414.45	372.15
414.64	393.21
414.83	416.62
415.02	418.96
415.22	390.87
415.41	397.89
415.60	334.70
415.79	388.53
415.98	449.38
416.17	451.72
416.36	416.62
416.55	327.68
416.74	440.02
416.93	461.09
417.12	477.47
417.31	388.53
417.50	409.59
417.69	442.36
417.88	414.27
418.07	416.62
418.26	360.44
418.45	418.96
418.64	435.34
418.83	400.23
419.02	381.51
419.21	402.57
419.39	416.62
419.58	423.64
419.77	379.17
419.96	365.12
420.15	552.37
420.34	402.57
420.53	447.04
420.72	416.62
420.91	421.30
421.10	367.46
421.29	414.27
421.48	414.27
421.67	407.25
421.86	418.96
422.05	423.64
422.24	433.00
422.43	381.51
422.61	407.25
422.80	360.44
422.99	355.76
423.18	402.57
423.37	346.40
423.56	362.78
423.75	400.23
423.94	411.93
424.13	423.64
424.32	428.32
424.50	444.70
424.69	454.06
424.88	451.72
425.07	461.09
425.26	407.25
425.45	381.51
425.64	447.04
425.83	447.04
426.01	454.06
426.20	339.38
426.39	416.62
426.58	404.91
426.77	435.34
426.96	388.53
427.15	414.27
427.33	344.06
427.52	351.08
427.71	390.87
427.90	435.34
428.09	372.15
428.28	334.70
428.46	458.74
428.65	383.85
428.84	421.30
429.03	414.27
429.22	425.98
429.40	379.17
429.59	372.15
429.78	461.09
429.97	421.30
430.16	423.64
430.34	482.15
430.53	444.70
430.72	454.06
430.91	440.02
431.10	376.83
431.28	486.83
431.47	313.63
431.66	414.27
431.85	397.89
432.03	423.64
432.22	503.22
432.41	461.09
432.60	404.91
432.79	414.27
432.97	430.66
433.16	465.77
433.35	369.80
433.54	379.17
433.72	433.00
433.91	358.10
434.10	358.10
434.28	430.66
434.47	433.00
434.66	449.38
434.85	341.72
435.03	313.63
435.22	400.23
435.41	449.38
435.59	472.79
435.78	390.87
435.97	395.55
436.16	369.80
436.34	386.19
436.53	355.76
436.72	463.43
436.90	458.74
437.09	386.19
437.28	414.27
437.46	395.55
437.65	397.89
437.84	383.85
438.02	395.55
438.21	435.34
438.40	416.62
438.58	397.89
438.77	381.51
438.96	379.17
439.14	311.29
439.33	418.96
439.52	367.46
439.70	465.77
439.89	435.34
440.08	517.26
440.26	458.74
440.45	423.64
440.63	381.51
440.82	472.79
441.01	454.06
441.19	418.96
441.38	409.59
441.57	416.62
441.75	451.72
441.94	580.45
442.12	456.40
442.31	362.78
442.50	409.59
442.68	402.57
442.87	440.02
443.05	402.57
443.24	379.17
443.43	407.25
443.61	468.11
443.80	404.91
443.98	442.36
444.17	404.91
444.35	465.77
444.54	416.62
444.73	393.21
444.91	444.70
445.10	393.21
445.28	425.98
445.47	533.64
445.65	397.89
445.84	388.53
446.02	367.46
446.21	376.83
446.39	433.00
446.58	381.51
446.77	449.38
446.95	395.55
447.14	395.55
447.32	463.43
447.51	482.15
447.69	477.47
447.88	440.02
448.06	468.11
448.25	423.64
448.43	355.76
448.62	461.09
448.80	374.49
448.99	421.30
449.17	437.68
449.36	372.15
449.54	437.68
449.73	409.59
449.91	433.00
450.10	360.44
450.28	404.91
450.46	521.94
450.65	470.45
450.83	414.27
451.02	458.74
451.20	381.51
451.39	402.57
451.57	444.70
451.76	404.91
451.94	479.81
452.13	451.72
452.31	435.34
452.49	468.11
452.68	449.38
452.86	442.36
453.05	433.00
453.23	414.27
453.42	341.72
453.60	400.23
453.78	386.19
453.97	395.55
454.15	360.44
454.34	304.27
454.52	468.11
454.70	418.96
454.89	430.66
455.07	376.83
455.26	430.66
455.44	472.79
455.62	482.15
455.81	372.15
455.99	461.09
456.17	379.17
456.36	444.70
456.54	390.87
456.73	472.79
456.91	400.23
457.09	484.49
457.28	470.45
457.46	367.46
457.64	465.77
457.83	369.80
458.01	390.87
458.19	430.66
458.38	484.49
458.56	447.04
458.74	402.57
458.93	379.17
459.11	390.87
459.29	409.59
459.48	444.70
459.66	414.27
459.84	447.04
460.03	554.71
460.21	454.06
460.39	428.32
460.57	411.93
460.76	411.93
460.94	444.70
461.12	470.45
461.31	475.13
461.49	449.38
461.67	444.70
461.85	479.81
462.04	407.25
462.22	854.30
462.40	437.68
462.59	397.89
462.77	468.11
462.95	386.19
463.13	423.64
463.32	404.91
463.50	456.40
463.68	468.11
463.86	449.38
464.05	505.56
464.23	456.40
464.41	411.93
464.59	407.25
464.78	397.89
464.96	393.21
465.14	482.15
465.32	369.80
465.50	437.68
465.69	376.83
465.87	390.87
466.05	484.49
466.23	479.81
466.41	416.62
466.60	433.00
466.78	479.81
466.96	449.38
467.14	468.11
467.32	442.36
467.51	435.34
467.69	393.21
467.87	456.40
468.05	404.91
468.23	456.40
468.41	383.85
468.60	423.64
468.78	386.19
468.96	428.32
469.14	456.40
469.32	482.15
469.50	348.74
469.69	353.42
469.87	435.34
470.05	421.30
470.23	463.43
470.41	390.87
470.59	388.53
470.77	435.34
470.95	341.72
471.14	475.13
471.32	444.70
471.50	447.04
471.68	482.15
471.86	498.53
472.04	430.66
472.22	355.76
472.40	383.85
472.58	404.91
472.77	411.93
472.95	400.23
473.13	404.91
473.31	435.34
473.49	416.62
473.67	404.91
473.85	376.83
474.03	409.59
474.21	414.27
474.39	421.30
474.57	479.81
474.75	425.98
474.93	425.98
475.12	430.66
475.30	444.70
475.48	346.40
475.66	379.17
475.84	374.49
476.02	470.45
476.20	423.64
476.38	411.93
476.56	402.57
476.74	407.25
476.92	388.53
477.10	409.59
477.28	414.27
477.46	299.59
477.64	423.64
477.82	376.83
478.00	421.30
478.18	430.66
478.36	390.87
478.54	430.66
478.72	454.06
478.90	440.02
479.08	369.80
479.26	393.21
479.44	388.53
479.62	390.87
479.80	407.25
479.98	390.87
480.16	332.36
480.34	444.70
480.52	470.45
480.70	423.64
480.88	409.59
481.06	372.15
481.24	355.76
481.41	430.66
481.59	416.62
481.77	402.57
481.95	425.98
482.13	416.62
482.31	428.32
482.49	463.43
482.67	386.19
482.85	463.43
483.03	428.32
483.21	463.43
483.39	430.66
483.57	470.45
483.74	468.11
483.92	407.25
484.10	416.62
484.28	369.80
484.46	433.00
484.64	404.91
484.82	454.06
485.00	428.32
485.18	376.83
485.35	418.96
485.53	465.77
485.71	383.85
485.89	379.17
486.07	442.36
486.25	477.47
486.43	428.32
486.61	416.62
486.78	339.38
486.96	414.27
487.14	425.98
487.32	433.00
487.50	421.30
487.68	444.70
487.85	318.31
488.03	372.15
488.21	418.96
488.39	355.76
488.57	402.57
488.75	397.89
488.92	519.60
489.10	402.57
489.28	423.64
489.46	449.38
489.64	440.02
489.81	383.85
489.99	472.79
490.17	393.21
490.35	423.64
490.53	390.87
490.70	444.70
490.88	479.81
491.06	318.31
491.24	447.04
491.41	479.81
491.59	430.66
491.77	437.68
491.95	376.83
492.13	500.87
492.30	421.30
492.48	449.38
492.66	355.76
492.84	411.93
493.01	411.93
493.19	442.36
493.37	482.15
493.54	393.21
493.72	451.72
493.90	367.46
494.08	425.98
494.25	423.64
494.43	383.85
494.61	400.23
494.79	362.78
494.96	383.85
495.14	386.19
495.32	360.44
495.49	414.27
495.67	400.23
495.85	437.68
496.02	458.74
496.20	442.36
496.38	456.40
496.55	444.70
496.73	362.78
496.91	437.68
497.09	477.47
497.26	395.55
497.44	409.59
497.62	456.40
497.79	409.59
497.97	402.57
498.14	400.23
498.32	390.87
498.50	418.96
498.67	407.25
498.85	418.96
499.03	397.89
499.20	451.72
499.38	416.62
499.56	514.92
499.73	482.15
499.91	322.99
500.08	381.51
500.26	484.49
500.44	418.96
500.61	390.87
500.79	454.06
500.97	430.66
501.14	510.24
501.32	456.40
501.49	503.22
501.67	475.13
501.84	423.64
502.02	393.21
502.20	397.89
502.37	393.21
502.55	374.49
502.72	456.40
502.90	437.68
503.07	409.59
503.25	423.64
503.43	421.30
503.60	379.17
503.78	463.43
503.95	423.64
504.13	365.12
504.30	463.43
504.48	418.96
504.65	484.49
504.83	437.68
505.01	390.87
505.18	465.77
505.36	400.23
505.53	400.23
505.71	341.72
505.88	407.25
506.06	425.98
506.23	365.12
506.41	437.68
506.58	355.76
506.76	400.23
506.93	425.98
507.11	383.85
507.28	416.62
507.46	416.62
507.63	393.21
507.81	479.81
507.98	318.31
508.16	440.02
508.33	442.36
508.50	416.62
508.68	524.28
508.85	414.27
509.03	435.34
509.20	407.25
509.38	404.91
509.55	451.72
509.73	442.36
509.90	407.25
510.08	393.21
510.25	472.79
510.42	369.80
510.60	390.87
510.77	400.23
510.95	484.49
511.12	425.98
511.30	360.44
511.47	369.80
511.64	430.66
511.82	416.62
511.99	374.49
512.17	386.19
512.34	404.91
512.51	388.53
512.69	414.27
512.86	461.09
513.04	423.64
513.21	444.70
513.38	411.93
513.56	433.00
513.73	374.49
513.90	327.68
514.08	430.66
514.25	444.70
514.43	423.64
514.60	402.57
514.77	423.64
514.95	470.45
515.12	433.00
515.29	468.11
515.47	409.59
515.64	451.72
515.81	418.96
515.99	397.89
516.16	386.19
516.33	465.77
516.51	390.87
516.68	376.83
516.85	414.27
517.03	482.15
517.20	430.66
517.37	421.30
517.54	430.66
517.72	435.34
517.89	339.38
518.06	404.91
518.24	491.51
518.41	409.59
518.58	376.83
518.75	379.17
518.93	440.02
519.10	411.93
519.27	360.44
519.45	461.09
519.62	386.19
519.79	402.57
519.96	379.17
520.14	482.15
520.31	444.70
520.48	367.46
520.65	451.72
520.83	435.34
521.00	390.87
521.17	444.70
521.34	407.25
521.52	435.34
521.69	374.49
521.86	416.62
522.03	400.23
522.20	397.89
522.38	458.74
522.55	397.89
522.72	447.04
522.89	456.40
523.07	447.04
523.24	423.64
523.41	454.06
523.58	416.62
523.75	388.53
523.92	444.70
524.10	400.23
524.27	435.34
524.44	393.21
524.61	428.32
524.78	444.70
524.96	390.87
525.13	447.04
525.30	451.72
525.47	400.23
525.64	418.96
525.81	414.27
525.98	437.68
526.16	461.09
526.33	442.36
526.50	440.02
526.67	442.36
526.84	418.96
527.01	393.21
527.18	397.89
527.36	421.30
527.53	437.68
527.70	372.15
527.87	407.25
528.04	444.70
528.21	400.23
528.38	440.02
528.55	376.83
528.72	400.23
528.89	449.38
529.07	404.91
529.24	430.66
529.41	533.64
529.58	468.11
529.75	383.85
529.92	409.59
530.09	423.64
530.26	484.49
530.43	390.87
530.60	407.25
530.77	454.06
530.94	404.91
531.11	397.89
531.28	411.93
531.46	383.85
531.63	369.80
531.80	440.02
531.97	440.02
532.14	458.74
532.31	435.34
532.48	369.80
532.65	421.30
532.82	404.91
532.99	475.13
533.16	451.72
533.33	414.27
533.50	423.64
533.67	423.64
533.84	407.25
534.01	421.30
534.18	458.74
534.35	423.64
534.52	470.45
534.69	425.98
534.86	411.93
535.03	503.22
535.20	383.85
535.37	435.34
535.54	425.98
535.71	379.17
535.88	372.15
536.05	353.42
536.22	407.25
536.38	411.93
536.55	341.72
536.72	475.13
536.89	430.66
537.06	510.24
537.23	411.93
537.40	358.10
537.57	409.59
537.74	430.66
537.91	440.02
538.08	407.25
538.25	421.30
538.42	479.81
538.59	390.87
538.75	416.62
538.92	482.15
539.09	447.04
539.26	404.91
539.43	463.43
539.60	430.66
539.77	472.79
539.94	411.93
540.11	379.17
540.28	379.17
540.44	454.06
540.61	484.49
540.78	383.85
540.95	430.66
541.12	428.32
541.29	374.49
541.46	425.98
541.62	425.98
541.79	376.83
541.96	404.91
542.13	468.11
542.30	372.15
542.47	440.02
542.63	369.80
542.80	472.79
542.97	428.32
543.14	423.64
543.31	404.91
543.48	423.64
543.64	440.02
543.81	465.77
543.98	451.72
544.15	430.66
544.32	444.70
544.48	362.78
544.65	425.98
544.82	449.38
544.99	395.55
545.16	421.30
545.32	423.64
545.49	437.68
545.66	472.79
545.83	367.46
546.00	465.77
546.16	397.89
546.33	411.93
546.50	404.91
546.67	411.93
546.83	425.98
547.00	390.87
547.17	348.74
547.34	407.25
547.50	388.53
547.67	390.87
547.84	411.93
548.00	433.00
548.17	442.36
548.34	395.55
548.51	477.47
548.67	456.40
548.84	404.91
549.01	449.38
549.18	407.25
549.34	416.62
549.51	407.25
549.68	416.62
549.84	433.00
550.01	367.46
550.18	496.19
550.34	444.70
550.51	493.85
550.68	463.43
550.84	393.21
551.01	386.19
551.18	414.27
551.34	470.45
551.51	374.49
551.68	402.57
551.84	411.93
552.01	475.13
552.18	430.66
552.34	454.06
552.51	379.17
552.68	416.62
552.84	381.51
553.01	416.62
553.18	444.70
553.34	397.89
553.51	393.21
553.67	430.66
553.84	470.45
554.01	416.62
554.17	447.04
554.34	433.00
554.51	397.89
554.67	437.68
554.84	449.38
555.00	461.09
555.17	414.27
555.33	360.44
555.50	521.94
555.67	388.53
555.83	381.51
556.00	418.96
556.16	528.96
556.33	400.23
556.50	388.53
556.66	449.38
556.83	428.32
556.99	397.89
557.16	402.57
557.32	456.40
557.49	437.68
557.65	468.11
557.82	402.57
557.98	440.02
558.15	430.66
558.32	407.25
558.48	418.96
558.65	491.51
558.81	386.19
558.98	437.68
559.14	367.46
559.31	416.62
559.47	409.59
559.64	444.70
559.80	404.91
559.97	381.51
560.13	390.87
560.30	346.40
560.46	388.53
560.63	402.57
560.79	381.51
560.96	418.96
561.12	409.59
561.29	390.87
561.45	400.23
561.61	407.25
561.78	482.15
561.94	414.27
562.11	411.93
562.27	433.00
562.44	390.87
562.60	407.25
562.77	463.43
562.93	477.47
563.10	430.66
563.26	404.91
563.42	374.49
563.59	447.04
563.75	360.44
563.92	479.81
564.08	355.76
564.24	383.85
564.41	484.49
564.57	395.55
564.74	404.91
564.90	327.68
565.07	461.09
565.23	372.15
565.39	449.38
565.56	442.36
565.72	348.74
565.88	428.32
566.05	397.89
566.21	404.91
566.38	442.36
566.54	397.89
566.70	376.83
566.87	362.78
567.03	409.59
567.19	454.06
567.36	393.21
567.52	437.68
567.68	411.93
567.85	428.32
568.01	404.91
568.17	550.03
568.34	400.23
568.50	433.00
568.66	360.44
568.83	458.74
568.99	449.38
569.15	386.19
569.32	447.04
569.48	433.00
569.64	379.17
569.81	400.23
569.97	383.85
570.13	444.70
570.30	421.30
570.46	404.91
570.62	423.64
570.78	402.57
570.95	393.21
571.11	461.09
571.27	470.45
571.43	435.34
571.60	353.42
571.76	414.27
571.92	402.57
572.09	484.49
572.25	479.81
572.41	376.83
572.57	444.70
572.74	461.09
572.90	461.09
573.06	334.70
573.22	416.62
573.38	425.98
573.55	440.02
573.71	465.77
573.87	465.77
574.03	414.27
574.20	437.68
574.36	489.17
574.52	437.68
574.68	383.85
574.84	454.06
575.01	461.09
575.17	447.04
575.33	456.40
575.49	479.81
575.65	402.57
575.82	367.46
575.98	383.85
576.14	358.10
576.30	458.74
576.46	379.17
576.62	411.93
576.79	400.23
576.95	449.38
577.11	374.49
577.27	404.91
577.43	381.51
577.59	456.40
577.75	458.74
577.92	379.17
578.08	383.85
578.24	381.51
578.40	437.68
578.56	496.19
578.72	484.49
578.88	437.68
579.04	393.21
579.21	444.70
579.37	470.45
579.53	423.64
579.69	402.57
579.85	418.96
580.01	355.76
580.17	320.65
580.33	430.66
580.49	402.57
580.65	435.34
580.82	430.66
580.98	386.19
581.14	411.93
581.30	461.09
581.46	416.62
581.62	395.55
581.78	416.62
581.94	435.34
582.10	362.78
582.26	430.66
582.42	379.17
582.58	489.17
582.74	477.47
582.90	421.30
583.06	496.19
583.22	425.98
583.38	369.80
583.54	437.68
583.70	479.81
583.86	428.32
584.02	416.62
584.18	402.57
584.34	463.43
584.50	472.79
584.66	395.55
584.82	482.15
584.98	379.17
585.14	423.64
585.30	531.30
585.46	402.57
585.62	447.04
585.78	482.15
585.94	440.02
586.10	418.96
586.26	472.79
586.42	458.74
586.58	400.23
586.74	397.89
586.90	395.55
587.06	409.59
587.22	507.90
587.38	435.34
587.54	444.70
587.70	433.00
587.86	425.98
588.02	479.81
588.18	442.36
588.34	376.83
588.49	418.96
588.65	470.45
588.81	437.68
588.97	367.46
589.13	442.36
589.29	428.32
589.45	458.74
589.61	390.87
589.77	444.70
589.93	365.12
590.08	442.36
590.24	379.17
590.40	451.72
590.56	444.70
590.72	430.66
590.88	379.17
591.04	421.30
591.20	435.34
591.35	418.96
591.51	414.27
591.67	402.57
591.83	386.19
591.99	362.78
592.15	482.15
592.31	414.27
592.46	444.70
592.62	435.34
592.78	442.36
592.94	449.38
593.10	360.44
593.26	418.96
593.41	416.62
593.57	472.79
593.73	379.17
593.89	470.45
594.05	442.36
594.20	395.55
594.36	437.68
594.52	362.78
594.68	369.80
594.84	461.09
594.99	433.00
595.15	421.30
595.31	397.89
595.47	484.49
595.62	402.57
595.78	397.89
595.94	449.38
596.10	428.32
596.25	428.32
596.41	493.85
596.57	416.62
596.73	430.66
596.88	484.49
597.04	404.91
597.20	400.23
597.36	425.98
597.51	482.15
597.67	477.47
597.83	402.57
597.99	409.59
598.14	425.98
598.30	465.77
598.46	416.62
598.61	442.36
598.77	414.27
598.93	428.32
599.09	463.43
599.24	451.72
599.40	421.30
599.56	433.00
599.71	423.64
599.87	444.70
600.03	386.19
600.18	411.93
600.34	451.72
600.50	416.62
600.65	470.45
600.81	393.21
600.97	355.76
601.12	451.72
601.28	468.11
601.44	437.68
601.59	393.21
601.75	395.55
601.91	404.91
602.06	388.53
602.22	491.51
602.37	402.57
602.53	327.68
602.69	484.49
602.84	409.59
603.00	440.02
603.16	447.04
603.31	400.23
603.47	433.00
603.62	407.25
603.78	381.51
603.94	425.98
604.09	383.85
604.25	472.79
604.40	421.30
604.56	327.68
604.71	379.17
604.87	440.02
605.03	461.09
605.18	416.62
605.34	430.66
605.49	404.91
605.65	421.30
605.80	315.97
605.96	369.80
606.12	372.15
606.27	458.74
606.43	372.15
606.58	393.21
606.74	433.00
606.89	376.83
607.05	346.40
607.20	397.89
607.36	386.19
607.51	381.51
607.67	435.34
607.82	468.11
607.98	379.17
608.13	470.45
608.29	395.55
608.44	458.74
608.60	414.27
608.75	407.25
608.91	388.53
609.06	425.98
609.22	435.34
609.37	404.91
609.53	404.91
609.68	351.08
609.84	435.34
609.99	379.17
610.15	421.30
