SpectraSuite Data File
++++++++++++++++++++++++++++++++++++
Date: Fri Oct 25 12:11:13 EDT 2013
User: price-jones
Dark Spectrum Present: No
Reference Spectrum Present: No
Number of Sampled Component Spectra: 1
Spectrometers: USB2+H05261
Integration Time (usec): 100000 (USB2+H05261)
Spectra Averaged: 1 (USB2+H05261)
Boxcar Smoothing: 0 (USB2+H05261)
Correct for Electrical Dark: No (USB2+H05261)
Strobe/Lamp Enabled: No (USB2+H05261)
Correct for Detector Non-linearity: No (USB2+H05261)
Correct for Stray Light: No (USB2+H05261)
Number of Pixels in Processed Spectrum: 2048
>>>>>Begin Processed Spectral Data<<<<<
365.73	308.95
365.92	308.95
366.12	308.95
366.32	245.76
366.52	163.84
366.72	262.14
366.91	294.91
367.11	290.23
367.31	271.50
367.51	180.22
367.70	273.84
367.90	301.93
368.10	285.55
368.30	243.42
368.49	255.12
368.69	262.14
368.89	252.78
369.09	294.91
369.28	276.18
369.48	278.52
369.68	301.93
369.87	348.74
370.07	332.36
370.27	318.31
370.47	400.23
370.66	294.91
370.86	348.74
371.06	381.51
371.25	498.53
371.45	311.29
371.65	360.44
371.84	449.38
372.04	388.53
372.24	344.06
372.44	386.19
372.63	386.19
372.83	390.87
373.03	381.51
373.22	390.87
373.42	388.53
373.62	472.79
373.81	451.72
374.01	435.34
374.21	402.57
374.40	416.62
374.60	533.64
374.79	425.98
374.99	418.96
375.19	421.30
375.38	449.38
375.58	414.27
375.78	409.59
375.97	435.34
376.17	489.17
376.37	409.59
376.56	454.06
376.76	454.06
376.95	395.55
377.15	416.62
377.35	397.89
377.54	393.21
377.74	463.43
377.93	423.64
378.13	437.68
378.33	376.83
378.52	430.66
378.72	407.25
378.91	332.36
379.11	325.33
379.31	428.32
379.50	484.49
379.70	472.79
379.89	376.83
380.09	402.57
380.28	409.59
380.48	395.55
380.68	376.83
380.87	400.23
381.07	369.80
381.26	374.49
381.46	397.89
381.65	437.68
381.85	409.59
382.04	383.85
382.24	369.80
382.43	397.89
382.63	374.49
382.83	344.06
383.02	358.10
383.22	365.12
383.41	404.91
383.61	379.17
383.80	451.72
384.00	449.38
384.19	430.66
384.39	374.49
384.58	423.64
384.78	393.21
384.97	386.19
385.17	428.32
385.36	437.68
385.56	409.59
385.75	411.93
385.95	393.21
386.14	484.49
386.34	404.91
386.53	411.93
386.72	418.96
386.92	404.91
387.11	369.80
387.31	379.17
387.50	404.91
387.70	393.21
387.89	400.23
388.09	388.53
388.28	379.17
388.48	360.44
388.67	428.32
388.86	437.68
389.06	393.21
389.25	386.19
389.45	437.68
389.64	440.02
389.84	404.91
390.03	409.59
390.22	388.53
390.42	358.10
390.61	428.32
390.81	421.30
391.00	440.02
391.19	433.00
391.39	418.96
391.58	475.13
391.78	449.38
391.97	493.85
392.16	388.53
392.36	442.36
392.55	395.55
392.75	409.59
392.94	346.40
393.13	475.13
393.33	435.34
393.52	383.85
393.71	454.06
393.91	397.89
394.10	393.21
394.29	393.21
394.49	437.68
394.68	421.30
394.88	463.43
395.07	437.68
395.26	388.53
395.46	404.91
395.65	428.32
395.84	362.78
396.04	486.83
396.23	421.30
396.42	388.53
396.62	430.66
396.81	383.85
397.00	334.70
397.19	360.44
397.39	472.79
397.58	374.49
397.77	454.06
397.97	444.70
398.16	423.64
398.35	379.17
398.55	339.38
398.74	393.21
398.93	440.02
399.12	383.85
399.32	351.08
399.51	442.36
399.70	472.79
399.90	348.74
400.09	383.85
400.28	477.47
400.47	369.80
400.67	397.89
400.86	456.40
401.05	402.57
401.24	468.11
401.44	362.78
401.63	437.68
401.82	430.66
402.01	407.25
402.21	433.00
402.40	428.32
402.59	470.45
402.78	421.30
402.97	379.17
403.17	444.70
403.36	411.93
403.55	332.36
403.74	418.96
403.93	348.74
404.13	477.47
404.32	376.83
404.51	400.23
404.70	411.93
404.89	386.19
405.09	496.19
405.28	379.17
405.47	435.34
405.66	414.27
405.85	428.32
406.05	421.30
406.24	388.53
406.43	411.93
406.62	423.64
406.81	463.43
407.00	365.12
407.20	437.68
407.39	458.74
407.58	430.66
407.77	449.38
407.96	362.78
408.15	383.85
408.34	444.70
408.54	393.21
408.73	376.83
408.92	409.59
409.11	428.32
409.30	423.64
409.49	407.25
409.68	374.49
409.87	430.66
410.07	393.21
410.26	465.77
410.45	510.24
410.64	358.10
410.83	362.78
411.02	411.93
411.21	379.17
411.40	449.38
411.59	386.19
411.78	468.11
411.98	374.49
412.17	379.17
412.36	449.38
412.55	416.62
412.74	470.45
412.93	390.87
413.12	416.62
413.31	416.62
413.50	428.32
413.69	383.85
413.88	437.68
414.07	397.89
414.26	416.62
414.45	397.89
414.64	379.17
414.83	407.25
415.02	395.55
415.22	400.23
415.41	409.59
415.60	395.55
415.79	407.25
415.98	409.59
416.17	409.59
416.36	379.17
416.55	409.59
416.74	386.19
416.93	402.57
417.12	358.10
417.31	395.55
417.50	404.91
417.69	440.02
417.88	414.27
418.07	395.55
418.26	416.62
418.45	442.36
418.64	463.43
418.83	383.85
419.02	407.25
419.21	433.00
419.39	376.83
419.58	353.42
419.77	400.23
419.96	411.93
420.15	449.38
420.34	421.30
420.53	430.66
420.72	428.32
420.91	454.06
421.10	447.04
421.29	386.19
421.48	407.25
421.67	435.34
421.86	458.74
422.05	414.27
422.24	372.15
422.43	430.66
422.61	444.70
422.80	379.17
422.99	468.11
423.18	383.85
423.37	425.98
423.56	407.25
423.75	468.11
423.94	437.68
424.13	447.04
424.32	400.23
424.50	381.51
424.69	440.02
424.88	367.46
425.07	449.38
425.26	416.62
425.45	383.85
425.64	341.72
425.83	454.06
426.01	456.40
426.20	421.30
426.39	365.12
426.58	369.80
426.77	449.38
426.96	416.62
427.15	428.32
427.33	376.83
427.52	365.12
427.71	390.87
427.90	400.23
428.09	447.04
428.28	461.09
428.46	472.79
428.65	489.17
428.84	393.21
429.03	456.40
429.22	390.87
429.40	367.46
429.59	339.38
429.78	447.04
429.97	407.25
430.16	435.34
430.34	440.02
430.53	479.81
430.72	421.30
430.91	430.66
431.10	425.98
431.28	337.04
431.47	421.30
431.66	444.70
431.85	379.17
432.03	372.15
432.22	416.62
432.41	393.21
432.60	393.21
432.79	365.12
432.97	437.68
433.16	454.06
433.35	367.46
433.54	454.06
433.72	449.38
433.91	451.72
434.10	353.42
434.28	355.76
434.47	418.96
434.66	425.98
434.85	425.98
435.03	437.68
435.22	472.79
435.41	423.64
435.59	472.79
435.78	400.23
435.97	421.30
436.16	407.25
436.34	376.83
436.53	421.30
436.72	369.80
436.90	465.77
437.09	372.15
437.28	393.21
437.46	395.55
437.65	400.23
437.84	409.59
438.02	414.27
438.21	454.06
438.40	491.51
438.58	388.53
438.77	395.55
438.96	461.09
439.14	381.51
439.33	435.34
439.52	414.27
439.70	337.04
439.89	451.72
440.08	458.74
440.26	451.72
440.45	381.51
440.63	341.72
440.82	390.87
441.01	346.40
441.19	386.19
441.38	383.85
441.57	397.89
441.75	421.30
441.94	447.04
442.12	393.21
442.31	440.02
442.50	409.59
442.68	369.80
442.87	376.83
443.05	400.23
443.24	390.87
443.43	416.62
443.61	484.49
443.80	355.76
443.98	435.34
444.17	395.55
444.35	390.87
444.54	386.19
444.73	395.55
444.91	435.34
445.10	388.53
445.28	383.85
445.47	400.23
445.65	365.12
445.84	372.15
446.02	400.23
446.21	362.78
446.39	524.28
446.58	465.77
446.77	358.10
446.95	395.55
447.14	463.43
447.32	507.90
447.51	409.59
447.69	447.04
447.88	383.85
448.06	458.74
448.25	404.91
448.43	379.17
448.62	447.04
448.80	374.49
448.99	444.70
449.17	456.40
449.36	465.77
449.54	440.02
449.73	407.25
449.91	528.96
450.10	355.76
450.28	416.62
450.46	440.02
450.65	447.04
450.83	482.15
451.02	388.53
451.20	390.87
451.39	418.96
451.57	442.36
451.76	435.34
451.94	402.57
452.13	425.98
452.31	428.32
452.49	454.06
452.68	433.00
452.86	458.74
453.05	421.30
453.23	390.87
453.42	383.85
453.60	430.66
453.78	404.91
453.97	358.10
454.15	332.36
454.34	430.66
454.52	433.00
454.70	505.56
454.89	496.19
455.07	414.27
455.26	484.49
455.44	505.56
455.62	407.25
455.81	425.98
455.99	425.98
456.17	468.11
456.36	437.68
456.54	411.93
456.73	444.70
456.91	369.80
457.09	397.89
457.28	388.53
457.46	507.90
457.64	423.64
457.83	386.19
458.01	440.02
458.19	416.62
458.38	425.98
458.56	449.38
458.74	386.19
458.93	374.49
459.11	463.43
459.29	397.89
459.48	472.79
459.66	463.43
459.84	423.64
460.03	421.30
460.21	440.02
460.39	397.89
460.57	388.53
460.76	397.89
460.94	407.25
461.12	433.00
461.31	482.15
461.49	440.02
461.67	365.12
461.85	409.59
462.04	397.89
462.22	746.63
462.40	454.06
462.59	472.79
462.77	346.40
462.95	416.62
463.13	442.36
463.32	440.02
463.50	510.24
463.68	428.32
463.86	379.17
464.05	449.38
464.23	521.94
464.41	454.06
464.59	442.36
464.78	421.30
464.96	440.02
465.14	388.53
465.32	444.70
465.50	358.10
465.69	381.51
465.87	423.64
466.05	449.38
466.23	386.19
466.41	407.25
466.60	397.89
466.78	395.55
466.96	421.30
467.14	442.36
467.32	475.13
467.51	416.62
467.69	454.06
467.87	442.36
468.05	404.91
468.23	447.04
468.41	383.85
468.60	381.51
468.78	437.68
468.96	411.93
469.14	444.70
469.32	451.72
469.50	374.49
469.69	351.08
469.87	440.02
470.05	437.68
470.23	423.64
470.41	369.80
470.59	388.53
470.77	440.02
470.95	449.38
471.14	470.45
471.32	456.40
471.50	402.57
471.68	383.85
471.86	437.68
472.04	362.78
472.22	393.21
472.40	393.21
472.58	470.45
472.77	421.30
472.95	425.98
473.13	514.92
473.31	458.74
473.49	421.30
473.67	442.36
473.85	475.13
474.03	435.34
474.21	390.87
474.39	437.68
474.57	463.43
474.75	397.89
474.93	433.00
475.12	409.59
475.30	379.17
475.48	458.74
475.66	442.36
475.84	402.57
476.02	416.62
476.20	458.74
476.38	454.06
476.56	440.02
476.74	390.87
476.92	414.27
477.10	430.66
477.28	437.68
477.46	458.74
477.64	444.70
477.82	344.06
478.00	449.38
478.18	404.91
478.36	404.91
478.54	461.09
478.72	365.12
478.90	454.06
479.08	404.91
479.26	414.27
479.44	404.91
479.62	435.34
479.80	395.55
479.98	367.46
480.16	383.85
480.34	437.68
480.52	400.23
480.70	365.12
480.88	381.51
481.06	395.55
481.24	344.06
481.41	440.02
481.59	437.68
481.77	475.13
481.95	449.38
482.13	421.30
482.31	437.68
482.49	409.59
482.67	449.38
482.85	390.87
483.03	416.62
483.21	365.12
483.39	395.55
483.57	416.62
483.74	411.93
483.92	433.00
484.10	428.32
484.28	468.11
484.46	517.26
484.64	395.55
484.82	395.55
485.00	383.85
485.18	379.17
485.35	477.47
485.53	416.62
485.71	421.30
485.89	456.40
486.07	423.64
486.25	477.47
486.43	397.89
486.61	470.45
486.78	388.53
486.96	449.38
487.14	465.77
487.32	386.19
487.50	451.72
487.68	376.83
487.85	437.68
488.03	367.46
488.21	425.98
488.39	393.21
488.57	409.59
488.75	437.68
488.92	498.53
489.10	430.66
489.28	451.72
489.46	442.36
489.64	423.64
489.81	379.17
489.99	421.30
490.17	425.98
490.35	423.64
490.53	449.38
490.70	468.11
490.88	435.34
491.06	315.97
491.24	479.81
491.41	470.45
491.59	442.36
491.77	435.34
491.95	383.85
492.13	400.23
492.30	383.85
492.48	369.80
492.66	393.21
492.84	409.59
493.01	421.30
493.19	416.62
493.37	456.40
493.54	416.62
493.72	458.74
493.90	418.96
494.08	381.51
494.25	411.93
494.43	428.32
494.61	477.47
494.79	383.85
494.96	468.11
495.14	454.06
495.32	369.80
495.49	425.98
495.67	381.51
495.85	372.15
496.02	365.12
496.20	395.55
496.38	447.04
496.55	411.93
496.73	409.59
496.91	416.62
497.09	463.43
497.26	451.72
497.44	358.10
497.62	411.93
497.79	386.19
497.97	423.64
498.14	451.72
498.32	421.30
498.50	395.55
498.67	435.34
498.85	428.32
499.03	430.66
499.20	433.00
499.38	416.62
499.56	430.66
499.73	538.32
499.91	374.49
500.08	369.80
500.26	367.46
500.44	376.83
500.61	376.83
500.79	367.46
500.97	362.78
501.14	423.64
501.32	430.66
501.49	423.64
501.67	430.66
501.84	454.06
502.02	414.27
502.20	447.04
502.37	376.83
502.55	437.68
502.72	409.59
502.90	477.47
503.07	409.59
503.25	421.30
503.43	362.78
503.60	414.27
503.78	407.25
503.95	409.59
504.13	397.89
504.30	454.06
504.48	425.98
504.65	449.38
504.83	456.40
505.01	407.25
505.18	327.68
505.36	416.62
505.53	437.68
505.71	425.98
505.88	430.66
506.06	397.89
506.23	463.43
506.41	390.87
506.58	365.12
506.76	451.72
506.93	383.85
507.11	376.83
507.28	404.91
507.46	491.51
507.63	430.66
507.81	461.09
507.98	440.02
508.16	376.83
508.33	367.46
508.50	477.47
508.68	407.25
508.85	428.32
509.03	372.15
509.20	402.57
509.38	402.57
509.55	512.58
509.73	456.40
509.90	477.47
510.08	386.19
510.25	381.51
510.42	353.42
510.60	416.62
510.77	454.06
510.95	486.83
511.12	421.30
511.30	421.30
511.47	465.77
511.64	442.36
511.82	393.21
511.99	456.40
512.17	360.44
512.34	337.04
512.51	353.42
512.69	376.83
512.86	430.66
513.04	360.44
513.21	376.83
513.38	430.66
513.56	416.62
513.73	435.34
513.90	411.93
514.08	507.90
514.25	418.96
514.43	362.78
514.60	409.59
514.77	402.57
514.95	367.46
515.12	400.23
515.29	416.62
515.47	418.96
515.64	456.40
515.81	402.57
515.99	451.72
516.16	409.59
516.33	496.19
516.51	423.64
516.68	421.30
516.85	444.70
517.03	428.32
517.20	435.34
517.37	404.91
517.54	386.19
517.72	423.64
517.89	409.59
518.06	402.57
518.24	461.09
518.41	461.09
518.58	437.68
518.75	475.13
518.93	418.96
519.10	423.64
519.27	390.87
519.45	402.57
519.62	397.89
519.79	472.79
519.96	411.93
520.14	388.53
520.31	465.77
520.48	379.17
520.65	374.49
520.83	411.93
521.00	421.30
521.17	402.57
521.34	346.40
521.52	334.70
521.69	407.25
521.86	390.87
522.03	393.21
522.20	447.04
522.38	416.62
522.55	395.55
522.72	456.40
522.89	526.62
523.07	416.62
523.24	440.02
523.41	386.19
523.58	388.53
523.75	411.93
523.92	362.78
524.10	397.89
524.27	404.91
524.44	379.17
524.61	482.15
524.78	411.93
524.96	435.34
525.13	376.83
525.30	428.32
525.47	379.17
525.64	472.79
525.81	475.13
525.98	440.02
526.16	404.91
526.33	440.02
526.50	477.47
526.67	447.04
526.84	500.87
527.01	390.87
527.18	390.87
527.36	409.59
527.53	414.27
527.70	479.81
527.87	397.89
528.04	543.00
528.21	440.02
528.38	435.34
528.55	421.30
528.72	437.68
528.89	416.62
529.07	428.32
529.24	414.27
529.41	433.00
529.58	437.68
529.75	440.02
529.92	454.06
530.09	486.83
530.26	369.80
530.43	433.00
530.60	404.91
530.77	421.30
530.94	390.87
531.11	372.15
531.28	430.66
531.46	407.25
531.63	341.72
531.80	447.04
531.97	428.32
532.14	351.08
532.31	505.56
532.48	414.27
532.65	383.85
532.82	402.57
532.99	390.87
533.16	416.62
533.33	447.04
533.50	400.23
533.67	463.43
533.84	433.00
534.01	395.55
534.18	447.04
534.35	489.17
534.52	442.36
534.69	372.15
534.86	430.66
535.03	409.59
535.20	383.85
535.37	393.21
535.54	365.12
535.71	416.62
535.88	475.13
536.05	430.66
536.22	395.55
536.38	374.49
536.55	468.11
536.72	430.66
536.89	369.80
537.06	402.57
537.23	332.36
537.40	372.15
537.57	454.06
537.74	528.96
537.91	348.74
538.08	407.25
538.25	428.32
538.42	433.00
538.59	393.21
538.75	395.55
538.92	393.21
539.09	409.59
539.26	402.57
539.43	458.74
539.60	388.53
539.77	402.57
539.94	411.93
540.11	416.62
540.28	402.57
540.44	444.70
540.61	388.53
540.78	409.59
540.95	425.98
541.12	451.72
541.29	416.62
541.46	425.98
541.62	447.04
541.79	397.89
541.96	458.74
542.13	376.83
542.30	451.72
542.47	397.89
542.63	395.55
542.80	428.32
542.97	458.74
543.14	369.80
543.31	433.00
543.48	355.76
543.64	379.17
543.81	379.17
543.98	395.55
544.15	416.62
544.32	409.59
544.48	297.25
544.65	440.02
544.82	414.27
544.99	418.96
545.16	423.64
545.32	454.06
545.49	390.87
545.66	454.06
545.83	444.70
546.00	437.68
546.16	353.42
546.33	425.98
546.50	465.77
546.67	428.32
546.83	428.32
547.00	421.30
547.17	337.04
547.34	433.00
547.50	404.91
547.67	442.36
547.84	435.34
548.00	388.53
548.17	489.17
548.34	404.91
548.51	423.64
548.67	381.51
548.84	456.40
549.01	433.00
549.18	400.23
549.34	400.23
549.51	437.68
549.68	440.02
549.84	388.53
550.01	444.70
550.18	447.04
550.34	409.59
550.51	449.38
550.68	472.79
550.84	454.06
551.01	337.04
551.18	510.24
551.34	416.62
551.51	470.45
551.68	402.57
551.84	451.72
552.01	388.53
552.18	440.02
552.34	423.64
552.51	447.04
552.68	465.77
552.84	465.77
553.01	468.11
553.18	456.40
553.34	425.98
553.51	393.21
553.67	355.76
553.84	510.24
554.01	423.64
554.17	407.25
554.34	444.70
554.51	397.89
554.67	428.32
554.84	386.19
555.00	447.04
555.17	454.06
555.33	397.89
555.50	442.36
555.67	465.77
555.83	400.23
556.00	381.51
556.16	580.45
556.33	407.25
556.50	379.17
556.66	461.09
556.83	451.72
556.99	454.06
557.16	409.59
557.32	402.57
557.49	433.00
557.65	418.96
557.82	374.49
557.98	461.09
558.15	383.85
558.32	440.02
558.48	423.64
558.65	369.80
558.81	472.79
558.98	386.19
559.14	456.40
559.31	423.64
559.47	442.36
559.64	409.59
559.80	339.38
559.97	379.17
560.13	433.00
560.30	465.77
560.46	362.78
560.63	470.45
560.79	388.53
560.96	395.55
561.12	409.59
561.29	465.77
561.45	437.68
561.61	451.72
561.78	475.13
561.94	397.89
562.11	416.62
562.27	484.49
562.44	489.17
562.60	423.64
562.77	386.19
562.93	470.45
563.10	475.13
563.26	407.25
563.42	337.04
563.59	421.30
563.75	440.02
563.92	428.32
564.08	442.36
564.24	435.34
564.41	491.51
564.57	395.55
564.74	433.00
564.90	397.89
565.07	383.85
565.23	437.68
565.39	376.83
565.56	407.25
565.72	393.21
565.88	423.64
566.05	458.74
566.21	416.62
566.38	435.34
566.54	430.66
566.70	407.25
566.87	376.83
567.03	425.98
567.19	425.98
567.36	416.62
567.52	397.89
567.68	411.93
567.85	440.02
568.01	390.87
568.17	402.57
568.34	430.66
568.50	482.15
568.66	400.23
568.83	463.43
568.99	433.00
569.15	498.53
569.32	362.78
569.48	416.62
569.64	388.53
569.81	404.91
569.97	444.70
570.13	479.81
570.30	461.09
570.46	383.85
570.62	433.00
570.78	395.55
570.95	482.15
571.11	404.91
571.27	550.03
571.43	444.70
571.60	423.64
571.76	454.06
571.92	440.02
572.09	407.25
572.25	386.19
572.41	367.46
572.57	325.33
572.74	430.66
572.90	430.66
573.06	440.02
573.22	430.66
573.38	402.57
573.55	437.68
573.71	472.79
573.87	479.81
574.03	400.23
574.20	425.98
574.36	465.77
574.52	463.43
574.68	477.47
574.84	411.93
575.01	430.66
575.17	425.98
575.33	421.30
575.49	390.87
575.65	395.55
575.82	461.09
575.98	479.81
576.14	388.53
576.30	498.53
576.46	437.68
576.62	472.79
576.79	372.15
576.95	360.44
577.11	390.87
577.27	489.17
577.43	428.32
577.59	353.42
577.75	440.02
577.92	414.27
578.08	358.10
578.24	397.89
578.40	372.15
578.56	475.13
578.72	428.32
578.88	444.70
579.04	433.00
579.21	397.89
579.37	463.43
579.53	479.81
579.69	397.89
579.85	355.76
580.01	414.27
580.17	327.68
580.33	386.19
580.49	449.38
580.65	456.40
580.82	313.63
580.98	395.55
581.14	503.22
581.30	477.47
581.46	442.36
581.62	383.85
581.78	416.62
581.94	404.91
582.10	341.72
582.26	433.00
582.42	383.85
582.58	397.89
582.74	376.83
582.90	451.72
583.06	479.81
583.22	355.76
583.38	425.98
583.54	442.36
583.70	493.85
583.86	388.53
584.02	435.34
584.18	440.02
584.34	386.19
584.50	435.34
584.66	416.62
584.82	456.40
584.98	428.32
585.14	360.44
585.30	397.89
585.46	407.25
585.62	367.46
585.78	421.30
585.94	428.32
586.10	428.32
586.26	404.91
586.42	479.81
586.58	447.04
586.74	376.83
586.90	444.70
587.06	461.09
587.22	414.27
587.38	348.74
587.54	458.74
587.70	440.02
587.86	376.83
588.02	423.64
588.18	503.22
588.34	430.66
588.49	362.78
588.65	372.15
588.81	388.53
588.97	418.96
589.13	383.85
589.29	447.04
589.45	397.89
589.61	407.25
589.77	479.81
589.93	355.76
590.08	447.04
590.24	428.32
590.40	383.85
590.56	386.19
590.72	456.40
590.88	442.36
591.04	491.51
591.20	381.51
591.35	395.55
591.51	440.02
591.67	400.23
591.83	409.59
591.99	332.36
592.15	425.98
592.31	386.19
592.46	425.98
592.62	421.30
592.78	449.38
592.94	428.32
593.10	423.64
593.26	390.87
593.41	409.59
593.57	400.23
593.73	407.25
593.89	468.11
594.05	383.85
594.20	521.94
594.36	400.23
594.52	393.21
594.68	379.17
594.84	376.83
594.99	402.57
595.15	449.38
595.31	477.47
595.47	463.43
595.62	440.02
595.78	402.57
595.94	418.96
596.10	500.87
596.25	463.43
596.41	407.25
596.57	425.98
596.73	433.00
596.88	381.51
597.04	411.93
597.20	372.15
597.36	425.98
597.51	395.55
597.67	416.62
597.83	390.87
597.99	383.85
598.14	404.91
598.30	470.45
598.46	416.62
598.61	444.70
598.77	498.53
598.93	397.89
599.09	367.46
599.24	423.64
599.40	461.09
599.56	372.15
599.71	440.02
599.87	454.06
600.03	437.68
600.18	440.02
600.34	468.11
600.50	430.66
600.65	386.19
600.81	461.09
600.97	463.43
601.12	409.59
601.28	430.66
601.44	409.59
601.59	393.21
601.75	388.53
601.91	339.38
602.06	404.91
602.22	528.96
602.37	435.34
602.53	414.27
602.69	362.78
602.84	390.87
603.00	449.38
603.16	416.62
603.31	402.57
603.47	372.15
603.62	369.80
603.78	437.68
603.94	395.55
604.09	330.02
604.25	409.59
604.40	449.38
604.56	362.78
604.71	465.77
604.87	397.89
605.03	430.66
605.18	397.89
605.34	416.62
605.49	414.27
605.65	390.87
605.80	407.25
605.96	355.76
606.12	479.81
606.27	444.70
606.43	388.53
606.58	437.68
606.74	411.93
606.89	512.58
607.05	381.51
607.20	411.93
607.36	374.49
607.51	418.96
607.67	376.83
607.82	404.91
607.98	393.21
608.13	447.04
608.29	456.40
608.44	414.27
608.60	470.45
608.75	514.92
608.91	411.93
609.06	442.36
609.22	442.36
609.37	395.55
609.53	454.06
609.68	416.62
609.84	404.91
609.99	407.25
610.15	409.59
