SpectraSuite Data File
++++++++++++++++++++++++++++++++++++
Date: Fri Oct 25 12:11:35 EDT 2013
User: price-jones
Dark Spectrum Present: No
Reference Spectrum Present: No
Number of Sampled Component Spectra: 1
Spectrometers: USB2+H05261
Integration Time (usec): 100000 (USB2+H05261)
Spectra Averaged: 1 (USB2+H05261)
Boxcar Smoothing: 0 (USB2+H05261)
Correct for Electrical Dark: No (USB2+H05261)
Strobe/Lamp Enabled: No (USB2+H05261)
Correct for Detector Non-linearity: No (USB2+H05261)
Correct for Stray Light: No (USB2+H05261)
Number of Pixels in Processed Spectrum: 2048
>>>>>Begin Processed Spectral Data<<<<<
365.73	330.02
365.92	330.02
366.12	330.02
366.32	252.78
366.52	220.01
366.72	339.38
366.91	210.65
367.11	259.80
367.31	276.18
367.51	224.69
367.70	243.42
367.90	215.33
368.10	212.99
368.30	182.56
368.49	224.69
368.69	304.27
368.89	238.73
369.09	238.73
369.28	241.08
369.48	241.08
369.68	266.82
369.87	299.59
370.07	276.18
370.27	280.86
370.47	339.38
370.66	465.77
370.86	367.46
371.06	409.59
371.25	339.38
371.45	376.83
371.65	369.80
371.84	404.91
372.04	362.78
372.24	404.91
372.44	360.44
372.63	414.27
372.83	395.55
373.03	365.12
373.22	369.80
373.42	409.59
373.62	369.80
373.81	444.70
374.01	440.02
374.21	418.96
374.40	367.46
374.60	465.77
374.79	395.55
374.99	355.76
375.19	468.11
375.38	388.53
375.58	355.76
375.78	390.87
375.97	428.32
376.17	430.66
376.37	440.02
376.56	386.19
376.76	322.99
376.95	409.59
377.15	367.46
377.35	376.83
377.54	416.62
377.74	465.77
377.93	447.04
378.13	447.04
378.33	402.57
378.52	337.04
378.72	376.83
378.91	416.62
379.11	337.04
379.31	379.17
379.50	421.30
379.70	395.55
379.89	454.06
380.09	416.62
380.28	418.96
380.48	372.15
380.68	365.12
380.87	393.21
381.07	421.30
381.26	409.59
381.46	407.25
381.65	477.47
381.85	402.57
382.04	454.06
382.24	430.66
382.43	383.85
382.63	383.85
382.83	400.23
383.02	395.55
383.22	390.87
383.41	442.36
383.61	400.23
383.80	348.74
384.00	395.55
384.19	442.36
384.39	435.34
384.58	407.25
384.78	404.91
384.97	414.27
385.17	468.11
385.36	351.08
385.56	425.98
385.75	411.93
385.95	416.62
386.14	449.38
386.34	383.85
386.53	407.25
386.72	444.70
386.92	409.59
387.11	379.17
387.31	423.64
387.50	402.57
387.70	381.51
387.89	414.27
388.09	444.70
388.28	390.87
388.48	447.04
388.67	451.72
388.86	353.42
389.06	388.53
389.25	369.80
389.45	404.91
389.64	381.51
389.84	433.00
390.03	397.89
390.22	442.36
390.42	454.06
390.61	367.46
390.81	430.66
391.00	409.59
391.19	430.66
391.39	402.57
391.58	369.80
391.78	425.98
391.97	451.72
392.16	362.78
392.36	383.85
392.55	449.38
392.75	358.10
392.94	433.00
393.13	407.25
393.33	447.04
393.52	390.87
393.71	435.34
393.91	400.23
394.10	505.56
394.29	393.21
394.49	416.62
394.68	451.72
394.88	433.00
395.07	433.00
395.26	360.44
395.46	437.68
395.65	369.80
395.84	339.38
396.04	468.11
396.23	388.53
396.42	379.17
396.62	442.36
396.81	449.38
397.00	435.34
397.19	376.83
397.39	358.10
397.58	423.64
397.77	435.34
397.97	404.91
398.16	365.12
398.35	388.53
398.55	388.53
398.74	341.72
398.93	454.06
399.12	458.74
399.32	418.96
399.51	339.38
399.70	351.08
399.90	355.76
400.09	409.59
400.28	423.64
400.47	395.55
400.67	425.98
400.86	407.25
401.05	397.89
401.24	421.30
401.44	437.68
401.63	437.68
401.82	496.19
402.01	283.20
402.21	383.85
402.40	409.59
402.59	365.12
402.78	496.19
402.97	447.04
403.17	421.30
403.36	484.49
403.55	400.23
403.74	381.51
403.93	433.00
404.13	435.34
404.32	404.91
404.51	325.33
404.70	486.83
404.89	390.87
405.09	454.06
405.28	390.87
405.47	344.06
405.66	416.62
405.85	444.70
406.05	332.36
406.24	351.08
406.43	414.27
406.62	444.70
406.81	430.66
407.00	379.17
407.20	372.15
407.39	374.49
407.58	381.51
407.77	433.00
407.96	428.32
408.15	411.93
408.34	484.49
408.54	418.96
408.73	468.11
408.92	407.25
409.11	409.59
409.30	353.42
409.49	454.06
409.68	423.64
409.87	402.57
410.07	479.81
410.26	503.22
410.45	374.49
410.64	411.93
410.83	320.65
411.02	414.27
411.21	425.98
411.40	465.77
411.59	367.46
411.78	369.80
411.98	418.96
412.17	388.53
412.36	463.43
412.55	416.62
412.74	376.83
412.93	416.62
413.12	423.64
413.31	442.36
413.50	395.55
413.69	402.57
413.88	411.93
414.07	355.76
414.26	449.38
414.45	388.53
414.64	383.85
414.83	461.09
415.02	360.44
415.22	395.55
415.41	423.64
415.60	313.63
415.79	458.74
415.98	390.87
416.17	423.64
416.36	409.59
416.55	454.06
416.74	428.32
416.93	416.62
417.12	369.80
417.31	372.15
417.50	447.04
417.69	465.77
417.88	404.91
418.07	397.89
418.26	479.81
418.45	397.89
418.64	475.13
418.83	433.00
419.02	430.66
419.21	355.76
419.39	428.32
419.58	409.59
419.77	379.17
419.96	397.89
420.15	397.89
420.34	447.04
420.53	454.06
420.72	430.66
420.91	414.27
421.10	402.57
421.29	440.02
421.48	372.15
421.67	339.38
421.86	355.76
422.05	365.12
422.24	341.72
422.43	362.78
422.61	374.49
422.80	383.85
422.99	388.53
423.18	381.51
423.37	461.09
423.56	444.70
423.75	414.27
423.94	449.38
424.13	334.70
424.32	388.53
424.50	388.53
424.69	369.80
424.88	493.85
425.07	306.61
425.26	409.59
425.45	369.80
425.64	409.59
425.83	440.02
426.01	411.93
426.20	425.98
426.39	369.80
426.58	374.49
426.77	416.62
426.96	463.43
427.15	447.04
427.33	372.15
427.52	358.10
427.71	435.34
427.90	367.46
428.09	440.02
428.28	400.23
428.46	414.27
428.65	449.38
428.84	397.89
429.03	444.70
429.22	421.30
429.40	430.66
429.59	390.87
429.78	418.96
429.97	390.87
430.16	409.59
430.34	435.34
430.53	346.40
430.72	437.68
430.91	423.64
431.10	397.89
431.28	440.02
431.47	395.55
431.66	388.53
431.85	358.10
432.03	447.04
432.22	479.81
432.41	468.11
432.60	418.96
432.79	407.25
432.97	407.25
433.16	433.00
433.35	383.85
433.54	381.51
433.72	414.27
433.91	433.00
434.10	437.68
434.28	383.85
434.47	409.59
434.66	381.51
434.85	411.93
435.03	416.62
435.22	456.40
435.41	470.45
435.59	463.43
435.78	433.00
435.97	374.49
436.16	440.02
436.34	386.19
436.53	449.38
436.72	358.10
436.90	528.96
437.09	451.72
437.28	425.98
437.46	344.06
437.65	411.93
437.84	383.85
438.02	402.57
438.21	423.64
438.40	379.17
438.58	393.21
438.77	362.78
438.96	355.76
439.14	383.85
439.33	416.62
439.52	386.19
439.70	425.98
439.89	442.36
440.08	407.25
440.26	388.53
440.45	482.15
440.63	409.59
440.82	433.00
441.01	435.34
441.19	435.34
441.38	433.00
441.57	482.15
441.75	437.68
441.94	386.19
442.12	369.80
442.31	376.83
442.50	360.44
442.68	330.02
442.87	442.36
443.05	428.32
443.24	451.72
443.43	381.51
443.61	437.68
443.80	454.06
443.98	407.25
444.17	360.44
444.35	388.53
444.54	423.64
444.73	379.17
444.91	482.15
445.10	362.78
445.28	395.55
445.47	442.36
445.65	383.85
445.84	444.70
446.02	428.32
446.21	381.51
446.39	402.57
446.58	404.91
446.77	341.72
446.95	400.23
447.14	395.55
447.32	407.25
447.51	367.46
447.69	372.15
447.88	411.93
448.06	437.68
448.25	414.27
448.43	411.93
448.62	407.25
448.80	404.91
448.99	451.72
449.17	386.19
449.36	468.11
449.54	400.23
449.73	468.11
449.91	367.46
450.10	390.87
450.28	482.15
450.46	498.53
450.65	390.87
450.83	423.64
451.02	400.23
451.20	477.47
451.39	376.83
451.57	437.68
451.76	425.98
451.94	388.53
452.13	500.87
452.31	451.72
452.49	430.66
452.68	456.40
452.86	390.87
453.05	468.11
453.23	435.34
453.42	353.42
453.60	407.25
453.78	395.55
453.97	355.76
454.15	449.38
454.34	440.02
454.52	386.19
454.70	477.47
454.89	442.36
455.07	414.27
455.26	451.72
455.44	449.38
455.62	313.63
455.81	500.87
455.99	416.62
456.17	416.62
456.36	437.68
456.54	409.59
456.73	397.89
456.91	383.85
457.09	447.04
457.28	395.55
457.46	404.91
457.64	414.27
457.83	486.83
458.01	437.68
458.19	409.59
458.38	418.96
458.56	472.79
458.74	425.98
458.93	381.51
459.11	463.43
459.29	458.74
459.48	423.64
459.66	484.49
459.84	397.89
460.03	500.87
460.21	404.91
460.39	339.38
460.57	379.17
460.76	433.00
460.94	425.98
461.12	428.32
461.31	482.15
461.49	402.57
461.67	435.34
461.85	416.62
462.04	435.34
462.22	798.12
462.40	449.38
462.59	428.32
462.77	411.93
462.95	411.93
463.13	423.64
463.32	407.25
463.50	381.51
463.68	365.12
463.86	414.27
464.05	397.89
464.23	440.02
464.41	486.83
464.59	442.36
464.78	451.72
464.96	367.46
465.14	409.59
465.32	383.85
465.50	449.38
465.69	465.77
465.87	423.64
466.05	407.25
466.23	444.70
466.41	353.42
466.60	435.34
466.78	386.19
466.96	437.68
467.14	367.46
467.32	325.33
467.51	486.83
467.69	465.77
467.87	428.32
468.05	472.79
468.23	444.70
468.41	449.38
468.60	409.59
468.78	454.06
468.96	395.55
469.14	386.19
469.32	388.53
469.50	449.38
469.69	482.15
469.87	479.81
470.05	425.98
470.23	365.12
470.41	519.60
470.59	393.21
470.77	458.74
470.95	442.36
471.14	444.70
471.32	428.32
471.50	428.32
471.68	374.49
471.86	374.49
472.04	386.19
472.22	435.34
472.40	423.64
472.58	442.36
472.77	407.25
472.95	524.28
473.13	463.43
473.31	456.40
473.49	395.55
473.67	524.28
473.85	458.74
474.03	444.70
474.21	332.36
474.39	463.43
474.57	456.40
474.75	348.74
474.93	393.21
475.12	447.04
475.30	465.77
475.48	407.25
475.66	409.59
475.84	397.89
476.02	444.70
476.20	458.74
476.38	437.68
476.56	421.30
476.74	447.04
476.92	383.85
477.10	383.85
477.28	425.98
477.46	437.68
477.64	433.00
477.82	367.46
478.00	416.62
478.18	397.89
478.36	442.36
478.54	411.93
478.72	395.55
478.90	395.55
479.08	435.34
479.26	454.06
479.44	407.25
479.62	362.78
479.80	491.51
479.98	388.53
480.16	425.98
480.34	458.74
480.52	376.83
480.70	435.34
480.88	400.23
481.06	430.66
481.24	449.38
481.41	355.76
481.59	444.70
481.77	475.13
481.95	404.91
482.13	482.15
482.31	479.81
482.49	430.66
482.67	477.47
482.85	425.98
483.03	393.21
483.21	400.23
483.39	435.34
483.57	372.15
483.74	444.70
483.92	346.40
484.10	367.46
484.28	395.55
484.46	383.85
484.64	428.32
484.82	425.98
485.00	353.42
485.18	451.72
485.35	416.62
485.53	430.66
485.71	418.96
485.89	395.55
486.07	353.42
486.25	482.15
486.43	369.80
486.61	447.04
486.78	418.96
486.96	484.49
487.14	423.64
487.32	423.64
487.50	477.47
487.68	402.57
487.85	360.44
488.03	386.19
488.21	454.06
488.39	388.53
488.57	435.34
488.75	465.77
488.92	514.92
489.10	437.68
489.28	477.47
489.46	404.91
489.64	456.40
489.81	360.44
489.99	374.49
490.17	395.55
490.35	442.36
490.53	418.96
490.70	435.34
490.88	440.02
491.06	447.04
491.24	418.96
491.41	437.68
491.59	451.72
491.77	435.34
491.95	404.91
492.13	369.80
492.30	411.93
492.48	369.80
492.66	430.66
492.84	454.06
493.01	393.21
493.19	374.49
493.37	447.04
493.54	372.15
493.72	425.98
493.90	395.55
494.08	430.66
494.25	409.59
494.43	428.32
494.61	404.91
494.79	421.30
494.96	351.08
495.14	414.27
495.32	447.04
495.49	355.76
495.67	404.91
495.85	386.19
496.02	409.59
496.20	458.74
496.38	484.49
496.55	437.68
496.73	367.46
496.91	362.78
497.09	386.19
497.26	404.91
497.44	428.32
497.62	397.89
497.79	362.78
497.97	433.00
498.14	418.96
498.32	435.34
498.50	397.89
498.67	383.85
498.85	358.10
499.03	367.46
499.20	482.15
499.38	337.04
499.56	390.87
499.73	538.32
499.91	423.64
500.08	444.70
500.26	390.87
500.44	430.66
500.61	358.10
500.79	404.91
500.97	489.17
501.14	435.34
501.32	456.40
501.49	421.30
501.67	425.98
501.84	451.72
502.02	404.91
502.20	428.32
502.37	472.79
502.55	463.43
502.72	421.30
502.90	458.74
503.07	404.91
503.25	454.06
503.43	428.32
503.60	386.19
503.78	358.10
503.95	449.38
504.13	360.44
504.30	409.59
504.48	423.64
504.65	458.74
504.83	418.96
505.01	397.89
505.18	435.34
505.36	435.34
505.53	440.02
505.71	386.19
505.88	479.81
506.06	390.87
506.23	472.79
506.41	388.53
506.58	468.11
506.76	409.59
506.93	510.24
507.11	472.79
507.28	407.25
507.46	423.64
507.63	447.04
507.81	435.34
507.98	421.30
508.16	444.70
508.33	315.97
508.50	421.30
508.68	381.51
508.85	365.12
509.03	433.00
509.20	463.43
509.38	475.13
509.55	463.43
509.73	470.45
509.90	390.87
510.08	423.64
510.25	433.00
510.42	386.19
510.60	435.34
510.77	472.79
510.95	477.47
511.12	390.87
511.30	416.62
511.47	437.68
511.64	486.83
511.82	421.30
511.99	423.64
512.17	444.70
512.34	393.21
512.51	299.59
512.69	451.72
512.86	428.32
513.04	451.72
513.21	390.87
513.38	383.85
513.56	374.49
513.73	388.53
513.90	423.64
514.08	454.06
514.25	433.00
514.43	430.66
514.60	386.19
514.77	362.78
514.95	454.06
515.12	411.93
515.29	346.40
515.47	458.74
515.64	397.89
515.81	411.93
515.99	479.81
516.16	435.34
516.33	414.27
516.51	444.70
516.68	390.87
516.85	433.00
517.03	423.64
517.20	416.62
517.37	404.91
517.54	337.04
517.72	428.32
517.89	458.74
518.06	496.19
518.24	440.02
518.41	454.06
518.58	428.32
518.75	454.06
518.93	337.04
519.10	383.85
519.27	381.51
519.45	388.53
519.62	362.78
519.79	397.89
519.96	372.15
520.14	465.77
520.31	430.66
520.48	390.87
520.65	411.93
520.83	444.70
521.00	442.36
521.17	402.57
521.34	447.04
521.52	332.36
521.69	428.32
521.86	435.34
522.03	402.57
522.20	423.64
522.38	395.55
522.55	418.96
522.72	362.78
522.89	458.74
523.07	465.77
523.24	425.98
523.41	376.83
523.58	400.23
523.75	346.40
523.92	444.70
524.10	435.34
524.27	442.36
524.44	409.59
524.61	367.46
524.78	372.15
524.96	484.49
525.13	395.55
525.30	388.53
525.47	402.57
525.64	440.02
525.81	409.59
525.98	418.96
526.16	421.30
526.33	367.46
526.50	393.21
526.67	414.27
526.84	362.78
527.01	400.23
527.18	430.66
527.36	365.12
527.53	400.23
527.70	423.64
527.87	386.19
528.04	477.47
528.21	484.49
528.38	369.80
528.55	435.34
528.72	461.09
528.89	388.53
529.07	372.15
529.24	407.25
529.41	456.40
529.58	393.21
529.75	421.30
529.92	416.62
530.09	376.83
530.26	442.36
530.43	428.32
530.60	393.21
530.77	433.00
530.94	416.62
531.11	463.43
531.28	327.68
531.46	472.79
531.63	418.96
531.80	400.23
531.97	461.09
532.14	433.00
532.31	367.46
532.48	393.21
532.65	372.15
532.82	372.15
532.99	444.70
533.16	367.46
533.33	425.98
533.50	379.17
533.67	454.06
533.84	409.59
534.01	386.19
534.18	390.87
534.35	407.25
534.52	332.36
534.69	479.81
534.86	421.30
535.03	369.80
535.20	409.59
535.37	386.19
535.54	416.62
535.71	404.91
535.88	390.87
536.05	423.64
536.22	440.02
536.38	470.45
536.55	383.85
536.72	517.26
536.89	470.45
537.06	374.49
537.23	395.55
537.40	360.44
537.57	421.30
537.74	491.51
537.91	397.89
538.08	465.77
538.25	461.09
538.42	351.08
538.59	456.40
538.75	479.81
538.92	451.72
539.09	423.64
539.26	400.23
539.43	402.57
539.60	411.93
539.77	486.83
539.94	348.74
540.11	454.06
540.28	430.66
540.44	477.47
540.61	388.53
540.78	430.66
540.95	442.36
541.12	433.00
541.29	411.93
541.46	381.51
541.62	379.17
541.79	454.06
541.96	444.70
542.13	411.93
542.30	442.36
542.47	442.36
542.63	376.83
542.80	386.19
542.97	409.59
543.14	395.55
543.31	514.92
543.48	463.43
543.64	475.13
543.81	416.62
543.98	339.38
544.15	437.68
544.32	433.00
544.48	381.51
544.65	461.09
544.82	332.36
544.99	397.89
545.16	435.34
545.32	425.98
545.49	411.93
545.66	416.62
545.83	376.83
546.00	341.72
546.16	447.04
546.33	404.91
546.50	369.80
546.67	320.65
546.83	421.30
547.00	411.93
547.17	397.89
547.34	435.34
547.50	433.00
547.67	383.85
547.84	365.12
548.00	397.89
548.17	454.06
548.34	341.72
548.51	416.62
548.67	376.83
548.84	360.44
549.01	519.60
549.18	386.19
549.34	428.32
549.51	414.27
549.68	397.89
549.84	475.13
550.01	411.93
550.18	507.90
550.34	435.34
550.51	433.00
550.68	510.24
550.84	444.70
551.01	465.77
551.18	458.74
551.34	376.83
551.51	358.10
551.68	334.70
551.84	402.57
552.01	456.40
552.18	402.57
552.34	461.09
552.51	397.89
552.68	428.32
552.84	393.21
553.01	416.62
553.18	489.17
553.34	372.15
553.51	393.21
553.67	447.04
553.84	463.43
554.01	430.66
554.17	425.98
554.34	339.38
554.51	402.57
554.67	433.00
554.84	470.45
555.00	447.04
555.17	404.91
555.33	461.09
555.50	449.38
555.67	407.25
555.83	390.87
556.00	447.04
556.16	571.09
556.33	475.13
556.50	360.44
556.66	449.38
556.83	339.38
556.99	367.46
557.16	416.62
557.32	407.25
557.49	425.98
557.65	442.36
557.82	440.02
557.98	463.43
558.15	411.93
558.32	372.15
558.48	440.02
558.65	444.70
558.81	444.70
558.98	386.19
559.14	435.34
559.31	418.96
559.47	517.26
559.64	402.57
559.80	430.66
559.97	414.27
560.13	404.91
560.30	348.74
560.46	376.83
560.63	386.19
560.79	367.46
560.96	475.13
561.12	428.32
561.29	482.15
561.45	397.89
561.61	393.21
561.78	449.38
561.94	463.43
562.11	482.15
562.27	470.45
562.44	404.91
562.60	402.57
562.77	433.00
562.93	566.41
563.10	472.79
563.26	390.87
563.42	430.66
563.59	458.74
563.75	428.32
563.92	440.02
564.08	475.13
564.24	407.25
564.41	472.79
564.57	383.85
564.74	433.00
564.90	390.87
565.07	379.17
565.23	425.98
565.39	428.32
565.56	442.36
565.72	383.85
565.88	388.53
566.05	421.30
566.21	407.25
566.38	440.02
566.54	437.68
566.70	414.27
566.87	388.53
567.03	440.02
567.19	423.64
567.36	458.74
567.52	393.21
567.68	458.74
567.85	486.83
568.01	386.19
568.17	456.40
568.34	414.27
568.50	423.64
568.66	458.74
568.83	475.13
568.99	379.17
569.15	465.77
569.32	447.04
569.48	428.32
569.64	416.62
569.81	463.43
569.97	442.36
570.13	475.13
570.30	388.53
570.46	327.68
570.62	421.30
570.78	376.83
570.95	416.62
571.11	397.89
571.27	430.66
571.43	400.23
571.60	458.74
571.76	430.66
571.92	482.15
572.09	414.27
572.25	404.91
572.41	435.34
572.57	456.40
572.74	468.11
572.90	404.91
573.06	442.36
573.22	423.64
573.38	437.68
573.55	477.47
573.71	430.66
573.87	393.21
574.03	416.62
574.20	388.53
574.36	458.74
574.52	369.80
574.68	500.87
574.84	425.98
575.01	393.21
575.17	416.62
575.33	351.08
575.49	435.34
575.65	512.58
575.82	470.45
575.98	484.49
576.14	454.06
576.30	374.49
576.46	376.83
576.62	463.43
576.79	400.23
576.95	447.04
577.11	381.51
577.27	381.51
577.43	465.77
577.59	393.21
577.75	470.45
577.92	435.34
578.08	353.42
578.24	435.34
578.40	425.98
578.56	442.36
578.72	376.83
578.88	433.00
579.04	456.40
579.21	372.15
579.37	407.25
579.53	386.19
579.69	503.22
579.85	454.06
580.01	498.53
580.17	433.00
580.33	428.32
580.49	428.32
580.65	447.04
580.82	395.55
580.98	409.59
581.14	400.23
581.30	486.83
581.46	463.43
581.62	468.11
581.78	463.43
581.94	456.40
582.10	402.57
582.26	440.02
582.42	430.66
582.58	451.72
582.74	449.38
582.90	421.30
583.06	411.93
583.22	416.62
583.38	437.68
583.54	468.11
583.70	402.57
583.86	463.43
584.02	421.30
584.18	440.02
584.34	449.38
584.50	395.55
584.66	407.25
584.82	451.72
584.98	437.68
585.14	304.27
585.30	454.06
585.46	423.64
585.62	393.21
585.78	404.91
585.94	433.00
586.10	404.91
586.26	423.64
586.42	414.27
586.58	411.93
586.74	421.30
586.90	395.55
587.06	421.30
587.22	430.66
587.38	465.77
587.54	365.12
587.70	409.59
587.86	393.21
588.02	435.34
588.18	430.66
588.34	437.68
588.49	411.93
588.65	440.02
588.81	465.77
588.97	428.32
589.13	393.21
589.29	390.87
589.45	440.02
589.61	451.72
589.77	482.15
589.93	447.04
590.08	411.93
590.24	393.21
590.40	472.79
590.56	435.34
590.72	444.70
590.88	444.70
591.04	486.83
591.20	468.11
591.35	440.02
591.51	437.68
591.67	444.70
591.83	369.80
591.99	442.36
592.15	402.57
592.31	470.45
592.46	517.26
592.62	386.19
592.78	346.40
592.94	393.21
593.10	390.87
593.26	360.44
593.41	339.38
593.57	397.89
593.73	449.38
593.89	475.13
594.05	330.02
594.20	416.62
594.36	414.27
594.52	440.02
594.68	379.17
594.84	421.30
594.99	454.06
595.15	367.46
595.31	456.40
595.47	454.06
595.62	433.00
595.78	341.72
595.94	395.55
596.10	421.30
596.25	425.98
596.41	447.04
596.57	404.91
596.73	360.44
596.88	463.43
597.04	447.04
597.20	383.85
597.36	463.43
597.51	430.66
597.67	360.44
597.83	456.40
597.99	299.59
598.14	395.55
598.30	447.04
598.46	395.55
598.61	451.72
598.77	423.64
598.93	393.21
599.09	458.74
599.24	344.06
599.40	435.34
599.56	395.55
599.71	367.46
599.87	456.40
600.03	365.12
600.18	374.49
600.34	433.00
600.50	458.74
600.65	425.98
600.81	451.72
600.97	404.91
601.12	468.11
601.28	423.64
601.44	489.17
601.59	416.62
601.75	404.91
601.91	470.45
602.06	372.15
602.22	454.06
602.37	428.32
602.53	365.12
602.69	430.66
602.84	383.85
603.00	461.09
603.16	472.79
603.31	409.59
603.47	411.93
603.62	465.77
603.78	437.68
603.94	423.64
604.09	388.53
604.25	496.19
604.40	517.26
604.56	423.64
604.71	360.44
604.87	381.51
605.03	372.15
605.18	418.96
605.34	402.57
605.49	440.02
605.65	421.30
605.80	388.53
605.96	379.17
606.12	367.46
606.27	458.74
606.43	397.89
606.58	367.46
606.74	393.21
606.89	411.93
607.05	418.96
607.20	400.23
607.36	423.64
607.51	393.21
607.67	430.66
607.82	400.23
607.98	437.68
608.13	397.89
608.29	418.96
608.44	407.25
608.60	451.72
608.75	400.23
608.91	456.40
609.06	500.87
609.22	437.68
609.37	437.68
609.53	358.10
609.68	386.19
609.84	456.40
609.99	402.57
610.15	362.78
