SpectraSuite Data File
++++++++++++++++++++++++++++++++++++
Date: Fri Oct 25 12:11:02 EDT 2013
User: price-jones
Dark Spectrum Present: No
Reference Spectrum Present: No
Number of Sampled Component Spectra: 1
Spectrometers: USB2+H05261
Integration Time (usec): 100000 (USB2+H05261)
Spectra Averaged: 1 (USB2+H05261)
Boxcar Smoothing: 0 (USB2+H05261)
Correct for Electrical Dark: No (USB2+H05261)
Strobe/Lamp Enabled: No (USB2+H05261)
Correct for Detector Non-linearity: No (USB2+H05261)
Correct for Stray Light: No (USB2+H05261)
Number of Pixels in Processed Spectrum: 2048
>>>>>Begin Processed Spectral Data<<<<<
365.73	381.51
365.92	381.51
366.12	381.51
366.32	273.84
366.52	208.31
366.72	215.33
366.91	252.78
367.11	257.46
367.31	224.69
367.51	184.90
367.70	194.26
367.90	198.95
368.10	224.69
368.30	243.42
368.49	252.78
368.69	264.48
368.89	283.20
369.09	266.82
369.28	266.82
369.48	222.35
369.68	301.93
369.87	290.23
370.07	411.93
370.27	278.52
370.47	374.49
370.66	255.12
370.86	367.46
371.06	416.62
371.25	395.55
371.45	315.97
371.65	386.19
371.84	430.66
372.04	355.76
372.24	355.76
372.44	418.96
372.63	433.00
372.83	425.98
373.03	482.15
373.22	423.64
373.42	416.62
373.62	451.72
373.81	395.55
374.01	393.21
374.21	440.02
374.40	475.13
374.60	440.02
374.79	374.49
374.99	409.59
375.19	418.96
375.38	393.21
375.58	376.83
375.78	367.46
375.97	463.43
376.17	437.68
376.37	444.70
376.56	430.66
376.76	407.25
376.95	437.68
377.15	458.74
377.35	414.27
377.54	372.15
377.74	477.47
377.93	379.17
378.13	416.62
378.33	355.76
378.52	386.19
378.72	425.98
378.91	360.44
379.11	381.51
379.31	456.40
379.50	320.65
379.70	402.57
379.89	447.04
380.09	409.59
380.28	433.00
380.48	461.09
380.68	390.87
380.87	379.17
381.07	400.23
381.26	430.66
381.46	437.68
381.65	372.15
381.85	390.87
382.04	409.59
382.24	381.51
382.43	461.09
382.63	416.62
382.83	393.21
383.02	463.43
383.22	397.89
383.41	334.70
383.61	355.76
383.80	428.32
384.00	402.57
384.19	358.10
384.39	339.38
384.58	430.66
384.78	428.32
384.97	418.96
385.17	372.15
385.36	358.10
385.56	444.70
385.75	411.93
385.95	409.59
386.14	404.91
386.34	402.57
386.53	400.23
386.72	423.64
386.92	454.06
387.11	475.13
387.31	428.32
387.50	444.70
387.70	351.08
387.89	388.53
388.09	440.02
388.28	428.32
388.48	353.42
388.67	449.38
388.86	428.32
389.06	409.59
389.25	444.70
389.45	423.64
389.64	425.98
389.84	407.25
390.03	430.66
390.22	388.53
390.42	390.87
390.61	451.72
390.81	397.89
391.00	358.10
391.19	388.53
391.39	365.12
391.58	369.80
391.78	404.91
391.97	444.70
392.16	404.91
392.36	454.06
392.55	449.38
392.75	383.85
392.94	397.89
393.13	421.30
393.33	435.34
393.52	365.12
393.71	383.85
393.91	447.04
394.10	482.15
394.29	442.36
394.49	444.70
394.68	355.76
394.88	440.02
395.07	407.25
395.26	397.89
395.46	456.40
395.65	458.74
395.84	442.36
396.04	437.68
396.23	395.55
396.42	477.47
396.62	416.62
396.81	414.27
397.00	402.57
397.19	433.00
397.39	454.06
397.58	437.68
397.77	444.70
397.97	475.13
398.16	475.13
398.35	414.27
398.55	390.87
398.74	425.98
398.93	470.45
399.12	425.98
399.32	393.21
399.51	404.91
399.70	461.09
399.90	353.42
400.09	451.72
400.28	376.83
400.47	362.78
400.67	362.78
400.86	411.93
401.05	407.25
401.24	435.34
401.44	496.19
401.63	433.00
401.82	411.93
402.01	416.62
402.21	369.80
402.40	400.23
402.59	463.43
402.78	435.34
402.97	414.27
403.17	440.02
403.36	386.19
403.55	341.72
403.74	400.23
403.93	355.76
404.13	395.55
404.32	358.10
404.51	447.04
404.70	491.51
404.89	444.70
405.09	458.74
405.28	475.13
405.47	395.55
405.66	376.83
405.85	397.89
406.05	463.43
406.24	444.70
406.43	360.44
406.62	386.19
406.81	447.04
407.00	404.91
407.20	447.04
407.39	379.17
407.58	367.46
407.77	416.62
407.96	397.89
408.15	463.43
408.34	458.74
408.54	428.32
408.73	395.55
408.92	421.30
409.11	341.72
409.30	472.79
409.49	442.36
409.68	369.80
409.87	397.89
410.07	390.87
410.26	484.49
410.45	418.96
410.64	390.87
410.83	423.64
411.02	423.64
411.21	477.47
411.40	440.02
411.59	409.59
411.78	369.80
411.98	423.64
412.17	416.62
412.36	383.85
412.55	491.51
412.74	447.04
412.93	458.74
413.12	365.12
413.31	454.06
413.50	498.53
413.69	484.49
413.88	447.04
414.07	423.64
414.26	430.66
414.45	435.34
414.64	416.62
414.83	388.53
415.02	411.93
415.22	430.66
415.41	376.83
415.60	433.00
415.79	369.80
415.98	374.49
416.17	423.64
416.36	383.85
416.55	407.25
416.74	423.64
416.93	393.21
417.12	383.85
417.31	498.53
417.50	433.00
417.69	416.62
417.88	435.34
418.07	407.25
418.26	456.40
418.45	374.49
418.64	461.09
418.83	355.76
419.02	416.62
419.21	428.32
419.39	386.19
419.58	362.78
419.77	404.91
419.96	433.00
420.15	425.98
420.34	463.43
420.53	425.98
420.72	458.74
420.91	475.13
421.10	463.43
421.29	393.21
421.48	430.66
421.67	390.87
421.86	362.78
422.05	383.85
422.24	402.57
422.43	299.59
422.61	411.93
422.80	437.68
422.99	475.13
423.18	369.80
423.37	470.45
423.56	402.57
423.75	397.89
423.94	442.36
424.13	423.64
424.32	416.62
424.50	372.15
424.69	447.04
424.88	416.62
425.07	402.57
425.26	416.62
425.45	435.34
425.64	440.02
425.83	428.32
426.01	475.13
426.20	484.49
426.39	360.44
426.58	402.57
426.77	383.85
426.96	430.66
427.15	367.46
427.33	369.80
427.52	423.64
427.71	454.06
427.90	458.74
428.09	430.66
428.28	397.89
428.46	409.59
428.65	404.91
428.84	402.57
429.03	402.57
429.22	400.23
429.40	407.25
429.59	360.44
429.78	411.93
429.97	390.87
430.16	337.04
430.34	325.33
430.53	379.17
430.72	397.89
430.91	475.13
431.10	402.57
431.28	407.25
431.47	393.21
431.66	414.27
431.85	442.36
432.03	482.15
432.22	475.13
432.41	468.11
432.60	423.64
432.79	397.89
432.97	379.17
433.16	400.23
433.35	411.93
433.54	393.21
433.72	482.15
433.91	484.49
434.10	367.46
434.28	456.40
434.47	416.62
434.66	379.17
434.85	400.23
435.03	421.30
435.22	402.57
435.41	421.30
435.59	372.15
435.78	479.81
435.97	402.57
436.16	423.64
436.34	388.53
436.53	351.08
436.72	390.87
436.90	402.57
437.09	367.46
437.28	386.19
437.46	381.51
437.65	449.38
437.84	404.91
438.02	400.23
438.21	416.62
438.40	468.11
438.58	444.70
438.77	393.21
438.96	463.43
439.14	425.98
439.33	461.09
439.52	458.74
439.70	433.00
439.89	458.74
440.08	421.30
440.26	449.38
440.45	423.64
440.63	440.02
440.82	454.06
441.01	449.38
441.19	386.19
441.38	440.02
441.57	416.62
441.75	437.68
441.94	416.62
442.12	440.02
442.31	372.15
442.50	395.55
442.68	355.76
442.87	421.30
443.05	428.32
443.24	437.68
443.43	433.00
443.61	376.83
443.80	458.74
443.98	348.74
444.17	395.55
444.35	458.74
444.54	461.09
444.73	423.64
444.91	425.98
445.10	423.64
445.28	416.62
445.47	404.91
445.65	383.85
445.84	463.43
446.02	400.23
446.21	376.83
446.39	393.21
446.58	386.19
446.77	397.89
446.95	402.57
447.14	435.34
447.32	470.45
447.51	458.74
447.69	465.77
447.88	454.06
448.06	493.85
448.25	421.30
448.43	407.25
448.62	395.55
448.80	337.04
448.99	360.44
449.17	444.70
449.36	348.74
449.54	414.27
449.73	484.49
449.91	400.23
450.10	430.66
450.28	484.49
450.46	444.70
450.65	440.02
450.83	409.59
451.02	475.13
451.20	456.40
451.39	430.66
451.57	437.68
451.76	386.19
451.94	479.81
452.13	409.59
452.31	447.04
452.49	381.51
452.68	290.23
452.86	381.51
453.05	383.85
453.23	423.64
453.42	423.64
453.60	376.83
453.78	334.70
453.97	353.42
454.15	374.49
454.34	383.85
454.52	444.70
454.70	421.30
454.89	383.85
455.07	421.30
455.26	442.36
455.44	468.11
455.62	360.44
455.81	430.66
455.99	409.59
456.17	472.79
456.36	386.19
456.54	395.55
456.73	393.21
456.91	409.59
457.09	404.91
457.28	475.13
457.46	430.66
457.64	465.77
457.83	449.38
458.01	442.36
458.19	369.80
458.38	369.80
458.56	337.04
458.74	428.32
458.93	458.74
459.11	425.98
459.29	414.27
459.48	397.89
459.66	437.68
459.84	440.02
460.03	500.87
460.21	489.17
460.39	430.66
460.57	433.00
460.76	409.59
460.94	435.34
461.12	461.09
461.31	400.23
461.49	411.93
461.67	393.21
461.85	402.57
462.04	418.96
462.22	786.42
462.40	409.59
462.59	442.36
462.77	430.66
462.95	440.02
463.13	414.27
463.32	470.45
463.50	449.38
463.68	425.98
463.86	402.57
464.05	388.53
464.23	425.98
464.41	414.27
464.59	416.62
464.78	440.02
464.96	369.80
465.14	400.23
465.32	437.68
465.50	447.04
465.69	449.38
465.87	388.53
466.05	397.89
466.23	416.62
466.41	383.85
466.60	500.87
466.78	414.27
466.96	395.55
467.14	437.68
467.32	430.66
467.51	374.49
467.69	421.30
467.87	489.17
468.05	395.55
468.23	418.96
468.41	498.53
468.60	404.91
468.78	390.87
468.96	397.89
469.14	409.59
469.32	379.17
469.50	362.78
469.69	351.08
469.87	404.91
470.05	386.19
470.23	437.68
470.41	421.30
470.59	463.43
470.77	425.98
470.95	320.65
471.14	430.66
471.32	421.30
471.50	344.06
471.68	411.93
471.86	479.81
472.04	428.32
472.22	454.06
472.40	444.70
472.58	414.27
472.77	358.10
472.95	374.49
473.13	444.70
473.31	390.87
473.49	362.78
473.67	418.96
473.85	390.87
474.03	418.96
474.21	397.89
474.39	418.96
474.57	477.47
474.75	416.62
474.93	372.15
475.12	374.49
475.30	404.91
475.48	395.55
475.66	365.12
475.84	409.59
476.02	418.96
476.20	428.32
476.38	435.34
476.56	463.43
476.74	451.72
476.92	440.02
477.10	395.55
477.28	376.83
477.46	433.00
477.64	421.30
477.82	451.72
478.00	393.21
478.18	430.66
478.36	447.04
478.54	456.40
478.72	458.74
478.90	311.29
479.08	355.76
479.26	428.32
479.44	423.64
479.62	454.06
479.80	496.19
479.98	381.51
480.16	414.27
480.34	337.04
480.52	393.21
480.70	411.93
480.88	379.17
481.06	437.68
481.24	416.62
481.41	404.91
481.59	355.76
481.77	414.27
481.95	299.59
482.13	465.77
482.31	395.55
482.49	470.45
482.67	512.58
482.85	416.62
483.03	365.12
483.21	383.85
483.39	416.62
483.57	463.43
483.74	449.38
483.92	435.34
484.10	414.27
484.28	435.34
484.46	472.79
484.64	407.25
484.82	425.98
485.00	407.25
485.18	334.70
485.35	388.53
485.53	423.64
485.71	397.89
485.89	294.91
486.07	407.25
486.25	454.06
486.43	428.32
486.61	472.79
486.78	444.70
486.96	463.43
487.14	454.06
487.32	435.34
487.50	470.45
487.68	440.02
487.85	430.66
488.03	416.62
488.21	421.30
488.39	411.93
488.57	428.32
488.75	409.59
488.92	491.51
489.10	418.96
489.28	414.27
489.46	433.00
489.64	365.12
489.81	425.98
489.99	454.06
490.17	423.64
490.35	379.17
490.53	442.36
490.70	435.34
490.88	449.38
491.06	407.25
491.24	367.46
491.41	381.51
491.59	437.68
491.77	430.66
491.95	442.36
492.13	395.55
492.30	440.02
492.48	395.55
492.66	421.30
492.84	456.40
493.01	493.85
493.19	449.38
493.37	451.72
493.54	409.59
493.72	425.98
493.90	444.70
494.08	369.80
494.25	458.74
494.43	416.62
494.61	397.89
494.79	322.99
494.96	355.76
495.14	390.87
495.32	435.34
495.49	423.64
495.67	411.93
495.85	465.77
496.02	421.30
496.20	425.98
496.38	395.55
496.55	388.53
496.73	365.12
496.91	372.15
497.09	437.68
497.26	454.06
497.44	386.19
497.62	507.90
497.79	400.23
497.97	430.66
498.14	386.19
498.32	376.83
498.50	397.89
498.67	402.57
498.85	425.98
499.03	386.19
499.20	505.56
499.38	425.98
499.56	407.25
499.73	500.87
499.91	449.38
500.08	433.00
500.26	376.83
500.44	461.09
500.61	447.04
500.79	393.21
500.97	414.27
501.14	379.17
501.32	379.17
501.49	416.62
501.67	383.85
501.84	418.96
502.02	416.62
502.20	428.32
502.37	383.85
502.55	437.68
502.72	355.76
502.90	397.89
503.07	355.76
503.25	393.21
503.43	351.08
503.60	447.04
503.78	407.25
503.95	395.55
504.13	365.12
504.30	411.93
504.48	458.74
504.65	402.57
504.83	416.62
505.01	395.55
505.18	372.15
505.36	440.02
505.53	367.46
505.71	395.55
505.88	454.06
506.06	400.23
506.23	414.27
506.41	442.36
506.58	465.77
506.76	402.57
506.93	423.64
507.11	442.36
507.28	386.19
507.46	372.15
507.63	334.70
507.81	337.04
507.98	421.30
508.16	372.15
508.33	447.04
508.50	425.98
508.68	411.93
508.85	447.04
509.03	447.04
509.20	423.64
509.38	393.21
509.55	433.00
509.73	409.59
509.90	425.98
510.08	351.08
510.25	395.55
510.42	332.36
510.60	435.34
510.77	421.30
510.95	451.72
511.12	430.66
511.30	353.42
511.47	397.89
511.64	458.74
511.82	386.19
511.99	416.62
512.17	397.89
512.34	358.10
512.51	428.32
512.69	409.59
512.86	442.36
513.04	447.04
513.21	423.64
513.38	367.46
513.56	393.21
513.73	341.72
513.90	390.87
514.08	433.00
514.25	381.51
514.43	332.36
514.60	430.66
514.77	400.23
514.95	414.27
515.12	430.66
515.29	437.68
515.47	402.57
515.64	442.36
515.81	360.44
515.99	397.89
516.16	395.55
516.33	514.92
516.51	472.79
516.68	449.38
516.85	454.06
517.03	421.30
517.20	456.40
517.37	411.93
517.54	372.15
517.72	423.64
517.89	402.57
518.06	411.93
518.24	390.87
518.41	449.38
518.58	383.85
518.75	376.83
518.93	341.72
519.10	458.74
519.27	444.70
519.45	409.59
519.62	433.00
519.79	369.80
519.96	372.15
520.14	383.85
520.31	458.74
520.48	402.57
520.65	491.51
520.83	327.68
521.00	442.36
521.17	461.09
521.34	411.93
521.52	409.59
521.69	442.36
521.86	414.27
522.03	442.36
522.20	512.58
522.38	379.17
522.55	416.62
522.72	400.23
522.89	458.74
523.07	507.90
523.24	407.25
523.41	430.66
523.58	362.78
523.75	414.27
523.92	397.89
524.10	442.36
524.27	404.91
524.44	433.00
524.61	437.68
524.78	332.36
524.96	393.21
525.13	344.06
525.30	482.15
525.47	421.30
525.64	421.30
525.81	447.04
525.98	437.68
526.16	423.64
526.33	456.40
526.50	374.49
526.67	400.23
526.84	454.06
527.01	318.31
527.18	393.21
527.36	507.90
527.53	430.66
527.70	498.53
527.87	425.98
528.04	416.62
528.21	407.25
528.38	390.87
528.55	416.62
528.72	393.21
528.89	435.34
529.07	423.64
529.24	423.64
529.41	449.38
529.58	437.68
529.75	416.62
529.92	393.21
530.09	484.49
530.26	447.04
530.43	400.23
530.60	428.32
530.77	484.49
530.94	416.62
531.11	482.15
531.28	367.46
531.46	358.10
531.63	390.87
531.80	418.96
531.97	395.55
532.14	430.66
532.31	414.27
532.48	358.10
532.65	423.64
532.82	381.51
532.99	404.91
533.16	395.55
533.33	308.95
533.50	374.49
533.67	376.83
533.84	393.21
534.01	372.15
534.18	428.32
534.35	376.83
534.52	416.62
534.69	395.55
534.86	360.44
535.03	393.21
535.20	407.25
535.37	411.93
535.54	440.02
535.71	404.91
535.88	397.89
536.05	470.45
536.22	468.11
536.38	449.38
536.55	400.23
536.72	477.47
536.89	440.02
537.06	421.30
537.23	454.06
537.40	353.42
537.57	353.42
537.74	517.26
537.91	416.62
538.08	449.38
538.25	433.00
538.42	425.98
538.59	411.93
538.75	411.93
538.92	351.08
539.09	428.32
539.26	414.27
539.43	456.40
539.60	444.70
539.77	437.68
539.94	322.99
540.11	442.36
540.28	489.17
540.44	475.13
540.61	430.66
540.78	475.13
540.95	386.19
541.12	407.25
541.29	416.62
541.46	393.21
541.62	374.49
541.79	451.72
541.96	407.25
542.13	421.30
542.30	360.44
542.47	477.47
542.63	458.74
542.80	404.91
542.97	451.72
543.14	458.74
543.31	409.59
543.48	440.02
543.64	468.11
543.81	393.21
543.98	447.04
544.15	454.06
544.32	400.23
544.48	376.83
544.65	374.49
544.82	367.46
544.99	416.62
545.16	444.70
545.32	400.23
545.49	444.70
545.66	416.62
545.83	435.34
546.00	355.76
546.16	416.62
546.33	416.62
546.50	475.13
546.67	472.79
546.83	372.15
547.00	454.06
547.17	376.83
547.34	388.53
547.50	454.06
547.67	395.55
547.84	458.74
548.00	416.62
548.17	379.17
548.34	365.12
548.51	489.17
548.67	376.83
548.84	447.04
549.01	416.62
549.18	510.24
549.34	372.15
549.51	425.98
549.68	388.53
549.84	404.91
550.01	388.53
550.18	416.62
550.34	479.81
550.51	477.47
550.68	465.77
550.84	386.19
551.01	416.62
551.18	435.34
551.34	421.30
551.51	362.78
551.68	435.34
551.84	451.72
552.01	395.55
552.18	341.72
552.34	423.64
552.51	379.17
552.68	433.00
552.84	395.55
553.01	428.32
553.18	454.06
553.34	447.04
553.51	465.77
553.67	454.06
553.84	461.09
554.01	411.93
554.17	451.72
554.34	390.87
554.51	433.00
554.67	402.57
554.84	440.02
555.00	491.51
555.17	400.23
555.33	458.74
555.50	381.51
555.67	411.93
555.83	411.93
556.00	397.89
556.16	528.96
556.33	470.45
556.50	344.06
556.66	388.53
556.83	400.23
556.99	414.27
557.16	390.87
557.32	421.30
557.49	397.89
557.65	451.72
557.82	425.98
557.98	416.62
558.15	395.55
558.32	393.21
558.48	381.51
558.65	421.30
558.81	433.00
558.98	451.72
559.14	430.66
559.31	393.21
559.47	435.34
559.64	404.91
559.80	409.59
559.97	425.98
560.13	407.25
560.30	374.49
560.46	388.53
560.63	400.23
560.79	440.02
560.96	414.27
561.12	404.91
561.29	545.34
561.45	423.64
561.61	383.85
561.78	442.36
561.94	428.32
562.11	435.34
562.27	451.72
562.44	407.25
562.60	402.57
562.77	383.85
562.93	458.74
563.10	393.21
563.26	435.34
563.42	425.98
563.59	409.59
563.75	386.19
563.92	510.24
564.08	397.89
564.24	444.70
564.41	430.66
564.57	458.74
564.74	421.30
564.90	402.57
565.07	376.83
565.23	454.06
565.39	465.77
565.56	468.11
565.72	447.04
565.88	414.27
566.05	440.02
566.21	365.12
566.38	386.19
566.54	372.15
566.70	383.85
566.87	404.91
567.03	355.76
567.19	468.11
567.36	475.13
567.52	360.44
567.68	421.30
567.85	454.06
568.01	468.11
568.17	388.53
568.34	500.87
568.50	482.15
568.66	430.66
568.83	465.77
568.99	425.98
569.15	461.09
569.32	414.27
569.48	472.79
569.64	437.68
569.81	472.79
569.97	400.23
570.13	444.70
570.30	470.45
570.46	451.72
570.62	414.27
570.78	444.70
570.95	397.89
571.11	456.40
571.27	456.40
571.43	367.46
571.60	477.47
571.76	444.70
571.92	465.77
572.09	416.62
572.25	402.57
572.41	437.68
572.57	351.08
572.74	470.45
572.90	407.25
573.06	411.93
573.22	451.72
573.38	449.38
573.55	498.53
573.71	479.81
573.87	409.59
574.03	416.62
574.20	470.45
574.36	447.04
574.52	390.87
574.68	442.36
574.84	425.98
575.01	418.96
575.17	449.38
575.33	416.62
575.49	397.89
575.65	493.85
575.82	369.80
575.98	400.23
576.14	407.25
576.30	407.25
576.46	430.66
576.62	372.15
576.79	470.45
576.95	491.51
577.11	470.45
577.27	334.70
577.43	493.85
577.59	435.34
577.75	421.30
577.92	414.27
578.08	353.42
578.24	493.85
578.40	458.74
578.56	465.77
578.72	444.70
578.88	386.19
579.04	374.49
579.21	430.66
579.37	407.25
579.53	454.06
579.69	388.53
579.85	397.89
580.01	397.89
580.17	440.02
580.33	414.27
580.49	381.51
580.65	383.85
580.82	461.09
580.98	430.66
581.14	381.51
581.30	374.49
581.46	414.27
581.62	447.04
581.78	407.25
581.94	444.70
582.10	451.72
582.26	442.36
582.42	435.34
582.58	395.55
582.74	374.49
582.90	372.15
583.06	479.81
583.22	428.32
583.38	421.30
583.54	407.25
583.70	444.70
583.86	433.00
584.02	386.19
584.18	395.55
584.34	376.83
584.50	409.59
584.66	355.76
584.82	320.65
584.98	470.45
585.14	386.19
585.30	430.66
585.46	407.25
585.62	395.55
585.78	465.77
585.94	395.55
586.10	447.04
586.26	433.00
586.42	470.45
586.58	468.11
586.74	381.51
586.90	411.93
587.06	423.64
587.22	400.23
587.38	407.25
587.54	374.49
587.70	449.38
587.86	463.43
588.02	383.85
588.18	503.22
588.34	407.25
588.49	479.81
588.65	362.78
588.81	414.27
588.97	440.02
589.13	428.32
589.29	372.15
589.45	447.04
589.61	409.59
589.77	458.74
589.93	404.91
590.08	418.96
590.24	332.36
590.40	423.64
590.56	425.98
590.72	379.17
590.88	367.46
591.04	451.72
591.20	430.66
591.35	521.94
591.51	416.62
591.67	360.44
591.83	428.32
591.99	416.62
592.15	409.59
592.31	400.23
592.46	430.66
592.62	423.64
592.78	418.96
592.94	374.49
593.10	463.43
593.26	397.89
593.41	444.70
593.57	390.87
593.73	388.53
593.89	430.66
594.05	365.12
594.20	411.93
594.36	376.83
594.52	390.87
594.68	428.32
594.84	465.77
594.99	388.53
595.15	475.13
595.31	449.38
595.47	491.51
595.62	381.51
595.78	442.36
595.94	418.96
596.10	491.51
596.25	416.62
596.41	407.25
596.57	372.15
596.73	355.76
596.88	397.89
597.04	430.66
597.20	437.68
597.36	404.91
597.51	421.30
597.67	437.68
597.83	414.27
597.99	428.32
598.14	449.38
598.30	461.09
598.46	428.32
598.61	421.30
598.77	454.06
598.93	294.91
599.09	449.38
599.24	425.98
599.40	397.89
599.56	416.62
599.71	437.68
599.87	397.89
600.03	386.19
600.18	465.77
600.34	374.49
600.50	461.09
600.65	418.96
600.81	421.30
600.97	425.98
601.12	407.25
601.28	468.11
601.44	414.27
601.59	348.74
601.75	397.89
601.91	409.59
602.06	444.70
602.22	423.64
602.37	442.36
602.53	273.84
602.69	388.53
602.84	425.98
603.00	390.87
603.16	402.57
603.31	409.59
603.47	430.66
603.62	395.55
603.78	456.40
603.94	393.21
604.09	428.32
604.25	458.74
604.40	423.64
604.56	428.32
604.71	454.06
604.87	397.89
605.03	369.80
605.18	433.00
605.34	437.68
605.49	458.74
605.65	369.80
605.80	351.08
605.96	388.53
606.12	409.59
606.27	458.74
606.43	348.74
606.58	444.70
606.74	351.08
606.89	461.09
607.05	470.45
607.20	381.51
607.36	440.02
607.51	449.38
607.67	447.04
607.82	374.49
607.98	444.70
608.13	430.66
608.29	463.43
608.44	472.79
608.60	395.55
608.75	418.96
608.91	456.40
609.06	437.68
609.22	423.64
609.37	376.83
609.53	322.99
609.68	360.44
609.84	451.72
609.99	454.06
610.15	470.45
