SpectraSuite Data File
++++++++++++++++++++++++++++++++++++
Date: Fri Oct 25 12:10:58 EDT 2013
User: price-jones
Dark Spectrum Present: No
Reference Spectrum Present: No
Number of Sampled Component Spectra: 1
Spectrometers: USB2+H05261
Integration Time (usec): 100000 (USB2+H05261)
Spectra Averaged: 1 (USB2+H05261)
Boxcar Smoothing: 0 (USB2+H05261)
Correct for Electrical Dark: No (USB2+H05261)
Strobe/Lamp Enabled: No (USB2+H05261)
Correct for Detector Non-linearity: No (USB2+H05261)
Correct for Stray Light: No (USB2+H05261)
Number of Pixels in Processed Spectrum: 2048
>>>>>Begin Processed Spectral Data<<<<<
365.73	351.08
365.92	351.08
366.12	351.08
366.32	231.71
366.52	212.99
366.72	229.37
366.91	222.35
367.11	250.44
367.31	294.91
367.51	257.46
367.70	191.92
367.90	222.35
368.10	229.37
368.30	201.29
368.49	217.67
368.69	215.33
368.89	292.57
369.09	208.31
369.28	294.91
369.48	266.82
369.68	320.65
369.87	337.04
370.07	280.86
370.27	346.40
370.47	297.25
370.66	318.31
370.86	266.82
371.06	374.49
371.25	416.62
371.45	348.74
371.65	421.30
371.84	318.31
372.04	402.57
372.24	425.98
372.44	381.51
372.63	402.57
372.83	411.93
373.03	369.80
373.22	379.17
373.42	393.21
373.62	393.21
373.81	411.93
374.01	442.36
374.21	472.79
374.40	355.76
374.60	463.43
374.79	449.38
374.99	402.57
375.19	433.00
375.38	444.70
375.58	442.36
375.78	395.55
375.97	353.42
376.17	458.74
376.37	402.57
376.56	393.21
376.76	407.25
376.95	409.59
377.15	402.57
377.35	437.68
377.54	416.62
377.74	386.19
377.93	379.17
378.13	407.25
378.33	421.30
378.52	447.04
378.72	411.93
378.91	404.91
379.11	388.53
379.31	376.83
379.50	409.59
379.70	411.93
379.89	425.98
380.09	365.12
380.28	369.80
380.48	411.93
380.68	337.04
380.87	442.36
381.07	428.32
381.26	351.08
381.46	442.36
381.65	447.04
381.85	395.55
382.04	416.62
382.24	486.83
382.43	472.79
382.63	376.83
382.83	451.72
383.02	477.47
383.22	407.25
383.41	388.53
383.61	388.53
383.80	442.36
384.00	444.70
384.19	470.45
384.39	447.04
384.58	400.23
384.78	421.30
384.97	418.96
385.17	433.00
385.36	402.57
385.56	435.34
385.75	454.06
385.95	379.17
386.14	449.38
386.34	397.89
386.53	402.57
386.72	402.57
386.92	479.81
387.11	433.00
387.31	461.09
387.50	393.21
387.70	365.12
387.89	395.55
388.09	390.87
388.28	407.25
388.48	379.17
388.67	423.64
388.86	400.23
389.06	407.25
389.25	468.11
389.45	409.59
389.64	435.34
389.84	435.34
390.03	458.74
390.22	465.77
390.42	346.40
390.61	367.46
390.81	442.36
391.00	463.43
391.19	383.85
391.39	386.19
391.58	416.62
391.78	451.72
391.97	433.00
392.16	407.25
392.36	402.57
392.55	351.08
392.75	407.25
392.94	388.53
393.13	409.59
393.33	372.15
393.52	454.06
393.71	388.53
393.91	425.98
394.10	421.30
394.29	468.11
394.49	351.08
394.68	358.10
394.88	404.91
395.07	444.70
395.26	404.91
395.46	365.12
395.65	458.74
395.84	388.53
396.04	407.25
396.23	423.64
396.42	395.55
396.62	379.17
396.81	353.42
397.00	411.93
397.19	433.00
397.39	447.04
397.58	430.66
397.77	339.38
397.97	388.53
398.16	407.25
398.35	425.98
398.55	411.93
398.74	397.89
398.93	507.90
399.12	430.66
399.32	454.06
399.51	440.02
399.70	456.40
399.90	433.00
400.09	503.22
400.28	407.25
400.47	395.55
400.67	465.77
400.86	397.89
401.05	407.25
401.24	447.04
401.44	411.93
401.63	489.17
401.82	414.27
402.01	416.62
402.21	475.13
402.40	376.83
402.59	362.78
402.78	388.53
402.97	421.30
403.17	372.15
403.36	334.70
403.55	383.85
403.74	346.40
403.93	362.78
404.13	374.49
404.32	428.32
404.51	425.98
404.70	442.36
404.89	414.27
405.09	409.59
405.28	472.79
405.47	425.98
405.66	386.19
405.85	454.06
406.05	423.64
406.24	369.80
406.43	461.09
406.62	425.98
406.81	456.40
407.00	402.57
407.20	447.04
407.39	362.78
407.58	400.23
407.77	435.34
407.96	390.87
408.15	414.27
408.34	423.64
408.54	409.59
408.73	390.87
408.92	400.23
409.11	374.49
409.30	447.04
409.49	397.89
409.68	428.32
409.87	428.32
410.07	447.04
410.26	447.04
410.45	407.25
410.64	369.80
410.83	454.06
411.02	425.98
411.21	456.40
411.40	463.43
411.59	411.93
411.78	442.36
411.98	409.59
412.17	430.66
412.36	397.89
412.55	430.66
412.74	388.53
412.93	367.46
413.12	411.93
413.31	374.49
413.50	395.55
413.69	337.04
413.88	451.72
414.07	346.40
414.26	355.76
414.45	404.91
414.64	421.30
414.83	416.62
415.02	421.30
415.22	447.04
415.41	414.27
415.60	472.79
415.79	355.76
415.98	451.72
416.17	390.87
416.36	437.68
416.55	407.25
416.74	440.02
416.93	341.72
417.12	491.51
417.31	376.83
417.50	369.80
417.69	475.13
417.88	407.25
418.07	444.70
418.26	411.93
418.45	404.91
418.64	449.38
418.83	418.96
419.02	451.72
419.21	458.74
419.39	407.25
419.58	407.25
419.77	374.49
419.96	433.00
420.15	414.27
420.34	322.99
420.53	425.98
420.72	381.51
420.91	358.10
421.10	430.66
421.29	388.53
421.48	393.21
421.67	447.04
421.86	388.53
422.05	461.09
422.24	402.57
422.43	425.98
422.61	353.42
422.80	395.55
422.99	390.87
423.18	374.49
423.37	510.24
423.56	430.66
423.75	411.93
423.94	425.98
424.13	421.30
424.32	425.98
424.50	383.85
424.69	402.57
424.88	407.25
425.07	428.32
425.26	463.43
425.45	374.49
425.64	440.02
425.83	468.11
426.01	437.68
426.20	444.70
426.39	407.25
426.58	409.59
426.77	479.81
426.96	433.00
427.15	411.93
427.33	404.91
427.52	428.32
427.71	374.49
427.90	383.85
428.09	430.66
428.28	482.15
428.46	379.17
428.65	372.15
428.84	400.23
429.03	465.77
429.22	421.30
429.40	390.87
429.59	390.87
429.78	341.72
429.97	484.49
430.16	468.11
430.34	379.17
430.53	470.45
430.72	411.93
430.91	425.98
431.10	402.57
431.28	425.98
431.47	414.27
431.66	454.06
431.85	376.83
432.03	395.55
432.22	498.53
432.41	430.66
432.60	451.72
432.79	461.09
432.97	367.46
433.16	447.04
433.35	463.43
433.54	404.91
433.72	379.17
433.91	472.79
434.10	435.34
434.28	451.72
434.47	416.62
434.66	407.25
434.85	416.62
435.03	428.32
435.22	390.87
435.41	407.25
435.59	388.53
435.78	437.68
435.97	388.53
436.16	414.27
436.34	372.15
436.53	395.55
436.72	437.68
436.90	388.53
437.09	421.30
437.28	369.80
437.46	411.93
437.65	390.87
437.84	355.76
438.02	386.19
438.21	402.57
438.40	397.89
438.58	402.57
438.77	404.91
438.96	339.38
439.14	402.57
439.33	404.91
439.52	407.25
439.70	411.93
439.89	440.02
440.08	332.36
440.26	458.74
440.45	425.98
440.63	454.06
440.82	425.98
441.01	376.83
441.19	430.66
441.38	433.00
441.57	484.49
441.75	493.85
441.94	444.70
442.12	423.64
442.31	367.46
442.50	348.74
442.68	397.89
442.87	400.23
443.05	451.72
443.24	437.68
443.43	379.17
443.61	425.98
443.80	465.77
443.98	409.59
444.17	444.70
444.35	442.36
444.54	355.76
444.73	430.66
444.91	383.85
445.10	449.38
445.28	383.85
445.47	421.30
445.65	458.74
445.84	418.96
446.02	369.80
446.21	351.08
446.39	390.87
446.58	367.46
446.77	409.59
446.95	372.15
447.14	421.30
447.32	472.79
447.51	383.85
447.69	397.89
447.88	416.62
448.06	505.56
448.25	486.83
448.43	341.72
448.62	327.68
448.80	334.70
448.99	351.08
449.17	388.53
449.36	383.85
449.54	472.79
449.73	339.38
449.91	475.13
450.10	418.96
450.28	440.02
450.46	456.40
450.65	447.04
450.83	421.30
451.02	423.64
451.20	411.93
451.39	425.98
451.57	372.15
451.76	367.46
451.94	437.68
452.13	414.27
452.31	500.87
452.49	414.27
452.68	433.00
452.86	456.40
453.05	479.81
453.23	381.51
453.42	414.27
453.60	416.62
453.78	440.02
453.97	423.64
454.15	311.29
454.34	423.64
454.52	379.17
454.70	433.00
454.89	489.17
455.07	440.02
455.26	428.32
455.44	425.98
455.62	418.96
455.81	437.68
455.99	409.59
456.17	425.98
456.36	379.17
456.54	430.66
456.73	383.85
456.91	395.55
457.09	360.44
457.28	428.32
457.46	411.93
457.64	418.96
457.83	381.51
458.01	451.72
458.19	400.23
458.38	409.59
458.56	472.79
458.74	411.93
458.93	369.80
459.11	355.76
459.29	346.40
459.48	395.55
459.66	456.40
459.84	486.83
460.03	496.19
460.21	430.66
460.39	477.47
460.57	498.53
460.76	418.96
460.94	346.40
461.12	468.11
461.31	425.98
461.49	383.85
461.67	500.87
461.85	374.49
462.04	388.53
462.22	777.06
462.40	442.36
462.59	418.96
462.77	374.49
462.95	430.66
463.13	414.27
463.32	489.17
463.50	461.09
463.68	402.57
463.86	390.87
464.05	395.55
464.23	423.64
464.41	451.72
464.59	470.45
464.78	402.57
464.96	451.72
465.14	423.64
465.32	381.51
465.50	414.27
465.69	435.34
465.87	330.02
466.05	365.12
466.23	418.96
466.41	461.09
466.60	358.10
466.78	400.23
466.96	400.23
467.14	388.53
467.32	397.89
467.51	411.93
467.69	435.34
467.87	418.96
468.05	451.72
468.23	498.53
468.41	430.66
468.60	416.62
468.78	397.89
468.96	447.04
469.14	440.02
469.32	428.32
469.50	334.70
469.69	435.34
469.87	418.96
470.05	409.59
470.23	454.06
470.41	388.53
470.59	454.06
470.77	430.66
470.95	407.25
471.14	428.32
471.32	367.46
471.50	411.93
471.68	451.72
471.86	416.62
472.04	437.68
472.22	482.15
472.40	444.70
472.58	374.49
472.77	425.98
472.95	414.27
473.13	435.34
473.31	365.12
473.49	325.33
473.67	456.40
473.85	379.17
474.03	435.34
474.21	411.93
474.39	461.09
474.57	433.00
474.75	409.59
474.93	418.96
475.12	409.59
475.30	435.34
475.48	358.10
475.66	383.85
475.84	407.25
476.02	437.68
476.20	470.45
476.38	358.10
476.56	430.66
476.74	482.15
476.92	367.46
477.10	430.66
477.28	440.02
477.46	395.55
477.64	386.19
477.82	409.59
478.00	411.93
478.18	418.96
478.36	397.89
478.54	404.91
478.72	383.85
478.90	414.27
479.08	418.96
479.26	409.59
479.44	402.57
479.62	383.85
479.80	463.43
479.98	458.74
480.16	428.32
480.34	402.57
480.52	409.59
480.70	433.00
480.88	416.62
481.06	428.32
481.24	407.25
481.41	383.85
481.59	472.79
481.77	330.02
481.95	449.38
482.13	435.34
482.31	416.62
482.49	395.55
482.67	411.93
482.85	404.91
483.03	449.38
483.21	423.64
483.39	393.21
483.57	327.68
483.74	468.11
483.92	402.57
484.10	440.02
484.28	463.43
484.46	433.00
484.64	418.96
484.82	456.40
485.00	348.74
485.18	376.83
485.35	397.89
485.53	411.93
485.71	416.62
485.89	381.51
486.07	372.15
486.25	442.36
486.43	407.25
486.61	477.47
486.78	447.04
486.96	444.70
487.14	421.30
487.32	407.25
487.50	402.57
487.68	416.62
487.85	407.25
488.03	454.06
488.21	440.02
488.39	407.25
488.57	416.62
488.75	395.55
488.92	447.04
489.10	404.91
489.28	400.23
489.46	362.78
489.64	348.74
489.81	435.34
489.99	437.68
490.17	430.66
490.35	362.78
490.53	416.62
490.70	374.49
490.88	428.32
491.06	395.55
491.24	388.53
491.41	451.72
491.59	451.72
491.77	400.23
491.95	416.62
492.13	433.00
492.30	414.27
492.48	388.53
492.66	414.27
492.84	451.72
493.01	402.57
493.19	402.57
493.37	397.89
493.54	444.70
493.72	437.68
493.90	470.45
494.08	444.70
494.25	489.17
494.43	430.66
494.61	386.19
494.79	425.98
494.96	374.49
495.14	493.85
495.32	451.72
495.49	411.93
495.67	456.40
495.85	414.27
496.02	451.72
496.20	447.04
496.38	411.93
496.55	433.00
496.73	477.47
496.91	393.21
497.09	475.13
497.26	393.21
497.44	362.78
497.62	421.30
497.79	470.45
497.97	404.91
498.14	470.45
498.32	379.17
498.50	386.19
498.67	369.80
498.85	404.91
499.03	404.91
499.20	458.74
499.38	369.80
499.56	489.17
499.73	510.24
499.91	437.68
500.08	374.49
500.26	388.53
500.44	355.76
500.61	367.46
500.79	397.89
500.97	393.21
501.14	376.83
501.32	526.62
501.49	435.34
501.67	470.45
501.84	477.47
502.02	374.49
502.20	503.22
502.37	440.02
502.55	421.30
502.72	388.53
502.90	404.91
503.07	435.34
503.25	376.83
503.43	409.59
503.60	355.76
503.78	468.11
503.95	376.83
504.13	332.36
504.30	449.38
504.48	388.53
504.65	456.40
504.83	369.80
505.01	433.00
505.18	409.59
505.36	444.70
505.53	491.51
505.71	418.96
505.88	409.59
506.06	390.87
506.23	407.25
506.41	425.98
506.58	421.30
506.76	334.70
506.93	386.19
507.11	330.02
507.28	390.87
507.46	381.51
507.63	425.98
507.81	447.04
507.98	395.55
508.16	388.53
508.33	465.77
508.50	477.47
508.68	479.81
508.85	395.55
509.03	351.08
509.20	388.53
509.38	470.45
509.55	435.34
509.73	442.36
509.90	440.02
510.08	430.66
510.25	423.64
510.42	348.74
510.60	388.53
510.77	491.51
510.95	411.93
511.12	447.04
511.30	430.66
511.47	418.96
511.64	397.89
511.82	458.74
511.99	395.55
512.17	449.38
512.34	414.27
512.51	374.49
512.69	365.12
512.86	418.96
513.04	493.85
513.21	414.27
513.38	372.15
513.56	376.83
513.73	379.17
513.90	444.70
514.08	409.59
514.25	376.83
514.43	491.51
514.60	365.12
514.77	358.10
514.95	400.23
515.12	332.36
515.29	337.04
515.47	395.55
515.64	414.27
515.81	414.27
515.99	440.02
516.16	402.57
516.33	435.34
516.51	390.87
516.68	404.91
516.85	414.27
517.03	423.64
517.20	451.72
517.37	388.53
517.54	390.87
517.72	381.51
517.89	425.98
518.06	468.11
518.24	407.25
518.41	435.34
518.58	400.23
518.75	428.32
518.93	379.17
519.10	475.13
519.27	435.34
519.45	353.42
519.62	454.06
519.79	397.89
519.96	407.25
520.14	383.85
520.31	428.32
520.48	440.02
520.65	421.30
520.83	430.66
521.00	404.91
521.17	404.91
521.34	369.80
521.52	440.02
521.69	379.17
521.86	369.80
522.03	449.38
522.20	425.98
522.38	376.83
522.55	433.00
522.72	447.04
522.89	498.53
523.07	503.22
523.24	430.66
523.41	425.98
523.58	470.45
523.75	400.23
523.92	451.72
524.10	409.59
524.27	411.93
524.44	409.59
524.61	414.27
524.78	390.87
524.96	388.53
525.13	411.93
525.30	475.13
525.47	449.38
525.64	468.11
525.81	418.96
525.98	430.66
526.16	449.38
526.33	404.91
526.50	437.68
526.67	374.49
526.84	390.87
527.01	416.62
527.18	372.15
527.36	386.19
527.53	388.53
527.70	440.02
527.87	444.70
528.04	402.57
528.21	416.62
528.38	468.11
528.55	402.57
528.72	463.43
528.89	358.10
529.07	407.25
529.24	379.17
529.41	435.34
529.58	404.91
529.75	423.64
529.92	475.13
530.09	493.85
530.26	503.22
530.43	447.04
530.60	365.12
530.77	435.34
530.94	444.70
531.11	475.13
531.28	367.46
531.46	423.64
531.63	407.25
531.80	339.38
531.97	418.96
532.14	451.72
532.31	400.23
532.48	367.46
532.65	353.42
532.82	386.19
532.99	463.43
533.16	444.70
533.33	444.70
533.50	421.30
533.67	409.59
533.84	447.04
534.01	428.32
534.18	416.62
534.35	407.25
534.52	407.25
534.69	433.00
534.86	388.53
535.03	386.19
535.20	365.12
535.37	440.02
535.54	433.00
535.71	383.85
535.88	407.25
536.05	440.02
536.22	379.17
536.38	425.98
536.55	393.21
536.72	496.19
536.89	418.96
537.06	484.49
537.23	404.91
537.40	404.91
537.57	411.93
537.74	524.28
537.91	435.34
538.08	351.08
538.25	351.08
538.42	468.11
538.59	409.59
538.75	369.80
538.92	416.62
539.09	404.91
539.26	407.25
539.43	442.36
539.60	355.76
539.77	393.21
539.94	388.53
540.11	365.12
540.28	475.13
540.44	411.93
540.61	386.19
540.78	306.61
540.95	376.83
541.12	475.13
541.29	372.15
541.46	486.83
541.62	409.59
541.79	416.62
541.96	388.53
542.13	442.36
542.30	435.34
542.47	454.06
542.63	362.78
542.80	454.06
542.97	468.11
543.14	337.04
543.31	425.98
543.48	416.62
543.64	461.09
543.81	428.32
543.98	393.21
544.15	411.93
544.32	411.93
544.48	428.32
544.65	447.04
544.82	454.06
544.99	421.30
545.16	423.64
545.32	416.62
545.49	430.66
545.66	425.98
545.83	461.09
546.00	397.89
546.16	444.70
546.33	346.40
546.50	442.36
546.67	435.34
546.83	369.80
547.00	351.08
547.17	447.04
547.34	414.27
547.50	425.98
547.67	379.17
547.84	421.30
548.00	334.70
548.17	379.17
548.34	386.19
548.51	416.62
548.67	360.44
548.84	402.57
549.01	407.25
549.18	433.00
549.34	447.04
549.51	423.64
549.68	407.25
549.84	449.38
550.01	365.12
550.18	526.62
550.34	456.40
550.51	435.34
550.68	444.70
550.84	411.93
551.01	437.68
551.18	376.83
551.34	353.42
551.51	489.17
551.68	484.49
551.84	472.79
552.01	409.59
552.18	402.57
552.34	355.76
552.51	402.57
552.68	416.62
552.84	369.80
553.01	397.89
553.18	456.40
553.34	411.93
553.51	390.87
553.67	442.36
553.84	449.38
554.01	461.09
554.17	418.96
554.34	411.93
554.51	475.13
554.67	512.58
554.84	346.40
555.00	416.62
555.17	374.49
555.33	493.85
555.50	346.40
555.67	435.34
555.83	416.62
556.00	437.68
556.16	550.03
556.33	442.36
556.50	386.19
556.66	437.68
556.83	421.30
556.99	355.76
557.16	367.46
557.32	365.12
557.49	463.43
557.65	369.80
557.82	388.53
557.98	409.59
558.15	367.46
558.32	348.74
558.48	458.74
558.65	402.57
558.81	409.59
558.98	418.96
559.14	402.57
559.31	447.04
559.47	372.15
559.64	395.55
559.80	433.00
559.97	376.83
560.13	383.85
560.30	404.91
560.46	390.87
560.63	428.32
560.79	372.15
560.96	456.40
561.12	475.13
561.29	447.04
561.45	498.53
561.61	379.17
561.78	489.17
561.94	423.64
562.11	355.76
562.27	390.87
562.44	400.23
562.60	411.93
562.77	414.27
562.93	482.15
563.10	484.49
563.26	351.08
563.42	454.06
563.59	383.85
563.75	381.51
563.92	395.55
564.08	435.34
564.24	397.89
564.41	458.74
564.57	437.68
564.74	353.42
564.90	468.11
565.07	461.09
565.23	388.53
565.39	409.59
565.56	409.59
565.72	433.00
565.88	423.64
566.05	393.21
566.21	355.76
566.38	397.89
566.54	470.45
566.70	348.74
566.87	344.06
567.03	339.38
567.19	454.06
567.36	388.53
567.52	358.10
567.68	465.77
567.85	433.00
568.01	421.30
568.17	400.23
568.34	442.36
568.50	407.25
568.66	360.44
568.83	503.22
568.99	355.76
569.15	463.43
569.32	451.72
569.48	411.93
569.64	379.17
569.81	430.66
569.97	393.21
570.13	411.93
570.30	468.11
570.46	484.49
570.62	386.19
570.78	397.89
570.95	425.98
571.11	421.30
571.27	414.27
571.43	320.65
571.60	358.10
571.76	379.17
571.92	404.91
572.09	442.36
572.25	444.70
572.41	442.36
572.57	428.32
572.74	449.38
572.90	496.19
573.06	421.30
573.22	465.77
573.38	433.00
573.55	514.92
573.71	440.02
573.87	400.23
574.03	365.12
574.20	365.12
574.36	468.11
574.52	416.62
574.68	411.93
574.84	397.89
575.01	358.10
575.17	407.25
575.33	451.72
575.49	388.53
575.65	414.27
575.82	463.43
575.98	362.78
576.14	414.27
576.30	362.78
576.46	425.98
576.62	465.77
576.79	330.02
576.95	442.36
577.11	369.80
577.27	367.46
577.43	451.72
577.59	543.00
577.75	484.49
577.92	437.68
578.08	437.68
578.24	390.87
578.40	435.34
578.56	418.96
578.72	465.77
578.88	395.55
579.04	393.21
579.21	397.89
579.37	397.89
579.53	479.81
579.69	397.89
579.85	369.80
580.01	404.91
580.17	393.21
580.33	355.76
580.49	416.62
580.65	461.09
580.82	376.83
580.98	393.21
581.14	430.66
581.30	461.09
581.46	468.11
581.62	393.21
581.78	409.59
581.94	374.49
582.10	404.91
582.26	442.36
582.42	421.30
582.58	440.02
582.74	299.59
582.90	444.70
583.06	423.64
583.22	423.64
583.38	416.62
583.54	379.17
583.70	503.22
583.86	407.25
584.02	397.89
584.18	437.68
584.34	416.62
584.50	451.72
584.66	498.53
584.82	458.74
584.98	454.06
585.14	411.93
585.30	472.79
585.46	353.42
585.62	327.68
585.78	477.47
585.94	477.47
586.10	433.00
586.26	435.34
586.42	404.91
586.58	390.87
586.74	477.47
586.90	435.34
587.06	416.62
587.22	416.62
587.38	449.38
587.54	386.19
587.70	449.38
587.86	491.51
588.02	395.55
588.18	435.34
588.34	418.96
588.49	414.27
588.65	376.83
588.81	437.68
588.97	400.23
589.13	447.04
589.29	425.98
589.45	440.02
589.61	423.64
589.77	447.04
589.93	334.70
590.08	440.02
590.24	451.72
590.40	430.66
590.56	442.36
590.72	386.19
590.88	421.30
591.04	491.51
591.20	395.55
591.35	393.21
591.51	444.70
591.67	454.06
591.83	407.25
591.99	444.70
592.15	416.62
592.31	447.04
592.46	433.00
592.62	379.17
592.78	444.70
592.94	421.30
593.10	435.34
593.26	411.93
593.41	472.79
593.57	440.02
593.73	451.72
593.89	433.00
594.05	402.57
594.20	444.70
594.36	407.25
594.52	395.55
594.68	451.72
594.84	344.06
594.99	440.02
595.15	470.45
595.31	416.62
595.47	442.36
595.62	461.09
595.78	437.68
595.94	362.78
596.10	404.91
596.25	397.89
596.41	341.72
596.57	341.72
596.73	369.80
596.88	416.62
597.04	393.21
597.20	407.25
597.36	425.98
597.51	379.17
597.67	447.04
597.83	418.96
597.99	425.98
598.14	435.34
598.30	440.02
598.46	397.89
598.61	442.36
598.77	374.49
598.93	393.21
599.09	341.72
599.24	386.19
599.40	423.64
599.56	433.00
599.71	400.23
599.87	418.96
600.03	386.19
600.18	433.00
600.34	454.06
600.50	442.36
600.65	388.53
600.81	437.68
600.97	381.51
601.12	402.57
601.28	421.30
601.44	440.02
601.59	355.76
601.75	397.89
601.91	416.62
602.06	477.47
602.22	425.98
602.37	449.38
602.53	437.68
602.69	423.64
602.84	440.02
603.00	409.59
603.16	402.57
603.31	465.77
603.47	416.62
603.62	444.70
603.78	414.27
603.94	414.27
604.09	435.34
604.25	383.85
604.40	435.34
604.56	411.93
604.71	390.87
604.87	355.76
605.03	451.72
605.18	428.32
605.34	397.89
605.49	463.43
605.65	414.27
605.80	358.10
605.96	447.04
606.12	477.47
606.27	447.04
606.43	395.55
606.58	435.34
606.74	435.34
606.89	386.19
607.05	383.85
607.20	397.89
607.36	381.51
607.51	381.51
607.67	374.49
607.82	407.25
607.98	397.89
608.13	374.49
608.29	430.66
608.44	456.40
608.60	435.34
608.75	449.38
608.91	393.21
609.06	409.59
609.22	421.30
609.37	381.51
609.53	402.57
609.68	409.59
609.84	386.19
609.99	430.66
610.15	465.77
