SpectraSuite Data File
++++++++++++++++++++++++++++++++++++
Date: Fri Oct 25 12:11:18 EDT 2013
User: price-jones
Dark Spectrum Present: No
Reference Spectrum Present: No
Number of Sampled Component Spectra: 1
Spectrometers: USB2+H05261
Integration Time (usec): 100000 (USB2+H05261)
Spectra Averaged: 1 (USB2+H05261)
Boxcar Smoothing: 0 (USB2+H05261)
Correct for Electrical Dark: No (USB2+H05261)
Strobe/Lamp Enabled: No (USB2+H05261)
Correct for Detector Non-linearity: No (USB2+H05261)
Correct for Stray Light: No (USB2+H05261)
Number of Pixels in Processed Spectrum: 2048
>>>>>Begin Processed Spectral Data<<<<<
365.73	339.38
365.92	339.38
366.12	339.38
366.32	346.40
366.52	257.46
366.72	299.59
366.91	280.86
367.11	205.97
367.31	283.20
367.51	212.99
367.70	236.39
367.90	301.93
368.10	252.78
368.30	177.88
368.49	304.27
368.69	273.84
368.89	241.08
369.09	168.52
369.28	222.35
369.48	283.20
369.68	308.95
369.87	325.33
370.07	297.25
370.27	297.25
370.47	292.57
370.66	315.97
370.86	308.95
371.06	430.66
371.25	374.49
371.45	400.23
371.65	388.53
371.84	355.76
372.04	395.55
372.24	393.21
372.44	400.23
372.63	355.76
372.83	381.51
373.03	374.49
373.22	430.66
373.42	379.17
373.62	447.04
373.81	416.62
374.01	386.19
374.21	393.21
374.40	374.49
374.60	395.55
374.79	433.00
374.99	402.57
375.19	416.62
375.38	402.57
375.58	409.59
375.78	376.83
375.97	440.02
376.17	479.81
376.37	463.43
376.56	489.17
376.76	348.74
376.95	390.87
377.15	440.02
377.35	435.34
377.54	454.06
377.74	334.70
377.93	428.32
378.13	395.55
378.33	423.64
378.52	409.59
378.72	393.21
378.91	484.49
379.11	365.12
379.31	372.15
379.50	348.74
379.70	433.00
379.89	440.02
380.09	393.21
380.28	402.57
380.48	465.77
380.68	454.06
380.87	362.78
381.07	421.30
381.26	407.25
381.46	325.33
381.65	519.60
381.85	313.63
382.04	365.12
382.24	367.46
382.43	374.49
382.63	414.27
382.83	416.62
383.02	395.55
383.22	418.96
383.41	355.76
383.61	407.25
383.80	468.11
384.00	402.57
384.19	397.89
384.39	383.85
384.58	444.70
384.78	444.70
384.97	397.89
385.17	442.36
385.36	409.59
385.56	358.10
385.75	435.34
385.95	395.55
386.14	470.45
386.34	390.87
386.53	444.70
386.72	451.72
386.92	397.89
387.11	418.96
387.31	449.38
387.50	428.32
387.70	390.87
387.89	465.77
388.09	386.19
388.28	351.08
388.48	367.46
388.67	447.04
388.86	409.59
389.06	383.85
389.25	440.02
389.45	425.98
389.64	411.93
389.84	440.02
390.03	425.98
390.22	395.55
390.42	456.40
390.61	365.12
390.81	369.80
391.00	440.02
391.19	507.90
391.39	374.49
391.58	442.36
391.78	400.23
391.97	337.04
392.16	337.04
392.36	477.47
392.55	418.96
392.75	341.72
392.94	435.34
393.13	404.91
393.33	454.06
393.52	444.70
393.71	423.64
393.91	463.43
394.10	386.19
394.29	388.53
394.49	433.00
394.68	423.64
394.88	444.70
395.07	433.00
395.26	447.04
395.46	489.17
395.65	470.45
395.84	348.74
396.04	451.72
396.23	388.53
396.42	421.30
396.62	505.56
396.81	428.32
397.00	477.47
397.19	379.17
397.39	468.11
397.58	444.70
397.77	414.27
397.97	372.15
398.16	414.27
398.35	442.36
398.55	402.57
398.74	379.17
398.93	414.27
399.12	388.53
399.32	414.27
399.51	507.90
399.70	386.19
399.90	435.34
400.09	388.53
400.28	475.13
400.47	447.04
400.67	425.98
400.86	435.34
401.05	400.23
401.24	386.19
401.44	397.89
401.63	418.96
401.82	430.66
402.01	543.00
402.21	395.55
402.40	421.30
402.59	393.21
402.78	325.33
402.97	425.98
403.17	444.70
403.36	430.66
403.55	505.56
403.74	428.32
403.93	451.72
404.13	442.36
404.32	386.19
404.51	353.42
404.70	489.17
404.89	428.32
405.09	461.09
405.28	437.68
405.47	395.55
405.66	421.30
405.85	468.11
406.05	404.91
406.24	449.38
406.43	456.40
406.62	440.02
406.81	454.06
407.00	433.00
407.20	355.76
407.39	397.89
407.58	362.78
407.77	369.80
407.96	404.91
408.15	313.63
408.34	355.76
408.54	435.34
408.73	451.72
408.92	428.32
409.11	482.15
409.30	414.27
409.49	416.62
409.68	411.93
409.87	397.89
410.07	400.23
410.26	383.85
410.45	367.46
410.64	372.15
410.83	421.30
411.02	531.30
411.21	397.89
411.40	454.06
411.59	421.30
411.78	442.36
411.98	402.57
412.17	423.64
412.36	428.32
412.55	390.87
412.74	454.06
412.93	484.49
413.12	344.06
413.31	428.32
413.50	491.51
413.69	407.25
413.88	372.15
414.07	425.98
414.26	430.66
414.45	351.08
414.64	418.96
414.83	383.85
415.02	411.93
415.22	381.51
415.41	421.30
415.60	351.08
415.79	470.45
415.98	315.97
416.17	393.21
416.36	407.25
416.55	430.66
416.74	383.85
416.93	458.74
417.12	376.83
417.31	402.57
417.50	395.55
417.69	461.09
417.88	498.53
418.07	365.12
418.26	332.36
418.45	395.55
418.64	369.80
418.83	374.49
419.02	395.55
419.21	407.25
419.39	421.30
419.58	442.36
419.77	402.57
419.96	444.70
420.15	440.02
420.34	393.21
420.53	411.93
420.72	440.02
420.91	425.98
421.10	393.21
421.29	383.85
421.48	383.85
421.67	435.34
421.86	388.53
422.05	379.17
422.24	425.98
422.43	437.68
422.61	409.59
422.80	425.98
422.99	451.72
423.18	390.87
423.37	362.78
423.56	442.36
423.75	433.00
423.94	376.83
424.13	440.02
424.32	390.87
424.50	404.91
424.69	411.93
424.88	418.96
425.07	393.21
425.26	477.47
425.45	409.59
425.64	423.64
425.83	423.64
426.01	454.06
426.20	463.43
426.39	353.42
426.58	444.70
426.77	346.40
426.96	400.23
427.15	416.62
427.33	449.38
427.52	411.93
427.71	456.40
427.90	348.74
428.09	458.74
428.28	409.59
428.46	379.17
428.65	472.79
428.84	423.64
429.03	444.70
429.22	437.68
429.40	381.51
429.59	388.53
429.78	454.06
429.97	409.59
430.16	463.43
430.34	458.74
430.53	451.72
430.72	465.77
430.91	430.66
431.10	500.87
431.28	423.64
431.47	428.32
431.66	465.77
431.85	395.55
432.03	369.80
432.22	458.74
432.41	414.27
432.60	470.45
432.79	353.42
432.97	388.53
433.16	451.72
433.35	435.34
433.54	390.87
433.72	433.00
433.91	423.64
434.10	454.06
434.28	423.64
434.47	390.87
434.66	414.27
434.85	393.21
435.03	414.27
435.22	535.98
435.41	491.51
435.59	423.64
435.78	510.24
435.97	416.62
436.16	418.96
436.34	407.25
436.53	423.64
436.72	411.93
436.90	514.92
437.09	416.62
437.28	409.59
437.46	374.49
437.65	433.00
437.84	458.74
438.02	433.00
438.21	407.25
438.40	416.62
438.58	393.21
438.77	456.40
438.96	393.21
439.14	421.30
439.33	505.56
439.52	393.21
439.70	341.72
439.89	379.17
440.08	369.80
440.26	489.17
440.45	444.70
440.63	402.57
440.82	390.87
441.01	400.23
441.19	414.27
441.38	376.83
441.57	416.62
441.75	472.79
441.94	489.17
442.12	451.72
442.31	440.02
442.50	407.25
442.68	430.66
442.87	470.45
443.05	393.21
443.24	404.91
443.43	430.66
443.61	435.34
443.80	451.72
443.98	409.59
444.17	362.78
444.35	475.13
444.54	430.66
444.73	425.98
444.91	435.34
445.10	381.51
445.28	430.66
445.47	442.36
445.65	339.38
445.84	404.91
446.02	360.44
446.21	395.55
446.39	358.10
446.58	423.64
446.77	411.93
446.95	409.59
447.14	454.06
447.32	423.64
447.51	388.53
447.69	430.66
447.88	339.38
448.06	395.55
448.25	433.00
448.43	500.87
448.62	404.91
448.80	442.36
448.99	402.57
449.17	411.93
449.36	393.21
449.54	390.87
449.73	402.57
449.91	388.53
450.10	421.30
450.28	442.36
450.46	425.98
450.65	470.45
450.83	442.36
451.02	472.79
451.20	428.32
451.39	376.83
451.57	388.53
451.76	400.23
451.94	407.25
452.13	456.40
452.31	433.00
452.49	423.64
452.68	383.85
452.86	449.38
453.05	447.04
453.23	477.47
453.42	383.85
453.60	367.46
453.78	393.21
453.97	390.87
454.15	411.93
454.34	411.93
454.52	402.57
454.70	475.13
454.89	442.36
455.07	397.89
455.26	482.15
455.44	472.79
455.62	348.74
455.81	411.93
455.99	386.19
456.17	454.06
456.36	353.42
456.54	404.91
456.73	355.76
456.91	437.68
457.09	358.10
457.28	346.40
457.46	482.15
457.64	390.87
457.83	355.76
458.01	400.23
458.19	409.59
458.38	409.59
458.56	414.27
458.74	301.93
458.93	489.17
459.11	444.70
459.29	355.76
459.48	505.56
459.66	458.74
459.84	414.27
460.03	454.06
460.21	465.77
460.39	397.89
460.57	442.36
460.76	404.91
460.94	397.89
461.12	447.04
461.31	430.66
461.49	428.32
461.67	381.51
461.85	458.74
462.04	383.85
462.22	746.63
462.40	435.34
462.59	402.57
462.77	372.15
462.95	458.74
463.13	421.30
463.32	416.62
463.50	390.87
463.68	411.93
463.86	376.83
464.05	390.87
464.23	423.64
464.41	475.13
464.59	409.59
464.78	397.89
464.96	458.74
465.14	444.70
465.32	421.30
465.50	400.23
465.69	442.36
465.87	393.21
466.05	381.51
466.23	425.98
466.41	472.79
466.60	390.87
466.78	442.36
466.96	409.59
467.14	433.00
467.32	437.68
467.51	379.17
467.69	393.21
467.87	447.04
468.05	458.74
468.23	458.74
468.41	521.94
468.60	402.57
468.78	395.55
468.96	484.49
469.14	395.55
469.32	423.64
469.50	463.43
469.69	409.59
469.87	388.53
470.05	395.55
470.23	451.72
470.41	374.49
470.59	386.19
470.77	369.80
470.95	425.98
471.14	383.85
471.32	418.96
471.50	435.34
471.68	414.27
471.86	369.80
472.04	374.49
472.22	376.83
472.40	418.96
472.58	395.55
472.77	379.17
472.95	463.43
473.13	461.09
473.31	524.28
473.49	407.25
473.67	358.10
473.85	447.04
474.03	400.23
474.21	463.43
474.39	414.27
474.57	440.02
474.75	351.08
474.93	400.23
475.12	402.57
475.30	437.68
475.48	376.83
475.66	409.59
475.84	376.83
476.02	369.80
476.20	397.89
476.38	461.09
476.56	470.45
476.74	395.55
476.92	421.30
477.10	395.55
477.28	360.44
477.46	407.25
477.64	472.79
477.82	416.62
478.00	341.72
478.18	334.70
478.36	503.22
478.54	358.10
478.72	433.00
478.90	433.00
479.08	397.89
479.26	395.55
479.44	433.00
479.62	402.57
479.80	435.34
479.98	388.53
480.16	379.17
480.34	454.06
480.52	451.72
480.70	411.93
480.88	463.43
481.06	367.46
481.24	411.93
481.41	397.89
481.59	444.70
481.77	449.38
481.95	428.32
482.13	407.25
482.31	346.40
482.49	414.27
482.67	376.83
482.85	437.68
483.03	430.66
483.21	393.21
483.39	409.59
483.57	365.12
483.74	465.77
483.92	404.91
484.10	353.42
484.28	407.25
484.46	500.87
484.64	435.34
484.82	533.64
485.00	440.02
485.18	404.91
485.35	414.27
485.53	374.49
485.71	402.57
485.89	440.02
486.07	393.21
486.25	486.83
486.43	503.22
486.61	463.43
486.78	421.30
486.96	395.55
487.14	479.81
487.32	383.85
487.50	369.80
487.68	425.98
487.85	390.87
488.03	388.53
488.21	456.40
488.39	386.19
488.57	416.62
488.75	458.74
488.92	543.00
489.10	393.21
489.28	491.51
489.46	456.40
489.64	421.30
489.81	416.62
489.99	369.80
490.17	423.64
490.35	503.22
490.53	402.57
490.70	418.96
490.88	425.98
491.06	376.83
491.24	449.38
491.41	477.47
491.59	430.66
491.77	442.36
491.95	400.23
492.13	423.64
492.30	458.74
492.48	393.21
492.66	395.55
492.84	416.62
493.01	409.59
493.19	381.51
493.37	428.32
493.54	416.62
493.72	430.66
493.90	437.68
494.08	395.55
494.25	341.72
494.43	360.44
494.61	484.49
494.79	353.42
494.96	430.66
495.14	393.21
495.32	407.25
495.49	423.64
495.67	510.24
495.85	458.74
496.02	425.98
496.20	435.34
496.38	355.76
496.55	404.91
496.73	362.78
496.91	437.68
497.09	468.11
497.26	404.91
497.44	479.81
497.62	425.98
497.79	461.09
497.97	346.40
498.14	416.62
498.32	423.64
498.50	390.87
498.67	346.40
498.85	400.23
499.03	479.81
499.20	341.72
499.38	355.76
499.56	407.25
499.73	369.80
499.91	407.25
500.08	423.64
500.26	456.40
500.44	442.36
500.61	355.76
500.79	365.12
500.97	421.30
501.14	430.66
501.32	440.02
501.49	388.53
501.67	404.91
501.84	489.17
502.02	444.70
502.20	521.94
502.37	423.64
502.55	416.62
502.72	393.21
502.90	425.98
503.07	430.66
503.25	428.32
503.43	425.98
503.60	454.06
503.78	362.78
503.95	393.21
504.13	407.25
504.30	451.72
504.48	397.89
504.65	425.98
504.83	425.98
505.01	433.00
505.18	411.93
505.36	390.87
505.53	440.02
505.71	423.64
505.88	468.11
506.06	433.00
506.23	463.43
506.41	388.53
506.58	435.34
506.76	414.27
506.93	407.25
507.11	454.06
507.28	475.13
507.46	400.23
507.63	400.23
507.81	423.64
507.98	358.10
508.16	430.66
508.33	421.30
508.50	320.65
508.68	423.64
508.85	418.96
509.03	390.87
509.20	416.62
509.38	320.65
509.55	362.78
509.73	402.57
509.90	440.02
510.08	451.72
510.25	428.32
510.42	351.08
510.60	383.85
510.77	423.64
510.95	428.32
511.12	355.76
511.30	442.36
511.47	503.22
511.64	430.66
511.82	433.00
511.99	402.57
512.17	400.23
512.34	379.17
512.51	449.38
512.69	425.98
512.86	458.74
513.04	416.62
513.21	421.30
513.38	346.40
513.56	435.34
513.73	463.43
513.90	444.70
514.08	351.08
514.25	376.83
514.43	411.93
514.60	451.72
514.77	433.00
514.95	411.93
515.12	334.70
515.29	472.79
515.47	479.81
515.64	383.85
515.81	440.02
515.99	400.23
516.16	458.74
516.33	425.98
516.51	442.36
516.68	390.87
516.85	428.32
517.03	409.59
517.20	444.70
517.37	428.32
517.54	395.55
517.72	374.49
517.89	395.55
518.06	362.78
518.24	407.25
518.41	461.09
518.58	454.06
518.75	477.47
518.93	454.06
519.10	411.93
519.27	479.81
519.45	372.15
519.62	451.72
519.79	447.04
519.96	386.19
520.14	416.62
520.31	409.59
520.48	367.46
520.65	367.46
520.83	404.91
521.00	463.43
521.17	447.04
521.34	383.85
521.52	433.00
521.69	372.15
521.86	414.27
522.03	435.34
522.20	449.38
522.38	433.00
522.55	404.91
522.72	428.32
522.89	397.89
523.07	428.32
523.24	442.36
523.41	440.02
523.58	374.49
523.75	358.10
523.92	365.12
524.10	461.09
524.27	395.55
524.44	402.57
524.61	491.51
524.78	463.43
524.96	400.23
525.13	437.68
525.30	475.13
525.47	468.11
525.64	433.00
525.81	468.11
525.98	418.96
526.16	358.10
526.33	393.21
526.50	454.06
526.67	425.98
526.84	372.15
527.01	395.55
527.18	472.79
527.36	454.06
527.53	440.02
527.70	435.34
527.87	423.64
528.04	416.62
528.21	379.17
528.38	402.57
528.55	423.64
528.72	423.64
528.89	418.96
529.07	388.53
529.24	442.36
529.41	461.09
529.58	372.15
529.75	461.09
529.92	442.36
530.09	433.00
530.26	423.64
530.43	400.23
530.60	449.38
530.77	421.30
530.94	430.66
531.11	486.83
531.28	472.79
531.46	397.89
531.63	383.85
531.80	414.27
531.97	421.30
532.14	454.06
532.31	425.98
532.48	444.70
532.65	447.04
532.82	456.40
532.99	414.27
533.16	428.32
533.33	430.66
533.50	414.27
533.67	327.68
533.84	414.27
534.01	458.74
534.18	409.59
534.35	463.43
534.52	409.59
534.69	414.27
534.86	423.64
535.03	386.19
535.20	395.55
535.37	425.98
535.54	451.72
535.71	376.83
535.88	482.15
536.05	346.40
536.22	409.59
536.38	411.93
536.55	414.27
536.72	369.80
536.89	414.27
537.06	454.06
537.23	430.66
537.40	433.00
537.57	437.68
537.74	479.81
537.91	454.06
538.08	435.34
538.25	458.74
538.42	418.96
538.59	395.55
538.75	428.32
538.92	463.43
539.09	404.91
539.26	341.72
539.43	444.70
539.60	416.62
539.77	435.34
539.94	404.91
540.11	407.25
540.28	428.32
540.44	395.55
540.61	437.68
540.78	414.27
540.95	400.23
541.12	510.24
541.29	430.66
541.46	533.64
541.62	454.06
541.79	358.10
541.96	308.95
542.13	472.79
542.30	379.17
542.47	381.51
542.63	425.98
542.80	393.21
542.97	442.36
543.14	423.64
543.31	447.04
543.48	472.79
543.64	433.00
543.81	411.93
543.98	407.25
544.15	484.49
544.32	388.53
544.48	425.98
544.65	407.25
544.82	468.11
544.99	355.76
545.16	456.40
545.32	393.21
545.49	428.32
545.66	397.89
545.83	404.91
546.00	425.98
546.16	390.87
546.33	402.57
546.50	493.85
546.67	524.28
546.83	442.36
547.00	423.64
547.17	390.87
547.34	402.57
547.50	421.30
547.67	393.21
547.84	442.36
548.00	433.00
548.17	416.62
548.34	456.40
548.51	318.31
548.67	428.32
548.84	411.93
549.01	423.64
549.18	404.91
549.34	404.91
549.51	463.43
549.68	423.64
549.84	423.64
550.01	461.09
550.18	475.13
550.34	468.11
550.51	386.19
550.68	489.17
550.84	423.64
551.01	458.74
551.18	468.11
551.34	477.47
551.51	440.02
551.68	308.95
551.84	414.27
552.01	393.21
552.18	428.32
552.34	444.70
552.51	442.36
552.68	496.19
552.84	416.62
553.01	461.09
553.18	449.38
553.34	442.36
553.51	414.27
553.67	393.21
553.84	372.15
554.01	442.36
554.17	482.15
554.34	400.23
554.51	407.25
554.67	449.38
554.84	428.32
555.00	411.93
555.17	456.40
555.33	433.00
555.50	482.15
555.67	461.09
555.83	388.53
556.00	395.55
556.16	519.60
556.33	479.81
556.50	411.93
556.66	414.27
556.83	376.83
556.99	379.17
557.16	425.98
557.32	418.96
557.49	397.89
557.65	447.04
557.82	388.53
557.98	421.30
558.15	402.57
558.32	388.53
558.48	358.10
558.65	505.56
558.81	404.91
558.98	421.30
559.14	461.09
559.31	369.80
559.47	465.77
559.64	423.64
559.80	461.09
559.97	379.17
560.13	447.04
560.30	351.08
560.46	440.02
560.63	423.64
560.79	416.62
560.96	409.59
561.12	454.06
561.29	430.66
561.45	423.64
561.61	416.62
561.78	451.72
561.94	423.64
562.11	369.80
562.27	402.57
562.44	468.11
562.60	484.49
562.77	402.57
562.93	404.91
563.10	409.59
563.26	407.25
563.42	433.00
563.59	484.49
563.75	442.36
563.92	489.17
564.08	428.32
564.24	435.34
564.41	491.51
564.57	388.53
564.74	465.77
564.90	411.93
565.07	435.34
565.23	430.66
565.39	416.62
565.56	411.93
565.72	454.06
565.88	444.70
566.05	362.78
566.21	402.57
566.38	376.83
566.54	418.96
566.70	451.72
566.87	367.46
567.03	367.46
567.19	404.91
567.36	428.32
567.52	425.98
567.68	461.09
567.85	411.93
568.01	428.32
568.17	416.62
568.34	374.49
568.50	461.09
568.66	449.38
568.83	437.68
568.99	409.59
569.15	414.27
569.32	395.55
569.48	414.27
569.64	400.23
569.81	402.57
569.97	421.30
570.13	447.04
570.30	421.30
570.46	421.30
570.62	468.11
570.78	461.09
570.95	416.62
571.11	393.21
571.27	418.96
571.43	404.91
571.60	395.55
571.76	418.96
571.92	465.77
572.09	404.91
572.25	444.70
572.41	465.77
572.57	414.27
572.74	376.83
572.90	458.74
573.06	416.62
573.22	418.96
573.38	449.38
573.55	311.29
573.71	425.98
573.87	435.34
574.03	430.66
574.20	468.11
574.36	404.91
574.52	407.25
574.68	388.53
574.84	442.36
575.01	421.30
575.17	454.06
575.33	407.25
575.49	463.43
575.65	341.72
575.82	454.06
575.98	379.17
576.14	358.10
576.30	435.34
576.46	430.66
576.62	386.19
576.79	475.13
576.95	442.36
577.11	369.80
577.27	465.77
577.43	477.47
577.59	465.77
577.75	454.06
577.92	461.09
578.08	414.27
578.24	482.15
578.40	400.23
578.56	433.00
578.72	388.53
578.88	381.51
579.04	416.62
579.21	454.06
579.37	409.59
579.53	381.51
579.69	390.87
579.85	388.53
580.01	477.47
580.17	411.93
580.33	447.04
580.49	425.98
580.65	351.08
580.82	447.04
580.98	393.21
581.14	376.83
581.30	437.68
581.46	472.79
581.62	479.81
581.78	444.70
581.94	407.25
582.10	414.27
582.26	402.57
582.42	421.30
582.58	395.55
582.74	402.57
582.90	428.32
583.06	423.64
583.22	362.78
583.38	404.91
583.54	379.17
583.70	433.00
583.86	372.15
584.02	386.19
584.18	461.09
584.34	320.65
584.50	346.40
584.66	369.80
584.82	458.74
584.98	407.25
585.14	395.55
585.30	507.90
585.46	477.47
585.62	435.34
585.78	395.55
585.94	362.78
586.10	407.25
586.26	409.59
586.42	505.56
586.58	355.76
586.74	418.96
586.90	400.23
587.06	414.27
587.22	442.36
587.38	299.59
587.54	437.68
587.70	421.30
587.86	447.04
588.02	400.23
588.18	416.62
588.34	489.17
588.49	341.72
588.65	437.68
588.81	414.27
588.97	337.04
589.13	428.32
589.29	386.19
589.45	468.11
589.61	414.27
589.77	435.34
589.93	456.40
590.08	451.72
590.24	341.72
590.40	449.38
590.56	489.17
590.72	358.10
590.88	386.19
591.04	479.81
591.20	383.85
591.35	449.38
591.51	409.59
591.67	404.91
591.83	433.00
591.99	454.06
592.15	437.68
592.31	433.00
592.46	404.91
592.62	409.59
592.78	449.38
592.94	393.21
593.10	430.66
593.26	418.96
593.41	491.51
593.57	404.91
593.73	449.38
593.89	458.74
594.05	433.00
594.20	451.72
594.36	437.68
594.52	475.13
594.68	404.91
594.84	383.85
594.99	395.55
595.15	425.98
595.31	437.68
595.47	414.27
595.62	416.62
595.78	433.00
595.94	421.30
596.10	404.91
596.25	402.57
596.41	418.96
596.57	386.19
596.73	393.21
596.88	353.42
597.04	414.27
597.20	409.59
597.36	470.45
597.51	400.23
597.67	433.00
597.83	430.66
597.99	475.13
598.14	348.74
598.30	430.66
598.46	407.25
598.61	433.00
598.77	449.38
598.93	400.23
599.09	416.62
599.24	510.24
599.40	423.64
599.56	440.02
599.71	409.59
599.87	346.40
600.03	447.04
600.18	416.62
600.34	461.09
600.50	386.19
600.65	440.02
600.81	430.66
600.97	351.08
601.12	414.27
601.28	463.43
601.44	435.34
601.59	372.15
601.75	423.64
601.91	397.89
602.06	395.55
602.22	472.79
602.37	437.68
602.53	437.68
602.69	440.02
602.84	390.87
603.00	390.87
603.16	435.34
603.31	367.46
603.47	456.40
603.62	393.21
603.78	407.25
603.94	411.93
604.09	402.57
604.25	421.30
604.40	444.70
604.56	418.96
604.71	437.68
604.87	437.68
605.03	390.87
605.18	390.87
605.34	402.57
605.49	456.40
605.65	435.34
605.80	402.57
605.96	388.53
606.12	440.02
606.27	496.19
606.43	393.21
606.58	433.00
606.74	428.32
606.89	482.15
607.05	423.64
607.20	402.57
607.36	454.06
607.51	383.85
607.67	430.66
607.82	381.51
607.98	435.34
608.13	456.40
608.29	444.70
608.44	381.51
608.60	428.32
608.75	484.49
608.91	374.49
609.06	337.04
609.22	372.15
609.37	400.23
609.53	418.96
609.68	414.27
609.84	454.06
609.99	341.72
610.15	449.38
