SpectraSuite Data File
++++++++++++++++++++++++++++++++++++
Date: Fri Oct 25 12:10:46 EDT 2013
User: price-jones
Dark Spectrum Present: No
Reference Spectrum Present: No
Number of Sampled Component Spectra: 1
Spectrometers: USB2+H05261
Integration Time (usec): 100000 (USB2+H05261)
Spectra Averaged: 1 (USB2+H05261)
Boxcar Smoothing: 0 (USB2+H05261)
Correct for Electrical Dark: No (USB2+H05261)
Strobe/Lamp Enabled: No (USB2+H05261)
Correct for Detector Non-linearity: No (USB2+H05261)
Correct for Stray Light: No (USB2+H05261)
Number of Pixels in Processed Spectrum: 2048
>>>>>Begin Processed Spectral Data<<<<<
365.73	344.06
365.92	344.06
366.12	344.06
366.32	257.46
366.52	252.78
366.72	217.67
366.91	215.33
367.11	231.71
367.31	227.03
367.51	224.69
367.70	273.84
367.90	269.16
368.10	163.84
368.30	259.80
368.49	262.14
368.69	173.20
368.89	241.08
369.09	205.97
369.28	327.68
369.48	337.04
369.68	332.36
369.87	308.95
370.07	339.38
370.27	337.04
370.47	290.23
370.66	351.08
370.86	365.12
371.06	341.72
371.25	430.66
371.45	411.93
371.65	348.74
371.84	390.87
372.04	400.23
372.24	355.76
372.44	376.83
372.63	353.42
372.83	358.10
373.03	437.68
373.22	365.12
373.42	477.47
373.62	353.42
373.81	393.21
374.01	430.66
374.21	393.21
374.40	423.64
374.60	407.25
374.79	421.30
374.99	360.44
375.19	435.34
375.38	428.32
375.58	500.87
375.78	454.06
375.97	421.30
376.17	475.13
376.37	437.68
376.56	421.30
376.76	423.64
376.95	425.98
377.15	454.06
377.35	411.93
377.54	402.57
377.74	383.85
377.93	372.15
378.13	430.66
378.33	397.89
378.52	369.80
378.72	440.02
378.91	341.72
379.11	379.17
379.31	390.87
379.50	397.89
379.70	402.57
379.89	421.30
380.09	353.42
380.28	379.17
380.48	425.98
380.68	407.25
380.87	411.93
381.07	468.11
381.26	421.30
381.46	355.76
381.65	407.25
381.85	390.87
382.04	404.91
382.24	428.32
382.43	433.00
382.63	369.80
382.83	383.85
383.02	430.66
383.22	454.06
383.41	383.85
383.61	430.66
383.80	376.83
384.00	362.78
384.19	423.64
384.39	381.51
384.58	454.06
384.78	435.34
384.97	390.87
385.17	360.44
385.36	416.62
385.56	337.04
385.75	414.27
385.95	381.51
386.14	475.13
386.34	423.64
386.53	379.17
386.72	381.51
386.92	458.74
387.11	433.00
387.31	407.25
387.50	407.25
387.70	388.53
387.89	402.57
388.09	421.30
388.28	367.46
388.48	395.55
388.67	404.91
388.86	414.27
389.06	404.91
389.25	393.21
389.45	442.36
389.64	470.45
389.84	447.04
390.03	379.17
390.22	374.49
390.42	409.59
390.61	362.78
390.81	358.10
391.00	390.87
391.19	395.55
391.39	374.49
391.58	395.55
391.78	369.80
391.97	477.47
392.16	379.17
392.36	425.98
392.55	414.27
392.75	395.55
392.94	430.66
393.13	353.42
393.33	379.17
393.52	435.34
393.71	435.34
393.91	463.43
394.10	346.40
394.29	400.23
394.49	407.25
394.68	407.25
394.88	409.59
395.07	418.96
395.26	414.27
395.46	379.17
395.65	404.91
395.84	465.77
396.04	521.94
396.23	390.87
396.42	397.89
396.62	425.98
396.81	367.46
397.00	358.10
397.19	372.15
397.39	428.32
397.58	376.83
397.77	397.89
397.97	381.51
398.16	416.62
398.35	404.91
398.55	383.85
398.74	442.36
398.93	383.85
399.12	449.38
399.32	437.68
399.51	486.83
399.70	510.24
399.90	437.68
400.09	418.96
400.28	475.13
400.47	437.68
400.67	440.02
400.86	390.87
401.05	418.96
401.24	437.68
401.44	437.68
401.63	451.72
401.82	507.90
402.01	404.91
402.21	449.38
402.40	430.66
402.59	400.23
402.78	367.46
402.97	407.25
403.17	388.53
403.36	486.83
403.55	367.46
403.74	376.83
403.93	388.53
404.13	491.51
404.32	346.40
404.51	376.83
404.70	376.83
404.89	425.98
405.09	458.74
405.28	463.43
405.47	402.57
405.66	381.51
405.85	372.15
406.05	404.91
406.24	376.83
406.43	374.49
406.62	409.59
406.81	414.27
407.00	409.59
407.20	451.72
407.39	393.21
407.58	433.00
407.77	437.68
407.96	416.62
408.15	425.98
408.34	437.68
408.54	425.98
408.73	423.64
408.92	393.21
409.11	365.12
409.30	421.30
409.49	505.56
409.68	388.53
409.87	388.53
410.07	404.91
410.26	386.19
410.45	451.72
410.64	332.36
410.83	397.89
411.02	393.21
411.21	379.17
411.40	486.83
411.59	430.66
411.78	425.98
411.98	414.27
412.17	428.32
412.36	388.53
412.55	351.08
412.74	411.93
412.93	433.00
413.12	383.85
413.31	454.06
413.50	390.87
413.69	430.66
413.88	418.96
414.07	423.64
414.26	458.74
414.45	395.55
414.64	447.04
414.83	428.32
415.02	418.96
415.22	421.30
415.41	365.12
415.60	388.53
415.79	430.66
415.98	404.91
416.17	372.15
416.36	386.19
416.55	395.55
416.74	332.36
416.93	416.62
417.12	421.30
417.31	383.85
417.50	444.70
417.69	519.60
417.88	381.51
418.07	433.00
418.26	386.19
418.45	386.19
418.64	400.23
418.83	437.68
419.02	440.02
419.21	437.68
419.39	423.64
419.58	386.19
419.77	355.76
419.96	355.76
420.15	440.02
420.34	416.62
420.53	376.83
420.72	423.64
420.91	440.02
421.10	379.17
421.29	428.32
421.48	463.43
421.67	388.53
421.86	433.00
422.05	386.19
422.24	409.59
422.43	383.85
422.61	463.43
422.80	383.85
422.99	454.06
423.18	470.45
423.37	468.11
423.56	421.30
423.75	407.25
423.94	390.87
424.13	376.83
424.32	526.62
424.50	433.00
424.69	430.66
424.88	421.30
425.07	407.25
425.26	458.74
425.45	425.98
425.64	470.45
425.83	369.80
426.01	355.76
426.20	397.89
426.39	393.21
426.58	468.11
426.77	365.12
426.96	428.32
427.15	479.81
427.33	428.32
427.52	397.89
427.71	444.70
427.90	409.59
428.09	388.53
428.28	421.30
428.46	374.49
428.65	442.36
428.84	423.64
429.03	498.53
429.22	379.17
429.40	409.59
429.59	381.51
429.78	421.30
429.97	362.78
430.16	442.36
430.34	463.43
430.53	411.93
430.72	479.81
430.91	447.04
431.10	374.49
431.28	341.72
431.47	418.96
431.66	348.74
431.85	379.17
432.03	433.00
432.22	486.83
432.41	449.38
432.60	454.06
432.79	397.89
432.97	458.74
433.16	346.40
433.35	454.06
433.54	355.76
433.72	430.66
433.91	428.32
434.10	454.06
434.28	535.98
434.47	430.66
434.66	367.46
434.85	503.22
435.03	416.62
435.22	440.02
435.41	404.91
435.59	463.43
435.78	428.32
435.97	430.66
436.16	442.36
436.34	449.38
436.53	402.57
436.72	421.30
436.90	367.46
437.09	355.76
437.28	458.74
437.46	379.17
437.65	365.12
437.84	435.34
438.02	400.23
438.21	442.36
438.40	440.02
438.58	332.36
438.77	362.78
438.96	463.43
439.14	414.27
439.33	449.38
439.52	458.74
439.70	468.11
439.89	390.87
440.08	369.80
440.26	440.02
440.45	374.49
440.63	395.55
440.82	383.85
441.01	416.62
441.19	386.19
441.38	402.57
441.57	362.78
441.75	451.72
441.94	428.32
442.12	496.19
442.31	386.19
442.50	404.91
442.68	468.11
442.87	407.25
443.05	400.23
443.24	440.02
443.43	433.00
443.61	416.62
443.80	397.89
443.98	404.91
444.17	454.06
444.35	423.64
444.54	414.27
444.73	486.83
444.91	411.93
445.10	374.49
445.28	456.40
445.47	390.87
445.65	463.43
445.84	447.04
446.02	437.68
446.21	379.17
446.39	341.72
446.58	409.59
446.77	348.74
446.95	433.00
447.14	409.59
447.32	372.15
447.51	402.57
447.69	404.91
447.88	390.87
448.06	465.77
448.25	409.59
448.43	404.91
448.62	379.17
448.80	360.44
448.99	470.45
449.17	444.70
449.36	369.80
449.54	456.40
449.73	418.96
449.91	437.68
450.10	437.68
450.28	475.13
450.46	442.36
450.65	421.30
450.83	397.89
451.02	414.27
451.20	425.98
451.39	409.59
451.57	390.87
451.76	346.40
451.94	477.47
452.13	433.00
452.31	451.72
452.49	517.26
452.68	414.27
452.86	454.06
453.05	428.32
453.23	444.70
453.42	372.15
453.60	404.91
453.78	397.89
453.97	409.59
454.15	414.27
454.34	470.45
454.52	498.53
454.70	498.53
454.89	510.24
455.07	440.02
455.26	369.80
455.44	344.06
455.62	430.66
455.81	423.64
455.99	388.53
456.17	425.98
456.36	440.02
456.54	376.83
456.73	353.42
456.91	372.15
457.09	447.04
457.28	437.68
457.46	477.47
457.64	414.27
457.83	393.21
458.01	416.62
458.19	489.17
458.38	465.77
458.56	465.77
458.74	423.64
458.93	447.04
459.11	454.06
459.29	407.25
459.48	428.32
459.66	386.19
459.84	444.70
460.03	472.79
460.21	435.34
460.39	440.02
460.57	379.17
460.76	379.17
460.94	440.02
461.12	444.70
461.31	433.00
461.49	414.27
461.67	383.85
461.85	435.34
462.04	351.08
462.22	837.91
462.40	430.66
462.59	418.96
462.77	444.70
462.95	393.21
463.13	362.78
463.32	458.74
463.50	430.66
463.68	374.49
463.86	470.45
464.05	442.36
464.23	456.40
464.41	430.66
464.59	447.04
464.78	386.19
464.96	404.91
465.14	386.19
465.32	346.40
465.50	440.02
465.69	416.62
465.87	381.51
466.05	465.77
466.23	379.17
466.41	451.72
466.60	416.62
466.78	437.68
466.96	458.74
467.14	358.10
467.32	435.34
467.51	395.55
467.69	463.43
467.87	428.32
468.05	482.15
468.23	535.98
468.41	437.68
468.60	414.27
468.78	390.87
468.96	414.27
469.14	416.62
469.32	437.68
469.50	416.62
469.69	444.70
469.87	407.25
470.05	463.43
470.23	393.21
470.41	346.40
470.59	390.87
470.77	437.68
470.95	430.66
471.14	444.70
471.32	395.55
471.50	475.13
471.68	414.27
471.86	418.96
472.04	449.38
472.22	411.93
472.40	400.23
472.58	351.08
472.77	414.27
472.95	372.15
473.13	423.64
473.31	482.15
473.49	409.59
473.67	348.74
473.85	430.66
474.03	376.83
474.21	463.43
474.39	437.68
474.57	393.21
474.75	397.89
474.93	379.17
475.12	423.64
475.30	400.23
475.48	451.72
475.66	400.23
475.84	482.15
476.02	484.49
476.20	472.79
476.38	428.32
476.56	444.70
476.74	470.45
476.92	409.59
477.10	456.40
477.28	423.64
477.46	437.68
477.64	421.30
477.82	369.80
478.00	388.53
478.18	472.79
478.36	411.93
478.54	414.27
478.72	411.93
478.90	463.43
479.08	402.57
479.26	421.30
479.44	519.60
479.62	404.91
479.80	475.13
479.98	400.23
480.16	425.98
480.34	484.49
480.52	381.51
480.70	393.21
480.88	433.00
481.06	379.17
481.24	433.00
481.41	479.81
481.59	442.36
481.77	461.09
481.95	393.21
482.13	444.70
482.31	475.13
482.49	400.23
482.67	404.91
482.85	423.64
483.03	379.17
483.21	423.64
483.39	414.27
483.57	472.79
483.74	465.77
483.92	489.17
484.10	449.38
484.28	449.38
484.46	503.22
484.64	409.59
484.82	376.83
485.00	372.15
485.18	379.17
485.35	430.66
485.53	395.55
485.71	484.49
485.89	461.09
486.07	454.06
486.25	402.57
486.43	435.34
486.61	491.51
486.78	358.10
486.96	442.36
487.14	411.93
487.32	475.13
487.50	390.87
487.68	463.43
487.85	402.57
488.03	421.30
488.21	430.66
488.39	365.12
488.57	416.62
488.75	355.76
488.92	489.17
489.10	479.81
489.28	383.85
489.46	402.57
489.64	409.59
489.81	461.09
489.99	454.06
490.17	362.78
490.35	402.57
490.53	430.66
490.70	369.80
490.88	421.30
491.06	315.97
491.24	454.06
491.41	402.57
491.59	458.74
491.77	390.87
491.95	402.57
492.13	454.06
492.30	369.80
492.48	332.36
492.66	423.64
492.84	437.68
493.01	477.47
493.19	449.38
493.37	484.49
493.54	393.21
493.72	395.55
493.90	425.98
494.08	365.12
494.25	433.00
494.43	411.93
494.61	402.57
494.79	400.23
494.96	423.64
495.14	376.83
495.32	421.30
495.49	437.68
495.67	395.55
495.85	421.30
496.02	395.55
496.20	477.47
496.38	383.85
496.55	367.46
496.73	425.98
496.91	433.00
497.09	517.26
497.26	425.98
497.44	360.44
497.62	379.17
497.79	477.47
497.97	381.51
498.14	411.93
498.32	456.40
498.50	442.36
498.67	393.21
498.85	461.09
499.03	451.72
499.20	386.19
499.38	374.49
499.56	376.83
499.73	393.21
499.91	472.79
500.08	472.79
500.26	435.34
500.44	500.87
500.61	362.78
500.79	402.57
500.97	414.27
501.14	465.77
501.32	409.59
501.49	468.11
501.67	367.46
501.84	468.11
502.02	386.19
502.20	507.90
502.37	421.30
502.55	407.25
502.72	379.17
502.90	433.00
503.07	390.87
503.25	440.02
503.43	376.83
503.60	409.59
503.78	454.06
503.95	390.87
504.13	418.96
504.30	465.77
504.48	372.15
504.65	454.06
504.83	421.30
505.01	339.38
505.18	315.97
505.36	472.79
505.53	355.76
505.71	390.87
505.88	493.85
506.06	456.40
506.23	437.68
506.41	470.45
506.58	472.79
506.76	421.30
506.93	404.91
507.11	447.04
507.28	376.83
507.46	442.36
507.63	423.64
507.81	411.93
507.98	414.27
508.16	416.62
508.33	395.55
508.50	484.49
508.68	507.90
508.85	379.17
509.03	416.62
509.20	409.59
509.38	477.47
509.55	454.06
509.73	468.11
509.90	428.32
510.08	414.27
510.25	409.59
510.42	411.93
510.60	327.68
510.77	465.77
510.95	437.68
511.12	409.59
511.30	315.97
511.47	407.25
511.64	402.57
511.82	379.17
511.99	402.57
512.17	414.27
512.34	402.57
512.51	386.19
512.69	423.64
512.86	402.57
513.04	433.00
513.21	456.40
513.38	461.09
513.56	397.89
513.73	351.08
513.90	482.15
514.08	425.98
514.25	400.23
514.43	369.80
514.60	404.91
514.77	407.25
514.95	344.06
515.12	386.19
515.29	430.66
515.47	376.83
515.64	393.21
515.81	461.09
515.99	388.53
516.16	451.72
516.33	433.00
516.51	379.17
516.68	451.72
516.85	433.00
517.03	397.89
517.20	454.06
517.37	402.57
517.54	444.70
517.72	409.59
517.89	404.91
518.06	381.51
518.24	489.17
518.41	388.53
518.58	390.87
518.75	353.42
518.93	393.21
519.10	344.06
519.27	421.30
519.45	330.02
519.62	379.17
519.79	393.21
519.96	442.36
520.14	360.44
520.31	449.38
520.48	423.64
520.65	416.62
520.83	428.32
521.00	463.43
521.17	451.72
521.34	428.32
521.52	367.46
521.69	461.09
521.86	400.23
522.03	416.62
522.20	447.04
522.38	472.79
522.55	463.43
522.72	393.21
522.89	458.74
523.07	484.49
523.24	430.66
523.41	327.68
523.58	397.89
523.75	404.91
523.92	367.46
524.10	374.49
524.27	458.74
524.44	383.85
524.61	421.30
524.78	395.55
524.96	416.62
525.13	425.98
525.30	423.64
525.47	468.11
525.64	423.64
525.81	418.96
525.98	421.30
526.16	411.93
526.33	404.91
526.50	397.89
526.67	416.62
526.84	393.21
527.01	444.70
527.18	463.43
527.36	360.44
527.53	404.91
527.70	456.40
527.87	369.80
528.04	528.96
528.21	444.70
528.38	456.40
528.55	447.04
528.72	404.91
528.89	358.10
529.07	456.40
529.24	383.85
529.41	451.72
529.58	535.98
529.75	407.25
529.92	440.02
530.09	444.70
530.26	449.38
530.43	407.25
530.60	454.06
530.77	407.25
530.94	372.15
531.11	465.77
531.28	433.00
531.46	379.17
531.63	493.85
531.80	407.25
531.97	346.40
532.14	423.64
532.31	386.19
532.48	376.83
532.65	425.98
532.82	449.38
532.99	409.59
533.16	386.19
533.33	416.62
533.50	407.25
533.67	402.57
533.84	437.68
534.01	421.30
534.18	379.17
534.35	414.27
534.52	461.09
534.69	449.38
534.86	414.27
535.03	414.27
535.20	407.25
535.37	442.36
535.54	379.17
535.71	437.68
535.88	411.93
536.05	444.70
536.22	491.51
536.38	386.19
536.55	400.23
536.72	442.36
536.89	372.15
537.06	355.76
537.23	423.64
537.40	433.00
537.57	418.96
537.74	461.09
537.91	440.02
538.08	365.12
538.25	404.91
538.42	423.64
538.59	365.12
538.75	369.80
538.92	395.55
539.09	416.62
539.26	397.89
539.43	461.09
539.60	440.02
539.77	456.40
539.94	465.77
540.11	404.91
540.28	435.34
540.44	437.68
540.61	365.12
540.78	425.98
540.95	456.40
541.12	458.74
541.29	475.13
541.46	428.32
541.62	386.19
541.79	395.55
541.96	430.66
542.13	407.25
542.30	404.91
542.47	416.62
542.63	444.70
542.80	430.66
542.97	418.96
543.14	442.36
543.31	440.02
543.48	393.21
543.64	383.85
543.81	428.32
543.98	369.80
544.15	423.64
544.32	339.38
544.48	379.17
544.65	435.34
544.82	416.62
544.99	435.34
545.16	388.53
545.32	390.87
545.49	430.66
545.66	416.62
545.83	339.38
546.00	348.74
546.16	395.55
546.33	360.44
546.50	423.64
546.67	421.30
546.83	465.77
547.00	390.87
547.17	339.38
547.34	397.89
547.50	425.98
547.67	491.51
547.84	383.85
548.00	468.11
548.17	447.04
548.34	383.85
548.51	425.98
548.67	517.26
548.84	379.17
549.01	484.49
549.18	407.25
549.34	433.00
549.51	444.70
549.68	341.72
549.84	421.30
550.01	435.34
550.18	472.79
550.34	491.51
550.51	472.79
550.68	461.09
550.84	379.17
551.01	486.83
551.18	486.83
551.34	500.87
551.51	386.19
551.68	430.66
551.84	454.06
552.01	414.27
552.18	395.55
552.34	409.59
552.51	390.87
552.68	397.89
552.84	472.79
553.01	433.00
553.18	479.81
553.34	428.32
553.51	421.30
553.67	505.56
553.84	414.27
554.01	463.43
554.17	458.74
554.34	440.02
554.51	468.11
554.67	418.96
554.84	404.91
555.00	397.89
555.17	390.87
555.33	425.98
555.50	407.25
555.67	411.93
555.83	437.68
556.00	435.34
556.16	545.34
556.33	472.79
556.50	461.09
556.66	379.17
556.83	411.93
556.99	393.21
557.16	341.72
557.32	500.87
557.49	456.40
557.65	367.46
557.82	388.53
557.98	393.21
558.15	374.49
558.32	402.57
558.48	423.64
558.65	404.91
558.81	454.06
558.98	486.83
559.14	447.04
559.31	421.30
559.47	421.30
559.64	358.10
559.80	386.19
559.97	372.15
560.13	437.68
560.30	484.49
560.46	404.91
560.63	465.77
560.79	447.04
560.96	416.62
561.12	414.27
561.29	451.72
561.45	418.96
561.61	390.87
561.78	470.45
561.94	395.55
562.11	374.49
562.27	353.42
562.44	362.78
562.60	351.08
562.77	409.59
562.93	468.11
563.10	362.78
563.26	414.27
563.42	458.74
563.59	437.68
563.75	353.42
563.92	433.00
564.08	407.25
564.24	447.04
564.41	444.70
564.57	374.49
564.74	376.83
564.90	421.30
565.07	447.04
565.23	463.43
565.39	411.93
565.56	433.00
565.72	402.57
565.88	442.36
566.05	423.64
566.21	400.23
566.38	505.56
566.54	428.32
566.70	388.53
566.87	489.17
567.03	444.70
567.19	411.93
567.36	430.66
567.52	435.34
567.68	360.44
567.85	395.55
568.01	360.44
568.17	390.87
568.34	362.78
568.50	461.09
568.66	477.47
568.83	526.62
568.99	397.89
569.15	437.68
569.32	484.49
569.48	369.80
569.64	395.55
569.81	475.13
569.97	519.60
570.13	433.00
570.30	423.64
570.46	449.38
570.62	440.02
570.78	493.85
570.95	437.68
571.11	505.56
571.27	463.43
571.43	463.43
571.60	383.85
571.76	430.66
571.92	465.77
572.09	442.36
572.25	407.25
572.41	397.89
572.57	425.98
572.74	498.53
572.90	383.85
573.06	435.34
573.22	468.11
573.38	430.66
573.55	388.53
573.71	477.47
573.87	512.58
574.03	379.17
574.20	381.51
574.36	430.66
574.52	393.21
574.68	365.12
574.84	425.98
575.01	421.30
575.17	416.62
575.33	374.49
575.49	416.62
575.65	447.04
575.82	503.22
575.98	379.17
576.14	372.15
576.30	397.89
576.46	451.72
576.62	383.85
576.79	409.59
576.95	447.04
577.11	393.21
577.27	416.62
577.43	496.19
577.59	404.91
577.75	482.15
577.92	407.25
578.08	383.85
578.24	414.27
578.40	395.55
578.56	472.79
578.72	414.27
578.88	465.77
579.04	393.21
579.21	404.91
579.37	447.04
579.53	372.15
579.69	428.32
579.85	360.44
580.01	475.13
580.17	402.57
580.33	472.79
580.49	400.23
580.65	482.15
580.82	416.62
580.98	433.00
581.14	423.64
581.30	388.53
581.46	421.30
581.62	456.40
581.78	400.23
581.94	442.36
582.10	437.68
582.26	442.36
582.42	421.30
582.58	416.62
582.74	367.46
582.90	386.19
583.06	414.27
583.22	381.51
583.38	421.30
583.54	334.70
583.70	414.27
583.86	390.87
584.02	404.91
584.18	449.38
584.34	435.34
584.50	386.19
584.66	383.85
584.82	402.57
584.98	402.57
585.14	435.34
585.30	423.64
585.46	402.57
585.62	444.70
585.78	397.89
585.94	447.04
586.10	447.04
586.26	365.12
586.42	465.77
586.58	430.66
586.74	428.32
586.90	379.17
587.06	418.96
587.22	402.57
587.38	437.68
587.54	477.47
587.70	416.62
587.86	444.70
588.02	458.74
588.18	358.10
588.34	386.19
588.49	514.92
588.65	451.72
588.81	355.76
588.97	435.34
589.13	449.38
589.29	395.55
589.45	451.72
589.61	402.57
589.77	444.70
589.93	390.87
590.08	358.10
590.24	444.70
590.40	383.85
590.56	449.38
590.72	374.49
590.88	379.17
591.04	449.38
591.20	393.21
591.35	414.27
591.51	372.15
591.67	374.49
591.83	425.98
591.99	491.51
592.15	407.25
592.31	416.62
592.46	470.45
592.62	381.51
592.78	435.34
592.94	414.27
593.10	461.09
593.26	397.89
593.41	346.40
593.57	447.04
593.73	475.13
593.89	409.59
594.05	369.80
594.20	409.59
594.36	449.38
594.52	325.33
594.68	428.32
594.84	451.72
594.99	465.77
595.15	423.64
595.31	489.17
595.47	444.70
595.62	470.45
595.78	433.00
595.94	388.53
596.10	461.09
596.25	416.62
596.41	369.80
596.57	423.64
596.73	374.49
596.88	409.59
597.04	447.04
597.20	451.72
597.36	463.43
597.51	381.51
597.67	411.93
597.83	404.91
597.99	433.00
598.14	442.36
598.30	409.59
598.46	369.80
598.61	367.46
598.77	404.91
598.93	369.80
599.09	444.70
599.24	402.57
599.40	376.83
599.56	322.99
599.71	444.70
599.87	435.34
600.03	444.70
600.18	400.23
600.34	486.83
600.50	334.70
600.65	414.27
600.81	418.96
600.97	393.21
601.12	360.44
601.28	444.70
601.44	421.30
601.59	409.59
601.75	411.93
601.91	402.57
602.06	369.80
602.22	470.45
602.37	397.89
602.53	376.83
602.69	444.70
602.84	341.72
603.00	465.77
603.16	395.55
603.31	442.36
603.47	393.21
603.62	491.51
603.78	418.96
603.94	407.25
604.09	339.38
604.25	358.10
604.40	404.91
604.56	465.77
604.71	409.59
604.87	486.83
605.03	447.04
605.18	390.87
605.34	472.79
605.49	355.76
605.65	454.06
605.80	402.57
605.96	383.85
606.12	372.15
606.27	435.34
606.43	475.13
606.58	486.83
606.74	458.74
606.89	376.83
607.05	418.96
607.20	306.61
607.36	430.66
607.51	379.17
607.67	428.32
607.82	353.42
607.98	414.27
608.13	437.68
608.29	402.57
608.44	440.02
608.60	482.15
608.75	468.11
608.91	449.38
609.06	463.43
609.22	425.98
609.37	428.32
609.53	414.27
609.68	416.62
609.84	397.89
609.99	465.77
610.15	315.97
