SpectraSuite Data File
++++++++++++++++++++++++++++++++++++
Date: Fri Oct 25 12:10:52 EDT 2013
User: price-jones
Dark Spectrum Present: No
Reference Spectrum Present: No
Number of Sampled Component Spectra: 1
Spectrometers: USB2+H05261
Integration Time (usec): 100000 (USB2+H05261)
Spectra Averaged: 1 (USB2+H05261)
Boxcar Smoothing: 0 (USB2+H05261)
Correct for Electrical Dark: No (USB2+H05261)
Strobe/Lamp Enabled: No (USB2+H05261)
Correct for Detector Non-linearity: No (USB2+H05261)
Correct for Stray Light: No (USB2+H05261)
Number of Pixels in Processed Spectrum: 2048
>>>>>Begin Processed Spectral Data<<<<<
365.73	390.87
365.92	390.87
366.12	390.87
366.32	259.80
366.52	243.42
366.72	264.48
366.91	224.69
367.11	271.50
367.31	208.31
367.51	182.56
367.70	257.46
367.90	276.18
368.10	248.10
368.30	273.84
368.49	280.86
368.69	283.20
368.89	187.24
369.09	276.18
369.28	308.95
369.48	287.89
369.68	234.05
369.87	322.99
370.07	301.93
370.27	337.04
370.47	320.65
370.66	332.36
370.86	266.82
371.06	346.40
371.25	369.80
371.45	348.74
371.65	379.17
371.84	358.10
372.04	435.34
372.24	383.85
372.44	353.42
372.63	400.23
372.83	421.30
373.03	425.98
373.22	383.85
373.42	409.59
373.62	388.53
373.81	402.57
374.01	486.83
374.21	414.27
374.40	435.34
374.60	397.89
374.79	409.59
374.99	393.21
375.19	428.32
375.38	470.45
375.58	416.62
375.78	442.36
375.97	402.57
376.17	381.51
376.37	449.38
376.56	430.66
376.76	390.87
376.95	346.40
377.15	355.76
377.35	414.27
377.54	409.59
377.74	374.49
377.93	395.55
378.13	365.12
378.33	440.02
378.52	442.36
378.72	468.11
378.91	444.70
379.11	411.93
379.31	430.66
379.50	372.15
379.70	404.91
379.89	442.36
380.09	346.40
380.28	374.49
380.48	444.70
380.68	379.17
380.87	416.62
381.07	440.02
381.26	355.76
381.46	402.57
381.65	409.59
381.85	379.17
382.04	421.30
382.24	479.81
382.43	442.36
382.63	407.25
382.83	458.74
383.02	409.59
383.22	456.40
383.41	376.83
383.61	388.53
383.80	435.34
384.00	374.49
384.19	372.15
384.39	334.70
384.58	416.62
384.78	332.36
384.97	428.32
385.17	447.04
385.36	341.72
385.56	435.34
385.75	414.27
385.95	421.30
386.14	404.91
386.34	339.38
386.53	430.66
386.72	348.74
386.92	372.15
387.11	381.51
387.31	402.57
387.50	414.27
387.70	395.55
387.89	414.27
388.09	454.06
388.28	470.45
388.48	435.34
388.67	447.04
388.86	447.04
389.06	477.47
389.25	404.91
389.45	374.49
389.64	416.62
389.84	397.89
390.03	402.57
390.22	486.83
390.42	360.44
390.61	433.00
390.81	365.12
391.00	437.68
391.19	444.70
391.39	449.38
391.58	418.96
391.78	435.34
391.97	491.51
392.16	379.17
392.36	440.02
392.55	383.85
392.75	449.38
392.94	440.02
393.13	463.43
393.33	365.12
393.52	360.44
393.71	421.30
393.91	449.38
394.10	330.02
394.29	479.81
394.49	416.62
394.68	486.83
394.88	383.85
395.07	374.49
395.26	407.25
395.46	411.93
395.65	376.83
395.84	390.87
396.04	477.47
396.23	440.02
396.42	397.89
396.62	365.12
396.81	447.04
397.00	397.89
397.19	367.46
397.39	360.44
397.58	458.74
397.77	344.06
397.97	353.42
398.16	404.91
398.35	386.19
398.55	360.44
398.74	372.15
398.93	381.51
399.12	360.44
399.32	421.30
399.51	416.62
399.70	376.83
399.90	386.19
400.09	414.27
400.28	404.91
400.47	449.38
400.67	388.53
400.86	376.83
401.05	500.87
401.24	388.53
401.44	379.17
401.63	376.83
401.82	388.53
402.01	325.33
402.21	407.25
402.40	365.12
402.59	402.57
402.78	409.59
402.97	435.34
403.17	418.96
403.36	393.21
403.55	400.23
403.74	374.49
403.93	416.62
404.13	358.10
404.32	390.87
404.51	376.83
404.70	353.42
404.89	320.65
405.09	423.64
405.28	435.34
405.47	390.87
405.66	433.00
405.85	414.27
406.05	428.32
406.24	390.87
406.43	430.66
406.62	465.77
406.81	444.70
407.00	484.49
407.20	383.85
407.39	421.30
407.58	404.91
407.77	411.93
407.96	407.25
408.15	400.23
408.34	496.19
408.54	437.68
408.73	393.21
408.92	425.98
409.11	456.40
409.30	444.70
409.49	411.93
409.68	472.79
409.87	447.04
410.07	379.17
410.26	383.85
410.45	348.74
410.64	421.30
410.83	367.46
411.02	402.57
411.21	393.21
411.40	451.72
411.59	409.59
411.78	435.34
411.98	423.64
412.17	435.34
412.36	388.53
412.55	390.87
412.74	383.85
412.93	386.19
413.12	388.53
413.31	435.34
413.50	386.19
413.69	470.45
413.88	440.02
414.07	421.30
414.26	365.12
414.45	411.93
414.64	411.93
414.83	402.57
415.02	458.74
415.22	397.89
415.41	440.02
415.60	362.78
415.79	383.85
415.98	433.00
416.17	374.49
416.36	402.57
416.55	404.91
416.74	402.57
416.93	440.02
417.12	393.21
417.31	472.79
417.50	423.64
417.69	404.91
417.88	409.59
418.07	430.66
418.26	402.57
418.45	395.55
418.64	402.57
418.83	411.93
419.02	409.59
419.21	395.55
419.39	404.91
419.58	442.36
419.77	433.00
419.96	440.02
420.15	407.25
420.34	348.74
420.53	393.21
420.72	444.70
420.91	407.25
421.10	451.72
421.29	472.79
421.48	463.43
421.67	390.87
421.86	458.74
422.05	416.62
422.24	416.62
422.43	430.66
422.61	433.00
422.80	472.79
422.99	465.77
423.18	334.70
423.37	388.53
423.56	463.43
423.75	451.72
423.94	381.51
424.13	379.17
424.32	414.27
424.50	360.44
424.69	440.02
424.88	393.21
425.07	400.23
425.26	374.49
425.45	435.34
425.64	365.12
425.83	470.45
426.01	393.21
426.20	388.53
426.39	454.06
426.58	409.59
426.77	477.47
426.96	423.64
427.15	451.72
427.33	437.68
427.52	341.72
427.71	397.89
427.90	433.00
428.09	407.25
428.28	388.53
428.46	411.93
428.65	423.64
428.84	395.55
429.03	533.64
429.22	388.53
429.40	348.74
429.59	388.53
429.78	456.40
429.97	470.45
430.16	411.93
430.34	449.38
430.53	454.06
430.72	486.83
430.91	416.62
431.10	362.78
431.28	414.27
431.47	397.89
431.66	430.66
431.85	402.57
432.03	416.62
432.22	433.00
432.41	362.78
432.60	423.64
432.79	451.72
432.97	463.43
433.16	486.83
433.35	428.32
433.54	435.34
433.72	414.27
433.91	447.04
434.10	484.49
434.28	379.17
434.47	381.51
434.66	496.19
434.85	362.78
435.03	402.57
435.22	428.32
435.41	428.32
435.59	433.00
435.78	355.76
435.97	383.85
436.16	416.62
436.34	447.04
436.53	409.59
436.72	463.43
436.90	376.83
437.09	386.19
437.28	407.25
437.46	475.13
437.65	435.34
437.84	346.40
438.02	435.34
438.21	362.78
438.40	425.98
438.58	299.59
438.77	447.04
438.96	416.62
439.14	360.44
439.33	409.59
439.52	388.53
439.70	416.62
439.89	418.96
440.08	517.26
440.26	381.51
440.45	416.62
440.63	421.30
440.82	393.21
441.01	393.21
441.19	411.93
441.38	400.23
441.57	416.62
441.75	390.87
441.94	458.74
442.12	425.98
442.31	433.00
442.50	454.06
442.68	428.32
442.87	390.87
443.05	416.62
443.24	456.40
443.43	416.62
443.61	414.27
443.80	339.38
443.98	365.12
444.17	337.04
444.35	524.28
444.54	414.27
444.73	430.66
444.91	411.93
445.10	447.04
445.28	425.98
445.47	402.57
445.65	414.27
445.84	374.49
446.02	386.19
446.21	449.38
446.39	411.93
446.58	388.53
446.77	421.30
446.95	425.98
447.14	425.98
447.32	388.53
447.51	425.98
447.69	454.06
447.88	386.19
448.06	451.72
448.25	379.17
448.43	421.30
448.62	472.79
448.80	395.55
448.99	402.57
449.17	456.40
449.36	428.32
449.54	479.81
449.73	379.17
449.91	383.85
450.10	461.09
450.28	390.87
450.46	393.21
450.65	355.76
450.83	397.89
451.02	360.44
451.20	416.62
451.39	362.78
451.57	390.87
451.76	411.93
451.94	374.49
452.13	341.72
452.31	482.15
452.49	440.02
452.68	379.17
452.86	433.00
453.05	500.87
453.23	468.11
453.42	390.87
453.60	409.59
453.78	421.30
453.97	365.12
454.15	437.68
454.34	482.15
454.52	465.77
454.70	477.47
454.89	381.51
455.07	404.91
455.26	444.70
455.44	475.13
455.62	404.91
455.81	433.00
455.99	447.04
456.17	484.49
456.36	421.30
456.54	397.89
456.73	416.62
456.91	409.59
457.09	393.21
457.28	491.51
457.46	393.21
457.64	358.10
457.83	449.38
458.01	444.70
458.19	379.17
458.38	374.49
458.56	447.04
458.74	346.40
458.93	411.93
459.11	395.55
459.29	435.34
459.48	421.30
459.66	414.27
459.84	388.53
460.03	491.51
460.21	444.70
460.39	437.68
460.57	447.04
460.76	409.59
460.94	395.55
461.12	465.77
461.31	379.17
461.49	416.62
461.67	437.68
461.85	390.87
462.04	489.17
462.22	723.23
462.40	451.72
462.59	411.93
462.77	400.23
462.95	435.34
463.13	414.27
463.32	465.77
463.50	416.62
463.68	381.51
463.86	454.06
464.05	411.93
464.23	458.74
464.41	454.06
464.59	416.62
464.78	435.34
464.96	430.66
465.14	482.15
465.32	444.70
465.50	444.70
465.69	395.55
465.87	365.12
466.05	425.98
466.23	404.91
466.41	386.19
466.60	393.21
466.78	351.08
466.96	461.09
467.14	500.87
467.32	418.96
467.51	407.25
467.69	444.70
467.87	482.15
468.05	418.96
468.23	444.70
468.41	351.08
468.60	465.77
468.78	402.57
468.96	458.74
469.14	423.64
469.32	376.83
469.50	344.06
469.69	358.10
469.87	360.44
470.05	400.23
470.23	423.64
470.41	397.89
470.59	461.09
470.77	437.68
470.95	400.23
471.14	397.89
471.32	482.15
471.50	440.02
471.68	402.57
471.86	402.57
472.04	386.19
472.22	479.81
472.40	353.42
472.58	423.64
472.77	397.89
472.95	418.96
473.13	465.77
473.31	407.25
473.49	404.91
473.67	404.91
473.85	433.00
474.03	334.70
474.21	440.02
474.39	400.23
474.57	531.30
474.75	463.43
474.93	416.62
475.12	393.21
475.30	447.04
475.48	465.77
475.66	435.34
475.84	472.79
476.02	388.53
476.20	454.06
476.38	447.04
476.56	449.38
476.74	414.27
476.92	397.89
477.10	351.08
477.28	430.66
477.46	369.80
477.64	433.00
477.82	397.89
478.00	376.83
478.18	421.30
478.36	435.34
478.54	318.31
478.72	449.38
478.90	407.25
479.08	402.57
479.26	414.27
479.44	404.91
479.62	372.15
479.80	388.53
479.98	397.89
480.16	404.91
480.34	407.25
480.52	444.70
480.70	388.53
480.88	437.68
481.06	404.91
481.24	414.27
481.41	393.21
481.59	344.06
481.77	440.02
481.95	351.08
482.13	528.96
482.31	421.30
482.49	428.32
482.67	465.77
482.85	472.79
483.03	414.27
483.21	374.49
483.39	358.10
483.57	437.68
483.74	528.96
483.92	330.02
484.10	381.51
484.28	395.55
484.46	517.26
484.64	423.64
484.82	437.68
485.00	404.91
485.18	444.70
485.35	409.59
485.53	372.15
485.71	440.02
485.89	397.89
486.07	390.87
486.25	444.70
486.43	379.17
486.61	390.87
486.78	440.02
486.96	430.66
487.14	402.57
487.32	402.57
487.50	397.89
487.68	355.76
487.85	397.89
488.03	381.51
488.21	444.70
488.39	440.02
488.57	423.64
488.75	461.09
488.92	484.49
489.10	411.93
489.28	416.62
489.46	416.62
489.64	334.70
489.81	402.57
489.99	425.98
490.17	376.83
490.35	425.98
490.53	428.32
490.70	393.21
490.88	433.00
491.06	369.80
491.24	461.09
491.41	425.98
491.59	423.64
491.77	423.64
491.95	395.55
492.13	379.17
492.30	442.36
492.48	407.25
492.66	372.15
492.84	503.22
493.01	376.83
493.19	379.17
493.37	489.17
493.54	451.72
493.72	475.13
493.90	402.57
494.08	418.96
494.25	451.72
494.43	407.25
494.61	451.72
494.79	390.87
494.96	337.04
495.14	362.78
495.32	418.96
495.49	386.19
495.67	484.49
495.85	423.64
496.02	425.98
496.20	496.19
496.38	430.66
496.55	397.89
496.73	442.36
496.91	397.89
497.09	376.83
497.26	369.80
497.44	348.74
497.62	465.77
497.79	449.38
497.97	442.36
498.14	395.55
498.32	414.27
498.50	416.62
498.67	451.72
498.85	454.06
499.03	404.91
499.20	379.17
499.38	407.25
499.56	440.02
499.73	454.06
499.91	421.30
500.08	461.09
500.26	442.36
500.44	395.55
500.61	409.59
500.79	425.98
500.97	379.17
501.14	458.74
501.32	421.30
501.49	442.36
501.67	461.09
501.84	381.51
502.02	376.83
502.20	440.02
502.37	425.98
502.55	374.49
502.72	315.97
502.90	332.36
503.07	360.44
503.25	351.08
503.43	442.36
503.60	444.70
503.78	374.49
503.95	449.38
504.13	367.46
504.30	435.34
504.48	491.51
504.65	458.74
504.83	397.89
505.01	421.30
505.18	514.92
505.36	433.00
505.53	400.23
505.71	369.80
505.88	390.87
506.06	447.04
506.23	374.49
506.41	484.49
506.58	428.32
506.76	435.34
506.93	374.49
507.11	369.80
507.28	456.40
507.46	409.59
507.63	407.25
507.81	468.11
507.98	423.64
508.16	372.15
508.33	491.51
508.50	456.40
508.68	461.09
508.85	470.45
509.03	428.32
509.20	425.98
509.38	411.93
509.55	411.93
509.73	503.22
509.90	411.93
510.08	376.83
510.25	409.59
510.42	365.12
510.60	407.25
510.77	482.15
510.95	411.93
511.12	372.15
511.30	402.57
511.47	407.25
511.64	428.32
511.82	383.85
511.99	395.55
512.17	428.32
512.34	407.25
512.51	372.15
512.69	400.23
512.86	423.64
513.04	461.09
513.21	390.87
513.38	418.96
513.56	409.59
513.73	430.66
513.90	435.34
514.08	407.25
514.25	440.02
514.43	477.47
514.60	402.57
514.77	379.17
514.95	442.36
515.12	351.08
515.29	386.19
515.47	379.17
515.64	409.59
515.81	397.89
515.99	484.49
516.16	468.11
516.33	390.87
516.51	402.57
516.68	397.89
516.85	425.98
517.03	386.19
517.20	442.36
517.37	458.74
517.54	433.00
517.72	447.04
517.89	414.27
518.06	409.59
518.24	414.27
518.41	421.30
518.58	430.66
518.75	416.62
518.93	433.00
519.10	404.91
519.27	397.89
519.45	346.40
519.62	386.19
519.79	402.57
519.96	416.62
520.14	484.49
520.31	444.70
520.48	430.66
520.65	425.98
520.83	383.85
521.00	433.00
521.17	404.91
521.34	376.83
521.52	486.83
521.69	433.00
521.86	365.12
522.03	430.66
522.20	442.36
522.38	407.25
522.55	428.32
522.72	362.78
522.89	414.27
523.07	519.60
523.24	461.09
523.41	423.64
523.58	411.93
523.75	402.57
523.92	435.34
524.10	447.04
524.27	425.98
524.44	395.55
524.61	437.68
524.78	402.57
524.96	435.34
525.13	409.59
525.30	367.46
525.47	411.93
525.64	444.70
525.81	486.83
525.98	435.34
526.16	458.74
526.33	393.21
526.50	390.87
526.67	379.17
526.84	383.85
527.01	365.12
527.18	348.74
527.36	458.74
527.53	463.43
527.70	416.62
527.87	461.09
528.04	461.09
528.21	425.98
528.38	440.02
528.55	437.68
528.72	433.00
528.89	447.04
529.07	381.51
529.24	442.36
529.41	428.32
529.58	423.64
529.75	397.89
529.92	362.78
530.09	482.15
530.26	472.79
530.43	304.27
530.60	339.38
530.77	372.15
530.94	428.32
531.11	416.62
531.28	414.27
531.46	409.59
531.63	416.62
531.80	444.70
531.97	437.68
532.14	379.17
532.31	442.36
532.48	479.81
532.65	498.53
532.82	374.49
532.99	388.53
533.16	477.47
533.33	423.64
533.50	409.59
533.67	435.34
533.84	440.02
534.01	346.40
534.18	330.02
534.35	393.21
534.52	409.59
534.69	456.40
534.86	351.08
535.03	444.70
535.20	418.96
535.37	365.12
535.54	451.72
535.71	507.90
535.88	430.66
536.05	409.59
536.22	379.17
536.38	428.32
536.55	421.30
536.72	397.89
536.89	367.46
537.06	372.15
537.23	461.09
537.40	463.43
537.57	461.09
537.74	498.53
537.91	461.09
538.08	386.19
538.25	407.25
538.42	397.89
538.59	454.06
538.75	461.09
538.92	390.87
539.09	409.59
539.26	458.74
539.43	470.45
539.60	365.12
539.77	416.62
539.94	503.22
540.11	435.34
540.28	365.12
540.44	447.04
540.61	407.25
540.78	451.72
540.95	437.68
541.12	449.38
541.29	407.25
541.46	390.87
541.62	416.62
541.79	493.85
541.96	414.27
542.13	374.49
542.30	433.00
542.47	451.72
542.63	402.57
542.80	447.04
542.97	433.00
543.14	337.04
543.31	470.45
543.48	393.21
543.64	442.36
543.81	465.77
543.98	346.40
544.15	358.10
544.32	353.42
544.48	442.36
544.65	421.30
544.82	414.27
544.99	440.02
545.16	404.91
545.32	428.32
545.49	407.25
545.66	416.62
545.83	393.21
546.00	374.49
546.16	376.83
546.33	442.36
546.50	418.96
546.67	421.30
546.83	468.11
547.00	430.66
547.17	493.85
547.34	376.83
547.50	475.13
547.67	451.72
547.84	430.66
548.00	428.32
548.17	374.49
548.34	341.72
548.51	437.68
548.67	404.91
548.84	397.89
549.01	421.30
549.18	482.15
549.34	416.62
549.51	397.89
549.68	409.59
549.84	451.72
550.01	477.47
550.18	510.24
550.34	521.94
550.51	411.93
550.68	456.40
550.84	404.91
551.01	421.30
551.18	442.36
551.34	468.11
551.51	496.19
551.68	393.21
551.84	484.49
552.01	369.80
552.18	414.27
552.34	433.00
552.51	454.06
552.68	418.96
552.84	404.91
553.01	416.62
553.18	411.93
553.34	395.55
553.51	418.96
553.67	383.85
553.84	475.13
554.01	376.83
554.17	468.11
554.34	435.34
554.51	465.77
554.67	400.23
554.84	404.91
555.00	461.09
555.17	404.91
555.33	430.66
555.50	444.70
555.67	472.79
555.83	407.25
556.00	397.89
556.16	451.72
556.33	397.89
556.50	407.25
556.66	435.34
556.83	411.93
556.99	390.87
557.16	404.91
557.32	400.23
557.49	344.06
557.65	411.93
557.82	372.15
557.98	449.38
558.15	414.27
558.32	465.77
558.48	482.15
558.65	430.66
558.81	500.87
558.98	430.66
559.14	421.30
559.31	425.98
559.47	465.77
559.64	421.30
559.80	397.89
559.97	393.21
560.13	437.68
560.30	423.64
560.46	381.51
560.63	425.98
560.79	414.27
560.96	416.62
561.12	437.68
561.29	454.06
561.45	407.25
561.61	440.02
561.78	407.25
561.94	374.49
562.11	397.89
562.27	395.55
562.44	404.91
562.60	404.91
562.77	454.06
562.93	496.19
563.10	491.51
563.26	425.98
563.42	463.43
563.59	433.00
563.75	421.30
563.92	421.30
564.08	442.36
564.24	482.15
564.41	397.89
564.57	367.46
564.74	409.59
564.90	327.68
565.07	376.83
565.23	468.11
565.39	543.00
565.56	386.19
565.72	461.09
565.88	400.23
566.05	374.49
566.21	414.27
566.38	433.00
566.54	400.23
566.70	418.96
566.87	418.96
567.03	397.89
567.19	379.17
567.36	449.38
567.52	433.00
567.68	437.68
567.85	482.15
568.01	393.21
568.17	449.38
568.34	437.68
568.50	409.59
568.66	437.68
568.83	489.17
568.99	423.64
569.15	423.64
569.32	435.34
569.48	475.13
569.64	444.70
569.81	390.87
569.97	458.74
570.13	428.32
570.30	421.30
570.46	386.19
570.62	404.91
570.78	372.15
570.95	414.27
571.11	383.85
571.27	411.93
571.43	444.70
571.60	531.30
571.76	393.21
571.92	437.68
572.09	407.25
572.25	395.55
572.41	479.81
572.57	428.32
572.74	461.09
572.90	430.66
573.06	402.57
573.22	402.57
573.38	430.66
573.55	486.83
573.71	423.64
573.87	388.53
574.03	402.57
574.20	442.36
574.36	456.40
574.52	435.34
574.68	402.57
574.84	433.00
575.01	355.76
575.17	425.98
575.33	381.51
575.49	498.53
575.65	407.25
575.82	388.53
575.98	341.72
576.14	395.55
576.30	376.83
576.46	386.19
576.62	402.57
576.79	433.00
576.95	400.23
577.11	454.06
577.27	407.25
577.43	475.13
577.59	416.62
577.75	437.68
577.92	437.68
578.08	472.79
578.24	477.47
578.40	451.72
578.56	402.57
578.72	489.17
578.88	372.15
579.04	465.77
579.21	372.15
579.37	395.55
579.53	400.23
579.69	437.68
579.85	437.68
580.01	416.62
580.17	442.36
580.33	414.27
580.49	407.25
580.65	444.70
580.82	418.96
580.98	395.55
581.14	458.74
581.30	482.15
581.46	458.74
581.62	358.10
581.78	435.34
581.94	442.36
582.10	425.98
582.26	454.06
582.42	395.55
582.58	451.72
582.74	458.74
582.90	491.51
583.06	421.30
583.22	400.23
583.38	449.38
583.54	395.55
583.70	421.30
583.86	461.09
584.02	421.30
584.18	444.70
584.34	390.87
584.50	468.11
584.66	423.64
584.82	395.55
584.98	454.06
585.14	409.59
585.30	428.32
585.46	411.93
585.62	388.53
585.78	414.27
585.94	414.27
586.10	348.74
586.26	423.64
586.42	395.55
586.58	388.53
586.74	393.21
586.90	402.57
587.06	433.00
587.22	437.68
587.38	395.55
587.54	440.02
587.70	468.11
587.86	472.79
588.02	407.25
588.18	414.27
588.34	447.04
588.49	362.78
588.65	418.96
588.81	435.34
588.97	374.49
589.13	393.21
589.29	437.68
589.45	491.51
589.61	407.25
589.77	463.43
589.93	407.25
590.08	433.00
590.24	433.00
590.40	367.46
590.56	360.44
590.72	470.45
590.88	379.17
591.04	395.55
591.20	418.96
591.35	505.56
591.51	468.11
591.67	454.06
591.83	442.36
591.99	435.34
592.15	433.00
592.31	430.66
592.46	425.98
592.62	421.30
592.78	372.15
592.94	409.59
593.10	421.30
593.26	505.56
593.41	425.98
593.57	449.38
593.73	376.83
593.89	444.70
594.05	388.53
594.20	430.66
594.36	510.24
594.52	418.96
594.68	402.57
594.84	437.68
594.99	430.66
595.15	407.25
595.31	437.68
595.47	486.83
595.62	430.66
595.78	411.93
595.94	449.38
596.10	393.21
596.25	468.11
596.41	496.19
596.57	381.51
596.73	425.98
596.88	433.00
597.04	514.92
597.20	402.57
597.36	454.06
597.51	402.57
597.67	390.87
597.83	369.80
597.99	449.38
598.14	430.66
598.30	365.12
598.46	454.06
598.61	416.62
598.77	386.19
598.93	325.33
599.09	423.64
599.24	465.77
599.40	404.91
599.56	414.27
599.71	404.91
599.87	376.83
600.03	447.04
600.18	418.96
600.34	416.62
600.50	322.99
600.65	388.53
600.81	458.74
600.97	383.85
601.12	322.99
601.28	344.06
601.44	383.85
601.59	374.49
601.75	393.21
601.91	374.49
602.06	461.09
602.22	430.66
602.37	425.98
602.53	374.49
602.69	444.70
602.84	486.83
603.00	395.55
603.16	463.43
603.31	339.38
603.47	376.83
603.62	416.62
603.78	505.56
603.94	435.34
604.09	365.12
604.25	449.38
604.40	418.96
604.56	365.12
604.71	397.89
604.87	437.68
605.03	482.15
605.18	414.27
605.34	425.98
605.49	428.32
605.65	421.30
605.80	376.83
605.96	393.21
606.12	484.49
606.27	444.70
606.43	433.00
606.58	416.62
606.74	379.17
606.89	372.15
607.05	404.91
607.20	379.17
607.36	388.53
607.51	468.11
607.67	390.87
607.82	482.15
607.98	491.51
608.13	400.23
608.29	339.38
608.44	402.57
608.60	430.66
608.75	461.09
608.91	395.55
609.06	430.66
609.22	437.68
609.37	512.58
609.53	404.91
609.68	435.34
609.84	435.34
609.99	414.27
610.15	472.79
