SpectraSuite Data File
++++++++++++++++++++++++++++++++++++
Date: Fri Oct 25 12:11:04 EDT 2013
User: price-jones
Dark Spectrum Present: No
Reference Spectrum Present: No
Number of Sampled Component Spectra: 1
Spectrometers: USB2+H05261
Integration Time (usec): 100000 (USB2+H05261)
Spectra Averaged: 1 (USB2+H05261)
Boxcar Smoothing: 0 (USB2+H05261)
Correct for Electrical Dark: No (USB2+H05261)
Strobe/Lamp Enabled: No (USB2+H05261)
Correct for Detector Non-linearity: No (USB2+H05261)
Correct for Stray Light: No (USB2+H05261)
Number of Pixels in Processed Spectrum: 2048
>>>>>Begin Processed Spectral Data<<<<<
365.73	334.70
365.92	334.70
366.12	334.70
366.32	231.71
366.52	264.48
366.72	257.46
366.91	308.95
367.11	217.67
367.31	297.25
367.51	154.48
367.70	229.37
367.90	250.44
368.10	187.24
368.30	266.82
368.49	283.20
368.69	292.57
368.89	299.59
369.09	238.73
369.28	273.84
369.48	287.89
369.68	311.29
369.87	311.29
370.07	322.99
370.27	334.70
370.47	327.68
370.66	330.02
370.86	409.59
371.06	365.12
371.25	454.06
371.45	376.83
371.65	376.83
371.84	395.55
372.04	381.51
372.24	376.83
372.44	372.15
372.63	425.98
372.83	479.81
373.03	365.12
373.22	407.25
373.42	404.91
373.62	402.57
373.81	416.62
374.01	425.98
374.21	472.79
374.40	461.09
374.60	407.25
374.79	402.57
374.99	407.25
375.19	454.06
375.38	435.34
375.58	409.59
375.78	386.19
375.97	444.70
376.17	414.27
376.37	409.59
376.56	404.91
376.76	404.91
376.95	372.15
377.15	435.34
377.35	397.89
377.54	393.21
377.74	360.44
377.93	402.57
378.13	418.96
378.33	393.21
378.52	390.87
378.72	414.27
378.91	402.57
379.11	404.91
379.31	369.80
379.50	360.44
379.70	468.11
379.89	369.80
380.09	339.38
380.28	351.08
380.48	418.96
380.68	411.93
380.87	379.17
381.07	409.59
381.26	444.70
381.46	320.65
381.65	451.72
381.85	402.57
382.04	407.25
382.24	423.64
382.43	430.66
382.63	430.66
382.83	332.36
383.02	397.89
383.22	465.77
383.41	416.62
383.61	428.32
383.80	386.19
384.00	376.83
384.19	360.44
384.39	379.17
384.58	353.42
384.78	421.30
384.97	313.63
385.17	374.49
385.36	404.91
385.56	442.36
385.75	404.91
385.95	425.98
386.14	409.59
386.34	369.80
386.53	376.83
386.72	376.83
386.92	414.27
387.11	414.27
387.31	390.87
387.50	400.23
387.70	400.23
387.89	395.55
388.09	393.21
388.28	397.89
388.48	393.21
388.67	451.72
388.86	409.59
389.06	393.21
389.25	437.68
389.45	458.74
389.64	355.76
389.84	416.62
390.03	447.04
390.22	386.19
390.42	402.57
390.61	433.00
390.81	367.46
391.00	367.46
391.19	421.30
391.39	372.15
391.58	416.62
391.78	425.98
391.97	421.30
392.16	428.32
392.36	390.87
392.55	461.09
392.75	397.89
392.94	470.45
393.13	374.49
393.33	362.78
393.52	367.46
393.71	388.53
393.91	365.12
394.10	411.93
394.29	433.00
394.49	379.17
394.68	423.64
394.88	367.46
395.07	447.04
395.26	365.12
395.46	407.25
395.65	493.85
395.84	404.91
396.04	468.11
396.23	444.70
396.42	395.55
396.62	421.30
396.81	440.02
397.00	402.57
397.19	325.33
397.39	428.32
397.58	433.00
397.77	402.57
397.97	449.38
398.16	372.15
398.35	425.98
398.55	369.80
398.74	421.30
398.93	423.64
399.12	386.19
399.32	407.25
399.51	444.70
399.70	351.08
399.90	428.32
400.09	425.98
400.28	365.12
400.47	369.80
400.67	400.23
400.86	465.77
401.05	458.74
401.24	463.43
401.44	327.68
401.63	414.27
401.82	409.59
402.01	374.49
402.21	376.83
402.40	486.83
402.59	433.00
402.78	400.23
402.97	440.02
403.17	390.87
403.36	379.17
403.55	461.09
403.74	468.11
403.93	418.96
404.13	465.77
404.32	393.21
404.51	421.30
404.70	407.25
404.89	411.93
405.09	372.15
405.28	440.02
405.47	383.85
405.66	428.32
405.85	409.59
406.05	381.51
406.24	320.65
406.43	395.55
406.62	416.62
406.81	393.21
407.00	423.64
407.20	393.21
407.39	411.93
407.58	433.00
407.77	451.72
407.96	360.44
408.15	414.27
408.34	463.43
408.54	411.93
408.73	360.44
408.92	358.10
409.11	463.43
409.30	442.36
409.49	444.70
409.68	379.17
409.87	440.02
410.07	400.23
410.26	393.21
410.45	358.10
410.64	411.93
410.83	322.99
411.02	369.80
411.21	433.00
411.40	348.74
411.59	346.40
411.78	400.23
411.98	346.40
412.17	301.93
412.36	411.93
412.55	348.74
412.74	435.34
412.93	444.70
413.12	386.19
413.31	463.43
413.50	409.59
413.69	472.79
413.88	428.32
414.07	416.62
414.26	341.72
414.45	409.59
414.64	472.79
414.83	428.32
415.02	418.96
415.22	435.34
415.41	479.81
415.60	393.21
415.79	353.42
415.98	367.46
416.17	447.04
416.36	395.55
416.55	428.32
416.74	423.64
416.93	477.47
417.12	425.98
417.31	423.64
417.50	433.00
417.69	425.98
417.88	400.23
418.07	379.17
418.26	386.19
418.45	463.43
418.64	421.30
418.83	383.85
419.02	428.32
419.21	376.83
419.39	376.83
419.58	383.85
419.77	444.70
419.96	465.77
420.15	390.87
420.34	372.15
420.53	411.93
420.72	421.30
420.91	447.04
421.10	355.76
421.29	458.74
421.48	414.27
421.67	454.06
421.86	404.91
422.05	381.51
422.24	404.91
422.43	397.89
422.61	400.23
422.80	421.30
422.99	437.68
423.18	400.23
423.37	484.49
423.56	433.00
423.75	437.68
423.94	465.77
424.13	383.85
424.32	367.46
424.50	425.98
424.69	386.19
424.88	390.87
425.07	346.40
425.26	388.53
425.45	386.19
425.64	425.98
425.83	337.04
426.01	416.62
426.20	407.25
426.39	433.00
426.58	386.19
426.77	430.66
426.96	414.27
427.15	461.09
427.33	451.72
427.52	397.89
427.71	468.11
427.90	451.72
428.09	372.15
428.28	393.21
428.46	346.40
428.65	444.70
428.84	416.62
429.03	458.74
429.22	440.02
429.40	418.96
429.59	367.46
429.78	482.15
429.97	372.15
430.16	421.30
430.34	367.46
430.53	362.78
430.72	395.55
430.91	416.62
431.10	428.32
431.28	374.49
431.47	430.66
431.66	451.72
431.85	484.49
432.03	470.45
432.22	421.30
432.41	400.23
432.60	395.55
432.79	458.74
432.97	437.68
433.16	449.38
433.35	418.96
433.54	325.33
433.72	374.49
433.91	390.87
434.10	425.98
434.28	369.80
434.47	479.81
434.66	409.59
434.85	402.57
435.03	461.09
435.22	454.06
435.41	397.89
435.59	395.55
435.78	395.55
435.97	367.46
436.16	351.08
436.34	430.66
436.53	444.70
436.72	435.34
436.90	458.74
437.09	400.23
437.28	402.57
437.46	404.91
437.65	465.77
437.84	402.57
438.02	402.57
438.21	393.21
438.40	425.98
438.58	341.72
438.77	430.66
438.96	369.80
439.14	418.96
439.33	411.93
439.52	416.62
439.70	430.66
439.89	454.06
440.08	428.32
440.26	456.40
440.45	465.77
440.63	435.34
440.82	332.36
441.01	414.27
441.19	400.23
441.38	456.40
441.57	395.55
441.75	482.15
441.94	484.49
442.12	470.45
442.31	402.57
442.50	449.38
442.68	381.51
442.87	407.25
443.05	456.40
443.24	461.09
443.43	451.72
443.61	407.25
443.80	500.87
443.98	386.19
444.17	407.25
444.35	444.70
444.54	358.10
444.73	348.74
444.91	390.87
445.10	437.68
445.28	433.00
445.47	524.28
445.65	397.89
445.84	461.09
446.02	367.46
446.21	395.55
446.39	397.89
446.58	421.30
446.77	386.19
446.95	402.57
447.14	433.00
447.32	444.70
447.51	411.93
447.69	416.62
447.88	442.36
448.06	449.38
448.25	454.06
448.43	411.93
448.62	430.66
448.80	496.19
448.99	430.66
449.17	472.79
449.36	442.36
449.54	449.38
449.73	421.30
449.91	428.32
450.10	435.34
450.28	458.74
450.46	404.91
450.65	421.30
450.83	379.17
451.02	369.80
451.20	428.32
451.39	383.85
451.57	383.85
451.76	402.57
451.94	447.04
452.13	458.74
452.31	435.34
452.49	407.25
452.68	400.23
452.86	386.19
453.05	444.70
453.23	433.00
453.42	386.19
453.60	393.21
453.78	376.83
453.97	376.83
454.15	395.55
454.34	430.66
454.52	425.98
454.70	451.72
454.89	404.91
455.07	294.91
455.26	517.26
455.44	372.15
455.62	433.00
455.81	374.49
455.99	433.00
456.17	409.59
456.36	451.72
456.54	374.49
456.73	341.72
456.91	369.80
457.09	418.96
457.28	421.30
457.46	395.55
457.64	442.36
457.83	397.89
458.01	416.62
458.19	337.04
458.38	440.02
458.56	425.98
458.74	430.66
458.93	435.34
459.11	440.02
459.29	358.10
459.48	407.25
459.66	468.11
459.84	454.06
460.03	433.00
460.21	428.32
460.39	337.04
460.57	386.19
460.76	374.49
460.94	400.23
461.12	395.55
461.31	440.02
461.49	447.04
461.67	386.19
461.85	430.66
462.04	435.34
462.22	779.40
462.40	423.64
462.59	423.64
462.77	465.77
462.95	423.64
463.13	465.77
463.32	355.76
463.50	414.27
463.68	367.46
463.86	379.17
464.05	395.55
464.23	491.51
464.41	393.21
464.59	437.68
464.78	402.57
464.96	395.55
465.14	456.40
465.32	383.85
465.50	390.87
465.69	423.64
465.87	388.53
466.05	425.98
466.23	402.57
466.41	393.21
466.60	395.55
466.78	414.27
466.96	386.19
467.14	454.06
467.32	397.89
467.51	440.02
467.69	421.30
467.87	465.77
468.05	409.59
468.23	400.23
468.41	416.62
468.60	454.06
468.78	433.00
468.96	470.45
469.14	395.55
469.32	440.02
469.50	421.30
469.69	411.93
469.87	409.59
470.05	418.96
470.23	440.02
470.41	374.49
470.59	430.66
470.77	423.64
470.95	365.12
471.14	423.64
471.32	470.45
471.50	489.17
471.68	444.70
471.86	409.59
472.04	379.17
472.22	404.91
472.40	409.59
472.58	423.64
472.77	468.11
472.95	442.36
473.13	454.06
473.31	463.43
473.49	397.89
473.67	369.80
473.85	461.09
474.03	463.43
474.21	418.96
474.39	428.32
474.57	489.17
474.75	344.06
474.93	416.62
475.12	360.44
475.30	393.21
475.48	381.51
475.66	447.04
475.84	477.47
476.02	395.55
476.20	449.38
476.38	365.12
476.56	463.43
476.74	404.91
476.92	369.80
477.10	369.80
477.28	510.24
477.46	409.59
477.64	484.49
477.82	442.36
478.00	418.96
478.18	381.51
478.36	447.04
478.54	400.23
478.72	402.57
478.90	362.78
479.08	489.17
479.26	423.64
479.44	388.53
479.62	374.49
479.80	341.72
479.98	362.78
480.16	372.15
480.34	411.93
480.52	351.08
480.70	451.72
480.88	425.98
481.06	360.44
481.24	348.74
481.41	365.12
481.59	341.72
481.77	447.04
481.95	458.74
482.13	484.49
482.31	447.04
482.49	454.06
482.67	407.25
482.85	491.51
483.03	421.30
483.21	435.34
483.39	365.12
483.57	395.55
483.74	528.96
483.92	425.98
484.10	402.57
484.28	451.72
484.46	421.30
484.64	360.44
484.82	358.10
485.00	414.27
485.18	407.25
485.35	407.25
485.53	447.04
485.71	486.83
485.89	463.43
486.07	416.62
486.25	442.36
486.43	451.72
486.61	418.96
486.78	461.09
486.96	442.36
487.14	423.64
487.32	337.04
487.50	400.23
487.68	475.13
487.85	428.32
488.03	393.21
488.21	428.32
488.39	435.34
488.57	433.00
488.75	404.91
488.92	430.66
489.10	367.46
489.28	519.60
489.46	451.72
489.64	454.06
489.81	463.43
489.99	428.32
490.17	416.62
490.35	451.72
490.53	421.30
490.70	524.28
490.88	411.93
491.06	341.72
491.24	409.59
491.41	442.36
491.59	423.64
491.77	437.68
491.95	388.53
492.13	344.06
492.30	547.69
492.48	411.93
492.66	381.51
492.84	409.59
493.01	390.87
493.19	489.17
493.37	388.53
493.54	409.59
493.72	390.87
493.90	393.21
494.08	458.74
494.25	456.40
494.43	489.17
494.61	418.96
494.79	421.30
494.96	397.89
495.14	353.42
495.32	430.66
495.49	442.36
495.67	409.59
495.85	517.26
496.02	337.04
496.20	444.70
496.38	397.89
496.55	411.93
496.73	339.38
496.91	407.25
497.09	421.30
497.26	475.13
497.44	397.89
497.62	360.44
497.79	430.66
497.97	348.74
498.14	388.53
498.32	402.57
498.50	477.47
498.67	386.19
498.85	374.49
499.03	433.00
499.20	407.25
499.38	437.68
499.56	376.83
499.73	454.06
499.91	435.34
500.08	472.79
500.26	428.32
500.44	437.68
500.61	386.19
500.79	493.85
500.97	414.27
501.14	433.00
501.32	402.57
501.49	479.81
501.67	449.38
501.84	404.91
502.02	367.46
502.20	430.66
502.37	423.64
502.55	418.96
502.72	421.30
502.90	479.81
503.07	468.11
503.25	479.81
503.43	372.15
503.60	433.00
503.78	444.70
503.95	374.49
504.13	383.85
504.30	444.70
504.48	374.49
504.65	423.64
504.83	381.51
505.01	433.00
505.18	486.83
505.36	519.60
505.53	411.93
505.71	444.70
505.88	407.25
506.06	475.13
506.23	482.15
506.41	365.12
506.58	404.91
506.76	414.27
506.93	447.04
507.11	388.53
507.28	444.70
507.46	423.64
507.63	404.91
507.81	498.53
507.98	341.72
508.16	454.06
508.33	402.57
508.50	411.93
508.68	348.74
508.85	411.93
509.03	449.38
509.20	330.02
509.38	435.34
509.55	433.00
509.73	407.25
509.90	362.78
510.08	351.08
510.25	400.23
510.42	383.85
510.60	477.47
510.77	491.51
510.95	402.57
511.12	416.62
511.30	365.12
511.47	440.02
511.64	479.81
511.82	379.17
511.99	414.27
512.17	440.02
512.34	355.76
512.51	376.83
512.69	435.34
512.86	386.19
513.04	358.10
513.21	414.27
513.38	393.21
513.56	423.64
513.73	393.21
513.90	454.06
514.08	433.00
514.25	418.96
514.43	449.38
514.60	344.06
514.77	414.27
514.95	383.85
515.12	390.87
515.29	430.66
515.47	454.06
515.64	379.17
515.81	414.27
515.99	454.06
516.16	421.30
516.33	489.17
516.51	409.59
516.68	433.00
516.85	437.68
517.03	383.85
517.20	472.79
517.37	416.62
517.54	418.96
517.72	386.19
517.89	330.02
518.06	358.10
518.24	435.34
518.41	475.13
518.58	489.17
518.75	423.64
518.93	393.21
519.10	381.51
519.27	458.74
519.45	372.15
519.62	407.25
519.79	423.64
519.96	393.21
520.14	301.93
520.31	461.09
520.48	416.62
520.65	435.34
520.83	423.64
521.00	372.15
521.17	425.98
521.34	379.17
521.52	425.98
521.69	386.19
521.86	514.92
522.03	458.74
522.20	472.79
522.38	435.34
522.55	423.64
522.72	383.85
522.89	454.06
523.07	472.79
523.24	454.06
523.41	416.62
523.58	493.85
523.75	360.44
523.92	400.23
524.10	411.93
524.27	355.76
524.44	383.85
524.61	486.83
524.78	372.15
524.96	404.91
525.13	414.27
525.30	472.79
525.47	433.00
525.64	365.12
525.81	381.51
525.98	383.85
526.16	381.51
526.33	444.70
526.50	367.46
526.67	416.62
526.84	430.66
527.01	416.62
527.18	454.06
527.36	386.19
527.53	369.80
527.70	407.25
527.87	486.83
528.04	514.92
528.21	397.89
528.38	411.93
528.55	463.43
528.72	468.11
528.89	430.66
529.07	379.17
529.24	362.78
529.41	442.36
529.58	407.25
529.75	299.59
529.92	362.78
530.09	372.15
530.26	435.34
530.43	388.53
530.60	437.68
530.77	393.21
530.94	374.49
531.11	435.34
531.28	379.17
531.46	332.36
531.63	404.91
531.80	425.98
531.97	428.32
532.14	372.15
532.31	425.98
532.48	433.00
532.65	400.23
532.82	383.85
532.99	358.10
533.16	425.98
533.33	400.23
533.50	355.76
533.67	435.34
533.84	456.40
534.01	404.91
534.18	365.12
534.35	414.27
534.52	358.10
534.69	447.04
534.86	402.57
535.03	421.30
535.20	472.79
535.37	402.57
535.54	428.32
535.71	425.98
535.88	442.36
536.05	470.45
536.22	409.59
536.38	386.19
536.55	437.68
536.72	477.47
536.89	430.66
537.06	418.96
537.23	421.30
537.40	397.89
537.57	468.11
537.74	442.36
537.91	360.44
538.08	409.59
538.25	430.66
538.42	449.38
538.59	414.27
538.75	386.19
538.92	428.32
539.09	435.34
539.26	379.17
539.43	379.17
539.60	362.78
539.77	332.36
539.94	369.80
540.11	461.09
540.28	465.77
540.44	454.06
540.61	414.27
540.78	442.36
540.95	433.00
541.12	444.70
541.29	454.06
541.46	416.62
541.62	397.89
541.79	395.55
541.96	470.45
542.13	383.85
542.30	409.59
542.47	442.36
542.63	404.91
542.80	440.02
542.97	404.91
543.14	397.89
543.31	400.23
543.48	430.66
543.64	435.34
543.81	395.55
543.98	411.93
544.15	353.42
544.32	421.30
544.48	435.34
544.65	411.93
544.82	421.30
544.99	344.06
545.16	503.22
545.32	388.53
545.49	393.21
545.66	407.25
545.83	374.49
546.00	454.06
546.16	360.44
546.33	458.74
546.50	411.93
546.67	393.21
546.83	454.06
547.00	456.40
547.17	344.06
547.34	428.32
547.50	402.57
547.67	362.78
547.84	425.98
548.00	454.06
548.17	393.21
548.34	475.13
548.51	454.06
548.67	479.81
548.84	442.36
549.01	465.77
549.18	390.87
549.34	416.62
549.51	388.53
549.68	442.36
549.84	428.32
550.01	379.17
550.18	458.74
550.34	475.13
550.51	416.62
550.68	444.70
550.84	404.91
551.01	381.51
551.18	362.78
551.34	407.25
551.51	388.53
551.68	416.62
551.84	430.66
552.01	456.40
552.18	358.10
552.34	369.80
552.51	416.62
552.68	397.89
552.84	390.87
553.01	416.62
553.18	461.09
553.34	423.64
553.51	367.46
553.67	458.74
553.84	411.93
554.01	449.38
554.17	437.68
554.34	369.80
554.51	418.96
554.67	390.87
554.84	416.62
555.00	388.53
555.17	416.62
555.33	491.51
555.50	351.08
555.67	404.91
555.83	334.70
556.00	472.79
556.16	550.03
556.33	500.87
556.50	461.09
556.66	376.83
556.83	383.85
556.99	451.72
557.16	423.64
557.32	383.85
557.49	400.23
557.65	433.00
557.82	362.78
557.98	435.34
558.15	423.64
558.32	376.83
558.48	397.89
558.65	402.57
558.81	381.51
558.98	407.25
559.14	379.17
559.31	507.90
559.47	468.11
559.64	388.53
559.80	409.59
559.97	400.23
560.13	374.49
560.30	337.04
560.46	425.98
560.63	358.10
560.79	482.15
560.96	451.72
561.12	458.74
561.29	376.83
561.45	369.80
561.61	390.87
561.78	493.85
561.94	390.87
562.11	418.96
562.27	402.57
562.44	379.17
562.60	418.96
562.77	519.60
562.93	416.62
563.10	376.83
563.26	428.32
563.42	395.55
563.59	428.32
563.75	332.36
563.92	395.55
564.08	383.85
564.24	388.53
564.41	505.56
564.57	393.21
564.74	402.57
564.90	449.38
565.07	383.85
565.23	402.57
565.39	496.19
565.56	486.83
565.72	416.62
565.88	407.25
566.05	430.66
566.21	489.17
566.38	447.04
566.54	435.34
566.70	418.96
566.87	358.10
567.03	351.08
567.19	484.49
567.36	468.11
567.52	433.00
567.68	404.91
567.85	437.68
568.01	355.76
568.17	477.47
568.34	404.91
568.50	435.34
568.66	379.17
568.83	528.96
568.99	423.64
569.15	414.27
569.32	351.08
569.48	376.83
569.64	397.89
569.81	430.66
569.97	367.46
570.13	440.02
570.30	444.70
570.46	489.17
570.62	433.00
570.78	444.70
570.95	381.51
571.11	444.70
571.27	454.06
571.43	362.78
571.60	376.83
571.76	442.36
571.92	395.55
572.09	346.40
572.25	383.85
572.41	404.91
572.57	388.53
572.74	433.00
572.90	468.11
573.06	393.21
573.22	397.89
573.38	461.09
573.55	416.62
573.71	454.06
573.87	388.53
574.03	414.27
574.20	407.25
574.36	444.70
574.52	388.53
574.68	472.79
574.84	386.19
575.01	381.51
575.17	444.70
575.33	358.10
575.49	433.00
575.65	447.04
575.82	444.70
575.98	404.91
576.14	458.74
576.30	451.72
576.46	334.70
576.62	470.45
576.79	383.85
576.95	454.06
577.11	442.36
577.27	402.57
577.43	430.66
577.59	451.72
577.75	397.89
577.92	411.93
578.08	367.46
578.24	360.44
578.40	440.02
578.56	407.25
578.72	416.62
578.88	482.15
579.04	381.51
579.21	456.40
579.37	486.83
579.53	383.85
579.69	463.43
579.85	404.91
580.01	358.10
580.17	400.23
580.33	404.91
580.49	395.55
580.65	468.11
580.82	409.59
580.98	369.80
581.14	409.59
581.30	454.06
581.46	414.27
581.62	468.11
581.78	418.96
581.94	489.17
582.10	470.45
582.26	484.49
582.42	444.70
582.58	470.45
582.74	400.23
582.90	430.66
583.06	407.25
583.22	423.64
583.38	360.44
583.54	428.32
583.70	416.62
583.86	374.49
584.02	393.21
584.18	407.25
584.34	416.62
584.50	418.96
584.66	418.96
584.82	411.93
584.98	337.04
585.14	447.04
585.30	425.98
585.46	444.70
585.62	383.85
585.78	428.32
585.94	360.44
586.10	425.98
586.26	388.53
586.42	468.11
586.58	442.36
586.74	451.72
586.90	351.08
587.06	440.02
587.22	369.80
587.38	437.68
587.54	451.72
587.70	442.36
587.86	454.06
588.02	404.91
588.18	421.30
588.34	404.91
588.49	433.00
588.65	409.59
588.81	411.93
588.97	372.15
589.13	400.23
589.29	472.79
589.45	393.21
589.61	491.51
589.77	458.74
589.93	388.53
590.08	418.96
590.24	379.17
590.40	407.25
590.56	388.53
590.72	463.43
590.88	423.64
591.04	421.30
591.20	400.23
591.35	461.09
591.51	381.51
591.67	407.25
591.83	365.12
591.99	418.96
592.15	465.77
592.31	461.09
592.46	400.23
592.62	393.21
592.78	444.70
592.94	393.21
593.10	416.62
593.26	435.34
593.41	435.34
593.57	369.80
593.73	425.98
593.89	418.96
594.05	383.85
594.20	411.93
594.36	433.00
594.52	437.68
594.68	435.34
594.84	393.21
594.99	465.77
595.15	468.11
595.31	383.85
595.47	440.02
595.62	278.52
595.78	421.30
595.94	414.27
596.10	428.32
596.25	449.38
596.41	367.46
596.57	447.04
596.73	355.76
596.88	428.32
597.04	451.72
597.20	372.15
597.36	463.43
597.51	341.72
597.67	383.85
597.83	395.55
597.99	402.57
598.14	348.74
598.30	430.66
598.46	428.32
598.61	465.77
598.77	447.04
598.93	444.70
599.09	411.93
599.24	402.57
599.40	465.77
599.56	437.68
599.71	421.30
599.87	447.04
600.03	470.45
600.18	351.08
600.34	397.89
600.50	402.57
600.65	486.83
600.81	437.68
600.97	376.83
601.12	449.38
601.28	447.04
601.44	482.15
601.59	348.74
601.75	425.98
601.91	428.32
602.06	463.43
602.22	472.79
602.37	348.74
602.53	416.62
602.69	454.06
602.84	395.55
603.00	449.38
603.16	500.87
603.31	393.21
603.47	449.38
603.62	458.74
603.78	461.09
603.94	400.23
604.09	411.93
604.25	479.81
604.40	362.78
604.56	400.23
604.71	423.64
604.87	348.74
605.03	369.80
605.18	381.51
605.34	447.04
605.49	482.15
605.65	463.43
605.80	306.61
605.96	355.76
606.12	414.27
606.27	447.04
606.43	409.59
606.58	493.85
606.74	411.93
606.89	430.66
607.05	454.06
607.20	369.80
607.36	425.98
607.51	341.72
607.67	454.06
607.82	374.49
607.98	526.62
608.13	449.38
608.29	388.53
608.44	482.15
608.60	388.53
608.75	365.12
608.91	423.64
609.06	411.93
609.22	414.27
609.37	383.85
609.53	514.92
609.68	407.25
609.84	454.06
609.99	437.68
610.15	374.49
