SpectraSuite Data File
++++++++++++++++++++++++++++++++++++
Date: Fri Oct 25 12:10:54 EDT 2013
User: price-jones
Dark Spectrum Present: No
Reference Spectrum Present: No
Number of Sampled Component Spectra: 1
Spectrometers: USB2+H05261
Integration Time (usec): 100000 (USB2+H05261)
Spectra Averaged: 1 (USB2+H05261)
Boxcar Smoothing: 0 (USB2+H05261)
Correct for Electrical Dark: No (USB2+H05261)
Strobe/Lamp Enabled: No (USB2+H05261)
Correct for Detector Non-linearity: No (USB2+H05261)
Correct for Stray Light: No (USB2+H05261)
Number of Pixels in Processed Spectrum: 2048
>>>>>Begin Processed Spectral Data<<<<<
365.73	383.85
365.92	383.85
366.12	383.85
366.32	290.23
366.52	229.37
366.72	231.71
366.91	198.95
367.11	252.78
367.31	222.35
367.51	301.93
367.70	264.48
367.90	262.14
368.10	198.95
368.30	241.08
368.49	264.48
368.69	299.59
368.89	191.92
369.09	285.55
369.28	285.55
369.48	236.39
369.68	313.63
369.87	299.59
370.07	271.50
370.27	320.65
370.47	276.18
370.66	374.49
370.86	372.15
371.06	393.21
371.25	442.36
371.45	409.59
371.65	313.63
371.84	376.83
372.04	395.55
372.24	367.46
372.44	388.53
372.63	358.10
372.83	388.53
373.03	360.44
373.22	388.53
373.42	421.30
373.62	407.25
373.81	435.34
374.01	454.06
374.21	425.98
374.40	379.17
374.60	454.06
374.79	479.81
374.99	430.66
375.19	456.40
375.38	461.09
375.58	386.19
375.78	451.72
375.97	440.02
376.17	440.02
376.37	404.91
376.56	355.76
376.76	416.62
376.95	365.12
377.15	444.70
377.35	386.19
377.54	425.98
377.74	437.68
377.93	365.12
378.13	444.70
378.33	514.92
378.52	433.00
378.72	468.11
378.91	386.19
379.11	388.53
379.31	381.51
379.50	414.27
379.70	430.66
379.89	428.32
380.09	409.59
380.28	390.87
380.48	395.55
380.68	372.15
380.87	397.89
381.07	430.66
381.26	470.45
381.46	454.06
381.65	381.51
381.85	395.55
382.04	428.32
382.24	454.06
382.43	444.70
382.63	351.08
382.83	404.91
383.02	367.46
383.22	425.98
383.41	388.53
383.61	388.53
383.80	454.06
384.00	437.68
384.19	360.44
384.39	322.99
384.58	437.68
384.78	400.23
384.97	393.21
385.17	407.25
385.36	423.64
385.56	393.21
385.75	332.36
385.95	376.83
386.14	451.72
386.34	397.89
386.53	475.13
386.72	379.17
386.92	433.00
387.11	444.70
387.31	402.57
387.50	402.57
387.70	404.91
387.89	472.79
388.09	362.78
388.28	442.36
388.48	330.02
388.67	447.04
388.86	418.96
389.06	430.66
389.25	416.62
389.45	404.91
389.64	400.23
389.84	470.45
390.03	470.45
390.22	386.19
390.42	409.59
390.61	376.83
390.81	374.49
391.00	456.40
391.19	409.59
391.39	369.80
391.58	430.66
391.78	393.21
391.97	397.89
392.16	390.87
392.36	416.62
392.55	425.98
392.75	376.83
392.94	346.40
393.13	353.42
393.33	353.42
393.52	423.64
393.71	430.66
393.91	433.00
394.10	409.59
394.29	475.13
394.49	379.17
394.68	386.19
394.88	390.87
395.07	414.27
395.26	376.83
395.46	400.23
395.65	433.00
395.84	465.77
396.04	449.38
396.23	472.79
396.42	465.77
396.62	416.62
396.81	468.11
397.00	376.83
397.19	376.83
397.39	416.62
397.58	374.49
397.77	421.30
397.97	454.06
398.16	383.85
398.35	447.04
398.55	337.04
398.74	388.53
398.93	442.36
399.12	428.32
399.32	418.96
399.51	414.27
399.70	372.15
399.90	433.00
400.09	369.80
400.28	374.49
400.47	472.79
400.67	416.62
400.86	383.85
401.05	388.53
401.24	334.70
401.44	461.09
401.63	421.30
401.82	435.34
402.01	308.95
402.21	360.44
402.40	442.36
402.59	376.83
402.78	388.53
402.97	437.68
403.17	411.93
403.36	425.98
403.55	437.68
403.74	414.27
403.93	369.80
404.13	440.02
404.32	404.91
404.51	451.72
404.70	421.30
404.89	440.02
405.09	456.40
405.28	390.87
405.47	447.04
405.66	379.17
405.85	444.70
406.05	440.02
406.24	416.62
406.43	404.91
406.62	341.72
406.81	416.62
407.00	421.30
407.20	379.17
407.39	388.53
407.58	416.62
407.77	369.80
407.96	388.53
408.15	386.19
408.34	437.68
408.54	407.25
408.73	458.74
408.92	397.89
409.11	411.93
409.30	421.30
409.49	346.40
409.68	407.25
409.87	472.79
410.07	388.53
410.26	430.66
410.45	411.93
410.64	402.57
410.83	358.10
411.02	402.57
411.21	444.70
411.40	397.89
411.59	390.87
411.78	447.04
411.98	442.36
412.17	435.34
412.36	402.57
412.55	437.68
412.74	425.98
412.93	503.22
413.12	372.15
413.31	475.13
413.50	430.66
413.69	444.70
413.88	423.64
414.07	395.55
414.26	442.36
414.45	458.74
414.64	402.57
414.83	430.66
415.02	416.62
415.22	491.51
415.41	416.62
415.60	351.08
415.79	428.32
415.98	411.93
416.17	400.23
416.36	491.51
416.55	435.34
416.74	386.19
416.93	456.40
417.12	437.68
417.31	428.32
417.50	379.17
417.69	379.17
417.88	486.83
418.07	409.59
418.26	430.66
418.45	409.59
418.64	407.25
418.83	475.13
419.02	404.91
419.21	402.57
419.39	425.98
419.58	390.87
419.77	360.44
419.96	381.51
420.15	411.93
420.34	449.38
420.53	397.89
420.72	458.74
420.91	437.68
421.10	444.70
421.29	489.17
421.48	472.79
421.67	402.57
421.86	435.34
422.05	362.78
422.24	440.02
422.43	451.72
422.61	437.68
422.80	393.21
422.99	465.77
423.18	388.53
423.37	430.66
423.56	381.51
423.75	409.59
423.94	407.25
424.13	379.17
424.32	362.78
424.50	465.77
424.69	411.93
424.88	456.40
425.07	461.09
425.26	447.04
425.45	425.98
425.64	402.57
425.83	386.19
426.01	383.85
426.20	454.06
426.39	367.46
426.58	362.78
426.77	414.27
426.96	402.57
427.15	395.55
427.33	425.98
427.52	489.17
427.71	369.80
427.90	369.80
428.09	416.62
428.28	423.64
428.46	425.98
428.65	397.89
428.84	348.74
429.03	449.38
429.22	444.70
429.40	372.15
429.59	397.89
429.78	390.87
429.97	360.44
430.16	423.64
430.34	367.46
430.53	418.96
430.72	456.40
430.91	400.23
431.10	360.44
431.28	325.33
431.47	440.02
431.66	395.55
431.85	369.80
432.03	369.80
432.22	435.34
432.41	383.85
432.60	423.64
432.79	444.70
432.97	383.85
433.16	423.64
433.35	322.99
433.54	423.64
433.72	388.53
433.91	458.74
434.10	379.17
434.28	458.74
434.47	458.74
434.66	482.15
434.85	369.80
435.03	428.32
435.22	477.47
435.41	369.80
435.59	383.85
435.78	416.62
435.97	447.04
436.16	435.34
436.34	463.43
436.53	402.57
436.72	404.91
436.90	461.09
437.09	456.40
437.28	397.89
437.46	435.34
437.65	444.70
437.84	458.74
438.02	400.23
438.21	421.30
438.40	351.08
438.58	416.62
438.77	339.38
438.96	414.27
439.14	402.57
439.33	440.02
439.52	390.87
439.70	351.08
439.89	433.00
440.08	435.34
440.26	395.55
440.45	397.89
440.63	470.45
440.82	402.57
441.01	440.02
441.19	404.91
441.38	479.81
441.57	451.72
441.75	496.19
441.94	414.27
442.12	409.59
442.31	353.42
442.50	407.25
442.68	465.77
442.87	482.15
443.05	454.06
443.24	421.30
443.43	388.53
443.61	393.21
443.80	425.98
443.98	365.12
444.17	409.59
444.35	451.72
444.54	402.57
444.73	344.06
444.91	367.46
445.10	423.64
445.28	418.96
445.47	400.23
445.65	425.98
445.84	386.19
446.02	409.59
446.21	435.34
446.39	454.06
446.58	475.13
446.77	437.68
446.95	409.59
447.14	388.53
447.32	440.02
447.51	409.59
447.69	482.15
447.88	402.57
448.06	475.13
448.25	458.74
448.43	390.87
448.62	425.98
448.80	362.78
448.99	451.72
449.17	353.42
449.36	437.68
449.54	444.70
449.73	421.30
449.91	367.46
450.10	421.30
450.28	465.77
450.46	395.55
450.65	409.59
450.83	435.34
451.02	397.89
451.20	367.46
451.39	400.23
451.57	447.04
451.76	367.46
451.94	388.53
452.13	407.25
452.31	468.11
452.49	461.09
452.68	386.19
452.86	433.00
453.05	425.98
453.23	388.53
453.42	418.96
453.60	430.66
453.78	442.36
453.97	404.91
454.15	423.64
454.34	372.15
454.52	330.02
454.70	400.23
454.89	388.53
455.07	400.23
455.26	465.77
455.44	437.68
455.62	372.15
455.81	311.29
455.99	367.46
456.17	428.32
456.36	402.57
456.54	425.98
456.73	383.85
456.91	365.12
457.09	402.57
457.28	409.59
457.46	428.32
457.64	421.30
457.83	475.13
458.01	458.74
458.19	430.66
458.38	435.34
458.56	430.66
458.74	425.98
458.93	388.53
459.11	355.76
459.29	418.96
459.48	425.98
459.66	514.92
459.84	496.19
460.03	472.79
460.21	463.43
460.39	411.93
460.57	442.36
460.76	411.93
460.94	418.96
461.12	428.32
461.31	390.87
461.49	386.19
461.67	411.93
461.85	404.91
462.04	400.23
462.22	758.33
462.40	447.04
462.59	468.11
462.77	393.21
462.95	430.66
463.13	449.38
463.32	353.42
463.50	428.32
463.68	416.62
463.86	383.85
464.05	444.70
464.23	430.66
464.41	407.25
464.59	428.32
464.78	416.62
464.96	416.62
465.14	404.91
465.32	425.98
465.50	372.15
465.69	461.09
465.87	367.46
466.05	379.17
466.23	341.72
466.41	358.10
466.60	421.30
466.78	477.47
466.96	407.25
467.14	369.80
467.32	397.89
467.51	386.19
467.69	454.06
467.87	465.77
468.05	447.04
468.23	437.68
468.41	465.77
468.60	362.78
468.78	400.23
468.96	447.04
469.14	388.53
469.32	402.57
469.50	372.15
469.69	376.83
469.87	421.30
470.05	404.91
470.23	400.23
470.41	376.83
470.59	379.17
470.77	414.27
470.95	423.64
471.14	388.53
471.32	304.27
471.50	428.32
471.68	400.23
471.86	407.25
472.04	425.98
472.22	465.77
472.40	433.00
472.58	435.34
472.77	416.62
472.95	393.21
473.13	425.98
473.31	484.49
473.49	414.27
473.67	344.06
473.85	428.32
474.03	388.53
474.21	435.34
474.39	465.77
474.57	463.43
474.75	395.55
474.93	435.34
475.12	402.57
475.30	386.19
475.48	451.72
475.66	365.12
475.84	414.27
476.02	423.64
476.20	454.06
476.38	428.32
476.56	475.13
476.74	433.00
476.92	463.43
477.10	402.57
477.28	404.91
477.46	383.85
477.64	395.55
477.82	395.55
478.00	416.62
478.18	430.66
478.36	376.83
478.54	421.30
478.72	416.62
478.90	423.64
479.08	397.89
479.26	423.64
479.44	414.27
479.62	458.74
479.80	414.27
479.98	381.51
480.16	393.21
480.34	475.13
480.52	416.62
480.70	425.98
480.88	379.17
481.06	428.32
481.24	407.25
481.41	468.11
481.59	500.87
481.77	414.27
481.95	388.53
482.13	388.53
482.31	447.04
482.49	402.57
482.67	397.89
482.85	437.68
483.03	428.32
483.21	444.70
483.39	442.36
483.57	444.70
483.74	493.85
483.92	400.23
484.10	475.13
484.28	461.09
484.46	472.79
484.64	418.96
484.82	334.70
485.00	461.09
485.18	458.74
485.35	407.25
485.53	451.72
485.71	461.09
485.89	475.13
486.07	386.19
486.25	486.83
486.43	388.53
486.61	383.85
486.78	472.79
486.96	409.59
487.14	456.40
487.32	362.78
487.50	414.27
487.68	437.68
487.85	367.46
488.03	496.19
488.21	409.59
488.39	421.30
488.57	449.38
488.75	374.49
488.92	451.72
489.10	442.36
489.28	376.83
489.46	376.83
489.64	404.91
489.81	456.40
489.99	433.00
490.17	444.70
490.35	482.15
490.53	411.93
490.70	402.57
490.88	423.64
491.06	430.66
491.24	468.11
491.41	416.62
491.59	404.91
491.77	388.53
491.95	404.91
492.13	386.19
492.30	486.83
492.48	362.78
492.66	440.02
492.84	444.70
493.01	395.55
493.19	381.51
493.37	418.96
493.54	393.21
493.72	416.62
493.90	383.85
494.08	374.49
494.25	379.17
494.43	404.91
494.61	386.19
494.79	428.32
494.96	418.96
495.14	397.89
495.32	454.06
495.49	397.89
495.67	379.17
495.85	383.85
496.02	351.08
496.20	423.64
496.38	423.64
496.55	442.36
496.73	358.10
496.91	411.93
497.09	451.72
497.26	430.66
497.44	461.09
497.62	379.17
497.79	416.62
497.97	437.68
498.14	402.57
498.32	437.68
498.50	456.40
498.67	423.64
498.85	409.59
499.03	374.49
499.20	395.55
499.38	482.15
499.56	386.19
499.73	400.23
499.91	411.93
500.08	458.74
500.26	423.64
500.44	362.78
500.61	351.08
500.79	393.21
500.97	397.89
501.14	447.04
501.32	463.43
501.49	463.43
501.67	379.17
501.84	425.98
502.02	379.17
502.20	468.11
502.37	386.19
502.55	353.42
502.72	433.00
502.90	388.53
503.07	456.40
503.25	451.72
503.43	456.40
503.60	458.74
503.78	421.30
503.95	332.36
504.13	395.55
504.30	369.80
504.48	425.98
504.65	430.66
504.83	447.04
505.01	388.53
505.18	435.34
505.36	430.66
505.53	435.34
505.71	395.55
505.88	433.00
506.06	393.21
506.23	400.23
506.41	411.93
506.58	472.79
506.76	400.23
506.93	430.66
507.11	425.98
507.28	407.25
507.46	430.66
507.63	407.25
507.81	409.59
507.98	365.12
508.16	472.79
508.33	381.51
508.50	395.55
508.68	411.93
508.85	355.76
509.03	386.19
509.20	374.49
509.38	468.11
509.55	463.43
509.73	433.00
509.90	381.51
510.08	400.23
510.25	437.68
510.42	376.83
510.60	393.21
510.77	465.77
510.95	442.36
511.12	388.53
511.30	393.21
511.47	475.13
511.64	388.53
511.82	479.81
511.99	444.70
512.17	395.55
512.34	383.85
512.51	362.78
512.69	383.85
512.86	447.04
513.04	433.00
513.21	425.98
513.38	465.77
513.56	379.17
513.73	447.04
513.90	430.66
514.08	381.51
514.25	402.57
514.43	503.22
514.60	442.36
514.77	418.96
514.95	465.77
515.12	388.53
515.29	346.40
515.47	379.17
515.64	416.62
515.81	479.81
515.99	507.90
516.16	463.43
516.33	442.36
516.51	416.62
516.68	381.51
516.85	447.04
517.03	475.13
517.20	421.30
517.37	388.53
517.54	402.57
517.72	402.57
517.89	461.09
518.06	454.06
518.24	421.30
518.41	409.59
518.58	440.02
518.75	423.64
518.93	400.23
519.10	414.27
519.27	442.36
519.45	433.00
519.62	374.49
519.79	418.96
519.96	365.12
520.14	308.95
520.31	402.57
520.48	395.55
520.65	444.70
520.83	437.68
521.00	430.66
521.17	376.83
521.34	425.98
521.52	437.68
521.69	402.57
521.86	458.74
522.03	407.25
522.20	512.58
522.38	407.25
522.55	407.25
522.72	334.70
522.89	437.68
523.07	421.30
523.24	442.36
523.41	404.91
523.58	428.32
523.75	397.89
523.92	468.11
524.10	470.45
524.27	458.74
524.44	454.06
524.61	440.02
524.78	456.40
524.96	395.55
525.13	400.23
525.30	468.11
525.47	430.66
525.64	486.83
525.81	395.55
525.98	428.32
526.16	430.66
526.33	416.62
526.50	454.06
526.67	365.12
526.84	430.66
527.01	393.21
527.18	411.93
527.36	388.53
527.53	421.30
527.70	397.89
527.87	407.25
528.04	449.38
528.21	355.76
528.38	475.13
528.55	442.36
528.72	433.00
528.89	500.87
529.07	358.10
529.24	437.68
529.41	376.83
529.58	451.72
529.75	491.51
529.92	454.06
530.09	430.66
530.26	468.11
530.43	454.06
530.60	383.85
530.77	416.62
530.94	411.93
531.11	437.68
531.28	339.38
531.46	348.74
531.63	425.98
531.80	423.64
531.97	458.74
532.14	383.85
532.31	381.51
532.48	517.26
532.65	367.46
532.82	430.66
532.99	468.11
533.16	444.70
533.33	433.00
533.50	454.06
533.67	409.59
533.84	416.62
534.01	475.13
534.18	395.55
534.35	472.79
534.52	463.43
534.69	442.36
534.86	430.66
535.03	365.12
535.20	393.21
535.37	353.42
535.54	423.64
535.71	414.27
535.88	402.57
536.05	442.36
536.22	425.98
536.38	388.53
536.55	341.72
536.72	320.65
536.89	423.64
537.06	470.45
537.23	383.85
537.40	367.46
537.57	447.04
537.74	440.02
537.91	472.79
538.08	409.59
538.25	416.62
538.42	442.36
538.59	447.04
538.75	451.72
538.92	416.62
539.09	423.64
539.26	308.95
539.43	444.70
539.60	409.59
539.77	407.25
539.94	332.36
540.11	451.72
540.28	435.34
540.44	461.09
540.61	369.80
540.78	383.85
540.95	365.12
541.12	402.57
541.29	442.36
541.46	500.87
541.62	414.27
541.79	418.96
541.96	390.87
542.13	449.38
542.30	449.38
542.47	381.51
542.63	404.91
542.80	379.17
542.97	489.17
543.14	418.96
543.31	442.36
543.48	348.74
543.64	475.13
543.81	400.23
543.98	456.40
544.15	334.70
544.32	388.53
544.48	390.87
544.65	416.62
544.82	430.66
544.99	344.06
545.16	404.91
545.32	390.87
545.49	463.43
545.66	409.59
545.83	383.85
546.00	358.10
546.16	388.53
546.33	390.87
546.50	440.02
546.67	407.25
546.83	395.55
547.00	367.46
547.17	379.17
547.34	351.08
547.50	444.70
547.67	318.31
547.84	423.64
548.00	433.00
548.17	421.30
548.34	404.91
548.51	444.70
548.67	402.57
548.84	442.36
549.01	458.74
549.18	421.30
549.34	477.47
549.51	447.04
549.68	386.19
549.84	435.34
550.01	491.51
550.18	491.51
550.34	454.06
550.51	397.89
550.68	456.40
550.84	414.27
551.01	444.70
551.18	404.91
551.34	458.74
551.51	407.25
551.68	444.70
551.84	449.38
552.01	397.89
552.18	330.02
552.34	449.38
552.51	442.36
552.68	440.02
552.84	477.47
553.01	444.70
553.18	407.25
553.34	407.25
553.51	393.21
553.67	451.72
553.84	407.25
554.01	379.17
554.17	465.77
554.34	449.38
554.51	386.19
554.67	433.00
554.84	442.36
555.00	475.13
555.17	397.89
555.33	393.21
555.50	416.62
555.67	451.72
555.83	416.62
556.00	444.70
556.16	571.09
556.33	430.66
556.50	334.70
556.66	393.21
556.83	454.06
556.99	407.25
557.16	451.72
557.32	395.55
557.49	400.23
557.65	383.85
557.82	433.00
557.98	425.98
558.15	442.36
558.32	456.40
558.48	411.93
558.65	430.66
558.81	437.68
558.98	395.55
559.14	430.66
559.31	374.49
559.47	374.49
559.64	444.70
559.80	379.17
559.97	428.32
560.13	386.19
560.30	306.61
560.46	386.19
560.63	383.85
560.79	379.17
560.96	449.38
561.12	411.93
561.29	386.19
561.45	423.64
561.61	482.15
561.78	507.90
561.94	428.32
562.11	470.45
562.27	428.32
562.44	451.72
562.60	456.40
562.77	381.51
562.93	491.51
563.10	390.87
563.26	433.00
563.42	404.91
563.59	358.10
563.75	379.17
563.92	433.00
564.08	397.89
564.24	395.55
564.41	479.81
564.57	376.83
564.74	383.85
564.90	407.25
565.07	444.70
565.23	428.32
565.39	444.70
565.56	435.34
565.72	402.57
565.88	414.27
566.05	416.62
566.21	444.70
566.38	418.96
566.54	414.27
566.70	418.96
566.87	496.19
567.03	395.55
567.19	430.66
567.36	400.23
567.52	404.91
567.68	402.57
567.85	425.98
568.01	423.64
568.17	390.87
568.34	402.57
568.50	512.58
568.66	421.30
568.83	449.38
568.99	390.87
569.15	461.09
569.32	407.25
569.48	360.44
569.64	386.19
569.81	400.23
569.97	444.70
570.13	435.34
570.30	447.04
570.46	400.23
570.62	351.08
570.78	390.87
570.95	341.72
571.11	444.70
571.27	477.47
571.43	430.66
571.60	433.00
571.76	428.32
571.92	416.62
572.09	475.13
572.25	402.57
572.41	444.70
572.57	381.51
572.74	423.64
572.90	423.64
573.06	386.19
573.22	449.38
573.38	447.04
573.55	390.87
573.71	433.00
573.87	461.09
574.03	402.57
574.20	358.10
574.36	461.09
574.52	360.44
574.68	461.09
574.84	348.74
575.01	381.51
575.17	437.68
575.33	360.44
575.49	458.74
575.65	372.15
575.82	472.79
575.98	444.70
576.14	402.57
576.30	437.68
576.46	428.32
576.62	407.25
576.79	456.40
576.95	498.53
577.11	355.76
577.27	390.87
577.43	449.38
577.59	470.45
577.75	372.15
577.92	409.59
578.08	477.47
578.24	393.21
578.40	423.64
578.56	444.70
578.72	477.47
578.88	421.30
579.04	411.93
579.21	409.59
579.37	428.32
579.53	388.53
579.69	346.40
579.85	423.64
580.01	400.23
580.17	383.85
580.33	449.38
580.49	414.27
580.65	472.79
580.82	491.51
580.98	397.89
581.14	433.00
581.30	514.92
581.46	395.55
581.62	454.06
581.78	365.12
581.94	379.17
582.10	444.70
582.26	393.21
582.42	374.49
582.58	456.40
582.74	379.17
582.90	430.66
583.06	512.58
583.22	353.42
583.38	425.98
583.54	301.93
583.70	482.15
583.86	411.93
584.02	402.57
584.18	437.68
584.34	430.66
584.50	437.68
584.66	393.21
584.82	423.64
584.98	472.79
585.14	365.12
585.30	472.79
585.46	425.98
585.62	409.59
585.78	388.53
585.94	421.30
586.10	428.32
586.26	416.62
586.42	472.79
586.58	458.74
586.74	428.32
586.90	449.38
587.06	444.70
587.22	390.87
587.38	409.59
587.54	360.44
587.70	444.70
587.86	451.72
588.02	430.66
588.18	409.59
588.34	468.11
588.49	337.04
588.65	425.98
588.81	465.77
588.97	372.15
589.13	409.59
589.29	400.23
589.45	416.62
589.61	379.17
589.77	437.68
589.93	418.96
590.08	437.68
590.24	435.34
590.40	447.04
590.56	458.74
590.72	451.72
590.88	353.42
591.04	435.34
591.20	360.44
591.35	407.25
591.51	447.04
591.67	355.76
591.83	407.25
591.99	447.04
592.15	400.23
592.31	414.27
592.46	390.87
592.62	463.43
592.78	383.85
592.94	393.21
593.10	418.96
593.26	468.11
593.41	435.34
593.57	395.55
593.73	470.45
593.89	395.55
594.05	411.93
594.20	374.49
594.36	437.68
594.52	409.59
594.68	395.55
594.84	430.66
594.99	458.74
595.15	393.21
595.31	475.13
595.47	451.72
595.62	390.87
595.78	442.36
595.94	407.25
596.10	500.87
596.25	449.38
596.41	379.17
596.57	444.70
596.73	353.42
596.88	458.74
597.04	423.64
597.20	358.10
597.36	430.66
597.51	315.97
597.67	348.74
597.83	355.76
597.99	461.09
598.14	418.96
598.30	498.53
598.46	383.85
598.61	435.34
598.77	447.04
598.93	411.93
599.09	409.59
599.24	491.51
599.40	447.04
599.56	442.36
599.71	470.45
599.87	381.51
600.03	402.57
600.18	358.10
600.34	437.68
600.50	454.06
600.65	383.85
600.81	423.64
600.97	484.49
601.12	440.02
601.28	514.92
601.44	454.06
601.59	442.36
601.75	458.74
601.91	440.02
602.06	423.64
602.22	484.49
602.37	414.27
602.53	407.25
602.69	458.74
602.84	430.66
603.00	374.49
603.16	369.80
603.31	425.98
603.47	341.72
603.62	393.21
603.78	425.98
603.94	430.66
604.09	423.64
604.25	327.68
604.40	416.62
604.56	472.79
604.71	423.64
604.87	411.93
605.03	428.32
605.18	456.40
605.34	463.43
605.49	458.74
605.65	442.36
605.80	390.87
605.96	351.08
606.12	444.70
606.27	407.25
606.43	402.57
606.58	421.30
606.74	374.49
606.89	416.62
607.05	447.04
607.20	423.64
607.36	423.64
607.51	428.32
607.67	395.55
607.82	486.83
607.98	463.43
608.13	365.12
608.29	437.68
608.44	456.40
608.60	430.66
608.75	428.32
608.91	440.02
609.06	545.34
609.22	437.68
609.37	397.89
609.53	388.53
609.68	358.10
609.84	423.64
609.99	374.49
610.15	390.87
