SpectraSuite Data File
++++++++++++++++++++++++++++++++++++
Date: Fri Oct 25 12:11:00 EDT 2013
User: price-jones
Dark Spectrum Present: No
Reference Spectrum Present: No
Number of Sampled Component Spectra: 1
Spectrometers: USB2+H05261
Integration Time (usec): 100000 (USB2+H05261)
Spectra Averaged: 1 (USB2+H05261)
Boxcar Smoothing: 0 (USB2+H05261)
Correct for Electrical Dark: No (USB2+H05261)
Strobe/Lamp Enabled: No (USB2+H05261)
Correct for Detector Non-linearity: No (USB2+H05261)
Correct for Stray Light: No (USB2+H05261)
Number of Pixels in Processed Spectrum: 2048
>>>>>Begin Processed Spectral Data<<<<<
365.73	297.25
365.92	297.25
366.12	297.25
366.32	250.44
366.52	290.23
366.72	250.44
366.91	252.78
367.11	248.10
367.31	175.54
367.51	257.46
367.70	245.76
367.90	224.69
368.10	252.78
368.30	212.99
368.49	243.42
368.69	304.27
368.89	229.37
369.09	241.08
369.28	257.46
369.48	222.35
369.68	273.84
369.87	273.84
370.07	259.80
370.27	306.61
370.47	334.70
370.66	304.27
370.86	353.42
371.06	404.91
371.25	376.83
371.45	348.74
371.65	458.74
371.84	390.87
372.04	325.33
372.24	425.98
372.44	344.06
372.63	468.11
372.83	348.74
373.03	414.27
373.22	414.27
373.42	369.80
373.62	365.12
373.81	477.47
374.01	454.06
374.21	430.66
374.40	395.55
374.60	418.96
374.79	411.93
374.99	367.46
375.19	442.36
375.38	423.64
375.58	416.62
375.78	421.30
375.97	425.98
376.17	454.06
376.37	400.23
376.56	346.40
376.76	423.64
376.95	456.40
377.15	463.43
377.35	388.53
377.54	386.19
377.74	339.38
377.93	447.04
378.13	475.13
378.33	484.49
378.52	409.59
378.72	400.23
378.91	444.70
379.11	365.12
379.31	414.27
379.50	423.64
379.70	388.53
379.89	379.17
380.09	325.33
380.28	397.89
380.48	421.30
380.68	440.02
380.87	425.98
381.07	390.87
381.26	428.32
381.46	383.85
381.65	425.98
381.85	428.32
382.04	411.93
382.24	489.17
382.43	388.53
382.63	407.25
382.83	444.70
383.02	428.32
383.22	433.00
383.41	472.79
383.61	388.53
383.80	388.53
384.00	430.66
384.19	435.34
384.39	376.83
384.58	461.09
384.78	416.62
384.97	369.80
385.17	402.57
385.36	447.04
385.56	337.04
385.75	353.42
385.95	454.06
386.14	454.06
386.34	390.87
386.53	397.89
386.72	397.89
386.92	414.27
387.11	433.00
387.31	416.62
387.50	369.80
387.70	374.49
387.89	418.96
388.09	379.17
388.28	400.23
388.48	407.25
388.67	442.36
388.86	437.68
389.06	379.17
389.25	379.17
389.45	414.27
389.64	322.99
389.84	456.40
390.03	454.06
390.22	421.30
390.42	404.91
390.61	402.57
390.81	397.89
391.00	360.44
391.19	418.96
391.39	414.27
391.58	440.02
391.78	379.17
391.97	383.85
392.16	449.38
392.36	503.22
392.55	411.93
392.75	418.96
392.94	386.19
393.13	362.78
393.33	411.93
393.52	395.55
393.71	472.79
393.91	402.57
394.10	425.98
394.29	402.57
394.49	470.45
394.68	421.30
394.88	430.66
395.07	407.25
395.26	456.40
395.46	397.89
395.65	428.32
395.84	421.30
396.04	381.51
396.23	421.30
396.42	402.57
396.62	449.38
396.81	388.53
397.00	486.83
397.19	390.87
397.39	437.68
397.58	409.59
397.77	444.70
397.97	395.55
398.16	362.78
398.35	461.09
398.55	390.87
398.74	390.87
398.93	381.51
399.12	407.25
399.32	430.66
399.51	400.23
399.70	444.70
399.90	421.30
400.09	400.23
400.28	388.53
400.47	395.55
400.67	397.89
400.86	458.74
401.05	428.32
401.24	451.72
401.44	320.65
401.63	346.40
401.82	393.21
402.01	395.55
402.21	348.74
402.40	465.77
402.59	416.62
402.78	416.62
402.97	484.49
403.17	470.45
403.36	353.42
403.55	444.70
403.74	482.15
403.93	433.00
404.13	437.68
404.32	400.23
404.51	344.06
404.70	409.59
404.89	337.04
405.09	414.27
405.28	437.68
405.47	362.78
405.66	423.64
405.85	479.81
406.05	407.25
406.24	440.02
406.43	369.80
406.62	334.70
406.81	411.93
407.00	451.72
407.20	442.36
407.39	454.06
407.58	468.11
407.77	411.93
407.96	395.55
408.15	416.62
408.34	360.44
408.54	486.83
408.73	351.08
408.92	395.55
409.11	430.66
409.30	440.02
409.49	407.25
409.68	447.04
409.87	397.89
410.07	341.72
410.26	442.36
410.45	379.17
410.64	348.74
410.83	430.66
411.02	390.87
411.21	484.49
411.40	435.34
411.59	423.64
411.78	362.78
411.98	395.55
412.17	416.62
412.36	376.83
412.55	381.51
412.74	437.68
412.93	409.59
413.12	425.98
413.31	440.02
413.50	414.27
413.69	393.21
413.88	447.04
414.07	365.12
414.26	418.96
414.45	400.23
414.64	397.89
414.83	386.19
415.02	404.91
415.22	425.98
415.41	491.51
415.60	381.51
415.79	440.02
415.98	390.87
416.17	379.17
416.36	390.87
416.55	449.38
416.74	407.25
416.93	386.19
417.12	418.96
417.31	367.46
417.50	311.29
417.69	442.36
417.88	468.11
418.07	341.72
418.26	414.27
418.45	447.04
418.64	435.34
418.83	393.21
419.02	353.42
419.21	409.59
419.39	374.49
419.58	365.12
419.77	416.62
419.96	440.02
420.15	486.83
420.34	386.19
420.53	365.12
420.72	425.98
420.91	451.72
421.10	449.38
421.29	423.64
421.48	425.98
421.67	416.62
421.86	425.98
422.05	407.25
422.24	374.49
422.43	379.17
422.61	435.34
422.80	353.42
422.99	379.17
423.18	402.57
423.37	456.40
423.56	463.43
423.75	397.89
423.94	397.89
424.13	433.00
424.32	425.98
424.50	390.87
424.69	411.93
424.88	437.68
425.07	430.66
425.26	369.80
425.45	486.83
425.64	433.00
425.83	421.30
426.01	402.57
426.20	472.79
426.39	397.89
426.58	330.02
426.77	407.25
426.96	402.57
427.15	404.91
427.33	411.93
427.52	433.00
427.71	411.93
427.90	437.68
428.09	425.98
428.28	386.19
428.46	362.78
428.65	465.77
428.84	454.06
429.03	456.40
429.22	397.89
429.40	400.23
429.59	449.38
429.78	379.17
429.97	383.85
430.16	353.42
430.34	404.91
430.53	416.62
430.72	425.98
430.91	472.79
431.10	423.64
431.28	430.66
431.47	433.00
431.66	395.55
431.85	409.59
432.03	351.08
432.22	477.47
432.41	421.30
432.60	444.70
432.79	292.57
432.97	428.32
433.16	348.74
433.35	416.62
433.54	449.38
433.72	339.38
433.91	358.10
434.10	400.23
434.28	374.49
434.47	456.40
434.66	498.53
434.85	416.62
435.03	421.30
435.22	435.34
435.41	418.96
435.59	428.32
435.78	386.19
435.97	416.62
436.16	442.36
436.34	325.33
436.53	440.02
436.72	428.32
436.90	388.53
437.09	416.62
437.28	428.32
437.46	315.97
437.65	386.19
437.84	428.32
438.02	517.26
438.21	379.17
438.40	428.32
438.58	388.53
438.77	404.91
438.96	447.04
439.14	440.02
439.33	458.74
439.52	358.10
439.70	416.62
439.89	404.91
440.08	411.93
440.26	454.06
440.45	440.02
440.63	463.43
440.82	388.53
441.01	428.32
441.19	376.83
441.38	393.21
441.57	423.64
441.75	435.34
441.94	425.98
442.12	360.44
442.31	397.89
442.50	386.19
442.68	395.55
442.87	414.27
443.05	416.62
443.24	407.25
443.43	440.02
443.61	451.72
443.80	451.72
443.98	400.23
444.17	386.19
444.35	482.15
444.54	428.32
444.73	381.51
444.91	465.77
445.10	416.62
445.28	447.04
445.47	421.30
445.65	367.46
445.84	428.32
446.02	383.85
446.21	428.32
446.39	395.55
446.58	397.89
446.77	397.89
446.95	395.55
447.14	472.79
447.32	402.57
447.51	402.57
447.69	425.98
447.88	402.57
448.06	447.04
448.25	348.74
448.43	442.36
448.62	416.62
448.80	416.62
448.99	414.27
449.17	425.98
449.36	404.91
449.54	442.36
449.73	390.87
449.91	505.56
450.10	472.79
450.28	418.96
450.46	418.96
450.65	449.38
450.83	440.02
451.02	442.36
451.20	393.21
451.39	395.55
451.57	449.38
451.76	358.10
451.94	407.25
452.13	484.49
452.31	414.27
452.49	435.34
452.68	390.87
452.86	428.32
453.05	416.62
453.23	428.32
453.42	393.21
453.60	351.08
453.78	423.64
453.97	414.27
454.15	395.55
454.34	414.27
454.52	461.09
454.70	470.45
454.89	400.23
455.07	393.21
455.26	353.42
455.44	400.23
455.62	390.87
455.81	339.38
455.99	421.30
456.17	423.64
456.36	428.32
456.54	456.40
456.73	442.36
456.91	388.53
457.09	416.62
457.28	395.55
457.46	458.74
457.64	395.55
457.83	482.15
458.01	395.55
458.19	463.43
458.38	418.96
458.56	430.66
458.74	374.49
458.93	374.49
459.11	411.93
459.29	388.53
459.48	458.74
459.66	416.62
459.84	348.74
460.03	484.49
460.21	437.68
460.39	411.93
460.57	433.00
460.76	440.02
460.94	425.98
461.12	421.30
461.31	465.77
461.49	390.87
461.67	414.27
461.85	397.89
462.04	379.17
462.22	545.34
462.40	444.70
462.59	475.13
462.77	397.89
462.95	484.49
463.13	388.53
463.32	353.42
463.50	365.12
463.68	383.85
463.86	327.68
464.05	367.46
464.23	430.66
464.41	463.43
464.59	400.23
464.78	381.51
464.96	430.66
465.14	454.06
465.32	447.04
465.50	404.91
465.69	447.04
465.87	421.30
466.05	435.34
466.23	435.34
466.41	411.93
466.60	421.30
466.78	330.02
466.96	433.00
467.14	379.17
467.32	414.27
467.51	386.19
467.69	421.30
467.87	447.04
468.05	409.59
468.23	430.66
468.41	444.70
468.60	390.87
468.78	437.68
468.96	475.13
469.14	418.96
469.32	360.44
469.50	425.98
469.69	365.12
469.87	367.46
470.05	484.49
470.23	489.17
470.41	423.64
470.59	381.51
470.77	449.38
470.95	393.21
471.14	468.11
471.32	425.98
471.50	437.68
471.68	409.59
471.86	404.91
472.04	447.04
472.22	454.06
472.40	409.59
472.58	416.62
472.77	381.51
472.95	409.59
473.13	465.77
473.31	456.40
473.49	393.21
473.67	449.38
473.85	475.13
474.03	428.32
474.21	442.36
474.39	423.64
474.57	423.64
474.75	442.36
474.93	383.85
475.12	351.08
475.30	409.59
475.48	395.55
475.66	360.44
475.84	507.90
476.02	465.77
476.20	365.12
476.38	367.46
476.56	507.90
476.74	414.27
476.92	400.23
477.10	418.96
477.28	454.06
477.46	379.17
477.64	334.70
477.82	428.32
478.00	437.68
478.18	353.42
478.36	447.04
478.54	351.08
478.72	416.62
478.90	454.06
479.08	447.04
479.26	416.62
479.44	456.40
479.62	393.21
479.80	423.64
479.98	428.32
480.16	433.00
480.34	409.59
480.52	416.62
480.70	374.49
480.88	381.51
481.06	461.09
481.24	409.59
481.41	440.02
481.59	402.57
481.77	376.83
481.95	442.36
482.13	428.32
482.31	416.62
482.49	449.38
482.67	404.91
482.85	421.30
483.03	351.08
483.21	442.36
483.39	367.46
483.57	372.15
483.74	475.13
483.92	411.93
484.10	454.06
484.28	461.09
484.46	442.36
484.64	395.55
484.82	414.27
485.00	463.43
485.18	428.32
485.35	428.32
485.53	435.34
485.71	447.04
485.89	327.68
486.07	451.72
486.25	421.30
486.43	386.19
486.61	388.53
486.78	447.04
486.96	430.66
487.14	411.93
487.32	433.00
487.50	444.70
487.68	458.74
487.85	418.96
488.03	444.70
488.21	369.80
488.39	407.25
488.57	451.72
488.75	348.74
488.92	477.47
489.10	416.62
489.28	505.56
489.46	322.99
489.64	418.96
489.81	477.47
489.99	475.13
490.17	428.32
490.35	418.96
490.53	421.30
490.70	477.47
490.88	449.38
491.06	472.79
491.24	435.34
491.41	451.72
491.59	465.77
491.77	428.32
491.95	458.74
492.13	362.78
492.30	425.98
492.48	440.02
492.66	395.55
492.84	386.19
493.01	374.49
493.19	369.80
493.37	414.27
493.54	482.15
493.72	444.70
493.90	376.83
494.08	386.19
494.25	414.27
494.43	351.08
494.61	379.17
494.79	386.19
494.96	440.02
495.14	372.15
495.32	442.36
495.49	362.78
495.67	423.64
495.85	365.12
496.02	358.10
496.20	433.00
496.38	468.11
496.55	447.04
496.73	425.98
496.91	344.06
497.09	400.23
497.26	390.87
497.44	440.02
497.62	456.40
497.79	376.83
497.97	348.74
498.14	421.30
498.32	388.53
498.50	383.85
498.67	423.64
498.85	456.40
499.03	416.62
499.20	411.93
499.38	374.49
499.56	430.66
499.73	482.15
499.91	510.24
500.08	416.62
500.26	372.15
500.44	404.91
500.61	418.96
500.79	489.17
500.97	379.17
501.14	437.68
501.32	358.10
501.49	437.68
501.67	463.43
501.84	418.96
502.02	451.72
502.20	484.49
502.37	397.89
502.55	400.23
502.72	339.38
502.90	423.64
503.07	482.15
503.25	416.62
503.43	383.85
503.60	475.13
503.78	411.93
503.95	414.27
504.13	355.76
504.30	421.30
504.48	423.64
504.65	498.53
504.83	454.06
505.01	330.02
505.18	365.12
505.36	411.93
505.53	449.38
505.71	325.33
505.88	470.45
506.06	435.34
506.23	407.25
506.41	407.25
506.58	425.98
506.76	404.91
506.93	418.96
507.11	423.64
507.28	362.78
507.46	447.04
507.63	395.55
507.81	444.70
507.98	435.34
508.16	388.53
508.33	437.68
508.50	418.96
508.68	388.53
508.85	407.25
509.03	390.87
509.20	411.93
509.38	407.25
509.55	465.77
509.73	442.36
509.90	507.90
510.08	390.87
510.25	437.68
510.42	409.59
510.60	449.38
510.77	425.98
510.95	411.93
511.12	407.25
511.30	374.49
511.47	390.87
511.64	514.92
511.82	348.74
511.99	367.46
512.17	393.21
512.34	395.55
512.51	369.80
512.69	498.53
512.86	477.47
513.04	386.19
513.21	468.11
513.38	404.91
513.56	397.89
513.73	404.91
513.90	376.83
514.08	414.27
514.25	442.36
514.43	390.87
514.60	449.38
514.77	390.87
514.95	461.09
515.12	416.62
515.29	440.02
515.47	449.38
515.64	355.76
515.81	435.34
515.99	489.17
516.16	451.72
516.33	397.89
516.51	400.23
516.68	486.83
516.85	451.72
517.03	362.78
517.20	486.83
517.37	407.25
517.54	421.30
517.72	411.93
517.89	374.49
518.06	348.74
518.24	400.23
518.41	465.77
518.58	489.17
518.75	430.66
518.93	435.34
519.10	435.34
519.27	386.19
519.45	484.49
519.62	421.30
519.79	402.57
519.96	360.44
520.14	416.62
520.31	372.15
520.48	435.34
520.65	402.57
520.83	465.77
521.00	468.11
521.17	400.23
521.34	407.25
521.52	402.57
521.69	365.12
521.86	414.27
522.03	437.68
522.20	435.34
522.38	372.15
522.55	437.68
522.72	372.15
522.89	390.87
523.07	397.89
523.24	496.19
523.41	437.68
523.58	346.40
523.75	465.77
523.92	381.51
524.10	416.62
524.27	386.19
524.44	376.83
524.61	397.89
524.78	430.66
524.96	407.25
525.13	428.32
525.30	402.57
525.47	395.55
525.64	388.53
525.81	444.70
525.98	376.83
526.16	386.19
526.33	477.47
526.50	365.12
526.67	433.00
526.84	360.44
527.01	423.64
527.18	479.81
527.36	409.59
527.53	428.32
527.70	397.89
527.87	423.64
528.04	444.70
528.21	395.55
528.38	416.62
528.55	484.49
528.72	463.43
528.89	444.70
529.07	365.12
529.24	440.02
529.41	414.27
529.58	404.91
529.75	458.74
529.92	451.72
530.09	503.22
530.26	461.09
530.43	423.64
530.60	411.93
530.77	365.12
530.94	477.47
531.11	447.04
531.28	407.25
531.46	425.98
531.63	423.64
531.80	451.72
531.97	414.27
532.14	449.38
532.31	381.51
532.48	430.66
532.65	465.77
532.82	416.62
532.99	456.40
533.16	470.45
533.33	458.74
533.50	397.89
533.67	400.23
533.84	428.32
534.01	425.98
534.18	458.74
534.35	468.11
534.52	477.47
534.69	442.36
534.86	374.49
535.03	442.36
535.20	409.59
535.37	454.06
535.54	381.51
535.71	386.19
535.88	379.17
536.05	379.17
536.22	486.83
536.38	395.55
536.55	402.57
536.72	472.79
536.89	379.17
537.06	409.59
537.23	390.87
537.40	421.30
537.57	397.89
537.74	463.43
537.91	472.79
538.08	407.25
538.25	421.30
538.42	376.83
538.59	421.30
538.75	411.93
538.92	433.00
539.09	449.38
539.26	407.25
539.43	444.70
539.60	411.93
539.77	470.45
539.94	400.23
540.11	435.34
540.28	379.17
540.44	428.32
540.61	433.00
540.78	337.04
540.95	339.38
541.12	470.45
541.29	425.98
541.46	430.66
541.62	421.30
541.79	447.04
541.96	409.59
542.13	390.87
542.30	414.27
542.47	482.15
542.63	423.64
542.80	414.27
542.97	458.74
543.14	416.62
543.31	388.53
543.48	437.68
543.64	461.09
543.81	433.00
543.98	404.91
544.15	437.68
544.32	402.57
544.48	411.93
544.65	390.87
544.82	376.83
544.99	451.72
545.16	414.27
545.32	383.85
545.49	423.64
545.66	362.78
545.83	346.40
546.00	369.80
546.16	416.62
546.33	468.11
546.50	367.46
546.67	479.81
546.83	437.68
547.00	435.34
547.17	365.12
547.34	376.83
547.50	390.87
547.67	404.91
547.84	362.78
548.00	404.91
548.17	407.25
548.34	416.62
548.51	409.59
548.67	437.68
548.84	472.79
549.01	383.85
549.18	400.23
549.34	465.77
549.51	407.25
549.68	428.32
549.84	463.43
550.01	344.06
550.18	414.27
550.34	440.02
550.51	411.93
550.68	463.43
550.84	374.49
551.01	421.30
551.18	437.68
551.34	454.06
551.51	435.34
551.68	440.02
551.84	475.13
552.01	430.66
552.18	330.02
552.34	449.38
552.51	451.72
552.68	404.91
552.84	337.04
553.01	454.06
553.18	414.27
553.34	484.49
553.51	379.17
553.67	400.23
553.84	409.59
554.01	367.46
554.17	411.93
554.34	411.93
554.51	346.40
554.67	437.68
554.84	395.55
555.00	418.96
555.17	402.57
555.33	409.59
555.50	451.72
555.67	440.02
555.83	463.43
556.00	418.96
556.16	552.37
556.33	430.66
556.50	421.30
556.66	468.11
556.83	435.34
556.99	386.19
557.16	348.74
557.32	390.87
557.49	390.87
557.65	465.77
557.82	393.21
557.98	433.00
558.15	379.17
558.32	402.57
558.48	362.78
558.65	428.32
558.81	393.21
558.98	449.38
559.14	475.13
559.31	470.45
559.47	435.34
559.64	482.15
559.80	463.43
559.97	465.77
560.13	402.57
560.30	418.96
560.46	404.91
560.63	423.64
560.79	311.29
560.96	458.74
561.12	409.59
561.29	395.55
561.45	461.09
561.61	386.19
561.78	468.11
561.94	390.87
562.11	383.85
562.27	416.62
562.44	379.17
562.60	404.91
562.77	428.32
562.93	458.74
563.10	428.32
563.26	418.96
563.42	449.38
563.59	454.06
563.75	379.17
563.92	425.98
564.08	472.79
564.24	475.13
564.41	475.13
564.57	400.23
564.74	376.83
564.90	402.57
565.07	503.22
565.23	390.87
565.39	428.32
565.56	348.74
565.72	414.27
565.88	421.30
566.05	393.21
566.21	407.25
566.38	362.78
566.54	428.32
566.70	454.06
566.87	379.17
567.03	442.36
567.19	456.40
567.36	454.06
567.52	484.49
567.68	435.34
567.85	365.12
568.01	390.87
568.17	425.98
568.34	482.15
568.50	454.06
568.66	442.36
568.83	496.19
568.99	407.25
569.15	463.43
569.32	383.85
569.48	400.23
569.64	454.06
569.81	369.80
569.97	543.00
570.13	416.62
570.30	402.57
570.46	407.25
570.62	463.43
570.78	390.87
570.95	330.02
571.11	374.49
571.27	458.74
571.43	433.00
571.60	477.47
571.76	360.44
571.92	435.34
572.09	407.25
572.25	425.98
572.41	425.98
572.57	414.27
572.74	402.57
572.90	411.93
573.06	433.00
573.22	444.70
573.38	390.87
573.55	477.47
573.71	433.00
573.87	388.53
574.03	386.19
574.20	477.47
574.36	454.06
574.52	461.09
574.68	411.93
574.84	374.49
575.01	423.64
575.17	437.68
575.33	365.12
575.49	430.66
575.65	435.34
575.82	449.38
575.98	362.78
576.14	411.93
576.30	451.72
576.46	437.68
576.62	418.96
576.79	463.43
576.95	407.25
577.11	337.04
577.27	437.68
577.43	451.72
577.59	400.23
577.75	362.78
577.92	423.64
578.08	411.93
578.24	472.79
578.40	456.40
578.56	416.62
578.72	463.43
578.88	484.49
579.04	461.09
579.21	346.40
579.37	388.53
579.53	416.62
579.69	491.51
579.85	372.15
580.01	430.66
580.17	456.40
580.33	414.27
580.49	442.36
580.65	493.85
580.82	386.19
580.98	365.12
581.14	388.53
581.30	451.72
581.46	337.04
581.62	344.06
581.78	365.12
581.94	458.74
582.10	393.21
582.26	416.62
582.42	411.93
582.58	409.59
582.74	468.11
582.90	416.62
583.06	418.96
583.22	437.68
583.38	409.59
583.54	416.62
583.70	386.19
583.86	425.98
584.02	411.93
584.18	435.34
584.34	428.32
584.50	400.23
584.66	372.15
584.82	369.80
584.98	430.66
585.14	393.21
585.30	416.62
585.46	482.15
585.62	344.06
585.78	358.10
585.94	425.98
586.10	425.98
586.26	400.23
586.42	456.40
586.58	379.17
586.74	379.17
586.90	482.15
587.06	425.98
587.22	409.59
587.38	435.34
587.54	440.02
587.70	404.91
587.86	468.11
588.02	451.72
588.18	376.83
588.34	418.96
588.49	400.23
588.65	402.57
588.81	402.57
588.97	437.68
589.13	444.70
589.29	383.85
589.45	496.19
589.61	428.32
589.77	463.43
589.93	388.53
590.08	344.06
590.24	418.96
590.40	337.04
590.56	491.51
590.72	468.11
590.88	461.09
591.04	369.80
591.20	395.55
591.35	407.25
591.51	430.66
591.67	404.91
591.83	409.59
591.99	531.30
592.15	458.74
592.31	430.66
592.46	397.89
592.62	435.34
592.78	454.06
592.94	369.80
593.10	437.68
593.26	451.72
593.41	442.36
593.57	423.64
593.73	418.96
593.89	428.32
594.05	414.27
594.20	381.51
594.36	458.74
594.52	360.44
594.68	442.36
594.84	472.79
594.99	433.00
595.15	393.21
595.31	444.70
595.47	472.79
595.62	442.36
595.78	421.30
595.94	418.96
596.10	416.62
596.25	379.17
596.41	383.85
596.57	374.49
596.73	393.21
596.88	418.96
597.04	456.40
597.20	365.12
597.36	374.49
597.51	369.80
597.67	400.23
597.83	376.83
597.99	404.91
598.14	433.00
598.30	437.68
598.46	393.21
598.61	475.13
598.77	404.91
598.93	435.34
599.09	421.30
599.24	367.46
599.40	503.22
599.56	400.23
599.71	449.38
599.87	421.30
600.03	423.64
600.18	409.59
600.34	367.46
600.50	397.89
600.65	402.57
600.81	428.32
600.97	456.40
601.12	435.34
601.28	510.24
601.44	458.74
601.59	472.79
601.75	383.85
601.91	416.62
602.06	360.44
602.22	475.13
602.37	414.27
602.53	454.06
602.69	444.70
602.84	369.80
603.00	416.62
603.16	435.34
603.31	423.64
603.47	416.62
603.62	374.49
603.78	374.49
603.94	411.93
604.09	435.34
604.25	369.80
604.40	365.12
604.56	493.85
604.71	388.53
604.87	383.85
605.03	449.38
605.18	376.83
605.34	379.17
605.49	337.04
605.65	365.12
605.80	353.42
605.96	409.59
606.12	465.77
606.27	512.58
606.43	414.27
606.58	440.02
606.74	475.13
606.89	437.68
607.05	411.93
607.20	475.13
607.36	514.92
607.51	449.38
607.67	411.93
607.82	388.53
607.98	430.66
608.13	376.83
608.29	428.32
608.44	409.59
608.60	344.06
608.75	416.62
608.91	430.66
609.06	407.25
609.22	416.62
609.37	381.51
609.53	393.21
609.68	425.98
609.84	440.02
609.99	379.17
610.15	428.32
