SpectraSuite Data File
++++++++++++++++++++++++++++++++++++
Date: Fri Oct 25 12:11:33 EDT 2013
User: price-jones
Dark Spectrum Present: No
Reference Spectrum Present: No
Number of Sampled Component Spectra: 1
Spectrometers: USB2+H05261
Integration Time (usec): 100000 (USB2+H05261)
Spectra Averaged: 1 (USB2+H05261)
Boxcar Smoothing: 0 (USB2+H05261)
Correct for Electrical Dark: No (USB2+H05261)
Strobe/Lamp Enabled: No (USB2+H05261)
Correct for Detector Non-linearity: No (USB2+H05261)
Correct for Stray Light: No (USB2+H05261)
Number of Pixels in Processed Spectrum: 2048
>>>>>Begin Processed Spectral Data<<<<<
365.73	390.87
365.92	390.87
366.12	390.87
366.32	304.27
366.52	222.35
366.72	292.57
366.91	175.54
367.11	217.67
367.31	220.01
367.51	266.82
367.70	266.82
367.90	217.67
368.10	262.14
368.30	266.82
368.49	198.95
368.69	332.36
368.89	212.99
369.09	229.37
369.28	241.08
369.48	238.73
369.68	294.91
369.87	238.73
370.07	339.38
370.27	341.72
370.47	337.04
370.66	299.59
370.86	325.33
371.06	360.44
371.25	425.98
371.45	299.59
371.65	421.30
371.84	365.12
372.04	372.15
372.24	379.17
372.44	332.36
372.63	440.02
372.83	397.89
373.03	400.23
373.22	346.40
373.42	367.46
373.62	369.80
373.81	458.74
374.01	421.30
374.21	376.83
374.40	400.23
374.60	451.72
374.79	458.74
374.99	437.68
375.19	402.57
375.38	383.85
375.58	379.17
375.78	409.59
375.97	407.25
376.17	428.32
376.37	496.19
376.56	409.59
376.76	416.62
376.95	393.21
377.15	430.66
377.35	402.57
377.54	379.17
377.74	325.33
377.93	411.93
378.13	404.91
378.33	418.96
378.52	374.49
378.72	393.21
378.91	351.08
379.11	402.57
379.31	411.93
379.50	372.15
379.70	458.74
379.89	388.53
380.09	444.70
380.28	533.64
380.48	475.13
380.68	472.79
380.87	376.83
381.07	521.94
381.26	461.09
381.46	423.64
381.65	390.87
381.85	348.74
382.04	430.66
382.24	372.15
382.43	348.74
382.63	395.55
382.83	353.42
383.02	425.98
383.22	425.98
383.41	376.83
383.61	365.12
383.80	433.00
384.00	486.83
384.19	379.17
384.39	461.09
384.58	388.53
384.78	365.12
384.97	416.62
385.17	355.76
385.36	372.15
385.56	404.91
385.75	360.44
385.95	440.02
386.14	425.98
386.34	437.68
386.53	404.91
386.72	393.21
386.92	423.64
387.11	344.06
387.31	395.55
387.50	421.30
387.70	400.23
387.89	428.32
388.09	416.62
388.28	423.64
388.48	411.93
388.67	411.93
388.86	428.32
389.06	374.49
389.25	458.74
389.45	421.30
389.64	418.96
389.84	409.59
390.03	458.74
390.22	379.17
390.42	430.66
390.61	433.00
390.81	374.49
391.00	397.89
391.19	451.72
391.39	421.30
391.58	524.28
391.78	388.53
391.97	421.30
392.16	381.51
392.36	433.00
392.55	437.68
392.75	470.45
392.94	421.30
393.13	379.17
393.33	454.06
393.52	456.40
393.71	409.59
393.91	369.80
394.10	411.93
394.29	400.23
394.49	433.00
394.68	435.34
394.88	468.11
395.07	400.23
395.26	400.23
395.46	416.62
395.65	416.62
395.84	456.40
396.04	325.33
396.23	386.19
396.42	390.87
396.62	430.66
396.81	418.96
397.00	332.36
397.19	409.59
397.39	388.53
397.58	348.74
397.77	416.62
397.97	381.51
398.16	454.06
398.35	407.25
398.55	423.64
398.74	362.78
398.93	372.15
399.12	528.96
399.32	339.38
399.51	358.10
399.70	362.78
399.90	440.02
400.09	428.32
400.28	409.59
400.47	400.23
400.67	362.78
400.86	428.32
401.05	447.04
401.24	376.83
401.44	447.04
401.63	449.38
401.82	411.93
402.01	365.12
402.21	409.59
402.40	386.19
402.59	390.87
402.78	337.04
402.97	465.77
403.17	421.30
403.36	425.98
403.55	449.38
403.74	367.46
403.93	409.59
404.13	489.17
404.32	402.57
404.51	395.55
404.70	411.93
404.89	339.38
405.09	425.98
405.28	393.21
405.47	402.57
405.66	369.80
405.85	430.66
406.05	411.93
406.24	379.17
406.43	416.62
406.62	400.23
406.81	379.17
407.00	470.45
407.20	386.19
407.39	454.06
407.58	451.72
407.77	407.25
407.96	444.70
408.15	498.53
408.34	400.23
408.54	332.36
408.73	400.23
408.92	451.72
409.11	362.78
409.30	468.11
409.49	416.62
409.68	430.66
409.87	477.47
410.07	409.59
410.26	456.40
410.45	397.89
410.64	435.34
410.83	374.49
411.02	374.49
411.21	416.62
411.40	477.47
411.59	414.27
411.78	355.76
411.98	435.34
412.17	425.98
412.36	383.85
412.55	407.25
412.74	458.74
412.93	433.00
413.12	362.78
413.31	395.55
413.50	435.34
413.69	416.62
413.88	379.17
414.07	409.59
414.26	388.53
414.45	353.42
414.64	430.66
414.83	374.49
415.02	475.13
415.22	411.93
415.41	374.49
415.60	367.46
415.79	451.72
415.98	454.06
416.17	379.17
416.36	393.21
416.55	411.93
416.74	416.62
416.93	451.72
417.12	449.38
417.31	409.59
417.50	376.83
417.69	440.02
417.88	374.49
418.07	454.06
418.26	383.85
418.45	404.91
418.64	484.49
418.83	383.85
419.02	367.46
419.21	374.49
419.39	468.11
419.58	416.62
419.77	369.80
419.96	498.53
420.15	475.13
420.34	451.72
420.53	425.98
420.72	397.89
420.91	409.59
421.10	393.21
421.29	390.87
421.48	428.32
421.67	418.96
421.86	369.80
422.05	407.25
422.24	447.04
422.43	437.68
422.61	386.19
422.80	475.13
422.99	416.62
423.18	451.72
423.37	425.98
423.56	421.30
423.75	355.76
423.94	454.06
424.13	409.59
424.32	390.87
424.50	393.21
424.69	390.87
424.88	456.40
425.07	435.34
425.26	418.96
425.45	400.23
425.64	498.53
425.83	346.40
426.01	425.98
426.20	433.00
426.39	425.98
426.58	360.44
426.77	411.93
426.96	461.09
427.15	496.19
427.33	390.87
427.52	416.62
427.71	327.68
427.90	404.91
428.09	430.66
428.28	407.25
428.46	365.12
428.65	400.23
428.84	428.32
429.03	437.68
429.22	402.57
429.40	379.17
429.59	425.98
429.78	437.68
429.97	435.34
430.16	358.10
430.34	477.47
430.53	425.98
430.72	447.04
430.91	381.51
431.10	372.15
431.28	334.70
431.47	376.83
431.66	376.83
431.85	421.30
432.03	407.25
432.22	475.13
432.41	442.36
432.60	416.62
432.79	416.62
432.97	423.64
433.16	428.32
433.35	360.44
433.54	475.13
433.72	400.23
433.91	369.80
434.10	458.74
434.28	442.36
434.47	468.11
434.66	409.59
434.85	388.53
435.03	418.96
435.22	341.72
435.41	444.70
435.59	383.85
435.78	423.64
435.97	433.00
436.16	327.68
436.34	369.80
436.53	411.93
436.72	388.53
436.90	416.62
437.09	430.66
437.28	472.79
437.46	362.78
437.65	437.68
437.84	425.98
438.02	437.68
438.21	402.57
438.40	423.64
438.58	435.34
438.77	402.57
438.96	433.00
439.14	425.98
439.33	486.83
439.52	451.72
439.70	458.74
439.89	416.62
440.08	440.02
440.26	428.32
440.45	407.25
440.63	428.32
440.82	421.30
441.01	381.51
441.19	421.30
441.38	374.49
441.57	482.15
441.75	428.32
441.94	367.46
442.12	414.27
442.31	449.38
442.50	425.98
442.68	418.96
442.87	421.30
443.05	486.83
443.24	435.34
443.43	409.59
443.61	433.00
443.80	411.93
443.98	463.43
444.17	470.45
444.35	423.64
444.54	444.70
444.73	430.66
444.91	500.87
445.10	374.49
445.28	409.59
445.47	386.19
445.65	421.30
445.84	458.74
446.02	456.40
446.21	337.04
446.39	365.12
446.58	332.36
446.77	395.55
446.95	447.04
447.14	496.19
447.32	430.66
447.51	442.36
447.69	386.19
447.88	425.98
448.06	421.30
448.25	498.53
448.43	418.96
448.62	477.47
448.80	390.87
448.99	442.36
449.17	346.40
449.36	472.79
449.54	428.32
449.73	397.89
449.91	409.59
450.10	388.53
450.28	486.83
450.46	428.32
450.65	360.44
450.83	360.44
451.02	479.81
451.20	454.06
451.39	425.98
451.57	360.44
451.76	465.77
451.94	472.79
452.13	386.19
452.31	475.13
452.49	411.93
452.68	411.93
452.86	468.11
453.05	395.55
453.23	411.93
453.42	416.62
453.60	454.06
453.78	425.98
453.97	418.96
454.15	404.91
454.34	372.15
454.52	414.27
454.70	416.62
454.89	498.53
455.07	330.02
455.26	428.32
455.44	423.64
455.62	442.36
455.81	433.00
455.99	409.59
456.17	351.08
456.36	437.68
456.54	437.68
456.73	372.15
456.91	390.87
457.09	435.34
457.28	337.04
457.46	411.93
457.64	447.04
457.83	477.47
458.01	444.70
458.19	400.23
458.38	400.23
458.56	400.23
458.74	435.34
458.93	400.23
459.11	421.30
459.29	418.96
459.48	472.79
459.66	423.64
459.84	360.44
460.03	463.43
460.21	397.89
460.39	465.77
460.57	437.68
460.76	433.00
460.94	430.66
461.12	463.43
461.31	447.04
461.49	395.55
461.67	433.00
461.85	430.66
462.04	425.98
462.22	748.97
462.40	376.83
462.59	416.62
462.77	482.15
462.95	414.27
463.13	360.44
463.32	423.64
463.50	416.62
463.68	421.30
463.86	470.45
464.05	404.91
464.23	463.43
464.41	449.38
464.59	407.25
464.78	388.53
464.96	486.83
465.14	477.47
465.32	409.59
465.50	358.10
465.69	379.17
465.87	414.27
466.05	447.04
466.23	458.74
466.41	395.55
466.60	367.46
466.78	461.09
466.96	498.53
467.14	383.85
467.32	334.70
467.51	400.23
467.69	440.02
467.87	433.00
468.05	414.27
468.23	458.74
468.41	430.66
468.60	423.64
468.78	404.91
468.96	484.49
469.14	423.64
469.32	449.38
469.50	395.55
469.69	381.51
469.87	390.87
470.05	381.51
470.23	437.68
470.41	430.66
470.59	341.72
470.77	423.64
470.95	463.43
471.14	411.93
471.32	402.57
471.50	418.96
471.68	442.36
471.86	442.36
472.04	411.93
472.22	383.85
472.40	397.89
472.58	376.83
472.77	402.57
472.95	451.72
473.13	423.64
473.31	386.19
473.49	435.34
473.67	369.80
473.85	414.27
474.03	440.02
474.21	428.32
474.39	400.23
474.57	482.15
474.75	393.21
474.93	388.53
475.12	435.34
475.30	390.87
475.48	372.15
475.66	493.85
475.84	496.19
476.02	414.27
476.20	400.23
476.38	414.27
476.56	470.45
476.74	400.23
476.92	421.30
477.10	379.17
477.28	454.06
477.46	407.25
477.64	475.13
477.82	404.91
478.00	372.15
478.18	482.15
478.36	456.40
478.54	458.74
478.72	421.30
478.90	454.06
479.08	414.27
479.26	353.42
479.44	341.72
479.62	411.93
479.80	423.64
479.98	428.32
480.16	435.34
480.34	425.98
480.52	425.98
480.70	463.43
480.88	339.38
481.06	332.36
481.24	414.27
481.41	344.06
481.59	409.59
481.77	407.25
481.95	374.49
482.13	449.38
482.31	407.25
482.49	447.04
482.67	463.43
482.85	397.89
483.03	411.93
483.21	339.38
483.39	433.00
483.57	409.59
483.74	404.91
483.92	369.80
484.10	332.36
484.28	479.81
484.46	482.15
484.64	402.57
484.82	346.40
485.00	369.80
485.18	351.08
485.35	440.02
485.53	418.96
485.71	425.98
485.89	442.36
486.07	386.19
486.25	418.96
486.43	421.30
486.61	503.22
486.78	440.02
486.96	428.32
487.14	379.17
487.32	409.59
487.50	411.93
487.68	433.00
487.85	358.10
488.03	496.19
488.21	447.04
488.39	423.64
488.57	425.98
488.75	388.53
488.92	433.00
489.10	404.91
489.28	444.70
489.46	393.21
489.64	465.77
489.81	395.55
489.99	456.40
490.17	444.70
490.35	472.79
490.53	404.91
490.70	346.40
490.88	458.74
491.06	416.62
491.24	458.74
491.41	451.72
491.59	416.62
491.77	400.23
491.95	451.72
492.13	468.11
492.30	421.30
492.48	433.00
492.66	435.34
492.84	423.64
493.01	430.66
493.19	418.96
493.37	456.40
493.54	440.02
493.72	374.49
493.90	458.74
494.08	402.57
494.25	428.32
494.43	454.06
494.61	320.65
494.79	418.96
494.96	365.12
495.14	447.04
495.32	404.91
495.49	496.19
495.67	407.25
495.85	376.83
496.02	414.27
496.20	320.65
496.38	479.81
496.55	409.59
496.73	416.62
496.91	475.13
497.09	346.40
497.26	425.98
497.44	468.11
497.62	365.12
497.79	402.57
497.97	414.27
498.14	411.93
498.32	423.64
498.50	393.21
498.67	414.27
498.85	442.36
499.03	423.64
499.20	407.25
499.38	390.87
499.56	461.09
499.73	477.47
499.91	444.70
500.08	351.08
500.26	411.93
500.44	379.17
500.61	456.40
500.79	386.19
500.97	376.83
501.14	435.34
501.32	435.34
501.49	372.15
501.67	444.70
501.84	346.40
502.02	367.46
502.20	416.62
502.37	355.76
502.55	465.77
502.72	402.57
502.90	367.46
503.07	374.49
503.25	355.76
503.43	416.62
503.60	414.27
503.78	414.27
503.95	437.68
504.13	461.09
504.30	376.83
504.48	416.62
504.65	477.47
504.83	440.02
505.01	411.93
505.18	421.30
505.36	458.74
505.53	395.55
505.71	437.68
505.88	454.06
506.06	430.66
506.23	402.57
506.41	374.49
506.58	400.23
506.76	341.72
506.93	367.46
507.11	447.04
507.28	404.91
507.46	451.72
507.63	414.27
507.81	404.91
507.98	365.12
508.16	337.04
508.33	395.55
508.50	442.36
508.68	472.79
508.85	416.62
509.03	381.51
509.20	379.17
509.38	395.55
509.55	395.55
509.73	407.25
509.90	386.19
510.08	409.59
510.25	472.79
510.42	435.34
510.60	456.40
510.77	512.58
510.95	430.66
511.12	447.04
511.30	346.40
511.47	461.09
511.64	458.74
511.82	393.21
511.99	437.68
512.17	315.97
512.34	442.36
512.51	461.09
512.69	442.36
512.86	479.81
513.04	433.00
513.21	465.77
513.38	402.57
513.56	400.23
513.73	444.70
513.90	437.68
514.08	393.21
514.25	421.30
514.43	381.51
514.60	437.68
514.77	421.30
514.95	416.62
515.12	421.30
515.29	404.91
515.47	376.83
515.64	411.93
515.81	447.04
515.99	433.00
516.16	484.49
516.33	404.91
516.51	416.62
516.68	346.40
516.85	449.38
517.03	416.62
517.20	433.00
517.37	395.55
517.54	337.04
517.72	456.40
517.89	369.80
518.06	372.15
518.24	360.44
518.41	383.85
518.58	376.83
518.75	369.80
518.93	465.77
519.10	348.74
519.27	367.46
519.45	416.62
519.62	325.33
519.79	351.08
519.96	372.15
520.14	437.68
520.31	493.85
520.48	428.32
520.65	458.74
520.83	444.70
521.00	482.15
521.17	449.38
521.34	407.25
521.52	517.26
521.69	409.59
521.86	430.66
522.03	407.25
522.20	449.38
522.38	463.43
522.55	451.72
522.72	383.85
522.89	369.80
523.07	435.34
523.24	388.53
523.41	344.06
523.58	383.85
523.75	418.96
523.92	397.89
524.10	397.89
524.27	383.85
524.44	470.45
524.61	379.17
524.78	430.66
524.96	458.74
525.13	421.30
525.30	451.72
525.47	449.38
525.64	468.11
525.81	430.66
525.98	451.72
526.16	386.19
526.33	372.15
526.50	404.91
526.67	355.76
526.84	458.74
527.01	367.46
527.18	383.85
527.36	383.85
527.53	400.23
527.70	489.17
527.87	421.30
528.04	444.70
528.21	435.34
528.38	414.27
528.55	386.19
528.72	414.27
528.89	407.25
529.07	418.96
529.24	421.30
529.41	458.74
529.58	397.89
529.75	423.64
529.92	381.51
530.09	447.04
530.26	449.38
530.43	409.59
530.60	454.06
530.77	463.43
530.94	491.51
531.11	423.64
531.28	423.64
531.46	407.25
531.63	428.32
531.80	465.77
531.97	451.72
532.14	465.77
532.31	505.56
532.48	386.19
532.65	458.74
532.82	351.08
532.99	339.38
533.16	402.57
533.33	348.74
533.50	353.42
533.67	344.06
533.84	430.66
534.01	451.72
534.18	451.72
534.35	390.87
534.52	414.27
534.69	458.74
534.86	407.25
535.03	482.15
535.20	409.59
535.37	421.30
535.54	407.25
535.71	440.02
535.88	475.13
536.05	475.13
536.22	430.66
536.38	465.77
536.55	372.15
536.72	430.66
536.89	383.85
537.06	451.72
537.23	346.40
537.40	435.34
537.57	470.45
537.74	433.00
537.91	428.32
538.08	435.34
538.25	418.96
538.42	383.85
538.59	423.64
538.75	358.10
538.92	409.59
539.09	430.66
539.26	376.83
539.43	461.09
539.60	407.25
539.77	400.23
539.94	423.64
540.11	456.40
540.28	411.93
540.44	353.42
540.61	379.17
540.78	404.91
540.95	416.62
541.12	465.77
541.29	442.36
541.46	468.11
541.62	388.53
541.79	470.45
541.96	327.68
542.13	409.59
542.30	355.76
542.47	442.36
542.63	409.59
542.80	341.72
542.97	369.80
543.14	414.27
543.31	491.51
543.48	447.04
543.64	397.89
543.81	414.27
543.98	379.17
544.15	395.55
544.32	374.49
544.48	440.02
544.65	505.56
544.82	461.09
544.99	402.57
545.16	428.32
545.32	447.04
545.49	400.23
545.66	383.85
545.83	383.85
546.00	358.10
546.16	400.23
546.33	437.68
546.50	313.63
546.67	435.34
546.83	407.25
547.00	444.70
547.17	411.93
547.34	379.17
547.50	416.62
547.67	383.85
547.84	390.87
548.00	447.04
548.17	437.68
548.34	393.21
548.51	397.89
548.67	440.02
548.84	444.70
549.01	477.47
549.18	437.68
549.34	409.59
549.51	458.74
549.68	395.55
549.84	433.00
550.01	393.21
550.18	475.13
550.34	437.68
550.51	535.98
550.68	540.66
550.84	388.53
551.01	498.53
551.18	444.70
551.34	463.43
551.51	414.27
551.68	409.59
551.84	484.49
552.01	400.23
552.18	409.59
552.34	433.00
552.51	440.02
552.68	393.21
552.84	479.81
553.01	418.96
553.18	386.19
553.34	407.25
553.51	379.17
553.67	456.40
553.84	505.56
554.01	470.45
554.17	414.27
554.34	386.19
554.51	402.57
554.67	428.32
554.84	484.49
555.00	386.19
555.17	458.74
555.33	442.36
555.50	425.98
555.67	475.13
555.83	409.59
556.00	440.02
556.16	564.07
556.33	517.26
556.50	414.27
556.66	444.70
556.83	454.06
556.99	402.57
557.16	411.93
557.32	346.40
557.49	404.91
557.65	458.74
557.82	367.46
557.98	456.40
558.15	416.62
558.32	374.49
558.48	428.32
558.65	430.66
558.81	400.23
558.98	433.00
559.14	449.38
559.31	390.87
559.47	458.74
559.64	454.06
559.80	425.98
559.97	400.23
560.13	376.83
560.30	404.91
560.46	458.74
560.63	456.40
560.79	367.46
560.96	465.77
561.12	355.76
561.29	409.59
561.45	425.98
561.61	423.64
561.78	475.13
561.94	353.42
562.11	418.96
562.27	393.21
562.44	404.91
562.60	477.47
562.77	393.21
562.93	475.13
563.10	409.59
563.26	493.85
563.42	442.36
563.59	433.00
563.75	404.91
563.92	407.25
564.08	437.68
564.24	486.83
564.41	395.55
564.57	433.00
564.74	465.77
564.90	423.64
565.07	376.83
565.23	496.19
565.39	411.93
565.56	479.81
565.72	358.10
565.88	358.10
566.05	332.36
566.21	355.76
566.38	397.89
566.54	442.36
566.70	407.25
566.87	461.09
567.03	383.85
567.19	400.23
567.36	421.30
567.52	470.45
567.68	458.74
567.85	393.21
568.01	484.49
568.17	407.25
568.34	418.96
568.50	451.72
568.66	418.96
568.83	498.53
568.99	421.30
569.15	372.15
569.32	430.66
569.48	449.38
569.64	428.32
569.81	437.68
569.97	409.59
570.13	472.79
570.30	402.57
570.46	470.45
570.62	390.87
570.78	386.19
570.95	433.00
571.11	423.64
571.27	425.98
571.43	409.59
571.60	346.40
571.76	433.00
571.92	414.27
572.09	454.06
572.25	414.27
572.41	421.30
572.57	470.45
572.74	435.34
572.90	475.13
573.06	479.81
573.22	386.19
573.38	425.98
573.55	461.09
573.71	414.27
573.87	376.83
574.03	367.46
574.20	383.85
574.36	362.78
574.52	348.74
574.68	388.53
574.84	402.57
575.01	386.19
575.17	440.02
575.33	444.70
575.49	444.70
575.65	458.74
575.82	465.77
575.98	374.49
576.14	447.04
576.30	437.68
576.46	390.87
576.62	400.23
576.79	395.55
576.95	425.98
577.11	379.17
577.27	407.25
577.43	472.79
577.59	451.72
577.75	376.83
577.92	402.57
578.08	341.72
578.24	411.93
578.40	458.74
578.56	447.04
578.72	454.06
578.88	479.81
579.04	425.98
579.21	383.85
579.37	358.10
579.53	421.30
579.69	397.89
579.85	409.59
580.01	383.85
580.17	428.32
580.33	442.36
580.49	351.08
580.65	411.93
580.82	414.27
580.98	402.57
581.14	404.91
581.30	425.98
581.46	386.19
581.62	341.72
581.78	348.74
581.94	512.58
582.10	463.43
582.26	390.87
582.42	423.64
582.58	388.53
582.74	433.00
582.90	425.98
583.06	423.64
583.22	479.81
583.38	423.64
583.54	395.55
583.70	411.93
583.86	411.93
584.02	430.66
584.18	374.49
584.34	421.30
584.50	411.93
584.66	447.04
584.82	388.53
584.98	449.38
585.14	395.55
585.30	444.70
585.46	367.46
585.62	482.15
585.78	388.53
585.94	418.96
586.10	411.93
586.26	444.70
586.42	507.90
586.58	449.38
586.74	400.23
586.90	358.10
587.06	404.91
587.22	404.91
587.38	444.70
587.54	440.02
587.70	402.57
587.86	496.19
588.02	404.91
588.18	440.02
588.34	437.68
588.49	353.42
588.65	402.57
588.81	400.23
588.97	344.06
589.13	411.93
589.29	435.34
589.45	477.47
589.61	447.04
589.77	475.13
589.93	369.80
590.08	411.93
590.24	360.44
590.40	407.25
590.56	430.66
590.72	332.36
590.88	390.87
591.04	367.46
591.20	381.51
591.35	428.32
591.51	409.59
591.67	461.09
591.83	411.93
591.99	379.17
592.15	475.13
592.31	416.62
592.46	374.49
592.62	477.47
592.78	386.19
592.94	454.06
593.10	397.89
593.26	409.59
593.41	451.72
593.57	416.62
593.73	444.70
593.89	437.68
594.05	449.38
594.20	472.79
594.36	421.30
594.52	397.89
594.68	379.17
594.84	425.98
594.99	444.70
595.15	407.25
595.31	433.00
595.47	451.72
595.62	451.72
595.78	416.62
595.94	430.66
596.10	369.80
596.25	383.85
596.41	416.62
596.57	397.89
596.73	449.38
596.88	386.19
597.04	395.55
597.20	433.00
597.36	442.36
597.51	423.64
597.67	461.09
597.83	425.98
597.99	416.62
598.14	402.57
598.30	456.40
598.46	372.15
598.61	447.04
598.77	430.66
598.93	451.72
599.09	362.78
599.24	472.79
599.40	482.15
599.56	341.72
599.71	395.55
599.87	402.57
600.03	402.57
600.18	374.49
600.34	360.44
600.50	362.78
600.65	393.21
600.81	430.66
600.97	414.27
601.12	463.43
601.28	407.25
601.44	470.45
601.59	442.36
601.75	407.25
601.91	346.40
602.06	421.30
602.22	491.51
602.37	477.47
602.53	440.02
602.69	409.59
602.84	365.12
603.00	346.40
603.16	376.83
603.31	416.62
603.47	433.00
603.62	383.85
603.78	390.87
603.94	486.83
604.09	449.38
604.25	421.30
604.40	454.06
604.56	355.76
604.71	400.23
604.87	390.87
605.03	355.76
605.18	400.23
605.34	475.13
605.49	411.93
605.65	454.06
605.80	330.02
605.96	449.38
606.12	379.17
606.27	404.91
606.43	437.68
606.58	454.06
606.74	440.02
606.89	383.85
607.05	397.89
607.20	397.89
607.36	416.62
607.51	421.30
607.67	414.27
607.82	348.74
607.98	461.09
608.13	444.70
608.29	390.87
608.44	430.66
608.60	437.68
608.75	423.64
608.91	423.64
609.06	404.91
609.22	388.53
609.37	386.19
609.53	381.51
609.68	442.36
609.84	393.21
609.99	390.87
610.15	355.76
