SpectraSuite Data File
++++++++++++++++++++++++++++++++++++
Date: Fri Oct 25 12:11:22 EDT 2013
User: price-jones
Dark Spectrum Present: No
Reference Spectrum Present: No
Number of Sampled Component Spectra: 1
Spectrometers: USB2+H05261
Integration Time (usec): 100000 (USB2+H05261)
Spectra Averaged: 1 (USB2+H05261)
Boxcar Smoothing: 0 (USB2+H05261)
Correct for Electrical Dark: No (USB2+H05261)
Strobe/Lamp Enabled: No (USB2+H05261)
Correct for Detector Non-linearity: No (USB2+H05261)
Correct for Stray Light: No (USB2+H05261)
Number of Pixels in Processed Spectrum: 2048
>>>>>Begin Processed Spectral Data<<<<<
365.73	367.46
365.92	367.46
366.12	367.46
366.32	234.05
366.52	220.01
366.72	297.25
366.91	161.50
367.11	215.33
367.31	205.97
367.51	304.27
367.70	245.76
367.90	217.67
368.10	266.82
368.30	198.95
368.49	231.71
368.69	271.50
368.89	283.20
369.09	227.03
369.28	170.86
369.48	229.37
369.68	283.20
369.87	269.16
370.07	299.59
370.27	383.85
370.47	346.40
370.66	327.68
370.86	320.65
371.06	348.74
371.25	414.27
371.45	383.85
371.65	444.70
371.84	421.30
372.04	383.85
372.24	344.06
372.44	416.62
372.63	397.89
372.83	393.21
373.03	393.21
373.22	388.53
373.42	400.23
373.62	306.61
373.81	472.79
374.01	418.96
374.21	430.66
374.40	447.04
374.60	454.06
374.79	409.59
374.99	383.85
375.19	411.93
375.38	376.83
375.58	416.62
375.78	421.30
375.97	458.74
376.17	472.79
376.37	423.64
376.56	400.23
376.76	461.09
376.95	407.25
377.15	376.83
377.35	444.70
377.54	463.43
377.74	411.93
377.93	468.11
378.13	360.44
378.33	493.85
378.52	437.68
378.72	416.62
378.91	402.57
379.11	348.74
379.31	423.64
379.50	362.78
379.70	393.21
379.89	386.19
380.09	348.74
380.28	409.59
380.48	362.78
380.68	362.78
380.87	334.70
381.07	395.55
381.26	475.13
381.46	341.72
381.65	390.87
381.85	407.25
382.04	365.12
382.24	463.43
382.43	411.93
382.63	444.70
382.83	393.21
383.02	433.00
383.22	423.64
383.41	397.89
383.61	386.19
383.80	414.27
384.00	444.70
384.19	365.12
384.39	411.93
384.58	479.81
384.78	456.40
384.97	423.64
385.17	423.64
385.36	379.17
385.56	435.34
385.75	393.21
385.95	367.46
386.14	435.34
386.34	365.12
386.53	360.44
386.72	358.10
386.92	421.30
387.11	425.98
387.31	421.30
387.50	409.59
387.70	430.66
387.89	397.89
388.09	397.89
388.28	470.45
388.48	386.19
388.67	421.30
388.86	372.15
389.06	440.02
389.25	402.57
389.45	400.23
389.64	388.53
389.84	402.57
390.03	404.91
390.22	397.89
390.42	425.98
390.61	418.96
390.81	409.59
391.00	440.02
391.19	454.06
391.39	430.66
391.58	414.27
391.78	486.83
391.97	440.02
392.16	402.57
392.36	479.81
392.55	411.93
392.75	372.15
392.94	360.44
393.13	454.06
393.33	404.91
393.52	348.74
393.71	397.89
393.91	400.23
394.10	351.08
394.29	397.89
394.49	454.06
394.68	404.91
394.88	442.36
395.07	447.04
395.26	423.64
395.46	421.30
395.65	348.74
395.84	397.89
396.04	465.77
396.23	376.83
396.42	362.78
396.62	430.66
396.81	407.25
397.00	449.38
397.19	416.62
397.39	353.42
397.58	416.62
397.77	374.49
397.97	454.06
398.16	360.44
398.35	461.09
398.55	414.27
398.74	454.06
398.93	418.96
399.12	381.51
399.32	388.53
399.51	325.33
399.70	484.49
399.90	418.96
400.09	390.87
400.28	308.95
400.47	411.93
400.67	395.55
400.86	458.74
401.05	400.23
401.24	447.04
401.44	421.30
401.63	355.76
401.82	379.17
402.01	395.55
402.21	376.83
402.40	416.62
402.59	435.34
402.78	379.17
402.97	400.23
403.17	409.59
403.36	425.98
403.55	362.78
403.74	339.38
403.93	414.27
404.13	435.34
404.32	376.83
404.51	372.15
404.70	440.02
404.89	458.74
405.09	411.93
405.28	428.32
405.47	346.40
405.66	503.22
405.85	449.38
406.05	418.96
406.24	353.42
406.43	463.43
406.62	449.38
406.81	486.83
407.00	381.51
407.20	421.30
407.39	339.38
407.58	390.87
407.77	362.78
407.96	449.38
408.15	395.55
408.34	463.43
408.54	423.64
408.73	444.70
408.92	362.78
409.11	454.06
409.30	437.68
409.49	400.23
409.68	402.57
409.87	411.93
410.07	435.34
410.26	388.53
410.45	404.91
410.64	404.91
410.83	477.47
411.02	407.25
411.21	409.59
411.40	421.30
411.59	351.08
411.78	416.62
411.98	463.43
412.17	374.49
412.36	390.87
412.55	381.51
412.74	411.93
412.93	411.93
413.12	355.76
413.31	425.98
413.50	435.34
413.69	404.91
413.88	397.89
414.07	411.93
414.26	418.96
414.45	390.87
414.64	440.02
414.83	395.55
415.02	458.74
415.22	444.70
415.41	428.32
415.60	411.93
415.79	374.49
415.98	367.46
416.17	437.68
416.36	440.02
416.55	393.21
416.74	381.51
416.93	362.78
417.12	442.36
417.31	416.62
417.50	433.00
417.69	407.25
417.88	369.80
418.07	449.38
418.26	400.23
418.45	456.40
418.64	461.09
418.83	388.53
419.02	374.49
419.21	425.98
419.39	416.62
419.58	430.66
419.77	414.27
419.96	418.96
420.15	430.66
420.34	437.68
420.53	430.66
420.72	435.34
420.91	430.66
421.10	386.19
421.29	320.65
421.48	374.49
421.67	395.55
421.86	395.55
422.05	397.89
422.24	372.15
422.43	388.53
422.61	404.91
422.80	393.21
422.99	393.21
423.18	407.25
423.37	440.02
423.56	374.49
423.75	472.79
423.94	388.53
424.13	433.00
424.32	414.27
424.50	435.34
424.69	344.06
424.88	470.45
425.07	388.53
425.26	500.87
425.45	433.00
425.64	430.66
425.83	425.98
426.01	411.93
426.20	362.78
426.39	402.57
426.58	421.30
426.77	444.70
426.96	486.83
427.15	425.98
427.33	433.00
427.52	468.11
427.71	437.68
427.90	475.13
428.09	404.91
428.28	407.25
428.46	367.46
428.65	444.70
428.84	393.21
429.03	451.72
429.22	421.30
429.40	374.49
429.59	390.87
429.78	423.64
429.97	430.66
430.16	423.64
430.34	430.66
430.53	423.64
430.72	437.68
430.91	477.47
431.10	428.32
431.28	451.72
431.47	351.08
431.66	421.30
431.85	397.89
432.03	351.08
432.22	454.06
432.41	400.23
432.60	374.49
432.79	372.15
432.97	388.53
433.16	397.89
433.35	435.34
433.54	402.57
433.72	463.43
433.91	425.98
434.10	400.23
434.28	381.51
434.47	376.83
434.66	428.32
434.85	421.30
435.03	435.34
435.22	367.46
435.41	470.45
435.59	428.32
435.78	484.49
435.97	451.72
436.16	449.38
436.34	409.59
436.53	404.91
436.72	475.13
436.90	353.42
437.09	468.11
437.28	390.87
437.46	433.00
437.65	418.96
437.84	433.00
438.02	418.96
438.21	517.26
438.40	430.66
438.58	416.62
438.77	374.49
438.96	461.09
439.14	421.30
439.33	425.98
439.52	409.59
439.70	411.93
439.89	400.23
440.08	463.43
440.26	390.87
440.45	475.13
440.63	451.72
440.82	393.21
441.01	397.89
441.19	433.00
441.38	407.25
441.57	444.70
441.75	463.43
441.94	463.43
442.12	390.87
442.31	376.83
442.50	369.80
442.68	365.12
442.87	447.04
443.05	423.64
443.24	437.68
443.43	416.62
443.61	423.64
443.80	381.51
443.98	418.96
444.17	393.21
444.35	386.19
444.54	400.23
444.73	381.51
444.91	421.30
445.10	425.98
445.28	388.53
445.47	367.46
445.65	428.32
445.84	388.53
446.02	442.36
446.21	374.49
446.39	414.27
446.58	454.06
446.77	477.47
446.95	414.27
447.14	430.66
447.32	477.47
447.51	482.15
447.69	428.32
447.88	402.57
448.06	461.09
448.25	362.78
448.43	425.98
448.62	442.36
448.80	447.04
448.99	435.34
449.17	360.44
449.36	386.19
449.54	458.74
449.73	416.62
449.91	444.70
450.10	470.45
450.28	435.34
450.46	358.10
450.65	400.23
450.83	507.90
451.02	461.09
451.20	449.38
451.39	393.21
451.57	496.19
451.76	388.53
451.94	486.83
452.13	393.21
452.31	465.77
452.49	454.06
452.68	348.74
452.86	397.89
453.05	411.93
453.23	395.55
453.42	397.89
453.60	456.40
453.78	379.17
453.97	365.12
454.15	421.30
454.34	458.74
454.52	475.13
454.70	362.78
454.89	393.21
455.07	383.85
455.26	449.38
455.44	388.53
455.62	418.96
455.81	306.61
455.99	348.74
456.17	468.11
456.36	367.46
456.54	330.02
456.73	435.34
456.91	365.12
457.09	407.25
457.28	447.04
457.46	337.04
457.64	493.85
457.83	355.76
458.01	404.91
458.19	440.02
458.38	421.30
458.56	425.98
458.74	379.17
458.93	409.59
459.11	477.47
459.29	393.21
459.48	437.68
459.66	397.89
459.84	421.30
460.03	444.70
460.21	433.00
460.39	414.27
460.57	468.11
460.76	451.72
460.94	449.38
461.12	449.38
461.31	442.36
461.49	447.04
461.67	393.21
461.85	428.32
462.04	465.77
462.22	748.97
462.40	402.57
462.59	362.78
462.77	374.49
462.95	418.96
463.13	400.23
463.32	416.62
463.50	395.55
463.68	414.27
463.86	463.43
464.05	489.17
464.23	456.40
464.41	468.11
464.59	407.25
464.78	418.96
464.96	374.49
465.14	449.38
465.32	397.89
465.50	421.30
465.69	437.68
465.87	393.21
466.05	395.55
466.23	397.89
466.41	444.70
466.60	388.53
466.78	437.68
466.96	425.98
467.14	545.34
467.32	418.96
467.51	418.96
467.69	437.68
467.87	491.51
468.05	475.13
468.23	447.04
468.41	442.36
468.60	444.70
468.78	428.32
468.96	414.27
469.14	411.93
469.32	416.62
469.50	397.89
469.69	500.87
469.87	442.36
470.05	325.33
470.23	393.21
470.41	393.21
470.59	393.21
470.77	414.27
470.95	367.46
471.14	456.40
471.32	468.11
471.50	463.43
471.68	414.27
471.86	444.70
472.04	372.15
472.22	407.25
472.40	435.34
472.58	447.04
472.77	449.38
472.95	337.04
473.13	428.32
473.31	367.46
473.49	468.11
473.67	449.38
473.85	510.24
474.03	454.06
474.21	444.70
474.39	397.89
474.57	423.64
474.75	381.51
474.93	341.72
475.12	390.87
475.30	383.85
475.48	442.36
475.66	423.64
475.84	479.81
476.02	449.38
476.20	433.00
476.38	416.62
476.56	388.53
476.74	379.17
476.92	372.15
477.10	393.21
477.28	414.27
477.46	388.53
477.64	451.72
477.82	393.21
478.00	362.78
478.18	451.72
478.36	400.23
478.54	421.30
478.72	444.70
478.90	447.04
479.08	435.34
479.26	430.66
479.44	402.57
479.62	437.68
479.80	388.53
479.98	421.30
480.16	449.38
480.34	393.21
480.52	411.93
480.70	435.34
480.88	341.72
481.06	388.53
481.24	433.00
481.41	369.80
481.59	451.72
481.77	411.93
481.95	355.76
482.13	444.70
482.31	423.64
482.49	435.34
482.67	383.85
482.85	339.38
483.03	358.10
483.21	444.70
483.39	400.23
483.57	407.25
483.74	463.43
483.92	395.55
484.10	369.80
484.28	372.15
484.46	496.19
484.64	383.85
484.82	482.15
485.00	440.02
485.18	442.36
485.35	404.91
485.53	383.85
485.71	437.68
485.89	397.89
486.07	430.66
486.25	512.58
486.43	397.89
486.61	472.79
486.78	498.53
486.96	383.85
487.14	409.59
487.32	397.89
487.50	414.27
487.68	451.72
487.85	442.36
488.03	388.53
488.21	454.06
488.39	418.96
488.57	425.98
488.75	402.57
488.92	475.13
489.10	416.62
489.28	416.62
489.46	395.55
489.64	374.49
489.81	521.94
489.99	414.27
490.17	425.98
490.35	454.06
490.53	327.68
490.70	447.04
490.88	468.11
491.06	458.74
491.24	353.42
491.41	388.53
491.59	374.49
491.77	421.30
491.95	372.15
492.13	390.87
492.30	442.36
492.48	395.55
492.66	482.15
492.84	376.83
493.01	468.11
493.19	402.57
493.37	447.04
493.54	393.21
493.72	421.30
493.90	365.12
494.08	440.02
494.25	465.77
494.43	362.78
494.61	451.72
494.79	358.10
494.96	463.43
495.14	425.98
495.32	341.72
495.49	418.96
495.67	421.30
495.85	411.93
496.02	388.53
496.20	423.64
496.38	435.34
496.55	393.21
496.73	449.38
496.91	397.89
497.09	353.42
497.26	444.70
497.44	383.85
497.62	407.25
497.79	409.59
497.97	430.66
498.14	393.21
498.32	433.00
498.50	365.12
498.67	456.40
498.85	390.87
499.03	334.70
499.20	393.21
499.38	416.62
499.56	407.25
499.73	418.96
499.91	390.87
500.08	486.83
500.26	470.45
500.44	416.62
500.61	456.40
500.79	400.23
500.97	430.66
501.14	491.51
501.32	367.46
501.49	475.13
501.67	416.62
501.84	510.24
502.02	435.34
502.20	418.96
502.37	472.79
502.55	442.36
502.72	414.27
502.90	411.93
503.07	360.44
503.25	409.59
503.43	376.83
503.60	374.49
503.78	433.00
503.95	468.11
504.13	416.62
504.30	381.51
504.48	390.87
504.65	423.64
504.83	430.66
505.01	386.19
505.18	388.53
505.36	411.93
505.53	421.30
505.71	454.06
505.88	414.27
506.06	440.02
506.23	379.17
506.41	402.57
506.58	454.06
506.76	463.43
506.93	418.96
507.11	360.44
507.28	414.27
507.46	379.17
507.63	430.66
507.81	390.87
507.98	416.62
508.16	437.68
508.33	407.25
508.50	468.11
508.68	421.30
508.85	369.80
509.03	348.74
509.20	435.34
509.38	458.74
509.55	451.72
509.73	411.93
509.90	421.30
510.08	383.85
510.25	369.80
510.42	423.64
510.60	482.15
510.77	386.19
510.95	433.00
511.12	393.21
511.30	397.89
511.47	475.13
511.64	402.57
511.82	411.93
511.99	404.91
512.17	421.30
512.34	400.23
512.51	444.70
512.69	440.02
512.86	379.17
513.04	423.64
513.21	435.34
513.38	397.89
513.56	421.30
513.73	308.95
513.90	400.23
514.08	411.93
514.25	510.24
514.43	423.64
514.60	498.53
514.77	435.34
514.95	444.70
515.12	444.70
515.29	386.19
515.47	388.53
515.64	425.98
515.81	360.44
515.99	416.62
516.16	454.06
516.33	477.47
516.51	454.06
516.68	369.80
516.85	458.74
517.03	397.89
517.20	393.21
517.37	479.81
517.54	423.64
517.72	491.51
517.89	404.91
518.06	421.30
518.24	517.26
518.41	428.32
518.58	421.30
518.75	409.59
518.93	407.25
519.10	402.57
519.27	433.00
519.45	468.11
519.62	362.78
519.79	397.89
519.96	411.93
520.14	365.12
520.31	470.45
520.48	325.33
520.65	440.02
520.83	447.04
521.00	379.17
521.17	367.46
521.34	414.27
521.52	423.64
521.69	372.15
521.86	358.10
522.03	386.19
522.20	407.25
522.38	409.59
522.55	444.70
522.72	442.36
522.89	400.23
523.07	388.53
523.24	456.40
523.41	365.12
523.58	437.68
523.75	442.36
523.92	353.42
524.10	421.30
524.27	433.00
524.44	423.64
524.61	451.72
524.78	414.27
524.96	390.87
525.13	397.89
525.30	514.92
525.47	475.13
525.64	463.43
525.81	365.12
525.98	365.12
526.16	397.89
526.33	358.10
526.50	430.66
526.67	337.04
526.84	351.08
527.01	379.17
527.18	421.30
527.36	458.74
527.53	360.44
527.70	468.11
527.87	386.19
528.04	449.38
528.21	381.51
528.38	388.53
528.55	484.49
528.72	444.70
528.89	407.25
529.07	318.31
529.24	402.57
529.41	402.57
529.58	498.53
529.75	390.87
529.92	407.25
530.09	454.06
530.26	489.17
530.43	421.30
530.60	395.55
530.77	409.59
530.94	397.89
531.11	388.53
531.28	470.45
531.46	416.62
531.63	409.59
531.80	421.30
531.97	393.21
532.14	393.21
532.31	416.62
532.48	447.04
532.65	402.57
532.82	376.83
532.99	344.06
533.16	365.12
533.33	360.44
533.50	433.00
533.67	411.93
533.84	465.77
534.01	472.79
534.18	404.91
534.35	386.19
534.52	437.68
534.69	442.36
534.86	433.00
535.03	442.36
535.20	425.98
535.37	484.49
535.54	454.06
535.71	416.62
535.88	418.96
536.05	411.93
536.22	454.06
536.38	440.02
536.55	395.55
536.72	470.45
536.89	390.87
537.06	400.23
537.23	423.64
537.40	421.30
537.57	397.89
537.74	475.13
537.91	449.38
538.08	416.62
538.25	411.93
538.42	395.55
538.59	458.74
538.75	397.89
538.92	489.17
539.09	510.24
539.26	423.64
539.43	409.59
539.60	423.64
539.77	395.55
539.94	440.02
540.11	461.09
540.28	402.57
540.44	449.38
540.61	454.06
540.78	458.74
540.95	365.12
541.12	468.11
541.29	330.02
541.46	470.45
541.62	383.85
541.79	372.15
541.96	379.17
542.13	369.80
542.30	404.91
542.47	367.46
542.63	428.32
542.80	435.34
542.97	395.55
543.14	341.72
543.31	463.43
543.48	402.57
543.64	421.30
543.81	423.64
543.98	411.93
544.15	400.23
544.32	416.62
544.48	409.59
544.65	470.45
544.82	397.89
544.99	451.72
545.16	409.59
545.32	447.04
545.49	376.83
545.66	362.78
545.83	390.87
546.00	386.19
546.16	402.57
546.33	360.44
546.50	437.68
546.67	470.45
546.83	449.38
547.00	365.12
547.17	428.32
547.34	400.23
547.50	379.17
547.67	409.59
547.84	404.91
548.00	451.72
548.17	397.89
548.34	425.98
548.51	369.80
548.67	442.36
548.84	444.70
549.01	428.32
549.18	447.04
549.34	393.21
549.51	416.62
549.68	430.66
549.84	379.17
550.01	367.46
550.18	437.68
550.34	444.70
550.51	442.36
550.68	440.02
550.84	402.57
551.01	428.32
551.18	440.02
551.34	484.49
551.51	397.89
551.68	442.36
551.84	416.62
552.01	374.49
552.18	416.62
552.34	421.30
552.51	358.10
552.68	430.66
552.84	353.42
553.01	395.55
553.18	430.66
553.34	346.40
553.51	414.27
553.67	442.36
553.84	425.98
554.01	421.30
554.17	468.11
554.34	388.53
554.51	367.46
554.67	440.02
554.84	465.77
555.00	358.10
555.17	489.17
555.33	507.90
555.50	489.17
555.67	484.49
555.83	491.51
556.00	416.62
556.16	543.00
556.33	472.79
556.50	409.59
556.66	388.53
556.83	430.66
556.99	456.40
557.16	388.53
557.32	440.02
557.49	421.30
557.65	435.34
557.82	402.57
557.98	442.36
558.15	386.19
558.32	430.66
558.48	411.93
558.65	425.98
558.81	421.30
558.98	341.72
559.14	376.83
559.31	479.81
559.47	388.53
559.64	374.49
559.80	367.46
559.97	416.62
560.13	430.66
560.30	425.98
560.46	386.19
560.63	423.64
560.79	444.70
560.96	447.04
561.12	433.00
561.29	388.53
561.45	421.30
561.61	416.62
561.78	496.19
561.94	421.30
562.11	411.93
562.27	472.79
562.44	320.65
562.60	444.70
562.77	383.85
562.93	521.94
563.10	423.64
563.26	404.91
563.42	477.47
563.59	470.45
563.75	430.66
563.92	435.34
564.08	360.44
564.24	484.49
564.41	496.19
564.57	475.13
564.74	454.06
564.90	472.79
565.07	414.27
565.23	411.93
565.39	416.62
565.56	440.02
565.72	367.46
565.88	383.85
566.05	454.06
566.21	447.04
566.38	505.56
566.54	416.62
566.70	411.93
566.87	393.21
567.03	472.79
567.19	383.85
567.36	463.43
567.52	433.00
567.68	524.28
567.85	458.74
568.01	325.33
568.17	376.83
568.34	414.27
568.50	449.38
568.66	425.98
568.83	519.60
568.99	472.79
569.15	379.17
569.32	404.91
569.48	381.51
569.64	393.21
569.81	421.30
569.97	437.68
570.13	381.51
570.30	386.19
570.46	463.43
570.62	369.80
570.78	468.11
570.95	425.98
571.11	428.32
571.27	430.66
571.43	409.59
571.60	418.96
571.76	379.17
571.92	362.78
572.09	418.96
572.25	397.89
572.41	440.02
572.57	437.68
572.74	425.98
572.90	461.09
573.06	449.38
573.22	425.98
573.38	425.98
573.55	402.57
573.71	414.27
573.87	409.59
574.03	461.09
574.20	411.93
574.36	425.98
574.52	358.10
574.68	451.72
574.84	484.49
575.01	393.21
575.17	369.80
575.33	388.53
575.49	451.72
575.65	407.25
575.82	442.36
575.98	365.12
576.14	451.72
576.30	414.27
576.46	388.53
576.62	416.62
576.79	479.81
576.95	430.66
577.11	411.93
577.27	430.66
577.43	421.30
577.59	360.44
577.75	397.89
577.92	395.55
578.08	416.62
578.24	430.66
578.40	383.85
578.56	463.43
578.72	461.09
578.88	449.38
579.04	365.12
579.21	463.43
579.37	353.42
579.53	451.72
579.69	409.59
579.85	442.36
580.01	409.59
580.17	442.36
580.33	416.62
580.49	440.02
580.65	402.57
580.82	414.27
580.98	393.21
581.14	386.19
581.30	409.59
581.46	425.98
581.62	486.83
581.78	465.77
581.94	414.27
582.10	376.83
582.26	416.62
582.42	374.49
582.58	395.55
582.74	409.59
582.90	402.57
583.06	517.26
583.22	458.74
583.38	355.76
583.54	358.10
583.70	407.25
583.86	313.63
584.02	325.33
584.18	493.85
584.34	379.17
584.50	404.91
584.66	479.81
584.82	376.83
584.98	411.93
585.14	444.70
585.30	454.06
585.46	449.38
585.62	418.96
585.78	369.80
585.94	379.17
586.10	444.70
586.26	362.78
586.42	435.34
586.58	451.72
586.74	449.38
586.90	383.85
587.06	484.49
587.22	451.72
587.38	447.04
587.54	444.70
587.70	435.34
587.86	393.21
588.02	425.98
588.18	472.79
588.34	409.59
588.49	381.51
588.65	479.81
588.81	411.93
588.97	428.32
589.13	383.85
589.29	400.23
589.45	444.70
589.61	435.34
589.77	568.75
589.93	437.68
590.08	440.02
590.24	402.57
590.40	409.59
590.56	461.09
590.72	423.64
590.88	409.59
591.04	402.57
591.20	404.91
591.35	484.49
591.51	451.72
591.67	482.15
591.83	383.85
591.99	444.70
592.15	458.74
592.31	435.34
592.46	430.66
592.62	400.23
592.78	458.74
592.94	421.30
593.10	379.17
593.26	409.59
593.41	425.98
593.57	428.32
593.73	362.78
593.89	470.45
594.05	388.53
594.20	381.51
594.36	437.68
594.52	470.45
594.68	430.66
594.84	465.77
594.99	463.43
595.15	372.15
595.31	376.83
595.47	475.13
595.62	433.00
595.78	416.62
595.94	353.42
596.10	423.64
596.25	498.53
596.41	437.68
596.57	442.36
596.73	376.83
596.88	407.25
597.04	468.11
597.20	374.49
597.36	428.32
597.51	442.36
597.67	407.25
597.83	386.19
597.99	353.42
598.14	454.06
598.30	440.02
598.46	468.11
598.61	444.70
598.77	465.77
598.93	339.38
599.09	362.78
599.24	465.77
599.40	386.19
599.56	372.15
599.71	418.96
599.87	416.62
600.03	404.91
600.18	390.87
600.34	397.89
600.50	400.23
600.65	451.72
600.81	369.80
600.97	400.23
601.12	425.98
601.28	402.57
601.44	402.57
601.59	393.21
601.75	428.32
601.91	407.25
602.06	482.15
602.22	514.92
602.37	418.96
602.53	381.51
602.69	409.59
602.84	416.62
603.00	407.25
603.16	416.62
603.31	400.23
603.47	414.27
603.62	395.55
603.78	409.59
603.94	468.11
604.09	447.04
604.25	451.72
604.40	400.23
604.56	379.17
604.71	386.19
604.87	397.89
605.03	425.98
605.18	414.27
605.34	428.32
605.49	454.06
605.65	395.55
605.80	360.44
605.96	358.10
606.12	442.36
606.27	418.96
606.43	367.46
606.58	430.66
606.74	367.46
606.89	388.53
607.05	402.57
607.20	388.53
607.36	383.85
607.51	376.83
607.67	442.36
607.82	451.72
607.98	430.66
608.13	421.30
608.29	400.23
608.44	498.53
608.60	365.12
608.75	428.32
608.91	400.23
609.06	423.64
609.22	456.40
609.37	404.91
609.53	353.42
609.68	449.38
609.84	433.00
609.99	425.98
610.15	400.23
