SpectraSuite Data File
++++++++++++++++++++++++++++++++++++
Date: Fri Oct 25 12:11:09 EDT 2013
User: price-jones
Dark Spectrum Present: No
Reference Spectrum Present: No
Number of Sampled Component Spectra: 1
Spectrometers: USB2+H05261
Integration Time (usec): 100000 (USB2+H05261)
Spectra Averaged: 1 (USB2+H05261)
Boxcar Smoothing: 0 (USB2+H05261)
Correct for Electrical Dark: No (USB2+H05261)
Strobe/Lamp Enabled: No (USB2+H05261)
Correct for Detector Non-linearity: No (USB2+H05261)
Correct for Stray Light: No (USB2+H05261)
Number of Pixels in Processed Spectrum: 2048
>>>>>Begin Processed Spectral Data<<<<<
365.73	325.33
365.92	325.33
366.12	325.33
366.32	271.50
366.52	231.71
366.72	259.80
366.91	234.05
367.11	250.44
367.31	198.95
367.51	264.48
367.70	243.42
367.90	175.54
368.10	248.10
368.30	168.52
368.49	194.26
368.69	241.08
368.89	224.69
369.09	255.12
369.28	334.70
369.48	320.65
369.68	308.95
369.87	311.29
370.07	304.27
370.27	421.30
370.47	374.49
370.66	290.23
370.86	360.44
371.06	414.27
371.25	468.11
371.45	388.53
371.65	318.31
371.84	400.23
372.04	402.57
372.24	376.83
372.44	407.25
372.63	393.21
372.83	397.89
373.03	447.04
373.22	437.68
373.42	390.87
373.62	353.42
373.81	407.25
374.01	449.38
374.21	423.64
374.40	390.87
374.60	376.83
374.79	430.66
374.99	442.36
375.19	407.25
375.38	433.00
375.58	423.64
375.78	472.79
375.97	447.04
376.17	421.30
376.37	416.62
376.56	416.62
376.76	395.55
376.95	348.74
377.15	397.89
377.35	437.68
377.54	358.10
377.74	367.46
377.93	341.72
378.13	318.31
378.33	430.66
378.52	388.53
378.72	362.78
378.91	447.04
379.11	348.74
379.31	393.21
379.50	393.21
379.70	451.72
379.89	454.06
380.09	388.53
380.28	484.49
380.48	372.15
380.68	351.08
380.87	381.51
381.07	409.59
381.26	416.62
381.46	409.59
381.65	433.00
381.85	358.10
382.04	379.17
382.24	463.43
382.43	440.02
382.63	442.36
382.83	400.23
383.02	442.36
383.22	386.19
383.41	402.57
383.61	383.85
383.80	421.30
384.00	475.13
384.19	425.98
384.39	358.10
384.58	428.32
384.78	400.23
384.97	404.91
385.17	374.49
385.36	449.38
385.56	397.89
385.75	386.19
385.95	379.17
386.14	449.38
386.34	388.53
386.53	463.43
386.72	376.83
386.92	444.70
387.11	451.72
387.31	393.21
387.50	393.21
387.70	393.21
387.89	320.65
388.09	355.76
388.28	397.89
388.48	423.64
388.67	458.74
388.86	379.17
389.06	449.38
389.25	386.19
389.45	423.64
389.64	416.62
389.84	463.43
390.03	404.91
390.22	437.68
390.42	458.74
390.61	344.06
390.81	416.62
391.00	456.40
391.19	425.98
391.39	449.38
391.58	409.59
391.78	395.55
391.97	365.12
392.16	374.49
392.36	411.93
392.55	428.32
392.75	423.64
392.94	451.72
393.13	430.66
393.33	332.36
393.52	344.06
393.71	437.68
393.91	472.79
394.10	423.64
394.29	372.15
394.49	454.06
394.68	416.62
394.88	435.34
395.07	461.09
395.26	423.64
395.46	330.02
395.65	374.49
395.84	433.00
396.04	493.85
396.23	437.68
396.42	454.06
396.62	510.24
396.81	423.64
397.00	402.57
397.19	447.04
397.39	327.68
397.58	381.51
397.77	369.80
397.97	425.98
398.16	411.93
398.35	428.32
398.55	397.89
398.74	379.17
398.93	376.83
399.12	416.62
399.32	512.58
399.51	395.55
399.70	472.79
399.90	360.44
400.09	421.30
400.28	463.43
400.47	346.40
400.67	414.27
400.86	411.93
401.05	475.13
401.24	428.32
401.44	425.98
401.63	388.53
401.82	358.10
402.01	313.63
402.21	327.68
402.40	411.93
402.59	400.23
402.78	360.44
402.97	461.09
403.17	402.57
403.36	428.32
403.55	425.98
403.74	414.27
403.93	414.27
404.13	454.06
404.32	418.96
404.51	369.80
404.70	461.09
404.89	383.85
405.09	437.68
405.28	404.91
405.47	355.76
405.66	404.91
405.85	489.17
406.05	381.51
406.24	475.13
406.43	477.47
406.62	440.02
406.81	463.43
407.00	416.62
407.20	423.64
407.39	449.38
407.58	423.64
407.77	414.27
407.96	414.27
408.15	374.49
408.34	440.02
408.54	397.89
408.73	477.47
408.92	393.21
409.11	400.23
409.30	456.40
409.49	388.53
409.68	397.89
409.87	428.32
410.07	418.96
410.26	362.78
410.45	407.25
410.64	346.40
410.83	433.00
411.02	376.83
411.21	461.09
411.40	381.51
411.59	344.06
411.78	379.17
411.98	416.62
412.17	395.55
412.36	402.57
412.55	379.17
412.74	447.04
412.93	425.98
413.12	425.98
413.31	400.23
413.50	437.68
413.69	416.62
413.88	458.74
414.07	472.79
414.26	440.02
414.45	407.25
414.64	416.62
414.83	440.02
415.02	358.10
415.22	416.62
415.41	465.77
415.60	395.55
415.79	367.46
415.98	407.25
416.17	428.32
416.36	411.93
416.55	428.32
416.74	393.21
416.93	433.00
417.12	379.17
417.31	407.25
417.50	358.10
417.69	470.45
417.88	418.96
418.07	327.68
418.26	315.97
418.45	388.53
418.64	428.32
418.83	402.57
419.02	402.57
419.21	409.59
419.39	425.98
419.58	442.36
419.77	454.06
419.96	327.68
420.15	461.09
420.34	383.85
420.53	332.36
420.72	484.49
420.91	451.72
421.10	372.15
421.29	479.81
421.48	379.17
421.67	411.93
421.86	390.87
422.05	421.30
422.24	463.43
422.43	437.68
422.61	418.96
422.80	433.00
422.99	454.06
423.18	369.80
423.37	465.77
423.56	383.85
423.75	390.87
423.94	386.19
424.13	428.32
424.32	360.44
424.50	362.78
424.69	388.53
424.88	416.62
425.07	379.17
425.26	423.64
425.45	447.04
425.64	400.23
425.83	400.23
426.01	400.23
426.20	372.15
426.39	423.64
426.58	461.09
426.77	433.00
426.96	402.57
427.15	477.47
427.33	437.68
427.52	386.19
427.71	409.59
427.90	430.66
428.09	365.12
428.28	404.91
428.46	372.15
428.65	381.51
428.84	421.30
429.03	402.57
429.22	355.76
429.40	348.74
429.59	411.93
429.78	409.59
429.97	442.36
430.16	456.40
430.34	435.34
430.53	395.55
430.72	362.78
430.91	404.91
431.10	397.89
431.28	379.17
431.47	418.96
431.66	435.34
431.85	407.25
432.03	465.77
432.22	440.02
432.41	397.89
432.60	425.98
432.79	414.27
432.97	395.55
433.16	454.06
433.35	433.00
433.54	365.12
433.72	433.00
433.91	409.59
434.10	414.27
434.28	486.83
434.47	444.70
434.66	418.96
434.85	393.21
435.03	334.70
435.22	486.83
435.41	437.68
435.59	374.49
435.78	409.59
435.97	444.70
436.16	468.11
436.34	393.21
436.53	369.80
436.72	475.13
436.90	397.89
437.09	386.19
437.28	407.25
437.46	477.47
437.65	472.79
437.84	461.09
438.02	440.02
438.21	451.72
438.40	428.32
438.58	344.06
438.77	433.00
438.96	416.62
439.14	461.09
439.33	465.77
439.52	421.30
439.70	414.27
439.89	456.40
440.08	444.70
440.26	383.85
440.45	437.68
440.63	486.83
440.82	454.06
441.01	355.76
441.19	456.40
441.38	451.72
441.57	393.21
441.75	463.43
441.94	433.00
442.12	411.93
442.31	503.22
442.50	383.85
442.68	383.85
442.87	416.62
443.05	395.55
443.24	386.19
443.43	353.42
443.61	423.64
443.80	461.09
443.98	383.85
444.17	411.93
444.35	404.91
444.54	393.21
444.73	414.27
444.91	414.27
445.10	381.51
445.28	379.17
445.47	447.04
445.65	510.24
445.84	390.87
446.02	379.17
446.21	454.06
446.39	407.25
446.58	404.91
446.77	407.25
446.95	308.95
447.14	360.44
447.32	423.64
447.51	444.70
447.69	386.19
447.88	451.72
448.06	416.62
448.25	440.02
448.43	367.46
448.62	402.57
448.80	374.49
448.99	463.43
449.17	404.91
449.36	435.34
449.54	465.77
449.73	500.87
449.91	428.32
450.10	358.10
450.28	437.68
450.46	468.11
450.65	482.15
450.83	418.96
451.02	411.93
451.20	458.74
451.39	477.47
451.57	393.21
451.76	430.66
451.94	416.62
452.13	353.42
452.31	428.32
452.49	458.74
452.68	411.93
452.86	425.98
453.05	442.36
453.23	369.80
453.42	374.49
453.60	360.44
453.78	433.00
453.97	442.36
454.15	437.68
454.34	407.25
454.52	444.70
454.70	442.36
454.89	440.02
455.07	374.49
455.26	351.08
455.44	395.55
455.62	367.46
455.81	449.38
455.99	400.23
456.17	416.62
456.36	456.40
456.54	407.25
456.73	440.02
456.91	428.32
457.09	411.93
457.28	428.32
457.46	437.68
457.64	428.32
457.83	395.55
458.01	351.08
458.19	437.68
458.38	337.04
458.56	425.98
458.74	388.53
458.93	383.85
459.11	421.30
459.29	407.25
459.48	454.06
459.66	433.00
459.84	423.64
460.03	428.32
460.21	379.17
460.39	379.17
460.57	407.25
460.76	489.17
460.94	414.27
461.12	379.17
461.31	411.93
461.49	404.91
461.67	411.93
461.85	372.15
462.04	346.40
462.22	741.95
462.40	472.79
462.59	472.79
462.77	374.49
462.95	355.76
463.13	348.74
463.32	414.27
463.50	449.38
463.68	437.68
463.86	362.78
464.05	355.76
464.23	409.59
464.41	414.27
464.59	367.46
464.78	423.64
464.96	421.30
465.14	475.13
465.32	395.55
465.50	437.68
465.69	470.45
465.87	414.27
466.05	404.91
466.23	421.30
466.41	447.04
466.60	475.13
466.78	451.72
466.96	374.49
467.14	477.47
467.32	442.36
467.51	334.70
467.69	465.77
467.87	374.49
468.05	353.42
468.23	411.93
468.41	423.64
468.60	400.23
468.78	402.57
468.96	428.32
469.14	454.06
469.32	409.59
469.50	374.49
469.69	423.64
469.87	409.59
470.05	402.57
470.23	430.66
470.41	433.00
470.59	444.70
470.77	388.53
470.95	393.21
471.14	449.38
471.32	444.70
471.50	442.36
471.68	411.93
471.86	440.02
472.04	360.44
472.22	416.62
472.40	374.49
472.58	379.17
472.77	367.46
472.95	414.27
473.13	475.13
473.31	407.25
473.49	404.91
473.67	407.25
473.85	414.27
474.03	430.66
474.21	489.17
474.39	489.17
474.57	433.00
474.75	463.43
474.93	442.36
475.12	386.19
475.30	393.21
475.48	430.66
475.66	390.87
475.84	407.25
476.02	348.74
476.20	435.34
476.38	330.02
476.56	433.00
476.74	440.02
476.92	409.59
477.10	393.21
477.28	433.00
477.46	383.85
477.64	414.27
477.82	402.57
478.00	437.68
478.18	411.93
478.36	430.66
478.54	416.62
478.72	407.25
478.90	376.83
479.08	442.36
479.26	433.00
479.44	411.93
479.62	376.83
479.80	437.68
479.98	418.96
480.16	449.38
480.34	369.80
480.52	428.32
480.70	425.98
480.88	407.25
481.06	372.15
481.24	411.93
481.41	418.96
481.59	379.17
481.77	344.06
481.95	468.11
482.13	491.51
482.31	402.57
482.49	383.85
482.67	416.62
482.85	479.81
483.03	475.13
483.21	477.47
483.39	484.49
483.57	379.17
483.74	482.15
483.92	465.77
484.10	407.25
484.28	468.11
484.46	447.04
484.64	414.27
484.82	435.34
485.00	358.10
485.18	418.96
485.35	435.34
485.53	404.91
485.71	416.62
485.89	383.85
486.07	341.72
486.25	451.72
486.43	407.25
486.61	428.32
486.78	507.90
486.96	435.34
487.14	440.02
487.32	411.93
487.50	442.36
487.68	477.47
487.85	393.21
488.03	409.59
488.21	461.09
488.39	390.87
488.57	409.59
488.75	437.68
488.92	447.04
489.10	472.79
489.28	444.70
489.46	440.02
489.64	440.02
489.81	404.91
489.99	428.32
490.17	451.72
490.35	507.90
490.53	433.00
490.70	416.62
490.88	407.25
491.06	388.53
491.24	430.66
491.41	425.98
491.59	400.23
491.77	451.72
491.95	330.02
492.13	379.17
492.30	376.83
492.48	479.81
492.66	477.47
492.84	411.93
493.01	425.98
493.19	416.62
493.37	388.53
493.54	393.21
493.72	425.98
493.90	416.62
494.08	390.87
494.25	374.49
494.43	500.87
494.61	374.49
494.79	393.21
494.96	407.25
495.14	442.36
495.32	444.70
495.49	423.64
495.67	421.30
495.85	433.00
496.02	425.98
496.20	449.38
496.38	444.70
496.55	421.30
496.73	428.32
496.91	500.87
497.09	414.27
497.26	374.49
497.44	416.62
497.62	423.64
497.79	369.80
497.97	472.79
498.14	400.23
498.32	379.17
498.50	409.59
498.67	425.98
498.85	437.68
499.03	397.89
499.20	381.51
499.38	437.68
499.56	404.91
499.73	503.22
499.91	421.30
500.08	430.66
500.26	409.59
500.44	379.17
500.61	465.77
500.79	433.00
500.97	397.89
501.14	440.02
501.32	386.19
501.49	433.00
501.67	444.70
501.84	395.55
502.02	376.83
502.20	475.13
502.37	390.87
502.55	355.76
502.72	390.87
502.90	489.17
503.07	351.08
503.25	456.40
503.43	390.87
503.60	386.19
503.78	430.66
503.95	491.51
504.13	454.06
504.30	365.12
504.48	447.04
504.65	451.72
504.83	470.45
505.01	367.46
505.18	423.64
505.36	411.93
505.53	484.49
505.71	451.72
505.88	454.06
506.06	404.91
506.23	409.59
506.41	360.44
506.58	461.09
506.76	365.12
506.93	421.30
507.11	397.89
507.28	414.27
507.46	332.36
507.63	425.98
507.81	330.02
507.98	397.89
508.16	397.89
508.33	379.17
508.50	468.11
508.68	337.04
508.85	386.19
509.03	402.57
509.20	430.66
509.38	435.34
509.55	458.74
509.73	447.04
509.90	475.13
510.08	360.44
510.25	416.62
510.42	442.36
510.60	430.66
510.77	390.87
510.95	498.53
511.12	411.93
511.30	437.68
511.47	442.36
511.64	447.04
511.82	418.96
511.99	418.96
512.17	362.78
512.34	447.04
512.51	393.21
512.69	430.66
512.86	458.74
513.04	414.27
513.21	346.40
513.38	435.34
513.56	397.89
513.73	407.25
513.90	430.66
514.08	332.36
514.25	468.11
514.43	390.87
514.60	388.53
514.77	409.59
514.95	428.32
515.12	409.59
515.29	423.64
515.47	411.93
515.64	428.32
515.81	393.21
515.99	411.93
516.16	456.40
516.33	416.62
516.51	458.74
516.68	402.57
516.85	348.74
517.03	470.45
517.20	533.64
517.37	428.32
517.54	397.89
517.72	379.17
517.89	376.83
518.06	411.93
518.24	458.74
518.41	393.21
518.58	491.51
518.75	463.43
518.93	416.62
519.10	451.72
519.27	390.87
519.45	409.59
519.62	404.91
519.79	390.87
519.96	369.80
520.14	440.02
520.31	477.47
520.48	381.51
520.65	411.93
520.83	428.32
521.00	433.00
521.17	465.77
521.34	374.49
521.52	440.02
521.69	376.83
521.86	409.59
522.03	423.64
522.20	388.53
522.38	451.72
522.55	468.11
522.72	379.17
522.89	470.45
523.07	437.68
523.24	451.72
523.41	395.55
523.58	440.02
523.75	374.49
523.92	395.55
524.10	367.46
524.27	402.57
524.44	468.11
524.61	454.06
524.78	407.25
524.96	477.47
525.13	414.27
525.30	393.21
525.47	468.11
525.64	388.53
525.81	411.93
525.98	383.85
526.16	428.32
526.33	451.72
526.50	407.25
526.67	339.38
526.84	430.66
527.01	358.10
527.18	381.51
527.36	388.53
527.53	440.02
527.70	447.04
527.87	503.22
528.04	430.66
528.21	400.23
528.38	468.11
528.55	430.66
528.72	437.68
528.89	421.30
529.07	463.43
529.24	402.57
529.41	433.00
529.58	386.19
529.75	416.62
529.92	388.53
530.09	397.89
530.26	428.32
530.43	470.45
530.60	433.00
530.77	486.83
530.94	383.85
531.11	447.04
531.28	409.59
531.46	421.30
531.63	325.33
531.80	351.08
531.97	428.32
532.14	418.96
532.31	393.21
532.48	444.70
532.65	475.13
532.82	454.06
532.99	388.53
533.16	376.83
533.33	456.40
533.50	409.59
533.67	407.25
533.84	402.57
534.01	386.19
534.18	360.44
534.35	388.53
534.52	444.70
534.69	374.49
534.86	400.23
535.03	409.59
535.20	334.70
535.37	425.98
535.54	463.43
535.71	435.34
535.88	477.47
536.05	404.91
536.22	430.66
536.38	402.57
536.55	372.15
536.72	440.02
536.89	421.30
537.06	472.79
537.23	402.57
537.40	358.10
537.57	383.85
537.74	491.51
537.91	475.13
538.08	362.78
538.25	425.98
538.42	475.13
538.59	468.11
538.75	388.53
538.92	362.78
539.09	397.89
539.26	332.36
539.43	430.66
539.60	442.36
539.77	425.98
539.94	458.74
540.11	458.74
540.28	386.19
540.44	454.06
540.61	402.57
540.78	433.00
540.95	442.36
541.12	477.47
541.29	425.98
541.46	451.72
541.62	365.12
541.79	393.21
541.96	369.80
542.13	411.93
542.30	395.55
542.47	470.45
542.63	362.78
542.80	465.77
542.97	451.72
543.14	454.06
543.31	437.68
543.48	465.77
543.64	454.06
543.81	383.85
543.98	437.68
544.15	407.25
544.32	407.25
544.48	461.09
544.65	486.83
544.82	444.70
544.99	454.06
545.16	411.93
545.32	423.64
545.49	458.74
545.66	428.32
545.83	475.13
546.00	402.57
546.16	425.98
546.33	433.00
546.50	341.72
546.67	425.98
546.83	374.49
547.00	461.09
547.17	461.09
547.34	472.79
547.50	456.40
547.67	444.70
547.84	442.36
548.00	456.40
548.17	386.19
548.34	339.38
548.51	472.79
548.67	465.77
548.84	397.89
549.01	383.85
549.18	386.19
549.34	395.55
549.51	463.43
549.68	414.27
549.84	351.08
550.01	449.38
550.18	493.85
550.34	472.79
550.51	449.38
550.68	468.11
550.84	454.06
551.01	418.96
551.18	397.89
551.34	423.64
551.51	472.79
551.68	397.89
551.84	393.21
552.01	315.97
552.18	379.17
552.34	388.53
552.51	416.62
552.68	428.32
552.84	430.66
553.01	433.00
553.18	496.19
553.34	428.32
553.51	437.68
553.67	435.34
553.84	470.45
554.01	479.81
554.17	491.51
554.34	411.93
554.51	418.96
554.67	465.77
554.84	440.02
555.00	360.44
555.17	411.93
555.33	454.06
555.50	482.15
555.67	479.81
555.83	421.30
556.00	423.64
556.16	519.60
556.33	500.87
556.50	411.93
556.66	440.02
556.83	372.15
556.99	360.44
557.16	451.72
557.32	456.40
557.49	463.43
557.65	456.40
557.82	447.04
557.98	458.74
558.15	430.66
558.32	411.93
558.48	442.36
558.65	447.04
558.81	393.21
558.98	409.59
559.14	369.80
559.31	435.34
559.47	407.25
559.64	451.72
559.80	449.38
559.97	425.98
560.13	386.19
560.30	463.43
560.46	447.04
560.63	454.06
560.79	503.22
560.96	482.15
561.12	435.34
561.29	451.72
561.45	409.59
561.61	367.46
561.78	503.22
561.94	362.78
562.11	372.15
562.27	477.47
562.44	388.53
562.60	447.04
562.77	400.23
562.93	433.00
563.10	393.21
563.26	374.49
563.42	423.64
563.59	430.66
563.75	456.40
563.92	496.19
564.08	383.85
564.24	482.15
564.41	477.47
564.57	353.42
564.74	379.17
564.90	437.68
565.07	428.32
565.23	402.57
565.39	493.85
565.56	461.09
565.72	451.72
565.88	418.96
566.05	414.27
566.21	397.89
566.38	355.76
566.54	407.25
566.70	409.59
566.87	423.64
567.03	386.19
567.19	367.46
567.36	386.19
567.52	458.74
567.68	402.57
567.85	468.11
568.01	353.42
568.17	400.23
568.34	411.93
568.50	519.60
568.66	447.04
568.83	482.15
568.99	435.34
569.15	437.68
569.32	451.72
569.48	390.87
569.64	463.43
569.81	414.27
569.97	358.10
570.13	383.85
570.30	390.87
570.46	372.15
570.62	465.77
570.78	402.57
570.95	388.53
571.11	479.81
571.27	500.87
571.43	358.10
571.60	418.96
571.76	449.38
571.92	458.74
572.09	395.55
572.25	472.79
572.41	454.06
572.57	402.57
572.74	484.49
572.90	433.00
573.06	365.12
573.22	381.51
573.38	414.27
573.55	400.23
573.71	407.25
573.87	451.72
574.03	404.91
574.20	376.83
574.36	470.45
574.52	416.62
574.68	423.64
574.84	440.02
575.01	418.96
575.17	425.98
575.33	433.00
575.49	421.30
575.65	444.70
575.82	416.62
575.98	388.53
576.14	538.32
576.30	379.17
576.46	437.68
576.62	456.40
576.79	425.98
576.95	475.13
577.11	444.70
577.27	461.09
577.43	414.27
577.59	451.72
577.75	437.68
577.92	433.00
578.08	402.57
578.24	442.36
578.40	374.49
578.56	468.11
578.72	519.60
578.88	449.38
579.04	404.91
579.21	400.23
579.37	475.13
579.53	393.21
579.69	379.17
579.85	449.38
580.01	449.38
580.17	414.27
580.33	369.80
580.49	423.64
580.65	358.10
580.82	479.81
580.98	430.66
581.14	407.25
581.30	447.04
581.46	435.34
581.62	425.98
581.78	425.98
581.94	351.08
582.10	416.62
582.26	423.64
582.42	479.81
582.58	496.19
582.74	451.72
582.90	418.96
583.06	447.04
583.22	430.66
583.38	407.25
583.54	341.72
583.70	482.15
583.86	418.96
584.02	470.45
584.18	430.66
584.34	428.32
584.50	442.36
584.66	395.55
584.82	433.00
584.98	430.66
585.14	374.49
585.30	421.30
585.46	425.98
585.62	388.53
585.78	327.68
585.94	433.00
586.10	423.64
586.26	411.93
586.42	468.11
586.58	418.96
586.74	400.23
586.90	355.76
587.06	402.57
587.22	433.00
587.38	395.55
587.54	379.17
587.70	470.45
587.86	414.27
588.02	362.78
588.18	435.34
588.34	423.64
588.49	383.85
588.65	433.00
588.81	454.06
588.97	367.46
589.13	397.89
589.29	416.62
589.45	449.38
589.61	423.64
589.77	421.30
589.93	320.65
590.08	430.66
590.24	416.62
590.40	470.45
590.56	407.25
590.72	449.38
590.88	454.06
591.04	528.96
591.20	381.51
591.35	428.32
591.51	320.65
591.67	388.53
591.83	421.30
591.99	367.46
592.15	463.43
592.31	411.93
592.46	435.34
592.62	451.72
592.78	395.55
592.94	400.23
593.10	402.57
593.26	395.55
593.41	428.32
593.57	379.17
593.73	397.89
593.89	409.59
594.05	416.62
594.20	393.21
594.36	451.72
594.52	407.25
594.68	390.87
594.84	451.72
594.99	447.04
595.15	444.70
595.31	447.04
595.47	414.27
595.62	411.93
595.78	423.64
595.94	447.04
596.10	395.55
596.25	416.62
596.41	416.62
596.57	383.85
596.73	442.36
596.88	367.46
597.04	346.40
597.20	383.85
597.36	411.93
597.51	421.30
597.67	442.36
597.83	341.72
597.99	367.46
598.14	355.76
598.30	425.98
598.46	362.78
598.61	425.98
598.77	430.66
598.93	397.89
599.09	318.31
599.24	496.19
599.40	458.74
599.56	383.85
599.71	421.30
599.87	414.27
600.03	367.46
600.18	360.44
600.34	447.04
600.50	372.15
600.65	393.21
600.81	421.30
600.97	400.23
601.12	351.08
601.28	442.36
601.44	458.74
601.59	393.21
601.75	437.68
601.91	507.90
602.06	440.02
602.22	477.47
602.37	337.04
602.53	454.06
602.69	440.02
602.84	402.57
603.00	383.85
603.16	428.32
603.31	435.34
603.47	374.49
603.62	430.66
603.78	393.21
603.94	423.64
604.09	379.17
604.25	404.91
604.40	395.55
604.56	456.40
604.71	409.59
604.87	393.21
605.03	444.70
605.18	423.64
605.34	390.87
605.49	428.32
605.65	348.74
605.80	475.13
605.96	409.59
606.12	386.19
606.27	411.93
606.43	407.25
606.58	383.85
606.74	360.44
606.89	369.80
607.05	503.22
607.20	456.40
607.36	379.17
607.51	383.85
607.67	369.80
607.82	425.98
607.98	386.19
608.13	411.93
608.29	416.62
608.44	465.77
608.60	372.15
608.75	416.62
608.91	386.19
609.06	433.00
609.22	425.98
609.37	397.89
609.53	388.53
609.68	330.02
609.84	360.44
609.99	425.98
610.15	423.64
