SpectraSuite Data File
++++++++++++++++++++++++++++++++++++
Date: Fri Oct 25 12:10:20 EDT 2013
User: price-jones
Dark Spectrum Present: No
Reference Spectrum Present: No
Number of Sampled Component Spectra: 1
Spectrometers: USB2+H05261
Integration Time (usec): 100000 (USB2+H05261)
Spectra Averaged: 1 (USB2+H05261)
Boxcar Smoothing: 0 (USB2+H05261)
Correct for Electrical Dark: No (USB2+H05261)
Strobe/Lamp Enabled: No (USB2+H05261)
Correct for Detector Non-linearity: No (USB2+H05261)
Correct for Stray Light: No (USB2+H05261)
Number of Pixels in Processed Spectrum: 2048
>>>>>Begin Processed Spectral Data<<<<<
365.73	266.82
365.92	266.82
366.12	266.82
366.32	294.91
366.52	252.78
366.72	264.48
366.91	238.73
367.11	290.23
367.31	245.76
367.51	210.65
367.70	208.31
367.90	189.58
368.10	175.54
368.30	236.39
368.49	259.80
368.69	203.63
368.89	238.73
369.09	322.99
369.28	259.80
369.48	292.57
369.68	306.61
369.87	358.10
370.07	241.08
370.27	318.31
370.47	344.06
370.66	327.68
370.86	334.70
371.06	322.99
371.25	447.04
371.45	421.30
371.65	383.85
371.84	395.55
372.04	318.31
372.24	332.36
372.44	351.08
372.63	374.49
372.83	376.83
373.03	397.89
373.22	440.02
373.42	409.59
373.62	430.66
373.81	407.25
374.01	381.51
374.21	482.15
374.40	416.62
374.60	433.00
374.79	512.58
374.99	360.44
375.19	489.17
375.38	444.70
375.58	414.27
375.78	444.70
375.97	383.85
376.17	430.66
376.37	421.30
376.56	400.23
376.76	397.89
376.95	428.32
377.15	397.89
377.35	425.98
377.54	390.87
377.74	390.87
377.93	407.25
378.13	404.91
378.33	418.96
378.52	381.51
378.72	322.99
378.91	353.42
379.11	433.00
379.31	344.06
379.50	320.65
379.70	353.42
379.89	390.87
380.09	344.06
380.28	372.15
380.48	409.59
380.68	379.17
380.87	454.06
381.07	360.44
381.26	444.70
381.46	425.98
381.65	442.36
381.85	311.29
382.04	449.38
382.24	355.76
382.43	369.80
382.63	397.89
382.83	486.83
383.02	477.47
383.22	416.62
383.41	449.38
383.61	409.59
383.80	425.98
384.00	376.83
384.19	400.23
384.39	353.42
384.58	404.91
384.78	381.51
384.97	418.96
385.17	362.78
385.36	411.93
385.56	409.59
385.75	393.21
385.95	447.04
386.14	416.62
386.34	442.36
386.53	465.77
386.72	379.17
386.92	386.19
387.11	404.91
387.31	425.98
387.50	400.23
387.70	374.49
387.89	449.38
388.09	381.51
388.28	437.68
388.48	409.59
388.67	376.83
388.86	440.02
389.06	374.49
389.25	355.76
389.45	430.66
389.64	407.25
389.84	491.51
390.03	425.98
390.22	449.38
390.42	351.08
390.61	388.53
390.81	367.46
391.00	355.76
391.19	376.83
391.39	386.19
391.58	395.55
391.78	463.43
391.97	393.21
392.16	416.62
392.36	425.98
392.55	437.68
392.75	276.18
392.94	332.36
393.13	400.23
393.33	423.64
393.52	362.78
393.71	369.80
393.91	369.80
394.10	447.04
394.29	461.09
394.49	365.12
394.68	486.83
394.88	447.04
395.07	437.68
395.26	388.53
395.46	414.27
395.65	458.74
395.84	388.53
396.04	416.62
396.23	430.66
396.42	383.85
396.62	447.04
396.81	435.34
397.00	337.04
397.19	395.55
397.39	418.96
397.58	409.59
397.77	367.46
397.97	358.10
398.16	393.21
398.35	395.55
398.55	428.32
398.74	433.00
398.93	407.25
399.12	351.08
399.32	428.32
399.51	409.59
399.70	425.98
399.90	425.98
400.09	386.19
400.28	463.43
400.47	383.85
400.67	390.87
400.86	379.17
401.05	348.74
401.24	374.49
401.44	442.36
401.63	435.34
401.82	400.23
402.01	374.49
402.21	383.85
402.40	425.98
402.59	374.49
402.78	416.62
402.97	386.19
403.17	393.21
403.36	400.23
403.55	355.76
403.74	425.98
403.93	348.74
404.13	442.36
404.32	479.81
404.51	376.83
404.70	428.32
404.89	447.04
405.09	425.98
405.28	351.08
405.47	383.85
405.66	447.04
405.85	367.46
406.05	416.62
406.24	355.76
406.43	479.81
406.62	437.68
406.81	416.62
407.00	409.59
407.20	383.85
407.39	372.15
407.58	416.62
407.77	428.32
407.96	433.00
408.15	407.25
408.34	449.38
408.54	397.89
408.73	407.25
408.92	386.19
409.11	379.17
409.30	456.40
409.49	489.17
409.68	409.59
409.87	381.51
410.07	470.45
410.26	393.21
410.45	372.15
410.64	423.64
410.83	381.51
411.02	409.59
411.21	437.68
411.40	355.76
411.59	367.46
411.78	447.04
411.98	369.80
412.17	393.21
412.36	458.74
412.55	418.96
412.74	414.27
412.93	395.55
413.12	372.15
413.31	421.30
413.50	379.17
413.69	425.98
413.88	437.68
414.07	362.78
414.26	440.02
414.45	386.19
414.64	425.98
414.83	409.59
415.02	430.66
415.22	411.93
415.41	416.62
415.60	339.38
415.79	402.57
415.98	430.66
416.17	402.57
416.36	465.77
416.55	416.62
416.74	425.98
416.93	388.53
417.12	407.25
417.31	411.93
417.50	409.59
417.69	358.10
417.88	423.64
418.07	402.57
418.26	404.91
418.45	367.46
418.64	454.06
418.83	358.10
419.02	475.13
419.21	440.02
419.39	449.38
419.58	355.76
419.77	395.55
419.96	407.25
420.15	470.45
420.34	421.30
420.53	425.98
420.72	484.49
420.91	456.40
421.10	433.00
421.29	451.72
421.48	344.06
421.67	397.89
421.86	393.21
422.05	425.98
422.24	451.72
422.43	407.25
422.61	425.98
422.80	400.23
422.99	369.80
423.18	400.23
423.37	514.92
423.56	416.62
423.75	425.98
423.94	372.15
424.13	404.91
424.32	407.25
424.50	344.06
424.69	444.70
424.88	468.11
425.07	430.66
425.26	442.36
425.45	388.53
425.64	465.77
425.83	421.30
426.01	388.53
426.20	369.80
426.39	383.85
426.58	395.55
426.77	472.79
426.96	477.47
427.15	322.99
427.33	346.40
427.52	465.77
427.71	418.96
427.90	407.25
428.09	379.17
428.28	341.72
428.46	386.19
428.65	451.72
428.84	369.80
429.03	393.21
429.22	395.55
429.40	437.68
429.59	395.55
429.78	372.15
429.97	423.64
430.16	482.15
430.34	430.66
430.53	404.91
430.72	472.79
430.91	400.23
431.10	360.44
431.28	395.55
431.47	374.49
431.66	367.46
431.85	383.85
432.03	362.78
432.22	381.51
432.41	411.93
432.60	500.87
432.79	425.98
432.97	407.25
433.16	435.34
433.35	430.66
433.54	367.46
433.72	367.46
433.91	376.83
434.10	425.98
434.28	339.38
434.47	362.78
434.66	440.02
434.85	351.08
435.03	379.17
435.22	379.17
435.41	339.38
435.59	407.25
435.78	421.30
435.97	393.21
436.16	449.38
436.34	449.38
436.53	397.89
436.72	421.30
436.90	451.72
437.09	425.98
437.28	372.15
437.46	397.89
437.65	416.62
437.84	362.78
438.02	397.89
438.21	493.85
438.40	470.45
438.58	337.04
438.77	428.32
438.96	374.49
439.14	461.09
439.33	383.85
439.52	374.49
439.70	400.23
439.89	411.93
440.08	393.21
440.26	365.12
440.45	404.91
440.63	395.55
440.82	407.25
441.01	472.79
441.19	456.40
441.38	461.09
441.57	435.34
441.75	442.36
441.94	376.83
442.12	449.38
442.31	418.96
442.50	425.98
442.68	372.15
442.87	437.68
443.05	461.09
443.24	458.74
443.43	468.11
443.61	393.21
443.80	486.83
443.98	414.27
444.17	425.98
444.35	388.53
444.54	346.40
444.73	407.25
444.91	440.02
445.10	416.62
445.28	447.04
445.47	437.68
445.65	503.22
445.84	383.85
446.02	376.83
446.21	404.91
446.39	421.30
446.58	468.11
446.77	390.87
446.95	367.46
447.14	395.55
447.32	442.36
447.51	411.93
447.69	456.40
447.88	362.78
448.06	388.53
448.25	449.38
448.43	442.36
448.62	428.32
448.80	468.11
448.99	472.79
449.17	411.93
449.36	428.32
449.54	414.27
449.73	416.62
449.91	383.85
450.10	372.15
450.28	517.26
450.46	386.19
450.65	491.51
450.83	376.83
451.02	404.91
451.20	367.46
451.39	451.72
451.57	374.49
451.76	360.44
451.94	390.87
452.13	472.79
452.31	456.40
452.49	397.89
452.68	390.87
452.86	358.10
453.05	433.00
453.23	383.85
453.42	397.89
453.60	402.57
453.78	397.89
453.97	369.80
454.15	339.38
454.34	409.59
454.52	379.17
454.70	414.27
454.89	397.89
455.07	334.70
455.26	447.04
455.44	451.72
455.62	374.49
455.81	386.19
455.99	386.19
456.17	393.21
456.36	393.21
456.54	388.53
456.73	461.09
456.91	404.91
457.09	456.40
457.28	484.49
457.46	421.30
457.64	444.70
457.83	402.57
458.01	376.83
458.19	416.62
458.38	414.27
458.56	358.10
458.74	428.32
458.93	355.76
459.11	400.23
459.29	393.21
459.48	388.53
459.66	397.89
459.84	393.21
460.03	444.70
460.21	421.30
460.39	383.85
460.57	421.30
460.76	433.00
460.94	390.87
461.12	461.09
461.31	458.74
461.49	365.12
461.67	404.91
461.85	381.51
462.04	376.83
462.22	713.86
462.40	465.77
462.59	500.87
462.77	393.21
462.95	451.72
463.13	400.23
463.32	486.83
463.50	423.64
463.68	369.80
463.86	414.27
464.05	423.64
464.23	383.85
464.41	395.55
464.59	346.40
464.78	388.53
464.96	372.15
465.14	367.46
465.32	430.66
465.50	379.17
465.69	479.81
465.87	362.78
466.05	397.89
466.23	416.62
466.41	348.74
466.60	374.49
466.78	369.80
466.96	496.19
467.14	409.59
467.32	416.62
467.51	402.57
467.69	475.13
467.87	435.34
468.05	341.72
468.23	433.00
468.41	376.83
468.60	404.91
468.78	390.87
468.96	486.83
469.14	449.38
469.32	447.04
469.50	423.64
469.69	416.62
469.87	418.96
470.05	337.04
470.23	468.11
470.41	411.93
470.59	395.55
470.77	397.89
470.95	472.79
471.14	456.40
471.32	379.17
471.50	348.74
471.68	388.53
471.86	383.85
472.04	451.72
472.22	393.21
472.40	360.44
472.58	482.15
472.77	430.66
472.95	369.80
473.13	449.38
473.31	379.17
473.49	379.17
473.67	397.89
473.85	411.93
474.03	423.64
474.21	395.55
474.39	482.15
474.57	400.23
474.75	428.32
474.93	383.85
475.12	372.15
475.30	444.70
475.48	397.89
475.66	451.72
475.84	477.47
476.02	440.02
476.20	505.56
476.38	442.36
476.56	458.74
476.74	458.74
476.92	334.70
477.10	379.17
477.28	397.89
477.46	365.12
477.64	404.91
477.82	437.68
478.00	390.87
478.18	428.32
478.36	498.53
478.54	423.64
478.72	402.57
478.90	440.02
479.08	416.62
479.26	444.70
479.44	437.68
479.62	365.12
479.80	393.21
479.98	442.36
480.16	433.00
480.34	372.15
480.52	472.79
480.70	414.27
480.88	451.72
481.06	423.64
481.24	393.21
481.41	496.19
481.59	486.83
481.77	369.80
481.95	379.17
482.13	360.44
482.31	472.79
482.49	388.53
482.67	395.55
482.85	386.19
483.03	383.85
483.21	472.79
483.39	388.53
483.57	433.00
483.74	444.70
483.92	390.87
484.10	421.30
484.28	440.02
484.46	374.49
484.64	400.23
484.82	442.36
485.00	318.31
485.18	407.25
485.35	423.64
485.53	332.36
485.71	442.36
485.89	332.36
486.07	409.59
486.25	482.15
486.43	479.81
486.61	458.74
486.78	367.46
486.96	395.55
487.14	411.93
487.32	393.21
487.50	435.34
487.68	362.78
487.85	379.17
488.03	433.00
488.21	404.91
488.39	386.19
488.57	477.47
488.75	367.46
488.92	521.94
489.10	390.87
489.28	425.98
489.46	374.49
489.64	395.55
489.81	381.51
489.99	388.53
490.17	325.33
490.35	514.92
490.53	425.98
490.70	437.68
490.88	407.25
491.06	423.64
491.24	433.00
491.41	465.77
491.59	449.38
491.77	407.25
491.95	425.98
492.13	367.46
492.30	344.06
492.48	414.27
492.66	353.42
492.84	362.78
493.01	416.62
493.19	395.55
493.37	402.57
493.54	435.34
493.72	472.79
493.90	449.38
494.08	376.83
494.25	454.06
494.43	428.32
494.61	425.98
494.79	395.55
494.96	498.53
495.14	404.91
495.32	407.25
495.49	468.11
495.67	451.72
495.85	437.68
496.02	369.80
496.20	437.68
496.38	477.47
496.55	358.10
496.73	388.53
496.91	355.76
497.09	517.26
497.26	400.23
497.44	449.38
497.62	411.93
497.79	465.77
497.97	428.32
498.14	416.62
498.32	444.70
498.50	416.62
498.67	463.43
498.85	430.66
499.03	374.49
499.20	423.64
499.38	402.57
499.56	397.89
499.73	451.72
499.91	409.59
500.08	472.79
500.26	416.62
500.44	386.19
500.61	379.17
500.79	425.98
500.97	388.53
501.14	451.72
501.32	411.93
501.49	440.02
501.67	409.59
501.84	475.13
502.02	374.49
502.20	418.96
502.37	468.11
502.55	395.55
502.72	454.06
502.90	362.78
503.07	442.36
503.25	402.57
503.43	444.70
503.60	397.89
503.78	447.04
503.95	397.89
504.13	421.30
504.30	395.55
504.48	358.10
504.65	430.66
504.83	372.15
505.01	435.34
505.18	374.49
505.36	365.12
505.53	395.55
505.71	388.53
505.88	496.19
506.06	339.38
506.23	390.87
506.41	407.25
506.58	482.15
506.76	425.98
506.93	458.74
507.11	404.91
507.28	386.19
507.46	332.36
507.63	383.85
507.81	463.43
507.98	437.68
508.16	395.55
508.33	435.34
508.50	395.55
508.68	313.63
508.85	407.25
509.03	409.59
509.20	369.80
509.38	425.98
509.55	491.51
509.73	461.09
509.90	372.15
510.08	397.89
510.25	341.72
510.42	379.17
510.60	388.53
510.77	482.15
510.95	468.11
511.12	411.93
511.30	409.59
511.47	379.17
511.64	451.72
511.82	393.21
511.99	376.83
512.17	414.27
512.34	383.85
512.51	292.57
512.69	477.47
512.86	404.91
513.04	465.77
513.21	400.23
513.38	341.72
513.56	372.15
513.73	402.57
513.90	374.49
514.08	362.78
514.25	437.68
514.43	365.12
514.60	437.68
514.77	341.72
514.95	397.89
515.12	421.30
515.29	425.98
515.47	423.64
515.64	416.62
515.81	465.77
515.99	489.17
516.16	355.76
516.33	486.83
516.51	435.34
516.68	397.89
516.85	461.09
517.03	404.91
517.20	414.27
517.37	435.34
517.54	418.96
517.72	388.53
517.89	372.15
518.06	423.64
518.24	512.58
518.41	362.78
518.58	388.53
518.75	386.19
518.93	395.55
519.10	507.90
519.27	437.68
519.45	423.64
519.62	423.64
519.79	472.79
519.96	430.66
520.14	379.17
520.31	416.62
520.48	470.45
520.65	461.09
520.83	423.64
521.00	334.70
521.17	433.00
521.34	365.12
521.52	369.80
521.69	409.59
521.86	348.74
522.03	379.17
522.20	486.83
522.38	418.96
522.55	442.36
522.72	322.99
522.89	430.66
523.07	407.25
523.24	400.23
523.41	416.62
523.58	465.77
523.75	423.64
523.92	395.55
524.10	376.83
524.27	416.62
524.44	372.15
524.61	404.91
524.78	400.23
524.96	437.68
525.13	404.91
525.30	407.25
525.47	374.49
525.64	407.25
525.81	358.10
525.98	418.96
526.16	409.59
526.33	353.42
526.50	423.64
526.67	376.83
526.84	433.00
527.01	376.83
527.18	386.19
527.36	425.98
527.53	390.87
527.70	402.57
527.87	421.30
528.04	447.04
528.21	397.89
528.38	468.11
528.55	477.47
528.72	379.17
528.89	444.70
529.07	454.06
529.24	468.11
529.41	411.93
529.58	489.17
529.75	430.66
529.92	425.98
530.09	451.72
530.26	425.98
530.43	400.23
530.60	402.57
530.77	369.80
530.94	433.00
531.11	447.04
531.28	379.17
531.46	451.72
531.63	440.02
531.80	430.66
531.97	390.87
532.14	458.74
532.31	440.02
532.48	386.19
532.65	475.13
532.82	468.11
532.99	477.47
533.16	437.68
533.33	418.96
533.50	388.53
533.67	428.32
533.84	367.46
534.01	402.57
534.18	337.04
534.35	435.34
534.52	437.68
534.69	451.72
534.86	423.64
535.03	390.87
535.20	402.57
535.37	421.30
535.54	411.93
535.71	414.27
535.88	430.66
536.05	407.25
536.22	404.91
536.38	362.78
536.55	379.17
536.72	496.19
536.89	402.57
537.06	372.15
537.23	351.08
537.40	433.00
537.57	334.70
537.74	461.09
537.91	468.11
538.08	367.46
538.25	458.74
538.42	468.11
538.59	486.83
538.75	425.98
538.92	381.51
539.09	400.23
539.26	435.34
539.43	465.77
539.60	461.09
539.77	411.93
539.94	369.80
540.11	468.11
540.28	435.34
540.44	442.36
540.61	390.87
540.78	365.12
540.95	367.46
541.12	407.25
541.29	374.49
541.46	437.68
541.62	491.51
541.79	458.74
541.96	468.11
542.13	383.85
542.30	418.96
542.47	433.00
542.63	360.44
542.80	388.53
542.97	388.53
543.14	388.53
543.31	493.85
543.48	425.98
543.64	433.00
543.81	447.04
543.98	388.53
544.15	433.00
544.32	362.78
544.48	458.74
544.65	369.80
544.82	346.40
544.99	388.53
545.16	449.38
545.32	428.32
545.49	454.06
545.66	400.23
545.83	353.42
546.00	367.46
546.16	463.43
546.33	484.49
546.50	400.23
546.67	386.19
546.83	421.30
547.00	402.57
547.17	395.55
547.34	397.89
547.50	365.12
547.67	440.02
547.84	430.66
548.00	416.62
548.17	332.36
548.34	372.15
548.51	425.98
548.67	407.25
548.84	376.83
549.01	433.00
549.18	416.62
549.34	482.15
549.51	341.72
549.68	470.45
549.84	463.43
550.01	388.53
550.18	425.98
550.34	486.83
550.51	468.11
550.68	475.13
550.84	411.93
551.01	383.85
551.18	470.45
551.34	369.80
551.51	404.91
551.68	425.98
551.84	477.47
552.01	435.34
552.18	442.36
552.34	500.87
552.51	386.19
552.68	428.32
552.84	442.36
553.01	451.72
553.18	367.46
553.34	475.13
553.51	404.91
553.67	440.02
553.84	388.53
554.01	379.17
554.17	400.23
554.34	437.68
554.51	470.45
554.67	449.38
554.84	493.85
555.00	451.72
555.17	360.44
555.33	411.93
555.50	414.27
555.67	468.11
555.83	365.12
556.00	435.34
556.16	498.53
556.33	472.79
556.50	395.55
556.66	437.68
556.83	402.57
556.99	381.51
557.16	421.30
557.32	381.51
557.49	435.34
557.65	418.96
557.82	411.93
557.98	451.72
558.15	423.64
558.32	500.87
558.48	379.17
558.65	346.40
558.81	430.66
558.98	381.51
559.14	477.47
559.31	416.62
559.47	451.72
559.64	407.25
559.80	496.19
559.97	381.51
560.13	407.25
560.30	381.51
560.46	402.57
560.63	449.38
560.79	367.46
560.96	414.27
561.12	400.23
561.29	407.25
561.45	435.34
561.61	308.95
561.78	489.17
561.94	468.11
562.11	381.51
562.27	395.55
562.44	456.40
562.60	416.62
562.77	430.66
562.93	423.64
563.10	430.66
563.26	353.42
563.42	374.49
563.59	414.27
563.75	381.51
563.92	463.43
564.08	461.09
564.24	479.81
564.41	423.64
564.57	367.46
564.74	458.74
564.90	470.45
565.07	435.34
565.23	435.34
565.39	383.85
565.56	482.15
565.72	381.51
565.88	414.27
566.05	463.43
566.21	376.83
566.38	402.57
566.54	390.87
566.70	477.47
566.87	442.36
567.03	332.36
567.19	458.74
567.36	379.17
567.52	367.46
567.68	418.96
567.85	451.72
568.01	428.32
568.17	454.06
568.34	437.68
568.50	449.38
568.66	365.12
568.83	510.24
568.99	468.11
569.15	472.79
569.32	379.17
569.48	367.46
569.64	374.49
569.81	433.00
569.97	409.59
570.13	423.64
570.30	433.00
570.46	425.98
570.62	404.91
570.78	393.21
570.95	454.06
571.11	402.57
571.27	379.17
571.43	355.76
571.60	430.66
571.76	402.57
571.92	407.25
572.09	374.49
572.25	451.72
572.41	498.53
572.57	390.87
572.74	440.02
572.90	433.00
573.06	404.91
573.22	386.19
573.38	404.91
573.55	416.62
573.71	367.46
573.87	395.55
574.03	381.51
574.20	390.87
574.36	425.98
574.52	407.25
574.68	367.46
574.84	425.98
575.01	447.04
575.17	400.23
575.33	451.72
575.49	425.98
575.65	411.93
575.82	411.93
575.98	421.30
576.14	409.59
576.30	437.68
576.46	414.27
576.62	423.64
576.79	404.91
576.95	409.59
577.11	390.87
577.27	418.96
577.43	458.74
577.59	395.55
577.75	447.04
577.92	337.04
578.08	400.23
578.24	346.40
578.40	442.36
578.56	475.13
578.72	486.83
578.88	482.15
579.04	388.53
579.21	402.57
579.37	430.66
579.53	388.53
579.69	358.10
579.85	388.53
580.01	510.24
580.17	341.72
580.33	362.78
580.49	379.17
580.65	409.59
580.82	407.25
580.98	430.66
581.14	381.51
581.30	458.74
581.46	421.30
581.62	447.04
581.78	404.91
581.94	454.06
582.10	372.15
582.26	358.10
582.42	367.46
582.58	479.81
582.74	435.34
582.90	456.40
583.06	465.77
583.22	428.32
583.38	423.64
583.54	395.55
583.70	393.21
583.86	482.15
584.02	442.36
584.18	477.47
584.34	351.08
584.50	346.40
584.66	358.10
584.82	482.15
584.98	533.64
585.14	468.11
585.30	388.53
585.46	388.53
585.62	416.62
585.78	404.91
585.94	484.49
586.10	442.36
586.26	428.32
586.42	433.00
586.58	440.02
586.74	416.62
586.90	489.17
587.06	425.98
587.22	444.70
587.38	390.87
587.54	383.85
587.70	454.06
587.86	362.78
588.02	388.53
588.18	433.00
588.34	423.64
588.49	374.49
588.65	379.17
588.81	411.93
588.97	334.70
589.13	418.96
589.29	390.87
589.45	444.70
589.61	374.49
589.77	468.11
589.93	440.02
590.08	425.98
590.24	411.93
590.40	440.02
590.56	395.55
590.72	465.77
590.88	425.98
591.04	409.59
591.20	454.06
591.35	503.22
591.51	383.85
591.67	351.08
591.83	376.83
591.99	360.44
592.15	444.70
592.31	402.57
592.46	393.21
592.62	327.68
592.78	451.72
592.94	383.85
593.10	397.89
593.26	423.64
593.41	456.40
593.57	526.62
593.73	346.40
593.89	449.38
594.05	369.80
594.20	407.25
594.36	486.83
594.52	430.66
594.68	496.19
594.84	489.17
594.99	449.38
595.15	465.77
595.31	447.04
595.47	423.64
595.62	442.36
595.78	409.59
595.94	437.68
596.10	421.30
596.25	433.00
596.41	407.25
596.57	376.83
596.73	411.93
596.88	414.27
597.04	397.89
597.20	388.53
597.36	442.36
597.51	411.93
597.67	395.55
597.83	388.53
597.99	435.34
598.14	395.55
598.30	463.43
598.46	416.62
598.61	461.09
598.77	404.91
598.93	383.85
599.09	379.17
599.24	393.21
599.40	393.21
599.56	386.19
599.71	383.85
599.87	388.53
600.03	421.30
600.18	456.40
600.34	458.74
600.50	404.91
600.65	386.19
600.81	367.46
600.97	393.21
601.12	414.27
601.28	327.68
601.44	374.49
601.59	407.25
601.75	383.85
601.91	435.34
602.06	409.59
602.22	437.68
602.37	358.10
602.53	418.96
602.69	402.57
602.84	428.32
603.00	404.91
603.16	425.98
603.31	447.04
603.47	416.62
603.62	334.70
603.78	442.36
603.94	414.27
604.09	440.02
604.25	395.55
604.40	423.64
604.56	451.72
604.71	402.57
604.87	458.74
605.03	404.91
605.18	407.25
605.34	433.00
605.49	423.64
605.65	491.51
605.80	374.49
605.96	376.83
606.12	463.43
606.27	390.87
606.43	458.74
606.58	519.60
606.74	435.34
606.89	379.17
607.05	414.27
607.20	458.74
607.36	416.62
607.51	365.12
607.67	351.08
607.82	381.51
607.98	526.62
608.13	376.83
608.29	346.40
608.44	437.68
608.60	400.23
608.75	367.46
608.91	456.40
609.06	414.27
609.22	433.00
609.37	451.72
609.53	423.64
609.68	379.17
609.84	493.85
609.99	397.89
610.15	472.79
