SpectraSuite Data File
++++++++++++++++++++++++++++++++++++
Date: Fri Oct 25 12:11:04 EDT 2013
User: price-jones
Dark Spectrum Present: No
Reference Spectrum Present: No
Number of Sampled Component Spectra: 1
Spectrometers: USB2+H05261
Integration Time (usec): 100000 (USB2+H05261)
Spectra Averaged: 1 (USB2+H05261)
Boxcar Smoothing: 0 (USB2+H05261)
Correct for Electrical Dark: No (USB2+H05261)
Strobe/Lamp Enabled: No (USB2+H05261)
Correct for Detector Non-linearity: No (USB2+H05261)
Correct for Stray Light: No (USB2+H05261)
Number of Pixels in Processed Spectrum: 2048
>>>>>Begin Processed Spectral Data<<<<<
365.73	322.99
365.92	322.99
366.12	322.99
366.32	273.84
366.52	227.03
366.72	271.50
366.91	227.03
367.11	262.14
367.31	182.56
367.51	208.31
367.70	198.95
367.90	224.69
368.10	187.24
368.30	196.60
368.49	280.86
368.69	301.93
368.89	283.20
369.09	262.14
369.28	255.12
369.48	245.76
369.68	330.02
369.87	322.99
370.07	358.10
370.27	374.49
370.47	355.76
370.66	290.23
370.86	290.23
371.06	306.61
371.25	353.42
371.45	292.57
371.65	337.04
371.84	348.74
372.04	376.83
372.24	447.04
372.44	409.59
372.63	348.74
372.83	393.21
373.03	440.02
373.22	440.02
373.42	404.91
373.62	416.62
373.81	395.55
374.01	454.06
374.21	353.42
374.40	465.77
374.60	451.72
374.79	423.64
374.99	358.10
375.19	367.46
375.38	362.78
375.58	407.25
375.78	447.04
375.97	449.38
376.17	503.22
376.37	367.46
376.56	395.55
376.76	372.15
376.95	393.21
377.15	433.00
377.35	456.40
377.54	395.55
377.74	341.72
377.93	428.32
378.13	435.34
378.33	421.30
378.52	437.68
378.72	428.32
378.91	388.53
379.11	437.68
379.31	404.91
379.50	409.59
379.70	418.96
379.89	458.74
380.09	367.46
380.28	404.91
380.48	383.85
380.68	360.44
380.87	454.06
381.07	400.23
381.26	404.91
381.46	358.10
381.65	414.27
381.85	379.17
382.04	451.72
382.24	397.89
382.43	430.66
382.63	414.27
382.83	423.64
383.02	395.55
383.22	365.12
383.41	362.78
383.61	437.68
383.80	416.62
384.00	360.44
384.19	451.72
384.39	444.70
384.58	372.15
384.78	400.23
384.97	372.15
385.17	320.65
385.36	425.98
385.56	376.83
385.75	402.57
385.95	369.80
386.14	379.17
386.34	376.83
386.53	369.80
386.72	372.15
386.92	341.72
387.11	407.25
387.31	407.25
387.50	400.23
387.70	423.64
387.89	430.66
388.09	395.55
388.28	411.93
388.48	411.93
388.67	475.13
388.86	421.30
389.06	334.70
389.25	376.83
389.45	376.83
389.64	407.25
389.84	381.51
390.03	444.70
390.22	400.23
390.42	454.06
390.61	461.09
390.81	390.87
391.00	369.80
391.19	451.72
391.39	454.06
391.58	421.30
391.78	407.25
391.97	383.85
392.16	397.89
392.36	388.53
392.55	369.80
392.75	400.23
392.94	458.74
393.13	425.98
393.33	339.38
393.52	365.12
393.71	386.19
393.91	454.06
394.10	411.93
394.29	397.89
394.49	411.93
394.68	458.74
394.88	376.83
395.07	418.96
395.26	383.85
395.46	411.93
395.65	388.53
395.84	416.62
396.04	440.02
396.23	433.00
396.42	428.32
396.62	360.44
396.81	468.11
397.00	411.93
397.19	435.34
397.39	477.47
397.58	437.68
397.77	367.46
397.97	468.11
398.16	472.79
398.35	365.12
398.55	386.19
398.74	346.40
398.93	407.25
399.12	428.32
399.32	444.70
399.51	372.15
399.70	421.30
399.90	458.74
400.09	402.57
400.28	383.85
400.47	376.83
400.67	411.93
400.86	468.11
401.05	430.66
401.24	395.55
401.44	428.32
401.63	435.34
401.82	355.76
402.01	369.80
402.21	458.74
402.40	353.42
402.59	414.27
402.78	428.32
402.97	418.96
403.17	337.04
403.36	440.02
403.55	320.65
403.74	390.87
403.93	388.53
404.13	414.27
404.32	390.87
404.51	393.21
404.70	428.32
404.89	404.91
405.09	397.89
405.28	341.72
405.47	416.62
405.66	409.59
405.85	456.40
406.05	416.62
406.24	348.74
406.43	383.85
406.62	400.23
406.81	463.43
407.00	468.11
407.20	470.45
407.39	465.77
407.58	351.08
407.77	428.32
407.96	498.53
408.15	486.83
408.34	390.87
408.54	379.17
408.73	372.15
408.92	463.43
409.11	407.25
409.30	433.00
409.49	421.30
409.68	367.46
409.87	421.30
410.07	463.43
410.26	461.09
410.45	425.98
410.64	299.59
410.83	332.36
411.02	402.57
411.21	454.06
411.40	442.36
411.59	451.72
411.78	433.00
411.98	411.93
412.17	379.17
412.36	437.68
412.55	379.17
412.74	470.45
412.93	414.27
413.12	374.49
413.31	421.30
413.50	477.47
413.69	458.74
413.88	334.70
414.07	386.19
414.26	454.06
414.45	393.21
414.64	416.62
414.83	390.87
415.02	355.76
415.22	390.87
415.41	369.80
415.60	414.27
415.79	416.62
415.98	444.70
416.17	365.12
416.36	341.72
416.55	423.64
416.74	461.09
416.93	402.57
417.12	395.55
417.31	407.25
417.50	348.74
417.69	393.21
417.88	447.04
418.07	407.25
418.26	379.17
418.45	463.43
418.64	475.13
418.83	416.62
419.02	433.00
419.21	437.68
419.39	400.23
419.58	451.72
419.77	379.17
419.96	341.72
420.15	461.09
420.34	369.80
420.53	414.27
420.72	416.62
420.91	440.02
421.10	411.93
421.29	393.21
421.48	351.08
421.67	395.55
421.86	423.64
422.05	341.72
422.24	414.27
422.43	414.27
422.61	374.49
422.80	463.43
422.99	344.06
423.18	400.23
423.37	437.68
423.56	386.19
423.75	440.02
423.94	397.89
424.13	451.72
424.32	416.62
424.50	393.21
424.69	400.23
424.88	423.64
425.07	395.55
425.26	468.11
425.45	440.02
425.64	381.51
425.83	409.59
426.01	437.68
426.20	397.89
426.39	409.59
426.58	489.17
426.77	458.74
426.96	414.27
427.15	430.66
427.33	428.32
427.52	414.27
427.71	416.62
427.90	362.78
428.09	409.59
428.28	440.02
428.46	334.70
428.65	367.46
428.84	409.59
429.03	416.62
429.22	451.72
429.40	374.49
429.59	402.57
429.78	409.59
429.97	447.04
430.16	353.42
430.34	374.49
430.53	367.46
430.72	440.02
430.91	379.17
431.10	449.38
431.28	449.38
431.47	456.40
431.66	367.46
431.85	414.27
432.03	461.09
432.22	470.45
432.41	435.34
432.60	416.62
432.79	440.02
432.97	390.87
433.16	437.68
433.35	407.25
433.54	435.34
433.72	395.55
433.91	409.59
434.10	421.30
434.28	428.32
434.47	395.55
434.66	423.64
434.85	376.83
435.03	337.04
435.22	456.40
435.41	400.23
435.59	409.59
435.78	475.13
435.97	397.89
436.16	465.77
436.34	423.64
436.53	421.30
436.72	400.23
436.90	386.19
437.09	489.17
437.28	407.25
437.46	418.96
437.65	433.00
437.84	475.13
438.02	416.62
438.21	365.12
438.40	388.53
438.58	376.83
438.77	360.44
438.96	423.64
439.14	416.62
439.33	468.11
439.52	362.78
439.70	381.51
439.89	421.30
440.08	482.15
440.26	461.09
440.45	404.91
440.63	449.38
440.82	416.62
441.01	421.30
441.19	444.70
441.38	404.91
441.57	442.36
441.75	386.19
441.94	444.70
442.12	449.38
442.31	428.32
442.50	418.96
442.68	425.98
442.87	386.19
443.05	358.10
443.24	397.89
443.43	451.72
443.61	435.34
443.80	423.64
443.98	362.78
444.17	386.19
444.35	383.85
444.54	428.32
444.73	330.02
444.91	458.74
445.10	409.59
445.28	435.34
445.47	407.25
445.65	449.38
445.84	386.19
446.02	414.27
446.21	376.83
446.39	444.70
446.58	444.70
446.77	351.08
446.95	376.83
447.14	393.21
447.32	402.57
447.51	372.15
447.69	428.32
447.88	423.64
448.06	461.09
448.25	416.62
448.43	468.11
448.62	362.78
448.80	472.79
448.99	353.42
449.17	393.21
449.36	425.98
449.54	428.32
449.73	358.10
449.91	362.78
450.10	421.30
450.28	418.96
450.46	486.83
450.65	425.98
450.83	437.68
451.02	411.93
451.20	400.23
451.39	374.49
451.57	414.27
451.76	491.51
451.94	388.53
452.13	416.62
452.31	442.36
452.49	421.30
452.68	365.12
452.86	386.19
453.05	433.00
453.23	456.40
453.42	416.62
453.60	409.59
453.78	379.17
453.97	395.55
454.15	393.21
454.34	414.27
454.52	390.87
454.70	372.15
454.89	397.89
455.07	372.15
455.26	503.22
455.44	360.44
455.62	358.10
455.81	407.25
455.99	507.90
456.17	418.96
456.36	358.10
456.54	430.66
456.73	456.40
456.91	428.32
457.09	475.13
457.28	454.06
457.46	437.68
457.64	447.04
457.83	402.57
458.01	360.44
458.19	430.66
458.38	433.00
458.56	449.38
458.74	369.80
458.93	418.96
459.11	425.98
459.29	411.93
459.48	383.85
459.66	465.77
459.84	379.17
460.03	496.19
460.21	458.74
460.39	416.62
460.57	388.53
460.76	418.96
460.94	430.66
461.12	433.00
461.31	360.44
461.49	458.74
461.67	372.15
461.85	353.42
462.04	456.40
462.22	826.21
462.40	449.38
462.59	477.47
462.77	381.51
462.95	451.72
463.13	465.77
463.32	482.15
463.50	428.32
463.68	425.98
463.86	393.21
464.05	330.02
464.23	442.36
464.41	409.59
464.59	374.49
464.78	346.40
464.96	355.76
465.14	428.32
465.32	313.63
465.50	416.62
465.69	390.87
465.87	390.87
466.05	477.47
466.23	428.32
466.41	383.85
466.60	416.62
466.78	402.57
466.96	468.11
467.14	402.57
467.32	425.98
467.51	409.59
467.69	425.98
467.87	409.59
468.05	365.12
468.23	447.04
468.41	468.11
468.60	465.77
468.78	341.72
468.96	510.24
469.14	393.21
469.32	402.57
469.50	381.51
469.69	442.36
469.87	423.64
470.05	400.23
470.23	393.21
470.41	341.72
470.59	444.70
470.77	395.55
470.95	409.59
471.14	430.66
471.32	409.59
471.50	442.36
471.68	423.64
471.86	379.17
472.04	458.74
472.22	362.78
472.40	400.23
472.58	430.66
472.77	409.59
472.95	428.32
473.13	425.98
473.31	433.00
473.49	358.10
473.67	461.09
473.85	418.96
474.03	456.40
474.21	428.32
474.39	414.27
474.57	437.68
474.75	383.85
474.93	390.87
475.12	423.64
475.30	402.57
475.48	376.83
475.66	402.57
475.84	395.55
476.02	461.09
476.20	369.80
476.38	425.98
476.56	423.64
476.74	423.64
476.92	449.38
477.10	456.40
477.28	355.76
477.46	411.93
477.64	416.62
477.82	376.83
478.00	383.85
478.18	430.66
478.36	442.36
478.54	409.59
478.72	362.78
478.90	442.36
479.08	388.53
479.26	468.11
479.44	463.43
479.62	470.45
479.80	390.87
479.98	393.21
480.16	430.66
480.34	486.83
480.52	365.12
480.70	411.93
480.88	475.13
481.06	369.80
481.24	437.68
481.41	454.06
481.59	301.93
481.77	393.21
481.95	353.42
482.13	440.02
482.31	402.57
482.49	365.12
482.67	395.55
482.85	367.46
483.03	351.08
483.21	346.40
483.39	425.98
483.57	393.21
483.74	430.66
483.92	458.74
484.10	472.79
484.28	421.30
484.46	451.72
484.64	379.17
484.82	477.47
485.00	334.70
485.18	435.34
485.35	386.19
485.53	376.83
485.71	468.11
485.89	388.53
486.07	428.32
486.25	463.43
486.43	470.45
486.61	437.68
486.78	418.96
486.96	402.57
487.14	475.13
487.32	423.64
487.50	355.76
487.68	489.17
487.85	430.66
488.03	442.36
488.21	444.70
488.39	444.70
488.57	493.85
488.75	447.04
488.92	512.58
489.10	402.57
489.28	451.72
489.46	428.32
489.64	393.21
489.81	400.23
489.99	425.98
490.17	444.70
490.35	430.66
490.53	395.55
490.70	430.66
490.88	421.30
491.06	435.34
491.24	383.85
491.41	458.74
491.59	421.30
491.77	383.85
491.95	341.72
492.13	334.70
492.30	351.08
492.48	381.51
492.66	430.66
492.84	409.59
493.01	407.25
493.19	442.36
493.37	465.77
493.54	407.25
493.72	440.02
493.90	461.09
494.08	416.62
494.25	395.55
494.43	390.87
494.61	416.62
494.79	425.98
494.96	433.00
495.14	454.06
495.32	442.36
495.49	381.51
495.67	362.78
495.85	458.74
496.02	388.53
496.20	440.02
496.38	454.06
496.55	411.93
496.73	362.78
496.91	379.17
497.09	351.08
497.26	383.85
497.44	416.62
497.62	475.13
497.79	484.49
497.97	383.85
498.14	376.83
498.32	346.40
498.50	409.59
498.67	407.25
498.85	397.89
499.03	358.10
499.20	388.53
499.38	465.77
499.56	404.91
499.73	435.34
499.91	444.70
500.08	440.02
500.26	458.74
500.44	414.27
500.61	402.57
500.79	411.93
500.97	381.51
501.14	477.47
501.32	372.15
501.49	402.57
501.67	430.66
501.84	479.81
502.02	337.04
502.20	411.93
502.37	416.62
502.55	395.55
502.72	418.96
502.90	486.83
503.07	440.02
503.25	454.06
503.43	383.85
503.60	393.21
503.78	386.19
503.95	433.00
504.13	376.83
504.30	489.17
504.48	400.23
504.65	353.42
504.83	374.49
505.01	411.93
505.18	397.89
505.36	454.06
505.53	418.96
505.71	362.78
505.88	449.38
506.06	390.87
506.23	437.68
506.41	414.27
506.58	444.70
506.76	360.44
506.93	379.17
507.11	402.57
507.28	400.23
507.46	442.36
507.63	411.93
507.81	435.34
507.98	458.74
508.16	402.57
508.33	411.93
508.50	479.81
508.68	428.32
508.85	461.09
509.03	344.06
509.20	447.04
509.38	421.30
509.55	444.70
509.73	484.49
509.90	458.74
510.08	379.17
510.25	395.55
510.42	470.45
510.60	418.96
510.77	442.36
510.95	437.68
511.12	334.70
511.30	365.12
511.47	416.62
511.64	447.04
511.82	442.36
511.99	365.12
512.17	397.89
512.34	437.68
512.51	313.63
512.69	381.51
512.86	397.89
513.04	411.93
513.21	447.04
513.38	358.10
513.56	393.21
513.73	411.93
513.90	477.47
514.08	411.93
514.25	458.74
514.43	468.11
514.60	435.34
514.77	397.89
514.95	393.21
515.12	334.70
515.29	435.34
515.47	355.76
515.64	409.59
515.81	451.72
515.99	390.87
516.16	477.47
516.33	442.36
516.51	348.74
516.68	421.30
516.85	461.09
517.03	409.59
517.20	449.38
517.37	472.79
517.54	444.70
517.72	409.59
517.89	425.98
518.06	411.93
518.24	397.89
518.41	491.51
518.58	397.89
518.75	423.64
518.93	339.38
519.10	400.23
519.27	369.80
519.45	407.25
519.62	496.19
519.79	425.98
519.96	346.40
520.14	351.08
520.31	414.27
520.48	379.17
520.65	388.53
520.83	468.11
521.00	454.06
521.17	486.83
521.34	425.98
521.52	425.98
521.69	423.64
521.86	360.44
522.03	486.83
522.20	397.89
522.38	400.23
522.55	447.04
522.72	425.98
522.89	407.25
523.07	505.56
523.24	428.32
523.41	423.64
523.58	325.33
523.75	491.51
523.92	411.93
524.10	346.40
524.27	444.70
524.44	447.04
524.61	423.64
524.78	416.62
524.96	379.17
525.13	465.77
525.30	470.45
525.47	449.38
525.64	407.25
525.81	367.46
525.98	437.68
526.16	404.91
526.33	360.44
526.50	437.68
526.67	416.62
526.84	416.62
527.01	402.57
527.18	404.91
527.36	435.34
527.53	418.96
527.70	423.64
527.87	393.21
528.04	451.72
528.21	421.30
528.38	372.15
528.55	454.06
528.72	374.49
528.89	479.81
529.07	376.83
529.24	463.43
529.41	442.36
529.58	409.59
529.75	444.70
529.92	388.53
530.09	402.57
530.26	411.93
530.43	388.53
530.60	395.55
530.77	381.51
530.94	360.44
531.11	461.09
531.28	355.76
531.46	451.72
531.63	437.68
531.80	465.77
531.97	433.00
532.14	418.96
532.31	362.78
532.48	468.11
532.65	367.46
532.82	330.02
532.99	454.06
533.16	512.58
533.33	407.25
533.50	390.87
533.67	358.10
533.84	440.02
534.01	430.66
534.18	416.62
534.35	421.30
534.52	393.21
534.69	454.06
534.86	440.02
535.03	395.55
535.20	402.57
535.37	461.09
535.54	388.53
535.71	397.89
535.88	458.74
536.05	475.13
536.22	411.93
536.38	397.89
536.55	362.78
536.72	397.89
536.89	402.57
537.06	447.04
537.23	428.32
537.40	418.96
537.57	367.46
537.74	484.49
537.91	407.25
538.08	381.51
538.25	493.85
538.42	395.55
538.59	376.83
538.75	411.93
538.92	376.83
539.09	407.25
539.26	411.93
539.43	404.91
539.60	355.76
539.77	425.98
539.94	472.79
540.11	435.34
540.28	484.49
540.44	393.21
540.61	437.68
540.78	418.96
540.95	409.59
541.12	397.89
541.29	482.15
541.46	423.64
541.62	402.57
541.79	425.98
541.96	315.97
542.13	465.77
542.30	456.40
542.47	479.81
542.63	423.64
542.80	456.40
542.97	397.89
543.14	383.85
543.31	416.62
543.48	395.55
543.64	369.80
543.81	465.77
543.98	353.42
544.15	421.30
544.32	454.06
544.48	355.76
544.65	444.70
544.82	407.25
544.99	428.32
545.16	416.62
545.32	365.12
545.49	461.09
545.66	414.27
545.83	369.80
546.00	475.13
546.16	381.51
546.33	322.99
546.50	388.53
546.67	393.21
546.83	390.87
547.00	390.87
547.17	418.96
547.34	337.04
547.50	369.80
547.67	367.46
547.84	397.89
548.00	397.89
548.17	447.04
548.34	423.64
548.51	465.77
548.67	475.13
548.84	421.30
549.01	386.19
549.18	395.55
549.34	444.70
549.51	416.62
549.68	435.34
549.84	442.36
550.01	463.43
550.18	397.89
550.34	444.70
550.51	409.59
550.68	423.64
550.84	379.17
551.01	486.83
551.18	475.13
551.34	458.74
551.51	442.36
551.68	447.04
551.84	411.93
552.01	407.25
552.18	407.25
552.34	451.72
552.51	425.98
552.68	435.34
552.84	393.21
553.01	386.19
553.18	379.17
553.34	428.32
553.51	369.80
553.67	423.64
553.84	428.32
554.01	444.70
554.17	447.04
554.34	409.59
554.51	442.36
554.67	451.72
554.84	376.83
555.00	451.72
555.17	454.06
555.33	463.43
555.50	444.70
555.67	470.45
555.83	423.64
556.00	451.72
556.16	543.00
556.33	475.13
556.50	372.15
556.66	376.83
556.83	397.89
556.99	376.83
557.16	470.45
557.32	479.81
557.49	372.15
557.65	423.64
557.82	414.27
557.98	369.80
558.15	418.96
558.32	381.51
558.48	498.53
558.65	425.98
558.81	458.74
558.98	451.72
559.14	479.81
559.31	388.53
559.47	383.85
559.64	390.87
559.80	386.19
559.97	341.72
560.13	489.17
560.30	428.32
560.46	397.89
560.63	386.19
560.79	388.53
560.96	397.89
561.12	367.46
561.29	418.96
561.45	372.15
561.61	440.02
561.78	451.72
561.94	491.51
562.11	433.00
562.27	369.80
562.44	386.19
562.60	440.02
562.77	351.08
562.93	447.04
563.10	456.40
563.26	414.27
563.42	353.42
563.59	365.12
563.75	362.78
563.92	430.66
564.08	444.70
564.24	369.80
564.41	500.87
564.57	383.85
564.74	369.80
564.90	418.96
565.07	461.09
565.23	444.70
565.39	337.04
565.56	479.81
565.72	430.66
565.88	414.27
566.05	372.15
566.21	463.43
566.38	449.38
566.54	425.98
566.70	414.27
566.87	346.40
567.03	456.40
567.19	440.02
567.36	454.06
567.52	428.32
567.68	470.45
567.85	383.85
568.01	435.34
568.17	411.93
568.34	400.23
568.50	449.38
568.66	379.17
568.83	514.92
568.99	393.21
569.15	381.51
569.32	440.02
569.48	353.42
569.64	411.93
569.81	442.36
569.97	407.25
570.13	390.87
570.30	390.87
570.46	433.00
570.62	430.66
570.78	397.89
570.95	390.87
571.11	435.34
571.27	404.91
571.43	428.32
571.60	397.89
571.76	407.25
571.92	348.74
572.09	458.74
572.25	416.62
572.41	423.64
572.57	435.34
572.74	428.32
572.90	346.40
573.06	360.44
573.22	463.43
573.38	449.38
573.55	404.91
573.71	440.02
573.87	397.89
574.03	418.96
574.20	372.15
574.36	423.64
574.52	404.91
574.68	407.25
574.84	416.62
575.01	386.19
575.17	435.34
575.33	388.53
575.49	475.13
575.65	425.98
575.82	421.30
575.98	369.80
576.14	379.17
576.30	397.89
576.46	393.21
576.62	442.36
576.79	449.38
576.95	454.06
577.11	400.23
577.27	379.17
577.43	454.06
577.59	465.77
577.75	376.83
577.92	425.98
578.08	425.98
578.24	409.59
578.40	514.92
578.56	388.53
578.72	376.83
578.88	430.66
579.04	423.64
579.21	376.83
579.37	465.77
579.53	440.02
579.69	421.30
579.85	400.23
580.01	358.10
580.17	362.78
580.33	397.89
580.49	425.98
580.65	444.70
580.82	390.87
580.98	402.57
581.14	409.59
581.30	442.36
581.46	465.77
581.62	425.98
581.78	386.19
581.94	440.02
582.10	376.83
582.26	411.93
582.42	400.23
582.58	404.91
582.74	449.38
582.90	372.15
583.06	404.91
583.22	395.55
583.38	440.02
583.54	341.72
583.70	433.00
583.86	393.21
584.02	440.02
584.18	395.55
584.34	360.44
584.50	451.72
584.66	496.19
584.82	397.89
584.98	393.21
585.14	397.89
585.30	440.02
585.46	458.74
585.62	369.80
585.78	416.62
585.94	416.62
586.10	484.49
586.26	423.64
586.42	404.91
586.58	402.57
586.74	437.68
586.90	421.30
587.06	421.30
587.22	374.49
587.38	435.34
587.54	461.09
587.70	402.57
587.86	428.32
588.02	358.10
588.18	402.57
588.34	395.55
588.49	374.49
588.65	407.25
588.81	397.89
588.97	465.77
589.13	461.09
589.29	433.00
589.45	409.59
589.61	451.72
589.77	421.30
589.93	308.95
590.08	444.70
590.24	461.09
590.40	418.96
590.56	437.68
590.72	416.62
590.88	351.08
591.04	418.96
591.20	407.25
591.35	484.49
591.51	374.49
591.67	430.66
591.83	425.98
591.99	468.11
592.15	447.04
592.31	447.04
592.46	470.45
592.62	388.53
592.78	315.97
592.94	437.68
593.10	393.21
593.26	332.36
593.41	383.85
593.57	381.51
593.73	425.98
593.89	440.02
594.05	393.21
594.20	423.64
594.36	400.23
594.52	369.80
594.68	442.36
594.84	456.40
594.99	430.66
595.15	407.25
595.31	393.21
595.47	421.30
595.62	414.27
595.78	404.91
595.94	428.32
596.10	479.81
596.25	472.79
596.41	447.04
596.57	369.80
596.73	435.34
596.88	421.30
597.04	376.83
597.20	379.17
597.36	386.19
597.51	437.68
597.67	393.21
597.83	337.04
597.99	472.79
598.14	458.74
598.30	437.68
598.46	463.43
598.61	454.06
598.77	407.25
598.93	400.23
599.09	341.72
599.24	306.61
599.40	430.66
599.56	430.66
599.71	416.62
599.87	451.72
600.03	430.66
600.18	421.30
600.34	447.04
600.50	463.43
600.65	369.80
600.81	411.93
600.97	416.62
601.12	425.98
601.28	381.51
601.44	402.57
601.59	442.36
601.75	407.25
601.91	330.02
602.06	402.57
602.22	461.09
602.37	395.55
602.53	407.25
602.69	463.43
602.84	339.38
603.00	407.25
603.16	388.53
603.31	421.30
603.47	430.66
603.62	376.83
603.78	456.40
603.94	402.57
604.09	433.00
604.25	374.49
604.40	423.64
604.56	367.46
604.71	423.64
604.87	421.30
605.03	404.91
605.18	454.06
605.34	376.83
605.49	416.62
605.65	390.87
605.80	400.23
605.96	433.00
606.12	449.38
606.27	435.34
606.43	435.34
606.58	491.51
606.74	348.74
606.89	425.98
607.05	381.51
607.20	395.55
607.36	416.62
607.51	409.59
607.67	395.55
607.82	425.98
607.98	468.11
608.13	416.62
608.29	493.85
608.44	407.25
608.60	437.68
608.75	409.59
608.91	423.64
609.06	442.36
609.22	433.00
609.37	383.85
609.53	442.36
609.68	395.55
609.84	397.89
609.99	411.93
610.15	430.66
