SpectraSuite Data File
++++++++++++++++++++++++++++++++++++
Date: Fri Oct 25 12:10:25 EDT 2013
User: price-jones
Dark Spectrum Present: No
Reference Spectrum Present: No
Number of Sampled Component Spectra: 1
Spectrometers: USB2+H05261
Integration Time (usec): 100000 (USB2+H05261)
Spectra Averaged: 1 (USB2+H05261)
Boxcar Smoothing: 0 (USB2+H05261)
Correct for Electrical Dark: No (USB2+H05261)
Strobe/Lamp Enabled: No (USB2+H05261)
Correct for Detector Non-linearity: No (USB2+H05261)
Correct for Stray Light: No (USB2+H05261)
Number of Pixels in Processed Spectrum: 2048
>>>>>Begin Processed Spectral Data<<<<<
365.73	381.51
365.92	381.51
366.12	381.51
366.32	292.57
366.52	173.20
366.72	243.42
366.91	262.14
367.11	259.80
367.31	208.31
367.51	241.08
367.70	227.03
367.90	248.10
368.10	280.86
368.30	287.89
368.49	250.44
368.69	348.74
368.89	201.29
369.09	259.80
369.28	280.86
369.48	287.89
369.68	259.80
369.87	276.18
370.07	404.91
370.27	278.52
370.47	383.85
370.66	299.59
370.86	283.20
371.06	337.04
371.25	444.70
371.45	297.25
371.65	379.17
371.84	374.49
372.04	390.87
372.24	376.83
372.44	362.78
372.63	435.34
372.83	411.93
373.03	388.53
373.22	390.87
373.42	444.70
373.62	482.15
373.81	440.02
374.01	484.49
374.21	400.23
374.40	465.77
374.60	416.62
374.79	376.83
374.99	390.87
375.19	465.77
375.38	379.17
375.58	402.57
375.78	418.96
375.97	430.66
376.17	458.74
376.37	416.62
376.56	491.51
376.76	489.17
376.95	430.66
377.15	433.00
377.35	428.32
377.54	390.87
377.74	482.15
377.93	451.72
378.13	447.04
378.33	425.98
378.52	365.12
378.72	437.68
378.91	402.57
379.11	372.15
379.31	369.80
379.50	411.93
379.70	470.45
379.89	379.17
380.09	388.53
380.28	402.57
380.48	386.19
380.68	322.99
380.87	425.98
381.07	386.19
381.26	404.91
381.46	360.44
381.65	447.04
381.85	395.55
382.04	414.27
382.24	393.21
382.43	451.72
382.63	355.76
382.83	444.70
383.02	418.96
383.22	437.68
383.41	386.19
383.61	444.70
383.80	425.98
384.00	465.77
384.19	456.40
384.39	430.66
384.58	367.46
384.78	444.70
384.97	388.53
385.17	341.72
385.36	447.04
385.56	367.46
385.75	388.53
385.95	346.40
386.14	414.27
386.34	388.53
386.53	374.49
386.72	454.06
386.92	388.53
387.11	379.17
387.31	468.11
387.50	383.85
387.70	374.49
387.89	472.79
388.09	362.78
388.28	395.55
388.48	383.85
388.67	484.49
388.86	402.57
389.06	447.04
389.25	379.17
389.45	379.17
389.64	341.72
389.84	437.68
390.03	395.55
390.22	414.27
390.42	454.06
390.61	383.85
390.81	374.49
391.00	428.32
391.19	423.64
391.39	395.55
391.58	463.43
391.78	348.74
391.97	411.93
392.16	383.85
392.36	409.59
392.55	400.23
392.75	435.34
392.94	397.89
393.13	414.27
393.33	418.96
393.52	425.98
393.71	325.33
393.91	484.49
394.10	433.00
394.29	465.77
394.49	400.23
394.68	463.43
394.88	388.53
395.07	435.34
395.26	383.85
395.46	351.08
395.65	409.59
395.84	360.44
396.04	365.12
396.23	414.27
396.42	379.17
396.62	421.30
396.81	451.72
397.00	435.34
397.19	386.19
397.39	454.06
397.58	503.22
397.77	400.23
397.97	351.08
398.16	440.02
398.35	463.43
398.55	393.21
398.74	423.64
398.93	402.57
399.12	351.08
399.32	489.17
399.51	407.25
399.70	386.19
399.90	444.70
400.09	442.36
400.28	440.02
400.47	397.89
400.67	442.36
400.86	372.15
401.05	423.64
401.24	397.89
401.44	369.80
401.63	390.87
401.82	402.57
402.01	393.21
402.21	407.25
402.40	400.23
402.59	372.15
402.78	369.80
402.97	447.04
403.17	458.74
403.36	409.59
403.55	348.74
403.74	397.89
403.93	409.59
404.13	402.57
404.32	409.59
404.51	421.30
404.70	463.43
404.89	337.04
405.09	475.13
405.28	423.64
405.47	365.12
405.66	475.13
405.85	447.04
406.05	397.89
406.24	407.25
406.43	400.23
406.62	395.55
406.81	393.21
407.00	402.57
407.20	395.55
407.39	409.59
407.58	449.38
407.77	388.53
407.96	435.34
408.15	395.55
408.34	449.38
408.54	442.36
408.73	393.21
408.92	416.62
409.11	395.55
409.30	383.85
409.49	402.57
409.68	428.32
409.87	411.93
410.07	397.89
410.26	454.06
410.45	355.76
410.64	428.32
410.83	449.38
411.02	372.15
411.21	461.09
411.40	440.02
411.59	383.85
411.78	381.51
411.98	407.25
412.17	390.87
412.36	402.57
412.55	402.57
412.74	365.12
412.93	535.98
413.12	402.57
413.31	369.80
413.50	360.44
413.69	362.78
413.88	390.87
414.07	400.23
414.26	374.49
414.45	318.31
414.64	411.93
414.83	468.11
415.02	416.62
415.22	428.32
415.41	367.46
415.60	339.38
415.79	409.59
415.98	383.85
416.17	416.62
416.36	409.59
416.55	374.49
416.74	381.51
416.93	400.23
417.12	442.36
417.31	404.91
417.50	322.99
417.69	449.38
417.88	409.59
418.07	425.98
418.26	407.25
418.45	376.83
418.64	430.66
418.83	437.68
419.02	437.68
419.21	440.02
419.39	440.02
419.58	435.34
419.77	407.25
419.96	351.08
420.15	456.40
420.34	458.74
420.53	418.96
420.72	367.46
420.91	414.27
421.10	484.49
421.29	407.25
421.48	388.53
421.67	397.89
421.86	428.32
422.05	390.87
422.24	409.59
422.43	369.80
422.61	416.62
422.80	390.87
422.99	409.59
423.18	395.55
423.37	444.70
423.56	454.06
423.75	416.62
423.94	430.66
424.13	428.32
424.32	365.12
424.50	465.77
424.69	322.99
424.88	470.45
425.07	404.91
425.26	428.32
425.45	400.23
425.64	440.02
425.83	365.12
426.01	437.68
426.20	510.24
426.39	416.62
426.58	425.98
426.77	379.17
426.96	397.89
427.15	374.49
427.33	411.93
427.52	414.27
427.71	461.09
427.90	414.27
428.09	435.34
428.28	334.70
428.46	407.25
428.65	381.51
428.84	388.53
429.03	430.66
429.22	428.32
429.40	428.32
429.59	404.91
429.78	449.38
429.97	351.08
430.16	407.25
430.34	360.44
430.53	402.57
430.72	416.62
430.91	369.80
431.10	365.12
431.28	440.02
431.47	503.22
431.66	430.66
431.85	423.64
432.03	348.74
432.22	430.66
432.41	414.27
432.60	444.70
432.79	407.25
432.97	372.15
433.16	390.87
433.35	416.62
433.54	332.36
433.72	404.91
433.91	454.06
434.10	395.55
434.28	362.78
434.47	407.25
434.66	449.38
434.85	330.02
435.03	379.17
435.22	435.34
435.41	400.23
435.59	383.85
435.78	451.72
435.97	400.23
436.16	397.89
436.34	430.66
436.53	341.72
436.72	435.34
436.90	472.79
437.09	479.81
437.28	458.74
437.46	437.68
437.65	451.72
437.84	404.91
438.02	430.66
438.21	458.74
438.40	407.25
438.58	416.62
438.77	428.32
438.96	395.55
439.14	390.87
439.33	411.93
439.52	416.62
439.70	440.02
439.89	372.15
440.08	409.59
440.26	393.21
440.45	393.21
440.63	379.17
440.82	414.27
441.01	428.32
441.19	491.51
441.38	428.32
441.57	379.17
441.75	451.72
441.94	386.19
442.12	463.43
442.31	423.64
442.50	423.64
442.68	430.66
442.87	418.96
443.05	421.30
443.24	444.70
443.43	414.27
443.61	400.23
443.80	337.04
443.98	379.17
444.17	482.15
444.35	489.17
444.54	409.59
444.73	409.59
444.91	493.85
445.10	334.70
445.28	414.27
445.47	425.98
445.65	447.04
445.84	409.59
446.02	397.89
446.21	369.80
446.39	440.02
446.58	428.32
446.77	379.17
446.95	421.30
447.14	416.62
447.32	423.64
447.51	383.85
447.69	489.17
447.88	393.21
448.06	458.74
448.25	435.34
448.43	383.85
448.62	456.40
448.80	395.55
448.99	423.64
449.17	416.62
449.36	355.76
449.54	416.62
449.73	416.62
449.91	461.09
450.10	407.25
450.28	458.74
450.46	423.64
450.65	400.23
450.83	442.36
451.02	346.40
451.20	395.55
451.39	376.83
451.57	407.25
451.76	362.78
451.94	315.97
452.13	362.78
452.31	369.80
452.49	423.64
452.68	395.55
452.86	444.70
453.05	454.06
453.23	395.55
453.42	362.78
453.60	416.62
453.78	393.21
453.97	388.53
454.15	358.10
454.34	348.74
454.52	379.17
454.70	442.36
454.89	428.32
455.07	409.59
455.26	383.85
455.44	393.21
455.62	423.64
455.81	397.89
455.99	463.43
456.17	365.12
456.36	442.36
456.54	374.49
456.73	374.49
456.91	393.21
457.09	402.57
457.28	458.74
457.46	482.15
457.64	402.57
457.83	418.96
458.01	451.72
458.19	437.68
458.38	423.64
458.56	421.30
458.74	367.46
458.93	407.25
459.11	442.36
459.29	407.25
459.48	437.68
459.66	458.74
459.84	383.85
460.03	589.82
460.21	444.70
460.39	433.00
460.57	421.30
460.76	386.19
460.94	463.43
461.12	484.49
461.31	404.91
461.49	395.55
461.67	395.55
461.85	386.19
462.04	458.74
462.22	791.10
462.40	400.23
462.59	454.06
462.77	397.89
462.95	346.40
463.13	388.53
463.32	416.62
463.50	428.32
463.68	451.72
463.86	437.68
464.05	433.00
464.23	397.89
464.41	397.89
464.59	397.89
464.78	388.53
464.96	435.34
465.14	400.23
465.32	430.66
465.50	425.98
465.69	461.09
465.87	414.27
466.05	442.36
466.23	470.45
466.41	397.89
466.60	388.53
466.78	407.25
466.96	421.30
467.14	383.85
467.32	351.08
467.51	388.53
467.69	365.12
467.87	433.00
468.05	381.51
468.23	447.04
468.41	498.53
468.60	421.30
468.78	428.32
468.96	376.83
469.14	442.36
469.32	402.57
469.50	383.85
469.69	416.62
469.87	486.83
470.05	463.43
470.23	416.62
470.41	365.12
470.59	346.40
470.77	430.66
470.95	339.38
471.14	428.32
471.32	440.02
471.50	390.87
471.68	367.46
471.86	397.89
472.04	376.83
472.22	407.25
472.40	400.23
472.58	390.87
472.77	428.32
472.95	407.25
473.13	491.51
473.31	447.04
473.49	435.34
473.67	395.55
473.85	407.25
474.03	409.59
474.21	449.38
474.39	447.04
474.57	372.15
474.75	461.09
474.93	369.80
475.12	372.15
475.30	442.36
475.48	393.21
475.66	402.57
475.84	440.02
476.02	411.93
476.20	421.30
476.38	423.64
476.56	423.64
476.74	435.34
476.92	402.57
477.10	348.74
477.28	433.00
477.46	416.62
477.64	437.68
477.82	393.21
478.00	402.57
478.18	421.30
478.36	447.04
478.54	379.17
478.72	411.93
478.90	449.38
479.08	444.70
479.26	381.51
479.44	367.46
479.62	351.08
479.80	395.55
479.98	442.36
480.16	414.27
480.34	369.80
480.52	379.17
480.70	423.64
480.88	411.93
481.06	433.00
481.24	411.93
481.41	404.91
481.59	372.15
481.77	416.62
481.95	414.27
482.13	425.98
482.31	379.17
482.49	407.25
482.67	414.27
482.85	430.66
483.03	465.77
483.21	414.27
483.39	425.98
483.57	397.89
483.74	397.89
483.92	425.98
484.10	435.34
484.28	465.77
484.46	493.85
484.64	512.58
484.82	409.59
485.00	306.61
485.18	479.81
485.35	402.57
485.53	390.87
485.71	428.32
485.89	367.46
486.07	393.21
486.25	440.02
486.43	381.51
486.61	451.72
486.78	393.21
486.96	355.76
487.14	365.12
487.32	381.51
487.50	428.32
487.68	409.59
487.85	379.17
488.03	414.27
488.21	418.96
488.39	411.93
488.57	444.70
488.75	381.51
488.92	472.79
489.10	437.68
489.28	379.17
489.46	393.21
489.64	372.15
489.81	440.02
489.99	393.21
490.17	423.64
490.35	400.23
490.53	435.34
490.70	390.87
490.88	447.04
491.06	437.68
491.24	379.17
491.41	463.43
491.59	423.64
491.77	411.93
491.95	407.25
492.13	271.50
492.30	456.40
492.48	393.21
492.66	437.68
492.84	395.55
493.01	365.12
493.19	395.55
493.37	449.38
493.54	470.45
493.72	447.04
493.90	479.81
494.08	458.74
494.25	402.57
494.43	402.57
494.61	411.93
494.79	367.46
494.96	428.32
495.14	353.42
495.32	456.40
495.49	507.90
495.67	456.40
495.85	358.10
496.02	337.04
496.20	475.13
496.38	468.11
496.55	353.42
496.73	397.89
496.91	430.66
497.09	421.30
497.26	379.17
497.44	379.17
497.62	421.30
497.79	421.30
497.97	404.91
498.14	423.64
498.32	468.11
498.50	381.51
498.67	430.66
498.85	386.19
499.03	407.25
499.20	468.11
499.38	407.25
499.56	346.40
499.73	402.57
499.91	437.68
500.08	451.72
500.26	393.21
500.44	428.32
500.61	442.36
500.79	491.51
500.97	461.09
501.14	463.43
501.32	388.53
501.49	386.19
501.67	428.32
501.84	411.93
502.02	409.59
502.20	465.77
502.37	505.56
502.55	428.32
502.72	365.12
502.90	451.72
503.07	411.93
503.25	367.46
503.43	390.87
503.60	362.78
503.78	437.68
503.95	351.08
504.13	454.06
504.30	435.34
504.48	472.79
504.65	449.38
504.83	475.13
505.01	444.70
505.18	407.25
505.36	404.91
505.53	407.25
505.71	383.85
505.88	505.56
506.06	362.78
506.23	428.32
506.41	397.89
506.58	456.40
506.76	355.76
506.93	430.66
507.11	472.79
507.28	437.68
507.46	395.55
507.63	477.47
507.81	372.15
507.98	301.93
508.16	334.70
508.33	486.83
508.50	433.00
508.68	451.72
508.85	423.64
509.03	407.25
509.20	369.80
509.38	416.62
509.55	454.06
509.73	477.47
509.90	414.27
510.08	369.80
510.25	409.59
510.42	407.25
510.60	444.70
510.77	397.89
510.95	442.36
511.12	358.10
511.30	409.59
511.47	454.06
511.64	451.72
511.82	425.98
511.99	444.70
512.17	484.49
512.34	486.83
512.51	430.66
512.69	423.64
512.86	402.57
513.04	416.62
513.21	414.27
513.38	500.87
513.56	374.49
513.73	411.93
513.90	442.36
514.08	475.13
514.25	393.21
514.43	433.00
514.60	416.62
514.77	409.59
514.95	425.98
515.12	423.64
515.29	362.78
515.47	472.79
515.64	369.80
515.81	454.06
515.99	404.91
516.16	430.66
516.33	454.06
516.51	428.32
516.68	341.72
516.85	428.32
517.03	346.40
517.20	423.64
517.37	430.66
517.54	346.40
517.72	440.02
517.89	390.87
518.06	369.80
518.24	507.90
518.41	496.19
518.58	397.89
518.75	381.51
518.93	372.15
519.10	421.30
519.27	428.32
519.45	369.80
519.62	360.44
519.79	435.34
519.96	430.66
520.14	416.62
520.31	402.57
520.48	397.89
520.65	449.38
520.83	472.79
521.00	418.96
521.17	437.68
521.34	358.10
521.52	400.23
521.69	397.89
521.86	440.02
522.03	454.06
522.20	362.78
522.38	416.62
522.55	414.27
522.72	416.62
522.89	491.51
523.07	374.49
523.24	393.21
523.41	437.68
523.58	428.32
523.75	386.19
523.92	393.21
524.10	395.55
524.27	367.46
524.44	379.17
524.61	416.62
524.78	362.78
524.96	407.25
525.13	404.91
525.30	479.81
525.47	425.98
525.64	489.17
525.81	458.74
525.98	393.21
526.16	521.94
526.33	463.43
526.50	414.27
526.67	376.83
526.84	400.23
527.01	451.72
527.18	393.21
527.36	423.64
527.53	409.59
527.70	414.27
527.87	362.78
528.04	449.38
528.21	404.91
528.38	423.64
528.55	430.66
528.72	479.81
528.89	414.27
529.07	416.62
529.24	477.47
529.41	444.70
529.58	437.68
529.75	360.44
529.92	393.21
530.09	393.21
530.26	444.70
530.43	418.96
530.60	421.30
530.77	400.23
530.94	447.04
531.11	397.89
531.28	397.89
531.46	381.51
531.63	383.85
531.80	430.66
531.97	421.30
532.14	397.89
532.31	407.25
532.48	461.09
532.65	400.23
532.82	407.25
532.99	433.00
533.16	369.80
533.33	383.85
533.50	353.42
533.67	351.08
533.84	472.79
534.01	411.93
534.18	435.34
534.35	400.23
534.52	414.27
534.69	486.83
534.86	463.43
535.03	374.49
535.20	409.59
535.37	482.15
535.54	341.72
535.71	470.45
535.88	437.68
536.05	444.70
536.22	332.36
536.38	337.04
536.55	407.25
536.72	395.55
536.89	353.42
537.06	451.72
537.23	437.68
537.40	395.55
537.57	414.27
537.74	477.47
537.91	444.70
538.08	428.32
538.25	386.19
538.42	409.59
538.59	454.06
538.75	383.85
538.92	365.12
539.09	430.66
539.26	402.57
539.43	421.30
539.60	444.70
539.77	472.79
539.94	414.27
540.11	479.81
540.28	465.77
540.44	390.87
540.61	418.96
540.78	414.27
540.95	374.49
541.12	428.32
541.29	447.04
541.46	411.93
541.62	360.44
541.79	386.19
541.96	463.43
542.13	388.53
542.30	402.57
542.47	376.83
542.63	404.91
542.80	421.30
542.97	423.64
543.14	414.27
543.31	428.32
543.48	390.87
543.64	374.49
543.81	425.98
543.98	451.72
544.15	388.53
544.32	477.47
544.48	440.02
544.65	418.96
544.82	489.17
544.99	447.04
545.16	475.13
545.32	423.64
545.49	369.80
545.66	388.53
545.83	360.44
546.00	390.87
546.16	449.38
546.33	421.30
546.50	400.23
546.67	472.79
546.83	479.81
547.00	418.96
547.17	512.58
547.34	411.93
547.50	463.43
547.67	442.36
547.84	388.53
548.00	334.70
548.17	395.55
548.34	418.96
548.51	437.68
548.67	381.51
548.84	470.45
549.01	400.23
549.18	423.64
549.34	423.64
549.51	386.19
549.68	416.62
549.84	418.96
550.01	409.59
550.18	521.94
550.34	503.22
550.51	414.27
550.68	444.70
550.84	454.06
551.01	430.66
551.18	454.06
551.34	428.32
551.51	404.91
551.68	414.27
551.84	528.96
552.01	421.30
552.18	491.51
552.34	386.19
552.51	451.72
552.68	407.25
552.84	463.43
553.01	430.66
553.18	425.98
553.34	334.70
553.51	404.91
553.67	477.47
553.84	423.64
554.01	430.66
554.17	500.87
554.34	435.34
554.51	374.49
554.67	475.13
554.84	458.74
555.00	493.85
555.17	454.06
555.33	440.02
555.50	376.83
555.67	437.68
555.83	393.21
556.00	395.55
556.16	524.28
556.33	400.23
556.50	365.12
556.66	451.72
556.83	388.53
556.99	379.17
557.16	402.57
557.32	416.62
557.49	433.00
557.65	411.93
557.82	369.80
557.98	496.19
558.15	395.55
558.32	447.04
558.48	461.09
558.65	395.55
558.81	416.62
558.98	418.96
559.14	512.58
559.31	365.12
559.47	423.64
559.64	416.62
559.80	437.68
559.97	411.93
560.13	414.27
560.30	360.44
560.46	374.49
560.63	486.83
560.79	430.66
560.96	425.98
561.12	418.96
561.29	358.10
561.45	388.53
561.61	491.51
561.78	468.11
561.94	421.30
562.11	409.59
562.27	421.30
562.44	416.62
562.60	447.04
562.77	365.12
562.93	479.81
563.10	491.51
563.26	496.19
563.42	383.85
563.59	379.17
563.75	428.32
563.92	428.32
564.08	475.13
564.24	456.40
564.41	470.45
564.57	482.15
564.74	400.23
564.90	465.77
565.07	435.34
565.23	390.87
565.39	440.02
565.56	425.98
565.72	411.93
565.88	409.59
566.05	461.09
566.21	365.12
566.38	447.04
566.54	395.55
566.70	465.77
566.87	484.49
567.03	440.02
567.19	425.98
567.36	470.45
567.52	404.91
567.68	409.59
567.85	444.70
568.01	355.76
568.17	442.36
568.34	404.91
568.50	503.22
568.66	428.32
568.83	449.38
568.99	435.34
569.15	449.38
569.32	402.57
569.48	458.74
569.64	437.68
569.81	418.96
569.97	407.25
570.13	468.11
570.30	409.59
570.46	430.66
570.62	449.38
570.78	428.32
570.95	397.89
571.11	468.11
571.27	477.47
571.43	418.96
571.60	404.91
571.76	451.72
571.92	407.25
572.09	369.80
572.25	442.36
572.41	458.74
572.57	409.59
572.74	496.19
572.90	397.89
573.06	461.09
573.22	428.32
573.38	458.74
573.55	479.81
573.71	435.34
573.87	339.38
574.03	416.62
574.20	428.32
574.36	465.77
574.52	454.06
574.68	367.46
574.84	437.68
575.01	404.91
575.17	482.15
575.33	447.04
575.49	458.74
575.65	404.91
575.82	332.36
575.98	404.91
576.14	411.93
576.30	465.77
576.46	337.04
576.62	355.76
576.79	447.04
576.95	360.44
577.11	421.30
577.27	435.34
577.43	451.72
577.59	423.64
577.75	482.15
577.92	416.62
578.08	348.74
578.24	449.38
578.40	430.66
578.56	409.59
578.72	475.13
578.88	468.11
579.04	416.62
579.21	463.43
579.37	461.09
579.53	337.04
579.69	437.68
579.85	379.17
580.01	416.62
580.17	414.27
580.33	456.40
580.49	454.06
580.65	400.23
580.82	381.51
580.98	372.15
581.14	379.17
581.30	451.72
581.46	365.12
581.62	423.64
581.78	414.27
581.94	393.21
582.10	374.49
582.26	444.70
582.42	386.19
582.58	402.57
582.74	327.68
582.90	423.64
583.06	454.06
583.22	390.87
583.38	341.72
583.54	397.89
583.70	526.62
583.86	425.98
584.02	407.25
584.18	437.68
584.34	444.70
584.50	416.62
584.66	414.27
584.82	409.59
584.98	402.57
585.14	423.64
585.30	470.45
585.46	444.70
585.62	440.02
585.78	440.02
585.94	449.38
586.10	409.59
586.26	367.46
586.42	458.74
586.58	344.06
586.74	386.19
586.90	402.57
587.06	430.66
587.22	341.72
587.38	458.74
587.54	353.42
587.70	423.64
587.86	355.76
588.02	379.17
588.18	442.36
588.34	411.93
588.49	379.17
588.65	369.80
588.81	353.42
588.97	472.79
589.13	381.51
589.29	433.00
589.45	465.77
589.61	454.06
589.77	358.10
589.93	334.70
590.08	402.57
590.24	355.76
590.40	433.00
590.56	400.23
590.72	543.00
590.88	372.15
591.04	360.44
591.20	442.36
591.35	409.59
591.51	449.38
591.67	390.87
591.83	421.30
591.99	423.64
592.15	404.91
592.31	425.98
592.46	397.89
592.62	402.57
592.78	353.42
592.94	395.55
593.10	423.64
593.26	411.93
593.41	425.98
593.57	330.02
593.73	383.85
593.89	451.72
594.05	475.13
594.20	437.68
594.36	456.40
594.52	381.51
594.68	388.53
594.84	322.99
594.99	369.80
595.15	390.87
595.31	461.09
595.47	447.04
595.62	411.93
595.78	468.11
595.94	418.96
596.10	421.30
596.25	454.06
596.41	404.91
596.57	437.68
596.73	447.04
596.88	402.57
597.04	416.62
597.20	411.93
597.36	430.66
597.51	386.19
597.67	430.66
597.83	451.72
597.99	451.72
598.14	430.66
598.30	407.25
598.46	374.49
598.61	491.51
598.77	374.49
598.93	379.17
599.09	440.02
599.24	360.44
599.40	416.62
599.56	435.34
599.71	369.80
599.87	477.47
600.03	444.70
600.18	486.83
600.34	423.64
600.50	411.93
600.65	428.32
600.81	456.40
600.97	425.98
601.12	374.49
601.28	470.45
601.44	386.19
601.59	362.78
601.75	428.32
601.91	388.53
602.06	379.17
602.22	470.45
602.37	433.00
602.53	440.02
602.69	463.43
602.84	423.64
603.00	409.59
603.16	423.64
603.31	463.43
603.47	437.68
603.62	440.02
603.78	421.30
603.94	425.98
604.09	414.27
604.25	374.49
604.40	386.19
604.56	400.23
604.71	423.64
604.87	362.78
605.03	414.27
605.18	397.89
605.34	461.09
605.49	442.36
605.65	411.93
605.80	411.93
605.96	386.19
606.12	428.32
606.27	479.81
606.43	461.09
606.58	407.25
606.74	414.27
606.89	442.36
607.05	451.72
607.20	404.91
607.36	437.68
607.51	376.83
607.67	458.74
607.82	437.68
607.98	440.02
608.13	411.93
608.29	360.44
608.44	423.64
608.60	416.62
608.75	454.06
608.91	463.43
609.06	433.00
609.22	470.45
609.37	458.74
609.53	383.85
609.68	411.93
609.84	362.78
609.99	456.40
610.15	451.72
