SpectraSuite Data File
++++++++++++++++++++++++++++++++++++
Date: Fri Oct 25 12:10:55 EDT 2013
User: price-jones
Dark Spectrum Present: No
Reference Spectrum Present: No
Number of Sampled Component Spectra: 1
Spectrometers: USB2+H05261
Integration Time (usec): 100000 (USB2+H05261)
Spectra Averaged: 1 (USB2+H05261)
Boxcar Smoothing: 0 (USB2+H05261)
Correct for Electrical Dark: No (USB2+H05261)
Strobe/Lamp Enabled: No (USB2+H05261)
Correct for Detector Non-linearity: No (USB2+H05261)
Correct for Stray Light: No (USB2+H05261)
Number of Pixels in Processed Spectrum: 2048
>>>>>Begin Processed Spectral Data<<<<<
365.73	400.23
365.92	400.23
366.12	400.23
366.32	297.25
366.52	203.63
366.72	259.80
366.91	276.18
367.11	243.42
367.31	175.54
367.51	255.12
367.70	236.39
367.90	215.33
368.10	287.89
368.30	245.76
368.49	220.01
368.69	287.89
368.89	266.82
369.09	241.08
369.28	327.68
369.48	266.82
369.68	266.82
369.87	234.05
370.07	290.23
370.27	395.55
370.47	337.04
370.66	355.76
370.86	327.68
371.06	414.27
371.25	383.85
371.45	362.78
371.65	425.98
371.84	409.59
372.04	404.91
372.24	362.78
372.44	337.04
372.63	360.44
372.83	330.02
373.03	383.85
373.22	400.23
373.42	433.00
373.62	365.12
373.81	437.68
374.01	475.13
374.21	425.98
374.40	421.30
374.60	428.32
374.79	458.74
374.99	444.70
375.19	489.17
375.38	430.66
375.58	386.19
375.78	465.77
375.97	458.74
376.17	407.25
376.37	468.11
376.56	428.32
376.76	395.55
376.95	468.11
377.15	402.57
377.35	416.62
377.54	404.91
377.74	416.62
377.93	348.74
378.13	411.93
378.33	334.70
378.52	442.36
378.72	421.30
378.91	454.06
379.11	442.36
379.31	423.64
379.50	404.91
379.70	367.46
379.89	421.30
380.09	383.85
380.28	376.83
380.48	395.55
380.68	437.68
380.87	353.42
381.07	414.27
381.26	397.89
381.46	402.57
381.65	397.89
381.85	346.40
382.04	393.21
382.24	411.93
382.43	390.87
382.63	327.68
382.83	348.74
383.02	393.21
383.22	519.60
383.41	397.89
383.61	458.74
383.80	390.87
384.00	418.96
384.19	463.43
384.39	425.98
384.58	351.08
384.78	440.02
384.97	416.62
385.17	472.79
385.36	381.51
385.56	442.36
385.75	418.96
385.95	341.72
386.14	435.34
386.34	454.06
386.53	407.25
386.72	393.21
386.92	386.19
387.11	428.32
387.31	390.87
387.50	409.59
387.70	409.59
387.89	409.59
388.09	433.00
388.28	428.32
388.48	360.44
388.67	409.59
388.86	505.56
389.06	400.23
389.25	425.98
389.45	416.62
389.64	470.45
389.84	400.23
390.03	421.30
390.22	409.59
390.42	418.96
390.61	433.00
390.81	500.87
391.00	358.10
391.19	425.98
391.39	416.62
391.58	409.59
391.78	416.62
391.97	404.91
392.16	341.72
392.36	409.59
392.55	491.51
392.75	416.62
392.94	330.02
393.13	414.27
393.33	365.12
393.52	402.57
393.71	390.87
393.91	421.30
394.10	386.19
394.29	449.38
394.49	458.74
394.68	428.32
394.88	447.04
395.07	423.64
395.26	414.27
395.46	367.46
395.65	435.34
395.84	393.21
396.04	428.32
396.23	353.42
396.42	402.57
396.62	463.43
396.81	449.38
397.00	395.55
397.19	365.12
397.39	404.91
397.58	435.34
397.77	383.85
397.97	416.62
398.16	435.34
398.35	369.80
398.55	355.76
398.74	402.57
398.93	390.87
399.12	348.74
399.32	376.83
399.51	381.51
399.70	472.79
399.90	496.19
400.09	451.72
400.28	372.15
400.47	353.42
400.67	423.64
400.86	404.91
401.05	397.89
401.24	404.91
401.44	414.27
401.63	320.65
401.82	451.72
402.01	435.34
402.21	376.83
402.40	360.44
402.59	430.66
402.78	360.44
402.97	379.17
403.17	383.85
403.36	341.72
403.55	447.04
403.74	386.19
403.93	346.40
404.13	440.02
404.32	339.38
404.51	425.98
404.70	456.40
404.89	348.74
405.09	418.96
405.28	355.76
405.47	421.30
405.66	451.72
405.85	430.66
406.05	402.57
406.24	451.72
406.43	416.62
406.62	397.89
406.81	461.09
407.00	395.55
407.20	360.44
407.39	447.04
407.58	416.62
407.77	437.68
407.96	351.08
408.15	355.76
408.34	397.89
408.54	402.57
408.73	332.36
408.92	402.57
409.11	433.00
409.30	433.00
409.49	430.66
409.68	386.19
409.87	411.93
410.07	418.96
410.26	416.62
410.45	351.08
410.64	423.64
410.83	416.62
411.02	451.72
411.21	442.36
411.40	388.53
411.59	470.45
411.78	374.49
411.98	395.55
412.17	425.98
412.36	430.66
412.55	402.57
412.74	449.38
412.93	456.40
413.12	402.57
413.31	418.96
413.50	379.17
413.69	437.68
413.88	468.11
414.07	404.91
414.26	425.98
414.45	376.83
414.64	477.47
414.83	423.64
415.02	451.72
415.22	421.30
415.41	421.30
415.60	376.83
415.79	418.96
415.98	397.89
416.17	458.74
416.36	430.66
416.55	411.93
416.74	461.09
416.93	461.09
417.12	407.25
417.31	393.21
417.50	416.62
417.69	456.40
417.88	416.62
418.07	372.15
418.26	451.72
418.45	383.85
418.64	390.87
418.83	397.89
419.02	428.32
419.21	440.02
419.39	423.64
419.58	376.83
419.77	390.87
419.96	409.59
420.15	400.23
420.34	390.87
420.53	437.68
420.72	416.62
420.91	393.21
421.10	489.17
421.29	360.44
421.48	449.38
421.67	482.15
421.86	369.80
422.05	411.93
422.24	416.62
422.43	409.59
422.61	428.32
422.80	381.51
422.99	397.89
423.18	397.89
423.37	433.00
423.56	395.55
423.75	423.64
423.94	416.62
424.13	407.25
424.32	404.91
424.50	496.19
424.69	414.27
424.88	397.89
425.07	449.38
425.26	372.15
425.45	360.44
425.64	435.34
425.83	430.66
426.01	383.85
426.20	418.96
426.39	397.89
426.58	390.87
426.77	381.51
426.96	346.40
427.15	411.93
427.33	411.93
427.52	369.80
427.71	435.34
427.90	444.70
428.09	402.57
428.28	358.10
428.46	414.27
428.65	418.96
428.84	337.04
429.03	379.17
429.22	433.00
429.40	414.27
429.59	395.55
429.78	365.12
429.97	407.25
430.16	351.08
430.34	407.25
430.53	395.55
430.72	381.51
430.91	442.36
431.10	433.00
431.28	330.02
431.47	369.80
431.66	409.59
431.85	404.91
432.03	414.27
432.22	423.64
432.41	418.96
432.60	444.70
432.79	325.33
432.97	397.89
433.16	365.12
433.35	374.49
433.54	362.78
433.72	414.27
433.91	470.45
434.10	400.23
434.28	376.83
434.47	388.53
434.66	411.93
434.85	367.46
435.03	444.70
435.22	482.15
435.41	449.38
435.59	362.78
435.78	425.98
435.97	346.40
436.16	447.04
436.34	454.06
436.53	395.55
436.72	514.92
436.90	475.13
437.09	367.46
437.28	409.59
437.46	407.25
437.65	395.55
437.84	421.30
438.02	414.27
438.21	447.04
438.40	447.04
438.58	418.96
438.77	374.49
438.96	409.59
439.14	381.51
439.33	458.74
439.52	409.59
439.70	367.46
439.89	397.89
440.08	454.06
440.26	475.13
440.45	472.79
440.63	404.91
440.82	444.70
441.01	400.23
441.19	395.55
441.38	360.44
441.57	365.12
441.75	475.13
441.94	341.72
442.12	433.00
442.31	355.76
442.50	400.23
442.68	376.83
442.87	365.12
443.05	374.49
443.24	390.87
443.43	400.23
443.61	477.47
443.80	444.70
443.98	404.91
444.17	423.64
444.35	463.43
444.54	458.74
444.73	463.43
444.91	470.45
445.10	451.72
445.28	435.34
445.47	433.00
445.65	404.91
445.84	313.63
446.02	358.10
446.21	318.31
446.39	472.79
446.58	437.68
446.77	428.32
446.95	465.77
447.14	358.10
447.32	461.09
447.51	369.80
447.69	402.57
447.88	472.79
448.06	454.06
448.25	411.93
448.43	435.34
448.62	379.17
448.80	470.45
448.99	393.21
449.17	381.51
449.36	444.70
449.54	383.85
449.73	369.80
449.91	390.87
450.10	409.59
450.28	451.72
450.46	400.23
450.65	402.57
450.83	416.62
451.02	327.68
451.20	440.02
451.39	411.93
451.57	428.32
451.76	437.68
451.94	421.30
452.13	444.70
452.31	423.64
452.49	451.72
452.68	437.68
452.86	360.44
453.05	437.68
453.23	341.72
453.42	404.91
453.60	372.15
453.78	388.53
453.97	416.62
454.15	360.44
454.34	463.43
454.52	372.15
454.70	433.00
454.89	404.91
455.07	444.70
455.26	414.27
455.44	423.64
455.62	355.76
455.81	355.76
455.99	407.25
456.17	402.57
456.36	425.98
456.54	379.17
456.73	423.64
456.91	390.87
457.09	404.91
457.28	374.49
457.46	423.64
457.64	447.04
457.83	437.68
458.01	463.43
458.19	414.27
458.38	355.76
458.56	330.02
458.74	365.12
458.93	444.70
459.11	353.42
459.29	376.83
459.48	486.83
459.66	479.81
459.84	463.43
460.03	505.56
460.21	397.89
460.39	416.62
460.57	421.30
460.76	423.64
460.94	433.00
461.12	423.64
461.31	381.51
461.49	423.64
461.67	362.78
461.85	454.06
462.04	388.53
462.22	837.91
462.40	395.55
462.59	477.47
462.77	477.47
462.95	437.68
463.13	348.74
463.32	456.40
463.50	388.53
463.68	353.42
463.86	423.64
464.05	381.51
464.23	379.17
464.41	407.25
464.59	423.64
464.78	379.17
464.96	374.49
465.14	428.32
465.32	358.10
465.50	430.66
465.69	409.59
465.87	379.17
466.05	454.06
466.23	404.91
466.41	411.93
466.60	468.11
466.78	409.59
466.96	449.38
467.14	477.47
467.32	470.45
467.51	514.92
467.69	470.45
467.87	514.92
468.05	475.13
468.23	454.06
468.41	425.98
468.60	423.64
468.78	433.00
468.96	451.72
469.14	423.64
469.32	341.72
469.50	418.96
469.69	367.46
469.87	407.25
470.05	447.04
470.23	400.23
470.41	351.08
470.59	351.08
470.77	404.91
470.95	355.76
471.14	475.13
471.32	337.04
471.50	465.77
471.68	402.57
471.86	407.25
472.04	423.64
472.22	465.77
472.40	344.06
472.58	400.23
472.77	362.78
472.95	416.62
473.13	472.79
473.31	386.19
473.49	374.49
473.67	409.59
473.85	388.53
474.03	458.74
474.21	468.11
474.39	414.27
474.57	407.25
474.75	407.25
474.93	400.23
475.12	437.68
475.30	437.68
475.48	421.30
475.66	404.91
475.84	418.96
476.02	414.27
476.20	409.59
476.38	416.62
476.56	447.04
476.74	386.19
476.92	465.77
477.10	428.32
477.28	447.04
477.46	393.21
477.64	444.70
477.82	423.64
478.00	423.64
478.18	400.23
478.36	428.32
478.54	386.19
478.72	358.10
478.90	348.74
479.08	421.30
479.26	393.21
479.44	505.56
479.62	383.85
479.80	444.70
479.98	381.51
480.16	425.98
480.34	437.68
480.52	409.59
480.70	444.70
480.88	379.17
481.06	376.83
481.24	390.87
481.41	423.64
481.59	465.77
481.77	505.56
481.95	362.78
482.13	411.93
482.31	468.11
482.49	355.76
482.67	409.59
482.85	369.80
483.03	435.34
483.21	423.64
483.39	383.85
483.57	418.96
483.74	440.02
483.92	397.89
484.10	440.02
484.28	449.38
484.46	425.98
484.64	465.77
484.82	407.25
485.00	383.85
485.18	404.91
485.35	416.62
485.53	374.49
485.71	437.68
485.89	374.49
486.07	425.98
486.25	414.27
486.43	414.27
486.61	409.59
486.78	475.13
486.96	444.70
487.14	360.44
487.32	379.17
487.50	402.57
487.68	437.68
487.85	379.17
488.03	322.99
488.21	411.93
488.39	390.87
488.57	402.57
488.75	339.38
488.92	449.38
489.10	407.25
489.28	442.36
489.46	418.96
489.64	407.25
489.81	421.30
489.99	423.64
490.17	353.42
490.35	479.81
490.53	475.13
490.70	367.46
490.88	407.25
491.06	344.06
491.24	458.74
491.41	365.12
491.59	470.45
491.77	430.66
491.95	411.93
492.13	425.98
492.30	461.09
492.48	433.00
492.66	374.49
492.84	400.23
493.01	423.64
493.19	393.21
493.37	433.00
493.54	404.91
493.72	402.57
493.90	423.64
494.08	400.23
494.25	411.93
494.43	367.46
494.61	388.53
494.79	369.80
494.96	451.72
495.14	440.02
495.32	353.42
495.49	355.76
495.67	491.51
495.85	313.63
496.02	360.44
496.20	390.87
496.38	400.23
496.55	414.27
496.73	444.70
496.91	404.91
497.09	409.59
497.26	414.27
497.44	348.74
497.62	416.62
497.79	397.89
497.97	437.68
498.14	449.38
498.32	418.96
498.50	428.32
498.67	484.49
498.85	400.23
499.03	404.91
499.20	433.00
499.38	383.85
499.56	414.27
499.73	388.53
499.91	409.59
500.08	400.23
500.26	397.89
500.44	400.23
500.61	404.91
500.79	386.19
500.97	428.32
501.14	393.21
501.32	440.02
501.49	451.72
501.67	425.98
501.84	423.64
502.02	393.21
502.20	409.59
502.37	397.89
502.55	383.85
502.72	367.46
502.90	379.17
503.07	428.32
503.25	498.53
503.43	444.70
503.60	451.72
503.78	418.96
503.95	390.87
504.13	449.38
504.30	437.68
504.48	411.93
504.65	337.04
504.83	379.17
505.01	383.85
505.18	409.59
505.36	341.72
505.53	418.96
505.71	388.53
505.88	428.32
506.06	423.64
506.23	404.91
506.41	400.23
506.58	341.72
506.76	447.04
506.93	416.62
507.11	449.38
507.28	454.06
507.46	409.59
507.63	416.62
507.81	344.06
507.98	351.08
508.16	475.13
508.33	395.55
508.50	383.85
508.68	400.23
508.85	355.76
509.03	348.74
509.20	440.02
509.38	397.89
509.55	407.25
509.73	369.80
509.90	433.00
510.08	381.51
510.25	435.34
510.42	442.36
510.60	489.17
510.77	390.87
510.95	428.32
511.12	414.27
511.30	444.70
511.47	428.32
511.64	461.09
511.82	449.38
511.99	463.43
512.17	470.45
512.34	428.32
512.51	430.66
512.69	367.46
512.86	463.43
513.04	411.93
513.21	416.62
513.38	463.43
513.56	353.42
513.73	332.36
513.90	449.38
514.08	447.04
514.25	489.17
514.43	372.15
514.60	402.57
514.77	400.23
514.95	386.19
515.12	351.08
515.29	416.62
515.47	374.49
515.64	440.02
515.81	414.27
515.99	435.34
516.16	395.55
516.33	451.72
516.51	416.62
516.68	320.65
516.85	428.32
517.03	437.68
517.20	362.78
517.37	416.62
517.54	461.09
517.72	477.47
517.89	428.32
518.06	390.87
518.24	409.59
518.41	418.96
518.58	440.02
518.75	425.98
518.93	425.98
519.10	409.59
519.27	397.89
519.45	442.36
519.62	442.36
519.79	442.36
519.96	325.33
520.14	416.62
520.31	535.98
520.48	425.98
520.65	395.55
520.83	421.30
521.00	447.04
521.17	409.59
521.34	458.74
521.52	447.04
521.69	463.43
521.86	379.17
522.03	404.91
522.20	456.40
522.38	409.59
522.55	353.42
522.72	351.08
522.89	458.74
523.07	390.87
523.24	393.21
523.41	437.68
523.58	414.27
523.75	428.32
523.92	423.64
524.10	395.55
524.27	383.85
524.44	397.89
524.61	418.96
524.78	454.06
524.96	404.91
525.13	334.70
525.30	395.55
525.47	449.38
525.64	477.47
525.81	414.27
525.98	458.74
526.16	369.80
526.33	451.72
526.50	369.80
526.67	407.25
526.84	451.72
527.01	414.27
527.18	388.53
527.36	367.46
527.53	374.49
527.70	451.72
527.87	442.36
528.04	447.04
528.21	411.93
528.38	440.02
528.55	365.12
528.72	435.34
528.89	451.72
529.07	430.66
529.24	449.38
529.41	484.49
529.58	456.40
529.75	351.08
529.92	388.53
530.09	470.45
530.26	456.40
530.43	379.17
530.60	451.72
530.77	472.79
530.94	386.19
531.11	411.93
531.28	463.43
531.46	440.02
531.63	454.06
531.80	421.30
531.97	430.66
532.14	416.62
532.31	348.74
532.48	425.98
532.65	463.43
532.82	411.93
532.99	388.53
533.16	411.93
533.33	383.85
533.50	362.78
533.67	358.10
533.84	372.15
534.01	437.68
534.18	414.27
534.35	388.53
534.52	428.32
534.69	397.89
534.86	327.68
535.03	444.70
535.20	458.74
535.37	393.21
535.54	440.02
535.71	416.62
535.88	400.23
536.05	409.59
536.22	421.30
536.38	421.30
536.55	449.38
536.72	451.72
536.89	388.53
537.06	416.62
537.23	334.70
537.40	475.13
537.57	430.66
537.74	435.34
537.91	362.78
538.08	390.87
538.25	493.85
538.42	374.49
538.59	435.34
538.75	418.96
538.92	388.53
539.09	388.53
539.26	449.38
539.43	444.70
539.60	421.30
539.77	383.85
539.94	435.34
540.11	425.98
540.28	524.28
540.44	465.77
540.61	374.49
540.78	423.64
540.95	454.06
541.12	395.55
541.29	381.51
541.46	451.72
541.62	433.00
541.79	435.34
541.96	330.02
542.13	425.98
542.30	428.32
542.47	407.25
542.63	381.51
542.80	425.98
542.97	440.02
543.14	381.51
543.31	414.27
543.48	442.36
543.64	404.91
543.81	414.27
543.98	376.83
544.15	404.91
544.32	362.78
544.48	451.72
544.65	402.57
544.82	435.34
544.99	486.83
545.16	395.55
545.32	418.96
545.49	388.53
545.66	379.17
545.83	423.64
546.00	425.98
546.16	468.11
546.33	430.66
546.50	416.62
546.67	475.13
546.83	482.15
547.00	358.10
547.17	320.65
547.34	437.68
547.50	383.85
547.67	454.06
547.84	454.06
548.00	461.09
548.17	465.77
548.34	423.64
548.51	528.96
548.67	397.89
548.84	416.62
549.01	451.72
549.18	418.96
549.34	409.59
549.51	383.85
549.68	360.44
549.84	395.55
550.01	367.46
550.18	477.47
550.34	397.89
550.51	493.85
550.68	500.87
550.84	437.68
551.01	456.40
551.18	397.89
551.34	397.89
551.51	297.25
551.68	393.21
551.84	468.11
552.01	374.49
552.18	421.30
552.34	395.55
552.51	442.36
552.68	468.11
552.84	498.53
553.01	440.02
553.18	390.87
553.34	407.25
553.51	416.62
553.67	425.98
553.84	376.83
554.01	456.40
554.17	393.21
554.34	435.34
554.51	437.68
554.67	470.45
554.84	442.36
555.00	409.59
555.17	433.00
555.33	397.89
555.50	479.81
555.67	468.11
555.83	374.49
556.00	440.02
556.16	524.28
556.33	519.60
556.50	425.98
556.66	390.87
556.83	393.21
556.99	407.25
557.16	449.38
557.32	428.32
557.49	409.59
557.65	437.68
557.82	404.91
557.98	468.11
558.15	435.34
558.32	421.30
558.48	351.08
558.65	400.23
558.81	414.27
558.98	362.78
559.14	440.02
559.31	449.38
559.47	449.38
559.64	465.77
559.80	400.23
559.97	414.27
560.13	376.83
560.30	383.85
560.46	414.27
560.63	425.98
560.79	440.02
560.96	374.49
561.12	435.34
561.29	330.02
561.45	411.93
561.61	390.87
561.78	554.71
561.94	458.74
562.11	367.46
562.27	407.25
562.44	456.40
562.60	465.77
562.77	425.98
562.93	400.23
563.10	367.46
563.26	402.57
563.42	472.79
563.59	477.47
563.75	447.04
563.92	421.30
564.08	437.68
564.24	358.10
564.41	458.74
564.57	402.57
564.74	390.87
564.90	404.91
565.07	386.19
565.23	425.98
565.39	395.55
565.56	411.93
565.72	421.30
565.88	367.46
566.05	447.04
566.21	376.83
566.38	456.40
566.54	341.72
566.70	416.62
566.87	397.89
567.03	435.34
567.19	402.57
567.36	418.96
567.52	407.25
567.68	423.64
567.85	461.09
568.01	374.49
568.17	386.19
568.34	397.89
568.50	430.66
568.66	407.25
568.83	505.56
568.99	449.38
569.15	411.93
569.32	456.40
569.48	444.70
569.64	388.53
569.81	369.80
569.97	433.00
570.13	435.34
570.30	477.47
570.46	428.32
570.62	411.93
570.78	320.65
570.95	418.96
571.11	498.53
571.27	491.51
571.43	365.12
571.60	465.77
571.76	388.53
571.92	437.68
572.09	407.25
572.25	402.57
572.41	475.13
572.57	463.43
572.74	479.81
572.90	351.08
573.06	423.64
573.22	430.66
573.38	458.74
573.55	414.27
573.71	449.38
573.87	447.04
574.03	400.23
574.20	456.40
574.36	397.89
574.52	421.30
574.68	339.38
574.84	437.68
575.01	365.12
575.17	444.70
575.33	418.96
575.49	416.62
575.65	425.98
575.82	383.85
575.98	407.25
576.14	400.23
576.30	421.30
576.46	437.68
576.62	402.57
576.79	374.49
576.95	437.68
577.11	437.68
577.27	376.83
577.43	421.30
577.59	407.25
577.75	425.98
577.92	411.93
578.08	449.38
578.24	433.00
578.40	404.91
578.56	470.45
578.72	512.58
578.88	425.98
579.04	440.02
579.21	458.74
579.37	411.93
579.53	428.32
579.69	479.81
579.85	430.66
580.01	388.53
580.17	362.78
580.33	381.51
580.49	442.36
580.65	440.02
580.82	496.19
580.98	362.78
581.14	435.34
581.30	421.30
581.46	418.96
581.62	383.85
581.78	351.08
581.94	454.06
582.10	388.53
582.26	418.96
582.42	348.74
582.58	369.80
582.74	346.40
582.90	423.64
583.06	365.12
583.22	423.64
583.38	402.57
583.54	393.21
583.70	386.19
583.86	472.79
584.02	425.98
584.18	409.59
584.34	367.46
584.50	416.62
584.66	388.53
584.82	339.38
584.98	423.64
585.14	465.77
585.30	437.68
585.46	402.57
585.62	440.02
585.78	376.83
585.94	355.76
586.10	425.98
586.26	433.00
586.42	437.68
586.58	428.32
586.74	437.68
586.90	456.40
587.06	447.04
587.22	461.09
587.38	334.70
587.54	407.25
587.70	402.57
587.86	365.12
588.02	388.53
588.18	437.68
588.34	440.02
588.49	358.10
588.65	393.21
588.81	402.57
588.97	365.12
589.13	479.81
589.29	428.32
589.45	463.43
589.61	423.64
589.77	454.06
589.93	454.06
590.08	381.51
590.24	421.30
590.40	421.30
590.56	489.17
590.72	425.98
590.88	421.30
591.04	479.81
591.20	376.83
591.35	484.49
591.51	411.93
591.67	386.19
591.83	437.68
591.99	489.17
592.15	395.55
592.31	430.66
592.46	442.36
592.62	353.42
592.78	444.70
592.94	332.36
593.10	409.59
593.26	383.85
593.41	397.89
593.57	456.40
593.73	421.30
593.89	393.21
594.05	440.02
594.20	360.44
594.36	423.64
594.52	374.49
594.68	374.49
594.84	425.98
594.99	416.62
595.15	442.36
595.31	470.45
595.47	430.66
595.62	402.57
595.78	421.30
595.94	418.96
596.10	428.32
596.25	404.91
596.41	416.62
596.57	414.27
596.73	414.27
596.88	418.96
597.04	425.98
597.20	388.53
597.36	479.81
597.51	369.80
597.67	402.57
597.83	397.89
597.99	454.06
598.14	440.02
598.30	428.32
598.46	428.32
598.61	355.76
598.77	418.96
598.93	411.93
599.09	379.17
599.24	482.15
599.40	465.77
599.56	472.79
599.71	388.53
599.87	416.62
600.03	479.81
600.18	402.57
600.34	435.34
600.50	430.66
600.65	334.70
600.81	421.30
600.97	433.00
601.12	372.15
601.28	580.45
601.44	433.00
601.59	421.30
601.75	463.43
601.91	428.32
602.06	383.85
602.22	437.68
602.37	440.02
602.53	362.78
602.69	510.24
602.84	339.38
603.00	407.25
603.16	470.45
603.31	458.74
603.47	470.45
603.62	416.62
603.78	423.64
603.94	433.00
604.09	397.89
604.25	402.57
604.40	414.27
604.56	437.68
604.71	404.91
604.87	493.85
605.03	440.02
605.18	444.70
605.34	423.64
605.49	442.36
605.65	404.91
605.80	397.89
605.96	486.83
606.12	372.15
606.27	416.62
606.43	444.70
606.58	472.79
606.74	418.96
606.89	407.25
607.05	388.53
607.20	458.74
607.36	428.32
607.51	421.30
607.67	437.68
607.82	376.83
607.98	409.59
608.13	351.08
608.29	433.00
608.44	425.98
608.60	407.25
608.75	402.57
608.91	465.77
609.06	421.30
609.22	428.32
609.37	344.06
609.53	393.21
609.68	414.27
609.84	433.00
609.99	376.83
610.15	482.15
