SpectraSuite Data File
++++++++++++++++++++++++++++++++++++
Date: Fri Oct 25 12:11:09 EDT 2013
User: price-jones
Dark Spectrum Present: No
Reference Spectrum Present: No
Number of Sampled Component Spectra: 1
Spectrometers: USB2+H05261
Integration Time (usec): 100000 (USB2+H05261)
Spectra Averaged: 1 (USB2+H05261)
Boxcar Smoothing: 0 (USB2+H05261)
Correct for Electrical Dark: No (USB2+H05261)
Strobe/Lamp Enabled: No (USB2+H05261)
Correct for Detector Non-linearity: No (USB2+H05261)
Correct for Stray Light: No (USB2+H05261)
Number of Pixels in Processed Spectrum: 2048
>>>>>Begin Processed Spectral Data<<<<<
365.73	400.23
365.92	400.23
366.12	400.23
366.32	351.08
366.52	238.73
366.72	217.67
366.91	243.42
367.11	292.57
367.31	252.78
367.51	248.10
367.70	311.29
367.90	231.71
368.10	236.39
368.30	273.84
368.49	273.84
368.69	229.37
368.89	297.25
369.09	248.10
369.28	334.70
369.48	322.99
369.68	273.84
369.87	259.80
370.07	315.97
370.27	372.15
370.47	332.36
370.66	339.38
370.86	360.44
371.06	337.04
371.25	374.49
371.45	372.15
371.65	374.49
371.84	447.04
372.04	327.68
372.24	322.99
372.44	365.12
372.63	365.12
372.83	425.98
373.03	390.87
373.22	397.89
373.42	461.09
373.62	421.30
373.81	416.62
374.01	346.40
374.21	400.23
374.40	447.04
374.60	397.89
374.79	416.62
374.99	379.17
375.19	458.74
375.38	444.70
375.58	379.17
375.78	484.49
375.97	418.96
376.17	463.43
376.37	409.59
376.56	472.79
376.76	456.40
376.95	507.90
377.15	395.55
377.35	433.00
377.54	400.23
377.74	369.80
377.93	402.57
378.13	390.87
378.33	393.21
378.52	372.15
378.72	454.06
378.91	458.74
379.11	360.44
379.31	325.33
379.50	383.85
379.70	327.68
379.89	395.55
380.09	374.49
380.28	400.23
380.48	411.93
380.68	355.76
380.87	360.44
381.07	484.49
381.26	458.74
381.46	461.09
381.65	395.55
381.85	409.59
382.04	383.85
382.24	447.04
382.43	435.34
382.63	372.15
382.83	355.76
383.02	344.06
383.22	421.30
383.41	440.02
383.61	400.23
383.80	468.11
384.00	362.78
384.19	311.29
384.39	269.16
384.58	386.19
384.78	430.66
384.97	423.64
385.17	409.59
385.36	402.57
385.56	477.47
385.75	348.74
385.95	388.53
386.14	437.68
386.34	409.59
386.53	425.98
386.72	367.46
386.92	451.72
387.11	400.23
387.31	404.91
387.50	353.42
387.70	379.17
387.89	447.04
388.09	374.49
388.28	355.76
388.48	407.25
388.67	421.30
388.86	332.36
389.06	425.98
389.25	418.96
389.45	360.44
389.64	390.87
389.84	383.85
390.03	381.51
390.22	367.46
390.42	379.17
390.61	372.15
390.81	327.68
391.00	407.25
391.19	369.80
391.39	423.64
391.58	433.00
391.78	411.93
391.97	397.89
392.16	290.23
392.36	451.72
392.55	400.23
392.75	407.25
392.94	442.36
393.13	437.68
393.33	365.12
393.52	411.93
393.71	372.15
393.91	444.70
394.10	423.64
394.29	381.51
394.49	447.04
394.68	388.53
394.88	486.83
395.07	369.80
395.26	390.87
395.46	383.85
395.65	421.30
395.84	390.87
396.04	447.04
396.23	423.64
396.42	425.98
396.62	353.42
396.81	505.56
397.00	379.17
397.19	407.25
397.39	353.42
397.58	433.00
397.77	451.72
397.97	425.98
398.16	454.06
398.35	379.17
398.55	397.89
398.74	451.72
398.93	440.02
399.12	442.36
399.32	421.30
399.51	400.23
399.70	376.83
399.90	461.09
400.09	409.59
400.28	430.66
400.47	482.15
400.67	442.36
400.86	397.89
401.05	489.17
401.24	334.70
401.44	409.59
401.63	435.34
401.82	449.38
402.01	344.06
402.21	456.40
402.40	376.83
402.59	365.12
402.78	437.68
402.97	442.36
403.17	430.66
403.36	449.38
403.55	461.09
403.74	437.68
403.93	376.83
404.13	479.81
404.32	440.02
404.51	404.91
404.70	379.17
404.89	430.66
405.09	437.68
405.28	360.44
405.47	367.46
405.66	421.30
405.85	451.72
406.05	395.55
406.24	404.91
406.43	456.40
406.62	421.30
406.81	437.68
407.00	362.78
407.20	395.55
407.39	435.34
407.58	339.38
407.77	433.00
407.96	390.87
408.15	430.66
408.34	381.51
408.54	463.43
408.73	416.62
408.92	442.36
409.11	388.53
409.30	468.11
409.49	369.80
409.68	465.77
409.87	430.66
410.07	344.06
410.26	451.72
410.45	367.46
410.64	454.06
410.83	433.00
411.02	411.93
411.21	444.70
411.40	463.43
411.59	402.57
411.78	409.59
411.98	430.66
412.17	435.34
412.36	437.68
412.55	362.78
412.74	397.89
412.93	430.66
413.12	437.68
413.31	409.59
413.50	437.68
413.69	388.53
413.88	388.53
414.07	435.34
414.26	418.96
414.45	388.53
414.64	404.91
414.83	442.36
415.02	353.42
415.22	416.62
415.41	433.00
415.60	353.42
415.79	416.62
415.98	451.72
416.17	337.04
416.36	449.38
416.55	400.23
416.74	442.36
416.93	442.36
417.12	383.85
417.31	386.19
417.50	388.53
417.69	374.49
417.88	383.85
418.07	397.89
418.26	395.55
418.45	322.99
418.64	435.34
418.83	458.74
419.02	369.80
419.21	416.62
419.39	458.74
419.58	358.10
419.77	362.78
419.96	388.53
420.15	461.09
420.34	395.55
420.53	454.06
420.72	414.27
420.91	337.04
421.10	451.72
421.29	461.09
421.48	475.13
421.67	381.51
421.86	355.76
422.05	362.78
422.24	437.68
422.43	374.49
422.61	390.87
422.80	411.93
422.99	407.25
423.18	440.02
423.37	383.85
423.56	444.70
423.75	374.49
423.94	456.40
424.13	358.10
424.32	360.44
424.50	463.43
424.69	482.15
424.88	440.02
425.07	383.85
425.26	355.76
425.45	404.91
425.64	491.51
425.83	414.27
426.01	416.62
426.20	402.57
426.39	393.21
426.58	353.42
426.77	447.04
426.96	367.46
427.15	388.53
427.33	383.85
427.52	456.40
427.71	433.00
427.90	330.02
428.09	393.21
428.28	418.96
428.46	407.25
428.65	447.04
428.84	367.46
429.03	447.04
429.22	351.08
429.40	458.74
429.59	397.89
429.78	440.02
429.97	374.49
430.16	390.87
430.34	393.21
430.53	400.23
430.72	388.53
430.91	339.38
431.10	458.74
431.28	395.55
431.47	435.34
431.66	440.02
431.85	381.51
432.03	372.15
432.22	437.68
432.41	374.49
432.60	433.00
432.79	425.98
432.97	388.53
433.16	425.98
433.35	400.23
433.54	397.89
433.72	470.45
433.91	425.98
434.10	383.85
434.28	444.70
434.47	362.78
434.66	423.64
434.85	397.89
435.03	428.32
435.22	397.89
435.41	393.21
435.59	470.45
435.78	440.02
435.97	423.64
436.16	519.60
436.34	437.68
436.53	411.93
436.72	472.79
436.90	388.53
437.09	404.91
437.28	393.21
437.46	456.40
437.65	421.30
437.84	407.25
438.02	383.85
438.21	458.74
438.40	416.62
438.58	458.74
438.77	390.87
438.96	404.91
439.14	271.50
439.33	390.87
439.52	454.06
439.70	390.87
439.89	435.34
440.08	463.43
440.26	440.02
440.45	433.00
440.63	475.13
440.82	491.51
441.01	433.00
441.19	437.68
441.38	416.62
441.57	447.04
441.75	491.51
441.94	472.79
442.12	454.06
442.31	409.59
442.50	360.44
442.68	470.45
442.87	421.30
443.05	362.78
443.24	379.17
443.43	416.62
443.61	423.64
443.80	437.68
443.98	393.21
444.17	414.27
444.35	433.00
444.54	519.60
444.73	416.62
444.91	465.77
445.10	416.62
445.28	421.30
445.47	397.89
445.65	400.23
445.84	315.97
446.02	468.11
446.21	372.15
446.39	404.91
446.58	423.64
446.77	374.49
446.95	365.12
447.14	437.68
447.32	482.15
447.51	386.19
447.69	444.70
447.88	458.74
448.06	458.74
448.25	414.27
448.43	383.85
448.62	430.66
448.80	454.06
448.99	395.55
449.17	402.57
449.36	402.57
449.54	388.53
449.73	393.21
449.91	393.21
450.10	372.15
450.28	418.96
450.46	484.49
450.65	402.57
450.83	421.30
451.02	411.93
451.20	411.93
451.39	449.38
451.57	397.89
451.76	414.27
451.94	388.53
452.13	416.62
452.31	409.59
452.49	458.74
452.68	400.23
452.86	440.02
453.05	493.85
453.23	430.66
453.42	339.38
453.60	397.89
453.78	365.12
453.97	358.10
454.15	470.45
454.34	421.30
454.52	386.19
454.70	421.30
454.89	482.15
455.07	367.46
455.26	367.46
455.44	451.72
455.62	440.02
455.81	435.34
455.99	353.42
456.17	395.55
456.36	372.15
456.54	430.66
456.73	407.25
456.91	367.46
457.09	407.25
457.28	475.13
457.46	421.30
457.64	456.40
457.83	425.98
458.01	468.11
458.19	390.87
458.38	402.57
458.56	376.83
458.74	386.19
458.93	423.64
459.11	400.23
459.29	372.15
459.48	430.66
459.66	421.30
459.84	346.40
460.03	524.28
460.21	407.25
460.39	411.93
460.57	395.55
460.76	404.91
460.94	437.68
461.12	423.64
461.31	447.04
461.49	362.78
461.67	379.17
461.85	416.62
462.04	390.87
462.22	814.51
462.40	423.64
462.59	458.74
462.77	447.04
462.95	425.98
463.13	379.17
463.32	346.40
463.50	407.25
463.68	404.91
463.86	402.57
464.05	407.25
464.23	400.23
464.41	423.64
464.59	416.62
464.78	456.40
464.96	411.93
465.14	367.46
465.32	451.72
465.50	454.06
465.69	416.62
465.87	425.98
466.05	414.27
466.23	421.30
466.41	435.34
466.60	395.55
466.78	449.38
466.96	470.45
467.14	433.00
467.32	423.64
467.51	390.87
467.69	477.47
467.87	470.45
468.05	430.66
468.23	411.93
468.41	442.36
468.60	397.89
468.78	428.32
468.96	447.04
469.14	379.17
469.32	381.51
469.50	416.62
469.69	374.49
469.87	395.55
470.05	435.34
470.23	374.49
470.41	388.53
470.59	376.83
470.77	442.36
470.95	416.62
471.14	433.00
471.32	393.21
471.50	484.49
471.68	425.98
471.86	418.96
472.04	409.59
472.22	374.49
472.40	440.02
472.58	402.57
472.77	383.85
472.95	402.57
473.13	437.68
473.31	437.68
473.49	423.64
473.67	421.30
473.85	416.62
474.03	414.27
474.21	451.72
474.39	416.62
474.57	463.43
474.75	393.21
474.93	395.55
475.12	414.27
475.30	388.53
475.48	461.09
475.66	444.70
475.84	479.81
476.02	484.49
476.20	465.77
476.38	465.77
476.56	386.19
476.74	362.78
476.92	418.96
477.10	358.10
477.28	477.47
477.46	397.89
477.64	388.53
477.82	374.49
478.00	409.59
478.18	458.74
478.36	461.09
478.54	386.19
478.72	425.98
478.90	397.89
479.08	442.36
479.26	404.91
479.44	390.87
479.62	402.57
479.80	339.38
479.98	437.68
480.16	388.53
480.34	416.62
480.52	423.64
480.70	533.64
480.88	400.23
481.06	416.62
481.24	414.27
481.41	390.87
481.59	383.85
481.77	348.74
481.95	428.32
482.13	407.25
482.31	407.25
482.49	379.17
482.67	468.11
482.85	435.34
483.03	404.91
483.21	381.51
483.39	400.23
483.57	414.27
483.74	449.38
483.92	388.53
484.10	341.72
484.28	409.59
484.46	463.43
484.64	407.25
484.82	351.08
485.00	430.66
485.18	418.96
485.35	395.55
485.53	383.85
485.71	421.30
485.89	397.89
486.07	369.80
486.25	479.81
486.43	418.96
486.61	440.02
486.78	447.04
486.96	372.15
487.14	404.91
487.32	414.27
487.50	379.17
487.68	437.68
487.85	395.55
488.03	437.68
488.21	376.83
488.39	386.19
488.57	411.93
488.75	470.45
488.92	482.15
489.10	484.49
489.28	400.23
489.46	421.30
489.64	355.76
489.81	479.81
489.99	355.76
490.17	404.91
490.35	500.87
490.53	379.17
490.70	367.46
490.88	400.23
491.06	458.74
491.24	447.04
491.41	388.53
491.59	421.30
491.77	433.00
491.95	437.68
492.13	379.17
492.30	402.57
492.48	454.06
492.66	374.49
492.84	339.38
493.01	388.53
493.19	372.15
493.37	477.47
493.54	437.68
493.72	397.89
493.90	376.83
494.08	393.21
494.25	414.27
494.43	444.70
494.61	423.64
494.79	369.80
494.96	421.30
495.14	423.64
495.32	369.80
495.49	437.68
495.67	402.57
495.85	404.91
496.02	423.64
496.20	423.64
496.38	395.55
496.55	409.59
496.73	369.80
496.91	479.81
497.09	526.62
497.26	421.30
497.44	416.62
497.62	362.78
497.79	400.23
497.97	416.62
498.14	435.34
498.32	454.06
498.50	437.68
498.67	423.64
498.85	433.00
499.03	421.30
499.20	381.51
499.38	379.17
499.56	390.87
499.73	428.32
499.91	351.08
500.08	400.23
500.26	461.09
500.44	402.57
500.61	425.98
500.79	458.74
500.97	479.81
501.14	458.74
501.32	374.49
501.49	411.93
501.67	386.19
501.84	402.57
502.02	433.00
502.20	475.13
502.37	400.23
502.55	472.79
502.72	369.80
502.90	423.64
503.07	416.62
503.25	428.32
503.43	372.15
503.60	376.83
503.78	454.06
503.95	400.23
504.13	444.70
504.30	381.51
504.48	397.89
504.65	491.51
504.83	470.45
505.01	447.04
505.18	348.74
505.36	440.02
505.53	388.53
505.71	381.51
505.88	393.21
506.06	402.57
506.23	411.93
506.41	369.80
506.58	365.12
506.76	470.45
506.93	395.55
507.11	322.99
507.28	444.70
507.46	409.59
507.63	411.93
507.81	433.00
507.98	461.09
508.16	435.34
508.33	454.06
508.50	463.43
508.68	454.06
508.85	362.78
509.03	456.40
509.20	458.74
509.38	430.66
509.55	489.17
509.73	416.62
509.90	470.45
510.08	369.80
510.25	458.74
510.42	402.57
510.60	383.85
510.77	454.06
510.95	435.34
511.12	416.62
511.30	402.57
511.47	500.87
511.64	430.66
511.82	444.70
511.99	358.10
512.17	337.04
512.34	421.30
512.51	395.55
512.69	339.38
512.86	461.09
513.04	470.45
513.21	369.80
513.38	444.70
513.56	337.04
513.73	339.38
513.90	402.57
514.08	496.19
514.25	409.59
514.43	486.83
514.60	433.00
514.77	411.93
514.95	325.33
515.12	414.27
515.29	355.76
515.47	454.06
515.64	418.96
515.81	383.85
515.99	451.72
516.16	407.25
516.33	458.74
516.51	369.80
516.68	381.51
516.85	482.15
517.03	456.40
517.20	393.21
517.37	365.12
517.54	411.93
517.72	428.32
517.89	409.59
518.06	379.17
518.24	482.15
518.41	514.92
518.58	423.64
518.75	416.62
518.93	451.72
519.10	470.45
519.27	421.30
519.45	327.68
519.62	465.77
519.79	468.11
519.96	421.30
520.14	491.51
520.31	400.23
520.48	451.72
520.65	423.64
520.83	456.40
521.00	402.57
521.17	465.77
521.34	407.25
521.52	440.02
521.69	390.87
521.86	376.83
522.03	346.40
522.20	425.98
522.38	454.06
522.55	395.55
522.72	315.97
522.89	475.13
523.07	433.00
523.24	444.70
523.41	470.45
523.58	451.72
523.75	430.66
523.92	510.24
524.10	337.04
524.27	416.62
524.44	475.13
524.61	421.30
524.78	461.09
524.96	416.62
525.13	425.98
525.30	397.89
525.47	425.98
525.64	388.53
525.81	428.32
525.98	507.90
526.16	358.10
526.33	430.66
526.50	404.91
526.67	461.09
526.84	327.68
527.01	386.19
527.18	372.15
527.36	369.80
527.53	404.91
527.70	390.87
527.87	418.96
528.04	409.59
528.21	400.23
528.38	395.55
528.55	458.74
528.72	433.00
528.89	407.25
529.07	430.66
529.24	449.38
529.41	437.68
529.58	414.27
529.75	456.40
529.92	435.34
530.09	421.30
530.26	444.70
530.43	435.34
530.60	435.34
530.77	409.59
530.94	447.04
531.11	390.87
531.28	425.98
531.46	442.36
531.63	407.25
531.80	472.79
531.97	416.62
532.14	418.96
532.31	358.10
532.48	423.64
532.65	390.87
532.82	411.93
532.99	355.76
533.16	437.68
533.33	435.34
533.50	379.17
533.67	449.38
533.84	400.23
534.01	447.04
534.18	404.91
534.35	414.27
534.52	430.66
534.69	463.43
534.86	360.44
535.03	418.96
535.20	355.76
535.37	447.04
535.54	400.23
535.71	418.96
535.88	344.06
536.05	388.53
536.22	461.09
536.38	461.09
536.55	369.80
536.72	425.98
536.89	386.19
537.06	395.55
537.23	383.85
537.40	381.51
537.57	423.64
537.74	440.02
537.91	433.00
538.08	477.47
538.25	414.27
538.42	430.66
538.59	472.79
538.75	409.59
538.92	407.25
539.09	341.72
539.26	416.62
539.43	379.17
539.60	433.00
539.77	404.91
539.94	409.59
540.11	423.64
540.28	383.85
540.44	423.64
540.61	421.30
540.78	442.36
540.95	393.21
541.12	381.51
541.29	362.78
541.46	465.77
541.62	393.21
541.79	390.87
541.96	430.66
542.13	346.40
542.30	381.51
542.47	411.93
542.63	404.91
542.80	386.19
542.97	430.66
543.14	388.53
543.31	388.53
543.48	400.23
543.64	472.79
543.81	414.27
543.98	407.25
544.15	414.27
544.32	411.93
544.48	442.36
544.65	339.38
544.82	444.70
544.99	379.17
545.16	411.93
545.32	386.19
545.49	381.51
545.66	367.46
545.83	423.64
546.00	386.19
546.16	416.62
546.33	407.25
546.50	451.72
546.67	397.89
546.83	407.25
547.00	421.30
547.17	367.46
547.34	411.93
547.50	407.25
547.67	379.17
547.84	362.78
548.00	433.00
548.17	433.00
548.34	418.96
548.51	416.62
548.67	400.23
548.84	388.53
549.01	400.23
549.18	411.93
549.34	449.38
549.51	433.00
549.68	468.11
549.84	421.30
550.01	437.68
550.18	475.13
550.34	463.43
550.51	454.06
550.68	465.77
550.84	440.02
551.01	397.89
551.18	442.36
551.34	390.87
551.51	409.59
551.68	437.68
551.84	507.90
552.01	479.81
552.18	330.02
552.34	376.83
552.51	449.38
552.68	444.70
552.84	461.09
553.01	386.19
553.18	451.72
553.34	414.27
553.51	341.72
553.67	376.83
553.84	475.13
554.01	479.81
554.17	451.72
554.34	470.45
554.51	449.38
554.67	372.15
554.84	428.32
555.00	390.87
555.17	404.91
555.33	416.62
555.50	386.19
555.67	397.89
555.83	358.10
556.00	447.04
556.16	631.94
556.33	454.06
556.50	430.66
556.66	388.53
556.83	376.83
556.99	346.40
557.16	400.23
557.32	454.06
557.49	435.34
557.65	393.21
557.82	404.91
557.98	404.91
558.15	358.10
558.32	435.34
558.48	482.15
558.65	411.93
558.81	435.34
558.98	346.40
559.14	433.00
559.31	369.80
559.47	456.40
559.64	425.98
559.80	458.74
559.97	435.34
560.13	465.77
560.30	493.85
560.46	388.53
560.63	468.11
560.79	451.72
560.96	472.79
561.12	447.04
561.29	433.00
561.45	409.59
561.61	500.87
561.78	493.85
561.94	465.77
562.11	437.68
562.27	416.62
562.44	365.12
562.60	409.59
562.77	344.06
562.93	458.74
563.10	449.38
563.26	437.68
563.42	454.06
563.59	376.83
563.75	355.76
563.92	447.04
564.08	339.38
564.24	416.62
564.41	498.53
564.57	379.17
564.74	381.51
564.90	449.38
565.07	409.59
565.23	409.59
565.39	428.32
565.56	440.02
565.72	461.09
565.88	425.98
566.05	383.85
566.21	372.15
566.38	451.72
566.54	482.15
566.70	383.85
566.87	430.66
567.03	388.53
567.19	414.27
567.36	433.00
567.52	369.80
567.68	514.92
567.85	433.00
568.01	433.00
568.17	421.30
568.34	414.27
568.50	362.78
568.66	440.02
568.83	477.47
568.99	425.98
569.15	423.64
569.32	397.89
569.48	463.43
569.64	411.93
569.81	435.34
569.97	449.38
570.13	414.27
570.30	411.93
570.46	454.06
570.62	440.02
570.78	475.13
570.95	402.57
571.11	468.11
571.27	475.13
571.43	444.70
571.60	423.64
571.76	465.77
571.92	365.12
572.09	339.38
572.25	461.09
572.41	369.80
572.57	465.77
572.74	440.02
572.90	454.06
573.06	411.93
573.22	461.09
573.38	482.15
573.55	416.62
573.71	416.62
573.87	400.23
574.03	365.12
574.20	435.34
574.36	430.66
574.52	411.93
574.68	365.12
574.84	463.43
575.01	423.64
575.17	465.77
575.33	437.68
575.49	407.25
575.65	442.36
575.82	465.77
575.98	505.56
576.14	386.19
576.30	421.30
576.46	409.59
576.62	423.64
576.79	400.23
576.95	489.17
577.11	430.66
577.27	369.80
577.43	510.24
577.59	423.64
577.75	461.09
577.92	451.72
578.08	440.02
578.24	425.98
578.40	411.93
578.56	444.70
578.72	433.00
578.88	425.98
579.04	461.09
579.21	404.91
579.37	447.04
579.53	397.89
579.69	425.98
579.85	337.04
580.01	421.30
580.17	400.23
580.33	416.62
580.49	383.85
580.65	372.15
580.82	409.59
580.98	290.23
581.14	376.83
581.30	409.59
581.46	407.25
581.62	437.68
581.78	404.91
581.94	409.59
582.10	428.32
582.26	409.59
582.42	463.43
582.58	421.30
582.74	437.68
582.90	428.32
583.06	440.02
583.22	423.64
583.38	407.25
583.54	358.10
583.70	440.02
583.86	379.17
584.02	421.30
584.18	475.13
584.34	428.32
584.50	402.57
584.66	486.83
584.82	440.02
584.98	376.83
585.14	400.23
585.30	461.09
585.46	325.33
585.62	390.87
585.78	348.74
585.94	367.46
586.10	472.79
586.26	435.34
586.42	454.06
586.58	372.15
586.74	397.89
586.90	437.68
587.06	404.91
587.22	500.87
587.38	397.89
587.54	355.76
587.70	437.68
587.86	458.74
588.02	400.23
588.18	486.83
588.34	365.12
588.49	383.85
588.65	362.78
588.81	423.64
588.97	386.19
589.13	402.57
589.29	423.64
589.45	376.83
589.61	430.66
589.77	463.43
589.93	414.27
590.08	400.23
590.24	386.19
590.40	425.98
590.56	444.70
590.72	433.00
590.88	416.62
591.04	444.70
591.20	397.89
591.35	486.83
591.51	440.02
591.67	390.87
591.83	400.23
591.99	390.87
592.15	449.38
592.31	397.89
592.46	451.72
592.62	397.89
592.78	479.81
592.94	421.30
593.10	351.08
593.26	372.15
593.41	374.49
593.57	409.59
593.73	379.17
593.89	444.70
594.05	362.78
594.20	430.66
594.36	531.30
594.52	454.06
594.68	400.23
594.84	423.64
594.99	498.53
595.15	407.25
595.31	449.38
595.47	430.66
595.62	360.44
595.78	400.23
595.94	344.06
596.10	369.80
596.25	414.27
596.41	402.57
596.57	500.87
596.73	414.27
596.88	461.09
597.04	428.32
597.20	362.78
597.36	425.98
597.51	418.96
597.67	418.96
597.83	367.46
597.99	346.40
598.14	369.80
598.30	421.30
598.46	367.46
598.61	425.98
598.77	386.19
598.93	372.15
599.09	400.23
599.24	524.28
599.40	465.77
599.56	433.00
599.71	484.49
599.87	393.21
600.03	430.66
600.18	418.96
600.34	430.66
600.50	421.30
600.65	421.30
600.81	461.09
600.97	395.55
601.12	440.02
601.28	407.25
601.44	397.89
601.59	358.10
601.75	437.68
601.91	379.17
602.06	477.47
602.22	451.72
602.37	465.77
602.53	397.89
602.69	425.98
602.84	444.70
603.00	477.47
603.16	423.64
603.31	411.93
603.47	367.46
603.62	386.19
603.78	367.46
603.94	418.96
604.09	416.62
604.25	461.09
604.40	430.66
604.56	353.42
604.71	365.12
604.87	376.83
605.03	423.64
605.18	437.68
605.34	447.04
605.49	355.76
605.65	395.55
605.80	353.42
605.96	372.15
606.12	411.93
606.27	451.72
606.43	444.70
606.58	383.85
606.74	411.93
606.89	365.12
607.05	461.09
607.20	470.45
607.36	418.96
607.51	421.30
607.67	381.51
607.82	442.36
607.98	430.66
608.13	428.32
608.29	447.04
608.44	411.93
608.60	383.85
608.75	418.96
608.91	437.68
609.06	402.57
609.22	414.27
609.37	418.96
609.53	369.80
609.68	433.00
609.84	416.62
609.99	482.15
610.15	409.59
