SpectraSuite Data File
++++++++++++++++++++++++++++++++++++
Date: Fri Oct 25 12:10:09 EDT 2013
User: price-jones
Dark Spectrum Present: No
Reference Spectrum Present: No
Number of Sampled Component Spectra: 1
Spectrometers: USB2+H05261
Integration Time (usec): 100000 (USB2+H05261)
Spectra Averaged: 1 (USB2+H05261)
Boxcar Smoothing: 0 (USB2+H05261)
Correct for Electrical Dark: No (USB2+H05261)
Strobe/Lamp Enabled: No (USB2+H05261)
Correct for Detector Non-linearity: No (USB2+H05261)
Correct for Stray Light: No (USB2+H05261)
Number of Pixels in Processed Spectrum: 2048
>>>>>Begin Processed Spectral Data<<<<<
365.73	360.44
365.92	360.44
366.12	360.44
366.32	205.97
366.52	266.82
366.72	318.31
366.91	238.73
367.11	234.05
367.31	191.92
367.51	236.39
367.70	215.33
367.90	332.36
368.10	170.86
368.30	205.97
368.49	241.08
368.69	308.95
368.89	273.84
369.09	238.73
369.28	358.10
369.48	304.27
369.68	236.39
369.87	294.91
370.07	266.82
370.27	367.46
370.47	344.06
370.66	332.36
370.86	311.29
371.06	327.68
371.25	395.55
371.45	332.36
371.65	374.49
371.84	376.83
372.04	330.02
372.24	411.93
372.44	411.93
372.63	355.76
372.83	397.89
373.03	425.98
373.22	337.04
373.42	334.70
373.62	409.59
373.81	411.93
374.01	435.34
374.21	435.34
374.40	486.83
374.60	402.57
374.79	437.68
374.99	379.17
375.19	362.78
375.38	395.55
375.58	428.32
375.78	428.32
375.97	395.55
376.17	428.32
376.37	458.74
376.56	449.38
376.76	444.70
376.95	381.51
377.15	428.32
377.35	486.83
377.54	442.36
377.74	423.64
377.93	444.70
378.13	423.64
378.33	512.58
378.52	444.70
378.72	428.32
378.91	423.64
379.11	395.55
379.31	334.70
379.50	369.80
379.70	395.55
379.89	365.12
380.09	341.72
380.28	348.74
380.48	447.04
380.68	402.57
380.87	358.10
381.07	433.00
381.26	486.83
381.46	353.42
381.65	435.34
381.85	376.83
382.04	442.36
382.24	369.80
382.43	365.12
382.63	407.25
382.83	381.51
383.02	411.93
383.22	440.02
383.41	372.15
383.61	369.80
383.80	430.66
384.00	332.36
384.19	395.55
384.39	372.15
384.58	365.12
384.78	358.10
384.97	447.04
385.17	376.83
385.36	369.80
385.56	430.66
385.75	386.19
385.95	402.57
386.14	472.79
386.34	414.27
386.53	416.62
386.72	334.70
386.92	381.51
387.11	362.78
387.31	383.85
387.50	423.64
387.70	320.65
387.89	355.76
388.09	421.30
388.28	423.64
388.48	355.76
388.67	379.17
388.86	456.40
389.06	386.19
389.25	454.06
389.45	423.64
389.64	388.53
389.84	435.34
390.03	414.27
390.22	372.15
390.42	360.44
390.61	400.23
390.81	369.80
391.00	411.93
391.19	365.12
391.39	339.38
391.58	397.89
391.78	477.47
391.97	421.30
392.16	397.89
392.36	442.36
392.55	425.98
392.75	362.78
392.94	397.89
393.13	367.46
393.33	423.64
393.52	383.85
393.71	454.06
393.91	458.74
394.10	367.46
394.29	411.93
394.49	397.89
394.68	372.15
394.88	390.87
395.07	451.72
395.26	437.68
395.46	411.93
395.65	362.78
395.84	379.17
396.04	496.19
396.23	414.27
396.42	430.66
396.62	486.83
396.81	435.34
397.00	465.77
397.19	435.34
397.39	386.19
397.58	409.59
397.77	416.62
397.97	376.83
398.16	362.78
398.35	390.87
398.55	376.83
398.74	358.10
398.93	388.53
399.12	386.19
399.32	456.40
399.51	402.57
399.70	355.76
399.90	393.21
400.09	400.23
400.28	472.79
400.47	390.87
400.67	451.72
400.86	362.78
401.05	374.49
401.24	409.59
401.44	423.64
401.63	386.19
401.82	397.89
402.01	402.57
402.21	374.49
402.40	386.19
402.59	341.72
402.78	360.44
402.97	440.02
403.17	465.77
403.36	435.34
403.55	379.17
403.74	376.83
403.93	397.89
404.13	369.80
404.32	355.76
404.51	393.21
404.70	390.87
404.89	395.55
405.09	463.43
405.28	395.55
405.47	348.74
405.66	437.68
405.85	358.10
406.05	367.46
406.24	402.57
406.43	447.04
406.62	507.90
406.81	486.83
407.00	374.49
407.20	409.59
407.39	430.66
407.58	423.64
407.77	400.23
407.96	451.72
408.15	397.89
408.34	468.11
408.54	386.19
408.73	463.43
408.92	430.66
409.11	414.27
409.30	425.98
409.49	332.36
409.68	465.77
409.87	351.08
410.07	472.79
410.26	400.23
410.45	390.87
410.64	332.36
410.83	353.42
411.02	344.06
411.21	374.49
411.40	416.62
411.59	400.23
411.78	395.55
411.98	435.34
412.17	383.85
412.36	381.51
412.55	395.55
412.74	379.17
412.93	416.62
413.12	402.57
413.31	416.62
413.50	425.98
413.69	409.59
413.88	402.57
414.07	454.06
414.26	418.96
414.45	414.27
414.64	360.44
414.83	414.27
415.02	404.91
415.22	484.49
415.41	376.83
415.60	414.27
415.79	360.44
415.98	416.62
416.17	379.17
416.36	447.04
416.55	388.53
416.74	486.83
416.93	444.70
417.12	409.59
417.31	402.57
417.50	355.76
417.69	367.46
417.88	390.87
418.07	388.53
418.26	351.08
418.45	461.09
418.64	519.60
418.83	465.77
419.02	451.72
419.21	395.55
419.39	337.04
419.58	454.06
419.77	383.85
419.96	388.53
420.15	421.30
420.34	425.98
420.53	411.93
420.72	442.36
420.91	390.87
421.10	362.78
421.29	367.46
421.48	376.83
421.67	458.74
421.86	409.59
422.05	397.89
422.24	418.96
422.43	407.25
422.61	369.80
422.80	416.62
422.99	353.42
423.18	388.53
423.37	430.66
423.56	442.36
423.75	437.68
423.94	379.17
424.13	383.85
424.32	491.51
424.50	402.57
424.69	440.02
424.88	397.89
425.07	444.70
425.26	472.79
425.45	440.02
425.64	393.21
425.83	388.53
426.01	386.19
426.20	327.68
426.39	390.87
426.58	383.85
426.77	411.93
426.96	409.59
427.15	435.34
427.33	369.80
427.52	423.64
427.71	430.66
427.90	355.76
428.09	430.66
428.28	360.44
428.46	402.57
428.65	428.32
428.84	390.87
429.03	468.11
429.22	407.25
429.40	421.30
429.59	425.98
429.78	444.70
429.97	355.76
430.16	454.06
430.34	442.36
430.53	360.44
430.72	369.80
430.91	454.06
431.10	423.64
431.28	421.30
431.47	388.53
431.66	374.49
431.85	440.02
432.03	458.74
432.22	526.62
432.41	390.87
432.60	458.74
432.79	428.32
432.97	409.59
433.16	400.23
433.35	381.51
433.54	407.25
433.72	433.00
433.91	425.98
434.10	414.27
434.28	421.30
434.47	381.51
434.66	437.68
434.85	421.30
435.03	395.55
435.22	447.04
435.41	383.85
435.59	479.81
435.78	358.10
435.97	351.08
436.16	397.89
436.34	428.32
436.53	440.02
436.72	433.00
436.90	433.00
437.09	388.53
437.28	397.89
437.46	362.78
437.65	365.12
437.84	414.27
438.02	367.46
438.21	358.10
438.40	374.49
438.58	400.23
438.77	395.55
438.96	404.91
439.14	374.49
439.33	418.96
439.52	416.62
439.70	390.87
439.89	374.49
440.08	414.27
440.26	367.46
440.45	433.00
440.63	376.83
440.82	500.87
441.01	362.78
441.19	388.53
441.38	397.89
441.57	454.06
441.75	454.06
441.94	442.36
442.12	461.09
442.31	500.87
442.50	376.83
442.68	414.27
442.87	433.00
443.05	383.85
443.24	421.30
443.43	477.47
443.61	456.40
443.80	433.00
443.98	433.00
444.17	411.93
444.35	402.57
444.54	400.23
444.73	409.59
444.91	397.89
445.10	475.13
445.28	423.64
445.47	374.49
445.65	400.23
445.84	416.62
446.02	407.25
446.21	397.89
446.39	440.02
446.58	482.15
446.77	447.04
446.95	409.59
447.14	327.68
447.32	479.81
447.51	400.23
447.69	404.91
447.88	414.27
448.06	435.34
448.25	374.49
448.43	390.87
448.62	433.00
448.80	428.32
448.99	374.49
449.17	374.49
449.36	491.51
449.54	386.19
449.73	365.12
449.91	430.66
450.10	418.96
450.28	358.10
450.46	482.15
450.65	425.98
450.83	463.43
451.02	428.32
451.20	379.17
451.39	437.68
451.57	383.85
451.76	416.62
451.94	421.30
452.13	423.64
452.31	428.32
452.49	468.11
452.68	440.02
452.86	400.23
453.05	440.02
453.23	461.09
453.42	372.15
453.60	400.23
453.78	355.76
453.97	421.30
454.15	355.76
454.34	416.62
454.52	409.59
454.70	454.06
454.89	423.64
455.07	409.59
455.26	507.90
455.44	468.11
455.62	411.93
455.81	454.06
455.99	402.57
456.17	430.66
456.36	393.21
456.54	362.78
456.73	376.83
456.91	397.89
457.09	409.59
457.28	411.93
457.46	430.66
457.64	449.38
457.83	442.36
458.01	454.06
458.19	414.27
458.38	355.76
458.56	428.32
458.74	393.21
458.93	430.66
459.11	320.65
459.29	393.21
459.48	376.83
459.66	404.91
459.84	414.27
460.03	465.77
460.21	489.17
460.39	451.72
460.57	416.62
460.76	400.23
460.94	411.93
461.12	397.89
461.31	444.70
461.49	383.85
461.67	496.19
461.85	451.72
462.04	386.19
462.22	791.10
462.40	465.77
462.59	447.04
462.77	489.17
462.95	440.02
463.13	358.10
463.32	414.27
463.50	390.87
463.68	400.23
463.86	484.49
464.05	461.09
464.23	472.79
464.41	372.15
464.59	402.57
464.78	369.80
464.96	358.10
465.14	423.64
465.32	451.72
465.50	484.49
465.69	374.49
465.87	428.32
466.05	388.53
466.23	351.08
466.41	505.56
466.60	423.64
466.78	348.74
466.96	489.17
467.14	369.80
467.32	397.89
467.51	388.53
467.69	444.70
467.87	416.62
468.05	416.62
468.23	407.25
468.41	454.06
468.60	428.32
468.78	418.96
468.96	390.87
469.14	376.83
469.32	386.19
469.50	383.85
469.69	465.77
469.87	386.19
470.05	454.06
470.23	449.38
470.41	407.25
470.59	395.55
470.77	332.36
470.95	374.49
471.14	376.83
471.32	386.19
471.50	440.02
471.68	374.49
471.86	376.83
472.04	411.93
472.22	425.98
472.40	423.64
472.58	428.32
472.77	397.89
472.95	447.04
473.13	479.81
473.31	444.70
473.49	423.64
473.67	404.91
473.85	430.66
474.03	383.85
474.21	440.02
474.39	451.72
474.57	465.77
474.75	411.93
474.93	409.59
475.12	386.19
475.30	404.91
475.48	447.04
475.66	386.19
475.84	454.06
476.02	362.78
476.20	444.70
476.38	435.34
476.56	440.02
476.74	437.68
476.92	454.06
477.10	423.64
477.28	458.74
477.46	292.57
477.64	372.15
477.82	409.59
478.00	397.89
478.18	500.87
478.36	411.93
478.54	421.30
478.72	447.04
478.90	437.68
479.08	423.64
479.26	414.27
479.44	388.53
479.62	409.59
479.80	318.31
479.98	416.62
480.16	444.70
480.34	449.38
480.52	407.25
480.70	400.23
480.88	475.13
481.06	351.08
481.24	337.04
481.41	442.36
481.59	423.64
481.77	418.96
481.95	411.93
482.13	482.15
482.31	451.72
482.49	400.23
482.67	444.70
482.85	409.59
483.03	404.91
483.21	414.27
483.39	388.53
483.57	400.23
483.74	421.30
483.92	397.89
484.10	381.51
484.28	402.57
484.46	496.19
484.64	423.64
484.82	355.76
485.00	437.68
485.18	409.59
485.35	493.85
485.53	440.02
485.71	489.17
485.89	437.68
486.07	430.66
486.25	440.02
486.43	402.57
486.61	437.68
486.78	440.02
486.96	353.42
487.14	479.81
487.32	449.38
487.50	484.49
487.68	425.98
487.85	341.72
488.03	400.23
488.21	416.62
488.39	416.62
488.57	437.68
488.75	353.42
488.92	454.06
489.10	458.74
489.28	376.83
489.46	393.21
489.64	451.72
489.81	402.57
489.99	416.62
490.17	386.19
490.35	421.30
490.53	425.98
490.70	390.87
490.88	332.36
491.06	402.57
491.24	416.62
491.41	486.83
491.59	409.59
491.77	386.19
491.95	404.91
492.13	388.53
492.30	381.51
492.48	425.98
492.66	395.55
492.84	397.89
493.01	407.25
493.19	479.81
493.37	533.64
493.54	517.26
493.72	489.17
493.90	437.68
494.08	411.93
494.25	418.96
494.43	416.62
494.61	397.89
494.79	416.62
494.96	390.87
495.14	393.21
495.32	376.83
495.49	437.68
495.67	383.85
495.85	409.59
496.02	418.96
496.20	442.36
496.38	411.93
496.55	381.51
496.73	407.25
496.91	421.30
497.09	477.47
497.26	390.87
497.44	402.57
497.62	447.04
497.79	397.89
497.97	423.64
498.14	386.19
498.32	344.06
498.50	388.53
498.67	440.02
498.85	421.30
499.03	486.83
499.20	330.02
499.38	458.74
499.56	437.68
499.73	449.38
499.91	456.40
500.08	437.68
500.26	421.30
500.44	482.15
500.61	449.38
500.79	402.57
500.97	456.40
501.14	425.98
501.32	402.57
501.49	416.62
501.67	444.70
501.84	428.32
502.02	421.30
502.20	526.62
502.37	449.38
502.55	470.45
502.72	409.59
502.90	386.19
503.07	423.64
503.25	395.55
503.43	430.66
503.60	461.09
503.78	437.68
503.95	449.38
504.13	458.74
504.30	463.43
504.48	456.40
504.65	454.06
504.83	458.74
505.01	337.04
505.18	437.68
505.36	468.11
505.53	400.23
505.71	414.27
505.88	472.79
506.06	379.17
506.23	425.98
506.41	435.34
506.58	472.79
506.76	414.27
506.93	327.68
507.11	456.40
507.28	437.68
507.46	463.43
507.63	468.11
507.81	395.55
507.98	360.44
508.16	374.49
508.33	444.70
508.50	393.21
508.68	416.62
508.85	397.89
509.03	444.70
509.20	425.98
509.38	379.17
509.55	409.59
509.73	437.68
509.90	421.30
510.08	362.78
510.25	400.23
510.42	381.51
510.60	360.44
510.77	449.38
510.95	374.49
511.12	400.23
511.30	400.23
511.47	374.49
511.64	447.04
511.82	330.02
511.99	395.55
512.17	435.34
512.34	418.96
512.51	496.19
512.69	386.19
512.86	418.96
513.04	437.68
513.21	393.21
513.38	447.04
513.56	442.36
513.73	477.47
513.90	421.30
514.08	383.85
514.25	390.87
514.43	458.74
514.60	416.62
514.77	348.74
514.95	390.87
515.12	418.96
515.29	440.02
515.47	423.64
515.64	440.02
515.81	437.68
515.99	404.91
516.16	503.22
516.33	493.85
516.51	376.83
516.68	447.04
516.85	386.19
517.03	416.62
517.20	425.98
517.37	381.51
517.54	355.76
517.72	395.55
517.89	365.12
518.06	425.98
518.24	428.32
518.41	397.89
518.58	400.23
518.75	458.74
518.93	437.68
519.10	461.09
519.27	334.70
519.45	425.98
519.62	397.89
519.79	456.40
519.96	433.00
520.14	493.85
520.31	402.57
520.48	409.59
520.65	360.44
520.83	402.57
521.00	463.43
521.17	372.15
521.34	402.57
521.52	440.02
521.69	402.57
521.86	390.87
522.03	435.34
522.20	543.00
522.38	395.55
522.55	416.62
522.72	449.38
522.89	397.89
523.07	400.23
523.24	388.53
523.41	388.53
523.58	430.66
523.75	425.98
523.92	423.64
524.10	461.09
524.27	449.38
524.44	390.87
524.61	437.68
524.78	306.61
524.96	454.06
525.13	444.70
525.30	353.42
525.47	484.49
525.64	472.79
525.81	341.72
525.98	479.81
526.16	433.00
526.33	484.49
526.50	428.32
526.67	369.80
526.84	388.53
527.01	404.91
527.18	421.30
527.36	430.66
527.53	433.00
527.70	479.81
527.87	390.87
528.04	489.17
528.21	383.85
528.38	472.79
528.55	463.43
528.72	442.36
528.89	421.30
529.07	365.12
529.24	411.93
529.41	507.90
529.58	358.10
529.75	421.30
529.92	493.85
530.09	393.21
530.26	355.76
530.43	423.64
530.60	433.00
530.77	395.55
530.94	458.74
531.11	421.30
531.28	365.12
531.46	409.59
531.63	348.74
531.80	409.59
531.97	390.87
532.14	400.23
532.31	433.00
532.48	407.25
532.65	374.49
532.82	369.80
532.99	482.15
533.16	414.27
533.33	360.44
533.50	332.36
533.67	409.59
533.84	461.09
534.01	454.06
534.18	425.98
534.35	402.57
534.52	423.64
534.69	411.93
534.86	388.53
535.03	437.68
535.20	379.17
535.37	505.56
535.54	416.62
535.71	468.11
535.88	390.87
536.05	407.25
536.22	416.62
536.38	379.17
536.55	358.10
536.72	379.17
536.89	416.62
537.06	388.53
537.23	390.87
537.40	407.25
537.57	374.49
537.74	379.17
537.91	414.27
538.08	367.46
538.25	493.85
538.42	440.02
538.59	437.68
538.75	404.91
538.92	418.96
539.09	463.43
539.26	411.93
539.43	425.98
539.60	400.23
539.77	423.64
539.94	496.19
540.11	421.30
540.28	440.02
540.44	365.12
540.61	351.08
540.78	388.53
540.95	362.78
541.12	400.23
541.29	386.19
541.46	435.34
541.62	430.66
541.79	362.78
541.96	451.72
542.13	444.70
542.30	451.72
542.47	435.34
542.63	468.11
542.80	388.53
542.97	423.64
543.14	348.74
543.31	442.36
543.48	442.36
543.64	430.66
543.81	407.25
543.98	397.89
544.15	322.99
544.32	390.87
544.48	411.93
544.65	383.85
544.82	418.96
544.99	397.89
545.16	475.13
545.32	393.21
545.49	437.68
545.66	407.25
545.83	409.59
546.00	341.72
546.16	334.70
546.33	437.68
546.50	440.02
546.67	437.68
546.83	358.10
547.00	388.53
547.17	358.10
547.34	505.56
547.50	393.21
547.67	414.27
547.84	433.00
548.00	463.43
548.17	440.02
548.34	362.78
548.51	475.13
548.67	444.70
548.84	465.77
549.01	479.81
549.18	472.79
549.34	416.62
549.51	339.38
549.68	360.44
549.84	491.51
550.01	397.89
550.18	372.15
550.34	440.02
550.51	395.55
550.68	407.25
550.84	367.46
551.01	461.09
551.18	463.43
551.34	358.10
551.51	402.57
551.68	472.79
551.84	421.30
552.01	365.12
552.18	414.27
552.34	404.91
552.51	395.55
552.68	428.32
552.84	444.70
553.01	388.53
553.18	451.72
553.34	407.25
553.51	472.79
553.67	456.40
553.84	496.19
554.01	407.25
554.17	456.40
554.34	395.55
554.51	425.98
554.67	395.55
554.84	416.62
555.00	367.46
555.17	437.68
555.33	390.87
555.50	421.30
555.67	393.21
555.83	390.87
556.00	437.68
556.16	594.50
556.33	374.49
556.50	346.40
556.66	430.66
556.83	416.62
556.99	397.89
557.16	484.49
557.32	388.53
557.49	325.33
557.65	454.06
557.82	414.27
557.98	486.83
558.15	440.02
558.32	351.08
558.48	381.51
558.65	376.83
558.81	454.06
558.98	411.93
559.14	458.74
559.31	348.74
559.47	397.89
559.64	430.66
559.80	444.70
559.97	355.76
560.13	397.89
560.30	472.79
560.46	421.30
560.63	444.70
560.79	404.91
560.96	454.06
561.12	503.22
561.29	498.53
561.45	456.40
561.61	400.23
561.78	428.32
561.94	402.57
562.11	386.19
562.27	423.64
562.44	379.17
562.60	486.83
562.77	369.80
562.93	447.04
563.10	313.63
563.26	404.91
563.42	376.83
563.59	390.87
563.75	425.98
563.92	486.83
564.08	433.00
564.24	458.74
564.41	540.66
564.57	404.91
564.74	416.62
564.90	437.68
565.07	430.66
565.23	472.79
565.39	397.89
565.56	447.04
565.72	451.72
565.88	470.45
566.05	365.12
566.21	348.74
566.38	428.32
566.54	411.93
566.70	379.17
566.87	404.91
567.03	442.36
567.19	428.32
567.36	395.55
567.52	365.12
567.68	428.32
567.85	402.57
568.01	528.96
568.17	374.49
568.34	400.23
568.50	458.74
568.66	379.17
568.83	472.79
568.99	435.34
569.15	425.98
569.32	390.87
569.48	458.74
569.64	409.59
569.81	449.38
569.97	358.10
570.13	428.32
570.30	411.93
570.46	449.38
570.62	418.96
570.78	477.47
570.95	437.68
571.11	461.09
571.27	435.34
571.43	435.34
571.60	442.36
571.76	395.55
571.92	465.77
572.09	484.49
572.25	470.45
572.41	360.44
572.57	379.17
572.74	449.38
572.90	463.43
573.06	411.93
573.22	397.89
573.38	433.00
573.55	433.00
573.71	414.27
573.87	393.21
574.03	425.98
574.20	397.89
574.36	447.04
574.52	435.34
574.68	411.93
574.84	416.62
575.01	383.85
575.17	454.06
575.33	402.57
575.49	355.76
575.65	369.80
575.82	404.91
575.98	428.32
576.14	428.32
576.30	400.23
576.46	386.19
576.62	393.21
576.79	442.36
576.95	388.53
577.11	421.30
577.27	390.87
577.43	461.09
577.59	407.25
577.75	493.85
577.92	461.09
578.08	411.93
578.24	381.51
578.40	433.00
578.56	491.51
578.72	404.91
578.88	437.68
579.04	472.79
579.21	369.80
579.37	463.43
579.53	437.68
579.69	404.91
579.85	383.85
580.01	451.72
580.17	444.70
580.33	390.87
580.49	344.06
580.65	428.32
580.82	423.64
580.98	433.00
581.14	400.23
581.30	437.68
581.46	400.23
581.62	390.87
581.78	367.46
581.94	479.81
582.10	428.32
582.26	454.06
582.42	421.30
582.58	383.85
582.74	367.46
582.90	381.51
583.06	486.83
583.22	397.89
583.38	447.04
583.54	395.55
583.70	454.06
583.86	416.62
584.02	383.85
584.18	400.23
584.34	456.40
584.50	421.30
584.66	407.25
584.82	404.91
584.98	383.85
585.14	381.51
585.30	414.27
585.46	376.83
585.62	444.70
585.78	435.34
585.94	449.38
586.10	423.64
586.26	400.23
586.42	447.04
586.58	407.25
586.74	458.74
586.90	402.57
587.06	372.15
587.22	318.31
587.38	395.55
587.54	437.68
587.70	444.70
587.86	489.17
588.02	449.38
588.18	454.06
588.34	416.62
588.49	411.93
588.65	402.57
588.81	365.12
588.97	411.93
589.13	454.06
589.29	444.70
589.45	454.06
589.61	454.06
589.77	409.59
589.93	315.97
590.08	407.25
590.24	444.70
590.40	451.72
590.56	428.32
590.72	393.21
590.88	365.12
591.04	468.11
591.20	433.00
591.35	447.04
591.51	407.25
591.67	423.64
591.83	440.02
591.99	397.89
592.15	374.49
592.31	402.57
592.46	393.21
592.62	449.38
592.78	414.27
592.94	372.15
593.10	425.98
593.26	393.21
593.41	423.64
593.57	388.53
593.73	416.62
593.89	458.74
594.05	433.00
594.20	454.06
594.36	362.78
594.52	393.21
594.68	379.17
594.84	477.47
594.99	433.00
595.15	409.59
595.31	404.91
595.47	435.34
595.62	444.70
595.78	414.27
595.94	433.00
596.10	397.89
596.25	465.77
596.41	451.72
596.57	379.17
596.73	428.32
596.88	418.96
597.04	458.74
597.20	355.76
597.36	376.83
597.51	390.87
597.67	395.55
597.83	355.76
597.99	437.68
598.14	339.38
598.30	374.49
598.46	418.96
598.61	449.38
598.77	489.17
598.93	322.99
599.09	421.30
599.24	369.80
599.40	365.12
599.56	418.96
599.71	355.76
599.87	390.87
600.03	395.55
600.18	418.96
600.34	390.87
600.50	449.38
600.65	383.85
600.81	395.55
600.97	421.30
601.12	393.21
601.28	442.36
601.44	472.79
601.59	325.33
601.75	442.36
601.91	421.30
602.06	421.30
602.22	442.36
602.37	458.74
602.53	367.46
602.69	437.68
602.84	379.17
603.00	355.76
603.16	414.27
603.31	447.04
603.47	414.27
603.62	430.66
603.78	416.62
603.94	421.30
604.09	423.64
604.25	372.15
604.40	409.59
604.56	379.17
604.71	414.27
604.87	395.55
605.03	374.49
605.18	433.00
605.34	456.40
605.49	477.47
605.65	433.00
605.80	381.51
605.96	435.34
606.12	433.00
606.27	400.23
606.43	388.53
606.58	458.74
606.74	425.98
606.89	418.96
607.05	421.30
607.20	369.80
607.36	372.15
607.51	365.12
607.67	465.77
607.82	407.25
607.98	421.30
608.13	400.23
608.29	400.23
608.44	442.36
608.60	372.15
608.75	402.57
608.91	395.55
609.06	351.08
609.22	475.13
609.37	456.40
609.53	400.23
609.68	440.02
609.84	365.12
609.99	393.21
610.15	386.19
