SpectraSuite Data File
++++++++++++++++++++++++++++++++++++
Date: Fri Oct 25 12:11:20 EDT 2013
User: price-jones
Dark Spectrum Present: No
Reference Spectrum Present: No
Number of Sampled Component Spectra: 1
Spectrometers: USB2+H05261
Integration Time (usec): 100000 (USB2+H05261)
Spectra Averaged: 1 (USB2+H05261)
Boxcar Smoothing: 0 (USB2+H05261)
Correct for Electrical Dark: No (USB2+H05261)
Strobe/Lamp Enabled: No (USB2+H05261)
Correct for Detector Non-linearity: No (USB2+H05261)
Correct for Stray Light: No (USB2+H05261)
Number of Pixels in Processed Spectrum: 2048
>>>>>Begin Processed Spectral Data<<<<<
365.73	360.44
365.92	360.44
366.12	360.44
366.32	294.91
366.52	215.33
366.72	294.91
366.91	227.03
367.11	210.65
367.31	264.48
367.51	285.55
367.70	198.95
367.90	210.65
368.10	191.92
368.30	278.52
368.49	212.99
368.69	285.55
368.89	243.42
369.09	243.42
369.28	313.63
369.48	269.16
369.68	337.04
369.87	341.72
370.07	271.50
370.27	372.15
370.47	304.27
370.66	339.38
370.86	369.80
371.06	388.53
371.25	421.30
371.45	311.29
371.65	411.93
371.84	353.42
372.04	402.57
372.24	461.09
372.44	386.19
372.63	374.49
372.83	416.62
373.03	374.49
373.22	367.46
373.42	402.57
373.62	376.83
373.81	334.70
374.01	416.62
374.21	421.30
374.40	318.31
374.60	379.17
374.79	404.91
374.99	365.12
375.19	409.59
375.38	428.32
375.58	322.99
375.78	437.68
375.97	440.02
376.17	409.59
376.37	435.34
376.56	388.53
376.76	360.44
376.95	447.04
377.15	451.72
377.35	411.93
377.54	355.76
377.74	409.59
377.93	388.53
378.13	383.85
378.33	444.70
378.52	388.53
378.72	418.96
378.91	458.74
379.11	353.42
379.31	421.30
379.50	360.44
379.70	437.68
379.89	468.11
380.09	369.80
380.28	437.68
380.48	386.19
380.68	442.36
380.87	409.59
381.07	383.85
381.26	463.43
381.46	423.64
381.65	386.19
381.85	379.17
382.04	472.79
382.24	379.17
382.43	447.04
382.63	386.19
382.83	372.15
383.02	369.80
383.22	500.87
383.41	437.68
383.61	395.55
383.80	491.51
384.00	351.08
384.19	402.57
384.39	407.25
384.58	390.87
384.78	376.83
384.97	423.64
385.17	365.12
385.36	482.15
385.56	435.34
385.75	404.91
385.95	491.51
386.14	472.79
386.34	411.93
386.53	381.51
386.72	411.93
386.92	430.66
387.11	416.62
387.31	411.93
387.50	374.49
387.70	320.65
387.89	369.80
388.09	411.93
388.28	369.80
388.48	358.10
388.67	397.89
388.86	379.17
389.06	369.80
389.25	465.77
389.45	465.77
389.64	425.98
389.84	449.38
390.03	475.13
390.22	411.93
390.42	435.34
390.61	447.04
390.81	365.12
391.00	414.27
391.19	390.87
391.39	379.17
391.58	444.70
391.78	372.15
391.97	435.34
392.16	425.98
392.36	440.02
392.55	369.80
392.75	514.92
392.94	397.89
393.13	386.19
393.33	372.15
393.52	451.72
393.71	421.30
393.91	386.19
394.10	362.78
394.29	435.34
394.49	395.55
394.68	409.59
394.88	433.00
395.07	388.53
395.26	327.68
395.46	369.80
395.65	390.87
395.84	444.70
396.04	416.62
396.23	397.89
396.42	425.98
396.62	411.93
396.81	484.49
397.00	390.87
397.19	463.43
397.39	437.68
397.58	440.02
397.77	362.78
397.97	411.93
398.16	355.76
398.35	425.98
398.55	386.19
398.74	404.91
398.93	468.11
399.12	334.70
399.32	416.62
399.51	372.15
399.70	425.98
399.90	465.77
400.09	383.85
400.28	388.53
400.47	320.65
400.67	337.04
400.86	337.04
401.05	404.91
401.24	435.34
401.44	383.85
401.63	402.57
401.82	425.98
402.01	407.25
402.21	407.25
402.40	505.56
402.59	400.23
402.78	365.12
402.97	351.08
403.17	416.62
403.36	442.36
403.55	428.32
403.74	374.49
403.93	374.49
404.13	428.32
404.32	397.89
404.51	416.62
404.70	351.08
404.89	379.17
405.09	430.66
405.28	397.89
405.47	397.89
405.66	451.72
405.85	435.34
406.05	414.27
406.24	442.36
406.43	369.80
406.62	433.00
406.81	437.68
407.00	421.30
407.20	493.85
407.39	425.98
407.58	430.66
407.77	444.70
407.96	397.89
408.15	456.40
408.34	416.62
408.54	383.85
408.73	397.89
408.92	444.70
409.11	397.89
409.30	402.57
409.49	416.62
409.68	430.66
409.87	360.44
410.07	294.91
410.26	358.10
410.45	468.11
410.64	470.45
410.83	416.62
411.02	390.87
411.21	433.00
411.40	475.13
411.59	402.57
411.78	386.19
411.98	421.30
412.17	374.49
412.36	404.91
412.55	407.25
412.74	393.21
412.93	465.77
413.12	388.53
413.31	404.91
413.50	376.83
413.69	388.53
413.88	458.74
414.07	404.91
414.26	404.91
414.45	346.40
414.64	397.89
414.83	437.68
415.02	348.74
415.22	395.55
415.41	456.40
415.60	402.57
415.79	402.57
415.98	423.64
416.17	456.40
416.36	454.06
416.55	341.72
416.74	397.89
416.93	393.21
417.12	472.79
417.31	435.34
417.50	402.57
417.69	437.68
417.88	433.00
418.07	381.51
418.26	376.83
418.45	355.76
418.64	414.27
418.83	489.17
419.02	358.10
419.21	332.36
419.39	461.09
419.58	416.62
419.77	442.36
419.96	458.74
420.15	468.11
420.34	358.10
420.53	454.06
420.72	454.06
420.91	444.70
421.10	400.23
421.29	472.79
421.48	409.59
421.67	393.21
421.86	458.74
422.05	372.15
422.24	390.87
422.43	388.53
422.61	423.64
422.80	360.44
422.99	447.04
423.18	393.21
423.37	484.49
423.56	400.23
423.75	409.59
423.94	425.98
424.13	416.62
424.32	421.30
424.50	411.93
424.69	416.62
424.88	458.74
425.07	360.44
425.26	379.17
425.45	388.53
425.64	458.74
425.83	433.00
426.01	440.02
426.20	390.87
426.39	390.87
426.58	372.15
426.77	311.29
426.96	351.08
427.15	425.98
427.33	423.64
427.52	409.59
427.71	433.00
427.90	496.19
428.09	407.25
428.28	383.85
428.46	386.19
428.65	472.79
428.84	423.64
429.03	482.15
429.22	416.62
429.40	418.96
429.59	386.19
429.78	404.91
429.97	472.79
430.16	454.06
430.34	451.72
430.53	390.87
430.72	442.36
430.91	423.64
431.10	381.51
431.28	369.80
431.47	456.40
431.66	367.46
431.85	383.85
432.03	400.23
432.22	381.51
432.41	358.10
432.60	404.91
432.79	397.89
432.97	512.58
433.16	395.55
433.35	376.83
433.54	393.21
433.72	442.36
433.91	369.80
434.10	414.27
434.28	425.98
434.47	416.62
434.66	449.38
434.85	358.10
435.03	468.11
435.22	376.83
435.41	416.62
435.59	400.23
435.78	395.55
435.97	365.12
436.16	379.17
436.34	376.83
436.53	393.21
436.72	461.09
436.90	423.64
437.09	407.25
437.28	402.57
437.46	376.83
437.65	383.85
437.84	418.96
438.02	397.89
438.21	470.45
438.40	468.11
438.58	423.64
438.77	379.17
438.96	386.19
439.14	393.21
439.33	390.87
439.52	355.76
439.70	407.25
439.89	458.74
440.08	411.93
440.26	372.15
440.45	369.80
440.63	397.89
440.82	390.87
441.01	458.74
441.19	454.06
441.38	477.47
441.57	440.02
441.75	456.40
441.94	395.55
442.12	393.21
442.31	344.06
442.50	463.43
442.68	444.70
442.87	493.85
443.05	421.30
443.24	407.25
443.43	449.38
443.61	367.46
443.80	404.91
443.98	383.85
444.17	407.25
444.35	454.06
444.54	423.64
444.73	402.57
444.91	404.91
445.10	416.62
445.28	461.09
445.47	379.17
445.65	381.51
445.84	381.51
446.02	372.15
446.21	477.47
446.39	416.62
446.58	538.32
446.77	435.34
446.95	372.15
447.14	425.98
447.32	442.36
447.51	416.62
447.69	430.66
447.88	411.93
448.06	430.66
448.25	365.12
448.43	383.85
448.62	395.55
448.80	421.30
448.99	416.62
449.17	409.59
449.36	414.27
449.54	397.89
449.73	358.10
449.91	411.93
450.10	465.77
450.28	468.11
450.46	430.66
450.65	423.64
450.83	440.02
451.02	365.12
451.20	463.43
451.39	386.19
451.57	435.34
451.76	360.44
451.94	348.74
452.13	390.87
452.31	454.06
452.49	493.85
452.68	318.31
452.86	376.83
453.05	409.59
453.23	456.40
453.42	407.25
453.60	376.83
453.78	472.79
453.97	435.34
454.15	430.66
454.34	435.34
454.52	498.53
454.70	500.87
454.89	425.98
455.07	393.21
455.26	411.93
455.44	386.19
455.62	341.72
455.81	416.62
455.99	433.00
456.17	393.21
456.36	433.00
456.54	423.64
456.73	322.99
456.91	407.25
457.09	451.72
457.28	505.56
457.46	393.21
457.64	425.98
457.83	407.25
458.01	393.21
458.19	433.00
458.38	414.27
458.56	404.91
458.74	465.77
458.93	414.27
459.11	423.64
459.29	386.19
459.48	454.06
459.66	437.68
459.84	458.74
460.03	519.60
460.21	407.25
460.39	383.85
460.57	456.40
460.76	388.53
460.94	442.36
461.12	411.93
461.31	433.00
461.49	468.11
461.67	416.62
461.85	376.83
462.04	379.17
462.22	819.19
462.40	472.79
462.59	365.12
462.77	414.27
462.95	390.87
463.13	435.34
463.32	418.96
463.50	383.85
463.68	444.70
463.86	393.21
464.05	339.38
464.23	449.38
464.41	421.30
464.59	367.46
464.78	409.59
464.96	449.38
465.14	496.19
465.32	348.74
465.50	372.15
465.69	475.13
465.87	386.19
466.05	447.04
466.23	372.15
466.41	456.40
466.60	435.34
466.78	456.40
466.96	404.91
467.14	383.85
467.32	468.11
467.51	470.45
467.69	416.62
467.87	404.91
468.05	437.68
468.23	416.62
468.41	428.32
468.60	447.04
468.78	437.68
468.96	397.89
469.14	400.23
469.32	369.80
469.50	369.80
469.69	430.66
469.87	411.93
470.05	400.23
470.23	440.02
470.41	444.70
470.59	404.91
470.77	444.70
470.95	437.68
471.14	449.38
471.32	393.21
471.50	418.96
471.68	404.91
471.86	430.66
472.04	390.87
472.22	407.25
472.40	416.62
472.58	428.32
472.77	381.51
472.95	400.23
473.13	500.87
473.31	428.32
473.49	440.02
473.67	435.34
473.85	435.34
474.03	381.51
474.21	409.59
474.39	381.51
474.57	421.30
474.75	470.45
474.93	388.53
475.12	435.34
475.30	376.83
475.48	463.43
475.66	400.23
475.84	456.40
476.02	428.32
476.20	409.59
476.38	472.79
476.56	472.79
476.74	479.81
476.92	444.70
477.10	418.96
477.28	402.57
477.46	486.83
477.64	425.98
477.82	503.22
478.00	397.89
478.18	381.51
478.36	365.12
478.54	332.36
478.72	360.44
478.90	318.31
479.08	404.91
479.26	430.66
479.44	444.70
479.62	358.10
479.80	346.40
479.98	425.98
480.16	411.93
480.34	423.64
480.52	365.12
480.70	411.93
480.88	425.98
481.06	400.23
481.24	374.49
481.41	355.76
481.59	456.40
481.77	404.91
481.95	440.02
482.13	444.70
482.31	449.38
482.49	381.51
482.67	435.34
482.85	433.00
483.03	416.62
483.21	437.68
483.39	325.33
483.57	393.21
483.74	400.23
483.92	461.09
484.10	365.12
484.28	472.79
484.46	468.11
484.64	465.77
484.82	430.66
485.00	435.34
485.18	376.83
485.35	454.06
485.53	428.32
485.71	449.38
485.89	437.68
486.07	383.85
486.25	461.09
486.43	458.74
486.61	421.30
486.78	428.32
486.96	533.64
487.14	358.10
487.32	421.30
487.50	404.91
487.68	423.64
487.85	411.93
488.03	433.00
488.21	423.64
488.39	475.13
488.57	430.66
488.75	365.12
488.92	540.66
489.10	472.79
489.28	477.47
489.46	390.87
489.64	451.72
489.81	425.98
489.99	428.32
490.17	344.06
490.35	409.59
490.53	353.42
490.70	360.44
490.88	496.19
491.06	465.77
491.24	433.00
491.41	449.38
491.59	442.36
491.77	386.19
491.95	416.62
492.13	451.72
492.30	470.45
492.48	400.23
492.66	414.27
492.84	367.46
493.01	461.09
493.19	454.06
493.37	547.69
493.54	428.32
493.72	428.32
493.90	440.02
494.08	390.87
494.25	512.58
494.43	475.13
494.61	437.68
494.79	465.77
494.96	325.33
495.14	440.02
495.32	458.74
495.49	407.25
495.67	395.55
495.85	430.66
496.02	421.30
496.20	461.09
496.38	486.83
496.55	376.83
496.73	472.79
496.91	374.49
497.09	400.23
497.26	369.80
497.44	348.74
497.62	400.23
497.79	344.06
497.97	386.19
498.14	383.85
498.32	421.30
498.50	447.04
498.67	404.91
498.85	423.64
499.03	437.68
499.20	421.30
499.38	461.09
499.56	416.62
499.73	449.38
499.91	407.25
500.08	468.11
500.26	402.57
500.44	404.91
500.61	454.06
500.79	381.51
500.97	416.62
501.14	524.28
501.32	376.83
501.49	472.79
501.67	390.87
501.84	428.32
502.02	418.96
502.20	468.11
502.37	397.89
502.55	402.57
502.72	418.96
502.90	372.15
503.07	383.85
503.25	379.17
503.43	416.62
503.60	423.64
503.78	386.19
503.95	407.25
504.13	376.83
504.30	433.00
504.48	400.23
504.65	442.36
504.83	447.04
505.01	367.46
505.18	421.30
505.36	339.38
505.53	440.02
505.71	400.23
505.88	430.66
506.06	409.59
506.23	433.00
506.41	416.62
506.58	421.30
506.76	358.10
506.93	367.46
507.11	372.15
507.28	414.27
507.46	442.36
507.63	475.13
507.81	456.40
507.98	416.62
508.16	409.59
508.33	437.68
508.50	365.12
508.68	418.96
508.85	416.62
509.03	320.65
509.20	355.76
509.38	463.43
509.55	428.32
509.73	475.13
509.90	451.72
510.08	440.02
510.25	421.30
510.42	430.66
510.60	433.00
510.77	437.68
510.95	475.13
511.12	327.68
511.30	411.93
511.47	376.83
511.64	477.47
511.82	416.62
511.99	442.36
512.17	376.83
512.34	360.44
512.51	400.23
512.69	416.62
512.86	447.04
513.04	339.38
513.21	388.53
513.38	421.30
513.56	458.74
513.73	449.38
513.90	402.57
514.08	416.62
514.25	463.43
514.43	418.96
514.60	416.62
514.77	435.34
514.95	440.02
515.12	444.70
515.29	442.36
515.47	351.08
515.64	454.06
515.81	468.11
515.99	437.68
516.16	388.53
516.33	383.85
516.51	475.13
516.68	402.57
516.85	444.70
517.03	463.43
517.20	416.62
517.37	414.27
517.54	430.66
517.72	400.23
517.89	344.06
518.06	456.40
518.24	397.89
518.41	489.17
518.58	428.32
518.75	388.53
518.93	379.17
519.10	407.25
519.27	376.83
519.45	458.74
519.62	433.00
519.79	414.27
519.96	351.08
520.14	397.89
520.31	503.22
520.48	463.43
520.65	376.83
520.83	367.46
521.00	379.17
521.17	407.25
521.34	442.36
521.52	400.23
521.69	397.89
521.86	393.21
522.03	416.62
522.20	475.13
522.38	458.74
522.55	477.47
522.72	465.77
522.89	496.19
523.07	390.87
523.24	337.04
523.41	365.12
523.58	416.62
523.75	400.23
523.92	479.81
524.10	411.93
524.27	365.12
524.44	423.64
524.61	348.74
524.78	374.49
524.96	425.98
525.13	421.30
525.30	414.27
525.47	444.70
525.64	456.40
525.81	437.68
525.98	423.64
526.16	379.17
526.33	383.85
526.50	423.64
526.67	477.47
526.84	365.12
527.01	379.17
527.18	322.99
527.36	348.74
527.53	404.91
527.70	407.25
527.87	383.85
528.04	411.93
528.21	388.53
528.38	447.04
528.55	414.27
528.72	369.80
528.89	383.85
529.07	407.25
529.24	397.89
529.41	411.93
529.58	425.98
529.75	430.66
529.92	395.55
530.09	440.02
530.26	458.74
530.43	376.83
530.60	365.12
530.77	484.49
530.94	479.81
531.11	423.64
531.28	381.51
531.46	458.74
531.63	416.62
531.80	383.85
531.97	442.36
532.14	404.91
532.31	428.32
532.48	442.36
532.65	386.19
532.82	444.70
532.99	456.40
533.16	423.64
533.33	435.34
533.50	440.02
533.67	404.91
533.84	465.77
534.01	442.36
534.18	414.27
534.35	390.87
534.52	386.19
534.69	407.25
534.86	365.12
535.03	442.36
535.20	454.06
535.37	489.17
535.54	435.34
535.71	472.79
535.88	526.62
536.05	428.32
536.22	491.51
536.38	433.00
536.55	425.98
536.72	390.87
536.89	433.00
537.06	447.04
537.23	468.11
537.40	416.62
537.57	376.83
537.74	430.66
537.91	484.49
538.08	442.36
538.25	428.32
538.42	456.40
538.59	369.80
538.75	365.12
538.92	463.43
539.09	411.93
539.26	381.51
539.43	500.87
539.60	367.46
539.77	442.36
539.94	437.68
540.11	449.38
540.28	423.64
540.44	411.93
540.61	365.12
540.78	437.68
540.95	346.40
541.12	386.19
541.29	379.17
541.46	489.17
541.62	395.55
541.79	390.87
541.96	388.53
542.13	346.40
542.30	379.17
542.47	402.57
542.63	369.80
542.80	472.79
542.97	461.09
543.14	465.77
543.31	421.30
543.48	433.00
543.64	393.21
543.81	407.25
543.98	454.06
544.15	346.40
544.32	463.43
544.48	400.23
544.65	402.57
544.82	402.57
544.99	367.46
545.16	383.85
545.32	395.55
545.49	484.49
545.66	388.53
545.83	409.59
546.00	348.74
546.16	479.81
546.33	386.19
546.50	440.02
546.67	383.85
546.83	491.51
547.00	500.87
547.17	393.21
547.34	388.53
547.50	376.83
547.67	437.68
547.84	465.77
548.00	461.09
548.17	444.70
548.34	400.23
548.51	458.74
548.67	388.53
548.84	411.93
549.01	433.00
549.18	418.96
549.34	423.64
549.51	475.13
549.68	461.09
549.84	435.34
550.01	379.17
550.18	451.72
550.34	390.87
550.51	379.17
550.68	510.24
550.84	381.51
551.01	400.23
551.18	402.57
551.34	404.91
551.51	376.83
551.68	461.09
551.84	409.59
552.01	444.70
552.18	374.49
552.34	383.85
552.51	390.87
552.68	447.04
552.84	428.32
553.01	402.57
553.18	512.58
553.34	360.44
553.51	409.59
553.67	425.98
553.84	442.36
554.01	463.43
554.17	449.38
554.34	416.62
554.51	411.93
554.67	475.13
554.84	458.74
555.00	442.36
555.17	423.64
555.33	440.02
555.50	397.89
555.67	379.17
555.83	458.74
556.00	437.68
556.16	496.19
556.33	395.55
556.50	433.00
556.66	423.64
556.83	470.45
556.99	381.51
557.16	407.25
557.32	442.36
557.49	444.70
557.65	388.53
557.82	437.68
557.98	428.32
558.15	360.44
558.32	486.83
558.48	414.27
558.65	407.25
558.81	348.74
558.98	440.02
559.14	430.66
559.31	451.72
559.47	444.70
559.64	407.25
559.80	367.46
559.97	332.36
560.13	447.04
560.30	360.44
560.46	430.66
560.63	437.68
560.79	440.02
560.96	449.38
561.12	388.53
561.29	442.36
561.45	442.36
561.61	468.11
561.78	489.17
561.94	358.10
562.11	344.06
562.27	355.76
562.44	386.19
562.60	341.72
562.77	449.38
562.93	472.79
563.10	451.72
563.26	435.34
563.42	423.64
563.59	425.98
563.75	468.11
563.92	397.89
564.08	421.30
564.24	477.47
564.41	451.72
564.57	393.21
564.74	341.72
564.90	381.51
565.07	428.32
565.23	465.77
565.39	421.30
565.56	376.83
565.72	372.15
565.88	414.27
566.05	402.57
566.21	440.02
566.38	407.25
566.54	486.83
566.70	461.09
566.87	397.89
567.03	355.76
567.19	402.57
567.36	498.53
567.52	383.85
567.68	463.43
567.85	468.11
568.01	393.21
568.17	470.45
568.34	355.76
568.50	505.56
568.66	418.96
568.83	482.15
568.99	337.04
569.15	472.79
569.32	407.25
569.48	418.96
569.64	411.93
569.81	470.45
569.97	440.02
570.13	395.55
570.30	395.55
570.46	383.85
570.62	365.12
570.78	454.06
570.95	383.85
571.11	442.36
571.27	498.53
571.43	418.96
571.60	393.21
571.76	465.77
571.92	423.64
572.09	416.62
572.25	360.44
572.41	395.55
572.57	369.80
572.74	454.06
572.90	491.51
573.06	458.74
573.22	447.04
573.38	367.46
573.55	409.59
573.71	430.66
573.87	442.36
574.03	339.38
574.20	346.40
574.36	386.19
574.52	386.19
574.68	465.77
574.84	425.98
575.01	409.59
575.17	433.00
575.33	365.12
575.49	454.06
575.65	411.93
575.82	440.02
575.98	451.72
576.14	423.64
576.30	433.00
576.46	430.66
576.62	498.53
576.79	461.09
576.95	395.55
577.11	404.91
577.27	440.02
577.43	454.06
577.59	468.11
577.75	397.89
577.92	327.68
578.08	358.10
578.24	383.85
578.40	383.85
578.56	423.64
578.72	414.27
578.88	423.64
579.04	444.70
579.21	444.70
579.37	442.36
579.53	421.30
579.69	409.59
579.85	383.85
580.01	416.62
580.17	362.78
580.33	435.34
580.49	444.70
580.65	339.38
580.82	308.95
580.98	330.02
581.14	416.62
581.30	489.17
581.46	433.00
581.62	514.92
581.78	496.19
581.94	465.77
582.10	346.40
582.26	447.04
582.42	390.87
582.58	440.02
582.74	341.72
582.90	449.38
583.06	425.98
583.22	437.68
583.38	423.64
583.54	409.59
583.70	418.96
583.86	416.62
584.02	404.91
584.18	440.02
584.34	461.09
584.50	395.55
584.66	477.47
584.82	482.15
584.98	400.23
585.14	411.93
585.30	468.11
585.46	444.70
585.62	404.91
585.78	416.62
585.94	470.45
586.10	437.68
586.26	395.55
586.42	475.13
586.58	418.96
586.74	409.59
586.90	418.96
587.06	468.11
587.22	395.55
587.38	404.91
587.54	425.98
587.70	461.09
587.86	358.10
588.02	425.98
588.18	395.55
588.34	437.68
588.49	306.61
588.65	416.62
588.81	468.11
588.97	379.17
589.13	337.04
589.29	346.40
589.45	409.59
589.61	444.70
589.77	334.70
589.93	437.68
590.08	440.02
590.24	458.74
590.40	421.30
590.56	458.74
590.72	418.96
590.88	372.15
591.04	404.91
591.20	393.21
591.35	514.92
591.51	411.93
591.67	435.34
591.83	407.25
591.99	477.47
592.15	519.60
592.31	425.98
592.46	477.47
592.62	416.62
592.78	365.12
592.94	390.87
593.10	425.98
593.26	421.30
593.41	404.91
593.57	465.77
593.73	367.46
593.89	407.25
594.05	411.93
594.20	437.68
594.36	425.98
594.52	430.66
594.68	390.87
594.84	437.68
594.99	461.09
595.15	402.57
595.31	458.74
595.47	456.40
595.62	428.32
595.78	423.64
595.94	409.59
596.10	435.34
596.25	409.59
596.41	442.36
596.57	444.70
596.73	493.85
596.88	411.93
597.04	449.38
597.20	395.55
597.36	404.91
597.51	425.98
597.67	442.36
597.83	425.98
597.99	454.06
598.14	475.13
598.30	484.49
598.46	435.34
598.61	472.79
598.77	425.98
598.93	472.79
599.09	397.89
599.24	397.89
599.40	447.04
599.56	407.25
599.71	437.68
599.87	477.47
600.03	449.38
600.18	433.00
600.34	409.59
600.50	404.91
600.65	411.93
600.81	449.38
600.97	369.80
601.12	442.36
601.28	372.15
601.44	388.53
601.59	428.32
601.75	421.30
601.91	421.30
602.06	407.25
602.22	447.04
602.37	393.21
602.53	458.74
602.69	416.62
602.84	423.64
603.00	397.89
603.16	428.32
603.31	374.49
603.47	440.02
603.62	418.96
603.78	400.23
603.94	425.98
604.09	470.45
604.25	440.02
604.40	414.27
604.56	376.83
604.71	393.21
604.87	374.49
605.03	442.36
605.18	484.49
605.34	482.15
605.49	360.44
605.65	395.55
605.80	440.02
605.96	339.38
606.12	428.32
606.27	425.98
606.43	355.76
606.58	381.51
606.74	372.15
606.89	472.79
607.05	409.59
607.20	402.57
607.36	388.53
607.51	372.15
607.67	435.34
607.82	404.91
607.98	458.74
608.13	447.04
608.29	402.57
608.44	442.36
608.60	416.62
608.75	500.87
608.91	386.19
609.06	505.56
609.22	381.51
609.37	383.85
609.53	395.55
609.68	418.96
609.84	447.04
609.99	416.62
610.15	388.53
