SpectraSuite Data File
++++++++++++++++++++++++++++++++++++
Date: Fri Oct 25 12:11:12 EDT 2013
User: price-jones
Dark Spectrum Present: No
Reference Spectrum Present: No
Number of Sampled Component Spectra: 1
Spectrometers: USB2+H05261
Integration Time (usec): 100000 (USB2+H05261)
Spectra Averaged: 1 (USB2+H05261)
Boxcar Smoothing: 0 (USB2+H05261)
Correct for Electrical Dark: No (USB2+H05261)
Strobe/Lamp Enabled: No (USB2+H05261)
Correct for Detector Non-linearity: No (USB2+H05261)
Correct for Stray Light: No (USB2+H05261)
Number of Pixels in Processed Spectrum: 2048
>>>>>Begin Processed Spectral Data<<<<<
365.73	376.83
365.92	376.83
366.12	376.83
366.32	236.39
366.52	173.20
366.72	257.46
366.91	212.99
367.11	304.27
367.31	203.63
367.51	304.27
367.70	276.18
367.90	259.80
368.10	241.08
368.30	229.37
368.49	255.12
368.69	259.80
368.89	264.48
369.09	222.35
369.28	322.99
369.48	220.01
369.68	280.86
369.87	327.68
370.07	351.08
370.27	273.84
370.47	287.89
370.66	355.76
370.86	372.15
371.06	358.10
371.25	447.04
371.45	330.02
371.65	294.91
371.84	362.78
372.04	355.76
372.24	388.53
372.44	306.61
372.63	334.70
372.83	381.51
373.03	421.30
373.22	423.64
373.42	468.11
373.62	411.93
373.81	435.34
374.01	449.38
374.21	489.17
374.40	386.19
374.60	425.98
374.79	402.57
374.99	372.15
375.19	362.78
375.38	430.66
375.58	510.24
375.78	456.40
375.97	409.59
376.17	477.47
376.37	440.02
376.56	470.45
376.76	372.15
376.95	493.85
377.15	425.98
377.35	472.79
377.54	442.36
377.74	423.64
377.93	353.42
378.13	353.42
378.33	451.72
378.52	421.30
378.72	381.51
378.91	374.49
379.11	397.89
379.31	322.99
379.50	388.53
379.70	444.70
379.89	437.68
380.09	430.66
380.28	421.30
380.48	397.89
380.68	390.87
380.87	355.76
381.07	449.38
381.26	491.51
381.46	397.89
381.65	390.87
381.85	421.30
382.04	423.64
382.24	430.66
382.43	442.36
382.63	421.30
382.83	428.32
383.02	425.98
383.22	468.11
383.41	353.42
383.61	346.40
383.80	407.25
384.00	390.87
384.19	423.64
384.39	344.06
384.58	468.11
384.78	411.93
384.97	397.89
385.17	397.89
385.36	475.13
385.56	402.57
385.75	365.12
385.95	374.49
386.14	428.32
386.34	358.10
386.53	416.62
386.72	428.32
386.92	454.06
387.11	386.19
387.31	367.46
387.50	393.21
387.70	428.32
387.89	402.57
388.09	332.36
388.28	421.30
388.48	472.79
388.67	369.80
388.86	400.23
389.06	386.19
389.25	433.00
389.45	428.32
389.64	407.25
389.84	475.13
390.03	437.68
390.22	463.43
390.42	425.98
390.61	444.70
390.81	395.55
391.00	407.25
391.19	416.62
391.39	444.70
391.58	451.72
391.78	376.83
391.97	449.38
392.16	400.23
392.36	390.87
392.55	402.57
392.75	348.74
392.94	435.34
393.13	402.57
393.33	447.04
393.52	379.17
393.71	414.27
393.91	435.34
394.10	409.59
394.29	409.59
394.49	386.19
394.68	390.87
394.88	421.30
395.07	421.30
395.26	477.47
395.46	449.38
395.65	458.74
395.84	395.55
396.04	379.17
396.23	348.74
396.42	414.27
396.62	414.27
396.81	433.00
397.00	358.10
397.19	337.04
397.39	390.87
397.58	395.55
397.77	409.59
397.97	381.51
398.16	365.12
398.35	447.04
398.55	379.17
398.74	404.91
398.93	428.32
399.12	367.46
399.32	468.11
399.51	409.59
399.70	414.27
399.90	416.62
400.09	414.27
400.28	428.32
400.47	400.23
400.67	360.44
400.86	444.70
401.05	381.51
401.24	351.08
401.44	425.98
401.63	470.45
401.82	451.72
402.01	390.87
402.21	440.02
402.40	379.17
402.59	383.85
402.78	414.27
402.97	458.74
403.17	393.21
403.36	404.91
403.55	458.74
403.74	397.89
403.93	393.21
404.13	400.23
404.32	362.78
404.51	418.96
404.70	463.43
404.89	404.91
405.09	449.38
405.28	423.64
405.47	365.12
405.66	337.04
405.85	397.89
406.05	376.83
406.24	449.38
406.43	428.32
406.62	414.27
406.81	437.68
407.00	449.38
407.20	407.25
407.39	475.13
407.58	433.00
407.77	409.59
407.96	449.38
408.15	395.55
408.34	465.77
408.54	381.51
408.73	362.78
408.92	346.40
409.11	414.27
409.30	444.70
409.49	400.23
409.68	482.15
409.87	433.00
410.07	348.74
410.26	374.49
410.45	477.47
410.64	402.57
410.83	409.59
411.02	411.93
411.21	409.59
411.40	440.02
411.59	433.00
411.78	348.74
411.98	348.74
412.17	425.98
412.36	475.13
412.55	376.83
412.74	362.78
412.93	503.22
413.12	315.97
413.31	468.11
413.50	416.62
413.69	430.66
413.88	416.62
414.07	449.38
414.26	379.17
414.45	451.72
414.64	400.23
414.83	433.00
415.02	327.68
415.22	421.30
415.41	411.93
415.60	381.51
415.79	369.80
415.98	414.27
416.17	376.83
416.36	435.34
416.55	367.46
416.74	381.51
416.93	409.59
417.12	437.68
417.31	456.40
417.50	425.98
417.69	414.27
417.88	348.74
418.07	411.93
418.26	390.87
418.45	369.80
418.64	533.64
418.83	458.74
419.02	393.21
419.21	423.64
419.39	409.59
419.58	411.93
419.77	423.64
419.96	418.96
420.15	433.00
420.34	355.76
420.53	360.44
420.72	428.32
420.91	353.42
421.10	402.57
421.29	411.93
421.48	322.99
421.67	393.21
421.86	402.57
422.05	390.87
422.24	416.62
422.43	386.19
422.61	444.70
422.80	461.09
422.99	372.15
423.18	376.83
423.37	449.38
423.56	430.66
423.75	477.47
423.94	395.55
424.13	414.27
424.32	351.08
424.50	383.85
424.69	437.68
424.88	482.15
425.07	362.78
425.26	386.19
425.45	451.72
425.64	421.30
425.83	397.89
426.01	482.15
426.20	395.55
426.39	393.21
426.58	386.19
426.77	400.23
426.96	374.49
427.15	393.21
427.33	433.00
427.52	418.96
427.71	458.74
427.90	454.06
428.09	447.04
428.28	409.59
428.46	428.32
428.65	390.87
428.84	435.34
429.03	451.72
429.22	411.93
429.40	418.96
429.59	421.30
429.78	388.53
429.97	355.76
430.16	458.74
430.34	423.64
430.53	468.11
430.72	348.74
430.91	433.00
431.10	339.38
431.28	404.91
431.47	449.38
431.66	418.96
431.85	442.36
432.03	442.36
432.22	449.38
432.41	358.10
432.60	423.64
432.79	442.36
432.97	390.87
433.16	454.06
433.35	355.76
433.54	407.25
433.72	397.89
433.91	444.70
434.10	416.62
434.28	414.27
434.47	409.59
434.66	390.87
434.85	442.36
435.03	430.66
435.22	355.76
435.41	425.98
435.59	397.89
435.78	423.64
435.97	430.66
436.16	402.57
436.34	456.40
436.53	362.78
436.72	383.85
436.90	407.25
437.09	486.83
437.28	365.12
437.46	442.36
437.65	461.09
437.84	386.19
438.02	440.02
438.21	458.74
438.40	430.66
438.58	409.59
438.77	379.17
438.96	433.00
439.14	358.10
439.33	425.98
439.52	386.19
439.70	447.04
439.89	416.62
440.08	376.83
440.26	397.89
440.45	475.13
440.63	465.77
440.82	409.59
441.01	449.38
441.19	383.85
441.38	409.59
441.57	416.62
441.75	383.85
441.94	381.51
442.12	400.23
442.31	451.72
442.50	402.57
442.68	355.76
442.87	404.91
443.05	383.85
443.24	456.40
443.43	414.27
443.61	365.12
443.80	344.06
443.98	477.47
444.17	425.98
444.35	404.91
444.54	444.70
444.73	409.59
444.91	437.68
445.10	362.78
445.28	402.57
445.47	423.64
445.65	430.66
445.84	411.93
446.02	454.06
446.21	425.98
446.39	365.12
446.58	444.70
446.77	428.32
446.95	425.98
447.14	388.53
447.32	465.77
447.51	381.51
447.69	386.19
447.88	409.59
448.06	454.06
448.25	386.19
448.43	360.44
448.62	341.72
448.80	379.17
448.99	400.23
449.17	369.80
449.36	444.70
449.54	421.30
449.73	433.00
449.91	402.57
450.10	440.02
450.28	489.17
450.46	414.27
450.65	404.91
450.83	362.78
451.02	414.27
451.20	418.96
451.39	454.06
451.57	423.64
451.76	435.34
451.94	407.25
452.13	374.49
452.31	381.51
452.49	381.51
452.68	440.02
452.86	425.98
453.05	498.53
453.23	444.70
453.42	365.12
453.60	425.98
453.78	416.62
453.97	428.32
454.15	435.34
454.34	461.09
454.52	404.91
454.70	428.32
454.89	433.00
455.07	390.87
455.26	437.68
455.44	402.57
455.62	388.53
455.81	372.15
455.99	411.93
456.17	433.00
456.36	463.43
456.54	339.38
456.73	414.27
456.91	351.08
457.09	491.51
457.28	416.62
457.46	409.59
457.64	440.02
457.83	430.66
458.01	433.00
458.19	451.72
458.38	430.66
458.56	489.17
458.74	404.91
458.93	454.06
459.11	449.38
459.29	402.57
459.48	400.23
459.66	514.92
459.84	360.44
460.03	423.64
460.21	451.72
460.39	418.96
460.57	442.36
460.76	484.49
460.94	421.30
461.12	493.85
461.31	458.74
461.49	332.36
461.67	337.04
461.85	447.04
462.04	409.59
462.22	767.70
462.40	425.98
462.59	407.25
462.77	337.04
462.95	400.23
463.13	414.27
463.32	442.36
463.50	393.21
463.68	505.56
463.86	397.89
464.05	400.23
464.23	395.55
464.41	425.98
464.59	372.15
464.78	418.96
464.96	435.34
465.14	416.62
465.32	407.25
465.50	440.02
465.69	362.78
465.87	372.15
466.05	447.04
466.23	400.23
466.41	444.70
466.60	442.36
466.78	451.72
466.96	425.98
467.14	425.98
467.32	411.93
467.51	454.06
467.69	440.02
467.87	369.80
468.05	407.25
468.23	463.43
468.41	383.85
468.60	416.62
468.78	402.57
468.96	437.68
469.14	379.17
469.32	472.79
469.50	458.74
469.69	425.98
469.87	477.47
470.05	451.72
470.23	451.72
470.41	472.79
470.59	322.99
470.77	386.19
470.95	458.74
471.14	475.13
471.32	430.66
471.50	449.38
471.68	383.85
471.86	395.55
472.04	367.46
472.22	411.93
472.40	404.91
472.58	402.57
472.77	435.34
472.95	365.12
473.13	503.22
473.31	491.51
473.49	367.46
473.67	447.04
473.85	348.74
474.03	550.03
474.21	430.66
474.39	430.66
474.57	500.87
474.75	449.38
474.93	393.21
475.12	430.66
475.30	456.40
475.48	395.55
475.66	327.68
475.84	390.87
476.02	395.55
476.20	416.62
476.38	388.53
476.56	454.06
476.74	447.04
476.92	414.27
477.10	395.55
477.28	388.53
477.46	477.47
477.64	451.72
477.82	390.87
478.00	388.53
478.18	344.06
478.36	372.15
478.54	444.70
478.72	402.57
478.90	468.11
479.08	367.46
479.26	341.72
479.44	416.62
479.62	346.40
479.80	407.25
479.98	416.62
480.16	395.55
480.34	423.64
480.52	379.17
480.70	418.96
480.88	428.32
481.06	416.62
481.24	327.68
481.41	440.02
481.59	500.87
481.77	386.19
481.95	447.04
482.13	475.13
482.31	425.98
482.49	404.91
482.67	395.55
482.85	423.64
483.03	442.36
483.21	442.36
483.39	397.89
483.57	397.89
483.74	442.36
483.92	376.83
484.10	393.21
484.28	479.81
484.46	404.91
484.64	390.87
484.82	400.23
485.00	400.23
485.18	395.55
485.35	425.98
485.53	334.70
485.71	437.68
485.89	409.59
486.07	449.38
486.25	470.45
486.43	407.25
486.61	409.59
486.78	468.11
486.96	442.36
487.14	355.76
487.32	456.40
487.50	379.17
487.68	414.27
487.85	360.44
488.03	381.51
488.21	409.59
488.39	444.70
488.57	393.21
488.75	381.51
488.92	482.15
489.10	402.57
489.28	449.38
489.46	355.76
489.64	423.64
489.81	402.57
489.99	435.34
490.17	463.43
490.35	444.70
490.53	447.04
490.70	393.21
490.88	416.62
491.06	421.30
491.24	421.30
491.41	442.36
491.59	449.38
491.77	423.64
491.95	393.21
492.13	372.15
492.30	425.98
492.48	407.25
492.66	409.59
492.84	416.62
493.01	362.78
493.19	397.89
493.37	433.00
493.54	479.81
493.72	418.96
493.90	430.66
494.08	381.51
494.25	465.77
494.43	475.13
494.61	416.62
494.79	372.15
494.96	400.23
495.14	461.09
495.32	397.89
495.49	409.59
495.67	465.77
495.85	425.98
496.02	442.36
496.20	433.00
496.38	411.93
496.55	440.02
496.73	458.74
496.91	411.93
497.09	409.59
497.26	475.13
497.44	400.23
497.62	400.23
497.79	444.70
497.97	461.09
498.14	383.85
498.32	397.89
498.50	390.87
498.67	421.30
498.85	435.34
499.03	381.51
499.20	414.27
499.38	381.51
499.56	425.98
499.73	437.68
499.91	435.34
500.08	416.62
500.26	428.32
500.44	479.81
500.61	393.21
500.79	472.79
500.97	400.23
501.14	451.72
501.32	437.68
501.49	402.57
501.67	447.04
501.84	409.59
502.02	465.77
502.20	440.02
502.37	423.64
502.55	397.89
502.72	458.74
502.90	496.19
503.07	381.51
503.25	463.43
503.43	456.40
503.60	379.17
503.78	416.62
503.95	369.80
504.13	330.02
504.30	411.93
504.48	477.47
504.65	489.17
504.83	411.93
505.01	386.19
505.18	447.04
505.36	404.91
505.53	421.30
505.71	414.27
505.88	437.68
506.06	435.34
506.23	407.25
506.41	369.80
506.58	414.27
506.76	400.23
506.93	397.89
507.11	418.96
507.28	433.00
507.46	416.62
507.63	456.40
507.81	449.38
507.98	435.34
508.16	346.40
508.33	442.36
508.50	409.59
508.68	470.45
508.85	421.30
509.03	425.98
509.20	475.13
509.38	442.36
509.55	414.27
509.73	421.30
509.90	451.72
510.08	447.04
510.25	414.27
510.42	395.55
510.60	451.72
510.77	365.12
510.95	358.10
511.12	367.46
511.30	404.91
511.47	355.76
511.64	416.62
511.82	433.00
511.99	425.98
512.17	348.74
512.34	435.34
512.51	414.27
512.69	456.40
512.86	397.89
513.04	435.34
513.21	402.57
513.38	393.21
513.56	397.89
513.73	402.57
513.90	367.46
514.08	390.87
514.25	395.55
514.43	479.81
514.60	437.68
514.77	383.85
514.95	421.30
515.12	374.49
515.29	428.32
515.47	414.27
515.64	444.70
515.81	444.70
515.99	447.04
516.16	390.87
516.33	423.64
516.51	458.74
516.68	418.96
516.85	383.85
517.03	456.40
517.20	381.51
517.37	367.46
517.54	423.64
517.72	421.30
517.89	428.32
518.06	440.02
518.24	526.62
518.41	491.51
518.58	528.96
518.75	465.77
518.93	500.87
519.10	472.79
519.27	435.34
519.45	365.12
519.62	442.36
519.79	433.00
519.96	430.66
520.14	388.53
520.31	463.43
520.48	390.87
520.65	383.85
520.83	421.30
521.00	433.00
521.17	458.74
521.34	421.30
521.52	376.83
521.69	411.93
521.86	414.27
522.03	463.43
522.20	395.55
522.38	383.85
522.55	365.12
522.72	374.49
522.89	418.96
523.07	496.19
523.24	472.79
523.41	402.57
523.58	430.66
523.75	386.19
523.92	386.19
524.10	470.45
524.27	362.78
524.44	425.98
524.61	397.89
524.78	402.57
524.96	425.98
525.13	463.43
525.30	411.93
525.47	367.46
525.64	292.57
525.81	477.47
525.98	505.56
526.16	395.55
526.33	358.10
526.50	470.45
526.67	367.46
526.84	388.53
527.01	409.59
527.18	512.58
527.36	475.13
527.53	369.80
527.70	451.72
527.87	411.93
528.04	486.83
528.21	400.23
528.38	381.51
528.55	447.04
528.72	442.36
528.89	395.55
529.07	465.77
529.24	407.25
529.41	451.72
529.58	433.00
529.75	421.30
529.92	388.53
530.09	447.04
530.26	484.49
530.43	430.66
530.60	430.66
530.77	402.57
530.94	393.21
531.11	444.70
531.28	404.91
531.46	430.66
531.63	334.70
531.80	430.66
531.97	421.30
532.14	400.23
532.31	435.34
532.48	440.02
532.65	428.32
532.82	425.98
532.99	362.78
533.16	440.02
533.33	390.87
533.50	407.25
533.67	493.85
533.84	444.70
534.01	322.99
534.18	440.02
534.35	463.43
534.52	456.40
534.69	449.38
534.86	395.55
535.03	440.02
535.20	355.76
535.37	444.70
535.54	423.64
535.71	440.02
535.88	381.51
536.05	484.49
536.22	435.34
536.38	409.59
536.55	367.46
536.72	437.68
536.89	475.13
537.06	390.87
537.23	428.32
537.40	383.85
537.57	461.09
537.74	470.45
537.91	521.94
538.08	440.02
538.25	381.51
538.42	402.57
538.59	416.62
538.75	435.34
538.92	475.13
539.09	374.49
539.26	379.17
539.43	397.89
539.60	444.70
539.77	421.30
539.94	463.43
540.11	430.66
540.28	425.98
540.44	449.38
540.61	437.68
540.78	451.72
540.95	376.83
541.12	470.45
541.29	414.27
541.46	503.22
541.62	482.15
541.79	409.59
541.96	367.46
542.13	449.38
542.30	402.57
542.47	386.19
542.63	341.72
542.80	449.38
542.97	435.34
543.14	400.23
543.31	451.72
543.48	409.59
543.64	496.19
543.81	381.51
543.98	435.34
544.15	440.02
544.32	416.62
544.48	386.19
544.65	395.55
544.82	362.78
544.99	421.30
545.16	411.93
545.32	409.59
545.49	397.89
545.66	365.12
545.83	437.68
546.00	402.57
546.16	409.59
546.33	395.55
546.50	465.77
546.67	454.06
546.83	489.17
547.00	418.96
547.17	437.68
547.34	433.00
547.50	346.40
547.67	376.83
547.84	386.19
548.00	428.32
548.17	404.91
548.34	395.55
548.51	507.90
548.67	393.21
548.84	486.83
549.01	393.21
549.18	425.98
549.34	440.02
549.51	360.44
549.68	447.04
549.84	374.49
550.01	465.77
550.18	573.43
550.34	477.47
550.51	442.36
550.68	512.58
550.84	400.23
551.01	400.23
551.18	444.70
551.34	449.38
551.51	411.93
551.68	397.89
551.84	461.09
552.01	456.40
552.18	433.00
552.34	496.19
552.51	421.30
552.68	418.96
552.84	390.87
553.01	458.74
553.18	404.91
553.34	482.15
553.51	372.15
553.67	374.49
553.84	435.34
554.01	381.51
554.17	458.74
554.34	386.19
554.51	409.59
554.67	365.12
554.84	433.00
555.00	456.40
555.17	479.81
555.33	442.36
555.50	454.06
555.67	447.04
555.83	390.87
556.00	437.68
556.16	535.98
556.33	442.36
556.50	468.11
556.66	425.98
556.83	381.51
556.99	404.91
557.16	414.27
557.32	388.53
557.49	334.70
557.65	440.02
557.82	369.80
557.98	362.78
558.15	360.44
558.32	358.10
558.48	477.47
558.65	435.34
558.81	437.68
558.98	470.45
559.14	411.93
559.31	491.51
559.47	444.70
559.64	465.77
559.80	444.70
559.97	404.91
560.13	456.40
560.30	372.15
560.46	374.49
560.63	400.23
560.79	447.04
560.96	444.70
561.12	444.70
561.29	465.77
561.45	442.36
561.61	449.38
561.78	496.19
561.94	423.64
562.11	409.59
562.27	496.19
562.44	362.78
562.60	447.04
562.77	468.11
562.93	482.15
563.10	437.68
563.26	402.57
563.42	418.96
563.59	397.89
563.75	465.77
563.92	451.72
564.08	404.91
564.24	430.66
564.41	493.85
564.57	479.81
564.74	400.23
564.90	447.04
565.07	470.45
565.23	465.77
565.39	358.10
565.56	430.66
565.72	409.59
565.88	381.51
566.05	433.00
566.21	407.25
566.38	512.58
566.54	372.15
566.70	393.21
566.87	402.57
567.03	376.83
567.19	355.76
567.36	425.98
567.52	390.87
567.68	367.46
567.85	409.59
568.01	418.96
568.17	402.57
568.34	433.00
568.50	428.32
568.66	395.55
568.83	454.06
568.99	479.81
569.15	486.83
569.32	416.62
569.48	360.44
569.64	409.59
569.81	393.21
569.97	414.27
570.13	395.55
570.30	435.34
570.46	454.06
570.62	463.43
570.78	421.30
570.95	428.32
571.11	461.09
571.27	496.19
571.43	414.27
571.60	435.34
571.76	416.62
571.92	482.15
572.09	440.02
572.25	458.74
572.41	409.59
572.57	379.17
572.74	456.40
572.90	362.78
573.06	407.25
573.22	437.68
573.38	414.27
573.55	463.43
573.71	477.47
573.87	400.23
574.03	367.46
574.20	365.12
574.36	507.90
574.52	428.32
574.68	369.80
574.84	409.59
575.01	472.79
575.17	423.64
575.33	428.32
575.49	402.57
575.65	418.96
575.82	475.13
575.98	484.49
576.14	430.66
576.30	489.17
576.46	402.57
576.62	358.10
576.79	447.04
576.95	449.38
577.11	407.25
577.27	416.62
577.43	407.25
577.59	472.79
577.75	447.04
577.92	421.30
578.08	423.64
578.24	376.83
578.40	388.53
578.56	435.34
578.72	407.25
578.88	421.30
579.04	468.11
579.21	383.85
579.37	477.47
579.53	433.00
579.69	454.06
579.85	388.53
580.01	484.49
580.17	400.23
580.33	416.62
580.49	437.68
580.65	393.21
580.82	449.38
580.98	442.36
581.14	365.12
581.30	411.93
581.46	353.42
581.62	433.00
581.78	388.53
581.94	404.91
582.10	456.40
582.26	465.77
582.42	451.72
582.58	440.02
582.74	409.59
582.90	374.49
583.06	477.47
583.22	407.25
583.38	397.89
583.54	411.93
583.70	465.77
583.86	435.34
584.02	390.87
584.18	425.98
584.34	456.40
584.50	409.59
584.66	416.62
584.82	430.66
584.98	435.34
585.14	376.83
585.30	379.17
585.46	428.32
585.62	496.19
585.78	397.89
585.94	475.13
586.10	451.72
586.26	421.30
586.42	414.27
586.58	496.19
586.74	407.25
586.90	358.10
587.06	355.76
587.22	442.36
587.38	411.93
587.54	348.74
587.70	425.98
587.86	447.04
588.02	456.40
588.18	376.83
588.34	433.00
588.49	425.98
588.65	418.96
588.81	477.47
588.97	376.83
589.13	400.23
589.29	425.98
589.45	386.19
589.61	397.89
589.77	414.27
589.93	416.62
590.08	390.87
590.24	437.68
590.40	334.70
590.56	479.81
590.72	390.87
590.88	374.49
591.04	400.23
591.20	381.51
591.35	425.98
591.51	379.17
591.67	428.32
591.83	409.59
591.99	400.23
592.15	407.25
592.31	383.85
592.46	402.57
592.62	447.04
592.78	451.72
592.94	365.12
593.10	365.12
593.26	404.91
593.41	456.40
593.57	435.34
593.73	425.98
593.89	486.83
594.05	395.55
594.20	402.57
594.36	409.59
594.52	400.23
594.68	425.98
594.84	468.11
594.99	451.72
595.15	449.38
595.31	414.27
595.47	433.00
595.62	456.40
595.78	374.49
595.94	362.78
596.10	507.90
596.25	433.00
596.41	383.85
596.57	402.57
596.73	416.62
596.88	433.00
597.04	482.15
597.20	461.09
597.36	442.36
597.51	416.62
597.67	435.34
597.83	444.70
597.99	421.30
598.14	496.19
598.30	395.55
598.46	435.34
598.61	435.34
598.77	397.89
598.93	433.00
599.09	461.09
599.24	379.17
599.40	472.79
599.56	360.44
599.71	423.64
599.87	409.59
600.03	362.78
600.18	433.00
600.34	425.98
600.50	444.70
600.65	456.40
600.81	400.23
600.97	400.23
601.12	437.68
601.28	388.53
601.44	416.62
601.59	491.51
601.75	423.64
601.91	400.23
602.06	440.02
602.22	528.96
602.37	346.40
602.53	404.91
602.69	414.27
602.84	395.55
603.00	454.06
603.16	416.62
603.31	393.21
603.47	496.19
603.62	449.38
603.78	416.62
603.94	330.02
604.09	374.49
604.25	442.36
604.40	440.02
604.56	374.49
604.71	451.72
604.87	411.93
605.03	407.25
605.18	447.04
605.34	402.57
605.49	369.80
605.65	411.93
605.80	425.98
605.96	468.11
606.12	468.11
606.27	458.74
606.43	463.43
606.58	358.10
606.74	381.51
606.89	386.19
607.05	472.79
607.20	444.70
607.36	440.02
607.51	353.42
607.67	404.91
607.82	397.89
607.98	512.58
608.13	397.89
608.29	407.25
608.44	440.02
608.60	383.85
608.75	447.04
608.91	447.04
609.06	458.74
609.22	421.30
609.37	433.00
609.53	353.42
609.68	449.38
609.84	327.68
609.99	414.27
610.15	400.23
