SpectraSuite Data File
++++++++++++++++++++++++++++++++++++
Date: Fri Oct 25 12:11:30 EDT 2013
User: price-jones
Dark Spectrum Present: No
Reference Spectrum Present: No
Number of Sampled Component Spectra: 1
Spectrometers: USB2+H05261
Integration Time (usec): 100000 (USB2+H05261)
Spectra Averaged: 1 (USB2+H05261)
Boxcar Smoothing: 0 (USB2+H05261)
Correct for Electrical Dark: No (USB2+H05261)
Strobe/Lamp Enabled: No (USB2+H05261)
Correct for Detector Non-linearity: No (USB2+H05261)
Correct for Stray Light: No (USB2+H05261)
Number of Pixels in Processed Spectrum: 2048
>>>>>Begin Processed Spectral Data<<<<<
365.73	414.27
365.92	414.27
366.12	414.27
366.32	318.31
366.52	191.92
366.72	227.03
366.91	248.10
367.11	224.69
367.31	215.33
367.51	271.50
367.70	189.58
367.90	290.23
368.10	259.80
368.30	198.95
368.49	236.39
368.69	252.78
368.89	227.03
369.09	215.33
369.28	269.16
369.48	297.25
369.68	315.97
369.87	330.02
370.07	299.59
370.27	325.33
370.47	337.04
370.66	402.57
370.86	367.46
371.06	341.72
371.25	433.00
371.45	320.65
371.65	425.98
371.84	402.57
372.04	360.44
372.24	381.51
372.44	327.68
372.63	393.21
372.83	381.51
373.03	433.00
373.22	411.93
373.42	397.89
373.62	416.62
373.81	418.96
374.01	416.62
374.21	470.45
374.40	430.66
374.60	388.53
374.79	433.00
374.99	411.93
375.19	409.59
375.38	428.32
375.58	442.36
375.78	442.36
375.97	423.64
376.17	503.22
376.37	423.64
376.56	425.98
376.76	407.25
376.95	390.87
377.15	430.66
377.35	442.36
377.54	318.31
377.74	395.55
377.93	407.25
378.13	409.59
378.33	418.96
378.52	449.38
378.72	411.93
378.91	402.57
379.11	440.02
379.31	365.12
379.50	491.51
379.70	395.55
379.89	458.74
380.09	379.17
380.28	449.38
380.48	449.38
380.68	360.44
380.87	339.38
381.07	404.91
381.26	470.45
381.46	421.30
381.65	423.64
381.85	344.06
382.04	444.70
382.24	353.42
382.43	414.27
382.63	374.49
382.83	353.42
383.02	433.00
383.22	421.30
383.41	416.62
383.61	397.89
383.80	379.17
384.00	414.27
384.19	407.25
384.39	379.17
384.58	407.25
384.78	433.00
384.97	362.78
385.17	367.46
385.36	440.02
385.56	454.06
385.75	433.00
385.95	360.44
386.14	376.83
386.34	393.21
386.53	400.23
386.72	407.25
386.92	416.62
387.11	472.79
387.31	374.49
387.50	411.93
387.70	367.46
387.89	435.34
388.09	400.23
388.28	402.57
388.48	376.83
388.67	393.21
388.86	407.25
389.06	381.51
389.25	463.43
389.45	372.15
389.64	362.78
389.84	440.02
390.03	428.32
390.22	437.68
390.42	454.06
390.61	341.72
390.81	423.64
391.00	346.40
391.19	414.27
391.39	376.83
391.58	477.47
391.78	425.98
391.97	479.81
392.16	400.23
392.36	404.91
392.55	514.92
392.75	362.78
392.94	447.04
393.13	444.70
393.33	442.36
393.52	428.32
393.71	449.38
393.91	383.85
394.10	369.80
394.29	449.38
394.49	365.12
394.68	414.27
394.88	465.77
395.07	423.64
395.26	337.04
395.46	421.30
395.65	451.72
395.84	451.72
396.04	475.13
396.23	433.00
396.42	388.53
396.62	395.55
396.81	416.62
397.00	362.78
397.19	334.70
397.39	437.68
397.58	400.23
397.77	425.98
397.97	437.68
398.16	355.76
398.35	390.87
398.55	351.08
398.74	372.15
398.93	341.72
399.12	381.51
399.32	447.04
399.51	414.27
399.70	416.62
399.90	332.36
400.09	463.43
400.28	393.21
400.47	440.02
400.67	423.64
400.86	393.21
401.05	390.87
401.24	430.66
401.44	440.02
401.63	390.87
401.82	358.10
402.01	360.44
402.21	381.51
402.40	435.34
402.59	395.55
402.78	404.91
402.97	444.70
403.17	334.70
403.36	456.40
403.55	381.51
403.74	348.74
403.93	411.93
404.13	442.36
404.32	458.74
404.51	484.49
404.70	411.93
404.89	393.21
405.09	421.30
405.28	437.68
405.47	400.23
405.66	395.55
405.85	409.59
406.05	425.98
406.24	393.21
406.43	442.36
406.62	376.83
406.81	517.26
407.00	489.17
407.20	423.64
407.39	322.99
407.58	369.80
407.77	444.70
407.96	444.70
408.15	454.06
408.34	414.27
408.54	479.81
408.73	402.57
408.92	416.62
409.11	491.51
409.30	388.53
409.49	388.53
409.68	346.40
409.87	409.59
410.07	372.15
410.26	376.83
410.45	454.06
410.64	421.30
410.83	428.32
411.02	369.80
411.21	428.32
411.40	376.83
411.59	390.87
411.78	374.49
411.98	381.51
412.17	402.57
412.36	433.00
412.55	433.00
412.74	418.96
412.93	475.13
413.12	407.25
413.31	421.30
413.50	339.38
413.69	376.83
413.88	374.49
414.07	430.66
414.26	414.27
414.45	435.34
414.64	451.72
414.83	411.93
415.02	456.40
415.22	454.06
415.41	404.91
415.60	365.12
415.79	325.33
415.98	358.10
416.17	400.23
416.36	372.15
416.55	388.53
416.74	409.59
416.93	472.79
417.12	404.91
417.31	440.02
417.50	376.83
417.69	341.72
417.88	381.51
418.07	386.19
418.26	402.57
418.45	383.85
418.64	362.78
418.83	383.85
419.02	411.93
419.21	437.68
419.39	407.25
419.58	491.51
419.77	430.66
419.96	395.55
420.15	416.62
420.34	313.63
420.53	400.23
420.72	411.93
420.91	404.91
421.10	425.98
421.29	458.74
421.48	456.40
421.67	425.98
421.86	397.89
422.05	451.72
422.24	374.49
422.43	346.40
422.61	388.53
422.80	383.85
422.99	449.38
423.18	433.00
423.37	341.72
423.56	374.49
423.75	437.68
423.94	383.85
424.13	402.57
424.32	437.68
424.50	435.34
424.69	440.02
424.88	390.87
425.07	477.47
425.26	470.45
425.45	393.21
425.64	346.40
425.83	440.02
426.01	418.96
426.20	414.27
426.39	468.11
426.58	411.93
426.77	458.74
426.96	472.79
427.15	395.55
427.33	444.70
427.52	388.53
427.71	470.45
427.90	425.98
428.09	456.40
428.28	374.49
428.46	362.78
428.65	386.19
428.84	360.44
429.03	461.09
429.22	437.68
429.40	440.02
429.59	404.91
429.78	461.09
429.97	383.85
430.16	376.83
430.34	421.30
430.53	428.32
430.72	400.23
430.91	433.00
431.10	369.80
431.28	444.70
431.47	456.40
431.66	442.36
431.85	393.21
432.03	425.98
432.22	395.55
432.41	423.64
432.60	430.66
432.79	418.96
432.97	367.46
433.16	383.85
433.35	425.98
433.54	437.68
433.72	470.45
433.91	411.93
434.10	327.68
434.28	407.25
434.47	414.27
434.66	390.87
434.85	463.43
435.03	421.30
435.22	449.38
435.41	582.79
435.59	402.57
435.78	421.30
435.97	484.49
436.16	409.59
436.34	465.77
436.53	461.09
436.72	451.72
436.90	393.21
437.09	482.15
437.28	470.45
437.46	372.15
437.65	388.53
437.84	447.04
438.02	393.21
438.21	437.68
438.40	421.30
438.58	428.32
438.77	449.38
438.96	381.51
439.14	440.02
439.33	433.00
439.52	383.85
439.70	376.83
439.89	390.87
440.08	444.70
440.26	442.36
440.45	400.23
440.63	475.13
440.82	362.78
441.01	351.08
441.19	456.40
441.38	397.89
441.57	365.12
441.75	383.85
441.94	428.32
442.12	425.98
442.31	379.17
442.50	390.87
442.68	435.34
442.87	458.74
443.05	447.04
443.24	404.91
443.43	376.83
443.61	461.09
443.80	456.40
443.98	423.64
444.17	386.19
444.35	430.66
444.54	433.00
444.73	479.81
444.91	482.15
445.10	395.55
445.28	440.02
445.47	411.93
445.65	449.38
445.84	374.49
446.02	433.00
446.21	404.91
446.39	428.32
446.58	344.06
446.77	407.25
446.95	367.46
447.14	435.34
447.32	421.30
447.51	433.00
447.69	367.46
447.88	423.64
448.06	423.64
448.25	482.15
448.43	458.74
448.62	372.15
448.80	414.27
448.99	381.51
449.17	374.49
449.36	442.36
449.54	514.92
449.73	475.13
449.91	381.51
450.10	353.42
450.28	395.55
450.46	468.11
450.65	456.40
450.83	407.25
451.02	454.06
451.20	379.17
451.39	402.57
451.57	395.55
451.76	433.00
451.94	465.77
452.13	491.51
452.31	447.04
452.49	430.66
452.68	386.19
452.86	404.91
453.05	407.25
453.23	386.19
453.42	423.64
453.60	372.15
453.78	381.51
453.97	304.27
454.15	355.76
454.34	379.17
454.52	418.96
454.70	465.77
454.89	416.62
455.07	388.53
455.26	379.17
455.44	409.59
455.62	416.62
455.81	379.17
455.99	388.53
456.17	470.45
456.36	411.93
456.54	444.70
456.73	313.63
456.91	395.55
457.09	428.32
457.28	475.13
457.46	372.15
457.64	454.06
457.83	402.57
458.01	430.66
458.19	486.83
458.38	388.53
458.56	360.44
458.74	362.78
458.93	428.32
459.11	451.72
459.29	418.96
459.48	423.64
459.66	454.06
459.84	400.23
460.03	411.93
460.21	397.89
460.39	407.25
460.57	395.55
460.76	500.87
460.94	407.25
461.12	493.85
461.31	362.78
461.49	388.53
461.67	414.27
461.85	437.68
462.04	388.53
462.22	763.01
462.40	447.04
462.59	440.02
462.77	381.51
462.95	442.36
463.13	491.51
463.32	475.13
463.50	423.64
463.68	430.66
463.86	397.89
464.05	381.51
464.23	433.00
464.41	395.55
464.59	421.30
464.78	423.64
464.96	381.51
465.14	386.19
465.32	435.34
465.50	416.62
465.69	397.89
465.87	458.74
466.05	510.24
466.23	393.21
466.41	402.57
466.60	437.68
466.78	416.62
466.96	386.19
467.14	379.17
467.32	454.06
467.51	435.34
467.69	395.55
467.87	372.15
468.05	454.06
468.23	421.30
468.41	423.64
468.60	407.25
468.78	362.78
468.96	484.49
469.14	425.98
469.32	365.12
469.50	390.87
469.69	430.66
469.87	454.06
470.05	404.91
470.23	454.06
470.41	425.98
470.59	400.23
470.77	468.11
470.95	402.57
471.14	458.74
471.32	411.93
471.50	379.17
471.68	388.53
471.86	451.72
472.04	404.91
472.22	416.62
472.40	456.40
472.58	407.25
472.77	362.78
472.95	395.55
473.13	444.70
473.31	465.77
473.49	409.59
473.67	404.91
473.85	430.66
474.03	489.17
474.21	367.46
474.39	423.64
474.57	444.70
474.75	414.27
474.93	447.04
475.12	433.00
475.30	374.49
475.48	388.53
475.66	337.04
475.84	493.85
476.02	456.40
476.20	477.47
476.38	369.80
476.56	463.43
476.74	440.02
476.92	447.04
477.10	376.83
477.28	381.51
477.46	458.74
477.64	475.13
477.82	451.72
478.00	416.62
478.18	379.17
478.36	447.04
478.54	407.25
478.72	475.13
478.90	374.49
479.08	397.89
479.26	418.96
479.44	362.78
479.62	381.51
479.80	395.55
479.98	442.36
480.16	425.98
480.34	428.32
480.52	416.62
480.70	461.09
480.88	374.49
481.06	388.53
481.24	433.00
481.41	444.70
481.59	416.62
481.77	421.30
481.95	491.51
482.13	411.93
482.31	414.27
482.49	400.23
482.67	388.53
482.85	383.85
483.03	456.40
483.21	369.80
483.39	376.83
483.57	428.32
483.74	393.21
483.92	468.11
484.10	369.80
484.28	353.42
484.46	454.06
484.64	365.12
484.82	449.38
485.00	395.55
485.18	411.93
485.35	442.36
485.53	477.47
485.71	400.23
485.89	395.55
486.07	425.98
486.25	442.36
486.43	383.85
486.61	423.64
486.78	386.19
486.96	479.81
487.14	400.23
487.32	383.85
487.50	369.80
487.68	444.70
487.85	414.27
488.03	437.68
488.21	468.11
488.39	435.34
488.57	381.51
488.75	451.72
488.92	496.19
489.10	390.87
489.28	397.89
489.46	355.76
489.64	428.32
489.81	397.89
489.99	367.46
490.17	379.17
490.35	430.66
490.53	369.80
490.70	414.27
490.88	428.32
491.06	447.04
491.24	411.93
491.41	423.64
491.59	425.98
491.77	414.27
491.95	308.95
492.13	414.27
492.30	486.83
492.48	440.02
492.66	381.51
492.84	416.62
493.01	393.21
493.19	430.66
493.37	461.09
493.54	430.66
493.72	468.11
493.90	381.51
494.08	376.83
494.25	404.91
494.43	404.91
494.61	355.76
494.79	379.17
494.96	379.17
495.14	372.15
495.32	484.49
495.49	414.27
495.67	468.11
495.85	402.57
496.02	411.93
496.20	489.17
496.38	510.24
496.55	386.19
496.73	383.85
496.91	383.85
497.09	367.46
497.26	355.76
497.44	435.34
497.62	433.00
497.79	484.49
497.97	416.62
498.14	407.25
498.32	428.32
498.50	395.55
498.67	440.02
498.85	461.09
499.03	416.62
499.20	454.06
499.38	400.23
499.56	367.46
499.73	470.45
499.91	376.83
500.08	414.27
500.26	435.34
500.44	386.19
500.61	397.89
500.79	358.10
500.97	390.87
501.14	486.83
501.32	386.19
501.49	468.11
501.67	451.72
501.84	418.96
502.02	428.32
502.20	402.57
502.37	430.66
502.55	479.81
502.72	353.42
502.90	433.00
503.07	381.51
503.25	447.04
503.43	430.66
503.60	440.02
503.78	390.87
503.95	388.53
504.13	423.64
504.30	486.83
504.48	479.81
504.65	407.25
504.83	428.32
505.01	372.15
505.18	437.68
505.36	486.83
505.53	407.25
505.71	365.12
505.88	468.11
506.06	428.32
506.23	409.59
506.41	374.49
506.58	465.77
506.76	449.38
506.93	449.38
507.11	428.32
507.28	442.36
507.46	440.02
507.63	390.87
507.81	313.63
507.98	421.30
508.16	442.36
508.33	421.30
508.50	454.06
508.68	468.11
508.85	491.51
509.03	440.02
509.20	423.64
509.38	404.91
509.55	447.04
509.73	526.62
509.90	409.59
510.08	442.36
510.25	374.49
510.42	351.08
510.60	416.62
510.77	374.49
510.95	393.21
511.12	374.49
511.30	351.08
511.47	388.53
511.64	421.30
511.82	322.99
511.99	447.04
512.17	365.12
512.34	353.42
512.51	376.83
512.69	402.57
512.86	400.23
513.04	433.00
513.21	416.62
513.38	402.57
513.56	451.72
513.73	442.36
513.90	404.91
514.08	411.93
514.25	430.66
514.43	369.80
514.60	404.91
514.77	498.53
514.95	482.15
515.12	449.38
515.29	489.17
515.47	367.46
515.64	395.55
515.81	454.06
515.99	482.15
516.16	435.34
516.33	468.11
516.51	355.76
516.68	402.57
516.85	433.00
517.03	456.40
517.20	416.62
517.37	330.02
517.54	416.62
517.72	435.34
517.89	383.85
518.06	416.62
518.24	414.27
518.41	428.32
518.58	416.62
518.75	433.00
518.93	337.04
519.10	433.00
519.27	358.10
519.45	365.12
519.62	397.89
519.79	447.04
519.96	397.89
520.14	365.12
520.31	468.11
520.48	381.51
520.65	411.93
520.83	458.74
521.00	440.02
521.17	390.87
521.34	400.23
521.52	423.64
521.69	493.85
521.86	325.33
522.03	449.38
522.20	393.21
522.38	372.15
522.55	493.85
522.72	456.40
522.89	491.51
523.07	444.70
523.24	423.64
523.41	430.66
523.58	416.62
523.75	421.30
523.92	442.36
524.10	353.42
524.27	435.34
524.44	393.21
524.61	425.98
524.78	435.34
524.96	479.81
525.13	430.66
525.30	404.91
525.47	449.38
525.64	409.59
525.81	430.66
525.98	447.04
526.16	407.25
526.33	416.62
526.50	402.57
526.67	381.51
526.84	395.55
527.01	416.62
527.18	500.87
527.36	421.30
527.53	393.21
527.70	404.91
527.87	416.62
528.04	447.04
528.21	428.32
528.38	449.38
528.55	365.12
528.72	493.85
528.89	444.70
529.07	479.81
529.24	458.74
529.41	416.62
529.58	440.02
529.75	454.06
529.92	484.49
530.09	421.30
530.26	428.32
530.43	449.38
530.60	407.25
530.77	393.21
530.94	425.98
531.11	353.42
531.28	470.45
531.46	294.91
531.63	374.49
531.80	428.32
531.97	465.77
532.14	393.21
532.31	491.51
532.48	447.04
532.65	461.09
532.82	444.70
532.99	390.87
533.16	395.55
533.33	463.43
533.50	461.09
533.67	442.36
533.84	386.19
534.01	491.51
534.18	381.51
534.35	318.31
534.52	440.02
534.69	400.23
534.86	470.45
535.03	442.36
535.20	456.40
535.37	400.23
535.54	397.89
535.71	456.40
535.88	475.13
536.05	447.04
536.22	482.15
536.38	435.34
536.55	433.00
536.72	397.89
536.89	407.25
537.06	393.21
537.23	372.15
537.40	376.83
537.57	402.57
537.74	500.87
537.91	407.25
538.08	416.62
538.25	463.43
538.42	402.57
538.59	388.53
538.75	463.43
538.92	400.23
539.09	482.15
539.26	444.70
539.43	430.66
539.60	433.00
539.77	411.93
539.94	440.02
540.11	435.34
540.28	437.68
540.44	442.36
540.61	451.72
540.78	353.42
540.95	458.74
541.12	447.04
541.29	425.98
541.46	390.87
541.62	454.06
541.79	449.38
541.96	395.55
542.13	383.85
542.30	388.53
542.47	449.38
542.63	402.57
542.80	365.12
542.97	468.11
543.14	414.27
543.31	468.11
543.48	444.70
543.64	442.36
543.81	397.89
543.98	381.51
544.15	418.96
544.32	409.59
544.48	393.21
544.65	411.93
544.82	367.46
544.99	458.74
545.16	423.64
545.32	465.77
545.49	425.98
545.66	374.49
545.83	400.23
546.00	365.12
546.16	374.49
546.33	388.53
546.50	388.53
546.67	477.47
546.83	407.25
547.00	428.32
547.17	376.83
547.34	451.72
547.50	423.64
547.67	409.59
547.84	418.96
548.00	423.64
548.17	365.12
548.34	416.62
548.51	435.34
548.67	416.62
548.84	440.02
549.01	430.66
549.18	400.23
549.34	503.22
549.51	402.57
549.68	528.96
549.84	381.51
550.01	395.55
550.18	519.60
550.34	454.06
550.51	430.66
550.68	435.34
550.84	421.30
551.01	437.68
551.18	421.30
551.34	393.21
551.51	433.00
551.68	393.21
551.84	430.66
552.01	402.57
552.18	374.49
552.34	433.00
552.51	484.49
552.68	454.06
552.84	454.06
553.01	404.91
553.18	437.68
553.34	407.25
553.51	409.59
553.67	397.89
553.84	390.87
554.01	423.64
554.17	498.53
554.34	397.89
554.51	454.06
554.67	465.77
554.84	437.68
555.00	430.66
555.17	437.68
555.33	470.45
555.50	280.86
555.67	386.19
555.83	393.21
556.00	346.40
556.16	535.98
556.33	461.09
556.50	435.34
556.66	428.32
556.83	372.15
556.99	461.09
557.16	491.51
557.32	379.17
557.49	346.40
557.65	362.78
557.82	451.72
557.98	411.93
558.15	416.62
558.32	341.72
558.48	468.11
558.65	407.25
558.81	430.66
558.98	470.45
559.14	442.36
559.31	433.00
559.47	423.64
559.64	454.06
559.80	369.80
559.97	381.51
560.13	393.21
560.30	379.17
560.46	414.27
560.63	409.59
560.79	407.25
560.96	411.93
561.12	409.59
561.29	449.38
561.45	451.72
561.61	456.40
561.78	447.04
561.94	362.78
562.11	395.55
562.27	411.93
562.44	411.93
562.60	306.61
562.77	400.23
562.93	475.13
563.10	437.68
563.26	451.72
563.42	430.66
563.59	409.59
563.75	454.06
563.92	456.40
564.08	458.74
564.24	421.30
564.41	430.66
564.57	484.49
564.74	299.59
564.90	425.98
565.07	505.56
565.23	440.02
565.39	444.70
565.56	498.53
565.72	437.68
565.88	376.83
566.05	353.42
566.21	433.00
566.38	433.00
566.54	449.38
566.70	456.40
566.87	454.06
567.03	379.17
567.19	435.34
567.36	454.06
567.52	524.28
567.68	404.91
567.85	402.57
568.01	341.72
568.17	440.02
568.34	425.98
568.50	407.25
568.66	411.93
568.83	547.69
568.99	365.12
569.15	463.43
569.32	418.96
569.48	411.93
569.64	435.34
569.81	447.04
569.97	395.55
570.13	381.51
570.30	381.51
570.46	355.76
570.62	451.72
570.78	407.25
570.95	348.74
571.11	425.98
571.27	519.60
571.43	428.32
571.60	465.77
571.76	393.21
571.92	430.66
572.09	444.70
572.25	400.23
572.41	367.46
572.57	421.30
572.74	425.98
572.90	491.51
573.06	409.59
573.22	489.17
573.38	435.34
573.55	440.02
573.71	484.49
573.87	339.38
574.03	369.80
574.20	418.96
574.36	458.74
574.52	388.53
574.68	372.15
574.84	456.40
575.01	425.98
575.17	486.83
575.33	383.85
575.49	437.68
575.65	430.66
575.82	353.42
575.98	454.06
576.14	456.40
576.30	334.70
576.46	400.23
576.62	407.25
576.79	454.06
576.95	482.15
577.11	510.24
577.27	402.57
577.43	477.47
577.59	444.70
577.75	411.93
577.92	367.46
578.08	404.91
578.24	440.02
578.40	444.70
578.56	381.51
578.72	428.32
578.88	409.59
579.04	388.53
579.21	411.93
579.37	372.15
579.53	433.00
579.69	477.47
579.85	435.34
580.01	390.87
580.17	458.74
580.33	435.34
580.49	470.45
580.65	472.79
580.82	437.68
580.98	444.70
581.14	402.57
581.30	444.70
581.46	454.06
581.62	433.00
581.78	409.59
581.94	437.68
582.10	397.89
582.26	472.79
582.42	472.79
582.58	423.64
582.74	409.59
582.90	407.25
583.06	503.22
583.22	355.76
583.38	442.36
583.54	430.66
583.70	489.17
583.86	444.70
584.02	393.21
584.18	458.74
584.34	423.64
584.50	369.80
584.66	409.59
584.82	414.27
584.98	402.57
585.14	365.12
585.30	428.32
585.46	388.53
585.62	461.09
585.78	395.55
585.94	409.59
586.10	416.62
586.26	418.96
586.42	456.40
586.58	358.10
586.74	475.13
586.90	484.49
587.06	369.80
587.22	472.79
587.38	425.98
587.54	393.21
587.70	491.51
587.86	447.04
588.02	458.74
588.18	407.25
588.34	498.53
588.49	327.68
588.65	442.36
588.81	367.46
588.97	322.99
589.13	416.62
589.29	430.66
589.45	507.90
589.61	397.89
589.77	411.93
589.93	458.74
590.08	339.38
590.24	351.08
590.40	435.34
590.56	376.83
590.72	374.49
590.88	451.72
591.04	451.72
591.20	451.72
591.35	472.79
591.51	390.87
591.67	400.23
591.83	454.06
591.99	409.59
592.15	430.66
592.31	479.81
592.46	397.89
592.62	435.34
592.78	416.62
592.94	381.51
593.10	447.04
593.26	381.51
593.41	461.09
593.57	397.89
593.73	388.53
593.89	458.74
594.05	388.53
594.20	444.70
594.36	421.30
594.52	353.42
594.68	437.68
594.84	402.57
594.99	418.96
595.15	435.34
595.31	538.32
595.47	454.06
595.62	447.04
595.78	397.89
595.94	402.57
596.10	456.40
596.25	435.34
596.41	395.55
596.57	444.70
596.73	393.21
596.88	409.59
597.04	440.02
597.20	454.06
597.36	367.46
597.51	383.85
597.67	395.55
597.83	430.66
597.99	454.06
598.14	428.32
598.30	397.89
598.46	374.49
598.61	414.27
598.77	421.30
598.93	411.93
599.09	447.04
599.24	416.62
599.40	461.09
599.56	451.72
599.71	435.34
599.87	416.62
600.03	456.40
600.18	360.44
600.34	402.57
600.50	461.09
600.65	402.57
600.81	421.30
600.97	393.21
601.12	395.55
601.28	540.66
601.44	322.99
601.59	416.62
601.75	458.74
601.91	381.51
602.06	428.32
602.22	486.83
602.37	470.45
602.53	433.00
602.69	388.53
602.84	463.43
603.00	428.32
603.16	383.85
603.31	437.68
603.47	372.15
603.62	454.06
603.78	402.57
603.94	433.00
604.09	442.36
604.25	402.57
604.40	449.38
604.56	470.45
604.71	437.68
604.87	407.25
605.03	395.55
605.18	414.27
605.34	418.96
605.49	454.06
605.65	447.04
605.80	470.45
605.96	486.83
606.12	383.85
606.27	479.81
606.43	407.25
606.58	400.23
606.74	383.85
606.89	360.44
607.05	414.27
607.20	482.15
607.36	465.77
607.51	388.53
607.67	376.83
607.82	381.51
607.98	388.53
608.13	407.25
608.29	407.25
608.44	428.32
608.60	416.62
608.75	397.89
608.91	428.32
609.06	383.85
609.22	411.93
609.37	444.70
609.53	463.43
609.68	428.32
609.84	456.40
609.99	425.98
610.15	407.25
