SpectraSuite Data File
++++++++++++++++++++++++++++++++++++
Date: Fri Oct 25 12:10:42 EDT 2013
User: price-jones
Dark Spectrum Present: No
Reference Spectrum Present: No
Number of Sampled Component Spectra: 1
Spectrometers: USB2+H05261
Integration Time (usec): 100000 (USB2+H05261)
Spectra Averaged: 1 (USB2+H05261)
Boxcar Smoothing: 0 (USB2+H05261)
Correct for Electrical Dark: No (USB2+H05261)
Strobe/Lamp Enabled: No (USB2+H05261)
Correct for Detector Non-linearity: No (USB2+H05261)
Correct for Stray Light: No (USB2+H05261)
Number of Pixels in Processed Spectrum: 2048
>>>>>Begin Processed Spectral Data<<<<<
365.73	425.98
365.92	425.98
366.12	425.98
366.32	269.16
366.52	180.22
366.72	287.89
366.91	287.89
367.11	271.50
367.31	236.39
367.51	234.05
367.70	145.11
367.90	259.80
368.10	273.84
368.30	229.37
368.49	234.05
368.69	212.99
368.89	273.84
369.09	212.99
369.28	215.33
369.48	243.42
369.68	287.89
369.87	283.20
370.07	271.50
370.27	339.38
370.47	290.23
370.66	315.97
370.86	341.72
371.06	388.53
371.25	386.19
371.45	383.85
371.65	423.64
371.84	337.04
372.04	414.27
372.24	388.53
372.44	353.42
372.63	437.68
372.83	409.59
373.03	402.57
373.22	440.02
373.42	395.55
373.62	383.85
373.81	421.30
374.01	423.64
374.21	414.27
374.40	458.74
374.60	500.87
374.79	386.19
374.99	414.27
375.19	447.04
375.38	444.70
375.58	376.83
375.78	437.68
375.97	444.70
376.17	430.66
376.37	411.93
376.56	465.77
376.76	442.36
376.95	353.42
377.15	442.36
377.35	376.83
377.54	379.17
377.74	390.87
377.93	353.42
378.13	390.87
378.33	407.25
378.52	449.38
378.72	461.09
378.91	341.72
379.11	381.51
379.31	393.21
379.50	376.83
379.70	437.68
379.89	421.30
380.09	423.64
380.28	402.57
380.48	402.57
380.68	407.25
380.87	325.33
381.07	369.80
381.26	411.93
381.46	393.21
381.65	416.62
381.85	376.83
382.04	414.27
382.24	404.91
382.43	416.62
382.63	388.53
382.83	393.21
383.02	451.72
383.22	433.00
383.41	400.23
383.61	437.68
383.80	449.38
384.00	449.38
384.19	374.49
384.39	397.89
384.58	393.21
384.78	404.91
384.97	416.62
385.17	395.55
385.36	376.83
385.56	428.32
385.75	367.46
385.95	486.83
386.14	430.66
386.34	397.89
386.53	388.53
386.72	379.17
386.92	447.04
387.11	344.06
387.31	461.09
387.50	409.59
387.70	468.11
387.89	360.44
388.09	454.06
388.28	376.83
388.48	404.91
388.67	341.72
388.86	411.93
389.06	414.27
389.25	433.00
389.45	400.23
389.64	400.23
389.84	430.66
390.03	411.93
390.22	470.45
390.42	414.27
390.61	341.72
390.81	465.77
391.00	505.56
391.19	381.51
391.39	334.70
391.58	390.87
391.78	435.34
391.97	402.57
392.16	409.59
392.36	407.25
392.55	409.59
392.75	463.43
392.94	447.04
393.13	379.17
393.33	418.96
393.52	386.19
393.71	421.30
393.91	484.49
394.10	348.74
394.29	358.10
394.49	388.53
394.68	456.40
394.88	421.30
395.07	416.62
395.26	444.70
395.46	337.04
395.65	423.64
395.84	475.13
396.04	517.26
396.23	337.04
396.42	404.91
396.62	379.17
396.81	402.57
397.00	428.32
397.19	430.66
397.39	451.72
397.58	393.21
397.77	407.25
397.97	344.06
398.16	376.83
398.35	444.70
398.55	395.55
398.74	411.93
398.93	470.45
399.12	379.17
399.32	416.62
399.51	458.74
399.70	456.40
399.90	400.23
400.09	409.59
400.28	442.36
400.47	376.83
400.67	418.96
400.86	421.30
401.05	463.43
401.24	313.63
401.44	348.74
401.63	381.51
401.82	423.64
402.01	404.91
402.21	379.17
402.40	435.34
402.59	339.38
402.78	355.76
402.97	376.83
403.17	358.10
403.36	423.64
403.55	407.25
403.74	463.43
403.93	388.53
404.13	451.72
404.32	397.89
404.51	386.19
404.70	353.42
404.89	416.62
405.09	435.34
405.28	435.34
405.47	376.83
405.66	374.49
405.85	435.34
406.05	395.55
406.24	416.62
406.43	440.02
406.62	400.23
406.81	395.55
407.00	400.23
407.20	386.19
407.39	425.98
407.58	332.36
407.77	409.59
407.96	418.96
408.15	421.30
408.34	430.66
408.54	369.80
408.73	440.02
408.92	468.11
409.11	367.46
409.30	423.64
409.49	388.53
409.68	348.74
409.87	437.68
410.07	440.02
410.26	472.79
410.45	437.68
410.64	369.80
410.83	400.23
411.02	381.51
411.21	425.98
411.40	423.64
411.59	365.12
411.78	360.44
411.98	400.23
412.17	365.12
412.36	400.23
412.55	414.27
412.74	397.89
412.93	435.34
413.12	442.36
413.31	390.87
413.50	404.91
413.69	463.43
413.88	425.98
414.07	374.49
414.26	435.34
414.45	472.79
414.64	358.10
414.83	461.09
415.02	395.55
415.22	414.27
415.41	454.06
415.60	407.25
415.79	367.46
415.98	414.27
416.17	428.32
416.36	346.40
416.55	395.55
416.74	449.38
416.93	402.57
417.12	374.49
417.31	383.85
417.50	404.91
417.69	416.62
417.88	395.55
418.07	346.40
418.26	404.91
418.45	416.62
418.64	404.91
418.83	397.89
419.02	472.79
419.21	381.51
419.39	414.27
419.58	461.09
419.77	402.57
419.96	374.49
420.15	416.62
420.34	409.59
420.53	449.38
420.72	470.45
420.91	379.17
421.10	376.83
421.29	411.93
421.48	421.30
421.67	369.80
421.86	360.44
422.05	444.70
422.24	379.17
422.43	468.11
422.61	407.25
422.80	437.68
422.99	397.89
423.18	416.62
423.37	388.53
423.56	444.70
423.75	482.15
423.94	444.70
424.13	344.06
424.32	409.59
424.50	383.85
424.69	461.09
424.88	456.40
425.07	425.98
425.26	372.15
425.45	440.02
425.64	433.00
425.83	444.70
426.01	379.17
426.20	353.42
426.39	479.81
426.58	449.38
426.77	379.17
426.96	456.40
427.15	407.25
427.33	327.68
427.52	407.25
427.71	425.98
427.90	418.96
428.09	440.02
428.28	440.02
428.46	433.00
428.65	379.17
428.84	365.12
429.03	374.49
429.22	484.49
429.40	388.53
429.59	433.00
429.78	414.27
429.97	402.57
430.16	430.66
430.34	430.66
430.53	402.57
430.72	409.59
430.91	458.74
431.10	421.30
431.28	458.74
431.47	409.59
431.66	397.89
431.85	447.04
432.03	440.02
432.22	477.47
432.41	418.96
432.60	400.23
432.79	423.64
432.97	444.70
433.16	409.59
433.35	393.21
433.54	390.87
433.72	386.19
433.91	435.34
434.10	444.70
434.28	381.51
434.47	388.53
434.66	423.64
434.85	421.30
435.03	433.00
435.22	411.93
435.41	524.28
435.59	367.46
435.78	461.09
435.97	470.45
436.16	444.70
436.34	390.87
436.53	428.32
436.72	475.13
436.90	435.34
437.09	397.89
437.28	449.38
437.46	358.10
437.65	458.74
437.84	489.17
438.02	416.62
438.21	470.45
438.40	456.40
438.58	437.68
438.77	428.32
438.96	423.64
439.14	360.44
439.33	411.93
439.52	489.17
439.70	463.43
439.89	418.96
440.08	407.25
440.26	479.81
440.45	449.38
440.63	416.62
440.82	369.80
441.01	369.80
441.19	388.53
441.38	383.85
441.57	372.15
441.75	395.55
441.94	395.55
442.12	397.89
442.31	355.76
442.50	435.34
442.68	367.46
442.87	428.32
443.05	414.27
443.24	414.27
443.43	437.68
443.61	447.04
443.80	381.51
443.98	458.74
444.17	360.44
444.35	365.12
444.54	397.89
444.73	425.98
444.91	437.68
445.10	463.43
445.28	369.80
445.47	367.46
445.65	355.76
445.84	437.68
446.02	486.83
446.21	386.19
446.39	421.30
446.58	421.30
446.77	411.93
446.95	416.62
447.14	458.74
447.32	440.02
447.51	379.17
447.69	451.72
447.88	372.15
448.06	463.43
448.25	390.87
448.43	402.57
448.62	442.36
448.80	430.66
448.99	440.02
449.17	351.08
449.36	411.93
449.54	404.91
449.73	381.51
449.91	365.12
450.10	416.62
450.28	444.70
450.46	465.77
450.65	416.62
450.83	358.10
451.02	414.27
451.20	416.62
451.39	423.64
451.57	421.30
451.76	390.87
451.94	346.40
452.13	423.64
452.31	442.36
452.49	369.80
452.68	353.42
452.86	308.95
453.05	372.15
453.23	411.93
453.42	330.02
453.60	425.98
453.78	482.15
453.97	351.08
454.15	372.15
454.34	386.19
454.52	383.85
454.70	393.21
454.89	395.55
455.07	435.34
455.26	449.38
455.44	442.36
455.62	430.66
455.81	388.53
455.99	440.02
456.17	407.25
456.36	376.83
456.54	418.96
456.73	383.85
456.91	383.85
457.09	400.23
457.28	414.27
457.46	351.08
457.64	393.21
457.83	430.66
458.01	414.27
458.19	423.64
458.38	454.06
458.56	376.83
458.74	344.06
458.93	365.12
459.11	411.93
459.29	404.91
459.48	400.23
459.66	440.02
459.84	479.81
460.03	421.30
460.21	463.43
460.39	416.62
460.57	425.98
460.76	355.76
460.94	437.68
461.12	442.36
461.31	482.15
461.49	491.51
461.67	388.53
461.85	397.89
462.04	425.98
462.22	746.63
462.40	496.19
462.59	400.23
462.77	421.30
462.95	402.57
463.13	425.98
463.32	449.38
463.50	433.00
463.68	376.83
463.86	367.46
464.05	407.25
464.23	444.70
464.41	540.66
464.59	526.62
464.78	421.30
464.96	376.83
465.14	421.30
465.32	362.78
465.50	397.89
465.69	418.96
465.87	409.59
466.05	400.23
466.23	400.23
466.41	437.68
466.60	449.38
466.78	430.66
466.96	367.46
467.14	402.57
467.32	416.62
467.51	372.15
467.69	482.15
467.87	463.43
468.05	421.30
468.23	543.00
468.41	365.12
468.60	425.98
468.78	435.34
468.96	369.80
469.14	437.68
469.32	348.74
469.50	388.53
469.69	376.83
469.87	409.59
470.05	362.78
470.23	388.53
470.41	428.32
470.59	409.59
470.77	353.42
470.95	337.04
471.14	514.92
471.32	435.34
471.50	470.45
471.68	416.62
471.86	388.53
472.04	428.32
472.22	341.72
472.40	395.55
472.58	395.55
472.77	397.89
472.95	472.79
473.13	489.17
473.31	409.59
473.49	416.62
473.67	372.15
473.85	433.00
474.03	477.47
474.21	440.02
474.39	421.30
474.57	514.92
474.75	381.51
474.93	435.34
475.12	421.30
475.30	348.74
475.48	498.53
475.66	416.62
475.84	411.93
476.02	482.15
476.20	472.79
476.38	388.53
476.56	477.47
476.74	444.70
476.92	428.32
477.10	353.42
477.28	395.55
477.46	383.85
477.64	393.21
477.82	421.30
478.00	414.27
478.18	428.32
478.36	330.02
478.54	383.85
478.72	393.21
478.90	369.80
479.08	447.04
479.26	397.89
479.44	376.83
479.62	386.19
479.80	407.25
479.98	414.27
480.16	407.25
480.34	416.62
480.52	411.93
480.70	423.64
480.88	367.46
481.06	425.98
481.24	334.70
481.41	416.62
481.59	428.32
481.77	402.57
481.95	379.17
482.13	433.00
482.31	458.74
482.49	393.21
482.67	337.04
482.85	472.79
483.03	437.68
483.21	381.51
483.39	418.96
483.57	435.34
483.74	444.70
483.92	423.64
484.10	440.02
484.28	358.10
484.46	454.06
484.64	388.53
484.82	463.43
485.00	383.85
485.18	416.62
485.35	407.25
485.53	353.42
485.71	482.15
485.89	489.17
486.07	454.06
486.25	517.26
486.43	397.89
486.61	428.32
486.78	465.77
486.96	423.64
487.14	421.30
487.32	430.66
487.50	397.89
487.68	437.68
487.85	442.36
488.03	351.08
488.21	400.23
488.39	409.59
488.57	454.06
488.75	440.02
488.92	479.81
489.10	346.40
489.28	461.09
489.46	428.32
489.64	414.27
489.81	477.47
489.99	381.51
490.17	421.30
490.35	435.34
490.53	433.00
490.70	425.98
490.88	390.87
491.06	416.62
491.24	442.36
491.41	442.36
491.59	465.77
491.77	386.19
491.95	372.15
492.13	341.72
492.30	477.47
492.48	451.72
492.66	425.98
492.84	444.70
493.01	428.32
493.19	421.30
493.37	482.15
493.54	461.09
493.72	421.30
493.90	367.46
494.08	383.85
494.25	435.34
494.43	353.42
494.61	379.17
494.79	351.08
494.96	407.25
495.14	451.72
495.32	386.19
495.49	437.68
495.67	395.55
495.85	421.30
496.02	425.98
496.20	400.23
496.38	421.30
496.55	416.62
496.73	404.91
496.91	425.98
497.09	461.09
497.26	393.21
497.44	379.17
497.62	409.59
497.79	402.57
497.97	383.85
498.14	383.85
498.32	348.74
498.50	454.06
498.67	372.15
498.85	407.25
499.03	425.98
499.20	393.21
499.38	386.19
499.56	402.57
499.73	470.45
499.91	418.96
500.08	416.62
500.26	367.46
500.44	418.96
500.61	337.04
500.79	395.55
500.97	425.98
501.14	402.57
501.32	393.21
501.49	425.98
501.67	393.21
501.84	423.64
502.02	411.93
502.20	400.23
502.37	435.34
502.55	367.46
502.72	421.30
502.90	454.06
503.07	409.59
503.25	451.72
503.43	367.46
503.60	390.87
503.78	376.83
503.95	390.87
504.13	463.43
504.30	447.04
504.48	461.09
504.65	475.13
504.83	423.64
505.01	458.74
505.18	388.53
505.36	437.68
505.53	365.12
505.71	355.76
505.88	409.59
506.06	447.04
506.23	440.02
506.41	318.31
506.58	444.70
506.76	433.00
506.93	402.57
507.11	440.02
507.28	404.91
507.46	374.49
507.63	465.77
507.81	374.49
507.98	451.72
508.16	390.87
508.33	360.44
508.50	440.02
508.68	430.66
508.85	491.51
509.03	397.89
509.20	404.91
509.38	404.91
509.55	456.40
509.73	404.91
509.90	447.04
510.08	423.64
510.25	451.72
510.42	444.70
510.60	383.85
510.77	437.68
510.95	407.25
511.12	430.66
511.30	440.02
511.47	341.72
511.64	358.10
511.82	388.53
511.99	353.42
512.17	407.25
512.34	395.55
512.51	374.49
512.69	463.43
512.86	395.55
513.04	365.12
513.21	409.59
513.38	428.32
513.56	435.34
513.73	369.80
513.90	369.80
514.08	421.30
514.25	411.93
514.43	461.09
514.60	402.57
514.77	470.45
514.95	425.98
515.12	433.00
515.29	407.25
515.47	367.46
515.64	435.34
515.81	463.43
515.99	423.64
516.16	444.70
516.33	411.93
516.51	402.57
516.68	484.49
516.85	360.44
517.03	390.87
517.20	376.83
517.37	395.55
517.54	451.72
517.72	458.74
517.89	442.36
518.06	388.53
518.24	451.72
518.41	440.02
518.58	470.45
518.75	416.62
518.93	402.57
519.10	393.21
519.27	351.08
519.45	409.59
519.62	339.38
519.79	449.38
519.96	402.57
520.14	447.04
520.31	423.64
520.48	369.80
520.65	491.51
520.83	407.25
521.00	414.27
521.17	482.15
521.34	388.53
521.52	461.09
521.69	472.79
521.86	388.53
522.03	369.80
522.20	348.74
522.38	444.70
522.55	411.93
522.72	409.59
522.89	404.91
523.07	449.38
523.24	409.59
523.41	402.57
523.58	463.43
523.75	423.64
523.92	411.93
524.10	421.30
524.27	362.78
524.44	344.06
524.61	477.47
524.78	395.55
524.96	425.98
525.13	437.68
525.30	400.23
525.47	479.81
525.64	386.19
525.81	414.27
525.98	372.15
526.16	372.15
526.33	421.30
526.50	416.62
526.67	379.17
526.84	442.36
527.01	402.57
527.18	383.85
527.36	433.00
527.53	407.25
527.70	404.91
527.87	437.68
528.04	411.93
528.21	348.74
528.38	442.36
528.55	400.23
528.72	444.70
528.89	472.79
529.07	381.51
529.24	416.62
529.41	486.83
529.58	449.38
529.75	379.17
529.92	451.72
530.09	433.00
530.26	517.26
530.43	404.91
530.60	456.40
530.77	416.62
530.94	397.89
531.11	414.27
531.28	374.49
531.46	423.64
531.63	437.68
531.80	444.70
531.97	440.02
532.14	423.64
532.31	479.81
532.48	390.87
532.65	383.85
532.82	404.91
532.99	369.80
533.16	407.25
533.33	442.36
533.50	367.46
533.67	404.91
533.84	447.04
534.01	425.98
534.18	428.32
534.35	414.27
534.52	374.49
534.69	463.43
534.86	390.87
535.03	397.89
535.20	400.23
535.37	470.45
535.54	521.94
535.71	383.85
535.88	372.15
536.05	428.32
536.22	402.57
536.38	409.59
536.55	418.96
536.72	383.85
536.89	407.25
537.06	428.32
537.23	388.53
537.40	404.91
537.57	430.66
537.74	477.47
537.91	456.40
538.08	423.64
538.25	449.38
538.42	348.74
538.59	484.49
538.75	496.19
538.92	428.32
539.09	458.74
539.26	395.55
539.43	507.90
539.60	470.45
539.77	400.23
539.94	404.91
540.11	482.15
540.28	447.04
540.44	393.21
540.61	407.25
540.78	482.15
540.95	386.19
541.12	360.44
541.29	435.34
541.46	430.66
541.62	395.55
541.79	416.62
541.96	477.47
542.13	456.40
542.30	418.96
542.47	388.53
542.63	493.85
542.80	386.19
542.97	444.70
543.14	407.25
543.31	479.81
543.48	442.36
543.64	444.70
543.81	430.66
543.98	418.96
544.15	456.40
544.32	430.66
544.48	355.76
544.65	442.36
544.82	440.02
544.99	407.25
545.16	353.42
545.32	512.58
545.49	400.23
545.66	339.38
545.83	376.83
546.00	423.64
546.16	425.98
546.33	369.80
546.50	355.76
546.67	358.10
546.83	505.56
547.00	397.89
547.17	383.85
547.34	428.32
547.50	390.87
547.67	390.87
547.84	374.49
548.00	435.34
548.17	381.51
548.34	458.74
548.51	447.04
548.67	428.32
548.84	440.02
549.01	418.96
549.18	383.85
549.34	498.53
549.51	430.66
549.68	430.66
549.84	437.68
550.01	437.68
550.18	411.93
550.34	475.13
550.51	463.43
550.68	407.25
550.84	400.23
551.01	470.45
551.18	414.27
551.34	437.68
551.51	362.78
551.68	472.79
551.84	435.34
552.01	449.38
552.18	477.47
552.34	409.59
552.51	489.17
552.68	477.47
552.84	390.87
553.01	463.43
553.18	444.70
553.34	372.15
553.51	332.36
553.67	388.53
553.84	470.45
554.01	428.32
554.17	428.32
554.34	465.77
554.51	390.87
554.67	407.25
554.84	416.62
555.00	381.51
555.17	444.70
555.33	395.55
555.50	461.09
555.67	411.93
555.83	456.40
556.00	402.57
556.16	545.34
556.33	435.34
556.50	404.91
556.66	519.60
556.83	362.78
556.99	416.62
557.16	468.11
557.32	444.70
557.49	397.89
557.65	379.17
557.82	433.00
557.98	374.49
558.15	456.40
558.32	418.96
558.48	468.11
558.65	404.91
558.81	418.96
558.98	383.85
559.14	393.21
559.31	369.80
559.47	454.06
559.64	416.62
559.80	428.32
559.97	351.08
560.13	454.06
560.30	372.15
560.46	454.06
560.63	393.21
560.79	322.99
560.96	311.29
561.12	425.98
561.29	442.36
561.45	442.36
561.61	381.51
561.78	465.77
561.94	313.63
562.11	465.77
562.27	404.91
562.44	433.00
562.60	409.59
562.77	423.64
562.93	407.25
563.10	428.32
563.26	358.10
563.42	472.79
563.59	416.62
563.75	425.98
563.92	458.74
564.08	379.17
564.24	414.27
564.41	514.92
564.57	435.34
564.74	411.93
564.90	430.66
565.07	421.30
565.23	437.68
565.39	334.70
565.56	447.04
565.72	404.91
565.88	447.04
566.05	411.93
566.21	390.87
566.38	437.68
566.54	440.02
566.70	393.21
566.87	388.53
567.03	435.34
567.19	433.00
567.36	440.02
567.52	395.55
567.68	489.17
567.85	430.66
568.01	365.12
568.17	430.66
568.34	425.98
568.50	386.19
568.66	372.15
568.83	456.40
568.99	425.98
569.15	402.57
569.32	430.66
569.48	404.91
569.64	379.17
569.81	409.59
569.97	372.15
570.13	447.04
570.30	456.40
570.46	409.59
570.62	454.06
570.78	454.06
570.95	402.57
571.11	381.51
571.27	404.91
571.43	421.30
571.60	390.87
571.76	451.72
571.92	365.12
572.09	449.38
572.25	428.32
572.41	376.83
572.57	367.46
572.74	470.45
572.90	418.96
573.06	472.79
573.22	397.89
573.38	376.83
573.55	437.68
573.71	400.23
573.87	383.85
574.03	400.23
574.20	428.32
574.36	425.98
574.52	390.87
574.68	430.66
574.84	421.30
575.01	444.70
575.17	407.25
575.33	397.89
575.49	435.34
575.65	423.64
575.82	407.25
575.98	428.32
576.14	390.87
576.30	444.70
576.46	374.49
576.62	409.59
576.79	393.21
576.95	479.81
577.11	425.98
577.27	339.38
577.43	465.77
577.59	428.32
577.75	442.36
577.92	433.00
578.08	447.04
578.24	407.25
578.40	442.36
578.56	433.00
578.72	470.45
578.88	472.79
579.04	418.96
579.21	440.02
579.37	395.55
579.53	407.25
579.69	461.09
579.85	376.83
580.01	437.68
580.17	383.85
580.33	381.51
580.49	425.98
580.65	376.83
580.82	454.06
580.98	447.04
581.14	395.55
581.30	442.36
581.46	383.85
581.62	517.26
581.78	404.91
581.94	430.66
582.10	503.22
582.26	390.87
582.42	409.59
582.58	442.36
582.74	376.83
582.90	461.09
583.06	388.53
583.22	414.27
583.38	386.19
583.54	379.17
583.70	461.09
583.86	456.40
584.02	421.30
584.18	430.66
584.34	376.83
584.50	440.02
584.66	348.74
584.82	442.36
584.98	376.83
585.14	433.00
585.30	491.51
585.46	435.34
585.62	430.66
585.78	437.68
585.94	358.10
586.10	400.23
586.26	411.93
586.42	449.38
586.58	355.76
586.74	430.66
586.90	442.36
587.06	491.51
587.22	463.43
587.38	421.30
587.54	414.27
587.70	444.70
587.86	407.25
588.02	435.34
588.18	423.64
588.34	491.51
588.49	411.93
588.65	472.79
588.81	404.91
588.97	409.59
589.13	376.83
589.29	404.91
589.45	411.93
589.61	388.53
589.77	418.96
589.93	409.59
590.08	442.36
590.24	421.30
590.40	402.57
590.56	393.21
590.72	402.57
590.88	430.66
591.04	388.53
591.20	428.32
591.35	440.02
591.51	444.70
591.67	437.68
591.83	425.98
591.99	369.80
592.15	411.93
592.31	463.43
592.46	468.11
592.62	430.66
592.78	388.53
592.94	472.79
593.10	395.55
593.26	409.59
593.41	458.74
593.57	409.59
593.73	454.06
593.89	402.57
594.05	435.34
594.20	334.70
594.36	421.30
594.52	425.98
594.68	440.02
594.84	376.83
594.99	407.25
595.15	386.19
595.31	510.24
595.47	505.56
595.62	409.59
595.78	376.83
595.94	404.91
596.10	430.66
596.25	430.66
596.41	416.62
596.57	346.40
596.73	383.85
596.88	447.04
597.04	435.34
597.20	397.89
597.36	407.25
597.51	395.55
597.67	365.12
597.83	409.59
597.99	409.59
598.14	386.19
598.30	451.72
598.46	444.70
598.61	505.56
598.77	367.46
598.93	344.06
599.09	404.91
599.24	435.34
599.40	433.00
599.56	332.36
599.71	367.46
599.87	430.66
600.03	416.62
600.18	381.51
600.34	437.68
600.50	404.91
600.65	404.91
600.81	393.21
600.97	449.38
601.12	411.93
601.28	381.51
601.44	421.30
601.59	376.83
601.75	447.04
601.91	444.70
602.06	496.19
602.22	489.17
602.37	433.00
602.53	458.74
602.69	428.32
602.84	390.87
603.00	414.27
603.16	400.23
603.31	470.45
603.47	418.96
603.62	337.04
603.78	461.09
603.94	372.15
604.09	402.57
604.25	327.68
604.40	400.23
604.56	390.87
604.71	402.57
604.87	367.46
605.03	425.98
605.18	435.34
605.34	440.02
605.49	433.00
605.65	362.78
605.80	351.08
605.96	442.36
606.12	430.66
606.27	400.23
606.43	362.78
606.58	334.70
606.74	383.85
606.89	400.23
607.05	468.11
607.20	414.27
607.36	409.59
607.51	369.80
607.67	451.72
607.82	404.91
607.98	341.72
608.13	386.19
608.29	381.51
608.44	337.04
608.60	322.99
608.75	521.94
608.91	418.96
609.06	440.02
609.22	489.17
609.37	351.08
609.53	353.42
609.68	334.70
609.84	404.91
609.99	383.85
610.15	388.53
