SpectraSuite Data File
++++++++++++++++++++++++++++++++++++
Date: Fri Oct 25 12:11:44 EDT 2013
User: price-jones
Dark Spectrum Present: No
Reference Spectrum Present: No
Number of Sampled Component Spectra: 1
Spectrometers: USB2+H05261
Integration Time (usec): 100000 (USB2+H05261)
Spectra Averaged: 1 (USB2+H05261)
Boxcar Smoothing: 0 (USB2+H05261)
Correct for Electrical Dark: No (USB2+H05261)
Strobe/Lamp Enabled: No (USB2+H05261)
Correct for Detector Non-linearity: No (USB2+H05261)
Correct for Stray Light: No (USB2+H05261)
Number of Pixels in Processed Spectrum: 2048
>>>>>Begin Processed Spectral Data<<<<<
365.73	278.52
365.92	278.52
366.12	278.52
366.32	203.63
366.52	217.67
366.72	224.69
366.91	234.05
367.11	287.89
367.31	234.05
367.51	245.76
367.70	205.97
367.90	191.92
368.10	245.76
368.30	269.16
368.49	257.46
368.69	220.01
368.89	229.37
369.09	290.23
369.28	220.01
369.48	250.44
369.68	294.91
369.87	348.74
370.07	299.59
370.27	322.99
370.47	292.57
370.66	301.93
370.86	365.12
371.06	362.78
371.25	358.10
371.45	353.42
371.65	393.21
371.84	407.25
372.04	372.15
372.24	351.08
372.44	369.80
372.63	372.15
372.83	414.27
373.03	437.68
373.22	376.83
373.42	421.30
373.62	470.45
373.81	404.91
374.01	500.87
374.21	472.79
374.40	475.13
374.60	400.23
374.79	400.23
374.99	465.77
375.19	395.55
375.38	411.93
375.58	461.09
375.78	425.98
375.97	489.17
376.17	458.74
376.37	447.04
376.56	435.34
376.76	369.80
376.95	404.91
377.15	411.93
377.35	421.30
377.54	325.33
377.74	367.46
377.93	386.19
378.13	423.64
378.33	489.17
378.52	425.98
378.72	430.66
378.91	451.72
379.11	435.34
379.31	386.19
379.50	404.91
379.70	376.83
379.89	451.72
380.09	430.66
380.28	402.57
380.48	421.30
380.68	451.72
380.87	372.15
381.07	435.34
381.26	355.76
381.46	496.19
381.65	421.30
381.85	362.78
382.04	416.62
382.24	409.59
382.43	430.66
382.63	383.85
382.83	454.06
383.02	390.87
383.22	421.30
383.41	397.89
383.61	437.68
383.80	442.36
384.00	451.72
384.19	365.12
384.39	421.30
384.58	461.09
384.78	454.06
384.97	404.91
385.17	414.27
385.36	409.59
385.56	425.98
385.75	376.83
385.95	315.97
386.14	351.08
386.34	407.25
386.53	400.23
386.72	379.17
386.92	444.70
387.11	404.91
387.31	402.57
387.50	430.66
387.70	416.62
387.89	351.08
388.09	414.27
388.28	433.00
388.48	376.83
388.67	390.87
388.86	437.68
389.06	381.51
389.25	386.19
389.45	465.77
389.64	393.21
389.84	397.89
390.03	418.96
390.22	376.83
390.42	358.10
390.61	433.00
390.81	393.21
391.00	388.53
391.19	402.57
391.39	388.53
391.58	477.47
391.78	411.93
391.97	381.51
392.16	421.30
392.36	440.02
392.55	428.32
392.75	416.62
392.94	379.17
393.13	477.47
393.33	449.38
393.52	447.04
393.71	390.87
393.91	440.02
394.10	346.40
394.29	346.40
394.49	372.15
394.68	425.98
394.88	376.83
395.07	444.70
395.26	407.25
395.46	367.46
395.65	428.32
395.84	425.98
396.04	461.09
396.23	414.27
396.42	353.42
396.62	440.02
396.81	404.91
397.00	390.87
397.19	447.04
397.39	444.70
397.58	440.02
397.77	379.17
397.97	390.87
398.16	383.85
398.35	353.42
398.55	365.12
398.74	463.43
398.93	416.62
399.12	444.70
399.32	383.85
399.51	447.04
399.70	503.22
399.90	374.49
400.09	390.87
400.28	421.30
400.47	437.68
400.67	437.68
400.86	425.98
401.05	437.68
401.24	416.62
401.44	489.17
401.63	376.83
401.82	402.57
402.01	411.93
402.21	435.34
402.40	454.06
402.59	411.93
402.78	425.98
402.97	381.51
403.17	444.70
403.36	458.74
403.55	353.42
403.74	390.87
403.93	367.46
404.13	430.66
404.32	409.59
404.51	430.66
404.70	369.80
404.89	379.17
405.09	463.43
405.28	395.55
405.47	369.80
405.66	341.72
405.85	423.64
406.05	458.74
406.24	423.64
406.43	437.68
406.62	404.91
406.81	404.91
407.00	409.59
407.20	414.27
407.39	402.57
407.58	407.25
407.77	425.98
407.96	437.68
408.15	367.46
408.34	421.30
408.54	390.87
408.73	379.17
408.92	372.15
409.11	468.11
409.30	386.19
409.49	435.34
409.68	449.38
409.87	383.85
410.07	383.85
410.26	411.93
410.45	428.32
410.64	395.55
410.83	411.93
411.02	393.21
411.21	397.89
411.40	472.79
411.59	409.59
411.78	365.12
411.98	341.72
412.17	433.00
412.36	475.13
412.55	358.10
412.74	404.91
412.93	444.70
413.12	393.21
413.31	440.02
413.50	400.23
413.69	454.06
413.88	428.32
414.07	372.15
414.26	365.12
414.45	388.53
414.64	433.00
414.83	325.33
415.02	393.21
415.22	393.21
415.41	458.74
415.60	428.32
415.79	376.83
415.98	456.40
416.17	409.59
416.36	409.59
416.55	416.62
416.74	388.53
416.93	430.66
417.12	428.32
417.31	416.62
417.50	411.93
417.69	367.46
417.88	423.64
418.07	425.98
418.26	393.21
418.45	442.36
418.64	449.38
418.83	325.33
419.02	423.64
419.21	386.19
419.39	425.98
419.58	358.10
419.77	421.30
419.96	407.25
420.15	395.55
420.34	433.00
420.53	435.34
420.72	390.87
420.91	449.38
421.10	386.19
421.29	395.55
421.48	393.21
421.67	444.70
421.86	372.15
422.05	454.06
422.24	428.32
422.43	421.30
422.61	334.70
422.80	388.53
422.99	369.80
423.18	423.64
423.37	449.38
423.56	421.30
423.75	418.96
423.94	397.89
424.13	440.02
424.32	411.93
424.50	393.21
424.69	454.06
424.88	400.23
425.07	416.62
425.26	395.55
425.45	435.34
425.64	372.15
425.83	402.57
426.01	395.55
426.20	425.98
426.39	358.10
426.58	409.59
426.77	433.00
426.96	430.66
427.15	425.98
427.33	381.51
427.52	418.96
427.71	351.08
427.90	404.91
428.09	383.85
428.28	386.19
428.46	355.76
428.65	425.98
428.84	414.27
429.03	496.19
429.22	421.30
429.40	383.85
429.59	404.91
429.78	409.59
429.97	435.34
430.16	423.64
430.34	414.27
430.53	362.78
430.72	449.38
430.91	472.79
431.10	418.96
431.28	433.00
431.47	421.30
431.66	360.44
431.85	409.59
432.03	365.12
432.22	456.40
432.41	435.34
432.60	395.55
432.79	433.00
432.97	320.65
433.16	456.40
433.35	390.87
433.54	421.30
433.72	409.59
433.91	423.64
434.10	367.46
434.28	418.96
434.47	411.93
434.66	369.80
434.85	416.62
435.03	386.19
435.22	533.64
435.41	430.66
435.59	433.00
435.78	456.40
435.97	430.66
436.16	456.40
436.34	397.89
436.53	407.25
436.72	301.93
436.90	416.62
437.09	437.68
437.28	456.40
437.46	433.00
437.65	390.87
437.84	372.15
438.02	416.62
438.21	442.36
438.40	463.43
438.58	397.89
438.77	519.60
438.96	442.36
439.14	435.34
439.33	451.72
439.52	365.12
439.70	402.57
439.89	379.17
440.08	425.98
440.26	393.21
440.45	430.66
440.63	428.32
440.82	383.85
441.01	407.25
441.19	489.17
441.38	395.55
441.57	482.15
441.75	442.36
441.94	514.92
442.12	472.79
442.31	421.30
442.50	404.91
442.68	388.53
442.87	365.12
443.05	397.89
443.24	367.46
443.43	418.96
443.61	472.79
443.80	369.80
443.98	386.19
444.17	383.85
444.35	538.32
444.54	425.98
444.73	498.53
444.91	470.45
445.10	404.91
445.28	332.36
445.47	430.66
445.65	437.68
445.84	397.89
446.02	418.96
446.21	440.02
446.39	393.21
446.58	395.55
446.77	433.00
446.95	362.78
447.14	409.59
447.32	461.09
447.51	433.00
447.69	407.25
447.88	437.68
448.06	447.04
448.25	463.43
448.43	435.34
448.62	379.17
448.80	423.64
448.99	404.91
449.17	400.23
449.36	451.72
449.54	423.64
449.73	414.27
449.91	404.91
450.10	421.30
450.28	423.64
450.46	477.47
450.65	423.64
450.83	451.72
451.02	414.27
451.20	437.68
451.39	390.87
451.57	376.83
451.76	351.08
451.94	482.15
452.13	433.00
452.31	435.34
452.49	435.34
452.68	437.68
452.86	458.74
453.05	435.34
453.23	423.64
453.42	362.78
453.60	360.44
453.78	484.49
453.97	395.55
454.15	379.17
454.34	468.11
454.52	374.49
454.70	393.21
454.89	411.93
455.07	416.62
455.26	442.36
455.44	435.34
455.62	358.10
455.81	381.51
455.99	374.49
456.17	428.32
456.36	470.45
456.54	402.57
456.73	369.80
456.91	351.08
457.09	362.78
457.28	402.57
457.46	404.91
457.64	454.06
457.83	353.42
458.01	353.42
458.19	400.23
458.38	379.17
458.56	376.83
458.74	409.59
458.93	400.23
459.11	409.59
459.29	418.96
459.48	500.87
459.66	395.55
459.84	440.02
460.03	524.28
460.21	414.27
460.39	425.98
460.57	418.96
460.76	386.19
460.94	440.02
461.12	418.96
461.31	388.53
461.49	418.96
461.67	428.32
461.85	442.36
462.04	435.34
462.22	753.65
462.40	493.85
462.59	423.64
462.77	421.30
462.95	400.23
463.13	344.06
463.32	416.62
463.50	447.04
463.68	414.27
463.86	414.27
464.05	435.34
464.23	372.15
464.41	428.32
464.59	381.51
464.78	383.85
464.96	414.27
465.14	461.09
465.32	444.70
465.50	360.44
465.69	369.80
465.87	428.32
466.05	428.32
466.23	440.02
466.41	435.34
466.60	353.42
466.78	409.59
466.96	468.11
467.14	400.23
467.32	421.30
467.51	447.04
467.69	468.11
467.87	493.85
468.05	376.83
468.23	444.70
468.41	447.04
468.60	477.47
468.78	493.85
468.96	362.78
469.14	397.89
469.32	409.59
469.50	416.62
469.69	435.34
469.87	372.15
470.05	388.53
470.23	383.85
470.41	367.46
470.59	388.53
470.77	447.04
470.95	388.53
471.14	425.98
471.32	393.21
471.50	409.59
471.68	489.17
471.86	416.62
472.04	418.96
472.22	423.64
472.40	435.34
472.58	423.64
472.77	367.46
472.95	355.76
473.13	428.32
473.31	428.32
473.49	381.51
473.67	402.57
473.85	517.26
474.03	414.27
474.21	404.91
474.39	444.70
474.57	458.74
474.75	437.68
474.93	416.62
475.12	353.42
475.30	388.53
475.48	435.34
475.66	404.91
475.84	381.51
476.02	402.57
476.20	447.04
476.38	404.91
476.56	407.25
476.74	454.06
476.92	397.89
477.10	346.40
477.28	416.62
477.46	416.62
477.64	423.64
477.82	388.53
478.00	454.06
478.18	416.62
478.36	423.64
478.54	437.68
478.72	447.04
478.90	416.62
479.08	414.27
479.26	388.53
479.44	379.17
479.62	449.38
479.80	388.53
479.98	393.21
480.16	388.53
480.34	416.62
480.52	395.55
480.70	444.70
480.88	374.49
481.06	379.17
481.24	379.17
481.41	423.64
481.59	454.06
481.77	411.93
481.95	381.51
482.13	440.02
482.31	421.30
482.49	395.55
482.67	442.36
482.85	404.91
483.03	402.57
483.21	381.51
483.39	428.32
483.57	451.72
483.74	444.70
483.92	372.15
484.10	430.66
484.28	409.59
484.46	444.70
484.64	475.13
484.82	440.02
485.00	376.83
485.18	442.36
485.35	407.25
485.53	449.38
485.71	379.17
485.89	388.53
486.07	379.17
486.25	362.78
486.43	430.66
486.61	451.72
486.78	402.57
486.96	418.96
487.14	421.30
487.32	493.85
487.50	444.70
487.68	442.36
487.85	414.27
488.03	402.57
488.21	463.43
488.39	402.57
488.57	402.57
488.75	421.30
488.92	449.38
489.10	395.55
489.28	433.00
489.46	428.32
489.64	374.49
489.81	411.93
489.99	442.36
490.17	411.93
490.35	372.15
490.53	444.70
490.70	339.38
490.88	409.59
491.06	404.91
491.24	447.04
491.41	430.66
491.59	454.06
491.77	404.91
491.95	332.36
492.13	322.99
492.30	414.27
492.48	418.96
492.66	388.53
492.84	400.23
493.01	374.49
493.19	440.02
493.37	468.11
493.54	447.04
493.72	430.66
493.90	393.21
494.08	475.13
494.25	456.40
494.43	416.62
494.61	411.93
494.79	440.02
494.96	381.51
495.14	388.53
495.32	381.51
495.49	491.51
495.67	435.34
495.85	407.25
496.02	411.93
496.20	454.06
496.38	449.38
496.55	383.85
496.73	433.00
496.91	374.49
497.09	411.93
497.26	346.40
497.44	400.23
497.62	418.96
497.79	372.15
497.97	437.68
498.14	482.15
498.32	402.57
498.50	411.93
498.67	468.11
498.85	414.27
499.03	339.38
499.20	423.64
499.38	435.34
499.56	449.38
499.73	482.15
499.91	465.77
500.08	402.57
500.26	433.00
500.44	369.80
500.61	489.17
500.79	465.77
500.97	477.47
501.14	397.89
501.32	465.77
501.49	372.15
501.67	414.27
501.84	395.55
502.02	414.27
502.20	400.23
502.37	425.98
502.55	449.38
502.72	409.59
502.90	404.91
503.07	433.00
503.25	447.04
503.43	409.59
503.60	346.40
503.78	411.93
503.95	458.74
504.13	421.30
504.30	484.49
504.48	449.38
504.65	486.83
504.83	421.30
505.01	395.55
505.18	383.85
505.36	404.91
505.53	400.23
505.71	365.12
505.88	414.27
506.06	393.21
506.23	367.46
506.41	376.83
506.58	397.89
506.76	425.98
506.93	416.62
507.11	428.32
507.28	458.74
507.46	376.83
507.63	435.34
507.81	430.66
507.98	425.98
508.16	388.53
508.33	425.98
508.50	395.55
508.68	440.02
508.85	416.62
509.03	458.74
509.20	404.91
509.38	344.06
509.55	463.43
509.73	397.89
509.90	433.00
510.08	454.06
510.25	414.27
510.42	383.85
510.60	435.34
510.77	437.68
510.95	456.40
511.12	468.11
511.30	461.09
511.47	404.91
511.64	468.11
511.82	430.66
511.99	388.53
512.17	325.33
512.34	414.27
512.51	414.27
512.69	418.96
512.86	449.38
513.04	414.27
513.21	425.98
513.38	425.98
513.56	397.89
513.73	409.59
513.90	374.49
514.08	440.02
514.25	397.89
514.43	437.68
514.60	409.59
514.77	444.70
514.95	386.19
515.12	423.64
515.29	390.87
515.47	362.78
515.64	484.49
515.81	440.02
515.99	386.19
516.16	479.81
516.33	440.02
516.51	374.49
516.68	407.25
516.85	444.70
517.03	425.98
517.20	477.47
517.37	437.68
517.54	414.27
517.72	400.23
517.89	423.64
518.06	372.15
518.24	458.74
518.41	493.85
518.58	463.43
518.75	320.65
518.93	454.06
519.10	458.74
519.27	402.57
519.45	344.06
519.62	367.46
519.79	397.89
519.96	395.55
520.14	454.06
520.31	414.27
520.48	425.98
520.65	397.89
520.83	376.83
521.00	383.85
521.17	440.02
521.34	416.62
521.52	353.42
521.69	393.21
521.86	374.49
522.03	433.00
522.20	411.93
522.38	444.70
522.55	421.30
522.72	353.42
522.89	379.17
523.07	496.19
523.24	379.17
523.41	369.80
523.58	390.87
523.75	325.33
523.92	376.83
524.10	433.00
524.27	386.19
524.44	411.93
524.61	418.96
524.78	402.57
524.96	470.45
525.13	425.98
525.30	430.66
525.47	486.83
525.64	440.02
525.81	409.59
525.98	400.23
526.16	358.10
526.33	430.66
526.50	367.46
526.67	341.72
526.84	339.38
527.01	404.91
527.18	425.98
527.36	428.32
527.53	428.32
527.70	496.19
527.87	393.21
528.04	493.85
528.21	407.25
528.38	517.26
528.55	463.43
528.72	472.79
528.89	376.83
529.07	388.53
529.24	393.21
529.41	472.79
529.58	425.98
529.75	360.44
529.92	444.70
530.09	404.91
530.26	440.02
530.43	411.93
530.60	435.34
530.77	447.04
530.94	442.36
531.11	416.62
531.28	428.32
531.46	468.11
531.63	428.32
531.80	409.59
531.97	388.53
532.14	365.12
532.31	440.02
532.48	444.70
532.65	442.36
532.82	486.83
532.99	372.15
533.16	416.62
533.33	400.23
533.50	402.57
533.67	416.62
533.84	416.62
534.01	437.68
534.18	435.34
534.35	440.02
534.52	437.68
534.69	433.00
534.86	379.17
535.03	444.70
535.20	418.96
535.37	414.27
535.54	440.02
535.71	470.45
535.88	491.51
536.05	423.64
536.22	402.57
536.38	344.06
536.55	447.04
536.72	433.00
536.89	362.78
537.06	365.12
537.23	369.80
537.40	402.57
537.57	400.23
537.74	437.68
537.91	379.17
538.08	444.70
538.25	468.11
538.42	521.94
538.59	430.66
538.75	414.27
538.92	423.64
539.09	414.27
539.26	458.74
539.43	430.66
539.60	390.87
539.77	451.72
539.94	416.62
540.11	360.44
540.28	451.72
540.44	362.78
540.61	402.57
540.78	397.89
540.95	423.64
541.12	456.40
541.29	388.53
541.46	500.87
541.62	383.85
541.79	451.72
541.96	486.83
542.13	479.81
542.30	348.74
542.47	447.04
542.63	425.98
542.80	465.77
542.97	435.34
543.14	404.91
543.31	407.25
543.48	447.04
543.64	472.79
543.81	409.59
543.98	425.98
544.15	372.15
544.32	388.53
544.48	400.23
544.65	355.76
544.82	362.78
544.99	409.59
545.16	409.59
545.32	383.85
545.49	383.85
545.66	444.70
545.83	395.55
546.00	444.70
546.16	428.32
546.33	489.17
546.50	449.38
546.67	447.04
546.83	425.98
547.00	388.53
547.17	390.87
547.34	395.55
547.50	388.53
547.67	355.76
547.84	388.53
548.00	458.74
548.17	376.83
548.34	435.34
548.51	472.79
548.67	463.43
548.84	395.55
549.01	447.04
549.18	367.46
549.34	425.98
549.51	388.53
549.68	411.93
549.84	475.13
550.01	428.32
550.18	491.51
550.34	498.53
550.51	449.38
550.68	437.68
550.84	470.45
551.01	404.91
551.18	440.02
551.34	376.83
551.51	402.57
551.68	437.68
551.84	409.59
552.01	421.30
552.18	360.44
552.34	440.02
552.51	486.83
552.68	454.06
552.84	430.66
553.01	472.79
553.18	397.89
553.34	379.17
553.51	388.53
553.67	472.79
553.84	437.68
554.01	454.06
554.17	449.38
554.34	430.66
554.51	402.57
554.67	503.22
554.84	463.43
555.00	411.93
555.17	421.30
555.33	451.72
555.50	482.15
555.67	461.09
555.83	365.12
556.00	418.96
556.16	505.56
556.33	512.58
556.50	402.57
556.66	376.83
556.83	428.32
556.99	397.89
557.16	451.72
557.32	411.93
557.49	369.80
557.65	390.87
557.82	461.09
557.98	411.93
558.15	379.17
558.32	440.02
558.48	348.74
558.65	428.32
558.81	355.76
558.98	325.33
559.14	423.64
559.31	404.91
559.47	472.79
559.64	425.98
559.80	379.17
559.97	407.25
560.13	400.23
560.30	409.59
560.46	428.32
560.63	351.08
560.79	395.55
560.96	358.10
561.12	411.93
561.29	433.00
561.45	383.85
561.61	404.91
561.78	458.74
561.94	362.78
562.11	376.83
562.27	383.85
562.44	470.45
562.60	428.32
562.77	451.72
562.93	491.51
563.10	388.53
563.26	435.34
563.42	407.25
563.59	447.04
563.75	444.70
563.92	421.30
564.08	395.55
564.24	489.17
564.41	465.77
564.57	404.91
564.74	444.70
564.90	461.09
565.07	458.74
565.23	442.36
565.39	440.02
565.56	468.11
565.72	369.80
565.88	444.70
566.05	416.62
566.21	437.68
566.38	428.32
566.54	461.09
566.70	428.32
566.87	418.96
567.03	397.89
567.19	416.62
567.36	451.72
567.52	454.06
567.68	402.57
567.85	444.70
568.01	400.23
568.17	397.89
568.34	425.98
568.50	430.66
568.66	393.21
568.83	503.22
568.99	400.23
569.15	465.77
569.32	416.62
569.48	435.34
569.64	388.53
569.81	379.17
569.97	442.36
570.13	475.13
570.30	404.91
570.46	390.87
570.62	407.25
570.78	381.51
570.95	425.98
571.11	437.68
571.27	400.23
571.43	386.19
571.60	421.30
571.76	430.66
571.92	421.30
572.09	388.53
572.25	407.25
572.41	435.34
572.57	325.33
572.74	442.36
572.90	454.06
573.06	421.30
573.22	421.30
573.38	423.64
573.55	447.04
573.71	416.62
573.87	322.99
574.03	463.43
574.20	440.02
574.36	477.47
574.52	362.78
574.68	484.49
574.84	449.38
575.01	393.21
575.17	386.19
575.33	369.80
575.49	437.68
575.65	461.09
575.82	416.62
575.98	421.30
576.14	390.87
576.30	430.66
576.46	423.64
576.62	402.57
576.79	437.68
576.95	442.36
577.11	402.57
577.27	393.21
577.43	407.25
577.59	491.51
577.75	421.30
577.92	423.64
578.08	447.04
578.24	402.57
578.40	437.68
578.56	400.23
578.72	421.30
578.88	411.93
579.04	444.70
579.21	435.34
579.37	421.30
579.53	358.10
579.69	411.93
579.85	416.62
580.01	421.30
580.17	407.25
580.33	437.68
580.49	400.23
580.65	461.09
580.82	418.96
580.98	435.34
581.14	416.62
581.30	376.83
581.46	355.76
581.62	470.45
581.78	407.25
581.94	477.47
582.10	383.85
582.26	421.30
582.42	395.55
582.58	458.74
582.74	393.21
582.90	421.30
583.06	365.12
583.22	337.04
583.38	379.17
583.54	468.11
583.70	383.85
583.86	444.70
584.02	433.00
584.18	358.10
584.34	423.64
584.50	421.30
584.66	351.08
584.82	435.34
584.98	498.53
585.14	423.64
585.30	381.51
585.46	489.17
585.62	421.30
585.78	449.38
585.94	409.59
586.10	379.17
586.26	454.06
586.42	491.51
586.58	437.68
586.74	365.12
586.90	423.64
587.06	454.06
587.22	372.15
587.38	400.23
587.54	433.00
587.70	407.25
587.86	447.04
588.02	390.87
588.18	437.68
588.34	393.21
588.49	374.49
588.65	414.27
588.81	407.25
588.97	304.27
589.13	339.38
589.29	367.46
589.45	437.68
589.61	435.34
589.77	463.43
589.93	461.09
590.08	456.40
590.24	472.79
590.40	447.04
590.56	423.64
590.72	376.83
590.88	409.59
591.04	491.51
591.20	386.19
591.35	395.55
591.51	402.57
591.67	418.96
591.83	400.23
591.99	418.96
592.15	442.36
592.31	430.66
592.46	416.62
592.62	491.51
592.78	435.34
592.94	425.98
593.10	430.66
593.26	383.85
593.41	496.19
593.57	461.09
593.73	372.15
593.89	437.68
594.05	421.30
594.20	461.09
594.36	538.32
594.52	470.45
594.68	390.87
594.84	425.98
594.99	456.40
595.15	456.40
595.31	402.57
595.47	475.13
595.62	444.70
595.78	330.02
595.94	400.23
596.10	416.62
596.25	451.72
596.41	463.43
596.57	440.02
596.73	440.02
596.88	372.15
597.04	468.11
597.20	454.06
597.36	458.74
597.51	454.06
597.67	423.64
597.83	402.57
597.99	388.53
598.14	416.62
598.30	407.25
598.46	411.93
598.61	418.96
598.77	456.40
598.93	395.55
599.09	390.87
599.24	381.51
599.40	468.11
599.56	414.27
599.71	365.12
599.87	451.72
600.03	430.66
600.18	390.87
600.34	376.83
600.50	379.17
600.65	365.12
600.81	433.00
600.97	332.36
601.12	421.30
601.28	496.19
601.44	418.96
601.59	383.85
601.75	421.30
601.91	395.55
602.06	447.04
602.22	496.19
602.37	449.38
602.53	416.62
602.69	414.27
602.84	421.30
603.00	381.51
603.16	421.30
603.31	423.64
603.47	456.40
603.62	381.51
603.78	421.30
603.94	425.98
604.09	430.66
604.25	365.12
604.40	379.17
604.56	421.30
604.71	393.21
604.87	315.97
605.03	411.93
605.18	425.98
605.34	393.21
605.49	409.59
605.65	355.76
605.80	416.62
605.96	421.30
606.12	449.38
606.27	463.43
606.43	339.38
606.58	437.68
606.74	416.62
606.89	395.55
607.05	428.32
607.20	484.49
607.36	454.06
607.51	386.19
607.67	423.64
607.82	369.80
607.98	421.30
608.13	491.51
608.29	404.91
608.44	402.57
608.60	449.38
608.75	421.30
608.91	362.78
609.06	442.36
609.22	486.83
609.37	386.19
609.53	402.57
609.68	461.09
609.84	393.21
609.99	414.27
610.15	486.83
