SpectraSuite Data File
++++++++++++++++++++++++++++++++++++
Date: Fri Oct 25 12:10:07 EDT 2013
User: price-jones
Dark Spectrum Present: No
Reference Spectrum Present: No
Number of Sampled Component Spectra: 1
Spectrometers: USB2+H05261
Integration Time (usec): 100000 (USB2+H05261)
Spectra Averaged: 1 (USB2+H05261)
Boxcar Smoothing: 0 (USB2+H05261)
Correct for Electrical Dark: No (USB2+H05261)
Strobe/Lamp Enabled: No (USB2+H05261)
Correct for Detector Non-linearity: No (USB2+H05261)
Correct for Stray Light: No (USB2+H05261)
Number of Pixels in Processed Spectrum: 2048
>>>>>Begin Processed Spectral Data<<<<<
365.73	318.31
365.92	318.31
366.12	318.31
366.32	297.25
366.52	220.01
366.72	241.08
366.91	180.22
367.11	187.24
367.31	252.78
367.51	210.65
367.70	243.42
367.90	243.42
368.10	196.60
368.30	304.27
368.49	290.23
368.69	271.50
368.89	266.82
369.09	252.78
369.28	280.86
369.48	241.08
369.68	264.48
369.87	367.46
370.07	271.50
370.27	334.70
370.47	330.02
370.66	290.23
370.86	327.68
371.06	355.76
371.25	465.77
371.45	395.55
371.65	383.85
371.84	362.78
372.04	304.27
372.24	355.76
372.44	365.12
372.63	299.59
372.83	355.76
373.03	404.91
373.22	407.25
373.42	388.53
373.62	402.57
373.81	465.77
374.01	425.98
374.21	423.64
374.40	451.72
374.60	442.36
374.79	411.93
374.99	458.74
375.19	430.66
375.38	414.27
375.58	388.53
375.78	540.66
375.97	367.46
376.17	437.68
376.37	381.51
376.56	500.87
376.76	421.30
376.95	430.66
377.15	400.23
377.35	383.85
377.54	397.89
377.74	376.83
377.93	358.10
378.13	423.64
378.33	414.27
378.52	383.85
378.72	486.83
378.91	404.91
379.11	418.96
379.31	451.72
379.50	376.83
379.70	496.19
379.89	477.47
380.09	409.59
380.28	395.55
380.48	388.53
380.68	379.17
380.87	337.04
381.07	393.21
381.26	369.80
381.46	395.55
381.65	425.98
381.85	414.27
382.04	407.25
382.24	409.59
382.43	418.96
382.63	374.49
382.83	404.91
383.02	404.91
383.22	444.70
383.41	388.53
383.61	456.40
383.80	442.36
384.00	395.55
384.19	397.89
384.39	393.21
384.58	409.59
384.78	447.04
384.97	395.55
385.17	414.27
385.36	400.23
385.56	372.15
385.75	428.32
385.95	390.87
386.14	414.27
386.34	428.32
386.53	404.91
386.72	330.02
386.92	411.93
387.11	404.91
387.31	404.91
387.50	402.57
387.70	351.08
387.89	440.02
388.09	353.42
388.28	430.66
388.48	444.70
388.67	416.62
388.86	475.13
389.06	416.62
389.25	397.89
389.45	435.34
389.64	442.36
389.84	402.57
390.03	449.38
390.22	358.10
390.42	355.76
390.61	393.21
390.81	395.55
391.00	344.06
391.19	447.04
391.39	376.83
391.58	477.47
391.78	390.87
391.97	379.17
392.16	428.32
392.36	514.92
392.55	346.40
392.75	409.59
392.94	477.47
393.13	479.81
393.33	393.21
393.52	458.74
393.71	308.95
393.91	376.83
394.10	409.59
394.29	414.27
394.49	440.02
394.68	400.23
394.88	421.30
395.07	451.72
395.26	425.98
395.46	440.02
395.65	475.13
395.84	465.77
396.04	435.34
396.23	322.99
396.42	411.93
396.62	367.46
396.81	339.38
397.00	372.15
397.19	353.42
397.39	381.51
397.58	407.25
397.77	374.49
397.97	358.10
398.16	421.30
398.35	404.91
398.55	393.21
398.74	498.53
398.93	442.36
399.12	397.89
399.32	433.00
399.51	409.59
399.70	440.02
399.90	444.70
400.09	465.77
400.28	470.45
400.47	440.02
400.67	369.80
400.86	372.15
401.05	390.87
401.24	479.81
401.44	421.30
401.63	395.55
401.82	393.21
402.01	390.87
402.21	411.93
402.40	400.23
402.59	360.44
402.78	437.68
402.97	397.89
403.17	437.68
403.36	386.19
403.55	430.66
403.74	341.72
403.93	360.44
404.13	428.32
404.32	418.96
404.51	435.34
404.70	454.06
404.89	374.49
405.09	430.66
405.28	358.10
405.47	402.57
405.66	404.91
405.85	416.62
406.05	395.55
406.24	376.83
406.43	372.15
406.62	404.91
406.81	435.34
407.00	414.27
407.20	468.11
407.39	325.33
407.58	451.72
407.77	393.21
407.96	418.96
408.15	423.64
408.34	386.19
408.54	433.00
408.73	477.47
408.92	365.12
409.11	442.36
409.30	416.62
409.49	418.96
409.68	374.49
409.87	381.51
410.07	425.98
410.26	381.51
410.45	360.44
410.64	449.38
410.83	376.83
411.02	348.74
411.21	428.32
411.40	381.51
411.59	376.83
411.78	440.02
411.98	456.40
412.17	365.12
412.36	379.17
412.55	381.51
412.74	451.72
412.93	390.87
413.12	344.06
413.31	458.74
413.50	470.45
413.69	440.02
413.88	402.57
414.07	376.83
414.26	425.98
414.45	411.93
414.64	418.96
414.83	393.21
415.02	433.00
415.22	447.04
415.41	451.72
415.60	407.25
415.79	437.68
415.98	475.13
416.17	362.78
416.36	404.91
416.55	444.70
416.74	414.27
416.93	465.77
417.12	404.91
417.31	400.23
417.50	444.70
417.69	425.98
417.88	369.80
418.07	418.96
418.26	320.65
418.45	362.78
418.64	421.30
418.83	402.57
419.02	411.93
419.21	421.30
419.39	400.23
419.58	430.66
419.77	395.55
419.96	379.17
420.15	423.64
420.34	416.62
420.53	355.76
420.72	409.59
420.91	437.68
421.10	425.98
421.29	421.30
421.48	456.40
421.67	416.62
421.86	325.33
422.05	421.30
422.24	374.49
422.43	411.93
422.61	358.10
422.80	369.80
422.99	407.25
423.18	418.96
423.37	409.59
423.56	353.42
423.75	409.59
423.94	362.78
424.13	360.44
424.32	435.34
424.50	449.38
424.69	374.49
424.88	435.34
425.07	423.64
425.26	365.12
425.45	425.98
425.64	475.13
425.83	423.64
426.01	376.83
426.20	388.53
426.39	379.17
426.58	433.00
426.77	475.13
426.96	461.09
427.15	423.64
427.33	489.17
427.52	416.62
427.71	369.80
427.90	341.72
428.09	449.38
428.28	407.25
428.46	411.93
428.65	491.51
428.84	430.66
429.03	456.40
429.22	362.78
429.40	393.21
429.59	411.93
429.78	386.19
429.97	418.96
430.16	402.57
430.34	416.62
430.53	402.57
430.72	395.55
430.91	510.24
431.10	458.74
431.28	423.64
431.47	416.62
431.66	397.89
431.85	404.91
432.03	360.44
432.22	477.47
432.41	510.24
432.60	421.30
432.79	421.30
432.97	414.27
433.16	400.23
433.35	381.51
433.54	404.91
433.72	381.51
433.91	444.70
434.10	416.62
434.28	425.98
434.47	381.51
434.66	447.04
434.85	395.55
435.03	404.91
435.22	376.83
435.41	379.17
435.59	407.25
435.78	440.02
435.97	400.23
436.16	435.34
436.34	369.80
436.53	430.66
436.72	472.79
436.90	470.45
437.09	418.96
437.28	444.70
437.46	320.65
437.65	465.77
437.84	433.00
438.02	475.13
438.21	409.59
438.40	416.62
438.58	395.55
438.77	435.34
438.96	404.91
439.14	451.72
439.33	440.02
439.52	409.59
439.70	393.21
439.89	362.78
440.08	362.78
440.26	404.91
440.45	416.62
440.63	416.62
440.82	372.15
441.01	423.64
441.19	421.30
441.38	517.26
441.57	381.51
441.75	393.21
441.94	379.17
442.12	454.06
442.31	351.08
442.50	440.02
442.68	383.85
442.87	423.64
443.05	365.12
443.24	440.02
443.43	411.93
443.61	376.83
443.80	367.46
443.98	409.59
444.17	444.70
444.35	433.00
444.54	425.98
444.73	416.62
444.91	418.96
445.10	425.98
445.28	444.70
445.47	468.11
445.65	468.11
445.84	414.27
446.02	362.78
446.21	400.23
446.39	402.57
446.58	461.09
446.77	472.79
446.95	365.12
447.14	423.64
447.32	428.32
447.51	362.78
447.69	402.57
447.88	383.85
448.06	463.43
448.25	362.78
448.43	416.62
448.62	409.59
448.80	388.53
448.99	358.10
449.17	386.19
449.36	388.53
449.54	435.34
449.73	437.68
449.91	395.55
450.10	411.93
450.28	475.13
450.46	423.64
450.65	418.96
450.83	428.32
451.02	374.49
451.20	416.62
451.39	376.83
451.57	433.00
451.76	386.19
451.94	421.30
452.13	390.87
452.31	475.13
452.49	444.70
452.68	404.91
452.86	465.77
453.05	425.98
453.23	454.06
453.42	400.23
453.60	395.55
453.78	409.59
453.97	416.62
454.15	337.04
454.34	407.25
454.52	348.74
454.70	376.83
454.89	400.23
455.07	423.64
455.26	414.27
455.44	400.23
455.62	468.11
455.81	369.80
455.99	423.64
456.17	348.74
456.36	440.02
456.54	447.04
456.73	437.68
456.91	444.70
457.09	407.25
457.28	407.25
457.46	395.55
457.64	423.64
457.83	379.17
458.01	442.36
458.19	355.76
458.38	442.36
458.56	404.91
458.74	383.85
458.93	449.38
459.11	414.27
459.29	449.38
459.48	351.08
459.66	472.79
459.84	451.72
460.03	491.51
460.21	442.36
460.39	444.70
460.57	458.74
460.76	409.59
460.94	386.19
461.12	482.15
461.31	465.77
461.49	414.27
461.67	440.02
461.85	402.57
462.04	409.59
462.22	774.72
462.40	437.68
462.59	414.27
462.77	421.30
462.95	444.70
463.13	351.08
463.32	449.38
463.50	425.98
463.68	435.34
463.86	409.59
464.05	411.93
464.23	468.11
464.41	449.38
464.59	383.85
464.78	400.23
464.96	390.87
465.14	374.49
465.32	351.08
465.50	320.65
465.69	383.85
465.87	421.30
466.05	360.44
466.23	416.62
466.41	465.77
466.60	407.25
466.78	358.10
466.96	433.00
467.14	367.46
467.32	477.47
467.51	414.27
467.69	435.34
467.87	442.36
468.05	423.64
468.23	400.23
468.41	423.64
468.60	381.51
468.78	433.00
468.96	372.15
469.14	423.64
469.32	327.68
469.50	433.00
469.69	449.38
469.87	397.89
470.05	404.91
470.23	411.93
470.41	355.76
470.59	379.17
470.77	379.17
470.95	433.00
471.14	423.64
471.32	449.38
471.50	411.93
471.68	463.43
471.86	416.62
472.04	379.17
472.22	411.93
472.40	437.68
472.58	381.51
472.77	383.85
472.95	454.06
473.13	484.49
473.31	496.19
473.49	447.04
473.67	402.57
473.85	358.10
474.03	383.85
474.21	404.91
474.39	393.21
474.57	421.30
474.75	430.66
474.93	348.74
475.12	416.62
475.30	381.51
475.48	409.59
475.66	320.65
475.84	416.62
476.02	358.10
476.20	379.17
476.38	395.55
476.56	409.59
476.74	379.17
476.92	430.66
477.10	400.23
477.28	390.87
477.46	376.83
477.64	362.78
477.82	407.25
478.00	477.47
478.18	411.93
478.36	376.83
478.54	365.12
478.72	393.21
478.90	433.00
479.08	386.19
479.26	351.08
479.44	463.43
479.62	369.80
479.80	409.59
479.98	416.62
480.16	372.15
480.34	372.15
480.52	397.89
480.70	423.64
480.88	430.66
481.06	421.30
481.24	372.15
481.41	433.00
481.59	421.30
481.77	458.74
481.95	402.57
482.13	435.34
482.31	327.68
482.49	416.62
482.67	489.17
482.85	458.74
483.03	418.96
483.21	423.64
483.39	411.93
483.57	393.21
483.74	470.45
483.92	407.25
484.10	456.40
484.28	437.68
484.46	477.47
484.64	468.11
484.82	407.25
485.00	421.30
485.18	421.30
485.35	430.66
485.53	465.77
485.71	379.17
485.89	475.13
486.07	395.55
486.25	433.00
486.43	463.43
486.61	381.51
486.78	451.72
486.96	409.59
487.14	418.96
487.32	456.40
487.50	407.25
487.68	393.21
487.85	416.62
488.03	404.91
488.21	425.98
488.39	489.17
488.57	456.40
488.75	376.83
488.92	491.51
489.10	416.62
489.28	404.91
489.46	367.46
489.64	393.21
489.81	372.15
489.99	461.09
490.17	383.85
490.35	416.62
490.53	465.77
490.70	430.66
490.88	461.09
491.06	416.62
491.24	433.00
491.41	425.98
491.59	425.98
491.77	360.44
491.95	423.64
492.13	414.27
492.30	358.10
492.48	407.25
492.66	397.89
492.84	355.76
493.01	468.11
493.19	433.00
493.37	472.79
493.54	423.64
493.72	416.62
493.90	437.68
494.08	383.85
494.25	400.23
494.43	369.80
494.61	318.31
494.79	402.57
494.96	381.51
495.14	411.93
495.32	372.15
495.49	388.53
495.67	428.32
495.85	418.96
496.02	388.53
496.20	418.96
496.38	437.68
496.55	400.23
496.73	425.98
496.91	404.91
497.09	400.23
497.26	423.64
497.44	444.70
497.62	337.04
497.79	423.64
497.97	376.83
498.14	423.64
498.32	451.72
498.50	400.23
498.67	468.11
498.85	411.93
499.03	372.15
499.20	402.57
499.38	313.63
499.56	353.42
499.73	449.38
499.91	383.85
500.08	365.12
500.26	358.10
500.44	414.27
500.61	447.04
500.79	374.49
500.97	393.21
501.14	449.38
501.32	397.89
501.49	470.45
501.67	423.64
501.84	369.80
502.02	386.19
502.20	437.68
502.37	454.06
502.55	461.09
502.72	348.74
502.90	456.40
503.07	402.57
503.25	442.36
503.43	397.89
503.60	383.85
503.78	465.77
503.95	402.57
504.13	393.21
504.30	447.04
504.48	414.27
504.65	468.11
504.83	418.96
505.01	444.70
505.18	421.30
505.36	444.70
505.53	428.32
505.71	376.83
505.88	470.45
506.06	451.72
506.23	407.25
506.41	423.64
506.58	402.57
506.76	433.00
506.93	388.53
507.11	463.43
507.28	402.57
507.46	435.34
507.63	482.15
507.81	418.96
507.98	353.42
508.16	414.27
508.33	381.51
508.50	404.91
508.68	458.74
508.85	414.27
509.03	379.17
509.20	404.91
509.38	479.81
509.55	407.25
509.73	489.17
509.90	430.66
510.08	461.09
510.25	411.93
510.42	468.11
510.60	437.68
510.77	444.70
510.95	435.34
511.12	358.10
511.30	437.68
511.47	416.62
511.64	402.57
511.82	416.62
511.99	454.06
512.17	437.68
512.34	423.64
512.51	339.38
512.69	341.72
512.86	475.13
513.04	416.62
513.21	372.15
513.38	423.64
513.56	416.62
513.73	397.89
513.90	430.66
514.08	418.96
514.25	428.32
514.43	381.51
514.60	402.57
514.77	397.89
514.95	414.27
515.12	433.00
515.29	397.89
515.47	435.34
515.64	440.02
515.81	447.04
515.99	479.81
516.16	456.40
516.33	430.66
516.51	491.51
516.68	442.36
516.85	414.27
517.03	409.59
517.20	435.34
517.37	440.02
517.54	369.80
517.72	442.36
517.89	472.79
518.06	397.89
518.24	409.59
518.41	454.06
518.58	397.89
518.75	376.83
518.93	411.93
519.10	390.87
519.27	423.64
519.45	451.72
519.62	442.36
519.79	400.23
519.96	430.66
520.14	374.49
520.31	437.68
520.48	423.64
520.65	409.59
520.83	414.27
521.00	430.66
521.17	454.06
521.34	390.87
521.52	433.00
521.69	404.91
521.86	428.32
522.03	400.23
522.20	418.96
522.38	507.90
522.55	447.04
522.72	421.30
522.89	440.02
523.07	444.70
523.24	407.25
523.41	362.78
523.58	341.72
523.75	433.00
523.92	383.85
524.10	355.76
524.27	414.27
524.44	437.68
524.61	442.36
524.78	414.27
524.96	461.09
525.13	444.70
525.30	383.85
525.47	400.23
525.64	404.91
525.81	454.06
525.98	428.32
526.16	409.59
526.33	458.74
526.50	383.85
526.67	449.38
526.84	428.32
527.01	437.68
527.18	376.83
527.36	475.13
527.53	411.93
527.70	414.27
527.87	421.30
528.04	470.45
528.21	423.64
528.38	433.00
528.55	486.83
528.72	444.70
528.89	463.43
529.07	418.96
529.24	482.15
529.41	500.87
529.58	447.04
529.75	411.93
529.92	451.72
530.09	477.47
530.26	486.83
530.43	360.44
530.60	472.79
530.77	416.62
530.94	425.98
531.11	428.32
531.28	395.55
531.46	381.51
531.63	503.22
531.80	418.96
531.97	390.87
532.14	355.76
532.31	407.25
532.48	355.76
532.65	440.02
532.82	367.46
532.99	411.93
533.16	470.45
533.33	444.70
533.50	339.38
533.67	346.40
533.84	437.68
534.01	360.44
534.18	404.91
534.35	388.53
534.52	435.34
534.69	430.66
534.86	479.81
535.03	442.36
535.20	397.89
535.37	433.00
535.54	430.66
535.71	456.40
535.88	383.85
536.05	470.45
536.22	461.09
536.38	381.51
536.55	428.32
536.72	390.87
536.89	353.42
537.06	470.45
537.23	435.34
537.40	468.11
537.57	461.09
537.74	493.85
537.91	456.40
538.08	390.87
538.25	388.53
538.42	418.96
538.59	435.34
538.75	360.44
538.92	393.21
539.09	430.66
539.26	421.30
539.43	477.47
539.60	393.21
539.77	465.77
539.94	428.32
540.11	400.23
540.28	416.62
540.44	456.40
540.61	409.59
540.78	348.74
540.95	367.46
541.12	365.12
541.29	435.34
541.46	435.34
541.62	423.64
541.79	479.81
541.96	355.76
542.13	383.85
542.30	341.72
542.47	402.57
542.63	472.79
542.80	393.21
542.97	442.36
543.14	430.66
543.31	472.79
543.48	341.72
543.64	475.13
543.81	425.98
543.98	437.68
544.15	376.83
544.32	428.32
544.48	461.09
544.65	381.51
544.82	341.72
544.99	409.59
545.16	397.89
545.32	379.17
545.49	407.25
545.66	407.25
545.83	482.15
546.00	440.02
546.16	458.74
546.33	402.57
546.50	367.46
546.67	437.68
546.83	390.87
547.00	411.93
547.17	440.02
547.34	433.00
547.50	367.46
547.67	425.98
547.84	395.55
548.00	465.77
548.17	454.06
548.34	365.12
548.51	449.38
548.67	505.56
548.84	430.66
549.01	372.15
549.18	486.83
549.34	376.83
549.51	433.00
549.68	400.23
549.84	372.15
550.01	404.91
550.18	482.15
550.34	421.30
550.51	435.34
550.68	486.83
550.84	411.93
551.01	472.79
551.18	402.57
551.34	463.43
551.51	437.68
551.68	369.80
551.84	390.87
552.01	397.89
552.18	440.02
552.34	374.49
552.51	383.85
552.68	351.08
552.84	437.68
553.01	447.04
553.18	430.66
553.34	421.30
553.51	376.83
553.67	407.25
553.84	440.02
554.01	449.38
554.17	411.93
554.34	393.21
554.51	468.11
554.67	416.62
554.84	425.98
555.00	463.43
555.17	414.27
555.33	383.85
555.50	390.87
555.67	451.72
555.83	411.93
556.00	421.30
556.16	620.24
556.33	510.24
556.50	379.17
556.66	461.09
556.83	381.51
556.99	423.64
557.16	451.72
557.32	383.85
557.49	383.85
557.65	538.32
557.82	477.47
557.98	465.77
558.15	344.06
558.32	369.80
558.48	400.23
558.65	332.36
558.81	414.27
558.98	430.66
559.14	428.32
559.31	395.55
559.47	440.02
559.64	393.21
559.80	430.66
559.97	444.70
560.13	437.68
560.30	362.78
560.46	376.83
560.63	358.10
560.79	433.00
560.96	468.11
561.12	383.85
561.29	430.66
561.45	444.70
561.61	390.87
561.78	526.62
561.94	400.23
562.11	463.43
562.27	447.04
562.44	376.83
562.60	376.83
562.77	388.53
562.93	491.51
563.10	414.27
563.26	362.78
563.42	449.38
563.59	451.72
563.75	379.17
563.92	411.93
564.08	442.36
564.24	433.00
564.41	468.11
564.57	374.49
564.74	393.21
564.90	479.81
565.07	411.93
565.23	395.55
565.39	400.23
565.56	397.89
565.72	430.66
565.88	416.62
566.05	435.34
566.21	400.23
566.38	430.66
566.54	425.98
566.70	362.78
566.87	451.72
567.03	402.57
567.19	454.06
567.36	379.17
567.52	465.77
567.68	454.06
567.85	559.39
568.01	407.25
568.17	447.04
568.34	428.32
568.50	416.62
568.66	449.38
568.83	477.47
568.99	418.96
569.15	458.74
569.32	430.66
569.48	407.25
569.64	404.91
569.81	381.51
569.97	425.98
570.13	411.93
570.30	395.55
570.46	348.74
570.62	456.40
570.78	367.46
570.95	299.59
571.11	444.70
571.27	470.45
571.43	390.87
571.60	332.36
571.76	449.38
571.92	409.59
572.09	397.89
572.25	423.64
572.41	421.30
572.57	477.47
572.74	404.91
572.90	425.98
573.06	386.19
573.22	402.57
573.38	428.32
573.55	409.59
573.71	376.83
573.87	456.40
574.03	376.83
574.20	381.51
574.36	470.45
574.52	346.40
574.68	435.34
574.84	430.66
575.01	440.02
575.17	411.93
575.33	381.51
575.49	407.25
575.65	418.96
575.82	383.85
575.98	367.46
576.14	468.11
576.30	365.12
576.46	379.17
576.62	491.51
576.79	465.77
576.95	461.09
577.11	430.66
577.27	379.17
577.43	411.93
577.59	454.06
577.75	475.13
577.92	402.57
578.08	440.02
578.24	402.57
578.40	477.47
578.56	456.40
578.72	376.83
578.88	339.38
579.04	435.34
579.21	442.36
579.37	362.78
579.53	379.17
579.69	430.66
579.85	404.91
580.01	423.64
580.17	362.78
580.33	449.38
580.49	418.96
580.65	407.25
580.82	407.25
580.98	402.57
581.14	402.57
581.30	397.89
581.46	414.27
581.62	402.57
581.78	381.51
581.94	365.12
582.10	400.23
582.26	393.21
582.42	461.09
582.58	379.17
582.74	351.08
582.90	404.91
583.06	383.85
583.22	390.87
583.38	411.93
583.54	374.49
583.70	362.78
583.86	423.64
584.02	449.38
584.18	458.74
584.34	444.70
584.50	458.74
584.66	484.49
584.82	447.04
584.98	425.98
585.14	416.62
585.30	372.15
585.46	395.55
585.62	348.74
585.78	400.23
585.94	428.32
586.10	423.64
586.26	404.91
586.42	477.47
586.58	393.21
586.74	393.21
586.90	437.68
587.06	435.34
587.22	433.00
587.38	402.57
587.54	369.80
587.70	510.24
587.86	337.04
588.02	451.72
588.18	425.98
588.34	421.30
588.49	388.53
588.65	334.70
588.81	327.68
588.97	297.25
589.13	376.83
589.29	463.43
589.45	411.93
589.61	428.32
589.77	423.64
589.93	397.89
590.08	421.30
590.24	404.91
590.40	407.25
590.56	451.72
590.72	463.43
590.88	500.87
591.04	383.85
591.20	337.04
591.35	421.30
591.51	425.98
591.67	355.76
591.83	386.19
591.99	451.72
592.15	418.96
592.31	341.72
592.46	442.36
592.62	447.04
592.78	407.25
592.94	388.53
593.10	470.45
593.26	456.40
593.41	425.98
593.57	428.32
593.73	472.79
593.89	519.60
594.05	440.02
594.20	404.91
594.36	512.58
594.52	433.00
594.68	334.70
594.84	423.64
594.99	414.27
595.15	435.34
595.31	390.87
595.47	425.98
595.62	447.04
595.78	397.89
595.94	468.11
596.10	496.19
596.25	381.51
596.41	477.47
596.57	418.96
596.73	393.21
596.88	402.57
597.04	365.12
597.20	341.72
597.36	367.46
597.51	362.78
597.67	402.57
597.83	390.87
597.99	409.59
598.14	428.32
598.30	468.11
598.46	423.64
598.61	442.36
598.77	435.34
598.93	400.23
599.09	435.34
599.24	440.02
599.40	402.57
599.56	423.64
599.71	440.02
599.87	400.23
600.03	454.06
600.18	416.62
600.34	376.83
600.50	369.80
600.65	325.33
600.81	393.21
600.97	341.72
601.12	428.32
601.28	440.02
601.44	470.45
601.59	395.55
601.75	442.36
601.91	407.25
602.06	395.55
602.22	535.98
602.37	425.98
602.53	381.51
602.69	451.72
602.84	433.00
603.00	430.66
603.16	397.89
603.31	482.15
603.47	461.09
603.62	433.00
603.78	421.30
603.94	437.68
604.09	440.02
604.25	486.83
604.40	435.34
604.56	437.68
604.71	418.96
604.87	365.12
605.03	397.89
605.18	360.44
605.34	519.60
605.49	367.46
605.65	358.10
605.80	442.36
605.96	332.36
606.12	440.02
606.27	372.15
606.43	390.87
606.58	449.38
606.74	440.02
606.89	463.43
607.05	379.17
607.20	493.85
607.36	341.72
607.51	360.44
607.67	442.36
607.82	428.32
607.98	416.62
608.13	411.93
608.29	430.66
608.44	411.93
608.60	372.15
608.75	477.47
608.91	440.02
609.06	423.64
609.22	430.66
609.37	414.27
609.53	461.09
609.68	433.00
609.84	411.93
609.99	449.38
610.15	456.40
