SpectraSuite Data File
++++++++++++++++++++++++++++++++++++
Date: Fri Oct 25 12:11:39 EDT 2013
User: price-jones
Dark Spectrum Present: No
Reference Spectrum Present: No
Number of Sampled Component Spectra: 1
Spectrometers: USB2+H05261
Integration Time (usec): 100000 (USB2+H05261)
Spectra Averaged: 1 (USB2+H05261)
Boxcar Smoothing: 0 (USB2+H05261)
Correct for Electrical Dark: No (USB2+H05261)
Strobe/Lamp Enabled: No (USB2+H05261)
Correct for Detector Non-linearity: No (USB2+H05261)
Correct for Stray Light: No (USB2+H05261)
Number of Pixels in Processed Spectrum: 2048
>>>>>Begin Processed Spectral Data<<<<<
365.73	322.99
365.92	322.99
366.12	322.99
366.32	257.46
366.52	271.50
366.72	217.67
366.91	154.48
367.11	299.59
367.31	241.08
367.51	224.69
367.70	248.10
367.90	273.84
368.10	229.37
368.30	252.78
368.49	224.69
368.69	269.16
368.89	217.67
369.09	297.25
369.28	241.08
369.48	290.23
369.68	276.18
369.87	292.57
370.07	276.18
370.27	287.89
370.47	332.36
370.66	320.65
370.86	330.02
371.06	327.68
371.25	409.59
371.45	409.59
371.65	360.44
371.84	386.19
372.04	341.72
372.24	381.51
372.44	379.17
372.63	468.11
372.83	337.04
373.03	318.31
373.22	379.17
373.42	360.44
373.62	437.68
373.81	468.11
374.01	423.64
374.21	465.77
374.40	428.32
374.60	430.66
374.79	425.98
374.99	468.11
375.19	463.43
375.38	428.32
375.58	404.91
375.78	421.30
375.97	358.10
376.17	414.27
376.37	381.51
376.56	393.21
376.76	416.62
376.95	376.83
377.15	369.80
377.35	435.34
377.54	397.89
377.74	351.08
377.93	400.23
378.13	484.49
378.33	409.59
378.52	442.36
378.72	386.19
378.91	433.00
379.11	433.00
379.31	507.90
379.50	395.55
379.70	421.30
379.89	479.81
380.09	397.89
380.28	304.27
380.48	341.72
380.68	421.30
380.87	388.53
381.07	381.51
381.26	362.78
381.46	383.85
381.65	355.76
381.85	393.21
382.04	341.72
382.24	414.27
382.43	470.45
382.63	325.33
382.83	386.19
383.02	533.64
383.22	386.19
383.41	351.08
383.61	355.76
383.80	390.87
384.00	421.30
384.19	376.83
384.39	374.49
384.58	379.17
384.78	447.04
384.97	369.80
385.17	376.83
385.36	400.23
385.56	404.91
385.75	440.02
385.95	468.11
386.14	465.77
386.34	404.91
386.53	465.77
386.72	444.70
386.92	444.70
387.11	416.62
387.31	447.04
387.50	433.00
387.70	421.30
387.89	411.93
388.09	341.72
388.28	355.76
388.48	400.23
388.67	430.66
388.86	400.23
389.06	379.17
389.25	465.77
389.45	400.23
389.64	322.99
389.84	477.47
390.03	465.77
390.22	379.17
390.42	365.12
390.61	346.40
390.81	383.85
391.00	374.49
391.19	351.08
391.39	444.70
391.58	449.38
391.78	428.32
391.97	404.91
392.16	442.36
392.36	355.76
392.55	468.11
392.75	369.80
392.94	390.87
393.13	500.87
393.33	425.98
393.52	372.15
393.71	444.70
393.91	416.62
394.10	337.04
394.29	409.59
394.49	367.46
394.68	461.09
394.88	374.49
395.07	444.70
395.26	421.30
395.46	425.98
395.65	423.64
395.84	402.57
396.04	430.66
396.23	344.06
396.42	334.70
396.62	407.25
396.81	372.15
397.00	409.59
397.19	313.63
397.39	409.59
397.58	437.68
397.77	437.68
397.97	383.85
398.16	411.93
398.35	397.89
398.55	374.49
398.74	372.15
398.93	421.30
399.12	414.27
399.32	376.83
399.51	386.19
399.70	430.66
399.90	372.15
400.09	433.00
400.28	428.32
400.47	372.15
400.67	484.49
400.86	423.64
401.05	454.06
401.24	430.66
401.44	425.98
401.63	393.21
401.82	355.76
402.01	449.38
402.21	369.80
402.40	379.17
402.59	383.85
402.78	456.40
402.97	369.80
403.17	372.15
403.36	425.98
403.55	397.89
403.74	428.32
403.93	383.85
404.13	456.40
404.32	407.25
404.51	372.15
404.70	423.64
404.89	388.53
405.09	442.36
405.28	334.70
405.47	407.25
405.66	409.59
405.85	449.38
406.05	381.51
406.24	362.78
406.43	369.80
406.62	433.00
406.81	449.38
407.00	449.38
407.20	386.19
407.39	374.49
407.58	395.55
407.77	393.21
407.96	383.85
408.15	435.34
408.34	390.87
408.54	341.72
408.73	444.70
408.92	372.15
409.11	428.32
409.30	428.32
409.49	449.38
409.68	461.09
409.87	425.98
410.07	397.89
410.26	430.66
410.45	376.83
410.64	397.89
410.83	444.70
411.02	383.85
411.21	411.93
411.40	449.38
411.59	372.15
411.78	442.36
411.98	409.59
412.17	381.51
412.36	414.27
412.55	353.42
412.74	444.70
412.93	386.19
413.12	372.15
413.31	444.70
413.50	451.72
413.69	395.55
413.88	447.04
414.07	386.19
414.26	388.53
414.45	463.43
414.64	383.85
414.83	423.64
415.02	374.49
415.22	458.74
415.41	332.36
415.60	379.17
415.79	395.55
415.98	374.49
416.17	395.55
416.36	465.77
416.55	425.98
416.74	425.98
416.93	430.66
417.12	337.04
417.31	528.96
417.50	362.78
417.69	461.09
417.88	362.78
418.07	393.21
418.26	395.55
418.45	348.74
418.64	397.89
418.83	435.34
419.02	402.57
419.21	407.25
419.39	355.76
419.58	374.49
419.77	386.19
419.96	428.32
420.15	442.36
420.34	454.06
420.53	447.04
420.72	440.02
420.91	388.53
421.10	435.34
421.29	430.66
421.48	355.76
421.67	418.96
421.86	393.21
422.05	383.85
422.24	351.08
422.43	365.12
422.61	444.70
422.80	388.53
422.99	416.62
423.18	386.19
423.37	491.51
423.56	463.43
423.75	369.80
423.94	360.44
424.13	404.91
424.32	390.87
424.50	418.96
424.69	409.59
424.88	444.70
425.07	365.12
425.26	435.34
425.45	456.40
425.64	449.38
425.83	411.93
426.01	430.66
426.20	360.44
426.39	440.02
426.58	407.25
426.77	390.87
426.96	418.96
427.15	390.87
427.33	390.87
427.52	404.91
427.71	386.19
427.90	390.87
428.09	470.45
428.28	400.23
428.46	379.17
428.65	381.51
428.84	374.49
429.03	437.68
429.22	444.70
429.40	351.08
429.59	397.89
429.78	454.06
429.97	421.30
430.16	346.40
430.34	386.19
430.53	397.89
430.72	362.78
430.91	458.74
431.10	416.62
431.28	330.02
431.47	458.74
431.66	437.68
431.85	386.19
432.03	383.85
432.22	500.87
432.41	451.72
432.60	428.32
432.79	388.53
432.97	395.55
433.16	430.66
433.35	470.45
433.54	327.68
433.72	468.11
433.91	447.04
434.10	461.09
434.28	423.64
434.47	423.64
434.66	390.87
434.85	397.89
435.03	390.87
435.22	428.32
435.41	428.32
435.59	425.98
435.78	442.36
435.97	379.17
436.16	465.77
436.34	433.00
436.53	475.13
436.72	404.91
436.90	383.85
437.09	435.34
437.28	472.79
437.46	383.85
437.65	402.57
437.84	388.53
438.02	411.93
438.21	437.68
438.40	416.62
438.58	379.17
438.77	390.87
438.96	414.27
439.14	372.15
439.33	416.62
439.52	430.66
439.70	386.19
439.89	404.91
440.08	442.36
440.26	407.25
440.45	430.66
440.63	395.55
440.82	388.53
441.01	386.19
441.19	351.08
441.38	383.85
441.57	376.83
441.75	402.57
441.94	367.46
442.12	440.02
442.31	411.93
442.50	440.02
442.68	372.15
442.87	348.74
443.05	379.17
443.24	369.80
443.43	376.83
443.61	423.64
443.80	482.15
443.98	442.36
444.17	468.11
444.35	369.80
444.54	318.31
444.73	411.93
444.91	376.83
445.10	353.42
445.28	444.70
445.47	456.40
445.65	362.78
445.84	388.53
446.02	437.68
446.21	411.93
446.39	381.51
446.58	397.89
446.77	447.04
446.95	428.32
447.14	369.80
447.32	437.68
447.51	409.59
447.69	447.04
447.88	489.17
448.06	470.45
448.25	376.83
448.43	430.66
448.62	414.27
448.80	447.04
448.99	341.72
449.17	348.74
449.36	425.98
449.54	409.59
449.73	411.93
449.91	397.89
450.10	402.57
450.28	477.47
450.46	447.04
450.65	444.70
450.83	423.64
451.02	496.19
451.20	388.53
451.39	395.55
451.57	442.36
451.76	404.91
451.94	454.06
452.13	444.70
452.31	423.64
452.49	463.43
452.68	369.80
452.86	437.68
453.05	496.19
453.23	390.87
453.42	433.00
453.60	397.89
453.78	402.57
453.97	376.83
454.15	367.46
454.34	416.62
454.52	404.91
454.70	463.43
454.89	486.83
455.07	416.62
455.26	418.96
455.44	395.55
455.62	425.98
455.81	433.00
455.99	402.57
456.17	404.91
456.36	383.85
456.54	402.57
456.73	400.23
456.91	433.00
457.09	430.66
457.28	414.27
457.46	402.57
457.64	535.98
457.83	421.30
458.01	381.51
458.19	404.91
458.38	402.57
458.56	514.92
458.74	369.80
458.93	479.81
459.11	386.19
459.29	379.17
459.48	397.89
459.66	489.17
459.84	486.83
460.03	479.81
460.21	435.34
460.39	416.62
460.57	423.64
460.76	367.46
460.94	524.28
461.12	451.72
461.31	468.11
461.49	348.74
461.67	395.55
461.85	463.43
462.04	442.36
462.22	758.33
462.40	503.22
462.59	440.02
462.77	428.32
462.95	397.89
463.13	409.59
463.32	411.93
463.50	433.00
463.68	465.77
463.86	470.45
464.05	402.57
464.23	437.68
464.41	479.81
464.59	416.62
464.78	362.78
464.96	290.23
465.14	428.32
465.32	411.93
465.50	367.46
465.69	407.25
465.87	393.21
466.05	489.17
466.23	388.53
466.41	416.62
466.60	393.21
466.78	444.70
466.96	486.83
467.14	461.09
467.32	475.13
467.51	381.51
467.69	468.11
467.87	456.40
468.05	374.49
468.23	510.24
468.41	416.62
468.60	402.57
468.78	430.66
468.96	423.64
469.14	383.85
469.32	376.83
469.50	484.49
469.69	414.27
469.87	407.25
470.05	404.91
470.23	451.72
470.41	369.80
470.59	388.53
470.77	330.02
470.95	355.76
471.14	435.34
471.32	395.55
471.50	444.70
471.68	379.17
471.86	416.62
472.04	383.85
472.22	444.70
472.40	409.59
472.58	388.53
472.77	428.32
472.95	463.43
473.13	517.26
473.31	421.30
473.49	344.06
473.67	449.38
473.85	393.21
474.03	461.09
474.21	449.38
474.39	393.21
474.57	472.79
474.75	433.00
474.93	461.09
475.12	383.85
475.30	390.87
475.48	411.93
475.66	414.27
475.84	437.68
476.02	486.83
476.20	416.62
476.38	411.93
476.56	472.79
476.74	437.68
476.92	430.66
477.10	458.74
477.28	407.25
477.46	433.00
477.64	451.72
477.82	428.32
478.00	397.89
478.18	390.87
478.36	437.68
478.54	444.70
478.72	383.85
478.90	355.76
479.08	425.98
479.26	433.00
479.44	418.96
479.62	379.17
479.80	414.27
479.98	383.85
480.16	395.55
480.34	411.93
480.52	461.09
480.70	397.89
480.88	325.33
481.06	404.91
481.24	332.36
481.41	395.55
481.59	393.21
481.77	358.10
481.95	430.66
482.13	430.66
482.31	400.23
482.49	395.55
482.67	423.64
482.85	486.83
483.03	444.70
483.21	430.66
483.39	416.62
483.57	433.00
483.74	489.17
483.92	346.40
484.10	421.30
484.28	386.19
484.46	463.43
484.64	402.57
484.82	416.62
485.00	351.08
485.18	454.06
485.35	416.62
485.53	430.66
485.71	404.91
485.89	409.59
486.07	423.64
486.25	456.40
486.43	475.13
486.61	395.55
486.78	421.30
486.96	428.32
487.14	442.36
487.32	442.36
487.50	404.91
487.68	475.13
487.85	442.36
488.03	428.32
488.21	461.09
488.39	353.42
488.57	388.53
488.75	411.93
488.92	540.66
489.10	468.11
489.28	454.06
489.46	369.80
489.64	430.66
489.81	355.76
489.99	360.44
490.17	458.74
490.35	428.32
490.53	482.15
490.70	451.72
490.88	470.45
491.06	390.87
491.24	395.55
491.41	498.53
491.59	449.38
491.77	358.10
491.95	397.89
492.13	358.10
492.30	465.77
492.48	362.78
492.66	444.70
492.84	454.06
493.01	386.19
493.19	390.87
493.37	418.96
493.54	407.25
493.72	451.72
493.90	421.30
494.08	489.17
494.25	362.78
494.43	458.74
494.61	428.32
494.79	404.91
494.96	330.02
495.14	477.47
495.32	416.62
495.49	444.70
495.67	458.74
495.85	440.02
496.02	346.40
496.20	458.74
496.38	379.17
496.55	353.42
496.73	449.38
496.91	409.59
497.09	489.17
497.26	449.38
497.44	360.44
497.62	433.00
497.79	348.74
497.97	416.62
498.14	400.23
498.32	449.38
498.50	461.09
498.67	402.57
498.85	444.70
499.03	491.51
499.20	414.27
499.38	425.98
499.56	444.70
499.73	507.90
499.91	416.62
500.08	456.40
500.26	470.45
500.44	416.62
500.61	425.98
500.79	404.91
500.97	416.62
501.14	397.89
501.32	463.43
501.49	416.62
501.67	414.27
501.84	400.23
502.02	325.33
502.20	449.38
502.37	465.77
502.55	428.32
502.72	402.57
502.90	390.87
503.07	435.34
503.25	388.53
503.43	418.96
503.60	458.74
503.78	449.38
503.95	491.51
504.13	421.30
504.30	353.42
504.48	351.08
504.65	425.98
504.83	344.06
505.01	461.09
505.18	421.30
505.36	456.40
505.53	351.08
505.71	344.06
505.88	444.70
506.06	491.51
506.23	383.85
506.41	416.62
506.58	444.70
506.76	353.42
506.93	437.68
507.11	425.98
507.28	437.68
507.46	425.98
507.63	468.11
507.81	327.68
507.98	358.10
508.16	489.17
508.33	409.59
508.50	430.66
508.68	418.96
508.85	374.49
509.03	430.66
509.20	386.19
509.38	437.68
509.55	451.72
509.73	414.27
509.90	428.32
510.08	386.19
510.25	486.83
510.42	367.46
510.60	465.77
510.77	444.70
510.95	449.38
511.12	416.62
511.30	437.68
511.47	388.53
511.64	496.19
511.82	351.08
511.99	456.40
512.17	379.17
512.34	395.55
512.51	393.21
512.69	376.83
512.86	465.77
513.04	449.38
513.21	374.49
513.38	435.34
513.56	430.66
513.73	430.66
513.90	386.19
514.08	491.51
514.25	388.53
514.43	402.57
514.60	390.87
514.77	397.89
514.95	365.12
515.12	430.66
515.29	402.57
515.47	369.80
515.64	449.38
515.81	421.30
515.99	360.44
516.16	393.21
516.33	409.59
516.51	416.62
516.68	348.74
516.85	435.34
517.03	379.17
517.20	500.87
517.37	353.42
517.54	400.23
517.72	456.40
517.89	425.98
518.06	440.02
518.24	514.92
518.41	444.70
518.58	411.93
518.75	367.46
518.93	442.36
519.10	388.53
519.27	440.02
519.45	374.49
519.62	407.25
519.79	416.62
519.96	397.89
520.14	461.09
520.31	430.66
520.48	411.93
520.65	365.12
520.83	433.00
521.00	409.59
521.17	416.62
521.34	507.90
521.52	409.59
521.69	437.68
521.86	388.53
522.03	355.76
522.20	444.70
522.38	414.27
522.55	484.49
522.72	416.62
522.89	416.62
523.07	437.68
523.24	411.93
523.41	425.98
523.58	374.49
523.75	411.93
523.92	482.15
524.10	447.04
524.27	374.49
524.44	299.59
524.61	425.98
524.78	402.57
524.96	330.02
525.13	411.93
525.30	440.02
525.47	437.68
525.64	421.30
525.81	456.40
525.98	351.08
526.16	454.06
526.33	416.62
526.50	456.40
526.67	416.62
526.84	367.46
527.01	407.25
527.18	451.72
527.36	402.57
527.53	393.21
527.70	418.96
527.87	397.89
528.04	458.74
528.21	435.34
528.38	465.77
528.55	444.70
528.72	388.53
528.89	437.68
529.07	344.06
529.24	421.30
529.41	470.45
529.58	437.68
529.75	411.93
529.92	421.30
530.09	444.70
530.26	362.78
530.43	458.74
530.60	407.25
530.77	372.15
530.94	421.30
531.11	449.38
531.28	461.09
531.46	374.49
531.63	449.38
531.80	465.77
531.97	402.57
532.14	425.98
532.31	458.74
532.48	397.89
532.65	332.36
532.82	409.59
532.99	351.08
533.16	388.53
533.33	416.62
533.50	404.91
533.67	393.21
533.84	372.15
534.01	463.43
534.18	411.93
534.35	428.32
534.52	369.80
534.69	425.98
534.86	369.80
535.03	465.77
535.20	442.36
535.37	418.96
535.54	409.59
535.71	351.08
535.88	381.51
536.05	400.23
536.22	376.83
536.38	353.42
536.55	423.64
536.72	360.44
536.89	374.49
537.06	306.61
537.23	414.27
537.40	437.68
537.57	353.42
537.74	461.09
537.91	451.72
538.08	484.49
538.25	418.96
538.42	393.21
538.59	404.91
538.75	418.96
538.92	400.23
539.09	440.02
539.26	358.10
539.43	482.15
539.60	472.79
539.77	456.40
539.94	428.32
540.11	425.98
540.28	402.57
540.44	442.36
540.61	416.62
540.78	416.62
540.95	414.27
541.12	416.62
541.29	369.80
541.46	454.06
541.62	440.02
541.79	351.08
541.96	442.36
542.13	400.23
542.30	416.62
542.47	437.68
542.63	451.72
542.80	421.30
542.97	428.32
543.14	475.13
543.31	433.00
543.48	418.96
543.64	411.93
543.81	433.00
543.98	379.17
544.15	407.25
544.32	404.91
544.48	442.36
544.65	372.15
544.82	348.74
544.99	447.04
545.16	463.43
545.32	421.30
545.49	400.23
545.66	418.96
545.83	393.21
546.00	463.43
546.16	433.00
546.33	430.66
546.50	444.70
546.67	444.70
546.83	409.59
547.00	430.66
547.17	416.62
547.34	435.34
547.50	397.89
547.67	477.47
547.84	456.40
548.00	435.34
548.17	433.00
548.34	372.15
548.51	400.23
548.67	372.15
548.84	400.23
549.01	447.04
549.18	458.74
549.34	381.51
549.51	475.13
549.68	416.62
549.84	416.62
550.01	320.65
550.18	475.13
550.34	444.70
550.51	482.15
550.68	337.04
550.84	470.45
551.01	411.93
551.18	433.00
551.34	407.25
551.51	332.36
551.68	379.17
551.84	451.72
552.01	393.21
552.18	355.76
552.34	418.96
552.51	407.25
552.68	421.30
552.84	397.89
553.01	421.30
553.18	442.36
553.34	449.38
553.51	423.64
553.67	454.06
553.84	411.93
554.01	421.30
554.17	484.49
554.34	456.40
554.51	418.96
554.67	437.68
554.84	416.62
555.00	397.89
555.17	402.57
555.33	409.59
555.50	409.59
555.67	407.25
555.83	423.64
556.00	440.02
556.16	489.17
556.33	444.70
556.50	395.55
556.66	388.53
556.83	362.78
556.99	458.74
557.16	458.74
557.32	433.00
557.49	381.51
557.65	437.68
557.82	444.70
557.98	435.34
558.15	334.70
558.32	369.80
558.48	489.17
558.65	456.40
558.81	409.59
558.98	444.70
559.14	425.98
559.31	463.43
559.47	358.10
559.64	393.21
559.80	353.42
559.97	411.93
560.13	486.83
560.30	461.09
560.46	383.85
560.63	390.87
560.79	360.44
560.96	339.38
561.12	386.19
561.29	383.85
561.45	390.87
561.61	463.43
561.78	538.32
561.94	505.56
562.11	510.24
562.27	404.91
562.44	395.55
562.60	484.49
562.77	465.77
562.93	433.00
563.10	402.57
563.26	428.32
563.42	393.21
563.59	409.59
563.75	409.59
563.92	444.70
564.08	395.55
564.24	458.74
564.41	433.00
564.57	400.23
564.74	374.49
564.90	393.21
565.07	451.72
565.23	425.98
565.39	407.25
565.56	440.02
565.72	383.85
565.88	379.17
566.05	454.06
566.21	409.59
566.38	454.06
566.54	442.36
566.70	402.57
566.87	358.10
567.03	404.91
567.19	407.25
567.36	428.32
567.52	383.85
567.68	339.38
567.85	423.64
568.01	404.91
568.17	442.36
568.34	367.46
568.50	437.68
568.66	348.74
568.83	433.00
568.99	414.27
569.15	414.27
569.32	393.21
569.48	449.38
569.64	440.02
569.81	386.19
569.97	433.00
570.13	435.34
570.30	454.06
570.46	402.57
570.62	458.74
570.78	465.77
570.95	409.59
571.11	428.32
571.27	479.81
571.43	388.53
571.60	369.80
571.76	353.42
571.92	390.87
572.09	531.30
572.25	470.45
572.41	425.98
572.57	428.32
572.74	500.87
572.90	411.93
573.06	435.34
573.22	416.62
573.38	428.32
573.55	369.80
573.71	451.72
573.87	456.40
574.03	468.11
574.20	421.30
574.36	472.79
574.52	444.70
574.68	435.34
574.84	437.68
575.01	470.45
575.17	374.49
575.33	407.25
575.49	442.36
575.65	440.02
575.82	463.43
575.98	411.93
576.14	519.60
576.30	433.00
576.46	407.25
576.62	386.19
576.79	330.02
576.95	425.98
577.11	386.19
577.27	489.17
577.43	437.68
577.59	428.32
577.75	411.93
577.92	407.25
578.08	437.68
578.24	402.57
578.40	430.66
578.56	496.19
578.72	411.93
578.88	440.02
579.04	451.72
579.21	411.93
579.37	411.93
579.53	290.23
579.69	468.11
579.85	383.85
580.01	404.91
580.17	414.27
580.33	402.57
580.49	411.93
580.65	449.38
580.82	393.21
580.98	360.44
581.14	458.74
581.30	425.98
581.46	458.74
581.62	454.06
581.78	430.66
581.94	433.00
582.10	451.72
582.26	447.04
582.42	433.00
582.58	407.25
582.74	367.46
582.90	355.76
583.06	414.27
583.22	423.64
583.38	379.17
583.54	458.74
583.70	456.40
583.86	425.98
584.02	374.49
584.18	402.57
584.34	444.70
584.50	425.98
584.66	404.91
584.82	400.23
584.98	402.57
585.14	355.76
585.30	393.21
585.46	376.83
585.62	437.68
585.78	400.23
585.94	440.02
586.10	458.74
586.26	402.57
586.42	409.59
586.58	411.93
586.74	437.68
586.90	330.02
587.06	379.17
587.22	404.91
587.38	337.04
587.54	393.21
587.70	397.89
587.86	395.55
588.02	395.55
588.18	416.62
588.34	437.68
588.49	383.85
588.65	393.21
588.81	390.87
588.97	416.62
589.13	414.27
589.29	393.21
589.45	475.13
589.61	496.19
589.77	440.02
589.93	369.80
590.08	430.66
590.24	428.32
590.40	393.21
590.56	423.64
590.72	353.42
590.88	372.15
591.04	414.27
591.20	397.89
591.35	489.17
591.51	418.96
591.67	402.57
591.83	428.32
591.99	393.21
592.15	435.34
592.31	409.59
592.46	416.62
592.62	435.34
592.78	402.57
592.94	367.46
593.10	435.34
593.26	388.53
593.41	411.93
593.57	409.59
593.73	386.19
593.89	416.62
594.05	322.99
594.20	362.78
594.36	428.32
594.52	411.93
594.68	449.38
594.84	414.27
594.99	416.62
595.15	425.98
595.31	486.83
595.47	503.22
595.62	442.36
595.78	369.80
595.94	362.78
596.10	428.32
596.25	425.98
596.41	449.38
596.57	397.89
596.73	503.22
596.88	407.25
597.04	444.70
597.20	407.25
597.36	440.02
597.51	423.64
597.67	411.93
597.83	367.46
597.99	447.04
598.14	379.17
598.30	423.64
598.46	353.42
598.61	505.56
598.77	444.70
598.93	351.08
599.09	414.27
599.24	430.66
599.40	496.19
599.56	404.91
599.71	351.08
599.87	400.23
600.03	430.66
600.18	418.96
600.34	372.15
600.50	400.23
600.65	397.89
600.81	458.74
600.97	418.96
601.12	470.45
601.28	437.68
601.44	437.68
601.59	425.98
601.75	475.13
601.91	451.72
602.06	456.40
602.22	475.13
602.37	458.74
602.53	365.12
602.69	381.51
602.84	311.29
603.00	411.93
603.16	447.04
603.31	428.32
603.47	430.66
603.62	372.15
603.78	440.02
603.94	423.64
604.09	362.78
604.25	400.23
604.40	416.62
604.56	449.38
604.71	458.74
604.87	428.32
605.03	430.66
605.18	374.49
605.34	503.22
605.49	393.21
605.65	407.25
605.80	409.59
605.96	374.49
606.12	409.59
606.27	430.66
606.43	425.98
606.58	486.83
606.74	386.19
606.89	414.27
607.05	433.00
607.20	442.36
607.36	418.96
607.51	407.25
607.67	428.32
607.82	451.72
607.98	447.04
608.13	423.64
608.29	507.90
608.44	430.66
608.60	433.00
608.75	461.09
608.91	428.32
609.06	447.04
609.22	423.64
609.37	404.91
609.53	430.66
609.68	423.64
609.84	407.25
609.99	418.96
610.15	397.89
