SpectraSuite Data File
++++++++++++++++++++++++++++++++++++
Date: Fri Oct 25 12:11:28 EDT 2013
User: price-jones
Dark Spectrum Present: No
Reference Spectrum Present: No
Number of Sampled Component Spectra: 1
Spectrometers: USB2+H05261
Integration Time (usec): 100000 (USB2+H05261)
Spectra Averaged: 1 (USB2+H05261)
Boxcar Smoothing: 0 (USB2+H05261)
Correct for Electrical Dark: No (USB2+H05261)
Strobe/Lamp Enabled: No (USB2+H05261)
Correct for Detector Non-linearity: No (USB2+H05261)
Correct for Stray Light: No (USB2+H05261)
Number of Pixels in Processed Spectrum: 2048
>>>>>Begin Processed Spectral Data<<<<<
365.73	386.19
365.92	386.19
366.12	386.19
366.32	191.92
366.52	250.44
366.72	252.78
366.91	243.42
367.11	243.42
367.31	203.63
367.51	182.56
367.70	231.71
367.90	229.37
368.10	250.44
368.30	173.20
368.49	278.52
368.69	301.93
368.89	227.03
369.09	187.24
369.28	299.59
369.48	271.50
369.68	227.03
369.87	355.76
370.07	280.86
370.27	297.25
370.47	304.27
370.66	299.59
370.86	330.02
371.06	407.25
371.25	440.02
371.45	402.57
371.65	320.65
371.84	388.53
372.04	390.87
372.24	430.66
372.44	465.77
372.63	454.06
372.83	348.74
373.03	451.72
373.22	376.83
373.42	435.34
373.62	397.89
373.81	451.72
374.01	433.00
374.21	404.91
374.40	496.19
374.60	444.70
374.79	444.70
374.99	397.89
375.19	418.96
375.38	461.09
375.58	414.27
375.78	383.85
375.97	395.55
376.17	393.21
376.37	388.53
376.56	447.04
376.76	416.62
376.95	386.19
377.15	423.64
377.35	437.68
377.54	395.55
377.74	454.06
377.93	411.93
378.13	400.23
378.33	465.77
378.52	397.89
378.72	388.53
378.91	379.17
379.11	456.40
379.31	425.98
379.50	365.12
379.70	428.32
379.89	440.02
380.09	397.89
380.28	430.66
380.48	416.62
380.68	393.21
380.87	433.00
381.07	433.00
381.26	416.62
381.46	365.12
381.65	374.49
381.85	414.27
382.04	456.40
382.24	390.87
382.43	437.68
382.63	372.15
382.83	421.30
383.02	470.45
383.22	491.51
383.41	404.91
383.61	433.00
383.80	461.09
384.00	362.78
384.19	306.61
384.39	437.68
384.58	395.55
384.78	400.23
384.97	451.72
385.17	386.19
385.36	334.70
385.56	416.62
385.75	402.57
385.95	327.68
386.14	425.98
386.34	388.53
386.53	376.83
386.72	435.34
386.92	409.59
387.11	430.66
387.31	386.19
387.50	409.59
387.70	425.98
387.89	390.87
388.09	376.83
388.28	376.83
388.48	463.43
388.67	358.10
388.86	489.17
389.06	386.19
389.25	395.55
389.45	365.12
389.64	388.53
389.84	425.98
390.03	465.77
390.22	433.00
390.42	418.96
390.61	330.02
390.81	372.15
391.00	440.02
391.19	477.47
391.39	425.98
391.58	404.91
391.78	505.56
391.97	428.32
392.16	404.91
392.36	444.70
392.55	484.49
392.75	397.89
392.94	397.89
393.13	477.47
393.33	395.55
393.52	416.62
393.71	444.70
393.91	360.44
394.10	437.68
394.29	365.12
394.49	409.59
394.68	402.57
394.88	428.32
395.07	470.45
395.26	407.25
395.46	421.30
395.65	400.23
395.84	383.85
396.04	433.00
396.23	369.80
396.42	458.74
396.62	400.23
396.81	322.99
397.00	372.15
397.19	390.87
397.39	311.29
397.58	344.06
397.77	404.91
397.97	461.09
398.16	400.23
398.35	411.93
398.55	475.13
398.74	430.66
398.93	393.21
399.12	404.91
399.32	435.34
399.51	367.46
399.70	390.87
399.90	390.87
400.09	409.59
400.28	404.91
400.47	379.17
400.67	381.51
400.86	423.64
401.05	393.21
401.24	428.32
401.44	381.51
401.63	423.64
401.82	428.32
402.01	430.66
402.21	465.77
402.40	430.66
402.59	325.33
402.78	344.06
402.97	421.30
403.17	444.70
403.36	376.83
403.55	400.23
403.74	465.77
403.93	360.44
404.13	468.11
404.32	482.15
404.51	444.70
404.70	447.04
404.89	365.12
405.09	411.93
405.28	365.12
405.47	416.62
405.66	411.93
405.85	383.85
406.05	393.21
406.24	411.93
406.43	428.32
406.62	477.47
406.81	482.15
407.00	402.57
407.20	400.23
407.39	388.53
407.58	393.21
407.77	468.11
407.96	421.30
408.15	386.19
408.34	414.27
408.54	437.68
408.73	381.51
408.92	395.55
409.11	442.36
409.30	456.40
409.49	430.66
409.68	484.49
409.87	381.51
410.07	395.55
410.26	416.62
410.45	376.83
410.64	348.74
410.83	418.96
411.02	341.72
411.21	402.57
411.40	442.36
411.59	421.30
411.78	376.83
411.98	386.19
412.17	365.12
412.36	393.21
412.55	397.89
412.74	444.70
412.93	418.96
413.12	390.87
413.31	337.04
413.50	421.30
413.69	332.36
413.88	449.38
414.07	425.98
414.26	374.49
414.45	374.49
414.64	320.65
414.83	376.83
415.02	425.98
415.22	463.43
415.41	477.47
415.60	444.70
415.79	376.83
415.98	397.89
416.17	454.06
416.36	465.77
416.55	407.25
416.74	433.00
416.93	461.09
417.12	397.89
417.31	416.62
417.50	477.47
417.69	430.66
417.88	411.93
418.07	381.51
418.26	332.36
418.45	311.29
418.64	428.32
418.83	402.57
419.02	421.30
419.21	330.02
419.39	388.53
419.58	411.93
419.77	351.08
419.96	437.68
420.15	402.57
420.34	428.32
420.53	442.36
420.72	451.72
420.91	425.98
421.10	404.91
421.29	447.04
421.48	454.06
421.67	407.25
421.86	388.53
422.05	365.12
422.24	428.32
422.43	423.64
422.61	407.25
422.80	421.30
422.99	334.70
423.18	433.00
423.37	348.74
423.56	498.53
423.75	390.87
423.94	428.32
424.13	484.49
424.32	388.53
424.50	468.11
424.69	425.98
424.88	433.00
425.07	325.33
425.26	383.85
425.45	423.64
425.64	433.00
425.83	388.53
426.01	404.91
426.20	456.40
426.39	388.53
426.58	372.15
426.77	400.23
426.96	440.02
427.15	486.83
427.33	421.30
427.52	470.45
427.71	447.04
427.90	428.32
428.09	437.68
428.28	383.85
428.46	486.83
428.65	388.53
428.84	388.53
429.03	482.15
429.22	447.04
429.40	425.98
429.59	402.57
429.78	428.32
429.97	416.62
430.16	418.96
430.34	404.91
430.53	421.30
430.72	404.91
430.91	383.85
431.10	418.96
431.28	454.06
431.47	437.68
431.66	430.66
431.85	346.40
432.03	393.21
432.22	477.47
432.41	463.43
432.60	440.02
432.79	365.12
432.97	395.55
433.16	418.96
433.35	365.12
433.54	440.02
433.72	451.72
433.91	416.62
434.10	395.55
434.28	383.85
434.47	454.06
434.66	355.76
434.85	409.59
435.03	428.32
435.22	547.69
435.41	468.11
435.59	433.00
435.78	407.25
435.97	360.44
436.16	435.34
436.34	456.40
436.53	383.85
436.72	454.06
436.90	409.59
437.09	409.59
437.28	451.72
437.46	414.27
437.65	503.22
437.84	430.66
438.02	472.79
438.21	447.04
438.40	397.89
438.58	411.93
438.77	395.55
438.96	362.78
439.14	360.44
439.33	395.55
439.52	418.96
439.70	433.00
439.89	440.02
440.08	465.77
440.26	463.43
440.45	414.27
440.63	390.87
440.82	400.23
441.01	383.85
441.19	411.93
441.38	454.06
441.57	479.81
441.75	379.17
441.94	449.38
442.12	386.19
442.31	437.68
442.50	440.02
442.68	386.19
442.87	423.64
443.05	449.38
443.24	416.62
443.43	414.27
443.61	386.19
443.80	463.43
443.98	456.40
444.17	397.89
444.35	372.15
444.54	442.36
444.73	400.23
444.91	404.91
445.10	468.11
445.28	402.57
445.47	433.00
445.65	360.44
445.84	388.53
446.02	400.23
446.21	365.12
446.39	430.66
446.58	425.98
446.77	451.72
446.95	355.76
447.14	367.46
447.32	395.55
447.51	484.49
447.69	491.51
447.88	348.74
448.06	425.98
448.25	447.04
448.43	388.53
448.62	374.49
448.80	395.55
448.99	440.02
449.17	372.15
449.36	440.02
449.54	470.45
449.73	402.57
449.91	388.53
450.10	451.72
450.28	454.06
450.46	500.87
450.65	456.40
450.83	423.64
451.02	344.06
451.20	421.30
451.39	428.32
451.57	484.49
451.76	437.68
451.94	477.47
452.13	383.85
452.31	395.55
452.49	449.38
452.68	397.89
452.86	360.44
453.05	489.17
453.23	360.44
453.42	348.74
453.60	414.27
453.78	390.87
453.97	411.93
454.15	435.34
454.34	388.53
454.52	430.66
454.70	423.64
454.89	440.02
455.07	393.21
455.26	449.38
455.44	367.46
455.62	379.17
455.81	404.91
455.99	437.68
456.17	416.62
456.36	372.15
456.54	404.91
456.73	418.96
456.91	386.19
457.09	449.38
457.28	486.83
457.46	393.21
457.64	409.59
457.83	449.38
458.01	404.91
458.19	395.55
458.38	416.62
458.56	339.38
458.74	435.34
458.93	428.32
459.11	393.21
459.29	456.40
459.48	395.55
459.66	465.77
459.84	437.68
460.03	489.17
460.21	458.74
460.39	472.79
460.57	482.15
460.76	348.74
460.94	374.49
461.12	358.10
461.31	390.87
461.49	440.02
461.67	440.02
461.85	407.25
462.04	360.44
462.22	802.80
462.40	372.15
462.59	418.96
462.77	372.15
462.95	379.17
463.13	447.04
463.32	416.62
463.50	528.96
463.68	425.98
463.86	355.76
464.05	367.46
464.23	423.64
464.41	418.96
464.59	367.46
464.78	447.04
464.96	365.12
465.14	404.91
465.32	386.19
465.50	386.19
465.69	376.83
465.87	407.25
466.05	402.57
466.23	409.59
466.41	482.15
466.60	376.83
466.78	416.62
466.96	402.57
467.14	418.96
467.32	475.13
467.51	433.00
467.69	372.15
467.87	477.47
468.05	449.38
468.23	472.79
468.41	407.25
468.60	498.53
468.78	360.44
468.96	404.91
469.14	423.64
469.32	395.55
469.50	348.74
469.69	482.15
469.87	346.40
470.05	463.43
470.23	404.91
470.41	393.21
470.59	374.49
470.77	423.64
470.95	388.53
471.14	388.53
471.32	440.02
471.50	383.85
471.68	395.55
471.86	367.46
472.04	400.23
472.22	416.62
472.40	461.09
472.58	390.87
472.77	421.30
472.95	383.85
473.13	416.62
473.31	390.87
473.49	376.83
473.67	376.83
473.85	489.17
474.03	489.17
474.21	468.11
474.39	348.74
474.57	456.40
474.75	411.93
474.93	388.53
475.12	444.70
475.30	428.32
475.48	393.21
475.66	395.55
475.84	386.19
476.02	400.23
476.20	388.53
476.38	425.98
476.56	491.51
476.74	477.47
476.92	388.53
477.10	440.02
477.28	367.46
477.46	447.04
477.64	491.51
477.82	437.68
478.00	393.21
478.18	416.62
478.36	404.91
478.54	376.83
478.72	440.02
478.90	416.62
479.08	374.49
479.26	449.38
479.44	421.30
479.62	407.25
479.80	360.44
479.98	395.55
480.16	397.89
480.34	407.25
480.52	533.64
480.70	346.40
480.88	430.66
481.06	390.87
481.24	425.98
481.41	362.78
481.59	526.62
481.77	395.55
481.95	365.12
482.13	470.45
482.31	397.89
482.49	411.93
482.67	416.62
482.85	451.72
483.03	414.27
483.21	425.98
483.39	505.56
483.57	423.64
483.74	458.74
483.92	393.21
484.10	402.57
484.28	421.30
484.46	475.13
484.64	374.49
484.82	407.25
485.00	435.34
485.18	411.93
485.35	454.06
485.53	433.00
485.71	400.23
485.89	400.23
486.07	449.38
486.25	458.74
486.43	444.70
486.61	416.62
486.78	444.70
486.96	449.38
487.14	379.17
487.32	468.11
487.50	400.23
487.68	409.59
487.85	421.30
488.03	444.70
488.21	388.53
488.39	386.19
488.57	414.27
488.75	400.23
488.92	440.02
489.10	505.56
489.28	430.66
489.46	404.91
489.64	400.23
489.81	461.09
489.99	440.02
490.17	442.36
490.35	409.59
490.53	449.38
490.70	388.53
490.88	365.12
491.06	423.64
491.24	425.98
491.41	418.96
491.59	442.36
491.77	393.21
491.95	435.34
492.13	348.74
492.30	449.38
492.48	423.64
492.66	411.93
492.84	395.55
493.01	393.21
493.19	442.36
493.37	505.56
493.54	409.59
493.72	409.59
493.90	449.38
494.08	374.49
494.25	400.23
494.43	451.72
494.61	383.85
494.79	332.36
494.96	367.46
495.14	407.25
495.32	400.23
495.49	496.19
495.67	414.27
495.85	456.40
496.02	369.80
496.20	498.53
496.38	475.13
496.55	407.25
496.73	411.93
496.91	444.70
497.09	456.40
497.26	402.57
497.44	374.49
497.62	444.70
497.79	477.47
497.97	381.51
498.14	346.40
498.32	447.04
498.50	372.15
498.67	367.46
498.85	411.93
499.03	365.12
499.20	454.06
499.38	353.42
499.56	421.30
499.73	472.79
499.91	463.43
500.08	425.98
500.26	442.36
500.44	425.98
500.61	409.59
500.79	379.17
500.97	428.32
501.14	484.49
501.32	411.93
501.49	482.15
501.67	400.23
501.84	428.32
502.02	395.55
502.20	454.06
502.37	437.68
502.55	383.85
502.72	404.91
502.90	496.19
503.07	393.21
503.25	402.57
503.43	428.32
503.60	458.74
503.78	449.38
503.95	351.08
504.13	447.04
504.30	451.72
504.48	421.30
504.65	421.30
504.83	444.70
505.01	369.80
505.18	425.98
505.36	461.09
505.53	435.34
505.71	402.57
505.88	423.64
506.06	423.64
506.23	418.96
506.41	365.12
506.58	358.10
506.76	512.58
506.93	433.00
507.11	430.66
507.28	355.76
507.46	477.47
507.63	472.79
507.81	407.25
507.98	400.23
508.16	374.49
508.33	458.74
508.50	425.98
508.68	383.85
508.85	442.36
509.03	404.91
509.20	348.74
509.38	411.93
509.55	428.32
509.73	437.68
509.90	367.46
510.08	367.46
510.25	416.62
510.42	379.17
510.60	479.81
510.77	381.51
510.95	435.34
511.12	376.83
511.30	433.00
511.47	402.57
511.64	468.11
511.82	381.51
511.99	402.57
512.17	367.46
512.34	395.55
512.51	374.49
512.69	409.59
512.86	465.77
513.04	468.11
513.21	390.87
513.38	433.00
513.56	358.10
513.73	379.17
513.90	409.59
514.08	470.45
514.25	369.80
514.43	428.32
514.60	425.98
514.77	397.89
514.95	510.24
515.12	461.09
515.29	411.93
515.47	430.66
515.64	416.62
515.81	369.80
515.99	374.49
516.16	402.57
516.33	449.38
516.51	430.66
516.68	407.25
516.85	444.70
517.03	418.96
517.20	430.66
517.37	416.62
517.54	486.83
517.72	423.64
517.89	365.12
518.06	390.87
518.24	423.64
518.41	465.77
518.58	449.38
518.75	447.04
518.93	437.68
519.10	465.77
519.27	381.51
519.45	472.79
519.62	470.45
519.79	337.04
519.96	362.78
520.14	369.80
520.31	447.04
520.48	409.59
520.65	418.96
520.83	423.64
521.00	461.09
521.17	437.68
521.34	390.87
521.52	383.85
521.69	360.44
521.86	486.83
522.03	442.36
522.20	475.13
522.38	367.46
522.55	440.02
522.72	388.53
522.89	449.38
523.07	447.04
523.24	390.87
523.41	440.02
523.58	418.96
523.75	407.25
523.92	390.87
524.10	383.85
524.27	383.85
524.44	421.30
524.61	418.96
524.78	472.79
524.96	458.74
525.13	486.83
525.30	484.49
525.47	390.87
525.64	447.04
525.81	468.11
525.98	456.40
526.16	369.80
526.33	451.72
526.50	423.64
526.67	416.62
526.84	444.70
527.01	437.68
527.18	444.70
527.36	442.36
527.53	404.91
527.70	411.93
527.87	435.34
528.04	430.66
528.21	409.59
528.38	418.96
528.55	444.70
528.72	395.55
528.89	400.23
529.07	423.64
529.24	339.38
529.41	393.21
529.58	393.21
529.75	358.10
529.92	482.15
530.09	451.72
530.26	423.64
530.43	458.74
530.60	332.36
530.77	376.83
530.94	423.64
531.11	386.19
531.28	351.08
531.46	369.80
531.63	409.59
531.80	435.34
531.97	428.32
532.14	418.96
532.31	428.32
532.48	409.59
532.65	456.40
532.82	449.38
532.99	397.89
533.16	428.32
533.33	416.62
533.50	390.87
533.67	388.53
533.84	540.66
534.01	428.32
534.18	372.15
534.35	418.96
534.52	463.43
534.69	440.02
534.86	414.27
535.03	433.00
535.20	425.98
535.37	428.32
535.54	407.25
535.71	372.15
535.88	428.32
536.05	470.45
536.22	411.93
536.38	468.11
536.55	454.06
536.72	493.85
536.89	418.96
537.06	416.62
537.23	383.85
537.40	418.96
537.57	367.46
537.74	411.93
537.91	416.62
538.08	411.93
538.25	386.19
538.42	444.70
538.59	386.19
538.75	463.43
538.92	454.06
539.09	479.81
539.26	386.19
539.43	440.02
539.60	440.02
539.77	376.83
539.94	484.49
540.11	409.59
540.28	374.49
540.44	468.11
540.61	404.91
540.78	451.72
540.95	400.23
541.12	449.38
541.29	379.17
541.46	428.32
541.62	444.70
541.79	425.98
541.96	416.62
542.13	381.51
542.30	409.59
542.47	472.79
542.63	409.59
542.80	496.19
542.97	395.55
543.14	418.96
543.31	440.02
543.48	379.17
543.64	479.81
543.81	477.47
543.98	334.70
544.15	409.59
544.32	404.91
544.48	458.74
544.65	449.38
544.82	397.89
544.99	430.66
545.16	470.45
545.32	421.30
545.49	440.02
545.66	381.51
545.83	437.68
546.00	332.36
546.16	433.00
546.33	388.53
546.50	414.27
546.67	433.00
546.83	433.00
547.00	386.19
547.17	332.36
547.34	383.85
547.50	449.38
547.67	337.04
547.84	421.30
548.00	458.74
548.17	411.93
548.34	388.53
548.51	470.45
548.67	425.98
548.84	456.40
549.01	360.44
549.18	404.91
549.34	449.38
549.51	402.57
549.68	351.08
549.84	372.15
550.01	482.15
550.18	475.13
550.34	477.47
550.51	374.49
550.68	472.79
550.84	470.45
551.01	414.27
551.18	425.98
551.34	475.13
551.51	397.89
551.68	372.15
551.84	362.78
552.01	482.15
552.18	428.32
552.34	381.51
552.51	425.98
552.68	423.64
552.84	430.66
553.01	372.15
553.18	416.62
553.34	400.23
553.51	320.65
553.67	355.76
553.84	416.62
554.01	400.23
554.17	458.74
554.34	383.85
554.51	362.78
554.67	454.06
554.84	418.96
555.00	411.93
555.17	430.66
555.33	423.64
555.50	428.32
555.67	425.98
555.83	416.62
556.00	409.59
556.16	479.81
556.33	435.34
556.50	351.08
556.66	475.13
556.83	489.17
556.99	355.76
557.16	409.59
557.32	360.44
557.49	351.08
557.65	428.32
557.82	468.11
557.98	400.23
558.15	397.89
558.32	402.57
558.48	418.96
558.65	390.87
558.81	440.02
558.98	416.62
559.14	374.49
559.31	423.64
559.47	383.85
559.64	435.34
559.80	477.47
559.97	507.90
560.13	395.55
560.30	388.53
560.46	386.19
560.63	365.12
560.79	362.78
560.96	454.06
561.12	369.80
561.29	444.70
561.45	407.25
561.61	510.24
561.78	477.47
561.94	367.46
562.11	435.34
562.27	367.46
562.44	421.30
562.60	346.40
562.77	355.76
562.93	449.38
563.10	414.27
563.26	355.76
563.42	418.96
563.59	498.53
563.75	395.55
563.92	458.74
564.08	498.53
564.24	442.36
564.41	447.04
564.57	409.59
564.74	386.19
564.90	428.32
565.07	435.34
565.23	428.32
565.39	437.68
565.56	425.98
565.72	416.62
565.88	374.49
566.05	458.74
566.21	444.70
566.38	416.62
566.54	421.30
566.70	374.49
566.87	395.55
567.03	388.53
567.19	341.72
567.36	437.68
567.52	447.04
567.68	449.38
567.85	409.59
568.01	404.91
568.17	388.53
568.34	444.70
568.50	433.00
568.66	397.89
568.83	482.15
568.99	505.56
569.15	444.70
569.32	444.70
569.48	463.43
569.64	407.25
569.81	402.57
569.97	409.59
570.13	407.25
570.30	433.00
570.46	425.98
570.62	437.68
570.78	451.72
570.95	447.04
571.11	475.13
571.27	475.13
571.43	461.09
571.60	451.72
571.76	404.91
571.92	428.32
572.09	449.38
572.25	437.68
572.41	409.59
572.57	379.17
572.74	468.11
572.90	353.42
573.06	397.89
573.22	484.49
573.38	379.17
573.55	465.77
573.71	524.28
573.87	472.79
574.03	435.34
574.20	454.06
574.36	514.92
574.52	437.68
574.68	379.17
574.84	383.85
575.01	435.34
575.17	484.49
575.33	379.17
575.49	489.17
575.65	505.56
575.82	369.80
575.98	440.02
576.14	433.00
576.30	428.32
576.46	388.53
576.62	344.06
576.79	393.21
576.95	440.02
577.11	428.32
577.27	404.91
577.43	369.80
577.59	388.53
577.75	409.59
577.92	433.00
578.08	447.04
578.24	423.64
578.40	425.98
578.56	414.27
578.72	470.45
578.88	479.81
579.04	451.72
579.21	437.68
579.37	425.98
579.53	393.21
579.69	411.93
579.85	425.98
580.01	449.38
580.17	386.19
580.33	411.93
580.49	423.64
580.65	440.02
580.82	430.66
580.98	397.89
581.14	393.21
581.30	421.30
581.46	416.62
581.62	374.49
581.78	482.15
581.94	463.43
582.10	400.23
582.26	440.02
582.42	447.04
582.58	461.09
582.74	425.98
582.90	381.51
583.06	402.57
583.22	411.93
583.38	393.21
583.54	344.06
583.70	404.91
583.86	395.55
584.02	409.59
584.18	414.27
584.34	444.70
584.50	447.04
584.66	472.79
584.82	344.06
584.98	402.57
585.14	430.66
585.30	468.11
585.46	416.62
585.62	369.80
585.78	372.15
585.94	365.12
586.10	346.40
586.26	472.79
586.42	341.72
586.58	456.40
586.74	444.70
586.90	442.36
587.06	461.09
587.22	442.36
587.38	404.91
587.54	400.23
587.70	461.09
587.86	414.27
588.02	414.27
588.18	369.80
588.34	472.79
588.49	381.51
588.65	423.64
588.81	430.66
588.97	444.70
589.13	414.27
589.29	376.83
589.45	390.87
589.61	362.78
589.77	411.93
589.93	479.81
590.08	449.38
590.24	458.74
590.40	428.32
590.56	416.62
590.72	388.53
590.88	381.51
591.04	416.62
591.20	454.06
591.35	437.68
591.51	388.53
591.67	390.87
591.83	400.23
591.99	395.55
592.15	472.79
592.31	386.19
592.46	468.11
592.62	433.00
592.78	381.51
592.94	414.27
593.10	428.32
593.26	351.08
593.41	381.51
593.57	390.87
593.73	390.87
593.89	461.09
594.05	390.87
594.20	411.93
594.36	484.49
594.52	482.15
594.68	442.36
594.84	442.36
594.99	505.56
595.15	421.30
595.31	449.38
595.47	397.89
595.62	425.98
595.78	447.04
595.94	418.96
596.10	465.77
596.25	360.44
596.41	449.38
596.57	393.21
596.73	369.80
596.88	411.93
597.04	411.93
597.20	383.85
597.36	444.70
597.51	404.91
597.67	442.36
597.83	451.72
597.99	430.66
598.14	409.59
598.30	486.83
598.46	390.87
598.61	472.79
598.77	404.91
598.93	423.64
599.09	416.62
599.24	435.34
599.40	374.49
599.56	454.06
599.71	425.98
599.87	451.72
600.03	486.83
600.18	376.83
600.34	433.00
600.50	433.00
600.65	442.36
600.81	468.11
600.97	397.89
601.12	437.68
601.28	449.38
601.44	465.77
601.59	388.53
601.75	428.32
601.91	409.59
602.06	486.83
602.22	498.53
602.37	400.23
602.53	404.91
602.69	461.09
602.84	416.62
603.00	430.66
603.16	442.36
603.31	484.49
603.47	379.17
603.62	447.04
603.78	416.62
603.94	428.32
604.09	414.27
604.25	486.83
604.40	433.00
604.56	421.30
604.71	425.98
604.87	388.53
605.03	428.32
605.18	414.27
605.34	454.06
605.49	447.04
605.65	440.02
605.80	430.66
605.96	402.57
606.12	435.34
606.27	437.68
606.43	381.51
606.58	463.43
606.74	430.66
606.89	519.60
607.05	402.57
607.20	379.17
607.36	369.80
607.51	428.32
607.67	421.30
607.82	489.17
607.98	433.00
608.13	376.83
608.29	428.32
608.44	411.93
608.60	461.09
608.75	475.13
608.91	437.68
609.06	491.51
609.22	395.55
609.37	414.27
609.53	475.13
609.68	435.34
609.84	418.96
609.99	440.02
610.15	435.34
