SpectraSuite Data File
++++++++++++++++++++++++++++++++++++
Date: Fri Oct 25 12:11:33 EDT 2013
User: price-jones
Dark Spectrum Present: No
Reference Spectrum Present: No
Number of Sampled Component Spectra: 1
Spectrometers: USB2+H05261
Integration Time (usec): 100000 (USB2+H05261)
Spectra Averaged: 1 (USB2+H05261)
Boxcar Smoothing: 0 (USB2+H05261)
Correct for Electrical Dark: No (USB2+H05261)
Strobe/Lamp Enabled: No (USB2+H05261)
Correct for Detector Non-linearity: No (USB2+H05261)
Correct for Stray Light: No (USB2+H05261)
Number of Pixels in Processed Spectrum: 2048
>>>>>Begin Processed Spectral Data<<<<<
365.73	337.04
365.92	337.04
366.12	337.04
366.32	280.86
366.52	266.82
366.72	234.05
366.91	262.14
367.11	227.03
367.31	255.12
367.51	241.08
367.70	299.59
367.90	308.95
368.10	269.16
368.30	238.73
368.49	217.67
368.69	320.65
368.89	283.20
369.09	266.82
369.28	365.12
369.48	287.89
369.68	285.55
369.87	297.25
370.07	327.68
370.27	255.12
370.47	339.38
370.66	353.42
370.86	259.80
371.06	315.97
371.25	346.40
371.45	341.72
371.65	353.42
371.84	313.63
372.04	383.85
372.24	327.68
372.44	425.98
372.63	430.66
372.83	388.53
373.03	383.85
373.22	411.93
373.42	393.21
373.62	437.68
373.81	440.02
374.01	456.40
374.21	411.93
374.40	465.77
374.60	332.36
374.79	395.55
374.99	407.25
375.19	369.80
375.38	430.66
375.58	449.38
375.78	444.70
375.97	418.96
376.17	358.10
376.37	442.36
376.56	400.23
376.76	376.83
376.95	367.46
377.15	435.34
377.35	470.45
377.54	390.87
377.74	411.93
377.93	411.93
378.13	414.27
378.33	421.30
378.52	414.27
378.72	442.36
378.91	390.87
379.11	463.43
379.31	447.04
379.50	381.51
379.70	472.79
379.89	351.08
380.09	395.55
380.28	400.23
380.48	414.27
380.68	407.25
380.87	440.02
381.07	351.08
381.26	414.27
381.46	418.96
381.65	414.27
381.85	379.17
382.04	402.57
382.24	402.57
382.43	330.02
382.63	379.17
382.83	414.27
383.02	414.27
383.22	390.87
383.41	365.12
383.61	379.17
383.80	456.40
384.00	381.51
384.19	433.00
384.39	442.36
384.58	369.80
384.78	367.46
384.97	393.21
385.17	470.45
385.36	388.53
385.56	390.87
385.75	374.49
385.95	341.72
386.14	397.89
386.34	433.00
386.53	428.32
386.72	409.59
386.92	463.43
387.11	400.23
387.31	433.00
387.50	425.98
387.70	369.80
387.89	393.21
388.09	421.30
388.28	458.74
388.48	358.10
388.67	409.59
388.86	444.70
389.06	376.83
389.25	414.27
389.45	379.17
389.64	346.40
389.84	367.46
390.03	400.23
390.22	475.13
390.42	414.27
390.61	421.30
390.81	470.45
391.00	374.49
391.19	442.36
391.39	376.83
391.58	414.27
391.78	393.21
391.97	376.83
392.16	376.83
392.36	482.15
392.55	472.79
392.75	421.30
392.94	355.76
393.13	435.34
393.33	458.74
393.52	390.87
393.71	411.93
393.91	407.25
394.10	393.21
394.29	358.10
394.49	397.89
394.68	430.66
394.88	381.51
395.07	454.06
395.26	423.64
395.46	393.21
395.65	468.11
395.84	400.23
396.04	486.83
396.23	414.27
396.42	449.38
396.62	379.17
396.81	369.80
397.00	468.11
397.19	447.04
397.39	447.04
397.58	437.68
397.77	390.87
397.97	388.53
398.16	435.34
398.35	468.11
398.55	346.40
398.74	397.89
398.93	428.32
399.12	451.72
399.32	451.72
399.51	407.25
399.70	395.55
399.90	379.17
400.09	386.19
400.28	421.30
400.47	458.74
400.67	407.25
400.86	458.74
401.05	402.57
401.24	449.38
401.44	437.68
401.63	397.89
401.82	428.32
402.01	379.17
402.21	383.85
402.40	428.32
402.59	444.70
402.78	351.08
402.97	386.19
403.17	409.59
403.36	402.57
403.55	362.78
403.74	299.59
403.93	430.66
404.13	447.04
404.32	353.42
404.51	461.09
404.70	348.74
404.89	416.62
405.09	416.62
405.28	418.96
405.47	433.00
405.66	372.15
405.85	381.51
406.05	454.06
406.24	402.57
406.43	465.77
406.62	421.30
406.81	475.13
407.00	465.77
407.20	395.55
407.39	449.38
407.58	407.25
407.77	423.64
407.96	475.13
408.15	470.45
408.34	395.55
408.54	337.04
408.73	425.98
408.92	451.72
409.11	409.59
409.30	407.25
409.49	407.25
409.68	376.83
409.87	393.21
410.07	381.51
410.26	404.91
410.45	421.30
410.64	421.30
410.83	393.21
411.02	353.42
411.21	430.66
411.40	411.93
411.59	433.00
411.78	433.00
411.98	425.98
412.17	376.83
412.36	430.66
412.55	386.19
412.74	421.30
412.93	353.42
413.12	440.02
413.31	397.89
413.50	440.02
413.69	454.06
413.88	425.98
414.07	493.85
414.26	456.40
414.45	376.83
414.64	440.02
414.83	465.77
415.02	411.93
415.22	507.90
415.41	435.34
415.60	395.55
415.79	465.77
415.98	428.32
416.17	421.30
416.36	409.59
416.55	367.46
416.74	484.49
416.93	423.64
417.12	369.80
417.31	402.57
417.50	383.85
417.69	437.68
417.88	435.34
418.07	402.57
418.26	390.87
418.45	430.66
418.64	463.43
418.83	425.98
419.02	458.74
419.21	470.45
419.39	475.13
419.58	440.02
419.77	430.66
419.96	437.68
420.15	451.72
420.34	360.44
420.53	358.10
420.72	374.49
420.91	468.11
421.10	470.45
421.29	374.49
421.48	358.10
421.67	409.59
421.86	440.02
422.05	411.93
422.24	381.51
422.43	435.34
422.61	402.57
422.80	435.34
422.99	372.15
423.18	374.49
423.37	369.80
423.56	376.83
423.75	496.19
423.94	374.49
424.13	348.74
424.32	414.27
424.50	449.38
424.69	465.77
424.88	461.09
425.07	418.96
425.26	442.36
425.45	477.47
425.64	353.42
425.83	444.70
426.01	465.77
426.20	470.45
426.39	379.17
426.58	409.59
426.77	456.40
426.96	402.57
427.15	430.66
427.33	468.11
427.52	416.62
427.71	376.83
427.90	440.02
428.09	416.62
428.28	463.43
428.46	409.59
428.65	390.87
428.84	428.32
429.03	393.21
429.22	433.00
429.40	407.25
429.59	379.17
429.78	430.66
429.97	440.02
430.16	489.17
430.34	372.15
430.53	397.89
430.72	475.13
430.91	433.00
431.10	395.55
431.28	374.49
431.47	341.72
431.66	475.13
431.85	379.17
432.03	416.62
432.22	475.13
432.41	414.27
432.60	390.87
432.79	372.15
432.97	402.57
433.16	449.38
433.35	461.09
433.54	395.55
433.72	411.93
433.91	514.92
434.10	430.66
434.28	383.85
434.47	318.31
434.66	418.96
434.85	416.62
435.03	437.68
435.22	400.23
435.41	468.11
435.59	447.04
435.78	353.42
435.97	383.85
436.16	409.59
436.34	374.49
436.53	381.51
436.72	440.02
436.90	433.00
437.09	421.30
437.28	433.00
437.46	402.57
437.65	433.00
437.84	442.36
438.02	461.09
438.21	458.74
438.40	355.76
438.58	416.62
438.77	332.36
438.96	351.08
439.14	388.53
439.33	454.06
439.52	365.12
439.70	435.34
439.89	428.32
440.08	444.70
440.26	355.76
440.45	404.91
440.63	433.00
440.82	416.62
441.01	493.85
441.19	374.49
441.38	430.66
441.57	362.78
441.75	437.68
441.94	390.87
442.12	409.59
442.31	402.57
442.50	416.62
442.68	383.85
442.87	388.53
443.05	416.62
443.24	468.11
443.43	491.51
443.61	400.23
443.80	444.70
443.98	414.27
444.17	395.55
444.35	440.02
444.54	362.78
444.73	442.36
444.91	435.34
445.10	393.21
445.28	395.55
445.47	463.43
445.65	418.96
445.84	411.93
446.02	475.13
446.21	411.93
446.39	409.59
446.58	465.77
446.77	433.00
446.95	381.51
447.14	425.98
447.32	344.06
447.51	404.91
447.69	351.08
447.88	428.32
448.06	475.13
448.25	369.80
448.43	454.06
448.62	400.23
448.80	430.66
448.99	430.66
449.17	397.89
449.36	437.68
449.54	409.59
449.73	444.70
449.91	475.13
450.10	325.33
450.28	435.34
450.46	454.06
450.65	465.77
450.83	423.64
451.02	444.70
451.20	400.23
451.39	465.77
451.57	304.27
451.76	379.17
451.94	402.57
452.13	404.91
452.31	393.21
452.49	458.74
452.68	447.04
452.86	496.19
453.05	451.72
453.23	451.72
453.42	397.89
453.60	447.04
453.78	372.15
453.97	430.66
454.15	409.59
454.34	482.15
454.52	365.12
454.70	404.91
454.89	397.89
455.07	400.23
455.26	416.62
455.44	461.09
455.62	416.62
455.81	409.59
455.99	437.68
456.17	449.38
456.36	351.08
456.54	414.27
456.73	348.74
456.91	418.96
457.09	388.53
457.28	400.23
457.46	386.19
457.64	409.59
457.83	400.23
458.01	381.51
458.19	393.21
458.38	414.27
458.56	395.55
458.74	393.21
458.93	383.85
459.11	395.55
459.29	411.93
459.48	479.81
459.66	430.66
459.84	433.00
460.03	449.38
460.21	414.27
460.39	351.08
460.57	360.44
460.76	416.62
460.94	425.98
461.12	423.64
461.31	507.90
461.49	376.83
461.67	390.87
461.85	416.62
462.04	362.78
462.22	732.59
462.40	435.34
462.59	463.43
462.77	404.91
462.95	367.46
463.13	416.62
463.32	346.40
463.50	393.21
463.68	451.72
463.86	430.66
464.05	428.32
464.23	444.70
464.41	433.00
464.59	388.53
464.78	400.23
464.96	355.76
465.14	430.66
465.32	374.49
465.50	454.06
465.69	404.91
465.87	407.25
466.05	435.34
466.23	327.68
466.41	355.76
466.60	402.57
466.78	428.32
466.96	442.36
467.14	374.49
467.32	442.36
467.51	433.00
467.69	381.51
467.87	451.72
468.05	421.30
468.23	447.04
468.41	414.27
468.60	425.98
468.78	425.98
468.96	428.32
469.14	451.72
469.32	454.06
469.50	365.12
469.69	404.91
469.87	411.93
470.05	332.36
470.23	386.19
470.41	430.66
470.59	435.34
470.77	468.11
470.95	386.19
471.14	461.09
471.32	402.57
471.50	463.43
471.68	400.23
471.86	428.32
472.04	355.76
472.22	393.21
472.40	437.68
472.58	379.17
472.77	372.15
472.95	444.70
473.13	437.68
473.31	416.62
473.49	386.19
473.67	400.23
473.85	440.02
474.03	433.00
474.21	404.91
474.39	402.57
474.57	447.04
474.75	388.53
474.93	355.76
475.12	416.62
475.30	425.98
475.48	421.30
475.66	421.30
475.84	442.36
476.02	393.21
476.20	489.17
476.38	395.55
476.56	442.36
476.74	369.80
476.92	294.91
477.10	425.98
477.28	442.36
477.46	411.93
477.64	440.02
477.82	425.98
478.00	355.76
478.18	430.66
478.36	390.87
478.54	327.68
478.72	440.02
478.90	428.32
479.08	472.79
479.26	444.70
479.44	423.64
479.62	388.53
479.80	407.25
479.98	458.74
480.16	425.98
480.34	461.09
480.52	440.02
480.70	470.45
480.88	365.12
481.06	416.62
481.24	468.11
481.41	407.25
481.59	451.72
481.77	444.70
481.95	416.62
482.13	447.04
482.31	404.91
482.49	383.85
482.67	454.06
482.85	479.81
483.03	475.13
483.21	367.46
483.39	407.25
483.57	430.66
483.74	369.80
483.92	400.23
484.10	379.17
484.28	477.47
484.46	411.93
484.64	400.23
484.82	425.98
485.00	449.38
485.18	365.12
485.35	430.66
485.53	381.51
485.71	482.15
485.89	404.91
486.07	351.08
486.25	463.43
486.43	435.34
486.61	472.79
486.78	491.51
486.96	400.23
487.14	421.30
487.32	402.57
487.50	355.76
487.68	388.53
487.85	393.21
488.03	430.66
488.21	369.80
488.39	369.80
488.57	409.59
488.75	421.30
488.92	437.68
489.10	381.51
489.28	475.13
489.46	402.57
489.64	369.80
489.81	407.25
489.99	430.66
490.17	435.34
490.35	416.62
490.53	388.53
490.70	365.12
490.88	472.79
491.06	383.85
491.24	447.04
491.41	416.62
491.59	355.76
491.77	372.15
491.95	404.91
492.13	435.34
492.30	393.21
492.48	416.62
492.66	463.43
492.84	330.02
493.01	451.72
493.19	433.00
493.37	444.70
493.54	376.83
493.72	475.13
493.90	367.46
494.08	411.93
494.25	374.49
494.43	388.53
494.61	372.15
494.79	372.15
494.96	461.09
495.14	367.46
495.32	414.27
495.49	409.59
495.67	362.78
495.85	449.38
496.02	411.93
496.20	430.66
496.38	418.96
496.55	444.70
496.73	486.83
496.91	486.83
497.09	447.04
497.26	489.17
497.44	414.27
497.62	418.96
497.79	344.06
497.97	409.59
498.14	409.59
498.32	423.64
498.50	395.55
498.67	360.44
498.85	416.62
499.03	393.21
499.20	360.44
499.38	397.89
499.56	393.21
499.73	442.36
499.91	468.11
500.08	360.44
500.26	433.00
500.44	339.38
500.61	390.87
500.79	418.96
500.97	421.30
501.14	407.25
501.32	386.19
501.49	442.36
501.67	414.27
501.84	444.70
502.02	425.98
502.20	433.00
502.37	442.36
502.55	416.62
502.72	416.62
502.90	365.12
503.07	414.27
503.25	447.04
503.43	395.55
503.60	320.65
503.78	367.46
503.95	308.95
504.13	348.74
504.30	428.32
504.48	486.83
504.65	491.51
504.83	414.27
505.01	404.91
505.18	409.59
505.36	360.44
505.53	428.32
505.71	376.83
505.88	397.89
506.06	390.87
506.23	376.83
506.41	451.72
506.58	493.85
506.76	381.51
506.93	411.93
507.11	322.99
507.28	344.06
507.46	374.49
507.63	404.91
507.81	498.53
507.98	451.72
508.16	365.12
508.33	440.02
508.50	444.70
508.68	339.38
508.85	383.85
509.03	411.93
509.20	416.62
509.38	433.00
509.55	458.74
509.73	404.91
509.90	414.27
510.08	440.02
510.25	414.27
510.42	395.55
510.60	374.49
510.77	416.62
510.95	425.98
511.12	414.27
511.30	433.00
511.47	447.04
511.64	416.62
511.82	411.93
511.99	407.25
512.17	374.49
512.34	360.44
512.51	442.36
512.69	374.49
512.86	447.04
513.04	463.43
513.21	395.55
513.38	400.23
513.56	383.85
513.73	444.70
513.90	388.53
514.08	325.33
514.25	372.15
514.43	362.78
514.60	407.25
514.77	421.30
514.95	458.74
515.12	465.77
515.29	411.93
515.47	444.70
515.64	393.21
515.81	437.68
515.99	400.23
516.16	458.74
516.33	402.57
516.51	372.15
516.68	444.70
516.85	423.64
517.03	458.74
517.20	425.98
517.37	433.00
517.54	461.09
517.72	348.74
517.89	344.06
518.06	407.25
518.24	458.74
518.41	376.83
518.58	437.68
518.75	402.57
518.93	414.27
519.10	400.23
519.27	440.02
519.45	451.72
519.62	360.44
519.79	407.25
519.96	395.55
520.14	397.89
520.31	444.70
520.48	472.79
520.65	395.55
520.83	421.30
521.00	435.34
521.17	425.98
521.34	409.59
521.52	423.64
521.69	475.13
521.86	414.27
522.03	397.89
522.20	414.27
522.38	433.00
522.55	456.40
522.72	360.44
522.89	512.58
523.07	491.51
523.24	437.68
523.41	442.36
523.58	416.62
523.75	461.09
523.92	418.96
524.10	423.64
524.27	376.83
524.44	393.21
524.61	489.17
524.78	388.53
524.96	423.64
525.13	437.68
525.30	402.57
525.47	416.62
525.64	423.64
525.81	402.57
525.98	421.30
526.16	414.27
526.33	423.64
526.50	327.68
526.67	325.33
526.84	376.83
527.01	322.99
527.18	393.21
527.36	461.09
527.53	409.59
527.70	491.51
527.87	461.09
528.04	440.02
528.21	409.59
528.38	477.47
528.55	421.30
528.72	454.06
528.89	421.30
529.07	416.62
529.24	421.30
529.41	440.02
529.58	477.47
529.75	404.91
529.92	362.78
530.09	482.15
530.26	465.77
530.43	444.70
530.60	348.74
530.77	435.34
530.94	383.85
531.11	414.27
531.28	468.11
531.46	407.25
531.63	379.17
531.80	440.02
531.97	390.87
532.14	383.85
532.31	381.51
532.48	425.98
532.65	414.27
532.82	318.31
532.99	346.40
533.16	397.89
533.33	444.70
533.50	409.59
533.67	365.12
533.84	442.36
534.01	451.72
534.18	411.93
534.35	425.98
534.52	341.72
534.69	416.62
534.86	414.27
535.03	463.43
535.20	423.64
535.37	383.85
535.54	428.32
535.71	411.93
535.88	465.77
536.05	444.70
536.22	390.87
536.38	390.87
536.55	400.23
536.72	444.70
536.89	313.63
537.06	411.93
537.23	369.80
537.40	393.21
537.57	372.15
537.74	475.13
537.91	404.91
538.08	423.64
538.25	440.02
538.42	409.59
538.59	444.70
538.75	358.10
538.92	346.40
539.09	444.70
539.26	477.47
539.43	376.83
539.60	482.15
539.77	423.64
539.94	416.62
540.11	423.64
540.28	465.77
540.44	435.34
540.61	470.45
540.78	425.98
540.95	390.87
541.12	433.00
541.29	404.91
541.46	442.36
541.62	437.68
541.79	402.57
541.96	306.61
542.13	418.96
542.30	414.27
542.47	374.49
542.63	369.80
542.80	437.68
542.97	503.22
543.14	407.25
543.31	430.66
543.48	418.96
543.64	369.80
543.81	430.66
543.98	479.81
544.15	395.55
544.32	407.25
544.48	369.80
544.65	369.80
544.82	409.59
544.99	423.64
545.16	437.68
545.32	404.91
545.49	491.51
545.66	362.78
545.83	416.62
546.00	409.59
546.16	374.49
546.33	461.09
546.50	383.85
546.67	447.04
546.83	444.70
547.00	433.00
547.17	444.70
547.34	376.83
547.50	423.64
547.67	358.10
547.84	400.23
548.00	397.89
548.17	369.80
548.34	456.40
548.51	416.62
548.67	348.74
548.84	407.25
549.01	423.64
549.18	447.04
549.34	425.98
549.51	395.55
549.68	458.74
549.84	447.04
550.01	383.85
550.18	433.00
550.34	479.81
550.51	416.62
550.68	458.74
550.84	346.40
551.01	411.93
551.18	468.11
551.34	449.38
551.51	374.49
551.68	447.04
551.84	404.91
552.01	334.70
552.18	397.89
552.34	414.27
552.51	423.64
552.68	393.21
552.84	435.34
553.01	440.02
553.18	409.59
553.34	449.38
553.51	379.17
553.67	360.44
553.84	510.24
554.01	477.47
554.17	493.85
554.34	433.00
554.51	414.27
554.67	421.30
554.84	479.81
555.00	479.81
555.17	493.85
555.33	512.58
555.50	449.38
555.67	397.89
555.83	425.98
556.00	479.81
556.16	524.28
556.33	468.11
556.50	411.93
556.66	397.89
556.83	440.02
556.99	400.23
557.16	454.06
557.32	372.15
557.49	437.68
557.65	479.81
557.82	435.34
557.98	416.62
558.15	437.68
558.32	440.02
558.48	400.23
558.65	430.66
558.81	374.49
558.98	440.02
559.14	456.40
559.31	447.04
559.47	383.85
559.64	372.15
559.80	440.02
559.97	472.79
560.13	456.40
560.30	433.00
560.46	421.30
560.63	416.62
560.79	442.36
560.96	472.79
561.12	430.66
561.29	404.91
561.45	435.34
561.61	451.72
561.78	435.34
561.94	409.59
562.11	423.64
562.27	411.93
562.44	393.21
562.60	386.19
562.77	428.32
562.93	440.02
563.10	407.25
563.26	425.98
563.42	437.68
563.59	416.62
563.75	397.89
563.92	449.38
564.08	451.72
564.24	461.09
564.41	365.12
564.57	423.64
564.74	442.36
564.90	428.32
565.07	449.38
565.23	414.27
565.39	411.93
565.56	491.51
565.72	433.00
565.88	418.96
566.05	449.38
566.21	374.49
566.38	362.78
566.54	430.66
566.70	449.38
566.87	355.76
567.03	390.87
567.19	407.25
567.36	393.21
567.52	369.80
567.68	423.64
567.85	414.27
568.01	444.70
568.17	351.08
568.34	313.63
568.50	472.79
568.66	332.36
568.83	519.60
568.99	367.46
569.15	402.57
569.32	461.09
569.48	397.89
569.64	372.15
569.81	386.19
569.97	433.00
570.13	402.57
570.30	428.32
570.46	507.90
570.62	451.72
570.78	407.25
570.95	421.30
571.11	463.43
571.27	395.55
571.43	451.72
571.60	418.96
571.76	390.87
571.92	491.51
572.09	353.42
572.25	449.38
572.41	423.64
572.57	421.30
572.74	470.45
572.90	313.63
573.06	449.38
573.22	475.13
573.38	381.51
573.55	428.32
573.71	463.43
573.87	390.87
574.03	397.89
574.20	442.36
574.36	444.70
574.52	383.85
574.68	411.93
574.84	428.32
575.01	444.70
575.17	379.17
575.33	397.89
575.49	428.32
575.65	421.30
575.82	414.27
575.98	451.72
576.14	437.68
576.30	379.17
576.46	442.36
576.62	442.36
576.79	442.36
576.95	421.30
577.11	400.23
577.27	334.70
577.43	477.47
577.59	465.77
577.75	421.30
577.92	477.47
578.08	414.27
578.24	418.96
578.40	418.96
578.56	465.77
578.72	496.19
578.88	416.62
579.04	327.68
579.21	416.62
579.37	465.77
579.53	447.04
579.69	393.21
579.85	388.53
580.01	477.47
580.17	404.91
580.33	437.68
580.49	386.19
580.65	463.43
580.82	362.78
580.98	416.62
581.14	379.17
581.30	395.55
581.46	379.17
581.62	503.22
581.78	456.40
581.94	362.78
582.10	468.11
582.26	397.89
582.42	400.23
582.58	407.25
582.74	418.96
582.90	390.87
583.06	465.77
583.22	407.25
583.38	365.12
583.54	388.53
583.70	470.45
583.86	444.70
584.02	355.76
584.18	395.55
584.34	407.25
584.50	327.68
584.66	409.59
584.82	372.15
584.98	397.89
585.14	381.51
585.30	444.70
585.46	386.19
585.62	437.68
585.78	425.98
585.94	428.32
586.10	379.17
586.26	435.34
586.42	468.11
586.58	421.30
586.74	383.85
586.90	393.21
587.06	421.30
587.22	393.21
587.38	454.06
587.54	390.87
587.70	383.85
587.86	404.91
588.02	454.06
588.18	379.17
588.34	458.74
588.49	306.61
588.65	468.11
588.81	423.64
588.97	320.65
589.13	369.80
589.29	456.40
589.45	358.10
589.61	411.93
589.77	383.85
589.93	372.15
590.08	388.53
590.24	334.70
590.40	404.91
590.56	444.70
590.72	334.70
590.88	367.46
591.04	369.80
591.20	447.04
591.35	470.45
591.51	393.21
591.67	397.89
591.83	479.81
591.99	435.34
592.15	409.59
592.31	372.15
592.46	334.70
592.62	442.36
592.78	376.83
592.94	400.23
593.10	388.53
593.26	404.91
593.41	435.34
593.57	409.59
593.73	407.25
593.89	456.40
594.05	369.80
594.20	337.04
594.36	472.79
594.52	386.19
594.68	407.25
594.84	442.36
594.99	456.40
595.15	458.74
595.31	414.27
595.47	465.77
595.62	430.66
595.78	465.77
595.94	409.59
596.10	458.74
596.25	395.55
596.41	428.32
596.57	425.98
596.73	374.49
596.88	355.76
597.04	395.55
597.20	470.45
597.36	379.17
597.51	465.77
597.67	337.04
597.83	416.62
597.99	402.57
598.14	393.21
598.30	402.57
598.46	379.17
598.61	402.57
598.77	451.72
598.93	418.96
599.09	461.09
599.24	442.36
599.40	463.43
599.56	440.02
599.71	444.70
599.87	383.85
600.03	430.66
600.18	355.76
600.34	468.11
600.50	390.87
600.65	379.17
600.81	486.83
600.97	355.76
601.12	365.12
601.28	430.66
601.44	463.43
601.59	456.40
601.75	447.04
601.91	425.98
602.06	409.59
602.22	498.53
602.37	486.83
602.53	421.30
602.69	379.17
602.84	360.44
603.00	454.06
603.16	451.72
603.31	367.46
603.47	395.55
603.62	388.53
603.78	465.77
603.94	454.06
604.09	435.34
604.25	472.79
604.40	421.30
604.56	423.64
604.71	440.02
604.87	482.15
605.03	437.68
605.18	379.17
605.34	416.62
605.49	435.34
605.65	428.32
605.80	374.49
605.96	435.34
606.12	430.66
606.27	451.72
606.43	383.85
606.58	390.87
606.74	435.34
606.89	407.25
607.05	503.22
607.20	416.62
607.36	440.02
607.51	358.10
607.67	411.93
607.82	468.11
607.98	362.78
608.13	540.66
608.29	346.40
608.44	414.27
608.60	367.46
608.75	496.19
608.91	397.89
609.06	505.56
609.22	395.55
609.37	409.59
609.53	484.49
609.68	400.23
609.84	383.85
609.99	379.17
610.15	423.64
