SpectraSuite Data File
++++++++++++++++++++++++++++++++++++
Date: Fri Oct 25 12:11:33 EDT 2013
User: price-jones
Dark Spectrum Present: No
Reference Spectrum Present: No
Number of Sampled Component Spectra: 1
Spectrometers: USB2+H05261
Integration Time (usec): 100000 (USB2+H05261)
Spectra Averaged: 1 (USB2+H05261)
Boxcar Smoothing: 0 (USB2+H05261)
Correct for Electrical Dark: No (USB2+H05261)
Strobe/Lamp Enabled: No (USB2+H05261)
Correct for Detector Non-linearity: No (USB2+H05261)
Correct for Stray Light: No (USB2+H05261)
Number of Pixels in Processed Spectrum: 2048
>>>>>Begin Processed Spectral Data<<<<<
365.73	276.18
365.92	276.18
366.12	276.18
366.32	285.55
366.52	283.20
366.72	262.14
366.91	201.29
367.11	191.92
367.31	262.14
367.51	203.63
367.70	215.33
367.90	241.08
368.10	196.60
368.30	250.44
368.49	252.78
368.69	264.48
368.89	280.86
369.09	315.97
369.28	262.14
369.48	259.80
369.68	245.76
369.87	283.20
370.07	325.33
370.27	360.44
370.47	301.93
370.66	287.89
370.86	379.17
371.06	346.40
371.25	388.53
371.45	372.15
371.65	397.89
371.84	404.91
372.04	381.51
372.24	428.32
372.44	360.44
372.63	421.30
372.83	339.38
373.03	414.27
373.22	409.59
373.42	369.80
373.62	374.49
373.81	402.57
374.01	447.04
374.21	449.38
374.40	383.85
374.60	440.02
374.79	484.49
374.99	433.00
375.19	444.70
375.38	437.68
375.58	411.93
375.78	507.90
375.97	416.62
376.17	461.09
376.37	411.93
376.56	451.72
376.76	315.97
376.95	374.49
377.15	416.62
377.35	428.32
377.54	386.19
377.74	367.46
377.93	425.98
378.13	454.06
378.33	430.66
378.52	435.34
378.72	409.59
378.91	365.12
379.11	379.17
379.31	393.21
379.50	390.87
379.70	393.21
379.89	402.57
380.09	411.93
380.28	435.34
380.48	428.32
380.68	414.27
380.87	320.65
381.07	365.12
381.26	411.93
381.46	400.23
381.65	404.91
381.85	451.72
382.04	411.93
382.24	528.96
382.43	395.55
382.63	456.40
382.83	395.55
383.02	463.43
383.22	383.85
383.41	348.74
383.61	376.83
383.80	521.94
384.00	423.64
384.19	416.62
384.39	402.57
384.58	421.30
384.78	414.27
384.97	395.55
385.17	374.49
385.36	341.72
385.56	444.70
385.75	306.61
385.95	409.59
386.14	383.85
386.34	414.27
386.53	367.46
386.72	463.43
386.92	458.74
387.11	393.21
387.31	414.27
387.50	372.15
387.70	318.31
387.89	416.62
388.09	397.89
388.28	409.59
388.48	365.12
388.67	402.57
388.86	374.49
389.06	470.45
389.25	449.38
389.45	400.23
389.64	440.02
389.84	397.89
390.03	341.72
390.22	430.66
390.42	346.40
390.61	416.62
390.81	456.40
391.00	440.02
391.19	493.85
391.39	379.17
391.58	442.36
391.78	402.57
391.97	330.02
392.16	407.25
392.36	402.57
392.55	423.64
392.75	407.25
392.94	346.40
393.13	393.21
393.33	407.25
393.52	390.87
393.71	440.02
393.91	458.74
394.10	465.77
394.29	372.15
394.49	393.21
394.68	351.08
394.88	411.93
395.07	353.42
395.26	362.78
395.46	400.23
395.65	425.98
395.84	430.66
396.04	409.59
396.23	447.04
396.42	456.40
396.62	423.64
396.81	421.30
397.00	451.72
397.19	393.21
397.39	475.13
397.58	449.38
397.77	423.64
397.97	395.55
398.16	374.49
398.35	425.98
398.55	409.59
398.74	376.83
398.93	376.83
399.12	315.97
399.32	440.02
399.51	407.25
399.70	388.53
399.90	376.83
400.09	449.38
400.28	376.83
400.47	386.19
400.67	538.32
400.86	456.40
401.05	444.70
401.24	451.72
401.44	447.04
401.63	465.77
401.82	409.59
402.01	369.80
402.21	407.25
402.40	308.95
402.59	500.87
402.78	416.62
402.97	475.13
403.17	447.04
403.36	414.27
403.55	411.93
403.74	402.57
403.93	404.91
404.13	444.70
404.32	416.62
404.51	444.70
404.70	454.06
404.89	386.19
405.09	440.02
405.28	418.96
405.47	444.70
405.66	463.43
405.85	458.74
406.05	407.25
406.24	416.62
406.43	414.27
406.62	376.83
406.81	472.79
407.00	451.72
407.20	388.53
407.39	428.32
407.58	402.57
407.77	372.15
407.96	414.27
408.15	444.70
408.34	468.11
408.54	383.85
408.73	423.64
408.92	386.19
409.11	421.30
409.30	435.34
409.49	449.38
409.68	425.98
409.87	440.02
410.07	421.30
410.26	428.32
410.45	411.93
410.64	374.49
410.83	379.17
411.02	433.00
411.21	411.93
411.40	433.00
411.59	411.93
411.78	435.34
411.98	402.57
412.17	409.59
412.36	468.11
412.55	404.91
412.74	383.85
412.93	461.09
413.12	376.83
413.31	409.59
413.50	416.62
413.69	463.43
413.88	458.74
414.07	430.66
414.26	409.59
414.45	425.98
414.64	411.93
414.83	409.59
415.02	463.43
415.22	425.98
415.41	463.43
415.60	369.80
415.79	381.51
415.98	447.04
416.17	411.93
416.36	397.89
416.55	390.87
416.74	386.19
416.93	435.34
417.12	433.00
417.31	402.57
417.50	411.93
417.69	475.13
417.88	423.64
418.07	379.17
418.26	411.93
418.45	442.36
418.64	411.93
418.83	425.98
419.02	484.49
419.21	411.93
419.39	386.19
419.58	402.57
419.77	416.62
419.96	411.93
420.15	428.32
420.34	404.91
420.53	395.55
420.72	512.58
420.91	379.17
421.10	388.53
421.29	428.32
421.48	472.79
421.67	437.68
421.86	433.00
422.05	407.25
422.24	442.36
422.43	374.49
422.61	379.17
422.80	353.42
422.99	435.34
423.18	435.34
423.37	472.79
423.56	402.57
423.75	411.93
423.94	407.25
424.13	461.09
424.32	433.00
424.50	308.95
424.69	418.96
424.88	437.68
425.07	381.51
425.26	397.89
425.45	404.91
425.64	386.19
425.83	435.34
426.01	397.89
426.20	472.79
426.39	376.83
426.58	468.11
426.77	402.57
426.96	465.77
427.15	449.38
427.33	442.36
427.52	325.33
427.71	435.34
427.90	407.25
428.09	390.87
428.28	493.85
428.46	458.74
428.65	425.98
428.84	444.70
429.03	454.06
429.22	407.25
429.40	404.91
429.59	416.62
429.78	414.27
429.97	383.85
430.16	397.89
430.34	440.02
430.53	388.53
430.72	461.09
430.91	383.85
431.10	402.57
431.28	365.12
431.47	395.55
431.66	397.89
431.85	402.57
432.03	444.70
432.22	402.57
432.41	409.59
432.60	486.83
432.79	416.62
432.97	437.68
433.16	332.36
433.35	390.87
433.54	407.25
433.72	433.00
433.91	393.21
434.10	458.74
434.28	400.23
434.47	374.49
434.66	369.80
434.85	369.80
435.03	388.53
435.22	489.17
435.41	337.04
435.59	379.17
435.78	400.23
435.97	369.80
436.16	388.53
436.34	407.25
436.53	458.74
436.72	486.83
436.90	440.02
437.09	393.21
437.28	458.74
437.46	421.30
437.65	425.98
437.84	470.45
438.02	393.21
438.21	393.21
438.40	379.17
438.58	433.00
438.77	425.98
438.96	444.70
439.14	397.89
439.33	449.38
439.52	463.43
439.70	372.15
439.89	402.57
440.08	503.22
440.26	430.66
440.45	428.32
440.63	376.83
440.82	414.27
441.01	433.00
441.19	416.62
441.38	383.85
441.57	414.27
441.75	477.47
441.94	409.59
442.12	440.02
442.31	362.78
442.50	425.98
442.68	386.19
442.87	442.36
443.05	456.40
443.24	458.74
443.43	397.89
443.61	418.96
443.80	416.62
443.98	447.04
444.17	390.87
444.35	425.98
444.54	477.47
444.73	404.91
444.91	540.66
445.10	367.46
445.28	360.44
445.47	430.66
445.65	442.36
445.84	458.74
446.02	423.64
446.21	397.89
446.39	411.93
446.58	461.09
446.77	421.30
446.95	388.53
447.14	390.87
447.32	397.89
447.51	383.85
447.69	418.96
447.88	379.17
448.06	411.93
448.25	400.23
448.43	400.23
448.62	351.08
448.80	423.64
448.99	437.68
449.17	414.27
449.36	458.74
449.54	414.27
449.73	411.93
449.91	390.87
450.10	404.91
450.28	430.66
450.46	479.81
450.65	433.00
450.83	407.25
451.02	374.49
451.20	418.96
451.39	435.34
451.57	461.09
451.76	386.19
451.94	440.02
452.13	409.59
452.31	449.38
452.49	430.66
452.68	416.62
452.86	425.98
453.05	451.72
453.23	353.42
453.42	465.77
453.60	447.04
453.78	444.70
453.97	320.65
454.15	433.00
454.34	374.49
454.52	414.27
454.70	465.77
454.89	402.57
455.07	360.44
455.26	402.57
455.44	416.62
455.62	383.85
455.81	425.98
455.99	437.68
456.17	379.17
456.36	449.38
456.54	430.66
456.73	353.42
456.91	360.44
457.09	470.45
457.28	414.27
457.46	362.78
457.64	447.04
457.83	416.62
458.01	404.91
458.19	477.47
458.38	479.81
458.56	411.93
458.74	458.74
458.93	444.70
459.11	440.02
459.29	376.83
459.48	416.62
459.66	507.90
459.84	451.72
460.03	500.87
460.21	447.04
460.39	397.89
460.57	397.89
460.76	425.98
460.94	437.68
461.12	435.34
461.31	409.59
461.49	397.89
461.67	395.55
461.85	442.36
462.04	397.89
462.22	779.40
462.40	444.70
462.59	423.64
462.77	388.53
462.95	472.79
463.13	423.64
463.32	332.36
463.50	404.91
463.68	374.49
463.86	449.38
464.05	425.98
464.23	395.55
464.41	456.40
464.59	435.34
464.78	407.25
464.96	433.00
465.14	416.62
465.32	360.44
465.50	435.34
465.69	421.30
465.87	430.66
466.05	411.93
466.23	353.42
466.41	369.80
466.60	379.17
466.78	388.53
466.96	465.77
467.14	381.51
467.32	390.87
467.51	388.53
467.69	400.23
467.87	510.24
468.05	514.92
468.23	442.36
468.41	437.68
468.60	397.89
468.78	484.49
468.96	465.77
469.14	404.91
469.32	386.19
469.50	395.55
469.69	444.70
469.87	468.11
470.05	440.02
470.23	416.62
470.41	395.55
470.59	334.70
470.77	411.93
470.95	423.64
471.14	437.68
471.32	489.17
471.50	479.81
471.68	416.62
471.86	381.51
472.04	416.62
472.22	404.91
472.40	353.42
472.58	409.59
472.77	397.89
472.95	325.33
473.13	456.40
473.31	435.34
473.49	440.02
473.67	372.15
473.85	418.96
474.03	414.27
474.21	416.62
474.39	416.62
474.57	447.04
474.75	433.00
474.93	414.27
475.12	456.40
475.30	447.04
475.48	454.06
475.66	383.85
475.84	402.57
476.02	355.76
476.20	397.89
476.38	458.74
476.56	447.04
476.74	440.02
476.92	423.64
477.10	411.93
477.28	449.38
477.46	409.59
477.64	395.55
477.82	498.53
478.00	395.55
478.18	447.04
478.36	433.00
478.54	395.55
478.72	435.34
478.90	395.55
479.08	472.79
479.26	440.02
479.44	344.06
479.62	393.21
479.80	444.70
479.98	468.11
480.16	416.62
480.34	411.93
480.52	386.19
480.70	414.27
480.88	390.87
481.06	379.17
481.24	397.89
481.41	449.38
481.59	433.00
481.77	423.64
481.95	393.21
482.13	442.36
482.31	414.27
482.49	358.10
482.67	348.74
482.85	383.85
483.03	428.32
483.21	388.53
483.39	376.83
483.57	351.08
483.74	444.70
483.92	430.66
484.10	425.98
484.28	451.72
484.46	489.17
484.64	451.72
484.82	411.93
485.00	400.23
485.18	414.27
485.35	421.30
485.53	367.46
485.71	442.36
485.89	376.83
486.07	416.62
486.25	461.09
486.43	437.68
486.61	475.13
486.78	440.02
486.96	411.93
487.14	379.17
487.32	472.79
487.50	416.62
487.68	395.55
487.85	433.00
488.03	393.21
488.21	402.57
488.39	388.53
488.57	491.51
488.75	369.80
488.92	454.06
489.10	411.93
489.28	498.53
489.46	463.43
489.64	407.25
489.81	395.55
489.99	465.77
490.17	400.23
490.35	463.43
490.53	449.38
490.70	367.46
490.88	442.36
491.06	397.89
491.24	442.36
491.41	472.79
491.59	435.34
491.77	421.30
491.95	379.17
492.13	400.23
492.30	463.43
492.48	395.55
492.66	463.43
492.84	386.19
493.01	407.25
493.19	383.85
493.37	451.72
493.54	411.93
493.72	475.13
493.90	418.96
494.08	463.43
494.25	409.59
494.43	381.51
494.61	418.96
494.79	433.00
494.96	475.13
495.14	449.38
495.32	435.34
495.49	461.09
495.67	428.32
495.85	458.74
496.02	475.13
496.20	411.93
496.38	386.19
496.55	444.70
496.73	379.17
496.91	449.38
497.09	418.96
497.26	411.93
497.44	376.83
497.62	397.89
497.79	442.36
497.97	470.45
498.14	425.98
498.32	390.87
498.50	428.32
498.67	423.64
498.85	372.15
499.03	428.32
499.20	425.98
499.38	437.68
499.56	425.98
499.73	468.11
499.91	414.27
500.08	524.28
500.26	465.77
500.44	322.99
500.61	369.80
500.79	404.91
500.97	428.32
501.14	423.64
501.32	374.49
501.49	421.30
501.67	411.93
501.84	458.74
502.02	475.13
502.20	425.98
502.37	461.09
502.55	479.81
502.72	407.25
502.90	395.55
503.07	456.40
503.25	372.15
503.43	416.62
503.60	404.91
503.78	444.70
503.95	372.15
504.13	451.72
504.30	430.66
504.48	388.53
504.65	449.38
504.83	451.72
505.01	433.00
505.18	479.81
505.36	367.46
505.53	470.45
505.71	454.06
505.88	369.80
506.06	400.23
506.23	440.02
506.41	425.98
506.58	428.32
506.76	334.70
506.93	372.15
507.11	367.46
507.28	437.68
507.46	397.89
507.63	390.87
507.81	425.98
507.98	430.66
508.16	372.15
508.33	390.87
508.50	458.74
508.68	358.10
508.85	437.68
509.03	360.44
509.20	486.83
509.38	454.06
509.55	454.06
509.73	386.19
509.90	421.30
510.08	358.10
510.25	402.57
510.42	444.70
510.60	414.27
510.77	442.36
510.95	430.66
511.12	355.76
511.30	435.34
511.47	414.27
511.64	411.93
511.82	458.74
511.99	425.98
512.17	390.87
512.34	372.15
512.51	411.93
512.69	430.66
512.86	433.00
513.04	449.38
513.21	468.11
513.38	372.15
513.56	447.04
513.73	414.27
513.90	348.74
514.08	379.17
514.25	440.02
514.43	496.19
514.60	428.32
514.77	409.59
514.95	463.43
515.12	440.02
515.29	395.55
515.47	395.55
515.64	400.23
515.81	381.51
515.99	383.85
516.16	372.15
516.33	437.68
516.51	444.70
516.68	367.46
516.85	395.55
517.03	421.30
517.20	409.59
517.37	362.78
517.54	346.40
517.72	437.68
517.89	418.96
518.06	397.89
518.24	519.60
518.41	477.47
518.58	440.02
518.75	348.74
518.93	402.57
519.10	397.89
519.27	397.89
519.45	442.36
519.62	404.91
519.79	407.25
519.96	381.51
520.14	484.49
520.31	393.21
520.48	376.83
520.65	402.57
520.83	433.00
521.00	468.11
521.17	395.55
521.34	411.93
521.52	440.02
521.69	418.96
521.86	423.64
522.03	409.59
522.20	379.17
522.38	437.68
522.55	470.45
522.72	416.62
522.89	442.36
523.07	503.22
523.24	437.68
523.41	351.08
523.58	393.21
523.75	423.64
523.92	388.53
524.10	395.55
524.27	395.55
524.44	414.27
524.61	402.57
524.78	447.04
524.96	374.49
525.13	393.21
525.30	440.02
525.47	355.76
525.64	465.77
525.81	435.34
525.98	365.12
526.16	409.59
526.33	402.57
526.50	388.53
526.67	416.62
526.84	383.85
527.01	374.49
527.18	433.00
527.36	369.80
527.53	390.87
527.70	411.93
527.87	454.06
528.04	444.70
528.21	440.02
528.38	433.00
528.55	437.68
528.72	444.70
528.89	517.26
529.07	407.25
529.24	430.66
529.41	418.96
529.58	479.81
529.75	411.93
529.92	430.66
530.09	425.98
530.26	435.34
530.43	369.80
530.60	390.87
530.77	456.40
530.94	374.49
531.11	365.12
531.28	393.21
531.46	416.62
531.63	341.72
531.80	428.32
531.97	409.59
532.14	465.77
532.31	433.00
532.48	454.06
532.65	418.96
532.82	400.23
532.99	428.32
533.16	489.17
533.33	390.87
533.50	493.85
533.67	400.23
533.84	442.36
534.01	409.59
534.18	491.51
534.35	409.59
534.52	458.74
534.69	374.49
534.86	362.78
535.03	400.23
535.20	376.83
535.37	407.25
535.54	458.74
535.71	468.11
535.88	414.27
536.05	379.17
536.22	418.96
536.38	428.32
536.55	400.23
536.72	425.98
536.89	449.38
537.06	393.21
537.23	400.23
537.40	451.72
537.57	362.78
537.74	451.72
537.91	465.77
538.08	423.64
538.25	416.62
538.42	355.76
538.59	437.68
538.75	400.23
538.92	475.13
539.09	458.74
539.26	383.85
539.43	437.68
539.60	433.00
539.77	395.55
539.94	479.81
540.11	390.87
540.28	465.77
540.44	400.23
540.61	425.98
540.78	430.66
540.95	435.34
541.12	496.19
541.29	369.80
541.46	433.00
541.62	351.08
541.79	437.68
541.96	379.17
542.13	376.83
542.30	444.70
542.47	454.06
542.63	355.76
542.80	463.43
542.97	454.06
543.14	433.00
543.31	449.38
543.48	381.51
543.64	430.66
543.81	423.64
543.98	383.85
544.15	341.72
544.32	404.91
544.48	381.51
544.65	416.62
544.82	430.66
544.99	428.32
545.16	411.93
545.32	416.62
545.49	425.98
545.66	437.68
545.83	393.21
546.00	425.98
546.16	372.15
546.33	409.59
546.50	503.22
546.67	496.19
546.83	444.70
547.00	428.32
547.17	442.36
547.34	383.85
547.50	475.13
547.67	447.04
547.84	404.91
548.00	388.53
548.17	388.53
548.34	430.66
548.51	449.38
548.67	454.06
548.84	409.59
549.01	437.68
549.18	442.36
549.34	496.19
549.51	465.77
549.68	468.11
549.84	388.53
550.01	383.85
550.18	451.72
550.34	482.15
550.51	388.53
550.68	414.27
550.84	404.91
551.01	414.27
551.18	524.28
551.34	470.45
551.51	430.66
551.68	414.27
551.84	477.47
552.01	337.04
552.18	416.62
552.34	409.59
552.51	376.83
552.68	404.91
552.84	456.40
553.01	475.13
553.18	402.57
553.34	386.19
553.51	407.25
553.67	423.64
553.84	383.85
554.01	430.66
554.17	397.89
554.34	444.70
554.51	463.43
554.67	411.93
554.84	404.91
555.00	418.96
555.17	358.10
555.33	437.68
555.50	383.85
555.67	423.64
555.83	381.51
556.00	475.13
556.16	552.37
556.33	463.43
556.50	423.64
556.66	435.34
556.83	386.19
556.99	383.85
557.16	397.89
557.32	461.09
557.49	433.00
557.65	397.89
557.82	386.19
557.98	454.06
558.15	440.02
558.32	498.53
558.48	437.68
558.65	393.21
558.81	430.66
558.98	367.46
559.14	409.59
559.31	372.15
559.47	418.96
559.64	512.58
559.80	458.74
559.97	433.00
560.13	430.66
560.30	418.96
560.46	447.04
560.63	393.21
560.79	393.21
560.96	442.36
561.12	437.68
561.29	421.30
561.45	416.62
561.61	411.93
561.78	463.43
561.94	388.53
562.11	367.46
562.27	440.02
562.44	493.85
562.60	344.06
562.77	409.59
562.93	421.30
563.10	425.98
563.26	411.93
563.42	500.87
563.59	423.64
563.75	355.76
563.92	447.04
564.08	425.98
564.24	428.32
564.41	463.43
564.57	414.27
564.74	411.93
564.90	433.00
565.07	418.96
565.23	407.25
565.39	430.66
565.56	440.02
565.72	447.04
565.88	421.30
566.05	449.38
566.21	411.93
566.38	468.11
566.54	430.66
566.70	376.83
566.87	465.77
567.03	416.62
567.19	425.98
567.36	411.93
567.52	395.55
567.68	454.06
567.85	451.72
568.01	346.40
568.17	386.19
568.34	440.02
568.50	479.81
568.66	348.74
568.83	423.64
568.99	428.32
569.15	381.51
569.32	409.59
569.48	418.96
569.64	383.85
569.81	456.40
569.97	449.38
570.13	470.45
570.30	418.96
570.46	402.57
570.62	477.47
570.78	496.19
570.95	444.70
571.11	477.47
571.27	472.79
571.43	386.19
571.60	496.19
571.76	400.23
571.92	409.59
572.09	484.49
572.25	353.42
572.41	430.66
572.57	320.65
572.74	472.79
572.90	421.30
573.06	418.96
573.22	372.15
573.38	440.02
573.55	404.91
573.71	430.66
573.87	463.43
574.03	351.08
574.20	418.96
574.36	507.90
574.52	372.15
574.68	411.93
574.84	409.59
575.01	447.04
575.17	395.55
575.33	454.06
575.49	456.40
575.65	433.00
575.82	386.19
575.98	397.89
576.14	379.17
576.30	367.46
576.46	433.00
576.62	390.87
576.79	444.70
576.95	451.72
577.11	353.42
577.27	428.32
577.43	491.51
577.59	440.02
577.75	454.06
577.92	409.59
578.08	383.85
578.24	500.87
578.40	500.87
578.56	411.93
578.72	449.38
578.88	416.62
579.04	440.02
579.21	454.06
579.37	440.02
579.53	400.23
579.69	442.36
579.85	353.42
580.01	421.30
580.17	397.89
580.33	395.55
580.49	397.89
580.65	447.04
580.82	433.00
580.98	411.93
581.14	402.57
581.30	411.93
581.46	393.21
581.62	440.02
581.78	402.57
581.94	447.04
582.10	444.70
582.26	402.57
582.42	461.09
582.58	447.04
582.74	442.36
582.90	444.70
583.06	395.55
583.22	430.66
583.38	451.72
583.54	411.93
583.70	393.21
583.86	428.32
584.02	470.45
584.18	440.02
584.34	390.87
584.50	449.38
584.66	482.15
584.82	400.23
584.98	496.19
585.14	320.65
585.30	421.30
585.46	496.19
585.62	383.85
585.78	414.27
585.94	411.93
586.10	447.04
586.26	400.23
586.42	437.68
586.58	423.64
586.74	388.53
586.90	498.53
587.06	402.57
587.22	397.89
587.38	409.59
587.54	397.89
587.70	503.22
587.86	409.59
588.02	430.66
588.18	444.70
588.34	402.57
588.49	393.21
588.65	482.15
588.81	334.70
588.97	348.74
589.13	425.98
589.29	330.02
589.45	447.04
589.61	435.34
589.77	409.59
589.93	435.34
590.08	433.00
590.24	472.79
590.40	423.64
590.56	386.19
590.72	383.85
590.88	341.72
591.04	456.40
591.20	451.72
591.35	425.98
591.51	409.59
591.67	418.96
591.83	379.17
591.99	440.02
592.15	435.34
592.31	510.24
592.46	428.32
592.62	442.36
592.78	409.59
592.94	383.85
593.10	386.19
593.26	325.33
593.41	447.04
593.57	465.77
593.73	402.57
593.89	386.19
594.05	346.40
594.20	454.06
594.36	437.68
594.52	428.32
594.68	442.36
594.84	451.72
594.99	433.00
595.15	355.76
595.31	468.11
595.47	362.78
595.62	400.23
595.78	397.89
595.94	435.34
596.10	454.06
596.25	489.17
596.41	442.36
596.57	416.62
596.73	421.30
596.88	440.02
597.04	411.93
597.20	409.59
597.36	479.81
597.51	402.57
597.67	423.64
597.83	409.59
597.99	458.74
598.14	400.23
598.30	390.87
598.46	428.32
598.61	449.38
598.77	428.32
598.93	456.40
599.09	421.30
599.24	369.80
599.40	430.66
599.56	393.21
599.71	386.19
599.87	358.10
600.03	381.51
600.18	496.19
600.34	414.27
600.50	386.19
600.65	351.08
600.81	458.74
600.97	421.30
601.12	402.57
601.28	514.92
601.44	400.23
601.59	404.91
601.75	456.40
601.91	393.21
602.06	411.93
602.22	491.51
602.37	365.12
602.53	414.27
602.69	423.64
602.84	440.02
603.00	344.06
603.16	440.02
603.31	421.30
603.47	395.55
603.62	430.66
603.78	454.06
603.94	449.38
604.09	423.64
604.25	461.09
604.40	437.68
604.56	400.23
604.71	397.89
604.87	353.42
605.03	468.11
605.18	421.30
605.34	433.00
605.49	444.70
605.65	489.17
605.80	393.21
605.96	496.19
606.12	339.38
606.27	456.40
606.43	369.80
606.58	423.64
606.74	437.68
606.89	430.66
607.05	430.66
607.20	430.66
607.36	358.10
607.51	430.66
607.67	454.06
607.82	442.36
607.98	454.06
608.13	395.55
608.29	514.92
608.44	372.15
608.60	444.70
608.75	463.43
608.91	440.02
609.06	421.30
609.22	423.64
609.37	414.27
609.53	416.62
609.68	322.99
609.84	374.49
609.99	425.98
610.15	458.74
