SpectraSuite Data File
++++++++++++++++++++++++++++++++++++
Date: Fri Oct 25 12:10:20 EDT 2013
User: price-jones
Dark Spectrum Present: No
Reference Spectrum Present: No
Number of Sampled Component Spectra: 1
Spectrometers: USB2+H05261
Integration Time (usec): 100000 (USB2+H05261)
Spectra Averaged: 1 (USB2+H05261)
Boxcar Smoothing: 0 (USB2+H05261)
Correct for Electrical Dark: No (USB2+H05261)
Strobe/Lamp Enabled: No (USB2+H05261)
Correct for Detector Non-linearity: No (USB2+H05261)
Correct for Stray Light: No (USB2+H05261)
Number of Pixels in Processed Spectrum: 2048
>>>>>Begin Processed Spectral Data<<<<<
365.73	379.17
365.92	379.17
366.12	379.17
366.32	311.29
366.52	330.02
366.72	330.02
366.91	241.08
367.11	236.39
367.31	208.31
367.51	245.76
367.70	234.05
367.90	198.95
368.10	241.08
368.30	287.89
368.49	234.05
368.69	198.95
368.89	198.95
369.09	208.31
369.28	236.39
369.48	278.52
369.68	224.69
369.87	292.57
370.07	301.93
370.27	348.74
370.47	315.97
370.66	332.36
370.86	374.49
371.06	294.91
371.25	440.02
371.45	376.83
371.65	458.74
371.84	390.87
372.04	320.65
372.24	346.40
372.44	414.27
372.63	383.85
372.83	407.25
373.03	461.09
373.22	383.85
373.42	418.96
373.62	411.93
373.81	358.10
374.01	486.83
374.21	423.64
374.40	374.49
374.60	428.32
374.79	484.49
374.99	390.87
375.19	428.32
375.38	395.55
375.58	411.93
375.78	416.62
375.97	416.62
376.17	430.66
376.37	390.87
376.56	430.66
376.76	451.72
376.95	414.27
377.15	510.24
377.35	393.21
377.54	489.17
377.74	433.00
377.93	388.53
378.13	411.93
378.33	386.19
378.52	416.62
378.72	491.51
378.91	409.59
379.11	421.30
379.31	428.32
379.50	388.53
379.70	344.06
379.89	449.38
380.09	437.68
380.28	386.19
380.48	341.72
380.68	381.51
380.87	430.66
381.07	379.17
381.26	421.30
381.46	372.15
381.65	388.53
381.85	451.72
382.04	482.15
382.24	451.72
382.43	379.17
382.63	418.96
382.83	322.99
383.02	393.21
383.22	433.00
383.41	411.93
383.61	451.72
383.80	414.27
384.00	418.96
384.19	404.91
384.39	390.87
384.58	374.49
384.78	383.85
384.97	379.17
385.17	337.04
385.36	397.89
385.56	379.17
385.75	468.11
385.95	386.19
386.14	519.60
386.34	428.32
386.53	376.83
386.72	425.98
386.92	402.57
387.11	367.46
387.31	400.23
387.50	407.25
387.70	409.59
387.89	489.17
388.09	409.59
388.28	388.53
388.48	421.30
388.67	395.55
388.86	433.00
389.06	362.78
389.25	425.98
389.45	447.04
389.64	411.93
389.84	383.85
390.03	416.62
390.22	346.40
390.42	402.57
390.61	409.59
390.81	404.91
391.00	386.19
391.19	463.43
391.39	416.62
391.58	470.45
391.78	372.15
391.97	341.72
392.16	393.21
392.36	367.46
392.55	423.64
392.75	440.02
392.94	393.21
393.13	423.64
393.33	365.12
393.52	442.36
393.71	482.15
393.91	400.23
394.10	386.19
394.29	395.55
394.49	332.36
394.68	449.38
394.88	416.62
395.07	421.30
395.26	390.87
395.46	451.72
395.65	421.30
395.84	418.96
396.04	447.04
396.23	379.17
396.42	433.00
396.62	418.96
396.81	414.27
397.00	449.38
397.19	440.02
397.39	390.87
397.58	458.74
397.77	442.36
397.97	346.40
398.16	367.46
398.35	353.42
398.55	414.27
398.74	358.10
398.93	416.62
399.12	397.89
399.32	435.34
399.51	369.80
399.70	449.38
399.90	397.89
400.09	386.19
400.28	425.98
400.47	414.27
400.67	458.74
400.86	428.32
401.05	374.49
401.24	381.51
401.44	449.38
401.63	477.47
401.82	388.53
402.01	451.72
402.21	402.57
402.40	367.46
402.59	456.40
402.78	381.51
402.97	376.83
403.17	411.93
403.36	489.17
403.55	353.42
403.74	344.06
403.93	320.65
404.13	468.11
404.32	416.62
404.51	397.89
404.70	351.08
404.89	386.19
405.09	470.45
405.28	430.66
405.47	421.30
405.66	381.51
405.85	407.25
406.05	381.51
406.24	447.04
406.43	348.74
406.62	447.04
406.81	475.13
407.00	374.49
407.20	433.00
407.39	372.15
407.58	346.40
407.77	479.81
407.96	425.98
408.15	330.02
408.34	386.19
408.54	486.83
408.73	393.21
408.92	320.65
409.11	397.89
409.30	435.34
409.49	365.12
409.68	390.87
409.87	386.19
410.07	358.10
410.26	411.93
410.45	381.51
410.64	383.85
410.83	449.38
411.02	397.89
411.21	411.93
411.40	390.87
411.59	388.53
411.78	447.04
411.98	407.25
412.17	344.06
412.36	383.85
412.55	430.66
412.74	355.76
412.93	454.06
413.12	388.53
413.31	386.19
413.50	463.43
413.69	440.02
413.88	489.17
414.07	430.66
414.26	503.22
414.45	456.40
414.64	379.17
414.83	479.81
415.02	400.23
415.22	425.98
415.41	468.11
415.60	421.30
415.79	414.27
415.98	458.74
416.17	444.70
416.36	381.51
416.55	362.78
416.74	449.38
416.93	449.38
417.12	423.64
417.31	390.87
417.50	390.87
417.69	421.30
417.88	418.96
418.07	397.89
418.26	395.55
418.45	397.89
418.64	463.43
418.83	430.66
419.02	468.11
419.21	437.68
419.39	416.62
419.58	379.17
419.77	430.66
419.96	449.38
420.15	430.66
420.34	341.72
420.53	365.12
420.72	444.70
420.91	465.77
421.10	421.30
421.29	372.15
421.48	372.15
421.67	442.36
421.86	430.66
422.05	411.93
422.24	454.06
422.43	397.89
422.61	388.53
422.80	383.85
422.99	458.74
423.18	411.93
423.37	437.68
423.56	437.68
423.75	360.44
423.94	404.91
424.13	411.93
424.32	430.66
424.50	425.98
424.69	428.32
424.88	463.43
425.07	383.85
425.26	393.21
425.45	454.06
425.64	425.98
425.83	400.23
426.01	414.27
426.20	418.96
426.39	407.25
426.58	365.12
426.77	367.46
426.96	404.91
427.15	435.34
427.33	388.53
427.52	454.06
427.71	409.59
427.90	421.30
428.09	456.40
428.28	365.12
428.46	465.77
428.65	400.23
428.84	447.04
429.03	425.98
429.22	435.34
429.40	376.83
429.59	416.62
429.78	383.85
429.97	444.70
430.16	376.83
430.34	404.91
430.53	435.34
430.72	388.53
430.91	444.70
431.10	388.53
431.28	388.53
431.47	383.85
431.66	353.42
431.85	416.62
432.03	397.89
432.22	411.93
432.41	351.08
432.60	447.04
432.79	404.91
432.97	423.64
433.16	393.21
433.35	428.32
433.54	330.02
433.72	461.09
433.91	400.23
434.10	344.06
434.28	465.77
434.47	358.10
434.66	437.68
434.85	531.30
435.03	393.21
435.22	433.00
435.41	407.25
435.59	468.11
435.78	421.30
435.97	440.02
436.16	444.70
436.34	369.80
436.53	456.40
436.72	472.79
436.90	409.59
437.09	381.51
437.28	407.25
437.46	416.62
437.65	456.40
437.84	489.17
438.02	496.19
438.21	421.30
438.40	472.79
438.58	376.83
438.77	440.02
438.96	407.25
439.14	414.27
439.33	407.25
439.52	379.17
439.70	400.23
439.89	395.55
440.08	358.10
440.26	334.70
440.45	479.81
440.63	372.15
440.82	437.68
441.01	397.89
441.19	386.19
441.38	416.62
441.57	306.61
441.75	442.36
441.94	454.06
442.12	423.64
442.31	449.38
442.50	454.06
442.68	367.46
442.87	430.66
443.05	407.25
443.24	393.21
443.43	463.43
443.61	468.11
443.80	402.57
443.98	444.70
444.17	402.57
444.35	407.25
444.54	330.02
444.73	393.21
444.91	388.53
445.10	369.80
445.28	400.23
445.47	393.21
445.65	407.25
445.84	332.36
446.02	414.27
446.21	390.87
446.39	421.30
446.58	475.13
446.77	411.93
446.95	407.25
447.14	423.64
447.32	493.85
447.51	409.59
447.69	468.11
447.88	435.34
448.06	404.91
448.25	477.47
448.43	383.85
448.62	409.59
448.80	407.25
448.99	400.23
449.17	346.40
449.36	395.55
449.54	337.04
449.73	458.74
449.91	409.59
450.10	388.53
450.28	407.25
450.46	491.51
450.65	372.15
450.83	437.68
451.02	337.04
451.20	428.32
451.39	376.83
451.57	440.02
451.76	395.55
451.94	369.80
452.13	418.96
452.31	374.49
452.49	437.68
452.68	393.21
452.86	402.57
453.05	428.32
453.23	395.55
453.42	397.89
453.60	397.89
453.78	390.87
453.97	386.19
454.15	381.51
454.34	381.51
454.52	379.17
454.70	437.68
454.89	465.77
455.07	407.25
455.26	465.77
455.44	430.66
455.62	348.74
455.81	435.34
455.99	341.72
456.17	348.74
456.36	404.91
456.54	442.36
456.73	456.40
456.91	440.02
457.09	381.51
457.28	416.62
457.46	440.02
457.64	454.06
457.83	374.49
458.01	458.74
458.19	407.25
458.38	402.57
458.56	423.64
458.74	358.10
458.93	414.27
459.11	393.21
459.29	437.68
459.48	442.36
459.66	388.53
459.84	390.87
460.03	521.94
460.21	416.62
460.39	381.51
460.57	479.81
460.76	421.30
460.94	397.89
461.12	517.26
461.31	447.04
461.49	465.77
461.67	470.45
461.85	358.10
462.04	397.89
462.22	767.70
462.40	510.24
462.59	409.59
462.77	442.36
462.95	521.94
463.13	393.21
463.32	337.04
463.50	425.98
463.68	428.32
463.86	407.25
464.05	390.87
464.23	449.38
464.41	437.68
464.59	407.25
464.78	358.10
464.96	449.38
465.14	468.11
465.32	465.77
465.50	383.85
465.69	437.68
465.87	365.12
466.05	402.57
466.23	407.25
466.41	411.93
466.60	461.09
466.78	458.74
466.96	447.04
467.14	435.34
467.32	402.57
467.51	416.62
467.69	475.13
467.87	451.72
468.05	374.49
468.23	430.66
468.41	470.45
468.60	421.30
468.78	397.89
468.96	404.91
469.14	358.10
469.32	365.12
469.50	393.21
469.69	369.80
469.87	383.85
470.05	430.66
470.23	472.79
470.41	423.64
470.59	379.17
470.77	444.70
470.95	437.68
471.14	407.25
471.32	400.23
471.50	475.13
471.68	402.57
471.86	440.02
472.04	428.32
472.22	400.23
472.40	362.78
472.58	428.32
472.77	428.32
472.95	421.30
473.13	390.87
473.31	383.85
473.49	400.23
473.67	344.06
473.85	435.34
474.03	355.76
474.21	372.15
474.39	533.64
474.57	463.43
474.75	395.55
474.93	351.08
475.12	386.19
475.30	437.68
475.48	365.12
475.66	428.32
475.84	355.76
476.02	444.70
476.20	472.79
476.38	409.59
476.56	442.36
476.74	402.57
476.92	468.11
477.10	447.04
477.28	433.00
477.46	344.06
477.64	416.62
477.82	383.85
478.00	404.91
478.18	362.78
478.36	444.70
478.54	416.62
478.72	395.55
478.90	454.06
479.08	367.46
479.26	421.30
479.44	367.46
479.62	376.83
479.80	400.23
479.98	386.19
480.16	416.62
480.34	454.06
480.52	383.85
480.70	437.68
480.88	411.93
481.06	353.42
481.24	416.62
481.41	388.53
481.59	395.55
481.77	409.59
481.95	421.30
482.13	341.72
482.31	390.87
482.49	332.36
482.67	477.47
482.85	376.83
483.03	297.25
483.21	435.34
483.39	381.51
483.57	404.91
483.74	484.49
483.92	425.98
484.10	430.66
484.28	409.59
484.46	468.11
484.64	362.78
484.82	362.78
485.00	365.12
485.18	433.00
485.35	472.79
485.53	388.53
485.71	330.02
485.89	308.95
486.07	395.55
486.25	440.02
486.43	423.64
486.61	461.09
486.78	362.78
486.96	407.25
487.14	440.02
487.32	456.40
487.50	428.32
487.68	386.19
487.85	402.57
488.03	433.00
488.21	498.53
488.39	381.51
488.57	449.38
488.75	414.27
488.92	498.53
489.10	472.79
489.28	423.64
489.46	353.42
489.64	348.74
489.81	395.55
489.99	390.87
490.17	404.91
490.35	402.57
490.53	374.49
490.70	325.33
490.88	372.15
491.06	416.62
491.24	376.83
491.41	381.51
491.59	444.70
491.77	337.04
491.95	400.23
492.13	318.31
492.30	451.72
492.48	411.93
492.66	491.51
492.84	428.32
493.01	444.70
493.19	404.91
493.37	444.70
493.54	386.19
493.72	369.80
493.90	468.11
494.08	372.15
494.25	451.72
494.43	458.74
494.61	390.87
494.79	442.36
494.96	416.62
495.14	418.96
495.32	416.62
495.49	435.34
495.67	440.02
495.85	433.00
496.02	411.93
496.20	362.78
496.38	423.64
496.55	435.34
496.73	388.53
496.91	388.53
497.09	404.91
497.26	379.17
497.44	400.23
497.62	397.89
497.79	402.57
497.97	337.04
498.14	376.83
498.32	351.08
498.50	388.53
498.67	442.36
498.85	372.15
499.03	442.36
499.20	367.46
499.38	407.25
499.56	374.49
499.73	440.02
499.91	428.32
500.08	404.91
500.26	362.78
500.44	411.93
500.61	435.34
500.79	416.62
500.97	388.53
501.14	493.85
501.32	390.87
501.49	414.27
501.67	463.43
501.84	402.57
502.02	404.91
502.20	430.66
502.37	421.30
502.55	418.96
502.72	365.12
502.90	421.30
503.07	421.30
503.25	447.04
503.43	461.09
503.60	486.83
503.78	479.81
503.95	416.62
504.13	407.25
504.30	400.23
504.48	465.77
504.65	468.11
504.83	428.32
505.01	458.74
505.18	423.64
505.36	421.30
505.53	423.64
505.71	461.09
505.88	461.09
506.06	400.23
506.23	355.76
506.41	418.96
506.58	386.19
506.76	414.27
506.93	332.36
507.11	456.40
507.28	327.68
507.46	400.23
507.63	463.43
507.81	421.30
507.98	433.00
508.16	409.59
508.33	390.87
508.50	393.21
508.68	437.68
508.85	407.25
509.03	402.57
509.20	477.47
509.38	493.85
509.55	437.68
509.73	507.90
509.90	390.87
510.08	334.70
510.25	355.76
510.42	388.53
510.60	458.74
510.77	397.89
510.95	393.21
511.12	407.25
511.30	397.89
511.47	386.19
511.64	479.81
511.82	433.00
511.99	388.53
512.17	355.76
512.34	395.55
512.51	458.74
512.69	465.77
512.86	414.27
513.04	440.02
513.21	355.76
513.38	365.12
513.56	414.27
513.73	437.68
513.90	388.53
514.08	437.68
514.25	400.23
514.43	353.42
514.60	451.72
514.77	372.15
514.95	383.85
515.12	383.85
515.29	433.00
515.47	367.46
515.64	421.30
515.81	383.85
515.99	498.53
516.16	383.85
516.33	381.51
516.51	379.17
516.68	400.23
516.85	454.06
517.03	376.83
517.20	337.04
517.37	472.79
517.54	379.17
517.72	428.32
517.89	444.70
518.06	409.59
518.24	425.98
518.41	400.23
518.58	367.46
518.75	390.87
518.93	447.04
519.10	425.98
519.27	416.62
519.45	470.45
519.62	444.70
519.79	430.66
519.96	362.78
520.14	381.51
520.31	423.64
520.48	332.36
520.65	435.34
520.83	425.98
521.00	444.70
521.17	395.55
521.34	416.62
521.52	437.68
521.69	491.51
521.86	388.53
522.03	383.85
522.20	430.66
522.38	442.36
522.55	489.17
522.72	416.62
522.89	404.91
523.07	418.96
523.24	470.45
523.41	367.46
523.58	386.19
523.75	386.19
523.92	372.15
524.10	330.02
524.27	449.38
524.44	449.38
524.61	353.42
524.78	376.83
524.96	383.85
525.13	386.19
525.30	435.34
525.47	444.70
525.64	433.00
525.81	365.12
525.98	393.21
526.16	414.27
526.33	397.89
526.50	369.80
526.67	374.49
526.84	421.30
527.01	468.11
527.18	379.17
527.36	367.46
527.53	440.02
527.70	435.34
527.87	414.27
528.04	489.17
528.21	440.02
528.38	451.72
528.55	397.89
528.72	407.25
528.89	451.72
529.07	423.64
529.24	355.76
529.41	416.62
529.58	411.93
529.75	402.57
529.92	461.09
530.09	451.72
530.26	414.27
530.43	367.46
530.60	451.72
530.77	344.06
530.94	395.55
531.11	444.70
531.28	355.76
531.46	395.55
531.63	433.00
531.80	440.02
531.97	390.87
532.14	395.55
532.31	456.40
532.48	454.06
532.65	393.21
532.82	404.91
532.99	477.47
533.16	402.57
533.33	358.10
533.50	421.30
533.67	440.02
533.84	411.93
534.01	458.74
534.18	442.36
534.35	418.96
534.52	423.64
534.69	463.43
534.86	318.31
535.03	433.00
535.20	402.57
535.37	440.02
535.54	418.96
535.71	402.57
535.88	498.53
536.05	440.02
536.22	414.27
536.38	308.95
536.55	397.89
536.72	428.32
536.89	425.98
537.06	409.59
537.23	440.02
537.40	414.27
537.57	327.68
537.74	475.13
537.91	423.64
538.08	395.55
538.25	479.81
538.42	409.59
538.59	414.27
538.75	440.02
538.92	388.53
539.09	425.98
539.26	411.93
539.43	397.89
539.60	498.53
539.77	430.66
539.94	400.23
540.11	409.59
540.28	472.79
540.44	498.53
540.61	409.59
540.78	337.04
540.95	482.15
541.12	416.62
541.29	395.55
541.46	440.02
541.62	437.68
541.79	444.70
541.96	388.53
542.13	383.85
542.30	479.81
542.47	507.90
542.63	418.96
542.80	447.04
542.97	440.02
543.14	461.09
543.31	407.25
543.48	381.51
543.64	428.32
543.81	435.34
543.98	418.96
544.15	383.85
544.32	386.19
544.48	367.46
544.65	358.10
544.82	390.87
544.99	386.19
545.16	479.81
545.32	519.60
545.49	456.40
545.66	404.91
545.83	404.91
546.00	425.98
546.16	470.45
546.33	327.68
546.50	395.55
546.67	407.25
546.83	407.25
547.00	447.04
547.17	416.62
547.34	372.15
547.50	346.40
547.67	397.89
547.84	334.70
548.00	374.49
548.17	454.06
548.34	402.57
548.51	512.58
548.67	433.00
548.84	400.23
549.01	425.98
549.18	386.19
549.34	454.06
549.51	397.89
549.68	393.21
549.84	435.34
550.01	386.19
550.18	472.79
550.34	458.74
550.51	454.06
550.68	449.38
550.84	451.72
551.01	414.27
551.18	437.68
551.34	423.64
551.51	379.17
551.68	367.46
551.84	428.32
552.01	376.83
552.18	381.51
552.34	325.33
552.51	470.45
552.68	477.47
552.84	367.46
553.01	447.04
553.18	397.89
553.34	418.96
553.51	379.17
553.67	454.06
553.84	470.45
554.01	421.30
554.17	416.62
554.34	433.00
554.51	381.51
554.67	421.30
554.84	393.21
555.00	390.87
555.17	437.68
555.33	404.91
555.50	433.00
555.67	397.89
555.83	348.74
556.00	465.77
556.16	538.32
556.33	425.98
556.50	418.96
556.66	428.32
556.83	430.66
556.99	449.38
557.16	383.85
557.32	374.49
557.49	418.96
557.65	365.12
557.82	430.66
557.98	402.57
558.15	449.38
558.32	374.49
558.48	407.25
558.65	442.36
558.81	437.68
558.98	442.36
559.14	360.44
559.31	416.62
559.47	425.98
559.64	360.44
559.80	407.25
559.97	360.44
560.13	418.96
560.30	411.93
560.46	337.04
560.63	437.68
560.79	461.09
560.96	470.45
561.12	425.98
561.29	456.40
561.45	397.89
561.61	386.19
561.78	521.94
561.94	425.98
562.11	372.15
562.27	414.27
562.44	365.12
562.60	472.79
562.77	451.72
562.93	421.30
563.10	437.68
563.26	421.30
563.42	444.70
563.59	416.62
563.75	379.17
563.92	437.68
564.08	341.72
564.24	386.19
564.41	454.06
564.57	362.78
564.74	400.23
564.90	386.19
565.07	400.23
565.23	416.62
565.39	449.38
565.56	456.40
565.72	472.79
565.88	472.79
566.05	428.32
566.21	390.87
566.38	369.80
566.54	393.21
566.70	362.78
566.87	414.27
567.03	362.78
567.19	435.34
567.36	465.77
567.52	414.27
567.68	468.11
567.85	482.15
568.01	425.98
568.17	449.38
568.34	372.15
568.50	411.93
568.66	472.79
568.83	472.79
568.99	430.66
569.15	411.93
569.32	332.36
569.48	393.21
569.64	414.27
569.81	461.09
569.97	395.55
570.13	447.04
570.30	374.49
570.46	428.32
570.62	416.62
570.78	390.87
570.95	435.34
571.11	472.79
571.27	486.83
571.43	430.66
571.60	470.45
571.76	461.09
571.92	367.46
572.09	348.74
572.25	430.66
572.41	435.34
572.57	433.00
572.74	486.83
572.90	353.42
573.06	425.98
573.22	372.15
573.38	451.72
573.55	379.17
573.71	449.38
573.87	451.72
574.03	351.08
574.20	409.59
574.36	468.11
574.52	351.08
574.68	421.30
574.84	379.17
575.01	402.57
575.17	360.44
575.33	440.02
575.49	397.89
575.65	468.11
575.82	409.59
575.98	339.38
576.14	402.57
576.30	437.68
576.46	428.32
576.62	428.32
576.79	411.93
576.95	449.38
577.11	437.68
577.27	444.70
577.43	451.72
577.59	454.06
577.75	423.64
577.92	416.62
578.08	458.74
578.24	360.44
578.40	465.77
578.56	388.53
578.72	376.83
578.88	428.32
579.04	341.72
579.21	451.72
579.37	416.62
579.53	484.49
579.69	430.66
579.85	379.17
580.01	458.74
580.17	442.36
580.33	458.74
580.49	461.09
580.65	468.11
580.82	442.36
580.98	397.89
581.14	465.77
581.30	437.68
581.46	433.00
581.62	458.74
581.78	416.62
581.94	416.62
582.10	351.08
582.26	444.70
582.42	397.89
582.58	470.45
582.74	435.34
582.90	428.32
583.06	493.85
583.22	388.53
583.38	395.55
583.54	348.74
583.70	416.62
583.86	444.70
584.02	386.19
584.18	465.77
584.34	400.23
584.50	360.44
584.66	400.23
584.82	372.15
584.98	416.62
585.14	416.62
585.30	372.15
585.46	381.51
585.62	397.89
585.78	400.23
585.94	430.66
586.10	440.02
586.26	397.89
586.42	528.96
586.58	435.34
586.74	421.30
586.90	418.96
587.06	447.04
587.22	388.53
587.38	376.83
587.54	442.36
587.70	449.38
587.86	468.11
588.02	409.59
588.18	381.51
588.34	383.85
588.49	414.27
588.65	388.53
588.81	322.99
588.97	447.04
589.13	421.30
589.29	402.57
589.45	479.81
589.61	355.76
589.77	470.45
589.93	414.27
590.08	393.21
590.24	411.93
590.40	397.89
590.56	386.19
590.72	477.47
590.88	362.78
591.04	451.72
591.20	383.85
591.35	388.53
591.51	400.23
591.67	388.53
591.83	451.72
591.99	383.85
592.15	393.21
592.31	376.83
592.46	433.00
592.62	482.15
592.78	484.49
592.94	360.44
593.10	348.74
593.26	341.72
593.41	416.62
593.57	400.23
593.73	334.70
593.89	376.83
594.05	409.59
594.20	435.34
594.36	369.80
594.52	393.21
594.68	418.96
594.84	418.96
594.99	416.62
595.15	372.15
595.31	514.92
595.47	482.15
595.62	458.74
595.78	463.43
595.94	327.68
596.10	423.64
596.25	435.34
596.41	376.83
596.57	397.89
596.73	411.93
596.88	411.93
597.04	430.66
597.20	418.96
597.36	360.44
597.51	369.80
597.67	447.04
597.83	388.53
597.99	449.38
598.14	463.43
598.30	390.87
598.46	411.93
598.61	447.04
598.77	421.30
598.93	397.89
599.09	418.96
599.24	355.76
599.40	383.85
599.56	468.11
599.71	416.62
599.87	381.51
600.03	369.80
600.18	388.53
600.34	442.36
600.50	418.96
600.65	369.80
600.81	449.38
600.97	437.68
601.12	418.96
601.28	388.53
601.44	400.23
601.59	428.32
601.75	449.38
601.91	477.47
602.06	444.70
602.22	493.85
602.37	414.27
602.53	372.15
602.69	475.13
602.84	376.83
603.00	376.83
603.16	313.63
603.31	376.83
603.47	411.93
603.62	367.46
603.78	437.68
603.94	458.74
604.09	442.36
604.25	461.09
604.40	395.55
604.56	447.04
604.71	367.46
604.87	472.79
605.03	416.62
605.18	393.21
605.34	447.04
605.49	425.98
605.65	383.85
605.80	456.40
605.96	428.32
606.12	423.64
606.27	365.12
606.43	437.68
606.58	414.27
606.74	386.19
606.89	393.21
607.05	454.06
607.20	458.74
607.36	440.02
607.51	383.85
607.67	463.43
607.82	468.11
607.98	397.89
608.13	430.66
608.29	395.55
608.44	388.53
608.60	496.19
608.75	491.51
608.91	421.30
609.06	397.89
609.22	416.62
609.37	404.91
609.53	376.83
609.68	325.33
609.84	369.80
609.99	451.72
610.15	421.30
