SpectraSuite Data File
++++++++++++++++++++++++++++++++++++
Date: Fri Oct 25 12:11:03 EDT 2013
User: price-jones
Dark Spectrum Present: No
Reference Spectrum Present: No
Number of Sampled Component Spectra: 1
Spectrometers: USB2+H05261
Integration Time (usec): 100000 (USB2+H05261)
Spectra Averaged: 1 (USB2+H05261)
Boxcar Smoothing: 0 (USB2+H05261)
Correct for Electrical Dark: No (USB2+H05261)
Strobe/Lamp Enabled: No (USB2+H05261)
Correct for Detector Non-linearity: No (USB2+H05261)
Correct for Stray Light: No (USB2+H05261)
Number of Pixels in Processed Spectrum: 2048
>>>>>Begin Processed Spectral Data<<<<<
365.73	348.74
365.92	348.74
366.12	348.74
366.32	217.67
366.52	191.92
366.72	327.68
366.91	238.73
367.11	280.86
367.31	175.54
367.51	222.35
367.70	248.10
367.90	266.82
368.10	236.39
368.30	212.99
368.49	271.50
368.69	304.27
368.89	306.61
369.09	290.23
369.28	269.16
369.48	278.52
369.68	271.50
369.87	360.44
370.07	315.97
370.27	344.06
370.47	346.40
370.66	379.17
370.86	346.40
371.06	330.02
371.25	379.17
371.45	383.85
371.65	351.08
371.84	444.70
372.04	461.09
372.24	355.76
372.44	437.68
372.63	418.96
372.83	482.15
373.03	397.89
373.22	451.72
373.42	404.91
373.62	409.59
373.81	428.32
374.01	493.85
374.21	458.74
374.40	414.27
374.60	465.77
374.79	444.70
374.99	416.62
375.19	428.32
375.38	461.09
375.58	409.59
375.78	442.36
375.97	475.13
376.17	435.34
376.37	468.11
376.56	425.98
376.76	425.98
376.95	369.80
377.15	470.45
377.35	484.49
377.54	407.25
377.74	423.64
377.93	390.87
378.13	428.32
378.33	416.62
378.52	489.17
378.72	463.43
378.91	470.45
379.11	404.91
379.31	407.25
379.50	440.02
379.70	425.98
379.89	407.25
380.09	435.34
380.28	397.89
380.48	400.23
380.68	404.91
380.87	390.87
381.07	449.38
381.26	442.36
381.46	383.85
381.65	409.59
381.85	360.44
382.04	414.27
382.24	402.57
382.43	393.21
382.63	365.12
382.83	409.59
383.02	421.30
383.22	348.74
383.41	390.87
383.61	397.89
383.80	402.57
384.00	416.62
384.19	414.27
384.39	437.68
384.58	416.62
384.78	433.00
384.97	430.66
385.17	414.27
385.36	374.49
385.56	400.23
385.75	374.49
385.95	376.83
386.14	381.51
386.34	393.21
386.53	484.49
386.72	374.49
386.92	351.08
387.11	447.04
387.31	435.34
387.50	404.91
387.70	411.93
387.89	397.89
388.09	414.27
388.28	430.66
388.48	393.21
388.67	449.38
388.86	395.55
389.06	379.17
389.25	409.59
389.45	348.74
389.64	421.30
389.84	449.38
390.03	447.04
390.22	351.08
390.42	341.72
390.61	374.49
390.81	402.57
391.00	362.78
391.19	433.00
391.39	454.06
391.58	395.55
391.78	503.22
391.97	402.57
392.16	416.62
392.36	444.70
392.55	409.59
392.75	414.27
392.94	440.02
393.13	437.68
393.33	430.66
393.52	374.49
393.71	404.91
393.91	425.98
394.10	416.62
394.29	409.59
394.49	379.17
394.68	353.42
394.88	442.36
395.07	411.93
395.26	430.66
395.46	395.55
395.65	332.36
395.84	360.44
396.04	484.49
396.23	407.25
396.42	430.66
396.62	416.62
396.81	423.64
397.00	372.15
397.19	339.38
397.39	362.78
397.58	442.36
397.77	393.21
397.97	486.83
398.16	383.85
398.35	386.19
398.55	306.61
398.74	388.53
398.93	479.81
399.12	393.21
399.32	390.87
399.51	351.08
399.70	428.32
399.90	402.57
400.09	454.06
400.28	388.53
400.47	393.21
400.67	390.87
400.86	353.42
401.05	430.66
401.24	456.40
401.44	407.25
401.63	393.21
401.82	447.04
402.01	348.74
402.21	430.66
402.40	383.85
402.59	435.34
402.78	397.89
402.97	456.40
403.17	414.27
403.36	428.32
403.55	355.76
403.74	409.59
403.93	367.46
404.13	435.34
404.32	383.85
404.51	367.46
404.70	414.27
404.89	393.21
405.09	458.74
405.28	390.87
405.47	409.59
405.66	395.55
405.85	442.36
406.05	397.89
406.24	435.34
406.43	411.93
406.62	433.00
406.81	353.42
407.00	475.13
407.20	440.02
407.39	348.74
407.58	362.78
407.77	444.70
407.96	465.77
408.15	407.25
408.34	433.00
408.54	304.27
408.73	374.49
408.92	346.40
409.11	423.64
409.30	400.23
409.49	313.63
409.68	411.93
409.87	475.13
410.07	433.00
410.26	381.51
410.45	423.64
410.64	383.85
410.83	362.78
411.02	454.06
411.21	409.59
411.40	449.38
411.59	383.85
411.78	416.62
411.98	386.19
412.17	411.93
412.36	334.70
412.55	454.06
412.74	404.91
412.93	491.51
413.12	442.36
413.31	496.19
413.50	447.04
413.69	369.80
413.88	458.74
414.07	442.36
414.26	365.12
414.45	367.46
414.64	332.36
414.83	425.98
415.02	400.23
415.22	454.06
415.41	404.91
415.60	362.78
415.79	388.53
415.98	423.64
416.17	369.80
416.36	407.25
416.55	353.42
416.74	395.55
416.93	400.23
417.12	386.19
417.31	437.68
417.50	409.59
417.69	486.83
417.88	470.45
418.07	386.19
418.26	402.57
418.45	447.04
418.64	388.53
418.83	372.15
419.02	409.59
419.21	430.66
419.39	390.87
419.58	346.40
419.77	346.40
419.96	409.59
420.15	477.47
420.34	393.21
420.53	433.00
420.72	411.93
420.91	449.38
421.10	400.23
421.29	454.06
421.48	411.93
421.67	369.80
421.86	381.51
422.05	348.74
422.24	379.17
422.43	491.51
422.61	425.98
422.80	449.38
422.99	315.97
423.18	365.12
423.37	472.79
423.56	409.59
423.75	463.43
423.94	407.25
424.13	435.34
424.32	346.40
424.50	386.19
424.69	372.15
424.88	362.78
425.07	475.13
425.26	418.96
425.45	400.23
425.64	353.42
425.83	449.38
426.01	435.34
426.20	521.94
426.39	362.78
426.58	393.21
426.77	440.02
426.96	397.89
427.15	421.30
427.33	414.27
427.52	374.49
427.71	468.11
427.90	381.51
428.09	393.21
428.28	322.99
428.46	407.25
428.65	313.63
428.84	388.53
429.03	369.80
429.22	337.04
429.40	393.21
429.59	346.40
429.78	433.00
429.97	449.38
430.16	414.27
430.34	440.02
430.53	386.19
430.72	397.89
430.91	440.02
431.10	383.85
431.28	421.30
431.47	416.62
431.66	386.19
431.85	299.59
432.03	407.25
432.22	421.30
432.41	400.23
432.60	374.49
432.79	416.62
432.97	348.74
433.16	372.15
433.35	390.87
433.54	400.23
433.72	379.17
433.91	449.38
434.10	416.62
434.28	475.13
434.47	416.62
434.66	430.66
434.85	428.32
435.03	388.53
435.22	397.89
435.41	402.57
435.59	416.62
435.78	425.98
435.97	456.40
436.16	454.06
436.34	454.06
436.53	418.96
436.72	372.15
436.90	344.06
437.09	433.00
437.28	428.32
437.46	388.53
437.65	444.70
437.84	444.70
438.02	407.25
438.21	463.43
438.40	470.45
438.58	360.44
438.77	325.33
438.96	390.87
439.14	365.12
439.33	425.98
439.52	404.91
439.70	367.46
439.89	407.25
440.08	456.40
440.26	498.53
440.45	423.64
440.63	407.25
440.82	322.99
441.01	407.25
441.19	409.59
441.38	484.49
441.57	428.32
441.75	507.90
441.94	418.96
442.12	425.98
442.31	353.42
442.50	381.51
442.68	395.55
442.87	358.10
443.05	414.27
443.24	484.49
443.43	355.76
443.61	397.89
443.80	470.45
443.98	407.25
444.17	444.70
444.35	505.56
444.54	404.91
444.73	416.62
444.91	470.45
445.10	404.91
445.28	372.15
445.47	430.66
445.65	484.49
445.84	334.70
446.02	402.57
446.21	482.15
446.39	369.80
446.58	444.70
446.77	433.00
446.95	315.97
447.14	402.57
447.32	409.59
447.51	358.10
447.69	418.96
447.88	369.80
448.06	395.55
448.25	383.85
448.43	425.98
448.62	353.42
448.80	463.43
448.99	425.98
449.17	386.19
449.36	421.30
449.54	362.78
449.73	344.06
449.91	367.46
450.10	456.40
450.28	465.77
450.46	409.59
450.65	475.13
450.83	414.27
451.02	423.64
451.20	411.93
451.39	379.17
451.57	395.55
451.76	348.74
451.94	449.38
452.13	404.91
452.31	416.62
452.49	400.23
452.68	407.25
452.86	416.62
453.05	416.62
453.23	409.59
453.42	383.85
453.60	400.23
453.78	454.06
453.97	411.93
454.15	418.96
454.34	440.02
454.52	414.27
454.70	451.72
454.89	437.68
455.07	369.80
455.26	416.62
455.44	442.36
455.62	454.06
455.81	400.23
455.99	493.85
456.17	397.89
456.36	414.27
456.54	383.85
456.73	372.15
456.91	407.25
457.09	397.89
457.28	430.66
457.46	493.85
457.64	369.80
457.83	425.98
458.01	433.00
458.19	493.85
458.38	393.21
458.56	397.89
458.74	411.93
458.93	374.49
459.11	339.38
459.29	433.00
459.48	444.70
459.66	463.43
459.84	461.09
460.03	435.34
460.21	402.57
460.39	430.66
460.57	409.59
460.76	393.21
460.94	430.66
461.12	374.49
461.31	425.98
461.49	486.83
461.67	362.78
461.85	393.21
462.04	435.34
462.22	758.33
462.40	379.17
462.59	435.34
462.77	440.02
462.95	414.27
463.13	423.64
463.32	456.40
463.50	414.27
463.68	489.17
463.86	512.58
464.05	346.40
464.23	390.87
464.41	339.38
464.59	348.74
464.78	414.27
464.96	320.65
465.14	411.93
465.32	433.00
465.50	423.64
465.69	397.89
465.87	454.06
466.05	402.57
466.23	411.93
466.41	400.23
466.60	435.34
466.78	430.66
466.96	430.66
467.14	414.27
467.32	421.30
467.51	442.36
467.69	411.93
467.87	491.51
468.05	444.70
468.23	461.09
468.41	379.17
468.60	433.00
468.78	418.96
468.96	449.38
469.14	433.00
469.32	407.25
469.50	395.55
469.69	414.27
469.87	397.89
470.05	397.89
470.23	465.77
470.41	393.21
470.59	374.49
470.77	411.93
470.95	421.30
471.14	404.91
471.32	353.42
471.50	402.57
471.68	425.98
471.86	402.57
472.04	416.62
472.22	381.51
472.40	393.21
472.58	341.72
472.77	383.85
472.95	365.12
473.13	433.00
473.31	397.89
473.49	411.93
473.67	397.89
473.85	383.85
474.03	449.38
474.21	444.70
474.39	414.27
474.57	423.64
474.75	409.59
474.93	376.83
475.12	411.93
475.30	428.32
475.48	353.42
475.66	404.91
475.84	418.96
476.02	472.79
476.20	388.53
476.38	372.15
476.56	472.79
476.74	388.53
476.92	376.83
477.10	407.25
477.28	409.59
477.46	414.27
477.64	379.17
477.82	447.04
478.00	407.25
478.18	411.93
478.36	372.15
478.54	386.19
478.72	390.87
478.90	395.55
479.08	451.72
479.26	421.30
479.44	393.21
479.62	388.53
479.80	414.27
479.98	360.44
480.16	383.85
480.34	428.32
480.52	376.83
480.70	430.66
480.88	334.70
481.06	482.15
481.24	425.98
481.41	444.70
481.59	428.32
481.77	458.74
481.95	390.87
482.13	388.53
482.31	416.62
482.49	360.44
482.67	404.91
482.85	458.74
483.03	458.74
483.21	430.66
483.39	374.49
483.57	383.85
483.74	435.34
483.92	416.62
484.10	383.85
484.28	381.51
484.46	470.45
484.64	442.36
484.82	418.96
485.00	423.64
485.18	362.78
485.35	390.87
485.53	482.15
485.71	442.36
485.89	348.74
486.07	409.59
486.25	486.83
486.43	411.93
486.61	414.27
486.78	418.96
486.96	386.19
487.14	442.36
487.32	451.72
487.50	451.72
487.68	435.34
487.85	386.19
488.03	400.23
488.21	362.78
488.39	458.74
488.57	433.00
488.75	369.80
488.92	526.62
489.10	409.59
489.28	416.62
489.46	374.49
489.64	374.49
489.81	491.51
489.99	482.15
490.17	395.55
490.35	447.04
490.53	463.43
490.70	411.93
490.88	440.02
491.06	346.40
491.24	437.68
491.41	367.46
491.59	442.36
491.77	393.21
491.95	376.83
492.13	383.85
492.30	358.10
492.48	339.38
492.66	414.27
492.84	418.96
493.01	428.32
493.19	402.57
493.37	395.55
493.54	430.66
493.72	437.68
493.90	400.23
494.08	376.83
494.25	416.62
494.43	472.79
494.61	407.25
494.79	372.15
494.96	428.32
495.14	409.59
495.32	393.21
495.49	461.09
495.67	430.66
495.85	397.89
496.02	383.85
496.20	388.53
496.38	414.27
496.55	400.23
496.73	444.70
496.91	449.38
497.09	440.02
497.26	386.19
497.44	372.15
497.62	390.87
497.79	442.36
497.97	451.72
498.14	411.93
498.32	381.51
498.50	315.97
498.67	395.55
498.85	444.70
499.03	397.89
499.20	414.27
499.38	454.06
499.56	447.04
499.73	418.96
499.91	390.87
500.08	454.06
500.26	416.62
500.44	400.23
500.61	407.25
500.79	362.78
500.97	435.34
501.14	468.11
501.32	365.12
501.49	456.40
501.67	315.97
501.84	477.47
502.02	458.74
502.20	440.02
502.37	404.91
502.55	444.70
502.72	456.40
502.90	425.98
503.07	407.25
503.25	393.21
503.43	400.23
503.60	381.51
503.78	414.27
503.95	423.64
504.13	369.80
504.30	386.19
504.48	351.08
504.65	355.76
504.83	358.10
505.01	390.87
505.18	423.64
505.36	416.62
505.53	369.80
505.71	339.38
505.88	496.19
506.06	433.00
506.23	339.38
506.41	451.72
506.58	430.66
506.76	407.25
506.93	353.42
507.11	433.00
507.28	435.34
507.46	456.40
507.63	428.32
507.81	444.70
507.98	346.40
508.16	416.62
508.33	386.19
508.50	372.15
508.68	390.87
508.85	442.36
509.03	449.38
509.20	421.30
509.38	386.19
509.55	454.06
509.73	468.11
509.90	400.23
510.08	430.66
510.25	430.66
510.42	411.93
510.60	400.23
510.77	388.53
510.95	440.02
511.12	330.02
511.30	402.57
511.47	458.74
511.64	407.25
511.82	376.83
511.99	454.06
512.17	423.64
512.34	369.80
512.51	351.08
512.69	421.30
512.86	428.32
513.04	418.96
513.21	416.62
513.38	409.59
513.56	393.21
513.73	454.06
513.90	390.87
514.08	360.44
514.25	440.02
514.43	374.49
514.60	393.21
514.77	444.70
514.95	468.11
515.12	344.06
515.29	486.83
515.47	381.51
515.64	493.85
515.81	400.23
515.99	468.11
516.16	400.23
516.33	433.00
516.51	381.51
516.68	395.55
516.85	407.25
517.03	468.11
517.20	451.72
517.37	367.46
517.54	416.62
517.72	402.57
517.89	330.02
518.06	423.64
518.24	468.11
518.41	407.25
518.58	468.11
518.75	353.42
518.93	379.17
519.10	355.76
519.27	409.59
519.45	393.21
519.62	374.49
519.79	437.68
519.96	484.49
520.14	425.98
520.31	472.79
520.48	449.38
520.65	381.51
520.83	430.66
521.00	388.53
521.17	376.83
521.34	423.64
521.52	386.19
521.69	388.53
521.86	421.30
522.03	430.66
522.20	376.83
522.38	374.49
522.55	355.76
522.72	395.55
522.89	416.62
523.07	433.00
523.24	381.51
523.41	365.12
523.58	397.89
523.75	390.87
523.92	395.55
524.10	379.17
524.27	418.96
524.44	388.53
524.61	489.17
524.78	393.21
524.96	416.62
525.13	411.93
525.30	418.96
525.47	388.53
525.64	383.85
525.81	505.56
525.98	425.98
526.16	418.96
526.33	440.02
526.50	430.66
526.67	461.09
526.84	388.53
527.01	447.04
527.18	423.64
527.36	400.23
527.53	383.85
527.70	407.25
527.87	498.53
528.04	463.43
528.21	442.36
528.38	444.70
528.55	447.04
528.72	395.55
528.89	470.45
529.07	409.59
529.24	447.04
529.41	409.59
529.58	428.32
529.75	437.68
529.92	346.40
530.09	463.43
530.26	449.38
530.43	416.62
530.60	425.98
530.77	503.22
530.94	435.34
531.11	477.47
531.28	430.66
531.46	416.62
531.63	376.83
531.80	351.08
531.97	437.68
532.14	407.25
532.31	400.23
532.48	444.70
532.65	414.27
532.82	416.62
532.99	393.21
533.16	393.21
533.33	346.40
533.50	430.66
533.67	330.02
533.84	383.85
534.01	440.02
534.18	458.74
534.35	365.12
534.52	407.25
534.69	411.93
534.86	423.64
535.03	416.62
535.20	423.64
535.37	456.40
535.54	421.30
535.71	365.12
535.88	416.62
536.05	411.93
536.22	472.79
536.38	397.89
536.55	395.55
536.72	425.98
536.89	397.89
537.06	388.53
537.23	428.32
537.40	505.56
537.57	433.00
537.74	484.49
537.91	379.17
538.08	477.47
538.25	442.36
538.42	369.80
538.59	365.12
538.75	388.53
538.92	437.68
539.09	447.04
539.26	416.62
539.43	332.36
539.60	379.17
539.77	435.34
539.94	397.89
540.11	484.49
540.28	418.96
540.44	435.34
540.61	390.87
540.78	374.49
540.95	400.23
541.12	374.49
541.29	442.36
541.46	461.09
541.62	418.96
541.79	418.96
541.96	381.51
542.13	425.98
542.30	400.23
542.47	383.85
542.63	365.12
542.80	355.76
542.97	397.89
543.14	376.83
543.31	418.96
543.48	442.36
543.64	442.36
543.81	414.27
543.98	341.72
544.15	383.85
544.32	425.98
544.48	393.21
544.65	416.62
544.82	484.49
544.99	470.45
545.16	313.63
545.32	411.93
545.49	418.96
545.66	472.79
545.83	374.49
546.00	454.06
546.16	386.19
546.33	360.44
546.50	400.23
546.67	507.90
546.83	411.93
547.00	409.59
547.17	369.80
547.34	407.25
547.50	442.36
547.67	416.62
547.84	379.17
548.00	447.04
548.17	393.21
548.34	440.02
548.51	456.40
548.67	379.17
548.84	454.06
549.01	395.55
549.18	454.06
549.34	353.42
549.51	386.19
549.68	400.23
549.84	449.38
550.01	456.40
550.18	484.49
550.34	507.90
550.51	461.09
550.68	402.57
550.84	416.62
551.01	414.27
551.18	433.00
551.34	425.98
551.51	428.32
551.68	395.55
551.84	402.57
552.01	454.06
552.18	322.99
552.34	414.27
552.51	383.85
552.68	379.17
552.84	461.09
553.01	425.98
553.18	430.66
553.34	411.93
553.51	341.72
553.67	397.89
553.84	402.57
554.01	435.34
554.17	442.36
554.34	374.49
554.51	395.55
554.67	435.34
554.84	407.25
555.00	482.15
555.17	454.06
555.33	402.57
555.50	397.89
555.67	477.47
555.83	358.10
556.00	397.89
556.16	610.88
556.33	425.98
556.50	425.98
556.66	393.21
556.83	416.62
556.99	440.02
557.16	414.27
557.32	409.59
557.49	442.36
557.65	442.36
557.82	407.25
557.98	524.28
558.15	444.70
558.32	320.65
558.48	512.58
558.65	465.77
558.81	458.74
558.98	472.79
559.14	451.72
559.31	449.38
559.47	479.81
559.64	386.19
559.80	505.56
559.97	465.77
560.13	390.87
560.30	358.10
560.46	468.11
560.63	379.17
560.79	386.19
560.96	386.19
561.12	372.15
561.29	472.79
561.45	407.25
561.61	416.62
561.78	449.38
561.94	449.38
562.11	435.34
562.27	440.02
562.44	423.64
562.60	397.89
562.77	428.32
562.93	372.15
563.10	358.10
563.26	395.55
563.42	442.36
563.59	376.83
563.75	416.62
563.92	362.78
564.08	433.00
564.24	465.77
564.41	451.72
564.57	402.57
564.74	409.59
564.90	428.32
565.07	390.87
565.23	388.53
565.39	402.57
565.56	472.79
565.72	433.00
565.88	355.76
566.05	407.25
566.21	421.30
566.38	418.96
566.54	365.12
566.70	369.80
566.87	449.38
567.03	369.80
567.19	470.45
567.36	355.76
567.52	376.83
567.68	437.68
567.85	404.91
568.01	395.55
568.17	454.06
568.34	381.51
568.50	447.04
568.66	360.44
568.83	514.92
568.99	433.00
569.15	479.81
569.32	428.32
569.48	447.04
569.64	388.53
569.81	388.53
569.97	447.04
570.13	482.15
570.30	379.17
570.46	421.30
570.62	454.06
570.78	433.00
570.95	447.04
571.11	442.36
571.27	498.53
571.43	395.55
571.60	433.00
571.76	447.04
571.92	372.15
572.09	395.55
572.25	397.89
572.41	358.10
572.57	421.30
572.74	428.32
572.90	430.66
573.06	451.72
573.22	402.57
573.38	472.79
573.55	418.96
573.71	404.91
573.87	374.49
574.03	428.32
574.20	472.79
574.36	393.21
574.52	442.36
574.68	393.21
574.84	393.21
575.01	458.74
575.17	433.00
575.33	437.68
575.49	489.17
575.65	454.06
575.82	421.30
575.98	430.66
576.14	334.70
576.30	458.74
576.46	454.06
576.62	454.06
576.79	430.66
576.95	454.06
577.11	449.38
577.27	393.21
577.43	430.66
577.59	451.72
577.75	400.23
577.92	367.46
578.08	423.64
578.24	395.55
578.40	461.09
578.56	449.38
578.72	507.90
578.88	390.87
579.04	372.15
579.21	428.32
579.37	458.74
579.53	393.21
579.69	463.43
579.85	365.12
580.01	367.46
580.17	404.91
580.33	351.08
580.49	386.19
580.65	472.79
580.82	355.76
580.98	353.42
581.14	428.32
581.30	461.09
581.46	496.19
581.62	510.24
581.78	402.57
581.94	496.19
582.10	395.55
582.26	468.11
582.42	355.76
582.58	374.49
582.74	428.32
582.90	409.59
583.06	418.96
583.22	465.77
583.38	390.87
583.54	435.34
583.70	470.45
583.86	456.40
584.02	428.32
584.18	362.78
584.34	433.00
584.50	376.83
584.66	463.43
584.82	418.96
584.98	437.68
585.14	463.43
585.30	484.49
585.46	402.57
585.62	372.15
585.78	477.47
585.94	440.02
586.10	425.98
586.26	449.38
586.42	456.40
586.58	395.55
586.74	386.19
586.90	433.00
587.06	465.77
587.22	407.25
587.38	353.42
587.54	367.46
587.70	383.85
587.86	437.68
588.02	397.89
588.18	369.80
588.34	456.40
588.49	411.93
588.65	386.19
588.81	437.68
588.97	367.46
589.13	381.51
589.29	416.62
589.45	447.04
589.61	425.98
589.77	435.34
589.93	395.55
590.08	437.68
590.24	416.62
590.40	447.04
590.56	435.34
590.72	444.70
590.88	416.62
591.04	404.91
591.20	484.49
591.35	360.44
591.51	451.72
591.67	451.72
591.83	348.74
591.99	402.57
592.15	472.79
592.31	369.80
592.46	400.23
592.62	444.70
592.78	433.00
592.94	430.66
593.10	404.91
593.26	365.12
593.41	425.98
593.57	404.91
593.73	360.44
593.89	407.25
594.05	428.32
594.20	376.83
594.36	449.38
594.52	395.55
594.68	435.34
594.84	383.85
594.99	369.80
595.15	400.23
595.31	433.00
595.47	475.13
595.62	442.36
595.78	409.59
595.94	463.43
596.10	395.55
596.25	407.25
596.41	386.19
596.57	383.85
596.73	444.70
596.88	449.38
597.04	365.12
597.20	402.57
597.36	442.36
597.51	388.53
597.67	458.74
597.83	435.34
597.99	444.70
598.14	381.51
598.30	416.62
598.46	425.98
598.61	447.04
598.77	433.00
598.93	376.83
599.09	458.74
599.24	435.34
599.40	379.17
599.56	365.12
599.71	433.00
599.87	416.62
600.03	372.15
600.18	397.89
600.34	461.09
600.50	425.98
600.65	418.96
600.81	470.45
600.97	388.53
601.12	390.87
601.28	374.49
601.44	397.89
601.59	390.87
601.75	416.62
601.91	468.11
602.06	470.45
602.22	493.85
602.37	393.21
602.53	435.34
602.69	428.32
602.84	444.70
603.00	386.19
603.16	423.64
603.31	510.24
603.47	372.15
603.62	397.89
603.78	339.38
603.94	514.92
604.09	437.68
604.25	447.04
604.40	386.19
604.56	437.68
604.71	435.34
604.87	381.51
605.03	353.42
605.18	451.72
605.34	454.06
605.49	423.64
605.65	365.12
605.80	393.21
605.96	341.72
606.12	416.62
606.27	421.30
606.43	433.00
606.58	423.64
606.74	404.91
606.89	414.27
607.05	367.46
607.20	381.51
607.36	383.85
607.51	400.23
607.67	388.53
607.82	461.09
607.98	423.64
608.13	435.34
608.29	386.19
608.44	491.51
608.60	418.96
608.75	381.51
608.91	418.96
609.06	454.06
609.22	381.51
609.37	430.66
609.53	395.55
609.68	386.19
609.84	393.21
609.99	395.55
610.15	423.64
