SpectraSuite Data File
++++++++++++++++++++++++++++++++++++
Date: Fri Oct 25 12:11:24 EDT 2013
User: price-jones
Dark Spectrum Present: No
Reference Spectrum Present: No
Number of Sampled Component Spectra: 1
Spectrometers: USB2+H05261
Integration Time (usec): 100000 (USB2+H05261)
Spectra Averaged: 1 (USB2+H05261)
Boxcar Smoothing: 0 (USB2+H05261)
Correct for Electrical Dark: No (USB2+H05261)
Strobe/Lamp Enabled: No (USB2+H05261)
Correct for Detector Non-linearity: No (USB2+H05261)
Correct for Stray Light: No (USB2+H05261)
Number of Pixels in Processed Spectrum: 2048
>>>>>Begin Processed Spectral Data<<<<<
365.73	318.31
365.92	318.31
366.12	318.31
366.32	313.63
366.52	245.76
366.72	273.84
366.91	245.76
367.11	292.57
367.31	212.99
367.51	201.29
367.70	145.11
367.90	264.48
368.10	201.29
368.30	217.67
368.49	236.39
368.69	227.03
368.89	264.48
369.09	259.80
369.28	269.16
369.48	252.78
369.68	318.31
369.87	285.55
370.07	315.97
370.27	346.40
370.47	315.97
370.66	362.78
370.86	367.46
371.06	388.53
371.25	433.00
371.45	397.89
371.65	423.64
371.84	334.70
372.04	313.63
372.24	393.21
372.44	400.23
372.63	442.36
372.83	390.87
373.03	411.93
373.22	409.59
373.42	421.30
373.62	404.91
373.81	390.87
374.01	416.62
374.21	482.15
374.40	369.80
374.60	425.98
374.79	402.57
374.99	379.17
375.19	379.17
375.38	423.64
375.58	437.68
375.78	433.00
375.97	465.77
376.17	423.64
376.37	451.72
376.56	397.89
376.76	390.87
376.95	376.83
377.15	458.74
377.35	475.13
377.54	461.09
377.74	402.57
377.93	402.57
378.13	390.87
378.33	430.66
378.52	358.10
378.72	442.36
378.91	374.49
379.11	376.83
379.31	386.19
379.50	479.81
379.70	400.23
379.89	423.64
380.09	397.89
380.28	372.15
380.48	430.66
380.68	411.93
380.87	395.55
381.07	418.96
381.26	421.30
381.46	428.32
381.65	409.59
381.85	393.21
382.04	411.93
382.24	425.98
382.43	402.57
382.63	383.85
382.83	381.51
383.02	463.43
383.22	360.44
383.41	395.55
383.61	470.45
383.80	376.83
384.00	411.93
384.19	393.21
384.39	435.34
384.58	416.62
384.78	463.43
384.97	358.10
385.17	383.85
385.36	428.32
385.56	367.46
385.75	414.27
385.95	430.66
386.14	435.34
386.34	428.32
386.53	365.12
386.72	423.64
386.92	425.98
387.11	360.44
387.31	430.66
387.50	449.38
387.70	465.77
387.89	339.38
388.09	386.19
388.28	402.57
388.48	416.62
388.67	390.87
388.86	395.55
389.06	362.78
389.25	451.72
389.45	416.62
389.64	435.34
389.84	440.02
390.03	468.11
390.22	362.78
390.42	360.44
390.61	355.76
390.81	430.66
391.00	418.96
391.19	414.27
391.39	421.30
391.58	435.34
391.78	397.89
391.97	374.49
392.16	393.21
392.36	461.09
392.55	416.62
392.75	465.77
392.94	365.12
393.13	440.02
393.33	440.02
393.52	358.10
393.71	444.70
393.91	383.85
394.10	409.59
394.29	425.98
394.49	428.32
394.68	409.59
394.88	416.62
395.07	468.11
395.26	463.43
395.46	428.32
395.65	393.21
395.84	407.25
396.04	421.30
396.23	407.25
396.42	400.23
396.62	397.89
396.81	442.36
397.00	369.80
397.19	379.17
397.39	423.64
397.58	442.36
397.77	414.27
397.97	447.04
398.16	444.70
398.35	512.58
398.55	409.59
398.74	428.32
398.93	416.62
399.12	386.19
399.32	435.34
399.51	461.09
399.70	437.68
399.90	353.42
400.09	409.59
400.28	411.93
400.47	330.02
400.67	416.62
400.86	414.27
401.05	423.64
401.24	416.62
401.44	393.21
401.63	496.19
401.82	482.15
402.01	318.31
402.21	386.19
402.40	400.23
402.59	404.91
402.78	411.93
402.97	383.85
403.17	456.40
403.36	411.93
403.55	404.91
403.74	416.62
403.93	425.98
404.13	402.57
404.32	430.66
404.51	477.47
404.70	458.74
404.89	369.80
405.09	423.64
405.28	383.85
405.47	367.46
405.66	440.02
405.85	454.06
406.05	423.64
406.24	425.98
406.43	496.19
406.62	479.81
406.81	484.49
407.00	507.90
407.20	449.38
407.39	367.46
407.58	454.06
407.77	449.38
407.96	440.02
408.15	458.74
408.34	423.64
408.54	421.30
408.73	440.02
408.92	409.59
409.11	423.64
409.30	440.02
409.49	421.30
409.68	367.46
409.87	344.06
410.07	383.85
410.26	362.78
410.45	358.10
410.64	388.53
410.83	430.66
411.02	433.00
411.21	470.45
411.40	411.93
411.59	421.30
411.78	264.48
411.98	318.31
412.17	365.12
412.36	428.32
412.55	428.32
412.74	341.72
412.93	411.93
413.12	376.83
413.31	468.11
413.50	428.32
413.69	322.99
413.88	388.53
414.07	440.02
414.26	367.46
414.45	325.33
414.64	423.64
414.83	339.38
415.02	402.57
415.22	367.46
415.41	409.59
415.60	369.80
415.79	433.00
415.98	421.30
416.17	491.51
416.36	339.38
416.55	411.93
416.74	449.38
416.93	454.06
417.12	365.12
417.31	423.64
417.50	510.24
417.69	486.83
417.88	353.42
418.07	428.32
418.26	355.76
418.45	344.06
418.64	437.68
418.83	390.87
419.02	454.06
419.21	447.04
419.39	430.66
419.58	418.96
419.77	470.45
419.96	444.70
420.15	458.74
420.34	451.72
420.53	395.55
420.72	409.59
420.91	414.27
421.10	372.15
421.29	433.00
421.48	440.02
421.67	477.47
421.86	433.00
422.05	386.19
422.24	423.64
422.43	341.72
422.61	437.68
422.80	409.59
422.99	454.06
423.18	416.62
423.37	355.76
423.56	433.00
423.75	470.45
423.94	418.96
424.13	442.36
424.32	440.02
424.50	409.59
424.69	360.44
424.88	449.38
425.07	374.49
425.26	404.91
425.45	484.49
425.64	386.19
425.83	348.74
426.01	411.93
426.20	358.10
426.39	372.15
426.58	444.70
426.77	337.04
426.96	425.98
427.15	458.74
427.33	411.93
427.52	381.51
427.71	402.57
427.90	376.83
428.09	470.45
428.28	393.21
428.46	346.40
428.65	411.93
428.84	458.74
429.03	447.04
429.22	440.02
429.40	463.43
429.59	400.23
429.78	482.15
429.97	449.38
430.16	433.00
430.34	374.49
430.53	351.08
430.72	442.36
430.91	475.13
431.10	418.96
431.28	397.89
431.47	461.09
431.66	411.93
431.85	425.98
432.03	386.19
432.22	493.85
432.41	442.36
432.60	400.23
432.79	376.83
432.97	397.89
433.16	428.32
433.35	418.96
433.54	423.64
433.72	461.09
433.91	379.17
434.10	402.57
434.28	393.21
434.47	409.59
434.66	451.72
434.85	332.36
435.03	440.02
435.22	477.47
435.41	458.74
435.59	374.49
435.78	458.74
435.97	376.83
436.16	395.55
436.34	395.55
436.53	397.89
436.72	477.47
436.90	477.47
437.09	388.53
437.28	440.02
437.46	463.43
437.65	404.91
437.84	430.66
438.02	437.68
438.21	437.68
438.40	414.27
438.58	444.70
438.77	414.27
438.96	454.06
439.14	435.34
439.33	449.38
439.52	437.68
439.70	416.62
439.89	454.06
440.08	472.79
440.26	407.25
440.45	477.47
440.63	479.81
440.82	456.40
441.01	470.45
441.19	360.44
441.38	444.70
441.57	395.55
441.75	402.57
441.94	407.25
442.12	374.49
442.31	411.93
442.50	388.53
442.68	388.53
442.87	355.76
443.05	440.02
443.24	400.23
443.43	416.62
443.61	454.06
443.80	395.55
443.98	414.27
444.17	458.74
444.35	447.04
444.54	381.51
444.73	425.98
444.91	442.36
445.10	411.93
445.28	355.76
445.47	358.10
445.65	428.32
445.84	367.46
446.02	447.04
446.21	416.62
446.39	374.49
446.58	449.38
446.77	416.62
446.95	423.64
447.14	386.19
447.32	447.04
447.51	440.02
447.69	355.76
447.88	393.21
448.06	428.32
448.25	358.10
448.43	442.36
448.62	428.32
448.80	369.80
448.99	421.30
449.17	402.57
449.36	407.25
449.54	351.08
449.73	423.64
449.91	486.83
450.10	407.25
450.28	449.38
450.46	430.66
450.65	470.45
450.83	400.23
451.02	430.66
451.20	477.47
451.39	353.42
451.57	430.66
451.76	383.85
451.94	421.30
452.13	418.96
452.31	376.83
452.49	414.27
452.68	454.06
452.86	463.43
453.05	512.58
453.23	449.38
453.42	468.11
453.60	306.61
453.78	395.55
453.97	383.85
454.15	411.93
454.34	395.55
454.52	379.17
454.70	425.98
454.89	421.30
455.07	388.53
455.26	435.34
455.44	425.98
455.62	437.68
455.81	404.91
455.99	421.30
456.17	456.40
456.36	475.13
456.54	372.15
456.73	414.27
456.91	444.70
457.09	416.62
457.28	449.38
457.46	451.72
457.64	496.19
457.83	430.66
458.01	440.02
458.19	486.83
458.38	447.04
458.56	355.76
458.74	430.66
458.93	402.57
459.11	449.38
459.29	421.30
459.48	470.45
459.66	440.02
459.84	411.93
460.03	468.11
460.21	397.89
460.39	404.91
460.57	451.72
460.76	383.85
460.94	411.93
461.12	456.40
461.31	397.89
461.49	360.44
461.67	348.74
461.85	421.30
462.04	397.89
462.22	793.44
462.40	418.96
462.59	435.34
462.77	444.70
462.95	447.04
463.13	404.91
463.32	416.62
463.50	418.96
463.68	470.45
463.86	463.43
464.05	402.57
464.23	451.72
464.41	447.04
464.59	472.79
464.78	430.66
464.96	367.46
465.14	468.11
465.32	358.10
465.50	437.68
465.69	472.79
465.87	374.49
466.05	421.30
466.23	437.68
466.41	393.21
466.60	355.76
466.78	449.38
466.96	458.74
467.14	447.04
467.32	477.47
467.51	461.09
467.69	472.79
467.87	430.66
468.05	397.89
468.23	482.15
468.41	425.98
468.60	421.30
468.78	430.66
468.96	451.72
469.14	425.98
469.32	346.40
469.50	444.70
469.69	458.74
469.87	503.22
470.05	390.87
470.23	430.66
470.41	390.87
470.59	411.93
470.77	468.11
470.95	454.06
471.14	344.06
471.32	367.46
471.50	409.59
471.68	404.91
471.86	454.06
472.04	416.62
472.22	447.04
472.40	348.74
472.58	433.00
472.77	411.93
472.95	411.93
473.13	475.13
473.31	365.12
473.49	425.98
473.67	397.89
473.85	397.89
474.03	461.09
474.21	374.49
474.39	468.11
474.57	428.32
474.75	360.44
474.93	386.19
475.12	416.62
475.30	369.80
475.48	369.80
475.66	425.98
475.84	411.93
476.02	409.59
476.20	433.00
476.38	489.17
476.56	486.83
476.74	458.74
476.92	442.36
477.10	416.62
477.28	416.62
477.46	376.83
477.64	369.80
477.82	451.72
478.00	454.06
478.18	425.98
478.36	388.53
478.54	383.85
478.72	337.04
478.90	449.38
479.08	435.34
479.26	449.38
479.44	395.55
479.62	376.83
479.80	416.62
479.98	411.93
480.16	404.91
480.34	416.62
480.52	407.25
480.70	418.96
480.88	379.17
481.06	379.17
481.24	397.89
481.41	393.21
481.59	402.57
481.77	365.12
481.95	381.51
482.13	421.30
482.31	418.96
482.49	411.93
482.67	423.64
482.85	479.81
483.03	435.34
483.21	430.66
483.39	381.51
483.57	376.83
483.74	442.36
483.92	393.21
484.10	404.91
484.28	449.38
484.46	475.13
484.64	383.85
484.82	461.09
485.00	344.06
485.18	496.19
485.35	362.78
485.53	463.43
485.71	472.79
485.89	374.49
486.07	423.64
486.25	442.36
486.43	477.47
486.61	454.06
486.78	369.80
486.96	444.70
487.14	411.93
487.32	409.59
487.50	365.12
487.68	463.43
487.85	374.49
488.03	444.70
488.21	454.06
488.39	318.31
488.57	442.36
488.75	414.27
488.92	533.64
489.10	454.06
489.28	423.64
489.46	339.38
489.64	358.10
489.81	358.10
489.99	484.49
490.17	372.15
490.35	472.79
490.53	362.78
490.70	369.80
490.88	418.96
491.06	449.38
491.24	454.06
491.41	454.06
491.59	388.53
491.77	416.62
491.95	379.17
492.13	402.57
492.30	430.66
492.48	287.89
492.66	411.93
492.84	416.62
493.01	414.27
493.19	313.63
493.37	423.64
493.54	376.83
493.72	365.12
493.90	411.93
494.08	381.51
494.25	407.25
494.43	337.04
494.61	440.02
494.79	470.45
494.96	451.72
495.14	416.62
495.32	351.08
495.49	449.38
495.67	456.40
495.85	421.30
496.02	421.30
496.20	444.70
496.38	435.34
496.55	381.51
496.73	395.55
496.91	423.64
497.09	437.68
497.26	407.25
497.44	430.66
497.62	414.27
497.79	437.68
497.97	355.76
498.14	440.02
498.32	454.06
498.50	465.77
498.67	386.19
498.85	447.04
499.03	334.70
499.20	421.30
499.38	395.55
499.56	500.87
499.73	447.04
499.91	444.70
500.08	444.70
500.26	395.55
500.44	423.64
500.61	351.08
500.79	465.77
500.97	428.32
501.14	416.62
501.32	435.34
501.49	418.96
501.67	379.17
501.84	425.98
502.02	421.30
502.20	358.10
502.37	416.62
502.55	402.57
502.72	383.85
502.90	388.53
503.07	418.96
503.25	463.43
503.43	444.70
503.60	386.19
503.78	414.27
503.95	435.34
504.13	507.90
504.30	423.64
504.48	402.57
504.65	437.68
504.83	472.79
505.01	360.44
505.18	454.06
505.36	353.42
505.53	351.08
505.71	414.27
505.88	468.11
506.06	468.11
506.23	440.02
506.41	365.12
506.58	409.59
506.76	386.19
506.93	458.74
507.11	437.68
507.28	390.87
507.46	465.77
507.63	404.91
507.81	407.25
507.98	402.57
508.16	425.98
508.33	468.11
508.50	442.36
508.68	470.45
508.85	444.70
509.03	418.96
509.20	477.47
509.38	423.64
509.55	407.25
509.73	496.19
509.90	519.60
510.08	376.83
510.25	404.91
510.42	458.74
510.60	454.06
510.77	381.51
510.95	442.36
511.12	376.83
511.30	489.17
511.47	416.62
511.64	395.55
511.82	376.83
511.99	442.36
512.17	337.04
512.34	404.91
512.51	381.51
512.69	409.59
512.86	369.80
513.04	437.68
513.21	409.59
513.38	454.06
513.56	411.93
513.73	470.45
513.90	435.34
514.08	400.23
514.25	425.98
514.43	414.27
514.60	404.91
514.77	451.72
514.95	402.57
515.12	425.98
515.29	444.70
515.47	458.74
515.64	409.59
515.81	334.70
515.99	404.91
516.16	435.34
516.33	465.77
516.51	470.45
516.68	383.85
516.85	306.61
517.03	461.09
517.20	442.36
517.37	409.59
517.54	381.51
517.72	367.46
517.89	358.10
518.06	442.36
518.24	482.15
518.41	463.43
518.58	395.55
518.75	409.59
518.93	351.08
519.10	383.85
519.27	463.43
519.45	416.62
519.62	428.32
519.79	428.32
519.96	416.62
520.14	400.23
520.31	465.77
520.48	418.96
520.65	425.98
520.83	447.04
521.00	435.34
521.17	411.93
521.34	348.74
521.52	491.51
521.69	400.23
521.86	463.43
522.03	479.81
522.20	484.49
522.38	433.00
522.55	421.30
522.72	393.21
522.89	433.00
523.07	491.51
523.24	425.98
523.41	407.25
523.58	348.74
523.75	379.17
523.92	477.47
524.10	482.15
524.27	355.76
524.44	418.96
524.61	498.53
524.78	402.57
524.96	498.53
525.13	416.62
525.30	440.02
525.47	414.27
525.64	388.53
525.81	465.77
525.98	386.19
526.16	383.85
526.33	374.49
526.50	379.17
526.67	390.87
526.84	346.40
527.01	428.32
527.18	451.72
527.36	435.34
527.53	404.91
527.70	416.62
527.87	414.27
528.04	465.77
528.21	425.98
528.38	475.13
528.55	489.17
528.72	486.83
528.89	524.28
529.07	444.70
529.24	447.04
529.41	411.93
529.58	447.04
529.75	442.36
529.92	468.11
530.09	374.49
530.26	437.68
530.43	486.83
530.60	435.34
530.77	407.25
530.94	458.74
531.11	456.40
531.28	416.62
531.46	376.83
531.63	437.68
531.80	372.15
531.97	444.70
532.14	454.06
532.31	365.12
532.48	458.74
532.65	421.30
532.82	372.15
532.99	411.93
533.16	451.72
533.33	374.49
533.50	386.19
533.67	418.96
533.84	437.68
534.01	386.19
534.18	416.62
534.35	400.23
534.52	411.93
534.69	454.06
534.86	388.53
535.03	365.12
535.20	421.30
535.37	353.42
535.54	472.79
535.71	496.19
535.88	475.13
536.05	433.00
536.22	416.62
536.38	425.98
536.55	407.25
536.72	458.74
536.89	404.91
537.06	465.77
537.23	435.34
537.40	477.47
537.57	407.25
537.74	458.74
537.91	337.04
538.08	388.53
538.25	395.55
538.42	449.38
538.59	433.00
538.75	416.62
538.92	449.38
539.09	437.68
539.26	402.57
539.43	449.38
539.60	440.02
539.77	414.27
539.94	346.40
540.11	395.55
540.28	367.46
540.44	395.55
540.61	390.87
540.78	358.10
540.95	440.02
541.12	468.11
541.29	451.72
541.46	463.43
541.62	390.87
541.79	388.53
541.96	418.96
542.13	358.10
542.30	386.19
542.47	442.36
542.63	430.66
542.80	411.93
542.97	538.32
543.14	447.04
543.31	409.59
543.48	369.80
543.64	440.02
543.81	416.62
543.98	425.98
544.15	402.57
544.32	386.19
544.48	369.80
544.65	386.19
544.82	423.64
544.99	491.51
545.16	353.42
545.32	433.00
545.49	463.43
545.66	409.59
545.83	430.66
546.00	489.17
546.16	461.09
546.33	423.64
546.50	454.06
546.67	491.51
546.83	463.43
547.00	451.72
547.17	381.51
547.34	423.64
547.50	381.51
547.67	409.59
547.84	353.42
548.00	402.57
548.17	409.59
548.34	411.93
548.51	461.09
548.67	491.51
548.84	402.57
549.01	442.36
549.18	395.55
549.34	376.83
549.51	444.70
549.68	435.34
549.84	407.25
550.01	400.23
550.18	528.96
550.34	503.22
550.51	451.72
550.68	416.62
550.84	407.25
551.01	428.32
551.18	458.74
551.34	365.12
551.51	421.30
551.68	369.80
551.84	393.21
552.01	407.25
552.18	411.93
552.34	486.83
552.51	386.19
552.68	437.68
552.84	447.04
553.01	365.12
553.18	475.13
553.34	479.81
553.51	442.36
553.67	470.45
553.84	416.62
554.01	477.47
554.17	411.93
554.34	404.91
554.51	456.40
554.67	397.89
554.84	425.98
555.00	440.02
555.17	400.23
555.33	444.70
555.50	447.04
555.67	477.47
555.83	433.00
556.00	435.34
556.16	582.79
556.33	425.98
556.50	381.51
556.66	463.43
556.83	414.27
556.99	489.17
557.16	393.21
557.32	348.74
557.49	409.59
557.65	484.49
557.82	442.36
557.98	428.32
558.15	369.80
558.32	435.34
558.48	435.34
558.65	416.62
558.81	447.04
558.98	451.72
559.14	400.23
559.31	425.98
559.47	397.89
559.64	402.57
559.80	489.17
559.97	404.91
560.13	372.15
560.30	379.17
560.46	390.87
560.63	440.02
560.79	435.34
560.96	428.32
561.12	472.79
561.29	409.59
561.45	444.70
561.61	414.27
561.78	489.17
561.94	404.91
562.11	444.70
562.27	486.83
562.44	437.68
562.60	395.55
562.77	456.40
562.93	409.59
563.10	440.02
563.26	400.23
563.42	435.34
563.59	458.74
563.75	402.57
563.92	486.83
564.08	454.06
564.24	482.15
564.41	468.11
564.57	440.02
564.74	442.36
564.90	468.11
565.07	449.38
565.23	454.06
565.39	407.25
565.56	454.06
565.72	390.87
565.88	444.70
566.05	395.55
566.21	407.25
566.38	372.15
566.54	493.85
566.70	454.06
566.87	386.19
567.03	390.87
567.19	423.64
567.36	365.12
567.52	411.93
567.68	416.62
567.85	362.78
568.01	451.72
568.17	409.59
568.34	402.57
568.50	472.79
568.66	437.68
568.83	484.49
568.99	444.70
569.15	484.49
569.32	407.25
569.48	388.53
569.64	475.13
569.81	451.72
569.97	344.06
570.13	407.25
570.30	463.43
570.46	468.11
570.62	472.79
570.78	449.38
570.95	365.12
571.11	449.38
571.27	451.72
571.43	454.06
571.60	470.45
571.76	454.06
571.92	383.85
572.09	428.32
572.25	519.60
572.41	418.96
572.57	425.98
572.74	484.49
572.90	479.81
573.06	435.34
573.22	381.51
573.38	463.43
573.55	486.83
573.71	449.38
573.87	402.57
574.03	456.40
574.20	362.78
574.36	486.83
574.52	545.34
574.68	503.22
574.84	379.17
575.01	507.90
575.17	402.57
575.33	390.87
575.49	402.57
575.65	517.26
575.82	470.45
575.98	486.83
576.14	423.64
576.30	346.40
576.46	468.11
576.62	475.13
576.79	418.96
576.95	449.38
577.11	451.72
577.27	416.62
577.43	404.91
577.59	500.87
577.75	435.34
577.92	383.85
578.08	348.74
578.24	472.79
578.40	425.98
578.56	444.70
578.72	451.72
578.88	421.30
579.04	379.17
579.21	388.53
579.37	411.93
579.53	395.55
579.69	339.38
579.85	386.19
580.01	468.11
580.17	421.30
580.33	465.77
580.49	381.51
580.65	407.25
580.82	456.40
580.98	442.36
581.14	397.89
581.30	461.09
581.46	365.12
581.62	430.66
581.78	390.87
581.94	393.21
582.10	437.68
582.26	430.66
582.42	383.85
582.58	559.39
582.74	404.91
582.90	409.59
583.06	416.62
583.22	425.98
583.38	374.49
583.54	428.32
583.70	458.74
583.86	400.23
584.02	472.79
584.18	433.00
584.34	395.55
584.50	404.91
584.66	407.25
584.82	400.23
584.98	421.30
585.14	388.53
585.30	514.92
585.46	435.34
585.62	393.21
585.78	484.49
585.94	456.40
586.10	376.83
586.26	367.46
586.42	491.51
586.58	362.78
586.74	390.87
586.90	362.78
587.06	397.89
587.22	447.04
587.38	423.64
587.54	449.38
587.70	454.06
587.86	442.36
588.02	416.62
588.18	416.62
588.34	475.13
588.49	369.80
588.65	381.51
588.81	423.64
588.97	360.44
589.13	379.17
589.29	421.30
589.45	400.23
589.61	400.23
589.77	393.21
589.93	449.38
590.08	341.72
590.24	404.91
590.40	360.44
590.56	456.40
590.72	425.98
590.88	475.13
591.04	395.55
591.20	414.27
591.35	418.96
591.51	360.44
591.67	390.87
591.83	355.76
591.99	386.19
592.15	442.36
592.31	430.66
592.46	379.17
592.62	367.46
592.78	334.70
592.94	367.46
593.10	379.17
593.26	367.46
593.41	404.91
593.57	416.62
593.73	433.00
593.89	409.59
594.05	407.25
594.20	353.42
594.36	451.72
594.52	428.32
594.68	430.66
594.84	470.45
594.99	491.51
595.15	428.32
595.31	428.32
595.47	440.02
595.62	505.56
595.78	435.34
595.94	411.93
596.10	407.25
596.25	397.89
596.41	477.47
596.57	447.04
596.73	414.27
596.88	407.25
597.04	433.00
597.20	416.62
597.36	397.89
597.51	390.87
597.67	386.19
597.83	320.65
597.99	334.70
598.14	411.93
598.30	456.40
598.46	409.59
598.61	428.32
598.77	463.43
598.93	437.68
599.09	411.93
599.24	423.64
599.40	442.36
599.56	447.04
599.71	404.91
599.87	411.93
600.03	423.64
600.18	411.93
600.34	421.30
600.50	393.21
600.65	442.36
600.81	461.09
600.97	421.30
601.12	414.27
601.28	418.96
601.44	416.62
601.59	423.64
601.75	477.47
601.91	430.66
602.06	440.02
602.22	482.15
602.37	428.32
602.53	484.49
602.69	397.89
602.84	407.25
603.00	423.64
603.16	388.53
603.31	418.96
603.47	454.06
603.62	428.32
603.78	418.96
603.94	397.89
604.09	355.76
604.25	465.77
604.40	400.23
604.56	369.80
604.71	440.02
604.87	423.64
605.03	404.91
605.18	425.98
605.34	379.17
605.49	381.51
605.65	353.42
605.80	428.32
605.96	430.66
606.12	486.83
606.27	416.62
606.43	477.47
606.58	440.02
606.74	332.36
606.89	442.36
607.05	407.25
607.20	416.62
607.36	482.15
607.51	388.53
607.67	425.98
607.82	458.74
607.98	400.23
608.13	444.70
608.29	456.40
608.44	477.47
608.60	489.17
608.75	477.47
608.91	472.79
609.06	395.55
609.22	437.68
609.37	444.70
609.53	493.85
609.68	425.98
609.84	362.78
609.99	404.91
610.15	458.74
