SpectraSuite Data File
++++++++++++++++++++++++++++++++++++
Date: Fri Oct 25 12:10:38 EDT 2013
User: price-jones
Dark Spectrum Present: No
Reference Spectrum Present: No
Number of Sampled Component Spectra: 1
Spectrometers: USB2+H05261
Integration Time (usec): 100000 (USB2+H05261)
Spectra Averaged: 1 (USB2+H05261)
Boxcar Smoothing: 0 (USB2+H05261)
Correct for Electrical Dark: No (USB2+H05261)
Strobe/Lamp Enabled: No (USB2+H05261)
Correct for Detector Non-linearity: No (USB2+H05261)
Correct for Stray Light: No (USB2+H05261)
Number of Pixels in Processed Spectrum: 2048
>>>>>Begin Processed Spectral Data<<<<<
365.73	318.31
365.92	318.31
366.12	318.31
366.32	217.67
366.52	245.76
366.72	327.68
366.91	189.58
367.11	313.63
367.31	287.89
367.51	217.67
367.70	210.65
367.90	217.67
368.10	182.56
368.30	222.35
368.49	250.44
368.69	337.04
368.89	297.25
369.09	189.58
369.28	266.82
369.48	196.60
369.68	276.18
369.87	304.27
370.07	252.78
370.27	327.68
370.47	301.93
370.66	390.87
370.86	330.02
371.06	358.10
371.25	374.49
371.45	369.80
371.65	360.44
371.84	418.96
372.04	362.78
372.24	362.78
372.44	301.93
372.63	440.02
372.83	421.30
373.03	423.64
373.22	358.10
373.42	393.21
373.62	395.55
373.81	372.15
374.01	447.04
374.21	463.43
374.40	369.80
374.60	444.70
374.79	386.19
374.99	484.49
375.19	386.19
375.38	346.40
375.58	428.32
375.78	423.64
375.97	411.93
376.17	451.72
376.37	393.21
376.56	428.32
376.76	442.36
376.95	358.10
377.15	449.38
377.35	388.53
377.54	376.83
377.74	395.55
377.93	421.30
378.13	414.27
378.33	440.02
378.52	348.74
378.72	390.87
378.91	411.93
379.11	372.15
379.31	414.27
379.50	376.83
379.70	447.04
379.89	397.89
380.09	418.96
380.28	454.06
380.48	451.72
380.68	355.76
380.87	428.32
381.07	397.89
381.26	409.59
381.46	383.85
381.65	344.06
381.85	435.34
382.04	440.02
382.24	451.72
382.43	390.87
382.63	423.64
382.83	400.23
383.02	407.25
383.22	454.06
383.41	440.02
383.61	468.11
383.80	472.79
384.00	477.47
384.19	372.15
384.39	430.66
384.58	416.62
384.78	433.00
384.97	411.93
385.17	369.80
385.36	463.43
385.56	491.51
385.75	372.15
385.95	379.17
386.14	400.23
386.34	423.64
386.53	388.53
386.72	344.06
386.92	451.72
387.11	379.17
387.31	409.59
387.50	351.08
387.70	402.57
387.89	414.27
388.09	423.64
388.28	334.70
388.48	381.51
388.67	407.25
388.86	381.51
389.06	486.83
389.25	372.15
389.45	425.98
389.64	355.76
389.84	386.19
390.03	383.85
390.22	383.85
390.42	397.89
390.61	411.93
390.81	346.40
391.00	376.83
391.19	428.32
391.39	367.46
391.58	435.34
391.78	360.44
391.97	348.74
392.16	351.08
392.36	341.72
392.55	449.38
392.75	437.68
392.94	409.59
393.13	433.00
393.33	451.72
393.52	416.62
393.71	484.49
393.91	353.42
394.10	372.15
394.29	428.32
394.49	383.85
394.68	425.98
394.88	437.68
395.07	421.30
395.26	390.87
395.46	367.46
395.65	383.85
395.84	395.55
396.04	444.70
396.23	376.83
396.42	372.15
396.62	456.40
396.81	442.36
397.00	461.09
397.19	383.85
397.39	402.57
397.58	404.91
397.77	433.00
397.97	395.55
398.16	428.32
398.35	423.64
398.55	409.59
398.74	416.62
398.93	362.78
399.12	440.02
399.32	409.59
399.51	402.57
399.70	411.93
399.90	421.30
400.09	393.21
400.28	482.15
400.47	395.55
400.67	421.30
400.86	379.17
401.05	411.93
401.24	493.85
401.44	456.40
401.63	461.09
401.82	381.51
402.01	395.55
402.21	407.25
402.40	390.87
402.59	435.34
402.78	435.34
402.97	404.91
403.17	393.21
403.36	386.19
403.55	348.74
403.74	383.85
403.93	383.85
404.13	400.23
404.32	425.98
404.51	440.02
404.70	430.66
404.89	425.98
405.09	442.36
405.28	367.46
405.47	421.30
405.66	428.32
405.85	433.00
406.05	411.93
406.24	397.89
406.43	400.23
406.62	332.36
406.81	498.53
407.00	491.51
407.20	395.55
407.39	430.66
407.58	411.93
407.77	386.19
407.96	454.06
408.15	440.02
408.34	465.77
408.54	397.89
408.73	395.55
408.92	365.12
409.11	395.55
409.30	423.64
409.49	428.32
409.68	449.38
409.87	489.17
410.07	503.22
410.26	421.30
410.45	458.74
410.64	372.15
410.83	418.96
411.02	369.80
411.21	437.68
411.40	390.87
411.59	409.59
411.78	425.98
411.98	416.62
412.17	388.53
412.36	344.06
412.55	454.06
412.74	489.17
412.93	390.87
413.12	416.62
413.31	454.06
413.50	461.09
413.69	400.23
413.88	376.83
414.07	491.51
414.26	475.13
414.45	339.38
414.64	379.17
414.83	404.91
415.02	400.23
415.22	433.00
415.41	491.51
415.60	421.30
415.79	383.85
415.98	381.51
416.17	416.62
416.36	421.30
416.55	334.70
416.74	388.53
416.93	486.83
417.12	409.59
417.31	327.68
417.50	337.04
417.69	440.02
417.88	493.85
418.07	390.87
418.26	416.62
418.45	390.87
418.64	444.70
418.83	430.66
419.02	372.15
419.21	411.93
419.39	428.32
419.58	433.00
419.77	425.98
419.96	381.51
420.15	425.98
420.34	383.85
420.53	444.70
420.72	437.68
420.91	451.72
421.10	428.32
421.29	416.62
421.48	421.30
421.67	409.59
421.86	461.09
422.05	440.02
422.24	416.62
422.43	447.04
422.61	339.38
422.80	435.34
422.99	397.89
423.18	421.30
423.37	451.72
423.56	393.21
423.75	456.40
423.94	428.32
424.13	374.49
424.32	425.98
424.50	430.66
424.69	465.77
424.88	461.09
425.07	409.59
425.26	409.59
425.45	498.53
425.64	421.30
425.83	456.40
426.01	423.64
426.20	379.17
426.39	416.62
426.58	374.49
426.77	449.38
426.96	425.98
427.15	386.19
427.33	416.62
427.52	425.98
427.71	400.23
427.90	454.06
428.09	409.59
428.28	395.55
428.46	407.25
428.65	414.27
428.84	418.96
429.03	465.77
429.22	449.38
429.40	435.34
429.59	397.89
429.78	411.93
429.97	374.49
430.16	425.98
430.34	372.15
430.53	505.56
430.72	409.59
430.91	440.02
431.10	402.57
431.28	414.27
431.47	402.57
431.66	468.11
431.85	442.36
432.03	400.23
432.22	505.56
432.41	402.57
432.60	465.77
432.79	388.53
432.97	369.80
433.16	388.53
433.35	341.72
433.54	369.80
433.72	409.59
433.91	418.96
434.10	339.38
434.28	465.77
434.47	395.55
434.66	402.57
434.85	444.70
435.03	430.66
435.22	496.19
435.41	482.15
435.59	381.51
435.78	458.74
435.97	376.83
436.16	451.72
436.34	383.85
436.53	414.27
436.72	470.45
436.90	390.87
437.09	463.43
437.28	433.00
437.46	430.66
437.65	435.34
437.84	393.21
438.02	409.59
438.21	355.76
438.40	458.74
438.58	402.57
438.77	437.68
438.96	421.30
439.14	411.93
439.33	454.06
439.52	433.00
439.70	447.04
439.89	407.25
440.08	374.49
440.26	369.80
440.45	397.89
440.63	430.66
440.82	379.17
441.01	411.93
441.19	451.72
441.38	444.70
441.57	407.25
441.75	444.70
441.94	435.34
442.12	369.80
442.31	454.06
442.50	479.81
442.68	395.55
442.87	486.83
443.05	421.30
443.24	365.12
443.43	407.25
443.61	447.04
443.80	425.98
443.98	409.59
444.17	397.89
444.35	437.68
444.54	418.96
444.73	444.70
444.91	418.96
445.10	447.04
445.28	423.64
445.47	470.45
445.65	348.74
445.84	362.78
446.02	409.59
446.21	393.21
446.39	353.42
446.58	423.64
446.77	332.36
446.95	386.19
447.14	423.64
447.32	472.79
447.51	428.32
447.69	421.30
447.88	383.85
448.06	449.38
448.25	388.53
448.43	454.06
448.62	386.19
448.80	447.04
448.99	447.04
449.17	423.64
449.36	369.80
449.54	418.96
449.73	430.66
449.91	430.66
450.10	369.80
450.28	416.62
450.46	440.02
450.65	407.25
450.83	440.02
451.02	505.56
451.20	409.59
451.39	409.59
451.57	383.85
451.76	369.80
451.94	418.96
452.13	451.72
452.31	404.91
452.49	451.72
452.68	381.51
452.86	407.25
453.05	463.43
453.23	454.06
453.42	440.02
453.60	437.68
453.78	447.04
453.97	437.68
454.15	400.23
454.34	346.40
454.52	374.49
454.70	451.72
454.89	425.98
455.07	449.38
455.26	484.49
455.44	428.32
455.62	437.68
455.81	493.85
455.99	491.51
456.17	440.02
456.36	451.72
456.54	409.59
456.73	395.55
456.91	414.27
457.09	484.49
457.28	437.68
457.46	430.66
457.64	407.25
457.83	376.83
458.01	456.40
458.19	418.96
458.38	447.04
458.56	360.44
458.74	489.17
458.93	440.02
459.11	353.42
459.29	339.38
459.48	428.32
459.66	360.44
459.84	425.98
460.03	442.36
460.21	379.17
460.39	353.42
460.57	423.64
460.76	500.87
460.94	411.93
461.12	397.89
461.31	423.64
461.49	433.00
461.67	454.06
461.85	386.19
462.04	386.19
462.22	830.89
462.40	411.93
462.59	409.59
462.77	395.55
462.95	337.04
463.13	346.40
463.32	440.02
463.50	374.49
463.68	489.17
463.86	472.79
464.05	442.36
464.23	376.83
464.41	381.51
464.59	430.66
464.78	451.72
464.96	447.04
465.14	440.02
465.32	414.27
465.50	482.15
465.69	433.00
465.87	400.23
466.05	404.91
466.23	365.12
466.41	374.49
466.60	360.44
466.78	353.42
466.96	486.83
467.14	489.17
467.32	433.00
467.51	414.27
467.69	437.68
467.87	428.32
468.05	440.02
468.23	456.40
468.41	435.34
468.60	395.55
468.78	374.49
468.96	423.64
469.14	440.02
469.32	348.74
469.50	386.19
469.69	468.11
469.87	435.34
470.05	372.15
470.23	414.27
470.41	386.19
470.59	428.32
470.77	416.62
470.95	379.17
471.14	322.99
471.32	444.70
471.50	470.45
471.68	374.49
471.86	409.59
472.04	388.53
472.22	327.68
472.40	358.10
472.58	458.74
472.77	465.77
472.95	383.85
473.13	428.32
473.31	461.09
473.49	407.25
473.67	362.78
473.85	449.38
474.03	500.87
474.21	491.51
474.39	517.26
474.57	386.19
474.75	400.23
474.93	435.34
475.12	400.23
475.30	411.93
475.48	367.46
475.66	496.19
475.84	447.04
476.02	414.27
476.20	461.09
476.38	437.68
476.56	493.85
476.74	449.38
476.92	472.79
477.10	332.36
477.28	451.72
477.46	414.27
477.64	365.12
477.82	414.27
478.00	379.17
478.18	425.98
478.36	482.15
478.54	376.83
478.72	444.70
478.90	486.83
479.08	423.64
479.26	411.93
479.44	397.89
479.62	374.49
479.80	414.27
479.98	388.53
480.16	409.59
480.34	428.32
480.52	393.21
480.70	416.62
480.88	414.27
481.06	411.93
481.24	367.46
481.41	411.93
481.59	428.32
481.77	409.59
481.95	334.70
482.13	365.12
482.31	318.31
482.49	458.74
482.67	404.91
482.85	430.66
483.03	477.47
483.21	433.00
483.39	395.55
483.57	449.38
483.74	442.36
483.92	437.68
484.10	388.53
484.28	395.55
484.46	440.02
484.64	348.74
484.82	433.00
485.00	367.46
485.18	397.89
485.35	479.81
485.53	505.56
485.71	433.00
485.89	353.42
486.07	379.17
486.25	479.81
486.43	346.40
486.61	395.55
486.78	433.00
486.96	428.32
487.14	423.64
487.32	463.43
487.50	315.97
487.68	435.34
487.85	337.04
488.03	409.59
488.21	430.66
488.39	381.51
488.57	463.43
488.75	393.21
488.92	491.51
489.10	435.34
489.28	369.80
489.46	440.02
489.64	425.98
489.81	421.30
489.99	411.93
490.17	353.42
490.35	447.04
490.53	376.83
490.70	423.64
490.88	482.15
491.06	433.00
491.24	538.32
491.41	423.64
491.59	465.77
491.77	416.62
491.95	461.09
492.13	388.53
492.30	433.00
492.48	442.36
492.66	430.66
492.84	430.66
493.01	425.98
493.19	386.19
493.37	414.27
493.54	381.51
493.72	407.25
493.90	433.00
494.08	397.89
494.25	442.36
494.43	449.38
494.61	367.46
494.79	383.85
494.96	421.30
495.14	404.91
495.32	444.70
495.49	444.70
495.67	423.64
495.85	327.68
496.02	454.06
496.20	388.53
496.38	442.36
496.55	456.40
496.73	421.30
496.91	397.89
497.09	409.59
497.26	449.38
497.44	381.51
497.62	404.91
497.79	400.23
497.97	449.38
498.14	425.98
498.32	418.96
498.50	442.36
498.67	475.13
498.85	465.77
499.03	423.64
499.20	442.36
499.38	440.02
499.56	442.36
499.73	430.66
499.91	411.93
500.08	437.68
500.26	362.78
500.44	449.38
500.61	372.15
500.79	404.91
500.97	414.27
501.14	404.91
501.32	372.15
501.49	407.25
501.67	433.00
501.84	411.93
502.02	433.00
502.20	503.22
502.37	407.25
502.55	381.51
502.72	362.78
502.90	433.00
503.07	435.34
503.25	386.19
503.43	322.99
503.60	423.64
503.78	425.98
503.95	425.98
504.13	374.49
504.30	435.34
504.48	484.49
504.65	376.83
504.83	407.25
505.01	369.80
505.18	358.10
505.36	409.59
505.53	423.64
505.71	507.90
505.88	477.47
506.06	411.93
506.23	444.70
506.41	437.68
506.58	437.68
506.76	451.72
506.93	402.57
507.11	430.66
507.28	367.46
507.46	383.85
507.63	463.43
507.81	351.08
507.98	440.02
508.16	454.06
508.33	374.49
508.50	383.85
508.68	456.40
508.85	395.55
509.03	456.40
509.20	463.43
509.38	400.23
509.55	451.72
509.73	421.30
509.90	437.68
510.08	374.49
510.25	465.77
510.42	414.27
510.60	358.10
510.77	454.06
510.95	468.11
511.12	381.51
511.30	428.32
511.47	447.04
511.64	397.89
511.82	397.89
511.99	421.30
512.17	409.59
512.34	395.55
512.51	414.27
512.69	346.40
512.86	418.96
513.04	362.78
513.21	397.89
513.38	411.93
513.56	360.44
513.73	414.27
513.90	425.98
514.08	395.55
514.25	463.43
514.43	421.30
514.60	491.51
514.77	440.02
514.95	397.89
515.12	425.98
515.29	400.23
515.47	418.96
515.64	416.62
515.81	360.44
515.99	416.62
516.16	435.34
516.33	468.11
516.51	374.49
516.68	407.25
516.85	402.57
517.03	379.17
517.20	339.38
517.37	372.15
517.54	491.51
517.72	456.40
517.89	379.17
518.06	358.10
518.24	456.40
518.41	486.83
518.58	428.32
518.75	386.19
518.93	444.70
519.10	440.02
519.27	386.19
519.45	423.64
519.62	479.81
519.79	461.09
519.96	327.68
520.14	425.98
520.31	407.25
520.48	444.70
520.65	383.85
520.83	451.72
521.00	404.91
521.17	435.34
521.34	411.93
521.52	409.59
521.69	386.19
521.86	442.36
522.03	442.36
522.20	482.15
522.38	386.19
522.55	433.00
522.72	414.27
522.89	433.00
523.07	496.19
523.24	442.36
523.41	423.64
523.58	461.09
523.75	430.66
523.92	383.85
524.10	397.89
524.27	456.40
524.44	383.85
524.61	409.59
524.78	402.57
524.96	433.00
525.13	416.62
525.30	383.85
525.47	383.85
525.64	423.64
525.81	404.91
525.98	407.25
526.16	379.17
526.33	388.53
526.50	393.21
526.67	344.06
526.84	351.08
527.01	367.46
527.18	472.79
527.36	447.04
527.53	374.49
527.70	510.24
527.87	411.93
528.04	428.32
528.21	397.89
528.38	449.38
528.55	397.89
528.72	440.02
528.89	442.36
529.07	428.32
529.24	374.49
529.41	402.57
529.58	425.98
529.75	435.34
529.92	468.11
530.09	402.57
530.26	397.89
530.43	418.96
530.60	381.51
530.77	449.38
530.94	418.96
531.11	388.53
531.28	372.15
531.46	461.09
531.63	423.64
531.80	442.36
531.97	400.23
532.14	451.72
532.31	472.79
532.48	397.89
532.65	414.27
532.82	409.59
532.99	430.66
533.16	404.91
533.33	404.91
533.50	458.74
533.67	472.79
533.84	489.17
534.01	395.55
534.18	409.59
534.35	416.62
534.52	447.04
534.69	470.45
534.86	388.53
535.03	418.96
535.20	381.51
535.37	433.00
535.54	400.23
535.71	393.21
535.88	416.62
536.05	372.15
536.22	465.77
536.38	416.62
536.55	402.57
536.72	430.66
536.89	430.66
537.06	440.02
537.23	472.79
537.40	451.72
537.57	433.00
537.74	416.62
537.91	472.79
538.08	353.42
538.25	409.59
538.42	339.38
538.59	372.15
538.75	411.93
538.92	416.62
539.09	388.53
539.26	468.11
539.43	386.19
539.60	444.70
539.77	409.59
539.94	374.49
540.11	458.74
540.28	491.51
540.44	407.25
540.61	440.02
540.78	322.99
540.95	416.62
541.12	433.00
541.29	397.89
541.46	557.05
541.62	376.83
541.79	430.66
541.96	367.46
542.13	421.30
542.30	449.38
542.47	402.57
542.63	397.89
542.80	442.36
542.97	486.83
543.14	421.30
543.31	407.25
543.48	411.93
543.64	449.38
543.81	402.57
543.98	353.42
544.15	341.72
544.32	402.57
544.48	465.77
544.65	372.15
544.82	369.80
544.99	376.83
545.16	449.38
545.32	418.96
545.49	423.64
545.66	449.38
545.83	418.96
546.00	355.76
546.16	447.04
546.33	468.11
546.50	423.64
546.67	442.36
546.83	388.53
547.00	390.87
547.17	355.76
547.34	374.49
547.50	433.00
547.67	428.32
547.84	444.70
548.00	416.62
548.17	423.64
548.34	386.19
548.51	421.30
548.67	400.23
548.84	372.15
549.01	437.68
549.18	423.64
549.34	393.21
549.51	425.98
549.68	400.23
549.84	447.04
550.01	407.25
550.18	463.43
550.34	449.38
550.51	456.40
550.68	456.40
550.84	421.30
551.01	437.68
551.18	339.38
551.34	379.17
551.51	430.66
551.68	423.64
551.84	435.34
552.01	444.70
552.18	407.25
552.34	411.93
552.51	409.59
552.68	411.93
552.84	404.91
553.01	381.51
553.18	402.57
553.34	458.74
553.51	332.36
553.67	435.34
553.84	526.62
554.01	407.25
554.17	458.74
554.34	411.93
554.51	442.36
554.67	437.68
554.84	390.87
555.00	379.17
555.17	421.30
555.33	437.68
555.50	388.53
555.67	351.08
555.83	358.10
556.00	472.79
556.16	524.28
556.33	475.13
556.50	388.53
556.66	416.62
556.83	423.64
556.99	374.49
557.16	411.93
557.32	388.53
557.49	379.17
557.65	447.04
557.82	390.87
557.98	362.78
558.15	393.21
558.32	418.96
558.48	449.38
558.65	477.47
558.81	519.60
558.98	461.09
559.14	442.36
559.31	416.62
559.47	435.34
559.64	418.96
559.80	397.89
559.97	383.85
560.13	407.25
560.30	374.49
560.46	383.85
560.63	386.19
560.79	386.19
560.96	433.00
561.12	449.38
561.29	402.57
561.45	428.32
561.61	418.96
561.78	486.83
561.94	416.62
562.11	400.23
562.27	456.40
562.44	407.25
562.60	433.00
562.77	409.59
562.93	491.51
563.10	395.55
563.26	400.23
563.42	444.70
563.59	472.79
563.75	397.89
563.92	416.62
564.08	444.70
564.24	400.23
564.41	477.47
564.57	411.93
564.74	435.34
564.90	374.49
565.07	409.59
565.23	433.00
565.39	442.36
565.56	437.68
565.72	407.25
565.88	425.98
566.05	395.55
566.21	440.02
566.38	463.43
566.54	393.21
566.70	440.02
566.87	470.45
567.03	348.74
567.19	416.62
567.36	454.06
567.52	449.38
567.68	411.93
567.85	430.66
568.01	482.15
568.17	430.66
568.34	437.68
568.50	400.23
568.66	381.51
568.83	463.43
568.99	397.89
569.15	440.02
569.32	477.47
569.48	463.43
569.64	444.70
569.81	414.27
569.97	374.49
570.13	400.23
570.30	409.59
570.46	390.87
570.62	362.78
570.78	386.19
570.95	414.27
571.11	472.79
571.27	479.81
571.43	372.15
571.60	390.87
571.76	425.98
571.92	489.17
572.09	454.06
572.25	449.38
572.41	423.64
572.57	400.23
572.74	428.32
572.90	500.87
573.06	402.57
573.22	409.59
573.38	472.79
573.55	400.23
573.71	507.90
573.87	369.80
574.03	407.25
574.20	330.02
574.36	435.34
574.52	423.64
574.68	397.89
574.84	383.85
575.01	386.19
575.17	491.51
575.33	449.38
575.49	437.68
575.65	386.19
575.82	472.79
575.98	430.66
576.14	369.80
576.30	388.53
576.46	479.81
576.62	484.49
576.79	430.66
576.95	440.02
577.11	425.98
577.27	447.04
577.43	397.89
577.59	437.68
577.75	409.59
577.92	437.68
578.08	423.64
578.24	451.72
578.40	388.53
578.56	379.17
578.72	489.17
578.88	470.45
579.04	358.10
579.21	372.15
579.37	416.62
579.53	500.87
579.69	423.64
579.85	388.53
580.01	400.23
580.17	381.51
580.33	327.68
580.49	416.62
580.65	407.25
580.82	374.49
580.98	416.62
581.14	388.53
581.30	498.53
581.46	407.25
581.62	451.72
581.78	437.68
581.94	479.81
582.10	428.32
582.26	376.83
582.42	376.83
582.58	416.62
582.74	381.51
582.90	484.49
583.06	411.93
583.22	388.53
583.38	414.27
583.54	479.81
583.70	435.34
583.86	376.83
584.02	472.79
584.18	409.59
584.34	402.57
584.50	472.79
584.66	397.89
584.82	346.40
584.98	390.87
585.14	381.51
585.30	421.30
585.46	442.36
585.62	386.19
585.78	388.53
585.94	393.21
586.10	358.10
586.26	433.00
586.42	411.93
586.58	416.62
586.74	397.89
586.90	409.59
587.06	433.00
587.22	360.44
587.38	374.49
587.54	409.59
587.70	341.72
587.86	404.91
588.02	414.27
588.18	395.55
588.34	479.81
588.49	421.30
588.65	388.53
588.81	449.38
588.97	461.09
589.13	402.57
589.29	423.64
589.45	456.40
589.61	374.49
589.77	440.02
589.93	411.93
590.08	437.68
590.24	390.87
590.40	397.89
590.56	435.34
590.72	365.12
590.88	390.87
591.04	463.43
591.20	421.30
591.35	430.66
591.51	454.06
591.67	388.53
591.83	372.15
591.99	390.87
592.15	454.06
592.31	411.93
592.46	456.40
592.62	447.04
592.78	301.93
592.94	393.21
593.10	430.66
593.26	416.62
593.41	428.32
593.57	430.66
593.73	397.89
593.89	358.10
594.05	444.70
594.20	414.27
594.36	465.77
594.52	360.44
594.68	414.27
594.84	416.62
594.99	475.13
595.15	449.38
595.31	421.30
595.47	433.00
595.62	458.74
595.78	418.96
595.94	435.34
596.10	489.17
596.25	428.32
596.41	411.93
596.57	404.91
596.73	423.64
596.88	400.23
597.04	421.30
597.20	430.66
597.36	376.83
597.51	386.19
597.67	437.68
597.83	447.04
597.99	397.89
598.14	402.57
598.30	414.27
598.46	428.32
598.61	428.32
598.77	423.64
598.93	369.80
599.09	409.59
599.24	475.13
599.40	454.06
599.56	418.96
599.71	430.66
599.87	470.45
600.03	397.89
600.18	404.91
600.34	393.21
600.50	440.02
600.65	472.79
600.81	486.83
600.97	341.72
601.12	386.19
601.28	482.15
601.44	402.57
601.59	407.25
601.75	444.70
601.91	376.83
602.06	477.47
602.22	477.47
602.37	440.02
602.53	381.51
602.69	435.34
602.84	337.04
603.00	381.51
603.16	454.06
603.31	397.89
603.47	400.23
603.62	404.91
603.78	372.15
603.94	472.79
604.09	402.57
604.25	414.27
604.40	395.55
604.56	362.78
604.71	418.96
604.87	395.55
605.03	440.02
605.18	374.49
605.34	505.56
605.49	447.04
605.65	435.34
605.80	444.70
605.96	374.49
606.12	442.36
606.27	444.70
606.43	435.34
606.58	376.83
606.74	421.30
606.89	425.98
607.05	458.74
607.20	493.85
607.36	393.21
607.51	470.45
607.67	374.49
607.82	330.02
607.98	400.23
608.13	465.77
608.29	416.62
608.44	456.40
608.60	458.74
608.75	489.17
608.91	362.78
609.06	444.70
609.22	449.38
609.37	416.62
609.53	442.36
609.68	388.53
609.84	407.25
609.99	440.02
610.15	416.62
