SpectraSuite Data File
++++++++++++++++++++++++++++++++++++
Date: Fri Oct 25 12:11:26 EDT 2013
User: price-jones
Dark Spectrum Present: No
Reference Spectrum Present: No
Number of Sampled Component Spectra: 1
Spectrometers: USB2+H05261
Integration Time (usec): 100000 (USB2+H05261)
Spectra Averaged: 1 (USB2+H05261)
Boxcar Smoothing: 0 (USB2+H05261)
Correct for Electrical Dark: No (USB2+H05261)
Strobe/Lamp Enabled: No (USB2+H05261)
Correct for Detector Non-linearity: No (USB2+H05261)
Correct for Stray Light: No (USB2+H05261)
Number of Pixels in Processed Spectrum: 2048
>>>>>Begin Processed Spectral Data<<<<<
365.73	365.12
365.92	365.12
366.12	365.12
366.32	308.95
366.52	180.22
366.72	339.38
366.91	215.33
367.11	238.73
367.31	264.48
367.51	189.58
367.70	241.08
367.90	276.18
368.10	198.95
368.30	224.69
368.49	250.44
368.69	308.95
368.89	292.57
369.09	257.46
369.28	231.71
369.48	191.92
369.68	266.82
369.87	280.86
370.07	259.80
370.27	360.44
370.47	308.95
370.66	348.74
370.86	313.63
371.06	351.08
371.25	414.27
371.45	393.21
371.65	407.25
371.84	360.44
372.04	369.80
372.24	362.78
372.44	402.57
372.63	339.38
372.83	376.83
373.03	444.70
373.22	304.27
373.42	440.02
373.62	442.36
373.81	395.55
374.01	428.32
374.21	451.72
374.40	400.23
374.60	388.53
374.79	407.25
374.99	402.57
375.19	435.34
375.38	454.06
375.58	437.68
375.78	442.36
375.97	472.79
376.17	538.32
376.37	355.76
376.56	454.06
376.76	367.46
376.95	421.30
377.15	372.15
377.35	500.87
377.54	435.34
377.74	287.89
377.93	369.80
378.13	402.57
378.33	372.15
378.52	414.27
378.72	388.53
378.91	477.47
379.11	416.62
379.31	404.91
379.50	404.91
379.70	456.40
379.89	465.77
380.09	365.12
380.28	414.27
380.48	381.51
380.68	404.91
380.87	411.93
381.07	386.19
381.26	430.66
381.46	425.98
381.65	414.27
381.85	362.78
382.04	409.59
382.24	458.74
382.43	365.12
382.63	395.55
382.83	442.36
383.02	521.94
383.22	444.70
383.41	404.91
383.61	437.68
383.80	468.11
384.00	423.64
384.19	442.36
384.39	374.49
384.58	416.62
384.78	433.00
384.97	325.33
385.17	376.83
385.36	435.34
385.56	430.66
385.75	367.46
385.95	372.15
386.14	440.02
386.34	393.21
386.53	390.87
386.72	353.42
386.92	423.64
387.11	433.00
387.31	425.98
387.50	383.85
387.70	433.00
387.89	437.68
388.09	400.23
388.28	360.44
388.48	393.21
388.67	344.06
388.86	393.21
389.06	407.25
389.25	397.89
389.45	353.42
389.64	362.78
389.84	362.78
390.03	435.34
390.22	388.53
390.42	404.91
390.61	369.80
390.81	367.46
391.00	353.42
391.19	400.23
391.39	402.57
391.58	465.77
391.78	418.96
391.97	397.89
392.16	425.98
392.36	425.98
392.55	423.64
392.75	332.36
392.94	376.83
393.13	437.68
393.33	447.04
393.52	393.21
393.71	409.59
393.91	402.57
394.10	362.78
394.29	320.65
394.49	376.83
394.68	433.00
394.88	423.64
395.07	512.58
395.26	367.46
395.46	374.49
395.65	430.66
395.84	449.38
396.04	486.83
396.23	407.25
396.42	418.96
396.62	414.27
396.81	414.27
397.00	461.09
397.19	498.53
397.39	428.32
397.58	458.74
397.77	395.55
397.97	390.87
398.16	435.34
398.35	491.51
398.55	409.59
398.74	367.46
398.93	442.36
399.12	393.21
399.32	358.10
399.51	283.20
399.70	360.44
399.90	374.49
400.09	423.64
400.28	498.53
400.47	395.55
400.67	451.72
400.86	402.57
401.05	386.19
401.24	418.96
401.44	381.51
401.63	442.36
401.82	407.25
402.01	447.04
402.21	397.89
402.40	367.46
402.59	397.89
402.78	470.45
402.97	411.93
403.17	472.79
403.36	449.38
403.55	360.44
403.74	395.55
403.93	458.74
404.13	484.49
404.32	461.09
404.51	362.78
404.70	386.19
404.89	423.64
405.09	449.38
405.28	397.89
405.47	330.02
405.66	404.91
405.85	428.32
406.05	339.38
406.24	435.34
406.43	433.00
406.62	447.04
406.81	500.87
407.00	425.98
407.20	393.21
407.39	418.96
407.58	407.25
407.77	418.96
407.96	458.74
408.15	409.59
408.34	393.21
408.54	369.80
408.73	411.93
408.92	449.38
409.11	348.74
409.30	463.43
409.49	411.93
409.68	372.15
409.87	454.06
410.07	369.80
410.26	411.93
410.45	365.12
410.64	407.25
410.83	482.15
411.02	407.25
411.21	404.91
411.40	386.19
411.59	404.91
411.78	390.87
411.98	400.23
412.17	409.59
412.36	400.23
412.55	440.02
412.74	479.81
412.93	484.49
413.12	454.06
413.31	409.59
413.50	407.25
413.69	376.83
413.88	425.98
414.07	454.06
414.26	402.57
414.45	425.98
414.64	484.49
414.83	461.09
415.02	414.27
415.22	416.62
415.41	381.51
415.60	372.15
415.79	348.74
415.98	463.43
416.17	379.17
416.36	418.96
416.55	416.62
416.74	404.91
416.93	428.32
417.12	409.59
417.31	386.19
417.50	404.91
417.69	454.06
417.88	414.27
418.07	367.46
418.26	411.93
418.45	421.30
418.64	395.55
418.83	421.30
419.02	409.59
419.21	351.08
419.39	402.57
419.58	442.36
419.77	404.91
419.96	374.49
420.15	411.93
420.34	386.19
420.53	423.64
420.72	390.87
420.91	404.91
421.10	402.57
421.29	386.19
421.48	388.53
421.67	383.85
421.86	409.59
422.05	440.02
422.24	433.00
422.43	411.93
422.61	416.62
422.80	416.62
422.99	402.57
423.18	477.47
423.37	425.98
423.56	400.23
423.75	372.15
423.94	414.27
424.13	381.51
424.32	388.53
424.50	430.66
424.69	465.77
424.88	552.37
425.07	440.02
425.26	395.55
425.45	484.49
425.64	400.23
425.83	404.91
426.01	369.80
426.20	503.22
426.39	397.89
426.58	383.85
426.77	444.70
426.96	393.21
427.15	351.08
427.33	362.78
427.52	407.25
427.71	433.00
427.90	414.27
428.09	416.62
428.28	348.74
428.46	383.85
428.65	456.40
428.84	435.34
429.03	407.25
429.22	407.25
429.40	414.27
429.59	395.55
429.78	437.68
429.97	428.32
430.16	418.96
430.34	477.47
430.53	449.38
430.72	418.96
430.91	463.43
431.10	372.15
431.28	390.87
431.47	451.72
431.66	428.32
431.85	402.57
432.03	472.79
432.22	505.56
432.41	449.38
432.60	409.59
432.79	414.27
432.97	381.51
433.16	379.17
433.35	421.30
433.54	411.93
433.72	404.91
433.91	458.74
434.10	454.06
434.28	421.30
434.47	437.68
434.66	348.74
434.85	367.46
435.03	425.98
435.22	503.22
435.41	535.98
435.59	404.91
435.78	482.15
435.97	346.40
436.16	395.55
436.34	440.02
436.53	444.70
436.72	444.70
436.90	386.19
437.09	454.06
437.28	416.62
437.46	433.00
437.65	416.62
437.84	386.19
438.02	372.15
438.21	444.70
438.40	393.21
438.58	421.30
438.77	435.34
438.96	444.70
439.14	393.21
439.33	409.59
439.52	407.25
439.70	397.89
439.89	430.66
440.08	404.91
440.26	388.53
440.45	402.57
440.63	421.30
440.82	407.25
441.01	416.62
441.19	458.74
441.38	496.19
441.57	482.15
441.75	461.09
441.94	386.19
442.12	367.46
442.31	400.23
442.50	416.62
442.68	411.93
442.87	374.49
443.05	411.93
443.24	327.68
443.43	456.40
443.61	463.43
443.80	456.40
443.98	449.38
444.17	376.83
444.35	411.93
444.54	437.68
444.73	404.91
444.91	344.06
445.10	351.08
445.28	428.32
445.47	428.32
445.65	454.06
445.84	395.55
446.02	404.91
446.21	407.25
446.39	418.96
446.58	360.44
446.77	360.44
446.95	461.09
447.14	430.66
447.32	451.72
447.51	407.25
447.69	493.85
447.88	393.21
448.06	454.06
448.25	416.62
448.43	348.74
448.62	358.10
448.80	372.15
448.99	430.66
449.17	437.68
449.36	423.64
449.54	425.98
449.73	470.45
449.91	461.09
450.10	404.91
450.28	463.43
450.46	437.68
450.65	465.77
450.83	409.59
451.02	369.80
451.20	397.89
451.39	458.74
451.57	400.23
451.76	379.17
451.94	437.68
452.13	393.21
452.31	407.25
452.49	400.23
452.68	442.36
452.86	365.12
453.05	404.91
453.23	437.68
453.42	315.97
453.60	463.43
453.78	465.77
453.97	416.62
454.15	430.66
454.34	353.42
454.52	402.57
454.70	463.43
454.89	440.02
455.07	416.62
455.26	407.25
455.44	404.91
455.62	416.62
455.81	346.40
455.99	456.40
456.17	425.98
456.36	400.23
456.54	348.74
456.73	379.17
456.91	358.10
457.09	400.23
457.28	416.62
457.46	458.74
457.64	372.15
457.83	362.78
458.01	390.87
458.19	472.79
458.38	386.19
458.56	423.64
458.74	423.64
458.93	430.66
459.11	360.44
459.29	435.34
459.48	447.04
459.66	376.83
459.84	461.09
460.03	435.34
460.21	416.62
460.39	430.66
460.57	390.87
460.76	444.70
460.94	407.25
461.12	435.34
461.31	442.36
461.49	451.72
461.67	414.27
461.85	442.36
462.04	418.96
462.22	835.57
462.40	493.85
462.59	514.92
462.77	475.13
462.95	409.59
463.13	449.38
463.32	470.45
463.50	404.91
463.68	433.00
463.86	461.09
464.05	411.93
464.23	435.34
464.41	386.19
464.59	353.42
464.78	374.49
464.96	344.06
465.14	475.13
465.32	411.93
465.50	428.32
465.69	393.21
465.87	393.21
466.05	442.36
466.23	425.98
466.41	376.83
466.60	416.62
466.78	428.32
466.96	411.93
467.14	407.25
467.32	400.23
467.51	374.49
467.69	440.02
467.87	358.10
468.05	353.42
468.23	430.66
468.41	395.55
468.60	533.64
468.78	404.91
468.96	437.68
469.14	418.96
469.32	308.95
469.50	379.17
469.69	407.25
469.87	346.40
470.05	425.98
470.23	379.17
470.41	444.70
470.59	376.83
470.77	393.21
470.95	393.21
471.14	440.02
471.32	428.32
471.50	524.28
471.68	358.10
471.86	433.00
472.04	430.66
472.22	421.30
472.40	381.51
472.58	433.00
472.77	372.15
472.95	444.70
473.13	484.49
473.31	475.13
473.49	423.64
473.67	458.74
473.85	491.51
474.03	435.34
474.21	435.34
474.39	430.66
474.57	414.27
474.75	421.30
474.93	407.25
475.12	421.30
475.30	393.21
475.48	430.66
475.66	400.23
475.84	423.64
476.02	465.77
476.20	386.19
476.38	372.15
476.56	470.45
476.74	395.55
476.92	393.21
477.10	411.93
477.28	330.02
477.46	397.89
477.64	351.08
477.82	423.64
478.00	418.96
478.18	421.30
478.36	374.49
478.54	442.36
478.72	383.85
478.90	374.49
479.08	393.21
479.26	381.51
479.44	339.38
479.62	400.23
479.80	428.32
479.98	451.72
480.16	402.57
480.34	367.46
480.52	435.34
480.70	407.25
480.88	358.10
481.06	454.06
481.24	395.55
481.41	390.87
481.59	444.70
481.77	311.29
481.95	430.66
482.13	428.32
482.31	458.74
482.49	465.77
482.67	454.06
482.85	402.57
483.03	433.00
483.21	379.17
483.39	430.66
483.57	447.04
483.74	456.40
483.92	341.72
484.10	393.21
484.28	416.62
484.46	552.37
484.64	421.30
484.82	404.91
485.00	327.68
485.18	362.78
485.35	421.30
485.53	433.00
485.71	428.32
485.89	491.51
486.07	351.08
486.25	423.64
486.43	414.27
486.61	402.57
486.78	421.30
486.96	423.64
487.14	421.30
487.32	437.68
487.50	390.87
487.68	407.25
487.85	430.66
488.03	442.36
488.21	383.85
488.39	407.25
488.57	454.06
488.75	430.66
488.92	528.96
489.10	390.87
489.28	524.28
489.46	435.34
489.64	423.64
489.81	458.74
489.99	454.06
490.17	418.96
490.35	449.38
490.53	341.72
490.70	397.89
490.88	416.62
491.06	404.91
491.24	365.12
491.41	330.02
491.59	433.00
491.77	447.04
491.95	425.98
492.13	404.91
492.30	435.34
492.48	397.89
492.66	379.17
492.84	404.91
493.01	386.19
493.19	428.32
493.37	470.45
493.54	367.46
493.72	407.25
493.90	360.44
494.08	362.78
494.25	456.40
494.43	468.11
494.61	400.23
494.79	381.51
494.96	416.62
495.14	423.64
495.32	423.64
495.49	440.02
495.67	409.59
495.85	386.19
496.02	404.91
496.20	414.27
496.38	353.42
496.55	388.53
496.73	500.87
496.91	409.59
497.09	428.32
497.26	390.87
497.44	407.25
497.62	409.59
497.79	416.62
497.97	327.68
498.14	456.40
498.32	414.27
498.50	498.53
498.67	454.06
498.85	423.64
499.03	369.80
499.20	465.77
499.38	451.72
499.56	411.93
499.73	411.93
499.91	430.66
500.08	489.17
500.26	437.68
500.44	414.27
500.61	461.09
500.79	402.57
500.97	433.00
501.14	486.83
501.32	381.51
501.49	435.34
501.67	451.72
501.84	449.38
502.02	388.53
502.20	440.02
502.37	351.08
502.55	372.15
502.72	402.57
502.90	470.45
503.07	447.04
503.25	461.09
503.43	433.00
503.60	428.32
503.78	454.06
503.95	465.77
504.13	395.55
504.30	393.21
504.48	428.32
504.65	479.81
504.83	430.66
505.01	390.87
505.18	454.06
505.36	400.23
505.53	470.45
505.71	433.00
505.88	400.23
506.06	451.72
506.23	421.30
506.41	374.49
506.58	472.79
506.76	414.27
506.93	397.89
507.11	472.79
507.28	442.36
507.46	365.12
507.63	372.15
507.81	402.57
507.98	430.66
508.16	393.21
508.33	362.78
508.50	444.70
508.68	433.00
508.85	442.36
509.03	482.15
509.20	409.59
509.38	458.74
509.55	475.13
509.73	423.64
509.90	433.00
510.08	468.11
510.25	428.32
510.42	390.87
510.60	404.91
510.77	411.93
510.95	435.34
511.12	468.11
511.30	493.85
511.47	447.04
511.64	355.76
511.82	407.25
511.99	374.49
512.17	383.85
512.34	395.55
512.51	456.40
512.69	388.53
512.86	451.72
513.04	390.87
513.21	470.45
513.38	414.27
513.56	341.72
513.73	411.93
513.90	400.23
514.08	472.79
514.25	484.49
514.43	428.32
514.60	367.46
514.77	393.21
514.95	428.32
515.12	327.68
515.29	428.32
515.47	414.27
515.64	433.00
515.81	379.17
515.99	395.55
516.16	456.40
516.33	402.57
516.51	397.89
516.68	465.77
516.85	425.98
517.03	414.27
517.20	425.98
517.37	376.83
517.54	411.93
517.72	465.77
517.89	379.17
518.06	388.53
518.24	475.13
518.41	465.77
518.58	442.36
518.75	376.83
518.93	458.74
519.10	421.30
519.27	418.96
519.45	393.21
519.62	376.83
519.79	397.89
519.96	418.96
520.14	395.55
520.31	423.64
520.48	486.83
520.65	409.59
520.83	421.30
521.00	421.30
521.17	411.93
521.34	468.11
521.52	461.09
521.69	440.02
521.86	369.80
522.03	423.64
522.20	498.53
522.38	414.27
522.55	458.74
522.72	383.85
522.89	327.68
523.07	479.81
523.24	409.59
523.41	383.85
523.58	388.53
523.75	320.65
523.92	365.12
524.10	433.00
524.27	458.74
524.44	447.04
524.61	449.38
524.78	482.15
524.96	423.64
525.13	428.32
525.30	421.30
525.47	425.98
525.64	376.83
525.81	393.21
525.98	393.21
526.16	332.36
526.33	372.15
526.50	477.47
526.67	430.66
526.84	400.23
527.01	397.89
527.18	423.64
527.36	379.17
527.53	376.83
527.70	451.72
527.87	381.51
528.04	454.06
528.21	318.31
528.38	379.17
528.55	423.64
528.72	421.30
528.89	496.19
529.07	390.87
529.24	409.59
529.41	409.59
529.58	437.68
529.75	402.57
529.92	390.87
530.09	475.13
530.26	486.83
530.43	423.64
530.60	444.70
530.77	416.62
530.94	428.32
531.11	442.36
531.28	458.74
531.46	369.80
531.63	428.32
531.80	353.42
531.97	449.38
532.14	416.62
532.31	465.77
532.48	379.17
532.65	456.40
532.82	372.15
532.99	482.15
533.16	454.06
533.33	465.77
533.50	442.36
533.67	423.64
533.84	395.55
534.01	402.57
534.18	409.59
534.35	407.25
534.52	435.34
534.69	353.42
534.86	367.46
535.03	411.93
535.20	444.70
535.37	397.89
535.54	433.00
535.71	339.38
535.88	447.04
536.05	332.36
536.22	393.21
536.38	435.34
536.55	425.98
536.72	512.58
536.89	334.70
537.06	418.96
537.23	449.38
537.40	383.85
537.57	418.96
537.74	505.56
537.91	423.64
538.08	393.21
538.25	440.02
538.42	376.83
538.59	365.12
538.75	482.15
538.92	421.30
539.09	428.32
539.26	381.51
539.43	346.40
539.60	397.89
539.77	402.57
539.94	365.12
540.11	383.85
540.28	334.70
540.44	365.12
540.61	454.06
540.78	454.06
540.95	400.23
541.12	454.06
541.29	379.17
541.46	472.79
541.62	430.66
541.79	456.40
541.96	409.59
542.13	390.87
542.30	397.89
542.47	395.55
542.63	400.23
542.80	402.57
542.97	379.17
543.14	393.21
543.31	400.23
543.48	433.00
543.64	458.74
543.81	447.04
543.98	440.02
544.15	416.62
544.32	421.30
544.48	416.62
544.65	440.02
544.82	372.15
544.99	376.83
545.16	416.62
545.32	423.64
545.49	430.66
545.66	456.40
545.83	390.87
546.00	444.70
546.16	390.87
546.33	435.34
546.50	339.38
546.67	482.15
546.83	400.23
547.00	351.08
547.17	414.27
547.34	416.62
547.50	486.83
547.67	472.79
547.84	369.80
548.00	379.17
548.17	351.08
548.34	435.34
548.51	447.04
548.67	414.27
548.84	390.87
549.01	386.19
549.18	418.96
549.34	397.89
549.51	465.77
549.68	374.49
549.84	449.38
550.01	388.53
550.18	435.34
550.34	496.19
550.51	397.89
550.68	437.68
550.84	454.06
551.01	421.30
551.18	421.30
551.34	407.25
551.51	409.59
551.68	416.62
551.84	440.02
552.01	414.27
552.18	425.98
552.34	381.51
552.51	393.21
552.68	376.83
552.84	437.68
553.01	397.89
553.18	425.98
553.34	348.74
553.51	369.80
553.67	433.00
553.84	472.79
554.01	463.43
554.17	344.06
554.34	447.04
554.51	447.04
554.67	456.40
554.84	461.09
555.00	393.21
555.17	386.19
555.33	482.15
555.50	425.98
555.67	407.25
555.83	400.23
556.00	416.62
556.16	543.00
556.33	388.53
556.50	376.83
556.66	418.96
556.83	369.80
556.99	463.43
557.16	444.70
557.32	425.98
557.49	411.93
557.65	407.25
557.82	381.51
557.98	489.17
558.15	416.62
558.32	479.81
558.48	344.06
558.65	404.91
558.81	440.02
558.98	442.36
559.14	470.45
559.31	468.11
559.47	447.04
559.64	472.79
559.80	472.79
559.97	414.27
560.13	374.49
560.30	386.19
560.46	369.80
560.63	465.77
560.79	442.36
560.96	423.64
561.12	393.21
561.29	346.40
561.45	402.57
561.61	451.72
561.78	479.81
561.94	395.55
562.11	400.23
562.27	447.04
562.44	381.51
562.60	414.27
562.77	362.78
562.93	456.40
563.10	381.51
563.26	421.30
563.42	425.98
563.59	395.55
563.75	404.91
563.92	430.66
564.08	444.70
564.24	437.68
564.41	449.38
564.57	421.30
564.74	468.11
564.90	458.74
565.07	418.96
565.23	416.62
565.39	423.64
565.56	353.42
565.72	379.17
565.88	355.76
566.05	414.27
566.21	404.91
566.38	468.11
566.54	430.66
566.70	416.62
566.87	456.40
567.03	421.30
567.19	407.25
567.36	404.91
567.52	372.15
567.68	395.55
567.85	444.70
568.01	381.51
568.17	425.98
568.34	416.62
568.50	433.00
568.66	353.42
568.83	540.66
568.99	393.21
569.15	414.27
569.32	458.74
569.48	421.30
569.64	458.74
569.81	428.32
569.97	430.66
570.13	465.77
570.30	383.85
570.46	461.09
570.62	491.51
570.78	435.34
570.95	433.00
571.11	477.47
571.27	517.26
571.43	388.53
571.60	425.98
571.76	372.15
571.92	404.91
572.09	442.36
572.25	393.21
572.41	461.09
572.57	465.77
572.74	416.62
572.90	454.06
573.06	414.27
573.22	496.19
573.38	437.68
573.55	433.00
573.71	407.25
573.87	463.43
574.03	414.27
574.20	367.46
574.36	447.04
574.52	451.72
574.68	358.10
574.84	484.49
575.01	332.36
575.17	414.27
575.33	393.21
575.49	442.36
575.65	411.93
575.82	454.06
575.98	423.64
576.14	500.87
576.30	386.19
576.46	397.89
576.62	430.66
576.79	418.96
576.95	456.40
577.11	367.46
577.27	409.59
577.43	486.83
577.59	498.53
577.75	367.46
577.92	435.34
578.08	397.89
578.24	404.91
578.40	435.34
578.56	479.81
578.72	423.64
578.88	435.34
579.04	285.55
579.21	428.32
579.37	505.56
579.53	418.96
579.69	447.04
579.85	374.49
580.01	437.68
580.17	430.66
580.33	435.34
580.49	442.36
580.65	447.04
580.82	430.66
580.98	421.30
581.14	433.00
581.30	409.59
581.46	362.78
581.62	421.30
581.78	435.34
581.94	369.80
582.10	411.93
582.26	397.89
582.42	428.32
582.58	397.89
582.74	430.66
582.90	407.25
583.06	397.89
583.22	397.89
583.38	374.49
583.54	414.27
583.70	381.51
583.86	390.87
584.02	421.30
584.18	423.64
584.34	355.76
584.50	444.70
584.66	463.43
584.82	344.06
584.98	449.38
585.14	425.98
585.30	510.24
585.46	379.17
585.62	393.21
585.78	402.57
585.94	428.32
586.10	409.59
586.26	393.21
586.42	440.02
586.58	463.43
586.74	451.72
586.90	409.59
587.06	435.34
587.22	449.38
587.38	470.45
587.54	393.21
587.70	437.68
587.86	390.87
588.02	479.81
588.18	435.34
588.34	409.59
588.49	437.68
588.65	397.89
588.81	393.21
588.97	414.27
589.13	475.13
589.29	393.21
589.45	433.00
589.61	395.55
589.77	400.23
589.93	423.64
590.08	395.55
590.24	437.68
590.40	421.30
590.56	454.06
590.72	531.30
590.88	379.17
591.04	477.47
591.20	411.93
591.35	386.19
591.51	348.74
591.67	367.46
591.83	285.55
591.99	374.49
592.15	435.34
592.31	463.43
592.46	430.66
592.62	416.62
592.78	421.30
592.94	337.04
593.10	414.27
593.26	421.30
593.41	524.28
593.57	430.66
593.73	440.02
593.89	400.23
594.05	400.23
594.20	433.00
594.36	379.17
594.52	423.64
594.68	402.57
594.84	388.53
594.99	416.62
595.15	475.13
595.31	454.06
595.47	482.15
595.62	423.64
595.78	444.70
595.94	325.33
596.10	428.32
596.25	409.59
596.41	411.93
596.57	428.32
596.73	440.02
596.88	470.45
597.04	388.53
597.20	421.30
597.36	381.51
597.51	491.51
597.67	444.70
597.83	437.68
597.99	407.25
598.14	437.68
598.30	383.85
598.46	414.27
598.61	414.27
598.77	442.36
598.93	430.66
599.09	402.57
599.24	458.74
599.40	428.32
599.56	440.02
599.71	428.32
599.87	456.40
600.03	379.17
600.18	393.21
600.34	465.77
600.50	381.51
600.65	437.68
600.81	400.23
600.97	315.97
601.12	409.59
601.28	411.93
601.44	390.87
601.59	400.23
601.75	454.06
601.91	463.43
602.06	400.23
602.22	533.64
602.37	435.34
602.53	433.00
602.69	365.12
602.84	393.21
603.00	444.70
603.16	411.93
603.31	376.83
603.47	421.30
603.62	416.62
603.78	327.68
603.94	470.45
604.09	458.74
604.25	472.79
604.40	390.87
604.56	430.66
604.71	442.36
604.87	435.34
605.03	386.19
605.18	395.55
605.34	470.45
605.49	360.44
605.65	393.21
605.80	404.91
605.96	411.93
606.12	433.00
606.27	470.45
606.43	479.81
606.58	416.62
606.74	454.06
606.89	479.81
607.05	437.68
607.20	397.89
607.36	425.98
607.51	386.19
607.67	425.98
607.82	468.11
607.98	470.45
608.13	397.89
608.29	447.04
608.44	355.76
608.60	411.93
608.75	503.22
608.91	489.17
609.06	425.98
609.22	454.06
609.37	393.21
609.53	379.17
609.68	463.43
609.84	407.25
609.99	346.40
610.15	362.78
