SpectraSuite Data File
++++++++++++++++++++++++++++++++++++
Date: Fri Oct 25 12:10:21 EDT 2013
User: price-jones
Dark Spectrum Present: No
Reference Spectrum Present: No
Number of Sampled Component Spectra: 1
Spectrometers: USB2+H05261
Integration Time (usec): 100000 (USB2+H05261)
Spectra Averaged: 1 (USB2+H05261)
Boxcar Smoothing: 0 (USB2+H05261)
Correct for Electrical Dark: No (USB2+H05261)
Strobe/Lamp Enabled: No (USB2+H05261)
Correct for Detector Non-linearity: No (USB2+H05261)
Correct for Stray Light: No (USB2+H05261)
Number of Pixels in Processed Spectrum: 2048
>>>>>Begin Processed Spectral Data<<<<<
365.73	367.46
365.92	367.46
366.12	367.46
366.32	266.82
366.52	262.14
366.72	234.05
366.91	210.65
367.11	262.14
367.31	166.18
367.51	266.82
367.70	229.37
367.90	248.10
368.10	229.37
368.30	280.86
368.49	252.78
368.69	276.18
368.89	313.63
369.09	168.52
369.28	264.48
369.48	238.73
369.68	238.73
369.87	374.49
370.07	334.70
370.27	318.31
370.47	315.97
370.66	355.76
370.86	299.59
371.06	341.72
371.25	395.55
371.45	332.36
371.65	360.44
371.84	351.08
372.04	454.06
372.24	414.27
372.44	423.64
372.63	358.10
372.83	409.59
373.03	330.02
373.22	444.70
373.42	463.43
373.62	451.72
373.81	454.06
374.01	341.72
374.21	486.83
374.40	425.98
374.60	407.25
374.79	491.51
374.99	458.74
375.19	454.06
375.38	414.27
375.58	454.06
375.78	395.55
375.97	428.32
376.17	505.56
376.37	390.87
376.56	468.11
376.76	397.89
376.95	479.81
377.15	374.49
377.35	407.25
377.54	393.21
377.74	358.10
377.93	421.30
378.13	379.17
378.33	395.55
378.52	348.74
378.72	390.87
378.91	418.96
379.11	376.83
379.31	430.66
379.50	404.91
379.70	430.66
379.89	470.45
380.09	444.70
380.28	358.10
380.48	344.06
380.68	442.36
380.87	425.98
381.07	358.10
381.26	376.83
381.46	351.08
381.65	386.19
381.85	379.17
382.04	381.51
382.24	337.04
382.43	379.17
382.63	360.44
382.83	402.57
383.02	428.32
383.22	315.97
383.41	365.12
383.61	428.32
383.80	418.96
384.00	454.06
384.19	493.85
384.39	386.19
384.58	393.21
384.78	355.76
384.97	395.55
385.17	425.98
385.36	400.23
385.56	456.40
385.75	386.19
385.95	404.91
386.14	458.74
386.34	404.91
386.53	374.49
386.72	435.34
386.92	444.70
387.11	414.27
387.31	430.66
387.50	388.53
387.70	400.23
387.89	404.91
388.09	395.55
388.28	407.25
388.48	404.91
388.67	414.27
388.86	479.81
389.06	355.76
389.25	362.78
389.45	362.78
389.64	437.68
389.84	402.57
390.03	437.68
390.22	400.23
390.42	383.85
390.61	447.04
390.81	388.53
391.00	414.27
391.19	472.79
391.39	458.74
391.58	414.27
391.78	360.44
391.97	400.23
392.16	395.55
392.36	475.13
392.55	440.02
392.75	367.46
392.94	397.89
393.13	376.83
393.33	407.25
393.52	390.87
393.71	430.66
393.91	442.36
394.10	400.23
394.29	395.55
394.49	334.70
394.68	367.46
394.88	416.62
395.07	456.40
395.26	418.96
395.46	430.66
395.65	402.57
395.84	491.51
396.04	409.59
396.23	416.62
396.42	407.25
396.62	449.38
396.81	430.66
397.00	388.53
397.19	421.30
397.39	428.32
397.58	430.66
397.77	395.55
397.97	381.51
398.16	344.06
398.35	346.40
398.55	456.40
398.74	383.85
398.93	414.27
399.12	414.27
399.32	435.34
399.51	393.21
399.70	470.45
399.90	423.64
400.09	404.91
400.28	475.13
400.47	402.57
400.67	428.32
400.86	435.34
401.05	421.30
401.24	414.27
401.44	381.51
401.63	411.93
401.82	390.87
402.01	390.87
402.21	451.72
402.40	353.42
402.59	379.17
402.78	425.98
402.97	442.36
403.17	477.47
403.36	435.34
403.55	362.78
403.74	320.65
403.93	362.78
404.13	388.53
404.32	442.36
404.51	418.96
404.70	393.21
404.89	393.21
405.09	458.74
405.28	374.49
405.47	428.32
405.66	367.46
405.85	386.19
406.05	365.12
406.24	402.57
406.43	423.64
406.62	304.27
406.81	421.30
407.00	397.89
407.20	346.40
407.39	362.78
407.58	411.93
407.77	360.44
407.96	383.85
408.15	425.98
408.34	346.40
408.54	414.27
408.73	400.23
408.92	411.93
409.11	397.89
409.30	379.17
409.49	374.49
409.68	423.64
409.87	461.09
410.07	449.38
410.26	421.30
410.45	416.62
410.64	458.74
410.83	409.59
411.02	358.10
411.21	390.87
411.40	435.34
411.59	383.85
411.78	369.80
411.98	393.21
412.17	404.91
412.36	433.00
412.55	388.53
412.74	449.38
412.93	418.96
413.12	416.62
413.31	423.64
413.50	507.90
413.69	451.72
413.88	407.25
414.07	440.02
414.26	362.78
414.45	386.19
414.64	409.59
414.83	339.38
415.02	376.83
415.22	388.53
415.41	348.74
415.60	383.85
415.79	372.15
415.98	472.79
416.17	402.57
416.36	404.91
416.55	404.91
416.74	461.09
416.93	395.55
417.12	397.89
417.31	428.32
417.50	498.53
417.69	411.93
417.88	435.34
418.07	393.21
418.26	416.62
418.45	416.62
418.64	454.06
418.83	374.49
419.02	404.91
419.21	395.55
419.39	433.00
419.58	404.91
419.77	362.78
419.96	465.77
420.15	498.53
420.34	489.17
420.53	477.47
420.72	379.17
420.91	339.38
421.10	447.04
421.29	433.00
421.48	437.68
421.67	449.38
421.86	353.42
422.05	397.89
422.24	376.83
422.43	381.51
422.61	458.74
422.80	411.93
422.99	423.64
423.18	411.93
423.37	421.30
423.56	407.25
423.75	416.62
423.94	339.38
424.13	388.53
424.32	383.85
424.50	348.74
424.69	428.32
424.88	482.15
425.07	449.38
425.26	353.42
425.45	416.62
425.64	428.32
425.83	372.15
426.01	510.24
426.20	397.89
426.39	456.40
426.58	346.40
426.77	327.68
426.96	393.21
427.15	379.17
427.33	442.36
427.52	411.93
427.71	379.17
427.90	383.85
428.09	489.17
428.28	444.70
428.46	430.66
428.65	444.70
428.84	411.93
429.03	463.43
429.22	388.53
429.40	355.76
429.59	376.83
429.78	472.79
429.97	433.00
430.16	397.89
430.34	428.32
430.53	348.74
430.72	433.00
430.91	444.70
431.10	468.11
431.28	402.57
431.47	486.83
431.66	411.93
431.85	400.23
432.03	351.08
432.22	421.30
432.41	341.72
432.60	423.64
432.79	404.91
432.97	393.21
433.16	395.55
433.35	381.51
433.54	400.23
433.72	414.27
433.91	425.98
434.10	423.64
434.28	353.42
434.47	393.21
434.66	442.36
434.85	411.93
435.03	374.49
435.22	414.27
435.41	442.36
435.59	390.87
435.78	423.64
435.97	306.61
436.16	416.62
436.34	418.96
436.53	433.00
436.72	388.53
436.90	414.27
437.09	402.57
437.28	351.08
437.46	442.36
437.65	433.00
437.84	322.99
438.02	400.23
438.21	440.02
438.40	402.57
438.58	409.59
438.77	386.19
438.96	423.64
439.14	379.17
439.33	369.80
439.52	379.17
439.70	383.85
439.89	423.64
440.08	414.27
440.26	374.49
440.45	416.62
440.63	437.68
440.82	425.98
441.01	374.49
441.19	418.96
441.38	365.12
441.57	397.89
441.75	404.91
441.94	440.02
442.12	355.76
442.31	365.12
442.50	423.64
442.68	351.08
442.87	348.74
443.05	444.70
443.24	388.53
443.43	465.77
443.61	428.32
443.80	477.47
443.98	407.25
444.17	447.04
444.35	451.72
444.54	421.30
444.73	418.96
444.91	524.28
445.10	367.46
445.28	411.93
445.47	397.89
445.65	456.40
445.84	425.98
446.02	416.62
446.21	379.17
446.39	447.04
446.58	423.64
446.77	465.77
446.95	437.68
447.14	372.15
447.32	447.04
447.51	372.15
447.69	418.96
447.88	402.57
448.06	447.04
448.25	465.77
448.43	388.53
448.62	390.87
448.80	465.77
448.99	362.78
449.17	409.59
449.36	372.15
449.54	414.27
449.73	414.27
449.91	421.30
450.10	383.85
450.28	421.30
450.46	456.40
450.65	411.93
450.83	458.74
451.02	451.72
451.20	416.62
451.39	383.85
451.57	416.62
451.76	379.17
451.94	433.00
452.13	344.06
452.31	449.38
452.49	414.27
452.68	395.55
452.86	400.23
453.05	482.15
453.23	376.83
453.42	418.96
453.60	355.76
453.78	407.25
453.97	425.98
454.15	421.30
454.34	404.91
454.52	433.00
454.70	442.36
454.89	400.23
455.07	421.30
455.26	463.43
455.44	503.22
455.62	442.36
455.81	421.30
455.99	475.13
456.17	444.70
456.36	379.17
456.54	414.27
456.73	397.89
456.91	400.23
457.09	393.21
457.28	444.70
457.46	456.40
457.64	437.68
457.83	423.64
458.01	421.30
458.19	351.08
458.38	423.64
458.56	404.91
458.74	456.40
458.93	416.62
459.11	393.21
459.29	402.57
459.48	379.17
459.66	369.80
459.84	454.06
460.03	402.57
460.21	383.85
460.39	470.45
460.57	362.78
460.76	344.06
460.94	416.62
461.12	433.00
461.31	414.27
461.49	346.40
461.67	418.96
461.85	425.98
462.04	414.27
462.22	800.46
462.40	454.06
462.59	444.70
462.77	393.21
462.95	435.34
463.13	470.45
463.32	414.27
463.50	472.79
463.68	404.91
463.86	416.62
464.05	418.96
464.23	421.30
464.41	510.24
464.59	411.93
464.78	395.55
464.96	355.76
465.14	393.21
465.32	400.23
465.50	437.68
465.69	383.85
465.87	397.89
466.05	346.40
466.23	374.49
466.41	381.51
466.60	355.76
466.78	503.22
466.96	414.27
467.14	451.72
467.32	430.66
467.51	358.10
467.69	433.00
467.87	433.00
468.05	430.66
468.23	505.56
468.41	411.93
468.60	428.32
468.78	393.21
468.96	430.66
469.14	376.83
469.32	402.57
469.50	409.59
469.69	489.17
469.87	435.34
470.05	428.32
470.23	496.19
470.41	416.62
470.59	416.62
470.77	428.32
470.95	454.06
471.14	449.38
471.32	444.70
471.50	458.74
471.68	440.02
471.86	395.55
472.04	425.98
472.22	465.77
472.40	421.30
472.58	437.68
472.77	435.34
472.95	353.42
473.13	444.70
473.31	433.00
473.49	433.00
473.67	393.21
473.85	409.59
474.03	458.74
474.21	418.96
474.39	341.72
474.57	397.89
474.75	414.27
474.93	379.17
475.12	369.80
475.30	425.98
475.48	416.62
475.66	407.25
475.84	365.12
476.02	374.49
476.20	404.91
476.38	404.91
476.56	484.49
476.74	425.98
476.92	383.85
477.10	353.42
477.28	461.09
477.46	376.83
477.64	395.55
477.82	428.32
478.00	440.02
478.18	339.38
478.36	411.93
478.54	411.93
478.72	435.34
478.90	339.38
479.08	407.25
479.26	423.64
479.44	374.49
479.62	390.87
479.80	430.66
479.98	379.17
480.16	351.08
480.34	379.17
480.52	404.91
480.70	381.51
480.88	425.98
481.06	458.74
481.24	442.36
481.41	421.30
481.59	421.30
481.77	386.19
481.95	414.27
482.13	447.04
482.31	423.64
482.49	425.98
482.67	397.89
482.85	430.66
483.03	381.51
483.21	409.59
483.39	351.08
483.57	472.79
483.74	423.64
483.92	397.89
484.10	353.42
484.28	454.06
484.46	444.70
484.64	444.70
484.82	397.89
485.00	367.46
485.18	454.06
485.35	407.25
485.53	390.87
485.71	416.62
485.89	409.59
486.07	383.85
486.25	447.04
486.43	435.34
486.61	402.57
486.78	416.62
486.96	397.89
487.14	423.64
487.32	461.09
487.50	442.36
487.68	390.87
487.85	489.17
488.03	414.27
488.21	411.93
488.39	430.66
488.57	442.36
488.75	395.55
488.92	454.06
489.10	468.11
489.28	447.04
489.46	430.66
489.64	400.23
489.81	407.25
489.99	461.09
490.17	437.68
490.35	470.45
490.53	461.09
490.70	414.27
490.88	435.34
491.06	355.76
491.24	418.96
491.41	463.43
491.59	414.27
491.77	414.27
491.95	475.13
492.13	404.91
492.30	435.34
492.48	430.66
492.66	383.85
492.84	407.25
493.01	421.30
493.19	437.68
493.37	440.02
493.54	360.44
493.72	374.49
493.90	376.83
494.08	397.89
494.25	414.27
494.43	353.42
494.61	402.57
494.79	341.72
494.96	449.38
495.14	498.53
495.32	360.44
495.49	475.13
495.67	390.87
495.85	386.19
496.02	433.00
496.20	411.93
496.38	447.04
496.55	404.91
496.73	421.30
496.91	447.04
497.09	421.30
497.26	414.27
497.44	442.36
497.62	344.06
497.79	428.32
497.97	465.77
498.14	503.22
498.32	421.30
498.50	411.93
498.67	407.25
498.85	397.89
499.03	362.78
499.20	416.62
499.38	407.25
499.56	383.85
499.73	444.70
499.91	393.21
500.08	435.34
500.26	407.25
500.44	397.89
500.61	416.62
500.79	397.89
500.97	390.87
501.14	456.40
501.32	470.45
501.49	477.47
501.67	397.89
501.84	428.32
502.02	388.53
502.20	400.23
502.37	402.57
502.55	381.51
502.72	468.11
502.90	435.34
503.07	507.90
503.25	482.15
503.43	381.51
503.60	355.76
503.78	486.83
503.95	400.23
504.13	449.38
504.30	458.74
504.48	475.13
504.65	449.38
504.83	496.19
505.01	346.40
505.18	393.21
505.36	337.04
505.53	442.36
505.71	433.00
505.88	440.02
506.06	425.98
506.23	433.00
506.41	470.45
506.58	400.23
506.76	498.53
506.93	355.76
507.11	442.36
507.28	418.96
507.46	430.66
507.63	337.04
507.81	388.53
507.98	367.46
508.16	362.78
508.33	409.59
508.50	404.91
508.68	482.15
508.85	440.02
509.03	454.06
509.20	430.66
509.38	362.78
509.55	435.34
509.73	423.64
509.90	437.68
510.08	411.93
510.25	428.32
510.42	416.62
510.60	360.44
510.77	416.62
510.95	440.02
511.12	423.64
511.30	430.66
511.47	381.51
511.64	477.47
511.82	440.02
511.99	440.02
512.17	360.44
512.34	395.55
512.51	393.21
512.69	386.19
512.86	397.89
513.04	423.64
513.21	374.49
513.38	442.36
513.56	344.06
513.73	428.32
513.90	407.25
514.08	395.55
514.25	418.96
514.43	369.80
514.60	395.55
514.77	386.19
514.95	425.98
515.12	433.00
515.29	456.40
515.47	423.64
515.64	433.00
515.81	435.34
515.99	451.72
516.16	421.30
516.33	376.83
516.51	411.93
516.68	376.83
516.85	397.89
517.03	388.53
517.20	454.06
517.37	390.87
517.54	479.81
517.72	409.59
517.89	442.36
518.06	393.21
518.24	472.79
518.41	421.30
518.58	346.40
518.75	395.55
518.93	372.15
519.10	365.12
519.27	409.59
519.45	381.51
519.62	440.02
519.79	423.64
519.96	386.19
520.14	344.06
520.31	484.49
520.48	416.62
520.65	447.04
520.83	449.38
521.00	418.96
521.17	355.76
521.34	416.62
521.52	430.66
521.69	425.98
521.86	472.79
522.03	507.90
522.20	470.45
522.38	379.17
522.55	433.00
522.72	461.09
522.89	428.32
523.07	407.25
523.24	386.19
523.41	400.23
523.58	395.55
523.75	386.19
523.92	435.34
524.10	374.49
524.27	400.23
524.44	479.81
524.61	493.85
524.78	447.04
524.96	428.32
525.13	421.30
525.30	411.93
525.47	447.04
525.64	447.04
525.81	348.74
525.98	407.25
526.16	400.23
526.33	402.57
526.50	411.93
526.67	390.87
526.84	454.06
527.01	374.49
527.18	400.23
527.36	360.44
527.53	390.87
527.70	475.13
527.87	395.55
528.04	388.53
528.21	402.57
528.38	379.17
528.55	386.19
528.72	402.57
528.89	425.98
529.07	407.25
529.24	430.66
529.41	428.32
529.58	428.32
529.75	409.59
529.92	402.57
530.09	353.42
530.26	402.57
530.43	428.32
530.60	367.46
530.77	395.55
530.94	404.91
531.11	430.66
531.28	414.27
531.46	425.98
531.63	383.85
531.80	376.83
531.97	374.49
532.14	414.27
532.31	440.02
532.48	372.15
532.65	395.55
532.82	407.25
532.99	414.27
533.16	440.02
533.33	470.45
533.50	383.85
533.67	393.21
533.84	437.68
534.01	428.32
534.18	369.80
534.35	489.17
534.52	458.74
534.69	468.11
534.86	475.13
535.03	435.34
535.20	397.89
535.37	360.44
535.54	423.64
535.71	461.09
535.88	409.59
536.05	388.53
536.22	404.91
536.38	411.93
536.55	433.00
536.72	442.36
536.89	327.68
537.06	430.66
537.23	421.30
537.40	425.98
537.57	411.93
537.74	451.72
537.91	367.46
538.08	433.00
538.25	411.93
538.42	435.34
538.59	428.32
538.75	440.02
538.92	472.79
539.09	507.90
539.26	461.09
539.43	416.62
539.60	409.59
539.77	465.77
539.94	411.93
540.11	451.72
540.28	465.77
540.44	454.06
540.61	358.10
540.78	425.98
540.95	463.43
541.12	463.43
541.29	456.40
541.46	454.06
541.62	433.00
541.79	390.87
541.96	395.55
542.13	404.91
542.30	456.40
542.47	444.70
542.63	428.32
542.80	414.27
542.97	512.58
543.14	418.96
543.31	414.27
543.48	407.25
543.64	475.13
543.81	421.30
543.98	505.56
544.15	365.12
544.32	461.09
544.48	404.91
544.65	407.25
544.82	461.09
544.99	458.74
545.16	379.17
545.32	369.80
545.49	418.96
545.66	395.55
545.83	395.55
546.00	393.21
546.16	386.19
546.33	411.93
546.50	465.77
546.67	437.68
546.83	437.68
547.00	348.74
547.17	430.66
547.34	470.45
547.50	484.49
547.67	421.30
547.84	372.15
548.00	442.36
548.17	442.36
548.34	400.23
548.51	519.60
548.67	409.59
548.84	362.78
549.01	428.32
549.18	491.51
549.34	397.89
549.51	360.44
549.68	428.32
549.84	500.87
550.01	409.59
550.18	479.81
550.34	458.74
550.51	425.98
550.68	514.92
550.84	461.09
551.01	397.89
551.18	418.96
551.34	409.59
551.51	444.70
551.68	362.78
551.84	355.76
552.01	369.80
552.18	463.43
552.34	416.62
552.51	369.80
552.68	437.68
552.84	447.04
553.01	423.64
553.18	433.00
553.34	402.57
553.51	372.15
553.67	454.06
553.84	505.56
554.01	397.89
554.17	411.93
554.34	374.49
554.51	472.79
554.67	444.70
554.84	507.90
555.00	341.72
555.17	400.23
555.33	388.53
555.50	407.25
555.67	409.59
555.83	344.06
556.00	383.85
556.16	472.79
556.33	444.70
556.50	447.04
556.66	407.25
556.83	433.00
556.99	416.62
557.16	381.51
557.32	386.19
557.49	421.30
557.65	341.72
557.82	414.27
557.98	397.89
558.15	379.17
558.32	416.62
558.48	416.62
558.65	365.12
558.81	435.34
558.98	444.70
559.14	437.68
559.31	388.53
559.47	442.36
559.64	365.12
559.80	416.62
559.97	402.57
560.13	447.04
560.30	369.80
560.46	388.53
560.63	372.15
560.79	339.38
560.96	447.04
561.12	416.62
561.29	379.17
561.45	437.68
561.61	435.34
561.78	463.43
561.94	355.76
562.11	421.30
562.27	425.98
562.44	463.43
562.60	388.53
562.77	454.06
562.93	503.22
563.10	463.43
563.26	367.46
563.42	402.57
563.59	437.68
563.75	482.15
563.92	493.85
564.08	475.13
564.24	409.59
564.41	421.30
564.57	358.10
564.74	397.89
564.90	442.36
565.07	454.06
565.23	461.09
565.39	402.57
565.56	402.57
565.72	447.04
565.88	330.02
566.05	437.68
566.21	433.00
566.38	498.53
566.54	451.72
566.70	404.91
566.87	407.25
567.03	339.38
567.19	440.02
567.36	477.47
567.52	442.36
567.68	444.70
567.85	500.87
568.01	475.13
568.17	430.66
568.34	409.59
568.50	498.53
568.66	425.98
568.83	411.93
568.99	376.83
569.15	435.34
569.32	376.83
569.48	404.91
569.64	376.83
569.81	414.27
569.97	409.59
570.13	433.00
570.30	367.46
570.46	463.43
570.62	348.74
570.78	447.04
570.95	301.93
571.11	477.47
571.27	407.25
571.43	346.40
571.60	423.64
571.76	421.30
571.92	388.53
572.09	433.00
572.25	395.55
572.41	428.32
572.57	475.13
572.74	397.89
572.90	484.49
573.06	381.51
573.22	395.55
573.38	425.98
573.55	437.68
573.71	489.17
573.87	381.51
574.03	395.55
574.20	414.27
574.36	512.58
574.52	400.23
574.68	395.55
574.84	388.53
575.01	435.34
575.17	482.15
575.33	423.64
575.49	430.66
575.65	388.53
575.82	376.83
575.98	404.91
576.14	430.66
576.30	397.89
576.46	456.40
576.62	421.30
576.79	311.29
576.95	486.83
577.11	458.74
577.27	351.08
577.43	437.68
577.59	454.06
577.75	337.04
577.92	351.08
578.08	395.55
578.24	442.36
578.40	421.30
578.56	486.83
578.72	440.02
578.88	454.06
579.04	381.51
579.21	465.77
579.37	444.70
579.53	482.15
579.69	440.02
579.85	411.93
580.01	386.19
580.17	423.64
580.33	442.36
580.49	486.83
580.65	423.64
580.82	374.49
580.98	421.30
581.14	486.83
581.30	435.34
581.46	379.17
581.62	379.17
581.78	470.45
581.94	374.49
582.10	358.10
582.26	395.55
582.42	390.87
582.58	470.45
582.74	428.32
582.90	465.77
583.06	404.91
583.22	428.32
583.38	437.68
583.54	444.70
583.70	376.83
583.86	360.44
584.02	386.19
584.18	442.36
584.34	400.23
584.50	334.70
584.66	411.93
584.82	362.78
584.98	409.59
585.14	414.27
585.30	379.17
585.46	344.06
585.62	379.17
585.78	325.33
585.94	435.34
586.10	337.04
586.26	425.98
586.42	475.13
586.58	402.57
586.74	437.68
586.90	386.19
587.06	397.89
587.22	435.34
587.38	449.38
587.54	442.36
587.70	416.62
587.86	421.30
588.02	447.04
588.18	409.59
588.34	421.30
588.49	414.27
588.65	505.56
588.81	454.06
588.97	376.83
589.13	407.25
589.29	393.21
589.45	489.17
589.61	353.42
589.77	390.87
589.93	383.85
590.08	360.44
590.24	435.34
590.40	477.47
590.56	433.00
590.72	411.93
590.88	451.72
591.04	461.09
591.20	407.25
591.35	491.51
591.51	458.74
591.67	433.00
591.83	500.87
591.99	404.91
592.15	418.96
592.31	390.87
592.46	418.96
592.62	430.66
592.78	454.06
592.94	374.49
593.10	456.40
593.26	442.36
593.41	418.96
593.57	360.44
593.73	444.70
593.89	475.13
594.05	444.70
594.20	374.49
594.36	383.85
594.52	449.38
594.68	362.78
594.84	458.74
594.99	479.81
595.15	390.87
595.31	425.98
595.47	454.06
595.62	369.80
595.78	404.91
595.94	409.59
596.10	449.38
596.25	332.36
596.41	397.89
596.57	365.12
596.73	372.15
596.88	423.64
597.04	444.70
597.20	425.98
597.36	442.36
597.51	433.00
597.67	332.36
597.83	407.25
597.99	400.23
598.14	416.62
598.30	428.32
598.46	367.46
598.61	451.72
598.77	444.70
598.93	428.32
599.09	449.38
599.24	423.64
599.40	388.53
599.56	442.36
599.71	379.17
599.87	379.17
600.03	451.72
600.18	423.64
600.34	447.04
600.50	416.62
600.65	468.11
600.81	423.64
600.97	383.85
601.12	475.13
601.28	423.64
601.44	372.15
601.59	330.02
601.75	376.83
601.91	365.12
602.06	407.25
602.22	421.30
602.37	430.66
602.53	451.72
602.69	428.32
602.84	322.99
603.00	360.44
603.16	437.68
603.31	458.74
603.47	395.55
603.62	428.32
603.78	472.79
603.94	524.28
604.09	395.55
604.25	409.59
604.40	442.36
604.56	353.42
604.71	503.22
604.87	414.27
605.03	430.66
605.18	397.89
605.34	528.96
605.49	379.17
605.65	383.85
605.80	397.89
605.96	374.49
606.12	418.96
606.27	458.74
606.43	322.99
606.58	386.19
606.74	449.38
606.89	362.78
607.05	461.09
607.20	381.51
607.36	423.64
607.51	421.30
607.67	423.64
607.82	484.49
607.98	400.23
608.13	421.30
608.29	423.64
608.44	418.96
608.60	395.55
608.75	388.53
608.91	400.23
609.06	449.38
609.22	470.45
609.37	440.02
609.53	358.10
609.68	400.23
609.84	402.57
609.99	395.55
610.15	463.43
