SpectraSuite Data File
++++++++++++++++++++++++++++++++++++
Date: Fri Oct 25 12:10:46 EDT 2013
User: price-jones
Dark Spectrum Present: No
Reference Spectrum Present: No
Number of Sampled Component Spectra: 1
Spectrometers: USB2+H05261
Integration Time (usec): 100000 (USB2+H05261)
Spectra Averaged: 1 (USB2+H05261)
Boxcar Smoothing: 0 (USB2+H05261)
Correct for Electrical Dark: No (USB2+H05261)
Strobe/Lamp Enabled: No (USB2+H05261)
Correct for Detector Non-linearity: No (USB2+H05261)
Correct for Stray Light: No (USB2+H05261)
Number of Pixels in Processed Spectrum: 2048
>>>>>Begin Processed Spectral Data<<<<<
365.73	278.52
365.92	278.52
366.12	278.52
366.32	313.63
366.52	285.55
366.72	292.57
366.91	264.48
367.11	191.92
367.31	262.14
367.51	257.46
367.70	278.52
367.90	248.10
368.10	227.03
368.30	245.76
368.49	231.71
368.69	215.33
368.89	283.20
369.09	241.08
369.28	278.52
369.48	297.25
369.68	351.08
369.87	248.10
370.07	266.82
370.27	318.31
370.47	332.36
370.66	308.95
370.86	325.33
371.06	337.04
371.25	369.80
371.45	425.98
371.65	367.46
371.84	334.70
372.04	376.83
372.24	402.57
372.44	425.98
372.63	411.93
372.83	454.06
373.03	351.08
373.22	404.91
373.42	454.06
373.62	362.78
373.81	421.30
374.01	435.34
374.21	393.21
374.40	400.23
374.60	505.56
374.79	416.62
374.99	374.49
375.19	430.66
375.38	383.85
375.58	376.83
375.78	428.32
375.97	421.30
376.17	442.36
376.37	418.96
376.56	416.62
376.76	411.93
376.95	409.59
377.15	458.74
377.35	311.29
377.54	454.06
377.74	353.42
377.93	362.78
378.13	416.62
378.33	444.70
378.52	423.64
378.72	433.00
378.91	397.89
379.11	430.66
379.31	339.38
379.50	400.23
379.70	395.55
379.89	442.36
380.09	376.83
380.28	433.00
380.48	400.23
380.68	390.87
380.87	430.66
381.07	409.59
381.26	379.17
381.46	393.21
381.65	414.27
381.85	409.59
382.04	383.85
382.24	421.30
382.43	360.44
382.63	313.63
382.83	325.33
383.02	397.89
383.22	458.74
383.41	407.25
383.61	463.43
383.80	447.04
384.00	477.47
384.19	334.70
384.39	407.25
384.58	402.57
384.78	402.57
384.97	367.46
385.17	463.43
385.36	360.44
385.56	407.25
385.75	388.53
385.95	404.91
386.14	444.70
386.34	407.25
386.53	388.53
386.72	421.30
386.92	435.34
387.11	369.80
387.31	400.23
387.50	425.98
387.70	418.96
387.89	404.91
388.09	360.44
388.28	404.91
388.48	416.62
388.67	435.34
388.86	365.12
389.06	386.19
389.25	341.72
389.45	411.93
389.64	409.59
389.84	461.09
390.03	472.79
390.22	393.21
390.42	337.04
390.61	414.27
390.81	353.42
391.00	414.27
391.19	372.15
391.39	433.00
391.58	475.13
391.78	421.30
391.97	395.55
392.16	374.49
392.36	411.93
392.55	351.08
392.75	383.85
392.94	397.89
393.13	407.25
393.33	362.78
393.52	360.44
393.71	425.98
393.91	416.62
394.10	437.68
394.29	449.38
394.49	407.25
394.68	381.51
394.88	484.49
395.07	442.36
395.26	355.76
395.46	409.59
395.65	423.64
395.84	418.96
396.04	524.28
396.23	402.57
396.42	372.15
396.62	425.98
396.81	437.68
397.00	407.25
397.19	421.30
397.39	383.85
397.58	454.06
397.77	442.36
397.97	386.19
398.16	400.23
398.35	430.66
398.55	425.98
398.74	447.04
398.93	491.51
399.12	344.06
399.32	451.72
399.51	414.27
399.70	444.70
399.90	404.91
400.09	461.09
400.28	404.91
400.47	423.64
400.67	423.64
400.86	470.45
401.05	418.96
401.24	376.83
401.44	414.27
401.63	449.38
401.82	425.98
402.01	437.68
402.21	482.15
402.40	407.25
402.59	489.17
402.78	435.34
402.97	402.57
403.17	409.59
403.36	425.98
403.55	348.74
403.74	358.10
403.93	381.51
404.13	479.81
404.32	477.47
404.51	360.44
404.70	428.32
404.89	449.38
405.09	465.77
405.28	393.21
405.47	369.80
405.66	428.32
405.85	397.89
406.05	454.06
406.24	372.15
406.43	348.74
406.62	407.25
406.81	425.98
407.00	428.32
407.20	421.30
407.39	402.57
407.58	428.32
407.77	395.55
407.96	447.04
408.15	353.42
408.34	411.93
408.54	402.57
408.73	507.90
408.92	381.51
409.11	355.76
409.30	430.66
409.49	451.72
409.68	411.93
409.87	428.32
410.07	418.96
410.26	418.96
410.45	418.96
410.64	451.72
410.83	411.93
411.02	395.55
411.21	440.02
411.40	458.74
411.59	409.59
411.78	362.78
411.98	376.83
412.17	456.40
412.36	414.27
412.55	437.68
412.74	402.57
412.93	442.36
413.12	433.00
413.31	421.30
413.50	404.91
413.69	444.70
413.88	365.12
414.07	358.10
414.26	404.91
414.45	400.23
414.64	418.96
414.83	416.62
415.02	411.93
415.22	367.46
415.41	400.23
415.60	433.00
415.79	346.40
415.98	386.19
416.17	348.74
416.36	376.83
416.55	355.76
416.74	372.15
416.93	386.19
417.12	360.44
417.31	379.17
417.50	500.87
417.69	470.45
417.88	341.72
418.07	428.32
418.26	360.44
418.45	390.87
418.64	444.70
418.83	395.55
419.02	365.12
419.21	374.49
419.39	404.91
419.58	418.96
419.77	437.68
419.96	407.25
420.15	444.70
420.34	355.76
420.53	437.68
420.72	395.55
420.91	409.59
421.10	423.64
421.29	447.04
421.48	421.30
421.67	442.36
421.86	411.93
422.05	425.98
422.24	393.21
422.43	409.59
422.61	369.80
422.80	454.06
422.99	367.46
423.18	444.70
423.37	479.81
423.56	461.09
423.75	440.02
423.94	428.32
424.13	458.74
424.32	447.04
424.50	400.23
424.69	339.38
424.88	404.91
425.07	440.02
425.26	512.58
425.45	447.04
425.64	437.68
425.83	327.68
426.01	440.02
426.20	411.93
426.39	362.78
426.58	437.68
426.77	465.77
426.96	449.38
427.15	433.00
427.33	433.00
427.52	360.44
427.71	454.06
427.90	400.23
428.09	355.76
428.28	449.38
428.46	383.85
428.65	372.15
428.84	388.53
429.03	433.00
429.22	444.70
429.40	400.23
429.59	320.65
429.78	414.27
429.97	374.49
430.16	418.96
430.34	416.62
430.53	369.80
430.72	376.83
430.91	447.04
431.10	355.76
431.28	433.00
431.47	369.80
431.66	421.30
431.85	386.19
432.03	348.74
432.22	472.79
432.41	442.36
432.60	425.98
432.79	374.49
432.97	479.81
433.16	386.19
433.35	430.66
433.54	388.53
433.72	416.62
433.91	484.49
434.10	397.89
434.28	404.91
434.47	411.93
434.66	346.40
434.85	372.15
435.03	423.64
435.22	418.96
435.41	390.87
435.59	407.25
435.78	409.59
435.97	430.66
436.16	325.33
436.34	367.46
436.53	433.00
436.72	442.36
436.90	404.91
437.09	433.00
437.28	407.25
437.46	400.23
437.65	437.68
437.84	442.36
438.02	416.62
438.21	491.51
438.40	402.57
438.58	435.34
438.77	440.02
438.96	395.55
439.14	395.55
439.33	390.87
439.52	346.40
439.70	447.04
439.89	388.53
440.08	414.27
440.26	395.55
440.45	397.89
440.63	458.74
440.82	360.44
441.01	414.27
441.19	440.02
441.38	433.00
441.57	355.76
441.75	388.53
441.94	428.32
442.12	477.47
442.31	376.83
442.50	437.68
442.68	400.23
442.87	407.25
443.05	400.23
443.24	383.85
443.43	409.59
443.61	456.40
443.80	423.64
443.98	360.44
444.17	444.70
444.35	376.83
444.54	409.59
444.73	428.32
444.91	449.38
445.10	407.25
445.28	425.98
445.47	470.45
445.65	365.12
445.84	458.74
446.02	449.38
446.21	360.44
446.39	397.89
446.58	351.08
446.77	388.53
446.95	484.49
447.14	362.78
447.32	449.38
447.51	493.85
447.69	355.76
447.88	411.93
448.06	442.36
448.25	437.68
448.43	425.98
448.62	397.89
448.80	372.15
448.99	379.17
449.17	381.51
449.36	421.30
449.54	416.62
449.73	397.89
449.91	411.93
450.10	491.51
450.28	433.00
450.46	430.66
450.65	444.70
450.83	421.30
451.02	425.98
451.20	463.43
451.39	486.83
451.57	423.64
451.76	355.76
451.94	393.21
452.13	400.23
452.31	402.57
452.49	418.96
452.68	414.27
452.86	416.62
453.05	442.36
453.23	416.62
453.42	388.53
453.60	451.72
453.78	369.80
453.97	393.21
454.15	383.85
454.34	411.93
454.52	409.59
454.70	390.87
454.89	409.59
455.07	491.51
455.26	383.85
455.44	489.17
455.62	463.43
455.81	407.25
455.99	365.12
456.17	348.74
456.36	447.04
456.54	414.27
456.73	463.43
456.91	475.13
457.09	433.00
457.28	514.92
457.46	418.96
457.64	404.91
457.83	351.08
458.01	416.62
458.19	383.85
458.38	372.15
458.56	433.00
458.74	425.98
458.93	461.09
459.11	416.62
459.29	468.11
459.48	395.55
459.66	428.32
459.84	404.91
460.03	430.66
460.21	372.15
460.39	414.27
460.57	374.49
460.76	451.72
460.94	404.91
461.12	416.62
461.31	489.17
461.49	400.23
461.67	383.85
461.85	409.59
462.04	454.06
462.22	751.31
462.40	484.49
462.59	400.23
462.77	372.15
462.95	365.12
463.13	423.64
463.32	388.53
463.50	407.25
463.68	409.59
463.86	442.36
464.05	470.45
464.23	404.91
464.41	400.23
464.59	416.62
464.78	463.43
464.96	414.27
465.14	407.25
465.32	404.91
465.50	393.21
465.69	437.68
465.87	337.04
466.05	477.47
466.23	454.06
466.41	388.53
466.60	376.83
466.78	442.36
466.96	425.98
467.14	421.30
467.32	461.09
467.51	404.91
467.69	428.32
467.87	437.68
468.05	379.17
468.23	517.26
468.41	418.96
468.60	416.62
468.78	430.66
468.96	404.91
469.14	458.74
469.32	465.77
469.50	360.44
469.69	400.23
469.87	425.98
470.05	383.85
470.23	353.42
470.41	407.25
470.59	400.23
470.77	407.25
470.95	440.02
471.14	381.51
471.32	374.49
471.50	425.98
471.68	456.40
471.86	372.15
472.04	437.68
472.22	416.62
472.40	517.26
472.58	348.74
472.77	383.85
472.95	444.70
473.13	447.04
473.31	407.25
473.49	414.27
473.67	395.55
473.85	402.57
474.03	433.00
474.21	418.96
474.39	416.62
474.57	423.64
474.75	458.74
474.93	423.64
475.12	376.83
475.30	482.15
475.48	435.34
475.66	388.53
475.84	435.34
476.02	421.30
476.20	353.42
476.38	425.98
476.56	416.62
476.74	430.66
476.92	470.45
477.10	454.06
477.28	449.38
477.46	421.30
477.64	444.70
477.82	465.77
478.00	428.32
478.18	337.04
478.36	475.13
478.54	402.57
478.72	510.24
478.90	477.47
479.08	456.40
479.26	425.98
479.44	421.30
479.62	433.00
479.80	468.11
479.98	449.38
480.16	402.57
480.34	423.64
480.52	400.23
480.70	416.62
480.88	416.62
481.06	425.98
481.24	430.66
481.41	435.34
481.59	395.55
481.77	440.02
481.95	456.40
482.13	404.91
482.31	421.30
482.49	376.83
482.67	477.47
482.85	451.72
483.03	416.62
483.21	374.49
483.39	346.40
483.57	411.93
483.74	400.23
483.92	423.64
484.10	442.36
484.28	437.68
484.46	463.43
484.64	393.21
484.82	409.59
485.00	360.44
485.18	444.70
485.35	346.40
485.53	411.93
485.71	454.06
485.89	390.87
486.07	409.59
486.25	444.70
486.43	463.43
486.61	514.92
486.78	514.92
486.96	430.66
487.14	472.79
487.32	451.72
487.50	430.66
487.68	407.25
487.85	374.49
488.03	463.43
488.21	451.72
488.39	425.98
488.57	468.11
488.75	475.13
488.92	575.77
489.10	428.32
489.28	493.85
489.46	411.93
489.64	465.77
489.81	421.30
489.99	428.32
490.17	409.59
490.35	498.53
490.53	337.04
490.70	421.30
490.88	416.62
491.06	383.85
491.24	454.06
491.41	456.40
491.59	482.15
491.77	397.89
491.95	388.53
492.13	358.10
492.30	402.57
492.48	395.55
492.66	479.81
492.84	430.66
493.01	433.00
493.19	447.04
493.37	444.70
493.54	458.74
493.72	489.17
493.90	362.78
494.08	447.04
494.25	444.70
494.43	451.72
494.61	409.59
494.79	381.51
494.96	407.25
495.14	447.04
495.32	409.59
495.49	383.85
495.67	372.15
495.85	404.91
496.02	393.21
496.20	475.13
496.38	440.02
496.55	435.34
496.73	390.87
496.91	395.55
497.09	458.74
497.26	388.53
497.44	421.30
497.62	390.87
497.79	428.32
497.97	423.64
498.14	423.64
498.32	433.00
498.50	430.66
498.67	404.91
498.85	397.89
499.03	388.53
499.20	470.45
499.38	355.76
499.56	425.98
499.73	456.40
499.91	423.64
500.08	407.25
500.26	423.64
500.44	346.40
500.61	416.62
500.79	458.74
500.97	435.34
501.14	451.72
501.32	395.55
501.49	454.06
501.67	437.68
501.84	386.19
502.02	414.27
502.20	421.30
502.37	472.79
502.55	435.34
502.72	421.30
502.90	425.98
503.07	465.77
503.25	435.34
503.43	360.44
503.60	461.09
503.78	440.02
503.95	418.96
504.13	404.91
504.30	458.74
504.48	437.68
504.65	477.47
504.83	465.77
505.01	379.17
505.18	482.15
505.36	353.42
505.53	402.57
505.71	397.89
505.88	468.11
506.06	416.62
506.23	402.57
506.41	407.25
506.58	444.70
506.76	440.02
506.93	507.90
507.11	369.80
507.28	402.57
507.46	400.23
507.63	435.34
507.81	358.10
507.98	430.66
508.16	425.98
508.33	395.55
508.50	465.77
508.68	435.34
508.85	451.72
509.03	423.64
509.20	318.31
509.38	404.91
509.55	418.96
509.73	386.19
509.90	393.21
510.08	465.77
510.25	456.40
510.42	449.38
510.60	358.10
510.77	493.85
510.95	454.06
511.12	318.31
511.30	428.32
511.47	397.89
511.64	402.57
511.82	416.62
511.99	440.02
512.17	489.17
512.34	407.25
512.51	416.62
512.69	447.04
512.86	383.85
513.04	409.59
513.21	374.49
513.38	402.57
513.56	418.96
513.73	461.09
513.90	423.64
514.08	451.72
514.25	442.36
514.43	458.74
514.60	414.27
514.77	381.51
514.95	397.89
515.12	355.76
515.29	407.25
515.47	416.62
515.64	444.70
515.81	409.59
515.99	491.51
516.16	521.94
516.33	461.09
516.51	407.25
516.68	353.42
516.85	454.06
517.03	409.59
517.20	428.32
517.37	468.11
517.54	416.62
517.72	449.38
517.89	351.08
518.06	400.23
518.24	437.68
518.41	503.22
518.58	449.38
518.75	423.64
518.93	369.80
519.10	411.93
519.27	367.46
519.45	428.32
519.62	454.06
519.79	395.55
519.96	383.85
520.14	379.17
520.31	407.25
520.48	428.32
520.65	416.62
520.83	430.66
521.00	395.55
521.17	482.15
521.34	418.96
521.52	456.40
521.69	437.68
521.86	397.89
522.03	397.89
522.20	404.91
522.38	390.87
522.55	400.23
522.72	407.25
522.89	437.68
523.07	517.26
523.24	409.59
523.41	348.74
523.58	458.74
523.75	411.93
523.92	435.34
524.10	402.57
524.27	425.98
524.44	402.57
524.61	475.13
524.78	318.31
524.96	337.04
525.13	341.72
525.30	421.30
525.47	482.15
525.64	435.34
525.81	372.15
525.98	449.38
526.16	435.34
526.33	383.85
526.50	360.44
526.67	437.68
526.84	376.83
527.01	402.57
527.18	407.25
527.36	411.93
527.53	395.55
527.70	402.57
527.87	414.27
528.04	409.59
528.21	451.72
528.38	339.38
528.55	468.11
528.72	409.59
528.89	437.68
529.07	400.23
529.24	372.15
529.41	440.02
529.58	451.72
529.75	411.93
529.92	454.06
530.09	400.23
530.26	456.40
530.43	430.66
530.60	402.57
530.77	416.62
530.94	454.06
531.11	451.72
531.28	404.91
531.46	369.80
531.63	451.72
531.80	402.57
531.97	498.53
532.14	355.76
532.31	376.83
532.48	416.62
532.65	430.66
532.82	463.43
532.99	416.62
533.16	472.79
533.33	458.74
533.50	461.09
533.67	440.02
533.84	430.66
534.01	425.98
534.18	451.72
534.35	430.66
534.52	379.17
534.69	402.57
534.86	414.27
535.03	414.27
535.20	400.23
535.37	416.62
535.54	379.17
535.71	365.12
535.88	425.98
536.05	437.68
536.22	456.40
536.38	498.53
536.55	390.87
536.72	421.30
536.89	440.02
537.06	358.10
537.23	411.93
537.40	369.80
537.57	397.89
537.74	493.85
537.91	351.08
538.08	447.04
538.25	395.55
538.42	402.57
538.59	418.96
538.75	416.62
538.92	362.78
539.09	451.72
539.26	442.36
539.43	465.77
539.60	475.13
539.77	376.83
539.94	393.21
540.11	381.51
540.28	369.80
540.44	416.62
540.61	435.34
540.78	393.21
540.95	374.49
541.12	500.87
541.29	348.74
541.46	458.74
541.62	449.38
541.79	402.57
541.96	397.89
542.13	475.13
542.30	383.85
542.47	397.89
542.63	372.15
542.80	374.49
542.97	400.23
543.14	475.13
543.31	444.70
543.48	463.43
543.64	442.36
543.81	372.15
543.98	383.85
544.15	390.87
544.32	414.27
544.48	435.34
544.65	418.96
544.82	397.89
544.99	374.49
545.16	442.36
545.32	451.72
545.49	386.19
545.66	472.79
545.83	348.74
546.00	372.15
546.16	402.57
546.33	454.06
546.50	390.87
546.67	449.38
546.83	435.34
547.00	454.06
547.17	388.53
547.34	395.55
547.50	393.21
547.67	397.89
547.84	358.10
548.00	456.40
548.17	425.98
548.34	365.12
548.51	451.72
548.67	447.04
548.84	365.12
549.01	418.96
549.18	470.45
549.34	472.79
549.51	442.36
549.68	374.49
549.84	397.89
550.01	433.00
550.18	547.69
550.34	433.00
550.51	423.64
550.68	533.64
550.84	493.85
551.01	433.00
551.18	493.85
551.34	395.55
551.51	414.27
551.68	416.62
551.84	416.62
552.01	479.81
552.18	421.30
552.34	440.02
552.51	428.32
552.68	440.02
552.84	376.83
553.01	451.72
553.18	472.79
553.34	465.77
553.51	418.96
553.67	390.87
553.84	463.43
554.01	486.83
554.17	374.49
554.34	390.87
554.51	355.76
554.67	451.72
554.84	411.93
555.00	493.85
555.17	369.80
555.33	414.27
555.50	447.04
555.67	433.00
555.83	421.30
556.00	486.83
556.16	528.96
556.33	393.21
556.50	404.91
556.66	379.17
556.83	458.74
556.99	430.66
557.16	409.59
557.32	416.62
557.49	444.70
557.65	475.13
557.82	440.02
557.98	395.55
558.15	379.17
558.32	411.93
558.48	337.04
558.65	423.64
558.81	444.70
558.98	386.19
559.14	388.53
559.31	400.23
559.47	397.89
559.64	339.38
559.80	447.04
559.97	409.59
560.13	463.43
560.30	440.02
560.46	334.70
560.63	367.46
560.79	440.02
560.96	463.43
561.12	402.57
561.29	463.43
561.45	465.77
561.61	423.64
561.78	425.98
561.94	397.89
562.11	454.06
562.27	458.74
562.44	418.96
562.60	400.23
562.77	407.25
562.93	498.53
563.10	428.32
563.26	386.19
563.42	456.40
563.59	430.66
563.75	367.46
563.92	489.17
564.08	463.43
564.24	374.49
564.41	416.62
564.57	425.98
564.74	379.17
564.90	362.78
565.07	397.89
565.23	458.74
565.39	362.78
565.56	390.87
565.72	489.17
565.88	456.40
566.05	367.46
566.21	416.62
566.38	379.17
566.54	428.32
566.70	433.00
566.87	409.59
567.03	358.10
567.19	386.19
567.36	400.23
567.52	440.02
567.68	346.40
567.85	425.98
568.01	435.34
568.17	423.64
568.34	423.64
568.50	486.83
568.66	433.00
568.83	447.04
568.99	430.66
569.15	407.25
569.32	458.74
569.48	421.30
569.64	318.31
569.81	468.11
569.97	369.80
570.13	414.27
570.30	423.64
570.46	423.64
570.62	468.11
570.78	451.72
570.95	433.00
571.11	411.93
571.27	447.04
571.43	341.72
571.60	503.22
571.76	374.49
571.92	416.62
572.09	425.98
572.25	386.19
572.41	507.90
572.57	416.62
572.74	423.64
572.90	395.55
573.06	407.25
573.22	425.98
573.38	402.57
573.55	418.96
573.71	418.96
573.87	395.55
574.03	379.17
574.20	423.64
574.36	416.62
574.52	374.49
574.68	454.06
574.84	416.62
575.01	369.80
575.17	454.06
575.33	423.64
575.49	430.66
575.65	435.34
575.82	458.74
575.98	484.49
576.14	489.17
576.30	425.98
576.46	386.19
576.62	404.91
576.79	449.38
576.95	435.34
577.11	465.77
577.27	472.79
577.43	397.89
577.59	477.47
577.75	428.32
577.92	383.85
578.08	360.44
578.24	376.83
578.40	334.70
578.56	451.72
578.72	404.91
578.88	486.83
579.04	435.34
579.21	442.36
579.37	362.78
579.53	390.87
579.69	423.64
579.85	358.10
580.01	456.40
580.17	358.10
580.33	433.00
580.49	486.83
580.65	449.38
580.82	430.66
580.98	461.09
581.14	404.91
581.30	416.62
581.46	360.44
581.62	444.70
581.78	374.49
581.94	491.51
582.10	393.21
582.26	320.65
582.42	383.85
582.58	524.28
582.74	421.30
582.90	414.27
583.06	411.93
583.22	463.43
583.38	416.62
583.54	440.02
583.70	479.81
583.86	477.47
584.02	463.43
584.18	454.06
584.34	381.51
584.50	395.55
584.66	451.72
584.82	337.04
584.98	430.66
585.14	379.17
585.30	465.77
585.46	386.19
585.62	372.15
585.78	411.93
585.94	442.36
586.10	395.55
586.26	433.00
586.42	381.51
586.58	425.98
586.74	388.53
586.90	425.98
587.06	362.78
587.22	400.23
587.38	376.83
587.54	425.98
587.70	421.30
587.86	416.62
588.02	407.25
588.18	468.11
588.34	421.30
588.49	351.08
588.65	365.12
588.81	376.83
588.97	449.38
589.13	348.74
589.29	386.19
589.45	444.70
589.61	409.59
589.77	402.57
589.93	407.25
590.08	390.87
590.24	414.27
590.40	414.27
590.56	416.62
590.72	374.49
590.88	425.98
591.04	447.04
591.20	456.40
591.35	456.40
591.51	409.59
591.67	461.09
591.83	397.89
591.99	425.98
592.15	468.11
592.31	409.59
592.46	435.34
592.62	421.30
592.78	397.89
592.94	393.21
593.10	409.59
593.26	435.34
593.41	411.93
593.57	430.66
593.73	294.91
593.89	442.36
594.05	390.87
594.20	430.66
594.36	454.06
594.52	374.49
594.68	400.23
594.84	475.13
594.99	482.15
595.15	458.74
595.31	395.55
595.47	437.68
595.62	433.00
595.78	348.74
595.94	451.72
596.10	400.23
596.25	381.51
596.41	374.49
596.57	407.25
596.73	376.83
596.88	479.81
597.04	521.94
597.20	470.45
597.36	463.43
597.51	435.34
597.67	372.15
597.83	388.53
597.99	442.36
598.14	486.83
598.30	482.15
598.46	458.74
598.61	484.49
598.77	465.77
598.93	477.47
599.09	411.93
599.24	465.77
599.40	402.57
599.56	449.38
599.71	456.40
599.87	411.93
600.03	500.87
600.18	421.30
600.34	402.57
600.50	435.34
600.65	465.77
600.81	463.43
600.97	402.57
601.12	411.93
601.28	449.38
601.44	421.30
601.59	430.66
601.75	461.09
601.91	486.83
602.06	433.00
602.22	414.27
602.37	447.04
602.53	369.80
602.69	411.93
602.84	411.93
603.00	423.64
603.16	442.36
603.31	433.00
603.47	374.49
603.62	372.15
603.78	395.55
603.94	447.04
604.09	404.91
604.25	475.13
604.40	435.34
604.56	358.10
604.71	407.25
604.87	463.43
605.03	484.49
605.18	470.45
605.34	400.23
605.49	421.30
605.65	411.93
605.80	334.70
605.96	421.30
606.12	447.04
606.27	400.23
606.43	351.08
606.58	524.28
606.74	444.70
606.89	400.23
607.05	482.15
607.20	400.23
607.36	440.02
607.51	411.93
607.67	402.57
607.82	425.98
607.98	461.09
608.13	449.38
608.29	435.34
608.44	414.27
608.60	430.66
608.75	388.53
608.91	395.55
609.06	461.09
609.22	447.04
609.37	386.19
609.53	444.70
609.68	411.93
609.84	400.23
609.99	444.70
610.15	369.80
