SpectraSuite Data File
++++++++++++++++++++++++++++++++++++
Date: Fri Oct 25 12:10:28 EDT 2013
User: price-jones
Dark Spectrum Present: No
Reference Spectrum Present: No
Number of Sampled Component Spectra: 1
Spectrometers: USB2+H05261
Integration Time (usec): 100000 (USB2+H05261)
Spectra Averaged: 1 (USB2+H05261)
Boxcar Smoothing: 0 (USB2+H05261)
Correct for Electrical Dark: No (USB2+H05261)
Strobe/Lamp Enabled: No (USB2+H05261)
Correct for Detector Non-linearity: No (USB2+H05261)
Correct for Stray Light: No (USB2+H05261)
Number of Pixels in Processed Spectrum: 2048
>>>>>Begin Processed Spectral Data<<<<<
365.73	311.29
365.92	311.29
366.12	311.29
366.32	191.92
366.52	224.69
366.72	245.76
366.91	208.31
367.11	149.79
367.31	131.07
367.51	243.42
367.70	220.01
367.90	215.33
368.10	196.60
368.30	224.69
368.49	271.50
368.69	285.55
368.89	294.91
369.09	243.42
369.28	294.91
369.48	264.48
369.68	339.38
369.87	355.76
370.07	327.68
370.27	330.02
370.47	362.78
370.66	297.25
370.86	344.06
371.06	423.64
371.25	327.68
371.45	367.46
371.65	428.32
371.84	376.83
372.04	353.42
372.24	475.13
372.44	388.53
372.63	414.27
372.83	346.40
373.03	402.57
373.22	440.02
373.42	376.83
373.62	461.09
373.81	461.09
374.01	449.38
374.21	500.87
374.40	418.96
374.60	458.74
374.79	409.59
374.99	393.21
375.19	351.08
375.38	442.36
375.58	409.59
375.78	507.90
375.97	320.65
376.17	407.25
376.37	461.09
376.56	451.72
376.76	320.65
376.95	388.53
377.15	451.72
377.35	461.09
377.54	355.76
377.74	407.25
377.93	365.12
378.13	414.27
378.33	379.17
378.52	376.83
378.72	463.43
378.91	461.09
379.11	346.40
379.31	386.19
379.50	367.46
379.70	451.72
379.89	423.64
380.09	393.21
380.28	360.44
380.48	339.38
380.68	444.70
380.87	353.42
381.07	440.02
381.26	348.74
381.46	358.10
381.65	388.53
381.85	400.23
382.04	397.89
382.24	437.68
382.43	463.43
382.63	437.68
382.83	339.38
383.02	421.30
383.22	437.68
383.41	411.93
383.61	381.51
383.80	390.87
384.00	397.89
384.19	360.44
384.39	449.38
384.58	442.36
384.78	404.91
384.97	404.91
385.17	447.04
385.36	402.57
385.56	374.49
385.75	379.17
385.95	367.46
386.14	390.87
386.34	454.06
386.53	418.96
386.72	411.93
386.92	409.59
387.11	433.00
387.31	421.30
387.50	332.36
387.70	353.42
387.89	421.30
388.09	416.62
388.28	402.57
388.48	414.27
388.67	440.02
388.86	355.76
389.06	421.30
389.25	444.70
389.45	330.02
389.64	393.21
389.84	435.34
390.03	416.62
390.22	414.27
390.42	341.72
390.61	365.12
390.81	428.32
391.00	397.89
391.19	402.57
391.39	369.80
391.58	482.15
391.78	440.02
391.97	311.29
392.16	407.25
392.36	409.59
392.55	423.64
392.75	404.91
392.94	397.89
393.13	451.72
393.33	442.36
393.52	386.19
393.71	390.87
393.91	468.11
394.10	393.21
394.29	423.64
394.49	346.40
394.68	365.12
394.88	388.53
395.07	414.27
395.26	390.87
395.46	379.17
395.65	430.66
395.84	388.53
396.04	444.70
396.23	414.27
396.42	425.98
396.62	397.89
396.81	479.81
397.00	435.34
397.19	334.70
397.39	430.66
397.58	416.62
397.77	440.02
397.97	369.80
398.16	414.27
398.35	409.59
398.55	351.08
398.74	372.15
398.93	447.04
399.12	507.90
399.32	454.06
399.51	411.93
399.70	365.12
399.90	360.44
400.09	407.25
400.28	386.19
400.47	407.25
400.67	440.02
400.86	313.63
401.05	404.91
401.24	442.36
401.44	418.96
401.63	376.83
401.82	416.62
402.01	421.30
402.21	463.43
402.40	444.70
402.59	388.53
402.78	411.93
402.97	404.91
403.17	404.91
403.36	409.59
403.55	362.78
403.74	456.40
403.93	421.30
404.13	423.64
404.32	444.70
404.51	388.53
404.70	437.68
404.89	397.89
405.09	367.46
405.28	353.42
405.47	409.59
405.66	421.30
405.85	404.91
406.05	367.46
406.24	430.66
406.43	372.15
406.62	421.30
406.81	381.51
407.00	416.62
407.20	322.99
407.39	447.04
407.58	390.87
407.77	430.66
407.96	400.23
408.15	393.21
408.34	440.02
408.54	379.17
408.73	442.36
408.92	454.06
409.11	442.36
409.30	414.27
409.49	388.53
409.68	360.44
409.87	425.98
410.07	425.98
410.26	416.62
410.45	404.91
410.64	397.89
410.83	416.62
411.02	428.32
411.21	423.64
411.40	447.04
411.59	369.80
411.78	388.53
411.98	435.34
412.17	425.98
412.36	339.38
412.55	365.12
412.74	390.87
412.93	440.02
413.12	379.17
413.31	470.45
413.50	383.85
413.69	449.38
413.88	418.96
414.07	395.55
414.26	425.98
414.45	407.25
414.64	416.62
414.83	435.34
415.02	388.53
415.22	409.59
415.41	425.98
415.60	444.70
415.79	444.70
415.98	449.38
416.17	376.83
416.36	437.68
416.55	402.57
416.74	376.83
416.93	444.70
417.12	348.74
417.31	308.95
417.50	430.66
417.69	440.02
417.88	397.89
418.07	463.43
418.26	397.89
418.45	435.34
418.64	449.38
418.83	365.12
419.02	475.13
419.21	425.98
419.39	425.98
419.58	390.87
419.77	358.10
419.96	444.70
420.15	444.70
420.34	454.06
420.53	409.59
420.72	416.62
420.91	393.21
421.10	479.81
421.29	428.32
421.48	421.30
421.67	369.80
421.86	334.70
422.05	407.25
422.24	468.11
422.43	388.53
422.61	337.04
422.80	454.06
422.99	397.89
423.18	360.44
423.37	433.00
423.56	388.53
423.75	447.04
423.94	374.49
424.13	451.72
424.32	395.55
424.50	327.68
424.69	414.27
424.88	484.49
425.07	365.12
425.26	442.36
425.45	425.98
425.64	355.76
425.83	372.15
426.01	421.30
426.20	393.21
426.39	372.15
426.58	379.17
426.77	402.57
426.96	390.87
427.15	355.76
427.33	400.23
427.52	425.98
427.71	456.40
427.90	479.81
428.09	355.76
428.28	365.12
428.46	489.17
428.65	388.53
428.84	381.51
429.03	470.45
429.22	407.25
429.40	451.72
429.59	451.72
429.78	430.66
429.97	433.00
430.16	421.30
430.34	369.80
430.53	341.72
430.72	416.62
430.91	461.09
431.10	358.10
431.28	465.77
431.47	444.70
431.66	484.49
431.85	425.98
432.03	489.17
432.22	425.98
432.41	353.42
432.60	425.98
432.79	430.66
432.97	421.30
433.16	383.85
433.35	369.80
433.54	437.68
433.72	465.77
433.91	407.25
434.10	421.30
434.28	428.32
434.47	386.19
434.66	414.27
434.85	404.91
435.03	362.78
435.22	496.19
435.41	376.83
435.59	374.49
435.78	418.96
435.97	414.27
436.16	442.36
436.34	395.55
436.53	395.55
436.72	386.19
436.90	404.91
437.09	486.83
437.28	430.66
437.46	322.99
437.65	388.53
437.84	407.25
438.02	433.00
438.21	409.59
438.40	433.00
438.58	390.87
438.77	353.42
438.96	461.09
439.14	484.49
439.33	533.64
439.52	461.09
439.70	428.32
439.89	449.38
440.08	479.81
440.26	435.34
440.45	442.36
440.63	348.74
440.82	456.40
441.01	330.02
441.19	416.62
441.38	409.59
441.57	418.96
441.75	451.72
441.94	437.68
442.12	379.17
442.31	477.47
442.50	430.66
442.68	454.06
442.87	440.02
443.05	400.23
443.24	468.11
443.43	477.47
443.61	407.25
443.80	383.85
443.98	404.91
444.17	362.78
444.35	425.98
444.54	395.55
444.73	381.51
444.91	414.27
445.10	383.85
445.28	454.06
445.47	416.62
445.65	484.49
445.84	454.06
446.02	393.21
446.21	383.85
446.39	447.04
446.58	388.53
446.77	414.27
446.95	447.04
447.14	386.19
447.32	451.72
447.51	409.59
447.69	383.85
447.88	358.10
448.06	397.89
448.25	425.98
448.43	395.55
448.62	395.55
448.80	470.45
448.99	449.38
449.17	367.46
449.36	383.85
449.54	416.62
449.73	379.17
449.91	458.74
450.10	393.21
450.28	428.32
450.46	484.49
450.65	433.00
450.83	444.70
451.02	383.85
451.20	451.72
451.39	386.19
451.57	362.78
451.76	425.98
451.94	414.27
452.13	395.55
452.31	447.04
452.49	456.40
452.68	400.23
452.86	456.40
453.05	524.28
453.23	395.55
453.42	435.34
453.60	517.26
453.78	465.77
453.97	407.25
454.15	360.44
454.34	367.46
454.52	433.00
454.70	463.43
454.89	437.68
455.07	421.30
455.26	374.49
455.44	355.76
455.62	437.68
455.81	400.23
455.99	489.17
456.17	444.70
456.36	414.27
456.54	416.62
456.73	374.49
456.91	355.76
457.09	301.93
457.28	449.38
457.46	437.68
457.64	451.72
457.83	451.72
458.01	435.34
458.19	456.40
458.38	437.68
458.56	397.89
458.74	463.43
458.93	360.44
459.11	437.68
459.29	339.38
459.48	449.38
459.66	421.30
459.84	388.53
460.03	463.43
460.21	334.70
460.39	428.32
460.57	435.34
460.76	388.53
460.94	360.44
461.12	479.81
461.31	418.96
461.49	447.04
461.67	397.89
461.85	465.77
462.04	416.62
462.22	746.63
462.40	440.02
462.59	418.96
462.77	400.23
462.95	402.57
463.13	360.44
463.32	414.27
463.50	421.30
463.68	383.85
463.86	337.04
464.05	365.12
464.23	379.17
464.41	440.02
464.59	330.02
464.78	388.53
464.96	369.80
465.14	433.00
465.32	449.38
465.50	397.89
465.69	395.55
465.87	386.19
466.05	348.74
466.23	390.87
466.41	463.43
466.60	489.17
466.78	442.36
466.96	444.70
467.14	454.06
467.32	477.47
467.51	379.17
467.69	421.30
467.87	437.68
468.05	383.85
468.23	444.70
468.41	430.66
468.60	393.21
468.78	454.06
468.96	407.25
469.14	388.53
469.32	421.30
469.50	437.68
469.69	395.55
469.87	367.46
470.05	395.55
470.23	428.32
470.41	341.72
470.59	447.04
470.77	454.06
470.95	451.72
471.14	365.12
471.32	346.40
471.50	437.68
471.68	383.85
471.86	360.44
472.04	416.62
472.22	423.64
472.40	407.25
472.58	407.25
472.77	421.30
472.95	456.40
473.13	402.57
473.31	388.53
473.49	395.55
473.67	358.10
473.85	379.17
474.03	400.23
474.21	425.98
474.39	379.17
474.57	421.30
474.75	444.70
474.93	397.89
475.12	454.06
475.30	423.64
475.48	383.85
475.66	407.25
475.84	423.64
476.02	428.32
476.20	425.98
476.38	442.36
476.56	486.83
476.74	440.02
476.92	402.57
477.10	402.57
477.28	418.96
477.46	470.45
477.64	404.91
477.82	388.53
478.00	416.62
478.18	402.57
478.36	479.81
478.54	365.12
478.72	341.72
478.90	442.36
479.08	454.06
479.26	416.62
479.44	388.53
479.62	402.57
479.80	425.98
479.98	374.49
480.16	430.66
480.34	376.83
480.52	388.53
480.70	430.66
480.88	414.27
481.06	416.62
481.24	421.30
481.41	414.27
481.59	416.62
481.77	465.77
481.95	390.87
482.13	428.32
482.31	451.72
482.49	414.27
482.67	496.19
482.85	470.45
483.03	437.68
483.21	404.91
483.39	372.15
483.57	383.85
483.74	423.64
483.92	449.38
484.10	386.19
484.28	449.38
484.46	486.83
484.64	428.32
484.82	409.59
485.00	418.96
485.18	433.00
485.35	500.87
485.53	449.38
485.71	435.34
485.89	409.59
486.07	430.66
486.25	428.32
486.43	383.85
486.61	463.43
486.78	388.53
486.96	444.70
487.14	444.70
487.32	425.98
487.50	440.02
487.68	512.58
487.85	395.55
488.03	374.49
488.21	477.47
488.39	454.06
488.57	447.04
488.75	430.66
488.92	465.77
489.10	402.57
489.28	484.49
489.46	381.51
489.64	416.62
489.81	383.85
489.99	444.70
490.17	428.32
490.35	472.79
490.53	416.62
490.70	388.53
490.88	390.87
491.06	433.00
491.24	442.36
491.41	428.32
491.59	468.11
491.77	463.43
491.95	358.10
492.13	372.15
492.30	379.17
492.48	388.53
492.66	383.85
492.84	374.49
493.01	383.85
493.19	433.00
493.37	486.83
493.54	386.19
493.72	386.19
493.90	435.34
494.08	411.93
494.25	447.04
494.43	444.70
494.61	395.55
494.79	374.49
494.96	379.17
495.14	388.53
495.32	437.68
495.49	461.09
495.67	418.96
495.85	447.04
496.02	407.25
496.20	383.85
496.38	407.25
496.55	395.55
496.73	390.87
496.91	379.17
497.09	407.25
497.26	437.68
497.44	386.19
497.62	393.21
497.79	355.76
497.97	397.89
498.14	402.57
498.32	407.25
498.50	454.06
498.67	397.89
498.85	442.36
499.03	355.76
499.20	379.17
499.38	402.57
499.56	381.51
499.73	423.64
499.91	433.00
500.08	512.58
500.26	411.93
500.44	411.93
500.61	470.45
500.79	418.96
500.97	386.19
501.14	444.70
501.32	407.25
501.49	393.21
501.67	416.62
501.84	468.11
502.02	437.68
502.20	402.57
502.37	435.34
502.55	376.83
502.72	372.15
502.90	461.09
503.07	393.21
503.25	437.68
503.43	390.87
503.60	388.53
503.78	449.38
503.95	425.98
504.13	334.70
504.30	393.21
504.48	458.74
504.65	458.74
504.83	379.17
505.01	365.12
505.18	414.27
505.36	428.32
505.53	428.32
505.71	388.53
505.88	465.77
506.06	468.11
506.23	442.36
506.41	393.21
506.58	416.62
506.76	440.02
506.93	440.02
507.11	423.64
507.28	409.59
507.46	381.51
507.63	409.59
507.81	400.23
507.98	358.10
508.16	433.00
508.33	437.68
508.50	393.21
508.68	475.13
508.85	428.32
509.03	468.11
509.20	407.25
509.38	456.40
509.55	423.64
509.73	437.68
509.90	484.49
510.08	383.85
510.25	421.30
510.42	482.15
510.60	376.83
510.77	421.30
510.95	468.11
511.12	409.59
511.30	362.78
511.47	437.68
511.64	477.47
511.82	374.49
511.99	435.34
512.17	407.25
512.34	440.02
512.51	411.93
512.69	379.17
512.86	416.62
513.04	416.62
513.21	381.51
513.38	437.68
513.56	379.17
513.73	433.00
513.90	360.44
514.08	402.57
514.25	437.68
514.43	393.21
514.60	444.70
514.77	423.64
514.95	425.98
515.12	332.36
515.29	379.17
515.47	369.80
515.64	386.19
515.81	332.36
515.99	376.83
516.16	322.99
516.33	461.09
516.51	383.85
516.68	449.38
516.85	372.15
517.03	440.02
517.20	388.53
517.37	395.55
517.54	468.11
517.72	435.34
517.89	388.53
518.06	428.32
518.24	425.98
518.41	451.72
518.58	423.64
518.75	344.06
518.93	393.21
519.10	365.12
519.27	379.17
519.45	397.89
519.62	482.15
519.79	409.59
519.96	402.57
520.14	433.00
520.31	414.27
520.48	498.53
520.65	388.53
520.83	433.00
521.00	414.27
521.17	409.59
521.34	440.02
521.52	451.72
521.69	461.09
521.86	428.32
522.03	470.45
522.20	465.77
522.38	418.96
522.55	416.62
522.72	409.59
522.89	402.57
523.07	447.04
523.24	395.55
523.41	416.62
523.58	423.64
523.75	379.17
523.92	367.46
524.10	388.53
524.27	383.85
524.44	458.74
524.61	463.43
524.78	407.25
524.96	353.42
525.13	479.81
525.30	414.27
525.47	465.77
525.64	463.43
525.81	365.12
525.98	416.62
526.16	486.83
526.33	327.68
526.50	381.51
526.67	372.15
526.84	341.72
527.01	376.83
527.18	390.87
527.36	449.38
527.53	414.27
527.70	388.53
527.87	388.53
528.04	395.55
528.21	447.04
528.38	423.64
528.55	486.83
528.72	355.76
528.89	463.43
529.07	479.81
529.24	491.51
529.41	360.44
529.58	418.96
529.75	489.17
529.92	404.91
530.09	383.85
530.26	463.43
530.43	393.21
530.60	388.53
530.77	440.02
530.94	402.57
531.11	477.47
531.28	374.49
531.46	362.78
531.63	339.38
531.80	358.10
531.97	402.57
532.14	428.32
532.31	407.25
532.48	390.87
532.65	360.44
532.82	430.66
532.99	418.96
533.16	472.79
533.33	416.62
533.50	383.85
533.67	407.25
533.84	423.64
534.01	393.21
534.18	395.55
534.35	423.64
534.52	407.25
534.69	416.62
534.86	465.77
535.03	423.64
535.20	428.32
535.37	414.27
535.54	456.40
535.71	475.13
535.88	484.49
536.05	477.47
536.22	454.06
536.38	395.55
536.55	442.36
536.72	428.32
536.89	430.66
537.06	444.70
537.23	390.87
537.40	430.66
537.57	425.98
537.74	454.06
537.91	411.93
538.08	470.45
538.25	433.00
538.42	411.93
538.59	402.57
538.75	411.93
538.92	332.36
539.09	442.36
539.26	374.49
539.43	463.43
539.60	428.32
539.77	386.19
539.94	390.87
540.11	400.23
540.28	428.32
540.44	407.25
540.61	402.57
540.78	440.02
540.95	423.64
541.12	428.32
541.29	423.64
541.46	418.96
541.62	402.57
541.79	334.70
541.96	421.30
542.13	374.49
542.30	463.43
542.47	379.17
542.63	351.08
542.80	369.80
542.97	362.78
543.14	463.43
543.31	409.59
543.48	477.47
543.64	414.27
543.81	355.76
543.98	451.72
544.15	428.32
544.32	425.98
544.48	376.83
544.65	430.66
544.82	447.04
544.99	449.38
545.16	404.91
545.32	376.83
545.49	407.25
545.66	397.89
545.83	463.43
546.00	447.04
546.16	409.59
546.33	435.34
546.50	477.47
546.67	442.36
546.83	421.30
547.00	475.13
547.17	411.93
547.34	367.46
547.50	383.85
547.67	418.96
547.84	402.57
548.00	395.55
548.17	386.19
548.34	393.21
548.51	409.59
548.67	435.34
548.84	402.57
549.01	423.64
549.18	395.55
549.34	416.62
549.51	381.51
549.68	348.74
549.84	365.12
550.01	395.55
550.18	418.96
550.34	435.34
550.51	456.40
550.68	465.77
550.84	421.30
551.01	433.00
551.18	470.45
551.34	400.23
551.51	397.89
551.68	374.49
551.84	440.02
552.01	414.27
552.18	425.98
552.34	425.98
552.51	404.91
552.68	444.70
552.84	444.70
553.01	402.57
553.18	379.17
553.34	437.68
553.51	360.44
553.67	334.70
553.84	449.38
554.01	454.06
554.17	402.57
554.34	337.04
554.51	463.43
554.67	447.04
554.84	425.98
555.00	451.72
555.17	423.64
555.33	521.94
555.50	437.68
555.67	381.51
555.83	393.21
556.00	362.78
556.16	547.69
556.33	458.74
556.50	416.62
556.66	430.66
556.83	404.91
556.99	437.68
557.16	421.30
557.32	386.19
557.49	362.78
557.65	390.87
557.82	395.55
557.98	397.89
558.15	458.74
558.32	355.76
558.48	433.00
558.65	421.30
558.81	395.55
558.98	306.61
559.14	400.23
559.31	435.34
559.47	362.78
559.64	383.85
559.80	418.96
559.97	461.09
560.13	425.98
560.30	430.66
560.46	435.34
560.63	433.00
560.79	447.04
560.96	379.17
561.12	421.30
561.29	447.04
561.45	409.59
561.61	430.66
561.78	498.53
561.94	421.30
562.11	433.00
562.27	423.64
562.44	421.30
562.60	379.17
562.77	376.83
562.93	505.56
563.10	430.66
563.26	418.96
563.42	428.32
563.59	400.23
563.75	421.30
563.92	390.87
564.08	447.04
564.24	390.87
564.41	468.11
564.57	477.47
564.74	449.38
564.90	435.34
565.07	456.40
565.23	475.13
565.39	355.76
565.56	479.81
565.72	421.30
565.88	435.34
566.05	416.62
566.21	433.00
566.38	383.85
566.54	447.04
566.70	393.21
566.87	404.91
567.03	418.96
567.19	437.68
567.36	393.21
567.52	397.89
567.68	449.38
567.85	444.70
568.01	381.51
568.17	430.66
568.34	418.96
568.50	517.26
568.66	395.55
568.83	514.92
568.99	491.51
569.15	402.57
569.32	440.02
569.48	369.80
569.64	360.44
569.81	404.91
569.97	440.02
570.13	393.21
570.30	423.64
570.46	383.85
570.62	395.55
570.78	425.98
570.95	444.70
571.11	411.93
571.27	423.64
571.43	351.08
571.60	402.57
571.76	386.19
571.92	414.27
572.09	418.96
572.25	402.57
572.41	482.15
572.57	362.78
572.74	482.15
572.90	465.77
573.06	409.59
573.22	330.02
573.38	440.02
573.55	435.34
573.71	390.87
573.87	374.49
574.03	400.23
574.20	402.57
574.36	421.30
574.52	437.68
574.68	425.98
574.84	372.15
575.01	418.96
575.17	407.25
575.33	418.96
575.49	437.68
575.65	440.02
575.82	374.49
575.98	433.00
576.14	393.21
576.30	435.34
576.46	430.66
576.62	365.12
576.79	372.15
576.95	454.06
577.11	444.70
577.27	454.06
577.43	433.00
577.59	372.15
577.75	440.02
577.92	472.79
578.08	337.04
578.24	369.80
578.40	510.24
578.56	526.62
578.72	435.34
578.88	456.40
579.04	468.11
579.21	355.76
579.37	411.93
579.53	409.59
579.69	468.11
579.85	421.30
580.01	444.70
580.17	416.62
580.33	395.55
580.49	372.15
580.65	449.38
580.82	390.87
580.98	437.68
581.14	465.77
581.30	437.68
581.46	376.83
581.62	451.72
581.78	351.08
581.94	290.23
582.10	334.70
582.26	376.83
582.42	386.19
582.58	468.11
582.74	404.91
582.90	404.91
583.06	507.90
583.22	486.83
583.38	407.25
583.54	344.06
583.70	425.98
583.86	440.02
584.02	435.34
584.18	456.40
584.34	348.74
584.50	423.64
584.66	449.38
584.82	376.83
584.98	395.55
585.14	322.99
585.30	447.04
585.46	435.34
585.62	423.64
585.78	362.78
585.94	440.02
586.10	379.17
586.26	411.93
586.42	430.66
586.58	458.74
586.74	397.89
586.90	344.06
587.06	334.70
587.22	486.83
587.38	395.55
587.54	421.30
587.70	428.32
587.86	428.32
588.02	404.91
588.18	479.81
588.34	414.27
588.49	428.32
588.65	421.30
588.81	449.38
588.97	411.93
589.13	425.98
589.29	440.02
589.45	430.66
589.61	409.59
589.77	454.06
589.93	433.00
590.08	395.55
590.24	416.62
590.40	315.97
590.56	395.55
590.72	428.32
590.88	428.32
591.04	360.44
591.20	465.77
591.35	470.45
591.51	447.04
591.67	435.34
591.83	402.57
591.99	411.93
592.15	447.04
592.31	332.36
592.46	402.57
592.62	484.49
592.78	409.59
592.94	411.93
593.10	470.45
593.26	456.40
593.41	400.23
593.57	355.76
593.73	454.06
593.89	423.64
594.05	461.09
594.20	407.25
594.36	444.70
594.52	376.83
594.68	416.62
594.84	475.13
594.99	489.17
595.15	428.32
595.31	440.02
595.47	500.87
595.62	421.30
595.78	372.15
595.94	383.85
596.10	456.40
596.25	418.96
596.41	372.15
596.57	367.46
596.73	433.00
596.88	372.15
597.04	404.91
597.20	465.77
597.36	397.89
597.51	381.51
597.67	430.66
597.83	423.64
597.99	449.38
598.14	451.72
598.30	444.70
598.46	447.04
598.61	458.74
598.77	491.51
598.93	430.66
599.09	365.12
599.24	393.21
599.40	397.89
599.56	437.68
599.71	437.68
599.87	414.27
600.03	442.36
600.18	327.68
600.34	440.02
600.50	386.19
600.65	451.72
600.81	425.98
600.97	440.02
601.12	360.44
601.28	428.32
601.44	365.12
601.59	479.81
601.75	447.04
601.91	393.21
602.06	435.34
602.22	540.66
602.37	435.34
602.53	390.87
602.69	425.98
602.84	383.85
603.00	418.96
603.16	449.38
603.31	416.62
603.47	465.77
603.62	416.62
603.78	458.74
603.94	461.09
604.09	381.51
604.25	362.78
604.40	437.68
604.56	468.11
604.71	437.68
604.87	505.56
605.03	468.11
605.18	437.68
605.34	430.66
605.49	444.70
605.65	472.79
605.80	374.49
605.96	440.02
606.12	388.53
606.27	414.27
606.43	362.78
606.58	423.64
606.74	437.68
606.89	400.23
607.05	418.96
607.20	444.70
607.36	374.49
607.51	379.17
607.67	379.17
607.82	447.04
607.98	409.59
608.13	489.17
608.29	458.74
608.44	421.30
608.60	451.72
608.75	461.09
608.91	444.70
609.06	421.30
609.22	479.81
609.37	339.38
609.53	437.68
609.68	374.49
609.84	407.25
609.99	451.72
610.15	477.47
