SpectraSuite Data File
++++++++++++++++++++++++++++++++++++
Date: Fri Oct 25 12:11:42 EDT 2013
User: price-jones
Dark Spectrum Present: No
Reference Spectrum Present: No
Number of Sampled Component Spectra: 1
Spectrometers: USB2+H05261
Integration Time (usec): 100000 (USB2+H05261)
Spectra Averaged: 1 (USB2+H05261)
Boxcar Smoothing: 0 (USB2+H05261)
Correct for Electrical Dark: No (USB2+H05261)
Strobe/Lamp Enabled: No (USB2+H05261)
Correct for Detector Non-linearity: No (USB2+H05261)
Correct for Stray Light: No (USB2+H05261)
Number of Pixels in Processed Spectrum: 2048
>>>>>Begin Processed Spectral Data<<<<<
365.73	287.89
365.92	287.89
366.12	287.89
366.32	304.27
366.52	210.65
366.72	180.22
366.91	222.35
367.11	259.80
367.31	217.67
367.51	294.91
367.70	266.82
367.90	224.69
368.10	236.39
368.30	210.65
368.49	217.67
368.69	273.84
368.89	395.55
369.09	287.89
369.28	290.23
369.48	297.25
369.68	351.08
369.87	285.55
370.07	367.46
370.27	339.38
370.47	386.19
370.66	379.17
370.86	337.04
371.06	346.40
371.25	423.64
371.45	379.17
371.65	337.04
371.84	339.38
372.04	421.30
372.24	381.51
372.44	442.36
372.63	449.38
372.83	386.19
373.03	425.98
373.22	423.64
373.42	418.96
373.62	390.87
373.81	416.62
374.01	437.68
374.21	500.87
374.40	440.02
374.60	440.02
374.79	437.68
374.99	458.74
375.19	425.98
375.38	414.27
375.58	435.34
375.78	440.02
375.97	465.77
376.17	475.13
376.37	402.57
376.56	404.91
376.76	402.57
376.95	381.51
377.15	414.27
377.35	433.00
377.54	449.38
377.74	393.21
377.93	402.57
378.13	428.32
378.33	365.12
378.52	383.85
378.72	402.57
378.91	451.72
379.11	435.34
379.31	379.17
379.50	365.12
379.70	414.27
379.89	348.74
380.09	383.85
380.28	388.53
380.48	369.80
380.68	334.70
380.87	407.25
381.07	348.74
381.26	423.64
381.46	362.78
381.65	395.55
381.85	341.72
382.04	348.74
382.24	332.36
382.43	407.25
382.63	348.74
382.83	367.46
383.02	414.27
383.22	433.00
383.41	386.19
383.61	390.87
383.80	418.96
384.00	440.02
384.19	411.93
384.39	411.93
384.58	458.74
384.78	379.17
384.97	395.55
385.17	418.96
385.36	430.66
385.56	428.32
385.75	414.27
385.95	423.64
386.14	425.98
386.34	393.21
386.53	395.55
386.72	472.79
386.92	418.96
387.11	440.02
387.31	367.46
387.50	372.15
387.70	416.62
387.89	421.30
388.09	430.66
388.28	447.04
388.48	430.66
388.67	381.51
388.86	367.46
389.06	440.02
389.25	390.87
389.45	397.89
389.64	390.87
389.84	433.00
390.03	500.87
390.22	367.46
390.42	348.74
390.61	397.89
390.81	461.09
391.00	379.17
391.19	428.32
391.39	409.59
391.58	355.76
391.78	334.70
391.97	397.89
392.16	381.51
392.36	374.49
392.55	404.91
392.75	386.19
392.94	425.98
393.13	423.64
393.33	447.04
393.52	341.72
393.71	449.38
393.91	418.96
394.10	346.40
394.29	402.57
394.49	397.89
394.68	381.51
394.88	353.42
395.07	454.06
395.26	433.00
395.46	437.68
395.65	416.62
395.84	418.96
396.04	400.23
396.23	374.49
396.42	362.78
396.62	376.83
396.81	367.46
397.00	475.13
397.19	416.62
397.39	407.25
397.58	437.68
397.77	341.72
397.97	372.15
398.16	465.77
398.35	414.27
398.55	390.87
398.74	461.09
398.93	425.98
399.12	440.02
399.32	397.89
399.51	372.15
399.70	379.17
399.90	388.53
400.09	411.93
400.28	409.59
400.47	416.62
400.67	425.98
400.86	447.04
401.05	379.17
401.24	440.02
401.44	407.25
401.63	416.62
401.82	383.85
402.01	390.87
402.21	416.62
402.40	447.04
402.59	374.49
402.78	379.17
402.97	337.04
403.17	477.47
403.36	362.78
403.55	383.85
403.74	430.66
403.93	428.32
404.13	449.38
404.32	386.19
404.51	465.77
404.70	479.81
404.89	433.00
405.09	505.56
405.28	428.32
405.47	404.91
405.66	444.70
405.85	421.30
406.05	318.31
406.24	381.51
406.43	341.72
406.62	449.38
406.81	449.38
407.00	402.57
407.20	397.89
407.39	428.32
407.58	362.78
407.77	402.57
407.96	447.04
408.15	444.70
408.34	409.59
408.54	449.38
408.73	425.98
408.92	379.17
409.11	409.59
409.30	374.49
409.49	400.23
409.68	393.21
409.87	402.57
410.07	360.44
410.26	468.11
410.45	386.19
410.64	383.85
410.83	383.85
411.02	423.64
411.21	346.40
411.40	440.02
411.59	397.89
411.78	395.55
411.98	454.06
412.17	362.78
412.36	390.87
412.55	358.10
412.74	369.80
412.93	491.51
413.12	362.78
413.31	461.09
413.50	416.62
413.69	414.27
413.88	442.36
414.07	414.27
414.26	402.57
414.45	468.11
414.64	470.45
414.83	414.27
415.02	358.10
415.22	379.17
415.41	435.34
415.60	421.30
415.79	425.98
415.98	449.38
416.17	409.59
416.36	407.25
416.55	440.02
416.74	414.27
416.93	379.17
417.12	379.17
417.31	411.93
417.50	400.23
417.69	402.57
417.88	367.46
418.07	379.17
418.26	407.25
418.45	402.57
418.64	393.21
418.83	421.30
419.02	400.23
419.21	390.87
419.39	440.02
419.58	416.62
419.77	407.25
419.96	418.96
420.15	440.02
420.34	447.04
420.53	390.87
420.72	458.74
420.91	421.30
421.10	428.32
421.29	402.57
421.48	472.79
421.67	472.79
421.86	365.12
422.05	430.66
422.24	407.25
422.43	458.74
422.61	411.93
422.80	404.91
422.99	421.30
423.18	397.89
423.37	437.68
423.56	430.66
423.75	353.42
423.94	407.25
424.13	386.19
424.32	383.85
424.50	411.93
424.69	463.43
424.88	404.91
425.07	360.44
425.26	360.44
425.45	456.40
425.64	411.93
425.83	414.27
426.01	390.87
426.20	470.45
426.39	407.25
426.58	430.66
426.77	425.98
426.96	304.27
427.15	409.59
427.33	444.70
427.52	442.36
427.71	425.98
427.90	367.46
428.09	341.72
428.28	400.23
428.46	402.57
428.65	397.89
428.84	454.06
429.03	374.49
429.22	451.72
429.40	430.66
429.59	409.59
429.78	437.68
429.97	468.11
430.16	369.80
430.34	355.76
430.53	381.51
430.72	388.53
430.91	447.04
431.10	397.89
431.28	449.38
431.47	442.36
431.66	451.72
431.85	444.70
432.03	397.89
432.22	592.16
432.41	451.72
432.60	479.81
432.79	451.72
432.97	486.83
433.16	409.59
433.35	367.46
433.54	414.27
433.72	400.23
433.91	339.38
434.10	381.51
434.28	362.78
434.47	451.72
434.66	449.38
434.85	407.25
435.03	486.83
435.22	435.34
435.41	435.34
435.59	449.38
435.78	428.32
435.97	337.04
436.16	360.44
436.34	475.13
436.53	442.36
436.72	449.38
436.90	390.87
437.09	416.62
437.28	404.91
437.46	411.93
437.65	435.34
437.84	421.30
438.02	437.68
438.21	421.30
438.40	322.99
438.58	470.45
438.77	428.32
438.96	411.93
439.14	484.49
439.33	428.32
439.52	414.27
439.70	404.91
439.89	404.91
440.08	397.89
440.26	337.04
440.45	451.72
440.63	470.45
440.82	383.85
441.01	400.23
441.19	383.85
441.38	390.87
441.57	346.40
441.75	447.04
441.94	454.06
442.12	393.21
442.31	395.55
442.50	447.04
442.68	463.43
442.87	407.25
443.05	393.21
443.24	411.93
443.43	484.49
443.61	484.49
443.80	440.02
443.98	390.87
444.17	421.30
444.35	454.06
444.54	421.30
444.73	376.83
444.91	435.34
445.10	451.72
445.28	372.15
445.47	430.66
445.65	472.79
445.84	425.98
446.02	402.57
446.21	428.32
446.39	423.64
446.58	416.62
446.77	428.32
446.95	418.96
447.14	421.30
447.32	411.93
447.51	447.04
447.69	451.72
447.88	475.13
448.06	493.85
448.25	430.66
448.43	362.78
448.62	388.53
448.80	379.17
448.99	402.57
449.17	381.51
449.36	444.70
449.54	458.74
449.73	390.87
449.91	404.91
450.10	442.36
450.28	421.30
450.46	416.62
450.65	402.57
450.83	414.27
451.02	388.53
451.20	374.49
451.39	465.77
451.57	400.23
451.76	365.12
451.94	430.66
452.13	423.64
452.31	404.91
452.49	397.89
452.68	428.32
452.86	428.32
453.05	489.17
453.23	376.83
453.42	468.11
453.60	440.02
453.78	409.59
453.97	454.06
454.15	482.15
454.34	372.15
454.52	390.87
454.70	447.04
454.89	472.79
455.07	416.62
455.26	449.38
455.44	402.57
455.62	388.53
455.81	423.64
455.99	416.62
456.17	470.45
456.36	435.34
456.54	372.15
456.73	390.87
456.91	400.23
457.09	386.19
457.28	437.68
457.46	475.13
457.64	433.00
457.83	386.19
458.01	315.97
458.19	428.32
458.38	369.80
458.56	503.22
458.74	458.74
458.93	451.72
459.11	402.57
459.29	425.98
459.48	447.04
459.66	461.09
459.84	337.04
460.03	475.13
460.21	409.59
460.39	414.27
460.57	470.45
460.76	449.38
460.94	444.70
461.12	500.87
461.31	416.62
461.49	449.38
461.67	433.00
461.85	428.32
462.04	418.96
462.22	800.46
462.40	423.64
462.59	369.80
462.77	430.66
462.95	404.91
463.13	404.91
463.32	479.81
463.50	411.93
463.68	451.72
463.86	465.77
464.05	435.34
464.23	451.72
464.41	425.98
464.59	395.55
464.78	428.32
464.96	458.74
465.14	313.63
465.32	407.25
465.50	393.21
465.69	348.74
465.87	390.87
466.05	442.36
466.23	430.66
466.41	430.66
466.60	407.25
466.78	456.40
466.96	423.64
467.14	418.96
467.32	449.38
467.51	463.43
467.69	451.72
467.87	353.42
468.05	407.25
468.23	423.64
468.41	468.11
468.60	456.40
468.78	428.32
468.96	468.11
469.14	472.79
469.32	440.02
469.50	367.46
469.69	433.00
469.87	437.68
470.05	351.08
470.23	418.96
470.41	428.32
470.59	416.62
470.77	437.68
470.95	463.43
471.14	421.30
471.32	461.09
471.50	433.00
471.68	456.40
471.86	397.89
472.04	365.12
472.22	390.87
472.40	393.21
472.58	388.53
472.77	475.13
472.95	454.06
473.13	486.83
473.31	390.87
473.49	409.59
473.67	409.59
473.85	465.77
474.03	437.68
474.21	468.11
474.39	470.45
474.57	390.87
474.75	411.93
474.93	430.66
475.12	397.89
475.30	362.78
475.48	402.57
475.66	433.00
475.84	390.87
476.02	395.55
476.20	430.66
476.38	374.49
476.56	451.72
476.74	390.87
476.92	327.68
477.10	449.38
477.28	463.43
477.46	423.64
477.64	425.98
477.82	447.04
478.00	451.72
478.18	421.30
478.36	416.62
478.54	477.47
478.72	435.34
478.90	425.98
479.08	411.93
479.26	360.44
479.44	400.23
479.62	409.59
479.80	468.11
479.98	477.47
480.16	402.57
480.34	386.19
480.52	404.91
480.70	416.62
480.88	479.81
481.06	372.15
481.24	402.57
481.41	397.89
481.59	421.30
481.77	360.44
481.95	425.98
482.13	465.77
482.31	463.43
482.49	468.11
482.67	339.38
482.85	379.17
483.03	360.44
483.21	433.00
483.39	400.23
483.57	397.89
483.74	318.31
483.92	404.91
484.10	449.38
484.28	430.66
484.46	472.79
484.64	433.00
484.82	383.85
485.00	418.96
485.18	423.64
485.35	463.43
485.53	369.80
485.71	383.85
485.89	383.85
486.07	390.87
486.25	397.89
486.43	390.87
486.61	451.72
486.78	418.96
486.96	461.09
487.14	409.59
487.32	468.11
487.50	395.55
487.68	346.40
487.85	348.74
488.03	390.87
488.21	449.38
488.39	404.91
488.57	440.02
488.75	376.83
488.92	503.22
489.10	404.91
489.28	348.74
489.46	433.00
489.64	440.02
489.81	411.93
489.99	447.04
490.17	418.96
490.35	468.11
490.53	456.40
490.70	388.53
490.88	477.47
491.06	416.62
491.24	447.04
491.41	449.38
491.59	337.04
491.77	456.40
491.95	440.02
492.13	477.47
492.30	435.34
492.48	409.59
492.66	358.10
492.84	421.30
493.01	346.40
493.19	421.30
493.37	470.45
493.54	362.78
493.72	465.77
493.90	451.72
494.08	423.64
494.25	416.62
494.43	351.08
494.61	362.78
494.79	407.25
494.96	416.62
495.14	421.30
495.32	351.08
495.49	472.79
495.67	484.49
495.85	395.55
496.02	433.00
496.20	411.93
496.38	456.40
496.55	437.68
496.73	367.46
496.91	334.70
497.09	379.17
497.26	433.00
497.44	456.40
497.62	407.25
497.79	442.36
497.97	442.36
498.14	423.64
498.32	402.57
498.50	500.87
498.67	369.80
498.85	458.74
499.03	393.21
499.20	423.64
499.38	440.02
499.56	351.08
499.73	402.57
499.91	444.70
500.08	454.06
500.26	489.17
500.44	416.62
500.61	423.64
500.79	451.72
500.97	425.98
501.14	390.87
501.32	437.68
501.49	397.89
501.67	334.70
501.84	524.28
502.02	365.12
502.20	435.34
502.37	407.25
502.55	411.93
502.72	372.15
502.90	414.27
503.07	400.23
503.25	402.57
503.43	435.34
503.60	423.64
503.78	465.77
503.95	386.19
504.13	393.21
504.30	383.85
504.48	458.74
504.65	449.38
504.83	449.38
505.01	390.87
505.18	386.19
505.36	433.00
505.53	418.96
505.71	395.55
505.88	449.38
506.06	393.21
506.23	411.93
506.41	428.32
506.58	318.31
506.76	358.10
506.93	379.17
507.11	433.00
507.28	454.06
507.46	407.25
507.63	411.93
507.81	388.53
507.98	456.40
508.16	402.57
508.33	414.27
508.50	397.89
508.68	463.43
508.85	430.66
509.03	383.85
509.20	346.40
509.38	397.89
509.55	430.66
509.73	425.98
509.90	463.43
510.08	418.96
510.25	365.12
510.42	397.89
510.60	404.91
510.77	365.12
510.95	367.46
511.12	484.49
511.30	409.59
511.47	383.85
511.64	528.96
511.82	414.27
511.99	390.87
512.17	388.53
512.34	374.49
512.51	428.32
512.69	395.55
512.86	470.45
513.04	435.34
513.21	444.70
513.38	351.08
513.56	395.55
513.73	358.10
513.90	425.98
514.08	402.57
514.25	416.62
514.43	390.87
514.60	402.57
514.77	411.93
514.95	416.62
515.12	393.21
515.29	486.83
515.47	381.51
515.64	355.76
515.81	395.55
515.99	458.74
516.16	433.00
516.33	430.66
516.51	449.38
516.68	475.13
516.85	416.62
517.03	486.83
517.20	411.93
517.37	510.24
517.54	404.91
517.72	404.91
517.89	369.80
518.06	423.64
518.24	528.96
518.41	463.43
518.58	428.32
518.75	407.25
518.93	414.27
519.10	411.93
519.27	365.12
519.45	440.02
519.62	372.15
519.79	404.91
519.96	433.00
520.14	404.91
520.31	416.62
520.48	442.36
520.65	428.32
520.83	482.15
521.00	442.36
521.17	435.34
521.34	376.83
521.52	407.25
521.69	390.87
521.86	465.77
522.03	418.96
522.20	411.93
522.38	397.89
522.55	449.38
522.72	477.47
522.89	404.91
523.07	425.98
523.24	449.38
523.41	367.46
523.58	489.17
523.75	400.23
523.92	414.27
524.10	409.59
524.27	390.87
524.44	425.98
524.61	491.51
524.78	386.19
524.96	404.91
525.13	411.93
525.30	409.59
525.47	444.70
525.64	461.09
525.81	472.79
525.98	449.38
526.16	449.38
526.33	334.70
526.50	486.83
526.67	524.28
526.84	435.34
527.01	393.21
527.18	430.66
527.36	379.17
527.53	400.23
527.70	538.32
527.87	425.98
528.04	444.70
528.21	463.43
528.38	425.98
528.55	423.64
528.72	407.25
528.89	482.15
529.07	465.77
529.24	435.34
529.41	402.57
529.58	463.43
529.75	388.53
529.92	423.64
530.09	367.46
530.26	470.45
530.43	458.74
530.60	381.51
530.77	411.93
530.94	421.30
531.11	454.06
531.28	449.38
531.46	482.15
531.63	428.32
531.80	416.62
531.97	428.32
532.14	505.56
532.31	472.79
532.48	372.15
532.65	451.72
532.82	447.04
532.99	397.89
533.16	381.51
533.33	437.68
533.50	458.74
533.67	409.59
533.84	416.62
534.01	339.38
534.18	411.93
534.35	367.46
534.52	418.96
534.69	414.27
534.86	423.64
535.03	395.55
535.20	437.68
535.37	418.96
535.54	447.04
535.71	423.64
535.88	463.43
536.05	341.72
536.22	416.62
536.38	365.12
536.55	360.44
536.72	386.19
536.89	358.10
537.06	388.53
537.23	367.46
537.40	386.19
537.57	400.23
537.74	486.83
537.91	477.47
538.08	440.02
538.25	395.55
538.42	390.87
538.59	386.19
538.75	486.83
538.92	437.68
539.09	358.10
539.26	449.38
539.43	416.62
539.60	341.72
539.77	447.04
539.94	468.11
540.11	440.02
540.28	451.72
540.44	500.87
540.61	409.59
540.78	383.85
540.95	428.32
541.12	456.40
541.29	369.80
541.46	449.38
541.62	433.00
541.79	447.04
541.96	376.83
542.13	353.42
542.30	477.47
542.47	411.93
542.63	461.09
542.80	400.23
542.97	463.43
543.14	423.64
543.31	489.17
543.48	386.19
543.64	425.98
543.81	409.59
543.98	332.36
544.15	421.30
544.32	454.06
544.48	472.79
544.65	470.45
544.82	440.02
544.99	374.49
545.16	418.96
545.32	425.98
545.49	428.32
545.66	404.91
545.83	463.43
546.00	428.32
546.16	383.85
546.33	367.46
546.50	510.24
546.67	351.08
546.83	344.06
547.00	433.00
547.17	395.55
547.34	386.19
547.50	416.62
547.67	449.38
547.84	414.27
548.00	461.09
548.17	449.38
548.34	409.59
548.51	482.15
548.67	454.06
548.84	421.30
549.01	449.38
549.18	468.11
549.34	428.32
549.51	425.98
549.68	425.98
549.84	374.49
550.01	402.57
550.18	500.87
550.34	442.36
550.51	383.85
550.68	444.70
550.84	444.70
551.01	425.98
551.18	430.66
551.34	433.00
551.51	416.62
551.68	418.96
551.84	442.36
552.01	423.64
552.18	416.62
552.34	421.30
552.51	390.87
552.68	416.62
552.84	388.53
553.01	414.27
553.18	458.74
553.34	395.55
553.51	451.72
553.67	425.98
553.84	521.94
554.01	491.51
554.17	451.72
554.34	447.04
554.51	437.68
554.67	442.36
554.84	374.49
555.00	437.68
555.17	465.77
555.33	472.79
555.50	454.06
555.67	475.13
555.83	390.87
556.00	447.04
556.16	564.07
556.33	458.74
556.50	442.36
556.66	423.64
556.83	381.51
556.99	393.21
557.16	395.55
557.32	470.45
557.49	477.47
557.65	465.77
557.82	430.66
557.98	414.27
558.15	390.87
558.32	362.78
558.48	393.21
558.65	437.68
558.81	386.19
558.98	402.57
559.14	472.79
559.31	433.00
559.47	428.32
559.64	418.96
559.80	355.76
559.97	411.93
560.13	388.53
560.30	475.13
560.46	381.51
560.63	379.17
560.79	433.00
560.96	411.93
561.12	353.42
561.29	486.83
561.45	531.30
561.61	447.04
561.78	477.47
561.94	500.87
562.11	414.27
562.27	411.93
562.44	461.09
562.60	381.51
562.77	463.43
562.93	381.51
563.10	428.32
563.26	440.02
563.42	411.93
563.59	414.27
563.75	325.33
563.92	489.17
564.08	414.27
564.24	411.93
564.41	475.13
564.57	454.06
564.74	397.89
564.90	503.22
565.07	470.45
565.23	447.04
565.39	421.30
565.56	423.64
565.72	437.68
565.88	369.80
566.05	416.62
566.21	500.87
566.38	484.49
566.54	404.91
566.70	442.36
566.87	477.47
567.03	388.53
567.19	449.38
567.36	519.60
567.52	379.17
567.68	468.11
567.85	374.49
568.01	437.68
568.17	379.17
568.34	435.34
568.50	395.55
568.66	433.00
568.83	526.62
568.99	454.06
569.15	416.62
569.32	397.89
569.48	425.98
569.64	395.55
569.81	421.30
569.97	395.55
570.13	477.47
570.30	390.87
570.46	407.25
570.62	411.93
570.78	510.24
570.95	423.64
571.11	379.17
571.27	430.66
571.43	409.59
571.60	435.34
571.76	507.90
571.92	404.91
572.09	379.17
572.25	430.66
572.41	430.66
572.57	383.85
572.74	433.00
572.90	411.93
573.06	395.55
573.22	402.57
573.38	458.74
573.55	374.49
573.71	435.34
573.87	435.34
574.03	423.64
574.20	440.02
574.36	482.15
574.52	393.21
574.68	365.12
574.84	383.85
575.01	416.62
575.17	456.40
575.33	414.27
575.49	430.66
575.65	418.96
575.82	411.93
575.98	498.53
576.14	454.06
576.30	423.64
576.46	404.91
576.62	461.09
576.79	430.66
576.95	416.62
577.11	400.23
577.27	376.83
577.43	421.30
577.59	395.55
577.75	435.34
577.92	411.93
578.08	477.47
578.24	341.72
578.40	458.74
578.56	491.51
578.72	465.77
578.88	407.25
579.04	472.79
579.21	383.85
579.37	449.38
579.53	442.36
579.69	477.47
579.85	330.02
580.01	348.74
580.17	395.55
580.33	468.11
580.49	402.57
580.65	503.22
580.82	440.02
580.98	423.64
581.14	442.36
581.30	447.04
581.46	425.98
581.62	437.68
581.78	451.72
581.94	458.74
582.10	428.32
582.26	376.83
582.42	362.78
582.58	390.87
582.74	475.13
582.90	339.38
583.06	407.25
583.22	379.17
583.38	383.85
583.54	411.93
583.70	472.79
583.86	381.51
584.02	468.11
584.18	442.36
584.34	425.98
584.50	468.11
584.66	449.38
584.82	414.27
584.98	360.44
585.14	416.62
585.30	442.36
585.46	393.21
585.62	360.44
585.78	400.23
585.94	458.74
586.10	437.68
586.26	388.53
586.42	393.21
586.58	416.62
586.74	383.85
586.90	416.62
587.06	358.10
587.22	407.25
587.38	435.34
587.54	402.57
587.70	482.15
587.86	400.23
588.02	461.09
588.18	404.91
588.34	442.36
588.49	411.93
588.65	411.93
588.81	388.53
588.97	435.34
589.13	348.74
589.29	477.47
589.45	472.79
589.61	500.87
589.77	451.72
589.93	362.78
590.08	402.57
590.24	416.62
590.40	418.96
590.56	388.53
590.72	433.00
590.88	397.89
591.04	425.98
591.20	463.43
591.35	425.98
591.51	372.15
591.67	449.38
591.83	390.87
591.99	477.47
592.15	407.25
592.31	437.68
592.46	425.98
592.62	507.90
592.78	465.77
592.94	407.25
593.10	383.85
593.26	360.44
593.41	423.64
593.57	402.57
593.73	386.19
593.89	458.74
594.05	442.36
594.20	402.57
594.36	463.43
594.52	374.49
594.68	346.40
594.84	440.02
594.99	484.49
595.15	458.74
595.31	463.43
595.47	451.72
595.62	395.55
595.78	416.62
595.94	428.32
596.10	393.21
596.25	407.25
596.41	372.15
596.57	315.97
596.73	388.53
596.88	379.17
597.04	458.74
597.20	402.57
597.36	390.87
597.51	372.15
597.67	390.87
597.83	397.89
597.99	428.32
598.14	468.11
598.30	463.43
598.46	447.04
598.61	437.68
598.77	437.68
598.93	451.72
599.09	395.55
599.24	397.89
599.40	440.02
599.56	425.98
599.71	411.93
599.87	397.89
600.03	383.85
600.18	414.27
600.34	358.10
600.50	379.17
600.65	407.25
600.81	393.21
600.97	339.38
601.12	362.78
601.28	538.32
601.44	430.66
601.59	423.64
601.75	409.59
601.91	416.62
602.06	433.00
602.22	465.77
602.37	461.09
602.53	449.38
602.69	526.62
602.84	433.00
603.00	369.80
603.16	421.30
603.31	381.51
603.47	458.74
603.62	404.91
603.78	435.34
603.94	430.66
604.09	416.62
604.25	435.34
604.40	421.30
604.56	425.98
604.71	414.27
604.87	451.72
605.03	430.66
605.18	472.79
605.34	386.19
605.49	475.13
605.65	402.57
605.80	440.02
605.96	414.27
606.12	442.36
606.27	407.25
606.43	341.72
606.58	470.45
606.74	430.66
606.89	425.98
607.05	423.64
607.20	428.32
607.36	383.85
607.51	414.27
607.67	416.62
607.82	376.83
607.98	393.21
608.13	430.66
608.29	440.02
608.44	484.49
608.60	428.32
608.75	510.24
608.91	442.36
609.06	435.34
609.22	449.38
609.37	383.85
609.53	472.79
609.68	409.59
609.84	397.89
609.99	421.30
610.15	454.06
