SpectraSuite Data File
++++++++++++++++++++++++++++++++++++
Date: Fri Oct 25 12:11:30 EDT 2013
User: price-jones
Dark Spectrum Present: No
Reference Spectrum Present: No
Number of Sampled Component Spectra: 1
Spectrometers: USB2+H05261
Integration Time (usec): 100000 (USB2+H05261)
Spectra Averaged: 1 (USB2+H05261)
Boxcar Smoothing: 0 (USB2+H05261)
Correct for Electrical Dark: No (USB2+H05261)
Strobe/Lamp Enabled: No (USB2+H05261)
Correct for Detector Non-linearity: No (USB2+H05261)
Correct for Stray Light: No (USB2+H05261)
Number of Pixels in Processed Spectrum: 2048
>>>>>Begin Processed Spectral Data<<<<<
365.73	376.83
365.92	376.83
366.12	376.83
366.32	208.31
366.52	222.35
366.72	262.14
366.91	222.35
367.11	208.31
367.31	173.20
367.51	243.42
367.70	344.06
367.90	266.82
368.10	224.69
368.30	315.97
368.49	271.50
368.69	236.39
368.89	273.84
369.09	313.63
369.28	205.97
369.48	285.55
369.68	339.38
369.87	294.91
370.07	278.52
370.27	334.70
370.47	308.95
370.66	325.33
370.86	339.38
371.06	393.21
371.25	449.38
371.45	383.85
371.65	393.21
371.84	332.36
372.04	365.12
372.24	393.21
372.44	395.55
372.63	425.98
372.83	425.98
373.03	355.76
373.22	458.74
373.42	376.83
373.62	358.10
373.81	428.32
374.01	454.06
374.21	418.96
374.40	376.83
374.60	435.34
374.79	472.79
374.99	465.77
375.19	517.26
375.38	454.06
375.58	433.00
375.78	437.68
375.97	456.40
376.17	362.78
376.37	463.43
376.56	458.74
376.76	435.34
376.95	383.85
377.15	449.38
377.35	456.40
377.54	388.53
377.74	489.17
377.93	381.51
378.13	383.85
378.33	400.23
378.52	449.38
378.72	351.08
378.91	437.68
379.11	463.43
379.31	421.30
379.50	355.76
379.70	395.55
379.89	400.23
380.09	414.27
380.28	395.55
380.48	353.42
380.68	423.64
380.87	423.64
381.07	365.12
381.26	477.47
381.46	423.64
381.65	365.12
381.85	444.70
382.04	395.55
382.24	433.00
382.43	447.04
382.63	320.65
382.83	407.25
383.02	418.96
383.22	449.38
383.41	418.96
383.61	407.25
383.80	472.79
384.00	423.64
384.19	388.53
384.39	374.49
384.58	477.47
384.78	433.00
384.97	360.44
385.17	454.06
385.36	425.98
385.56	409.59
385.75	428.32
385.95	433.00
386.14	353.42
386.34	372.15
386.53	442.36
386.72	397.89
386.92	423.64
387.11	402.57
387.31	381.51
387.50	395.55
387.70	409.59
387.89	454.06
388.09	404.91
388.28	346.40
388.48	456.40
388.67	418.96
388.86	344.06
389.06	372.15
389.25	433.00
389.45	404.91
389.64	407.25
389.84	379.17
390.03	442.36
390.22	449.38
390.42	435.34
390.61	369.80
390.81	341.72
391.00	383.85
391.19	409.59
391.39	367.46
391.58	409.59
391.78	395.55
391.97	400.23
392.16	440.02
392.36	454.06
392.55	437.68
392.75	447.04
392.94	402.57
393.13	421.30
393.33	472.79
393.52	402.57
393.71	433.00
393.91	456.40
394.10	372.15
394.29	430.66
394.49	451.72
394.68	442.36
394.88	381.51
395.07	444.70
395.26	402.57
395.46	411.93
395.65	416.62
395.84	414.27
396.04	400.23
396.23	407.25
396.42	362.78
396.62	346.40
396.81	386.19
397.00	435.34
397.19	416.62
397.39	362.78
397.58	437.68
397.77	463.43
397.97	423.64
398.16	451.72
398.35	404.91
398.55	390.87
398.74	409.59
398.93	390.87
399.12	355.76
399.32	421.30
399.51	374.49
399.70	465.77
399.90	428.32
400.09	433.00
400.28	355.76
400.47	393.21
400.67	423.64
400.86	337.04
401.05	397.89
401.24	411.93
401.44	454.06
401.63	381.51
401.82	456.40
402.01	414.27
402.21	454.06
402.40	404.91
402.59	355.76
402.78	425.98
402.97	416.62
403.17	435.34
403.36	400.23
403.55	416.62
403.74	358.10
403.93	416.62
404.13	470.45
404.32	425.98
404.51	491.51
404.70	402.57
404.89	383.85
405.09	435.34
405.28	496.19
405.47	454.06
405.66	444.70
405.85	442.36
406.05	447.04
406.24	409.59
406.43	468.11
406.62	433.00
406.81	440.02
407.00	383.85
407.20	348.74
407.39	423.64
407.58	360.44
407.77	360.44
407.96	416.62
408.15	435.34
408.34	386.19
408.54	428.32
408.73	402.57
408.92	334.70
409.11	444.70
409.30	472.79
409.49	376.83
409.68	353.42
409.87	374.49
410.07	358.10
410.26	404.91
410.45	372.15
410.64	423.64
410.83	411.93
411.02	414.27
411.21	470.45
411.40	435.34
411.59	435.34
411.78	507.90
411.98	451.72
412.17	341.72
412.36	425.98
412.55	425.98
412.74	397.89
412.93	482.15
413.12	395.55
413.31	493.85
413.50	491.51
413.69	418.96
413.88	437.68
414.07	407.25
414.26	376.83
414.45	360.44
414.64	437.68
414.83	360.44
415.02	425.98
415.22	395.55
415.41	425.98
415.60	402.57
415.79	404.91
415.98	449.38
416.17	404.91
416.36	397.89
416.55	409.59
416.74	369.80
416.93	423.64
417.12	416.62
417.31	395.55
417.50	353.42
417.69	414.27
417.88	437.68
418.07	374.49
418.26	393.21
418.45	409.59
418.64	393.21
418.83	416.62
419.02	458.74
419.21	444.70
419.39	390.87
419.58	449.38
419.77	376.83
419.96	425.98
420.15	477.47
420.34	348.74
420.53	444.70
420.72	430.66
420.91	353.42
421.10	388.53
421.29	433.00
421.48	458.74
421.67	442.36
421.86	393.21
422.05	440.02
422.24	449.38
422.43	423.64
422.61	346.40
422.80	400.23
422.99	470.45
423.18	477.47
423.37	484.49
423.56	386.19
423.75	456.40
423.94	397.89
424.13	447.04
424.32	369.80
424.50	416.62
424.69	393.21
424.88	449.38
425.07	393.21
425.26	407.25
425.45	416.62
425.64	414.27
425.83	414.27
426.01	418.96
426.20	383.85
426.39	437.68
426.58	409.59
426.77	341.72
426.96	390.87
427.15	386.19
427.33	400.23
427.52	402.57
427.71	369.80
427.90	435.34
428.09	470.45
428.28	433.00
428.46	372.15
428.65	435.34
428.84	411.93
429.03	475.13
429.22	358.10
429.40	388.53
429.59	395.55
429.78	482.15
429.97	400.23
430.16	447.04
430.34	442.36
430.53	449.38
430.72	393.21
430.91	428.32
431.10	369.80
431.28	362.78
431.47	425.98
431.66	423.64
431.85	458.74
432.03	386.19
432.22	482.15
432.41	425.98
432.60	388.53
432.79	402.57
432.97	416.62
433.16	381.51
433.35	395.55
433.54	425.98
433.72	407.25
433.91	390.87
434.10	381.51
434.28	454.06
434.47	491.51
434.66	458.74
434.85	400.23
435.03	411.93
435.22	407.25
435.41	362.78
435.59	404.91
435.78	430.66
435.97	428.32
436.16	430.66
436.34	365.12
436.53	411.93
436.72	414.27
436.90	451.72
437.09	367.46
437.28	416.62
437.46	414.27
437.65	437.68
437.84	447.04
438.02	383.85
438.21	388.53
438.40	402.57
438.58	418.96
438.77	400.23
438.96	393.21
439.14	418.96
439.33	379.17
439.52	472.79
439.70	407.25
439.89	416.62
440.08	411.93
440.26	444.70
440.45	397.89
440.63	395.55
440.82	348.74
441.01	409.59
441.19	423.64
441.38	397.89
441.57	402.57
441.75	423.64
441.94	421.30
442.12	383.85
442.31	390.87
442.50	421.30
442.68	423.64
442.87	411.93
443.05	435.34
443.24	376.83
443.43	355.76
443.61	351.08
443.80	402.57
443.98	383.85
444.17	411.93
444.35	416.62
444.54	421.30
444.73	404.91
444.91	416.62
445.10	444.70
445.28	433.00
445.47	390.87
445.65	388.53
445.84	435.34
446.02	374.49
446.21	386.19
446.39	322.99
446.58	414.27
446.77	477.47
446.95	379.17
447.14	341.72
447.32	404.91
447.51	423.64
447.69	479.81
447.88	416.62
448.06	425.98
448.25	393.21
448.43	447.04
448.62	365.12
448.80	437.68
448.99	390.87
449.17	425.98
449.36	341.72
449.54	454.06
449.73	367.46
449.91	461.09
450.10	381.51
450.28	498.53
450.46	440.02
450.65	428.32
450.83	425.98
451.02	353.42
451.20	367.46
451.39	435.34
451.57	379.17
451.76	421.30
451.94	433.00
452.13	454.06
452.31	418.96
452.49	411.93
452.68	411.93
452.86	418.96
453.05	440.02
453.23	444.70
453.42	433.00
453.60	442.36
453.78	374.49
453.97	411.93
454.15	400.23
454.34	395.55
454.52	400.23
454.70	454.06
454.89	477.47
455.07	402.57
455.26	491.51
455.44	416.62
455.62	409.59
455.81	461.09
455.99	416.62
456.17	369.80
456.36	355.76
456.54	444.70
456.73	395.55
456.91	435.34
457.09	458.74
457.28	395.55
457.46	435.34
457.64	433.00
457.83	376.83
458.01	388.53
458.19	437.68
458.38	390.87
458.56	437.68
458.74	404.91
458.93	397.89
459.11	468.11
459.29	388.53
459.48	402.57
459.66	437.68
459.84	458.74
460.03	472.79
460.21	454.06
460.39	416.62
460.57	388.53
460.76	454.06
460.94	418.96
461.12	407.25
461.31	416.62
461.49	365.12
461.67	395.55
461.85	418.96
462.04	372.15
462.22	835.57
462.40	409.59
462.59	449.38
462.77	351.08
462.95	442.36
463.13	395.55
463.32	423.64
463.50	449.38
463.68	400.23
463.86	407.25
464.05	433.00
464.23	433.00
464.41	463.43
464.59	365.12
464.78	395.55
464.96	365.12
465.14	454.06
465.32	362.78
465.50	442.36
465.69	477.47
465.87	388.53
466.05	416.62
466.23	411.93
466.41	465.77
466.60	388.53
466.78	440.02
466.96	430.66
467.14	381.51
467.32	535.98
467.51	409.59
467.69	449.38
467.87	461.09
468.05	486.83
468.23	505.56
468.41	435.34
468.60	409.59
468.78	435.34
468.96	390.87
469.14	383.85
469.32	358.10
469.50	423.64
469.69	381.51
469.87	372.15
470.05	400.23
470.23	442.36
470.41	465.77
470.59	442.36
470.77	416.62
470.95	402.57
471.14	435.34
471.32	383.85
471.50	449.38
471.68	440.02
471.86	409.59
472.04	454.06
472.22	390.87
472.40	365.12
472.58	379.17
472.77	510.24
472.95	435.34
473.13	423.64
473.31	428.32
473.49	442.36
473.67	374.49
473.85	468.11
474.03	430.66
474.21	367.46
474.39	444.70
474.57	498.53
474.75	486.83
474.93	334.70
475.12	372.15
475.30	411.93
475.48	440.02
475.66	397.89
475.84	386.19
476.02	390.87
476.20	472.79
476.38	472.79
476.56	447.04
476.74	444.70
476.92	456.40
477.10	444.70
477.28	512.58
477.46	447.04
477.64	458.74
477.82	496.19
478.00	365.12
478.18	404.91
478.36	397.89
478.54	416.62
478.72	330.02
478.90	447.04
479.08	421.30
479.26	395.55
479.44	395.55
479.62	468.11
479.80	379.17
479.98	404.91
480.16	496.19
480.34	458.74
480.52	381.51
480.70	428.32
480.88	327.68
481.06	416.62
481.24	404.91
481.41	411.93
481.59	423.64
481.77	477.47
481.95	470.45
482.13	451.72
482.31	425.98
482.49	425.98
482.67	423.64
482.85	468.11
483.03	334.70
483.21	414.27
483.39	414.27
483.57	379.17
483.74	400.23
483.92	475.13
484.10	461.09
484.28	449.38
484.46	416.62
484.64	449.38
484.82	433.00
485.00	493.85
485.18	411.93
485.35	454.06
485.53	355.76
485.71	470.45
485.89	409.59
486.07	430.66
486.25	449.38
486.43	390.87
486.61	425.98
486.78	402.57
486.96	423.64
487.14	463.43
487.32	365.12
487.50	388.53
487.68	397.89
487.85	435.34
488.03	442.36
488.21	458.74
488.39	447.04
488.57	367.46
488.75	440.02
488.92	578.11
489.10	358.10
489.28	418.96
489.46	414.27
489.64	355.76
489.81	458.74
489.99	383.85
490.17	388.53
490.35	433.00
490.53	360.44
490.70	337.04
490.88	418.96
491.06	425.98
491.24	407.25
491.41	416.62
491.59	451.72
491.77	418.96
491.95	425.98
492.13	397.89
492.30	428.32
492.48	395.55
492.66	425.98
492.84	365.12
493.01	444.70
493.19	442.36
493.37	454.06
493.54	435.34
493.72	402.57
493.90	414.27
494.08	365.12
494.25	390.87
494.43	379.17
494.61	383.85
494.79	362.78
494.96	381.51
495.14	393.21
495.32	308.95
495.49	421.30
495.67	388.53
495.85	461.09
496.02	400.23
496.20	421.30
496.38	447.04
496.55	414.27
496.73	521.94
496.91	358.10
497.09	423.64
497.26	472.79
497.44	433.00
497.62	404.91
497.79	369.80
497.97	440.02
498.14	383.85
498.32	428.32
498.50	400.23
498.67	402.57
498.85	393.21
499.03	458.74
499.20	414.27
499.38	402.57
499.56	470.45
499.73	423.64
499.91	442.36
500.08	381.51
500.26	409.59
500.44	402.57
500.61	435.34
500.79	409.59
500.97	435.34
501.14	472.79
501.32	348.74
501.49	369.80
501.67	369.80
501.84	402.57
502.02	379.17
502.20	423.64
502.37	395.55
502.55	437.68
502.72	421.30
502.90	449.38
503.07	421.30
503.25	421.30
503.43	425.98
503.60	418.96
503.78	437.68
503.95	444.70
504.13	444.70
504.30	381.51
504.48	402.57
504.65	414.27
504.83	409.59
505.01	407.25
505.18	444.70
505.36	414.27
505.53	402.57
505.71	390.87
505.88	421.30
506.06	468.11
506.23	486.83
506.41	390.87
506.58	449.38
506.76	430.66
506.93	428.32
507.11	322.99
507.28	418.96
507.46	435.34
507.63	437.68
507.81	430.66
507.98	447.04
508.16	397.89
508.33	402.57
508.50	411.93
508.68	395.55
508.85	416.62
509.03	440.02
509.20	404.91
509.38	468.11
509.55	456.40
509.73	390.87
509.90	423.64
510.08	435.34
510.25	404.91
510.42	407.25
510.60	468.11
510.77	463.43
510.95	470.45
511.12	440.02
511.30	395.55
511.47	414.27
511.64	458.74
511.82	395.55
511.99	433.00
512.17	416.62
512.34	376.83
512.51	369.80
512.69	388.53
512.86	428.32
513.04	491.51
513.21	416.62
513.38	416.62
513.56	388.53
513.73	351.08
513.90	414.27
514.08	440.02
514.25	395.55
514.43	440.02
514.60	498.53
514.77	400.23
514.95	393.21
515.12	416.62
515.29	379.17
515.47	461.09
515.64	454.06
515.81	390.87
515.99	477.47
516.16	428.32
516.33	414.27
516.51	451.72
516.68	437.68
516.85	428.32
517.03	353.42
517.20	479.81
517.37	468.11
517.54	423.64
517.72	416.62
517.89	393.21
518.06	397.89
518.24	341.72
518.41	470.45
518.58	381.51
518.75	414.27
518.93	425.98
519.10	407.25
519.27	407.25
519.45	442.36
519.62	463.43
519.79	409.59
519.96	402.57
520.14	489.17
520.31	437.68
520.48	402.57
520.65	386.19
520.83	416.62
521.00	444.70
521.17	463.43
521.34	393.21
521.52	475.13
521.69	390.87
521.86	423.64
522.03	423.64
522.20	503.22
522.38	430.66
522.55	414.27
522.72	390.87
522.89	421.30
523.07	470.45
523.24	397.89
523.41	367.46
523.58	418.96
523.75	451.72
523.92	374.49
524.10	442.36
524.27	447.04
524.44	355.76
524.61	423.64
524.78	404.91
524.96	416.62
525.13	454.06
525.30	393.21
525.47	423.64
525.64	421.30
525.81	449.38
525.98	423.64
526.16	409.59
526.33	472.79
526.50	411.93
526.67	344.06
526.84	414.27
527.01	468.11
527.18	437.68
527.36	437.68
527.53	379.17
527.70	404.91
527.87	348.74
528.04	475.13
528.21	430.66
528.38	383.85
528.55	430.66
528.72	390.87
528.89	433.00
529.07	472.79
529.24	423.64
529.41	407.25
529.58	418.96
529.75	407.25
529.92	437.68
530.09	435.34
530.26	423.64
530.43	461.09
530.60	407.25
530.77	456.40
530.94	360.44
531.11	365.12
531.28	353.42
531.46	414.27
531.63	390.87
531.80	451.72
531.97	388.53
532.14	381.51
532.31	416.62
532.48	411.93
532.65	388.53
532.82	407.25
532.99	386.19
533.16	425.98
533.33	404.91
533.50	416.62
533.67	418.96
533.84	402.57
534.01	365.12
534.18	442.36
534.35	425.98
534.52	470.45
534.69	472.79
534.86	390.87
535.03	386.19
535.20	346.40
535.37	430.66
535.54	449.38
535.71	374.49
535.88	388.53
536.05	376.83
536.22	369.80
536.38	451.72
536.55	449.38
536.72	346.40
536.89	416.62
537.06	440.02
537.23	454.06
537.40	451.72
537.57	449.38
537.74	477.47
537.91	444.70
538.08	409.59
538.25	451.72
538.42	447.04
538.59	402.57
538.75	470.45
538.92	421.30
539.09	411.93
539.26	381.51
539.43	477.47
539.60	484.49
539.77	472.79
539.94	447.04
540.11	458.74
540.28	475.13
540.44	440.02
540.61	351.08
540.78	475.13
540.95	386.19
541.12	465.77
541.29	315.97
541.46	451.72
541.62	400.23
541.79	475.13
541.96	351.08
542.13	430.66
542.30	407.25
542.47	386.19
542.63	379.17
542.80	463.43
542.97	472.79
543.14	440.02
543.31	433.00
543.48	425.98
543.64	418.96
543.81	486.83
543.98	458.74
544.15	381.51
544.32	444.70
544.48	395.55
544.65	447.04
544.82	388.53
544.99	334.70
545.16	425.98
545.32	468.11
545.49	414.27
545.66	397.89
545.83	433.00
546.00	383.85
546.16	407.25
546.33	428.32
546.50	388.53
546.67	461.09
546.83	423.64
547.00	449.38
547.17	475.13
547.34	341.72
547.50	463.43
547.67	425.98
547.84	355.76
548.00	430.66
548.17	397.89
548.34	369.80
548.51	475.13
548.67	435.34
548.84	390.87
549.01	437.68
549.18	411.93
549.34	435.34
549.51	409.59
549.68	454.06
549.84	400.23
550.01	395.55
550.18	503.22
550.34	503.22
550.51	444.70
550.68	505.56
550.84	423.64
551.01	418.96
551.18	465.77
551.34	425.98
551.51	402.57
551.68	442.36
551.84	397.89
552.01	355.76
552.18	465.77
552.34	397.89
552.51	433.00
552.68	435.34
552.84	334.70
553.01	390.87
553.18	428.32
553.34	454.06
553.51	369.80
553.67	423.64
553.84	531.30
554.01	388.53
554.17	428.32
554.34	500.87
554.51	435.34
554.67	435.34
554.84	437.68
555.00	381.51
555.17	430.66
555.33	465.77
555.50	423.64
555.67	376.83
555.83	447.04
556.00	430.66
556.16	540.66
556.33	475.13
556.50	411.93
556.66	360.44
556.83	386.19
556.99	397.89
557.16	512.58
557.32	353.42
557.49	388.53
557.65	409.59
557.82	425.98
557.98	355.76
558.15	355.76
558.32	440.02
558.48	428.32
558.65	407.25
558.81	428.32
558.98	482.15
559.14	390.87
559.31	475.13
559.47	388.53
559.64	407.25
559.80	430.66
559.97	397.89
560.13	402.57
560.30	484.49
560.46	386.19
560.63	376.83
560.79	456.40
560.96	421.30
561.12	409.59
561.29	475.13
561.45	447.04
561.61	433.00
561.78	521.94
561.94	362.78
562.11	360.44
562.27	437.68
562.44	397.89
562.60	475.13
562.77	421.30
562.93	479.81
563.10	393.21
563.26	369.80
563.42	442.36
563.59	465.77
563.75	395.55
563.92	435.34
564.08	416.62
564.24	421.30
564.41	451.72
564.57	433.00
564.74	395.55
564.90	458.74
565.07	458.74
565.23	498.53
565.39	519.60
565.56	444.70
565.72	440.02
565.88	461.09
566.05	489.17
566.21	500.87
566.38	390.87
566.54	442.36
566.70	402.57
566.87	362.78
567.03	437.68
567.19	362.78
567.36	416.62
567.52	484.49
567.68	458.74
567.85	486.83
568.01	376.83
568.17	365.12
568.34	409.59
568.50	418.96
568.66	440.02
568.83	512.58
568.99	456.40
569.15	465.77
569.32	404.91
569.48	369.80
569.64	418.96
569.81	414.27
569.97	444.70
570.13	376.83
570.30	468.11
570.46	491.51
570.62	458.74
570.78	458.74
570.95	313.63
571.11	435.34
571.27	442.36
571.43	423.64
571.60	475.13
571.76	430.66
571.92	344.06
572.09	430.66
572.25	388.53
572.41	379.17
572.57	393.21
572.74	416.62
572.90	435.34
573.06	430.66
573.22	430.66
573.38	416.62
573.55	397.89
573.71	433.00
573.87	416.62
574.03	351.08
574.20	458.74
574.36	475.13
574.52	423.64
574.68	442.36
574.84	435.34
575.01	461.09
575.17	411.93
575.33	388.53
575.49	454.06
575.65	421.30
575.82	430.66
575.98	388.53
576.14	353.42
576.30	402.57
576.46	365.12
576.62	489.17
576.79	430.66
576.95	484.49
577.11	418.96
577.27	376.83
577.43	456.40
577.59	414.27
577.75	454.06
577.92	454.06
578.08	433.00
578.24	367.46
578.40	461.09
578.56	435.34
578.72	430.66
578.88	416.62
579.04	456.40
579.21	449.38
579.37	400.23
579.53	402.57
579.69	430.66
579.85	365.12
580.01	437.68
580.17	456.40
580.33	440.02
580.49	454.06
580.65	418.96
580.82	479.81
580.98	451.72
581.14	383.85
581.30	386.19
581.46	409.59
581.62	463.43
581.78	449.38
581.94	416.62
582.10	346.40
582.26	465.77
582.42	472.79
582.58	435.34
582.74	386.19
582.90	362.78
583.06	402.57
583.22	358.10
583.38	416.62
583.54	418.96
583.70	440.02
583.86	416.62
584.02	407.25
584.18	433.00
584.34	435.34
584.50	418.96
584.66	418.96
584.82	397.89
584.98	390.87
585.14	386.19
585.30	442.36
585.46	500.87
585.62	381.51
585.78	423.64
585.94	423.64
586.10	404.91
586.26	383.85
586.42	500.87
586.58	395.55
586.74	433.00
586.90	402.57
587.06	428.32
587.22	400.23
587.38	395.55
587.54	440.02
587.70	468.11
587.86	535.98
588.02	425.98
588.18	510.24
588.34	444.70
588.49	337.04
588.65	472.79
588.81	428.32
588.97	411.93
589.13	395.55
589.29	449.38
589.45	482.15
589.61	477.47
589.77	428.32
589.93	395.55
590.08	400.23
590.24	433.00
590.40	407.25
590.56	409.59
590.72	411.93
590.88	334.70
591.04	402.57
591.20	369.80
591.35	449.38
591.51	423.64
591.67	444.70
591.83	381.51
591.99	430.66
592.15	463.43
592.31	425.98
592.46	428.32
592.62	456.40
592.78	468.11
592.94	416.62
593.10	374.49
593.26	400.23
593.41	489.17
593.57	421.30
593.73	437.68
593.89	444.70
594.05	376.83
594.20	407.25
594.36	409.59
594.52	360.44
594.68	421.30
594.84	404.91
594.99	447.04
595.15	388.53
595.31	449.38
595.47	484.49
595.62	440.02
595.78	407.25
595.94	430.66
596.10	451.72
596.25	376.83
596.41	442.36
596.57	447.04
596.73	411.93
596.88	433.00
597.04	390.87
597.20	418.96
597.36	468.11
597.51	433.00
597.67	416.62
597.83	409.59
597.99	416.62
598.14	479.81
598.30	433.00
598.46	376.83
598.61	479.81
598.77	365.12
598.93	397.89
599.09	428.32
599.24	407.25
599.40	444.70
599.56	379.17
599.71	425.98
599.87	461.09
600.03	444.70
600.18	425.98
600.34	454.06
600.50	393.21
600.65	376.83
600.81	418.96
600.97	390.87
601.12	404.91
601.28	449.38
601.44	493.85
601.59	386.19
601.75	402.57
601.91	397.89
602.06	449.38
602.22	409.59
602.37	423.64
602.53	416.62
602.69	395.55
602.84	447.04
603.00	428.32
603.16	360.44
603.31	433.00
603.47	379.17
603.62	397.89
603.78	510.24
603.94	461.09
604.09	379.17
604.25	402.57
604.40	449.38
604.56	414.27
604.71	430.66
604.87	430.66
605.03	416.62
605.18	428.32
605.34	416.62
605.49	425.98
605.65	322.99
605.80	433.00
605.96	390.87
606.12	402.57
606.27	374.49
606.43	369.80
606.58	360.44
606.74	409.59
606.89	376.83
607.05	369.80
607.20	395.55
607.36	395.55
607.51	367.46
607.67	440.02
607.82	395.55
607.98	435.34
608.13	404.91
608.29	383.85
608.44	461.09
608.60	463.43
608.75	430.66
608.91	425.98
609.06	430.66
609.22	322.99
609.37	456.40
609.53	355.76
609.68	458.74
609.84	414.27
609.99	388.53
610.15	416.62
