SpectraSuite Data File
++++++++++++++++++++++++++++++++++++
Date: Fri Oct 25 12:11:46 EDT 2013
User: price-jones
Dark Spectrum Present: No
Reference Spectrum Present: No
Number of Sampled Component Spectra: 1
Spectrometers: USB2+H05261
Integration Time (usec): 100000 (USB2+H05261)
Spectra Averaged: 1 (USB2+H05261)
Boxcar Smoothing: 0 (USB2+H05261)
Correct for Electrical Dark: No (USB2+H05261)
Strobe/Lamp Enabled: No (USB2+H05261)
Correct for Detector Non-linearity: No (USB2+H05261)
Correct for Stray Light: No (USB2+H05261)
Number of Pixels in Processed Spectrum: 2048
>>>>>Begin Processed Spectral Data<<<<<
365.73	365.12
365.92	365.12
366.12	365.12
366.32	297.25
366.52	229.37
366.72	241.08
366.91	245.76
367.11	285.55
367.31	180.22
367.51	170.86
367.70	243.42
367.90	278.52
368.10	313.63
368.30	264.48
368.49	278.52
368.69	304.27
368.89	180.22
369.09	262.14
369.28	285.55
369.48	271.50
369.68	287.89
369.87	306.61
370.07	287.89
370.27	355.76
370.47	318.31
370.66	311.29
370.86	355.76
371.06	362.78
371.25	367.46
371.45	355.76
371.65	393.21
371.84	320.65
372.04	348.74
372.24	362.78
372.44	315.97
372.63	372.15
372.83	390.87
373.03	435.34
373.22	332.36
373.42	383.85
373.62	423.64
373.81	388.53
374.01	472.79
374.21	470.45
374.40	482.15
374.60	447.04
374.79	386.19
374.99	386.19
375.19	456.40
375.38	449.38
375.58	430.66
375.78	456.40
375.97	463.43
376.17	421.30
376.37	407.25
376.56	397.89
376.76	428.32
376.95	465.77
377.15	418.96
377.35	463.43
377.54	468.11
377.74	416.62
377.93	369.80
378.13	409.59
378.33	348.74
378.52	407.25
378.72	435.34
378.91	458.74
379.11	393.21
379.31	444.70
379.50	369.80
379.70	475.13
379.89	449.38
380.09	440.02
380.28	348.74
380.48	332.36
380.68	351.08
380.87	372.15
381.07	376.83
381.26	400.23
381.46	454.06
381.65	341.72
381.85	472.79
382.04	433.00
382.24	351.08
382.43	358.10
382.63	344.06
382.83	397.89
383.02	407.25
383.22	411.93
383.41	418.96
383.61	442.36
383.80	447.04
384.00	430.66
384.19	374.49
384.39	463.43
384.58	440.02
384.78	397.89
384.97	468.11
385.17	411.93
385.36	449.38
385.56	400.23
385.75	451.72
385.95	461.09
386.14	449.38
386.34	369.80
386.53	449.38
386.72	322.99
386.92	456.40
387.11	430.66
387.31	330.02
387.50	365.12
387.70	393.21
387.89	416.62
388.09	479.81
388.28	393.21
388.48	442.36
388.67	411.93
388.86	404.91
389.06	400.23
389.25	407.25
389.45	393.21
389.64	484.49
389.84	489.17
390.03	486.83
390.22	414.27
390.42	400.23
390.61	414.27
390.81	393.21
391.00	425.98
391.19	400.23
391.39	472.79
391.58	400.23
391.78	416.62
391.97	451.72
392.16	447.04
392.36	369.80
392.55	367.46
392.75	433.00
392.94	447.04
393.13	409.59
393.33	376.83
393.52	461.09
393.71	407.25
393.91	372.15
394.10	381.51
394.29	454.06
394.49	346.40
394.68	421.30
394.88	437.68
395.07	437.68
395.26	437.68
395.46	435.34
395.65	433.00
395.84	346.40
396.04	468.11
396.23	379.17
396.42	346.40
396.62	390.87
396.81	475.13
397.00	386.19
397.19	418.96
397.39	404.91
397.58	416.62
397.77	369.80
397.97	353.42
398.16	374.49
398.35	341.72
398.55	369.80
398.74	369.80
398.93	423.64
399.12	409.59
399.32	505.56
399.51	400.23
399.70	404.91
399.90	430.66
400.09	437.68
400.28	435.34
400.47	393.21
400.67	374.49
400.86	421.30
401.05	404.91
401.24	435.34
401.44	425.98
401.63	278.52
401.82	346.40
402.01	428.32
402.21	388.53
402.40	486.83
402.59	425.98
402.78	444.70
402.97	407.25
403.17	449.38
403.36	479.81
403.55	423.64
403.74	402.57
403.93	447.04
404.13	360.44
404.32	367.46
404.51	418.96
404.70	430.66
404.89	411.93
405.09	381.51
405.28	376.83
405.47	430.66
405.66	327.68
405.85	496.19
406.05	411.93
406.24	404.91
406.43	437.68
406.62	376.83
406.81	440.02
407.00	449.38
407.20	465.77
407.39	440.02
407.58	423.64
407.77	418.96
407.96	430.66
408.15	433.00
408.34	421.30
408.54	409.59
408.73	376.83
408.92	397.89
409.11	386.19
409.30	430.66
409.49	322.99
409.68	395.55
409.87	367.46
410.07	369.80
410.26	433.00
410.45	437.68
410.64	433.00
410.83	360.44
411.02	421.30
411.21	503.22
411.40	407.25
411.59	390.87
411.78	451.72
411.98	447.04
412.17	360.44
412.36	390.87
412.55	470.45
412.74	416.62
412.93	442.36
413.12	383.85
413.31	521.94
413.50	334.70
413.69	367.46
413.88	402.57
414.07	386.19
414.26	444.70
414.45	395.55
414.64	437.68
414.83	447.04
415.02	437.68
415.22	322.99
415.41	388.53
415.60	388.53
415.79	374.49
415.98	395.55
416.17	402.57
416.36	433.00
416.55	369.80
416.74	482.15
416.93	440.02
417.12	418.96
417.31	435.34
417.50	353.42
417.69	430.66
417.88	351.08
418.07	437.68
418.26	479.81
418.45	402.57
418.64	477.47
418.83	454.06
419.02	407.25
419.21	365.12
419.39	404.91
419.58	374.49
419.77	416.62
419.96	437.68
420.15	418.96
420.34	390.87
420.53	334.70
420.72	472.79
420.91	390.87
421.10	472.79
421.29	444.70
421.48	463.43
421.67	423.64
421.86	369.80
422.05	444.70
422.24	421.30
422.43	440.02
422.61	402.57
422.80	393.21
422.99	458.74
423.18	414.27
423.37	461.09
423.56	414.27
423.75	456.40
423.94	376.83
424.13	337.04
424.32	374.49
424.50	369.80
424.69	348.74
424.88	425.98
425.07	390.87
425.26	402.57
425.45	379.17
425.64	351.08
425.83	416.62
426.01	437.68
426.20	409.59
426.39	418.96
426.58	386.19
426.77	425.98
426.96	393.21
427.15	404.91
427.33	418.96
427.52	430.66
427.71	472.79
427.90	416.62
428.09	451.72
428.28	423.64
428.46	428.32
428.65	374.49
428.84	423.64
429.03	430.66
429.22	383.85
429.40	388.53
429.59	435.34
429.78	425.98
429.97	444.70
430.16	402.57
430.34	442.36
430.53	407.25
430.72	386.19
430.91	461.09
431.10	344.06
431.28	388.53
431.47	388.53
431.66	388.53
431.85	355.76
432.03	386.19
432.22	475.13
432.41	463.43
432.60	425.98
432.79	416.62
432.97	386.19
433.16	468.11
433.35	360.44
433.54	430.66
433.72	456.40
433.91	404.91
434.10	337.04
434.28	425.98
434.47	383.85
434.66	449.38
434.85	433.00
435.03	423.64
435.22	395.55
435.41	386.19
435.59	360.44
435.78	456.40
435.97	440.02
436.16	411.93
436.34	418.96
436.53	390.87
436.72	449.38
436.90	468.11
437.09	461.09
437.28	475.13
437.46	440.02
437.65	451.72
437.84	437.68
438.02	454.06
438.21	421.30
438.40	383.85
438.58	416.62
438.77	442.36
438.96	400.23
439.14	383.85
439.33	465.77
439.52	486.83
439.70	461.09
439.89	454.06
440.08	428.32
440.26	400.23
440.45	397.89
440.63	411.93
440.82	482.15
441.01	456.40
441.19	386.19
441.38	388.53
441.57	454.06
441.75	409.59
441.94	360.44
442.12	496.19
442.31	395.55
442.50	418.96
442.68	418.96
442.87	351.08
443.05	428.32
443.24	372.15
443.43	423.64
443.61	411.93
443.80	395.55
443.98	425.98
444.17	393.21
444.35	390.87
444.54	397.89
444.73	393.21
444.91	381.51
445.10	430.66
445.28	383.85
445.47	390.87
445.65	393.21
445.84	458.74
446.02	390.87
446.21	470.45
446.39	414.27
446.58	393.21
446.77	433.00
446.95	386.19
447.14	376.83
447.32	430.66
447.51	435.34
447.69	353.42
447.88	442.36
448.06	449.38
448.25	421.30
448.43	430.66
448.62	379.17
448.80	440.02
448.99	402.57
449.17	454.06
449.36	369.80
449.54	421.30
449.73	435.34
449.91	407.25
450.10	440.02
450.28	423.64
450.46	463.43
450.65	430.66
450.83	430.66
451.02	390.87
451.20	407.25
451.39	390.87
451.57	475.13
451.76	404.91
451.94	479.81
452.13	423.64
452.31	486.83
452.49	449.38
452.68	397.89
452.86	367.46
453.05	407.25
453.23	332.36
453.42	379.17
453.60	421.30
453.78	479.81
453.97	383.85
454.15	489.17
454.34	454.06
454.52	465.77
454.70	468.11
454.89	435.34
455.07	425.98
455.26	379.17
455.44	433.00
455.62	468.11
455.81	409.59
455.99	402.57
456.17	390.87
456.36	440.02
456.54	383.85
456.73	325.33
456.91	381.51
457.09	451.72
457.28	360.44
457.46	437.68
457.64	519.60
457.83	367.46
458.01	308.95
458.19	374.49
458.38	425.98
458.56	454.06
458.74	433.00
458.93	344.06
459.11	372.15
459.29	379.17
459.48	468.11
459.66	383.85
459.84	411.93
460.03	514.92
460.21	475.13
460.39	327.68
460.57	433.00
460.76	365.12
460.94	383.85
461.12	442.36
461.31	428.32
461.49	376.83
461.67	344.06
461.85	437.68
462.04	397.89
462.22	763.01
462.40	486.83
462.59	435.34
462.77	409.59
462.95	374.49
463.13	444.70
463.32	482.15
463.50	397.89
463.68	395.55
463.86	418.96
464.05	470.45
464.23	456.40
464.41	421.30
464.59	451.72
464.78	421.30
464.96	444.70
465.14	379.17
465.32	365.12
465.50	355.76
465.69	454.06
465.87	353.42
466.05	475.13
466.23	505.56
466.41	395.55
466.60	360.44
466.78	383.85
466.96	423.64
467.14	393.21
467.32	369.80
467.51	423.64
467.69	447.04
467.87	468.11
468.05	386.19
468.23	475.13
468.41	451.72
468.60	421.30
468.78	433.00
468.96	493.85
469.14	437.68
469.32	376.83
469.50	369.80
469.69	414.27
469.87	381.51
470.05	454.06
470.23	411.93
470.41	388.53
470.59	393.21
470.77	355.76
470.95	386.19
471.14	437.68
471.32	400.23
471.50	418.96
471.68	379.17
471.86	454.06
472.04	425.98
472.22	458.74
472.40	388.53
472.58	386.19
472.77	433.00
472.95	411.93
473.13	425.98
473.31	454.06
473.49	428.32
473.67	437.68
473.85	475.13
474.03	475.13
474.21	444.70
474.39	507.90
474.57	465.77
474.75	444.70
474.93	402.57
475.12	308.95
475.30	411.93
475.48	374.49
475.66	402.57
475.84	374.49
476.02	367.46
476.20	435.34
476.38	433.00
476.56	470.45
476.74	379.17
476.92	395.55
477.10	402.57
477.28	440.02
477.46	435.34
477.64	521.94
477.82	390.87
478.00	383.85
478.18	395.55
478.36	400.23
478.54	383.85
478.72	428.32
478.90	447.04
479.08	379.17
479.26	454.06
479.44	423.64
479.62	365.12
479.80	411.93
479.98	369.80
480.16	428.32
480.34	416.62
480.52	423.64
480.70	388.53
480.88	362.78
481.06	388.53
481.24	444.70
481.41	369.80
481.59	454.06
481.77	407.25
481.95	374.49
482.13	383.85
482.31	407.25
482.49	433.00
482.67	447.04
482.85	437.68
483.03	358.10
483.21	440.02
483.39	348.74
483.57	433.00
483.74	440.02
483.92	393.21
484.10	402.57
484.28	435.34
484.46	421.30
484.64	491.51
484.82	435.34
485.00	447.04
485.18	416.62
485.35	416.62
485.53	463.43
485.71	449.38
485.89	348.74
486.07	400.23
486.25	423.64
486.43	451.72
486.61	416.62
486.78	376.83
486.96	411.93
487.14	379.17
487.32	425.98
487.50	468.11
487.68	381.51
487.85	433.00
488.03	465.77
488.21	465.77
488.39	482.15
488.57	449.38
488.75	440.02
488.92	486.83
489.10	411.93
489.28	437.68
489.46	440.02
489.64	433.00
489.81	416.62
489.99	421.30
490.17	454.06
490.35	482.15
490.53	479.81
490.70	388.53
490.88	416.62
491.06	454.06
491.24	433.00
491.41	414.27
491.59	428.32
491.77	411.93
491.95	423.64
492.13	390.87
492.30	404.91
492.48	423.64
492.66	365.12
492.84	400.23
493.01	510.24
493.19	409.59
493.37	362.78
493.54	365.12
493.72	386.19
493.90	449.38
494.08	472.79
494.25	430.66
494.43	393.21
494.61	409.59
494.79	416.62
494.96	425.98
495.14	400.23
495.32	369.80
495.49	397.89
495.67	472.79
495.85	444.70
496.02	386.19
496.20	430.66
496.38	383.85
496.55	418.96
496.73	421.30
496.91	379.17
497.09	447.04
497.26	475.13
497.44	395.55
497.62	341.72
497.79	416.62
497.97	395.55
498.14	449.38
498.32	418.96
498.50	463.43
498.67	430.66
498.85	470.45
499.03	407.25
499.20	440.02
499.38	423.64
499.56	308.95
499.73	367.46
499.91	383.85
500.08	458.74
500.26	440.02
500.44	486.83
500.61	407.25
500.79	463.43
500.97	442.36
501.14	461.09
501.32	348.74
501.49	390.87
501.67	411.93
501.84	411.93
502.02	418.96
502.20	381.51
502.37	449.38
502.55	395.55
502.72	381.51
502.90	379.17
503.07	418.96
503.25	418.96
503.43	468.11
503.60	423.64
503.78	482.15
503.95	409.59
504.13	367.46
504.30	444.70
504.48	428.32
504.65	430.66
504.83	458.74
505.01	456.40
505.18	402.57
505.36	418.96
505.53	372.15
505.71	418.96
505.88	433.00
506.06	390.87
506.23	409.59
506.41	381.51
506.58	433.00
506.76	472.79
506.93	418.96
507.11	372.15
507.28	411.93
507.46	376.83
507.63	456.40
507.81	463.43
507.98	428.32
508.16	430.66
508.33	465.77
508.50	440.02
508.68	470.45
508.85	353.42
509.03	440.02
509.20	440.02
509.38	388.53
509.55	416.62
509.73	397.89
509.90	449.38
510.08	393.21
510.25	505.56
510.42	463.43
510.60	423.64
510.77	418.96
510.95	423.64
511.12	421.30
511.30	428.32
511.47	458.74
511.64	463.43
511.82	475.13
511.99	400.23
512.17	407.25
512.34	444.70
512.51	393.21
512.69	362.78
512.86	498.53
513.04	409.59
513.21	418.96
513.38	430.66
513.56	388.53
513.73	397.89
513.90	435.34
514.08	386.19
514.25	318.31
514.43	433.00
514.60	461.09
514.77	397.89
514.95	437.68
515.12	341.72
515.29	435.34
515.47	470.45
515.64	404.91
515.81	449.38
515.99	425.98
516.16	430.66
516.33	514.92
516.51	409.59
516.68	402.57
516.85	444.70
517.03	456.40
517.20	475.13
517.37	421.30
517.54	423.64
517.72	381.51
517.89	386.19
518.06	393.21
518.24	496.19
518.41	425.98
518.58	395.55
518.75	393.21
518.93	444.70
519.10	461.09
519.27	433.00
519.45	355.76
519.62	418.96
519.79	528.96
519.96	395.55
520.14	402.57
520.31	442.36
520.48	388.53
520.65	397.89
520.83	381.51
521.00	381.51
521.17	442.36
521.34	404.91
521.52	433.00
521.69	425.98
521.86	379.17
522.03	451.72
522.20	428.32
522.38	433.00
522.55	428.32
522.72	379.17
522.89	416.62
523.07	447.04
523.24	404.91
523.41	444.70
523.58	397.89
523.75	334.70
523.92	294.91
524.10	407.25
524.27	430.66
524.44	372.15
524.61	451.72
524.78	365.12
524.96	337.04
525.13	411.93
525.30	477.47
525.47	393.21
525.64	383.85
525.81	440.02
525.98	423.64
526.16	411.93
526.33	411.93
526.50	425.98
526.67	374.49
526.84	475.13
527.01	416.62
527.18	418.96
527.36	425.98
527.53	465.77
527.70	484.49
527.87	374.49
528.04	517.26
528.21	395.55
528.38	454.06
528.55	475.13
528.72	475.13
528.89	458.74
529.07	388.53
529.24	397.89
529.41	402.57
529.58	435.34
529.75	463.43
529.92	465.77
530.09	425.98
530.26	390.87
530.43	477.47
530.60	454.06
530.77	395.55
530.94	465.77
531.11	477.47
531.28	374.49
531.46	376.83
531.63	465.77
531.80	486.83
531.97	418.96
532.14	425.98
532.31	440.02
532.48	440.02
532.65	430.66
532.82	433.00
532.99	358.10
533.16	393.21
533.33	367.46
533.50	437.68
533.67	416.62
533.84	444.70
534.01	400.23
534.18	388.53
534.35	409.59
534.52	428.32
534.69	390.87
534.86	433.00
535.03	421.30
535.20	409.59
535.37	416.62
535.54	444.70
535.71	353.42
535.88	414.27
536.05	519.60
536.22	416.62
536.38	442.36
536.55	383.85
536.72	503.22
536.89	416.62
537.06	402.57
537.23	437.68
537.40	444.70
537.57	402.57
537.74	411.93
537.91	447.04
538.08	395.55
538.25	351.08
538.42	379.17
538.59	451.72
538.75	428.32
538.92	433.00
539.09	440.02
539.26	444.70
539.43	468.11
539.60	472.79
539.77	409.59
539.94	421.30
540.11	428.32
540.28	493.85
540.44	411.93
540.61	447.04
540.78	393.21
540.95	395.55
541.12	507.90
541.29	437.68
541.46	449.38
541.62	484.49
541.79	353.42
541.96	367.46
542.13	334.70
542.30	388.53
542.47	442.36
542.63	339.38
542.80	414.27
542.97	381.51
543.14	425.98
543.31	414.27
543.48	395.55
543.64	395.55
543.81	447.04
543.98	404.91
544.15	414.27
544.32	444.70
544.48	404.91
544.65	425.98
544.82	430.66
544.99	428.32
545.16	451.72
545.32	435.34
545.49	425.98
545.66	411.93
545.83	395.55
546.00	397.89
546.16	470.45
546.33	428.32
546.50	423.64
546.67	435.34
546.83	414.27
547.00	379.17
547.17	400.23
547.34	430.66
547.50	416.62
547.67	355.76
547.84	379.17
548.00	383.85
548.17	414.27
548.34	404.91
548.51	472.79
548.67	437.68
548.84	454.06
549.01	369.80
549.18	442.36
549.34	390.87
549.51	437.68
549.68	435.34
549.84	447.04
550.01	440.02
550.18	510.24
550.34	486.83
550.51	390.87
550.68	383.85
550.84	468.11
551.01	470.45
551.18	564.07
551.34	430.66
551.51	344.06
551.68	442.36
551.84	383.85
552.01	416.62
552.18	512.58
552.34	330.02
552.51	379.17
552.68	393.21
552.84	393.21
553.01	430.66
553.18	454.06
553.34	456.40
553.51	372.15
553.67	409.59
553.84	456.40
554.01	437.68
554.17	440.02
554.34	465.77
554.51	386.19
554.67	440.02
554.84	416.62
555.00	393.21
555.17	491.51
555.33	447.04
555.50	437.68
555.67	430.66
555.83	388.53
556.00	414.27
556.16	470.45
556.33	514.92
556.50	365.12
556.66	402.57
556.83	386.19
556.99	456.40
557.16	423.64
557.32	440.02
557.49	409.59
557.65	456.40
557.82	339.38
557.98	411.93
558.15	411.93
558.32	383.85
558.48	468.11
558.65	421.30
558.81	449.38
558.98	498.53
559.14	444.70
559.31	362.78
559.47	451.72
559.64	461.09
559.80	447.04
559.97	395.55
560.13	421.30
560.30	449.38
560.46	425.98
560.63	386.19
560.79	402.57
560.96	435.34
561.12	430.66
561.29	486.83
561.45	395.55
561.61	475.13
561.78	482.15
561.94	465.77
562.11	444.70
562.27	423.64
562.44	418.96
562.60	346.40
562.77	423.64
562.93	463.43
563.10	381.51
563.26	327.68
563.42	447.04
563.59	458.74
563.75	400.23
563.92	463.43
564.08	435.34
564.24	447.04
564.41	425.98
564.57	348.74
564.74	306.61
564.90	428.32
565.07	379.17
565.23	447.04
565.39	472.79
565.56	484.49
565.72	411.93
565.88	423.64
566.05	425.98
566.21	318.31
566.38	358.10
566.54	479.81
566.70	388.53
566.87	402.57
567.03	423.64
567.19	425.98
567.36	433.00
567.52	388.53
567.68	388.53
567.85	339.38
568.01	409.59
568.17	376.83
568.34	379.17
568.50	383.85
568.66	402.57
568.83	491.51
568.99	463.43
569.15	402.57
569.32	451.72
569.48	472.79
569.64	395.55
569.81	388.53
569.97	411.93
570.13	383.85
570.30	397.89
570.46	327.68
570.62	402.57
570.78	428.32
570.95	388.53
571.11	435.34
571.27	491.51
571.43	383.85
571.60	458.74
571.76	428.32
571.92	442.36
572.09	397.89
572.25	428.32
572.41	383.85
572.57	435.34
572.74	402.57
572.90	496.19
573.06	458.74
573.22	433.00
573.38	468.11
573.55	458.74
573.71	386.19
573.87	468.11
574.03	404.91
574.20	372.15
574.36	418.96
574.52	388.53
574.68	423.64
574.84	465.77
575.01	386.19
575.17	416.62
575.33	477.47
575.49	456.40
575.65	489.17
575.82	362.78
575.98	433.00
576.14	402.57
576.30	395.55
576.46	451.72
576.62	418.96
576.79	430.66
576.95	435.34
577.11	407.25
577.27	425.98
577.43	393.21
577.59	440.02
577.75	379.17
577.92	397.89
578.08	400.23
578.24	395.55
578.40	470.45
578.56	411.93
578.72	470.45
578.88	351.08
579.04	437.68
579.21	430.66
579.37	402.57
579.53	325.33
579.69	341.72
579.85	482.15
580.01	379.17
580.17	418.96
580.33	334.70
580.49	362.78
580.65	388.53
580.82	402.57
580.98	418.96
581.14	468.11
581.30	510.24
581.46	346.40
581.62	507.90
581.78	442.36
581.94	437.68
582.10	409.59
582.26	315.97
582.42	435.34
582.58	430.66
582.74	390.87
582.90	369.80
583.06	381.51
583.22	390.87
583.38	484.49
583.54	423.64
583.70	477.47
583.86	416.62
584.02	444.70
584.18	444.70
584.34	311.29
584.50	430.66
584.66	449.38
584.82	421.30
584.98	414.27
585.14	414.27
585.30	421.30
585.46	472.79
585.62	437.68
585.78	416.62
585.94	458.74
586.10	393.21
586.26	416.62
586.42	496.19
586.58	372.15
586.74	428.32
586.90	418.96
587.06	437.68
587.22	430.66
587.38	423.64
587.54	383.85
587.70	456.40
587.86	435.34
588.02	472.79
588.18	477.47
588.34	482.15
588.49	393.21
588.65	489.17
588.81	454.06
588.97	390.87
589.13	395.55
589.29	472.79
589.45	407.25
589.61	351.08
589.77	496.19
589.93	512.58
590.08	425.98
590.24	360.44
590.40	388.53
590.56	454.06
590.72	451.72
590.88	374.49
591.04	411.93
591.20	433.00
591.35	475.13
591.51	440.02
591.67	404.91
591.83	472.79
591.99	360.44
592.15	454.06
592.31	379.17
592.46	402.57
592.62	435.34
592.78	423.64
592.94	400.23
593.10	465.77
593.26	418.96
593.41	444.70
593.57	400.23
593.73	388.53
593.89	444.70
594.05	411.93
594.20	493.85
594.36	402.57
594.52	409.59
594.68	425.98
594.84	388.53
594.99	402.57
595.15	444.70
595.31	358.10
595.47	498.53
595.62	388.53
595.78	442.36
595.94	440.02
596.10	514.92
596.25	383.85
596.41	416.62
596.57	411.93
596.73	404.91
596.88	482.15
597.04	409.59
597.20	390.87
597.36	442.36
597.51	440.02
597.67	416.62
597.83	346.40
597.99	461.09
598.14	390.87
598.30	411.93
598.46	489.17
598.61	498.53
598.77	437.68
598.93	372.15
599.09	418.96
599.24	416.62
599.40	421.30
599.56	360.44
599.71	393.21
599.87	351.08
600.03	369.80
600.18	449.38
600.34	477.47
600.50	440.02
600.65	381.51
600.81	454.06
600.97	418.96
601.12	418.96
601.28	442.36
601.44	425.98
601.59	411.93
601.75	437.68
601.91	477.47
602.06	397.89
602.22	500.87
602.37	479.81
602.53	437.68
602.69	397.89
602.84	400.23
603.00	397.89
603.16	463.43
603.31	407.25
603.47	463.43
603.62	372.15
603.78	505.56
603.94	381.51
604.09	418.96
604.25	411.93
604.40	437.68
604.56	454.06
604.71	400.23
604.87	397.89
605.03	397.89
605.18	404.91
605.34	411.93
605.49	379.17
605.65	360.44
605.80	402.57
605.96	418.96
606.12	383.85
606.27	423.64
606.43	428.32
606.58	435.34
606.74	386.19
606.89	360.44
607.05	337.04
607.20	341.72
607.36	421.30
607.51	496.19
607.67	430.66
607.82	376.83
607.98	496.19
608.13	449.38
608.29	407.25
608.44	444.70
608.60	456.40
608.75	442.36
608.91	400.23
609.06	393.21
609.22	383.85
609.37	421.30
609.53	425.98
609.68	411.93
609.84	416.62
609.99	383.85
610.15	463.43
