SpectraSuite Data File
++++++++++++++++++++++++++++++++++++
Date: Fri Oct 25 12:10:59 EDT 2013
User: price-jones
Dark Spectrum Present: No
Reference Spectrum Present: No
Number of Sampled Component Spectra: 1
Spectrometers: USB2+H05261
Integration Time (usec): 100000 (USB2+H05261)
Spectra Averaged: 1 (USB2+H05261)
Boxcar Smoothing: 0 (USB2+H05261)
Correct for Electrical Dark: No (USB2+H05261)
Strobe/Lamp Enabled: No (USB2+H05261)
Correct for Detector Non-linearity: No (USB2+H05261)
Correct for Stray Light: No (USB2+H05261)
Number of Pixels in Processed Spectrum: 2048
>>>>>Begin Processed Spectral Data<<<<<
365.73	341.72
365.92	341.72
366.12	341.72
366.32	262.14
366.52	234.05
366.72	215.33
366.91	229.37
367.11	255.12
367.31	224.69
367.51	194.26
367.70	234.05
367.90	264.48
368.10	264.48
368.30	250.44
368.49	222.35
368.69	269.16
368.89	250.44
369.09	280.86
369.28	194.26
369.48	276.18
369.68	315.97
369.87	358.10
370.07	271.50
370.27	344.06
370.47	294.91
370.66	234.05
370.86	339.38
371.06	411.93
371.25	407.25
371.45	348.74
371.65	465.77
371.84	358.10
372.04	372.15
372.24	353.42
372.44	449.38
372.63	433.00
372.83	395.55
373.03	440.02
373.22	447.04
373.42	400.23
373.62	454.06
373.81	458.74
374.01	414.27
374.21	489.17
374.40	414.27
374.60	418.96
374.79	449.38
374.99	362.78
375.19	433.00
375.38	351.08
375.58	374.49
375.78	461.09
375.97	444.70
376.17	533.64
376.37	428.32
376.56	376.83
376.76	376.83
376.95	351.08
377.15	367.46
377.35	477.47
377.54	449.38
377.74	447.04
377.93	442.36
378.13	454.06
378.33	397.89
378.52	390.87
378.72	409.59
378.91	369.80
379.11	376.83
379.31	376.83
379.50	404.91
379.70	479.81
379.89	421.30
380.09	454.06
380.28	400.23
380.48	442.36
380.68	416.62
380.87	402.57
381.07	421.30
381.26	437.68
381.46	355.76
381.65	437.68
381.85	404.91
382.04	421.30
382.24	407.25
382.43	414.27
382.63	444.70
382.83	484.49
383.02	465.77
383.22	451.72
383.41	407.25
383.61	367.46
383.80	400.23
384.00	379.17
384.19	372.15
384.39	437.68
384.58	397.89
384.78	409.59
384.97	437.68
385.17	421.30
385.36	430.66
385.56	498.53
385.75	449.38
385.95	395.55
386.14	409.59
386.34	365.12
386.53	430.66
386.72	390.87
386.92	498.53
387.11	444.70
387.31	475.13
387.50	444.70
387.70	411.93
387.89	468.11
388.09	397.89
388.28	372.15
388.48	330.02
388.67	313.63
388.86	339.38
389.06	437.68
389.25	451.72
389.45	360.44
389.64	418.96
389.84	451.72
390.03	437.68
390.22	421.30
390.42	498.53
390.61	362.78
390.81	388.53
391.00	355.76
391.19	442.36
391.39	381.51
391.58	409.59
391.78	400.23
391.97	369.80
392.16	334.70
392.36	360.44
392.55	383.85
392.75	397.89
392.94	374.49
393.13	465.77
393.33	395.55
393.52	376.83
393.71	428.32
393.91	318.31
394.10	402.57
394.29	435.34
394.49	416.62
394.68	444.70
394.88	428.32
395.07	393.21
395.26	411.93
395.46	421.30
395.65	425.98
395.84	425.98
396.04	463.43
396.23	358.10
396.42	315.97
396.62	341.72
396.81	411.93
397.00	435.34
397.19	423.64
397.39	386.19
397.58	407.25
397.77	430.66
397.97	409.59
398.16	496.19
398.35	402.57
398.55	346.40
398.74	423.64
398.93	379.17
399.12	374.49
399.32	409.59
399.51	379.17
399.70	433.00
399.90	444.70
400.09	381.51
400.28	400.23
400.47	430.66
400.67	376.83
400.86	318.31
401.05	465.77
401.24	418.96
401.44	435.34
401.63	456.40
401.82	381.51
402.01	337.04
402.21	418.96
402.40	418.96
402.59	397.89
402.78	388.53
402.97	360.44
403.17	414.27
403.36	411.93
403.55	365.12
403.74	418.96
403.93	440.02
404.13	423.64
404.32	407.25
404.51	383.85
404.70	470.45
404.89	458.74
405.09	365.12
405.28	421.30
405.47	475.13
405.66	407.25
405.85	411.93
406.05	465.77
406.24	334.70
406.43	402.57
406.62	411.93
406.81	388.53
407.00	404.91
407.20	358.10
407.39	456.40
407.58	355.76
407.77	440.02
407.96	479.81
408.15	322.99
408.34	477.47
408.54	414.27
408.73	433.00
408.92	365.12
409.11	430.66
409.30	402.57
409.49	465.77
409.68	362.78
409.87	360.44
410.07	374.49
410.26	482.15
410.45	339.38
410.64	395.55
410.83	404.91
411.02	332.36
411.21	404.91
411.40	376.83
411.59	379.17
411.78	376.83
411.98	393.21
412.17	374.49
412.36	379.17
412.55	404.91
412.74	449.38
412.93	458.74
413.12	486.83
413.31	372.15
413.50	454.06
413.69	468.11
413.88	411.93
414.07	386.19
414.26	397.89
414.45	393.21
414.64	376.83
414.83	416.62
415.02	402.57
415.22	404.91
415.41	411.93
415.60	430.66
415.79	383.85
415.98	386.19
416.17	416.62
416.36	386.19
416.55	442.36
416.74	435.34
416.93	423.64
417.12	414.27
417.31	390.87
417.50	313.63
417.69	489.17
417.88	395.55
418.07	374.49
418.26	365.12
418.45	428.32
418.64	440.02
418.83	351.08
419.02	294.91
419.21	407.25
419.39	440.02
419.58	332.36
419.77	416.62
419.96	383.85
420.15	409.59
420.34	372.15
420.53	388.53
420.72	444.70
420.91	465.77
421.10	372.15
421.29	423.64
421.48	447.04
421.67	421.30
421.86	444.70
422.05	402.57
422.24	435.34
422.43	372.15
422.61	402.57
422.80	397.89
422.99	388.53
423.18	351.08
423.37	433.00
423.56	381.51
423.75	386.19
423.94	414.27
424.13	409.59
424.32	346.40
424.50	463.43
424.69	369.80
424.88	519.60
425.07	425.98
425.26	409.59
425.45	447.04
425.64	470.45
425.83	528.96
426.01	430.66
426.20	348.74
426.39	381.51
426.58	400.23
426.77	470.45
426.96	451.72
427.15	369.80
427.33	442.36
427.52	402.57
427.71	423.64
427.90	365.12
428.09	358.10
428.28	332.36
428.46	418.96
428.65	416.62
428.84	402.57
429.03	383.85
429.22	393.21
429.40	433.00
429.59	407.25
429.78	400.23
429.97	409.59
430.16	388.53
430.34	404.91
430.53	423.64
430.72	369.80
430.91	435.34
431.10	358.10
431.28	449.38
431.47	421.30
431.66	360.44
431.85	367.46
432.03	411.93
432.22	428.32
432.41	351.08
432.60	463.43
432.79	367.46
432.97	430.66
433.16	402.57
433.35	425.98
433.54	374.49
433.72	440.02
433.91	451.72
434.10	418.96
434.28	500.87
434.47	369.80
434.66	440.02
434.85	407.25
435.03	386.19
435.22	468.11
435.41	440.02
435.59	449.38
435.78	400.23
435.97	379.17
436.16	475.13
436.34	449.38
436.53	358.10
436.72	428.32
436.90	435.34
437.09	435.34
437.28	400.23
437.46	447.04
437.65	395.55
437.84	428.32
438.02	379.17
438.21	409.59
438.40	360.44
438.58	437.68
438.77	411.93
438.96	388.53
439.14	458.74
439.33	423.64
439.52	402.57
439.70	491.51
439.89	475.13
440.08	348.74
440.26	440.02
440.45	425.98
440.63	440.02
440.82	397.89
441.01	444.70
441.19	433.00
441.38	447.04
441.57	461.09
441.75	482.15
441.94	416.62
442.12	362.78
442.31	372.15
442.50	468.11
442.68	395.55
442.87	437.68
443.05	444.70
443.24	414.27
443.43	393.21
443.61	402.57
443.80	376.83
443.98	379.17
444.17	430.66
444.35	423.64
444.54	393.21
444.73	507.90
444.91	440.02
445.10	479.81
445.28	409.59
445.47	381.51
445.65	416.62
445.84	475.13
446.02	365.12
446.21	376.83
446.39	447.04
446.58	400.23
446.77	376.83
446.95	374.49
447.14	475.13
447.32	430.66
447.51	390.87
447.69	463.43
447.88	372.15
448.06	489.17
448.25	355.76
448.43	393.21
448.62	407.25
448.80	430.66
448.99	442.36
449.17	440.02
449.36	374.49
449.54	449.38
449.73	444.70
449.91	386.19
450.10	353.42
450.28	521.94
450.46	437.68
450.65	430.66
450.83	397.89
451.02	369.80
451.20	414.27
451.39	386.19
451.57	360.44
451.76	458.74
451.94	461.09
452.13	411.93
452.31	409.59
452.49	442.36
452.68	400.23
452.86	416.62
453.05	451.72
453.23	372.15
453.42	416.62
453.60	404.91
453.78	367.46
453.97	397.89
454.15	379.17
454.34	423.64
454.52	369.80
454.70	416.62
454.89	435.34
455.07	372.15
455.26	435.34
455.44	390.87
455.62	421.30
455.81	383.85
455.99	386.19
456.17	390.87
456.36	404.91
456.54	470.45
456.73	332.36
456.91	440.02
457.09	414.27
457.28	411.93
457.46	332.36
457.64	433.00
457.83	416.62
458.01	353.42
458.19	425.98
458.38	425.98
458.56	393.21
458.74	397.89
458.93	458.74
459.11	440.02
459.29	395.55
459.48	435.34
459.66	517.26
459.84	451.72
460.03	510.24
460.21	414.27
460.39	437.68
460.57	367.46
460.76	388.53
460.94	397.89
461.12	418.96
461.31	407.25
461.49	341.72
461.67	367.46
461.85	440.02
462.04	430.66
462.22	573.43
462.40	447.04
462.59	376.83
462.77	386.19
462.95	447.04
463.13	423.64
463.32	411.93
463.50	400.23
463.68	435.34
463.86	388.53
464.05	414.27
464.23	461.09
464.41	437.68
464.59	475.13
464.78	369.80
464.96	493.85
465.14	463.43
465.32	451.72
465.50	433.00
465.69	367.46
465.87	395.55
466.05	315.97
466.23	381.51
466.41	477.47
466.60	388.53
466.78	435.34
466.96	435.34
467.14	351.08
467.32	407.25
467.51	454.06
467.69	465.77
467.87	351.08
468.05	353.42
468.23	425.98
468.41	430.66
468.60	447.04
468.78	435.34
468.96	423.64
469.14	416.62
469.32	381.51
469.50	393.21
469.69	397.89
469.87	416.62
470.05	416.62
470.23	430.66
470.41	379.17
470.59	407.25
470.77	388.53
470.95	428.32
471.14	486.83
471.32	463.43
471.50	416.62
471.68	395.55
471.86	400.23
472.04	428.32
472.22	444.70
472.40	365.12
472.58	358.10
472.77	362.78
472.95	421.30
473.13	458.74
473.31	395.55
473.49	339.38
473.67	395.55
473.85	400.23
474.03	451.72
474.21	393.21
474.39	463.43
474.57	435.34
474.75	437.68
474.93	416.62
475.12	418.96
475.30	423.64
475.48	472.79
475.66	430.66
475.84	423.64
476.02	400.23
476.20	440.02
476.38	447.04
476.56	461.09
476.74	458.74
476.92	468.11
477.10	444.70
477.28	430.66
477.46	393.21
477.64	433.00
477.82	327.68
478.00	482.15
478.18	465.77
478.36	496.19
478.54	383.85
478.72	393.21
478.90	390.87
479.08	372.15
479.26	409.59
479.44	404.91
479.62	390.87
479.80	374.49
479.98	367.46
480.16	433.00
480.34	416.62
480.52	353.42
480.70	416.62
480.88	367.46
481.06	416.62
481.24	386.19
481.41	461.09
481.59	463.43
481.77	447.04
481.95	376.83
482.13	444.70
482.31	421.30
482.49	451.72
482.67	416.62
482.85	451.72
483.03	395.55
483.21	418.96
483.39	400.23
483.57	440.02
483.74	493.85
483.92	407.25
484.10	346.40
484.28	409.59
484.46	477.47
484.64	418.96
484.82	390.87
485.00	395.55
485.18	444.70
485.35	449.38
485.53	496.19
485.71	433.00
485.89	402.57
486.07	451.72
486.25	521.94
486.43	428.32
486.61	479.81
486.78	449.38
486.96	379.17
487.14	402.57
487.32	341.72
487.50	397.89
487.68	388.53
487.85	395.55
488.03	423.64
488.21	379.17
488.39	440.02
488.57	454.06
488.75	409.59
488.92	440.02
489.10	444.70
489.28	449.38
489.46	374.49
489.64	374.49
489.81	341.72
489.99	397.89
490.17	425.98
490.35	524.28
490.53	428.32
490.70	418.96
490.88	416.62
491.06	433.00
491.24	498.53
491.41	440.02
491.59	468.11
491.77	395.55
491.95	395.55
492.13	430.66
492.30	404.91
492.48	395.55
492.66	395.55
492.84	421.30
493.01	433.00
493.19	386.19
493.37	409.59
493.54	458.74
493.72	458.74
493.90	390.87
494.08	430.66
494.25	388.53
494.43	442.36
494.61	388.53
494.79	376.83
494.96	416.62
495.14	451.72
495.32	402.57
495.49	383.85
495.67	456.40
495.85	470.45
496.02	433.00
496.20	451.72
496.38	409.59
496.55	414.27
496.73	440.02
496.91	386.19
497.09	409.59
497.26	440.02
497.44	409.59
497.62	383.85
497.79	428.32
497.97	351.08
498.14	433.00
498.32	433.00
498.50	397.89
498.67	400.23
498.85	493.85
499.03	451.72
499.20	414.27
499.38	355.76
499.56	344.06
499.73	454.06
499.91	468.11
500.08	414.27
500.26	334.70
500.44	390.87
500.61	465.77
500.79	404.91
500.97	388.53
501.14	404.91
501.32	421.30
501.49	463.43
501.67	416.62
501.84	454.06
502.02	393.21
502.20	428.32
502.37	437.68
502.55	418.96
502.72	339.38
502.90	430.66
503.07	423.64
503.25	376.83
503.43	468.11
503.60	383.85
503.78	409.59
503.95	407.25
504.13	423.64
504.30	365.12
504.48	440.02
504.65	383.85
504.83	400.23
505.01	388.53
505.18	463.43
505.36	407.25
505.53	367.46
505.71	416.62
505.88	500.87
506.06	503.22
506.23	423.64
506.41	444.70
506.58	388.53
506.76	390.87
506.93	362.78
507.11	451.72
507.28	440.02
507.46	367.46
507.63	430.66
507.81	454.06
507.98	393.21
508.16	381.51
508.33	418.96
508.50	449.38
508.68	402.57
508.85	428.32
509.03	390.87
509.20	451.72
509.38	465.77
509.55	496.19
509.73	418.96
509.90	528.96
510.08	444.70
510.25	376.83
510.42	367.46
510.60	458.74
510.77	507.90
510.95	475.13
511.12	425.98
511.30	411.93
511.47	423.64
511.64	454.06
511.82	404.91
511.99	386.19
512.17	390.87
512.34	372.15
512.51	376.83
512.69	379.17
512.86	447.04
513.04	400.23
513.21	390.87
513.38	449.38
513.56	416.62
513.73	440.02
513.90	383.85
514.08	416.62
514.25	423.64
514.43	447.04
514.60	367.46
514.77	390.87
514.95	430.66
515.12	367.46
515.29	433.00
515.47	400.23
515.64	442.36
515.81	411.93
515.99	383.85
516.16	393.21
516.33	400.23
516.51	433.00
516.68	383.85
516.85	388.53
517.03	379.17
517.20	435.34
517.37	400.23
517.54	503.22
517.72	430.66
517.89	414.27
518.06	390.87
518.24	404.91
518.41	451.72
518.58	440.02
518.75	402.57
518.93	461.09
519.10	454.06
519.27	402.57
519.45	465.77
519.62	447.04
519.79	428.32
519.96	435.34
520.14	393.21
520.31	437.68
520.48	479.81
520.65	437.68
520.83	491.51
521.00	458.74
521.17	461.09
521.34	362.78
521.52	367.46
521.69	383.85
521.86	344.06
522.03	376.83
522.20	428.32
522.38	381.51
522.55	428.32
522.72	482.15
522.89	393.21
523.07	444.70
523.24	437.68
523.41	456.40
523.58	421.30
523.75	437.68
523.92	372.15
524.10	407.25
524.27	416.62
524.44	435.34
524.61	423.64
524.78	369.80
524.96	454.06
525.13	409.59
525.30	425.98
525.47	463.43
525.64	351.08
525.81	447.04
525.98	397.89
526.16	430.66
526.33	414.27
526.50	388.53
526.67	390.87
526.84	447.04
527.01	402.57
527.18	400.23
527.36	351.08
527.53	482.15
527.70	447.04
527.87	458.74
528.04	423.64
528.21	409.59
528.38	425.98
528.55	430.66
528.72	397.89
528.89	456.40
529.07	355.76
529.24	393.21
529.41	479.81
529.58	411.93
529.75	498.53
529.92	470.45
530.09	416.62
530.26	386.19
530.43	423.64
530.60	416.62
530.77	437.68
530.94	444.70
531.11	437.68
531.28	339.38
531.46	491.51
531.63	468.11
531.80	468.11
531.97	444.70
532.14	514.92
532.31	400.23
532.48	472.79
532.65	475.13
532.82	346.40
532.99	451.72
533.16	505.56
533.33	402.57
533.50	414.27
533.67	395.55
533.84	416.62
534.01	421.30
534.18	376.83
534.35	414.27
534.52	402.57
534.69	440.02
534.86	376.83
535.03	395.55
535.20	379.17
535.37	463.43
535.54	447.04
535.71	428.32
535.88	461.09
536.05	409.59
536.22	428.32
536.38	397.89
536.55	337.04
536.72	437.68
536.89	414.27
537.06	372.15
537.23	383.85
537.40	369.80
537.57	423.64
537.74	463.43
537.91	358.10
538.08	484.49
538.25	486.83
538.42	404.91
538.59	400.23
538.75	393.21
538.92	458.74
539.09	479.81
539.26	393.21
539.43	449.38
539.60	381.51
539.77	414.27
539.94	425.98
540.11	475.13
540.28	442.36
540.44	442.36
540.61	468.11
540.78	395.55
540.95	313.63
541.12	374.49
541.29	402.57
541.46	435.34
541.62	418.96
541.79	388.53
541.96	409.59
542.13	381.51
542.30	416.62
542.47	430.66
542.63	341.72
542.80	360.44
542.97	404.91
543.14	486.83
543.31	463.43
543.48	449.38
543.64	376.83
543.81	386.19
543.98	407.25
544.15	386.19
544.32	374.49
544.48	383.85
544.65	470.45
544.82	383.85
544.99	421.30
545.16	437.68
545.32	386.19
545.49	430.66
545.66	463.43
545.83	477.47
546.00	414.27
546.16	390.87
546.33	388.53
546.50	376.83
546.67	393.21
546.83	447.04
547.00	444.70
547.17	456.40
547.34	423.64
547.50	400.23
547.67	421.30
547.84	393.21
548.00	468.11
548.17	425.98
548.34	423.64
548.51	433.00
548.67	358.10
548.84	440.02
549.01	440.02
549.18	454.06
549.34	390.87
549.51	479.81
549.68	402.57
549.84	341.72
550.01	346.40
550.18	418.96
550.34	416.62
550.51	407.25
550.68	425.98
550.84	414.27
551.01	435.34
551.18	425.98
551.34	414.27
551.51	435.34
551.68	379.17
551.84	458.74
552.01	442.36
552.18	451.72
552.34	395.55
552.51	425.98
552.68	447.04
552.84	444.70
553.01	402.57
553.18	454.06
553.34	444.70
553.51	386.19
553.67	379.17
553.84	454.06
554.01	482.15
554.17	428.32
554.34	456.40
554.51	421.30
554.67	430.66
554.84	418.96
555.00	346.40
555.17	444.70
555.33	449.38
555.50	433.00
555.67	362.78
555.83	456.40
556.00	425.98
556.16	589.82
556.33	454.06
556.50	442.36
556.66	383.85
556.83	416.62
556.99	430.66
557.16	433.00
557.32	365.12
557.49	381.51
557.65	435.34
557.82	379.17
557.98	379.17
558.15	332.36
558.32	358.10
558.48	374.49
558.65	400.23
558.81	409.59
558.98	486.83
559.14	449.38
559.31	512.58
559.47	421.30
559.64	479.81
559.80	395.55
559.97	433.00
560.13	468.11
560.30	421.30
560.46	475.13
560.63	430.66
560.79	451.72
560.96	425.98
561.12	430.66
561.29	411.93
561.45	421.30
561.61	393.21
561.78	538.32
561.94	402.57
562.11	390.87
562.27	411.93
562.44	423.64
562.60	437.68
562.77	456.40
562.93	524.28
563.10	451.72
563.26	458.74
563.42	367.46
563.59	423.64
563.75	409.59
563.92	524.28
564.08	379.17
564.24	437.68
564.41	484.49
564.57	393.21
564.74	430.66
564.90	465.77
565.07	407.25
565.23	461.09
565.39	397.89
565.56	437.68
565.72	383.85
565.88	477.47
566.05	411.93
566.21	437.68
566.38	400.23
566.54	386.19
566.70	395.55
566.87	407.25
567.03	360.44
567.19	411.93
567.36	465.77
567.52	447.04
567.68	470.45
567.85	472.79
568.01	400.23
568.17	463.43
568.34	404.91
568.50	376.83
568.66	414.27
568.83	468.11
568.99	435.34
569.15	447.04
569.32	454.06
569.48	440.02
569.64	465.77
569.81	437.68
569.97	393.21
570.13	458.74
570.30	411.93
570.46	360.44
570.62	365.12
570.78	409.59
570.95	430.66
571.11	341.72
571.27	470.45
571.43	407.25
571.60	447.04
571.76	423.64
571.92	435.34
572.09	388.53
572.25	381.51
572.41	435.34
572.57	374.49
572.74	498.53
572.90	472.79
573.06	454.06
573.22	402.57
573.38	454.06
573.55	482.15
573.71	397.89
573.87	416.62
574.03	442.36
574.20	433.00
574.36	430.66
574.52	418.96
574.68	440.02
574.84	444.70
575.01	397.89
575.17	407.25
575.33	402.57
575.49	449.38
575.65	463.43
575.82	475.13
575.98	437.68
576.14	437.68
576.30	418.96
576.46	421.30
576.62	367.46
576.79	428.32
576.95	440.02
577.11	437.68
577.27	379.17
577.43	451.72
577.59	442.36
577.75	409.59
577.92	386.19
578.08	355.76
578.24	334.70
578.40	414.27
578.56	374.49
578.72	456.40
578.88	379.17
579.04	383.85
579.21	440.02
579.37	437.68
579.53	456.40
579.69	472.79
579.85	372.15
580.01	444.70
580.17	386.19
580.33	358.10
580.49	440.02
580.65	425.98
580.82	440.02
580.98	355.76
581.14	376.83
581.30	510.24
581.46	393.21
581.62	482.15
581.78	388.53
581.94	409.59
582.10	379.17
582.26	397.89
582.42	423.64
582.58	360.44
582.74	414.27
582.90	416.62
583.06	498.53
583.22	505.56
583.38	379.17
583.54	386.19
583.70	425.98
583.86	472.79
584.02	472.79
584.18	437.68
584.34	437.68
584.50	461.09
584.66	451.72
584.82	409.59
584.98	486.83
585.14	386.19
585.30	477.47
585.46	425.98
585.62	379.17
585.78	447.04
585.94	507.90
586.10	470.45
586.26	477.47
586.42	461.09
586.58	475.13
586.74	423.64
586.90	414.27
587.06	423.64
587.22	409.59
587.38	435.34
587.54	402.57
587.70	468.11
587.86	428.32
588.02	418.96
588.18	435.34
588.34	433.00
588.49	421.30
588.65	444.70
588.81	390.87
588.97	381.51
589.13	433.00
589.29	451.72
589.45	400.23
589.61	435.34
589.77	465.77
589.93	493.85
590.08	395.55
590.24	454.06
590.40	528.96
590.56	514.92
590.72	360.44
590.88	416.62
591.04	444.70
591.20	376.83
591.35	472.79
591.51	395.55
591.67	372.15
591.83	428.32
591.99	409.59
592.15	482.15
592.31	411.93
592.46	454.06
592.62	390.87
592.78	346.40
592.94	355.76
593.10	388.53
593.26	430.66
593.41	421.30
593.57	390.87
593.73	423.64
593.89	402.57
594.05	379.17
594.20	465.77
594.36	388.53
594.52	414.27
594.68	411.93
594.84	397.89
594.99	454.06
595.15	416.62
595.31	444.70
595.47	512.58
595.62	430.66
595.78	416.62
595.94	409.59
596.10	395.55
596.25	395.55
596.41	449.38
596.57	435.34
596.73	444.70
596.88	409.59
597.04	395.55
597.20	400.23
597.36	470.45
597.51	390.87
597.67	423.64
597.83	411.93
597.99	428.32
598.14	507.90
598.30	390.87
598.46	367.46
598.61	355.76
598.77	411.93
598.93	383.85
599.09	409.59
599.24	418.96
599.40	388.53
599.56	358.10
599.71	376.83
599.87	360.44
600.03	484.49
600.18	428.32
600.34	461.09
600.50	428.32
600.65	402.57
600.81	407.25
600.97	390.87
601.12	381.51
601.28	507.90
601.44	362.78
601.59	358.10
601.75	360.44
601.91	409.59
602.06	416.62
602.22	505.56
602.37	416.62
602.53	409.59
602.69	442.36
602.84	461.09
603.00	430.66
603.16	411.93
603.31	468.11
603.47	514.92
603.62	390.87
603.78	383.85
603.94	447.04
604.09	353.42
604.25	386.19
604.40	388.53
604.56	386.19
604.71	440.02
604.87	414.27
605.03	367.46
605.18	416.62
605.34	500.87
605.49	353.42
605.65	379.17
605.80	365.12
605.96	397.89
606.12	421.30
606.27	444.70
606.43	416.62
606.58	505.56
606.74	433.00
606.89	393.21
607.05	458.74
607.20	437.68
607.36	435.34
607.51	456.40
607.67	390.87
607.82	477.47
607.98	477.47
608.13	397.89
608.29	491.51
608.44	435.34
608.60	454.06
608.75	374.49
608.91	456.40
609.06	433.00
609.22	451.72
609.37	440.02
609.53	423.64
609.68	367.46
609.84	428.32
609.99	451.72
610.15	456.40
