SpectraSuite Data File
++++++++++++++++++++++++++++++++++++
Date: Fri Oct 25 12:11:11 EDT 2013
User: price-jones
Dark Spectrum Present: No
Reference Spectrum Present: No
Number of Sampled Component Spectra: 1
Spectrometers: USB2+H05261
Integration Time (usec): 100000 (USB2+H05261)
Spectra Averaged: 1 (USB2+H05261)
Boxcar Smoothing: 0 (USB2+H05261)
Correct for Electrical Dark: No (USB2+H05261)
Strobe/Lamp Enabled: No (USB2+H05261)
Correct for Detector Non-linearity: No (USB2+H05261)
Correct for Stray Light: No (USB2+H05261)
Number of Pixels in Processed Spectrum: 2048
>>>>>Begin Processed Spectral Data<<<<<
365.73	311.29
365.92	311.29
366.12	311.29
366.32	290.23
366.52	227.03
366.72	285.55
366.91	191.92
367.11	224.69
367.31	201.29
367.51	308.95
367.70	259.80
367.90	243.42
368.10	189.58
368.30	187.24
368.49	177.88
368.69	220.01
368.89	294.91
369.09	280.86
369.28	248.10
369.48	250.44
369.68	287.89
369.87	304.27
370.07	273.84
370.27	337.04
370.47	294.91
370.66	348.74
370.86	369.80
371.06	383.85
371.25	397.89
371.45	313.63
371.65	414.27
371.84	299.59
372.04	393.21
372.24	421.30
372.44	381.51
372.63	381.51
372.83	332.36
373.03	393.21
373.22	386.19
373.42	390.87
373.62	390.87
373.81	416.62
374.01	397.89
374.21	482.15
374.40	379.17
374.60	465.77
374.79	437.68
374.99	367.46
375.19	461.09
375.38	428.32
375.58	475.13
375.78	425.98
375.97	355.76
376.17	376.83
376.37	386.19
376.56	404.91
376.76	463.43
376.95	425.98
377.15	383.85
377.35	351.08
377.54	393.21
377.74	416.62
377.93	484.49
378.13	372.15
378.33	395.55
378.52	325.33
378.72	454.06
378.91	425.98
379.11	404.91
379.31	365.12
379.50	400.23
379.70	418.96
379.89	425.98
380.09	346.40
380.28	430.66
380.48	397.89
380.68	404.91
380.87	367.46
381.07	472.79
381.26	514.92
381.46	411.93
381.65	334.70
381.85	435.34
382.04	402.57
382.24	355.76
382.43	409.59
382.63	395.55
382.83	440.02
383.02	404.91
383.22	458.74
383.41	475.13
383.61	341.72
383.80	440.02
384.00	404.91
384.19	456.40
384.39	409.59
384.58	402.57
384.78	404.91
384.97	383.85
385.17	369.80
385.36	320.65
385.56	409.59
385.75	397.89
385.95	393.21
386.14	479.81
386.34	435.34
386.53	437.68
386.72	383.85
386.92	388.53
387.11	409.59
387.31	322.99
387.50	404.91
387.70	388.53
387.89	418.96
388.09	395.55
388.28	381.51
388.48	390.87
388.67	475.13
388.86	430.66
389.06	421.30
389.25	454.06
389.45	388.53
389.64	421.30
389.84	479.81
390.03	425.98
390.22	458.74
390.42	454.06
390.61	425.98
390.81	381.51
391.00	397.89
391.19	423.64
391.39	418.96
391.58	456.40
391.78	402.57
391.97	386.19
392.16	400.23
392.36	449.38
392.55	463.43
392.75	383.85
392.94	393.21
393.13	346.40
393.33	330.02
393.52	341.72
393.71	470.45
393.91	458.74
394.10	404.91
394.29	437.68
394.49	414.27
394.68	400.23
394.88	456.40
395.07	397.89
395.26	397.89
395.46	407.25
395.65	472.79
395.84	390.87
396.04	482.15
396.23	360.44
396.42	442.36
396.62	365.12
396.81	428.32
397.00	451.72
397.19	451.72
397.39	360.44
397.58	404.91
397.77	414.27
397.97	341.72
398.16	365.12
398.35	365.12
398.55	383.85
398.74	383.85
398.93	344.06
399.12	451.72
399.32	395.55
399.51	470.45
399.70	407.25
399.90	440.02
400.09	428.32
400.28	430.66
400.47	379.17
400.67	376.83
400.86	418.96
401.05	372.15
401.24	346.40
401.44	407.25
401.63	421.30
401.82	461.09
402.01	397.89
402.21	379.17
402.40	423.64
402.59	367.46
402.78	404.91
402.97	444.70
403.17	404.91
403.36	465.77
403.55	435.34
403.74	437.68
403.93	428.32
404.13	433.00
404.32	397.89
404.51	400.23
404.70	449.38
404.89	479.81
405.09	458.74
405.28	397.89
405.47	379.17
405.66	402.57
405.85	456.40
406.05	425.98
406.24	444.70
406.43	486.83
406.62	428.32
406.81	479.81
407.00	409.59
407.20	402.57
407.39	451.72
407.58	423.64
407.77	493.85
407.96	407.25
408.15	386.19
408.34	468.11
408.54	428.32
408.73	372.15
408.92	489.17
409.11	386.19
409.30	470.45
409.49	393.21
409.68	381.51
409.87	428.32
410.07	475.13
410.26	472.79
410.45	423.64
410.64	397.89
410.83	404.91
411.02	409.59
411.21	428.32
411.40	425.98
411.59	390.87
411.78	411.93
411.98	472.79
412.17	416.62
412.36	433.00
412.55	444.70
412.74	402.57
412.93	444.70
413.12	402.57
413.31	470.45
413.50	475.13
413.69	451.72
413.88	463.43
414.07	395.55
414.26	442.36
414.45	447.04
414.64	386.19
414.83	447.04
415.02	407.25
415.22	376.83
415.41	365.12
415.60	388.53
415.79	458.74
415.98	395.55
416.17	407.25
416.36	416.62
416.55	339.38
416.74	428.32
416.93	470.45
417.12	486.83
417.31	447.04
417.50	423.64
417.69	374.49
417.88	465.77
418.07	414.27
418.26	430.66
418.45	322.99
418.64	416.62
418.83	444.70
419.02	369.80
419.21	358.10
419.39	400.23
419.58	423.64
419.77	393.21
419.96	414.27
420.15	428.32
420.34	402.57
420.53	379.17
420.72	365.12
420.91	458.74
421.10	449.38
421.29	407.25
421.48	411.93
421.67	430.66
421.86	442.36
422.05	500.87
422.24	477.47
422.43	376.83
422.61	421.30
422.80	423.64
422.99	416.62
423.18	388.53
423.37	421.30
423.56	440.02
423.75	454.06
423.94	444.70
424.13	442.36
424.32	416.62
424.50	430.66
424.69	461.09
424.88	383.85
425.07	381.51
425.26	472.79
425.45	390.87
425.64	341.72
425.83	423.64
426.01	383.85
426.20	423.64
426.39	400.23
426.58	421.30
426.77	451.72
426.96	395.55
427.15	407.25
427.33	407.25
427.52	400.23
427.71	433.00
427.90	458.74
428.09	388.53
428.28	425.98
428.46	388.53
428.65	409.59
428.84	472.79
429.03	465.77
429.22	440.02
429.40	416.62
429.59	411.93
429.78	491.51
429.97	463.43
430.16	381.51
430.34	470.45
430.53	379.17
430.72	365.12
430.91	472.79
431.10	353.42
431.28	484.49
431.47	458.74
431.66	458.74
431.85	383.85
432.03	433.00
432.22	517.26
432.41	372.15
432.60	440.02
432.79	379.17
432.97	386.19
433.16	400.23
433.35	463.43
433.54	409.59
433.72	430.66
433.91	416.62
434.10	402.57
434.28	372.15
434.47	383.85
434.66	411.93
434.85	416.62
435.03	344.06
435.22	461.09
435.41	425.98
435.59	461.09
435.78	435.34
435.97	393.21
436.16	500.87
436.34	482.15
436.53	400.23
436.72	383.85
436.90	411.93
437.09	484.49
437.28	390.87
437.46	449.38
437.65	430.66
437.84	407.25
438.02	433.00
438.21	449.38
438.40	393.21
438.58	423.64
438.77	397.89
438.96	423.64
439.14	308.95
439.33	416.62
439.52	393.21
439.70	411.93
439.89	463.43
440.08	393.21
440.26	456.40
440.45	465.77
440.63	418.96
440.82	395.55
441.01	414.27
441.19	386.19
441.38	362.78
441.57	411.93
441.75	421.30
441.94	393.21
442.12	407.25
442.31	386.19
442.50	388.53
442.68	500.87
442.87	449.38
443.05	416.62
443.24	414.27
443.43	447.04
443.61	482.15
443.80	395.55
443.98	461.09
444.17	468.11
444.35	397.89
444.54	421.30
444.73	472.79
444.91	388.53
445.10	416.62
445.28	421.30
445.47	428.32
445.65	376.83
445.84	386.19
446.02	425.98
446.21	383.85
446.39	451.72
446.58	360.44
446.77	388.53
446.95	428.32
447.14	451.72
447.32	456.40
447.51	421.30
447.69	449.38
447.88	400.23
448.06	421.30
448.25	404.91
448.43	379.17
448.62	374.49
448.80	468.11
448.99	437.68
449.17	372.15
449.36	400.23
449.54	468.11
449.73	404.91
449.91	449.38
450.10	447.04
450.28	437.68
450.46	437.68
450.65	393.21
450.83	461.09
451.02	393.21
451.20	458.74
451.39	447.04
451.57	416.62
451.76	433.00
451.94	393.21
452.13	414.27
452.31	360.44
452.49	423.64
452.68	372.15
452.86	486.83
453.05	447.04
453.23	381.51
453.42	458.74
453.60	402.57
453.78	402.57
453.97	409.59
454.15	433.00
454.34	388.53
454.52	374.49
454.70	458.74
454.89	397.89
455.07	369.80
455.26	447.04
455.44	437.68
455.62	447.04
455.81	447.04
455.99	433.00
456.17	388.53
456.36	374.49
456.54	456.40
456.73	428.32
456.91	428.32
457.09	358.10
457.28	428.32
457.46	390.87
457.64	447.04
457.83	308.95
458.01	409.59
458.19	407.25
458.38	365.12
458.56	451.72
458.74	411.93
458.93	451.72
459.11	374.49
459.29	404.91
459.48	421.30
459.66	365.12
459.84	411.93
460.03	458.74
460.21	442.36
460.39	365.12
460.57	395.55
460.76	390.87
460.94	402.57
461.12	383.85
461.31	449.38
461.49	381.51
461.67	409.59
461.85	388.53
462.04	404.91
462.22	753.65
462.40	465.77
462.59	449.38
462.77	442.36
462.95	402.57
463.13	383.85
463.32	430.66
463.50	437.68
463.68	468.11
463.86	442.36
464.05	365.12
464.23	440.02
464.41	390.87
464.59	374.49
464.78	418.96
464.96	381.51
465.14	400.23
465.32	463.43
465.50	437.68
465.69	402.57
465.87	400.23
466.05	409.59
466.23	397.89
466.41	397.89
466.60	379.17
466.78	411.93
466.96	433.00
467.14	386.19
467.32	442.36
467.51	383.85
467.69	440.02
467.87	402.57
468.05	440.02
468.23	465.77
468.41	433.00
468.60	428.32
468.78	447.04
468.96	449.38
469.14	402.57
469.32	390.87
469.50	362.78
469.69	440.02
469.87	407.25
470.05	381.51
470.23	444.70
470.41	475.13
470.59	402.57
470.77	416.62
470.95	395.55
471.14	454.06
471.32	414.27
471.50	447.04
471.68	372.15
471.86	465.77
472.04	409.59
472.22	407.25
472.40	390.87
472.58	374.49
472.77	414.27
472.95	421.30
473.13	472.79
473.31	414.27
473.49	435.34
473.67	425.98
473.85	351.08
474.03	423.64
474.21	404.91
474.39	486.83
474.57	526.62
474.75	449.38
474.93	425.98
475.12	379.17
475.30	383.85
475.48	369.80
475.66	386.19
475.84	393.21
476.02	409.59
476.20	440.02
476.38	425.98
476.56	470.45
476.74	390.87
476.92	369.80
477.10	428.32
477.28	447.04
477.46	311.29
477.64	414.27
477.82	461.09
478.00	404.91
478.18	393.21
478.36	451.72
478.54	477.47
478.72	325.33
478.90	425.98
479.08	433.00
479.26	369.80
479.44	416.62
479.62	362.78
479.80	400.23
479.98	390.87
480.16	388.53
480.34	393.21
480.52	360.44
480.70	440.02
480.88	416.62
481.06	397.89
481.24	351.08
481.41	388.53
481.59	442.36
481.77	416.62
481.95	421.30
482.13	451.72
482.31	320.65
482.49	451.72
482.67	470.45
482.85	423.64
483.03	449.38
483.21	435.34
483.39	379.17
483.57	409.59
483.74	472.79
483.92	330.02
484.10	400.23
484.28	390.87
484.46	489.17
484.64	435.34
484.82	449.38
485.00	416.62
485.18	390.87
485.35	409.59
485.53	425.98
485.71	465.77
485.89	416.62
486.07	414.27
486.25	430.66
486.43	463.43
486.61	351.08
486.78	428.32
486.96	400.23
487.14	449.38
487.32	407.25
487.50	435.34
487.68	397.89
487.85	430.66
488.03	472.79
488.21	435.34
488.39	346.40
488.57	435.34
488.75	463.43
488.92	437.68
489.10	358.10
489.28	437.68
489.46	393.21
489.64	418.96
489.81	365.12
489.99	390.87
490.17	386.19
490.35	491.51
490.53	383.85
490.70	311.29
490.88	458.74
491.06	411.93
491.24	458.74
491.41	355.76
491.59	442.36
491.77	360.44
491.95	468.11
492.13	444.70
492.30	369.80
492.48	416.62
492.66	428.32
492.84	423.64
493.01	379.17
493.19	404.91
493.37	461.09
493.54	374.49
493.72	425.98
493.90	421.30
494.08	386.19
494.25	334.70
494.43	381.51
494.61	381.51
494.79	428.32
494.96	440.02
495.14	433.00
495.32	421.30
495.49	433.00
495.67	435.34
495.85	430.66
496.02	479.81
496.20	362.78
496.38	365.12
496.55	379.17
496.73	404.91
496.91	437.68
497.09	418.96
497.26	435.34
497.44	437.68
497.62	433.00
497.79	493.85
497.97	402.57
498.14	400.23
498.32	369.80
498.50	428.32
498.67	369.80
498.85	435.34
499.03	418.96
499.20	388.53
499.38	393.21
499.56	447.04
499.73	496.19
499.91	444.70
500.08	393.21
500.26	409.59
500.44	477.47
500.61	393.21
500.79	418.96
500.97	360.44
501.14	468.11
501.32	463.43
501.49	425.98
501.67	430.66
501.84	461.09
502.02	407.25
502.20	437.68
502.37	390.87
502.55	369.80
502.72	418.96
502.90	397.89
503.07	379.17
503.25	369.80
503.43	437.68
503.60	423.64
503.78	451.72
503.95	404.91
504.13	409.59
504.30	416.62
504.48	372.15
504.65	372.15
504.83	381.51
505.01	425.98
505.18	449.38
505.36	353.42
505.53	458.74
505.71	369.80
505.88	437.68
506.06	444.70
506.23	407.25
506.41	367.46
506.58	360.44
506.76	372.15
506.93	458.74
507.11	425.98
507.28	440.02
507.46	390.87
507.63	437.68
507.81	365.12
507.98	332.36
508.16	430.66
508.33	367.46
508.50	425.98
508.68	416.62
508.85	437.68
509.03	374.49
509.20	346.40
509.38	428.32
509.55	379.17
509.73	447.04
509.90	390.87
510.08	411.93
510.25	458.74
510.42	477.47
510.60	367.46
510.77	510.24
510.95	416.62
511.12	465.77
511.30	444.70
511.47	386.19
511.64	482.15
511.82	395.55
511.99	362.78
512.17	407.25
512.34	423.64
512.51	409.59
512.69	442.36
512.86	470.45
513.04	435.34
513.21	442.36
513.38	416.62
513.56	418.96
513.73	344.06
513.90	437.68
514.08	358.10
514.25	388.53
514.43	407.25
514.60	395.55
514.77	397.89
514.95	444.70
515.12	381.51
515.29	409.59
515.47	454.06
515.64	360.44
515.81	400.23
515.99	447.04
516.16	388.53
516.33	383.85
516.51	367.46
516.68	402.57
516.85	393.21
517.03	416.62
517.20	449.38
517.37	498.53
517.54	416.62
517.72	400.23
517.89	421.30
518.06	444.70
518.24	416.62
518.41	465.77
518.58	416.62
518.75	393.21
518.93	365.12
519.10	393.21
519.27	421.30
519.45	416.62
519.62	484.49
519.79	461.09
519.96	365.12
520.14	407.25
520.31	454.06
520.48	447.04
520.65	362.78
520.83	393.21
521.00	416.62
521.17	435.34
521.34	353.42
521.52	449.38
521.69	442.36
521.86	369.80
522.03	449.38
522.20	470.45
522.38	482.15
522.55	400.23
522.72	421.30
522.89	407.25
523.07	411.93
523.24	381.51
523.41	409.59
523.58	418.96
523.75	461.09
523.92	404.91
524.10	414.27
524.27	442.36
524.44	449.38
524.61	414.27
524.78	414.27
524.96	428.32
525.13	358.10
525.30	397.89
525.47	395.55
525.64	374.49
525.81	421.30
525.98	362.78
526.16	430.66
526.33	442.36
526.50	440.02
526.67	437.68
526.84	315.97
527.01	407.25
527.18	437.68
527.36	374.49
527.53	358.10
527.70	421.30
527.87	360.44
528.04	461.09
528.21	435.34
528.38	475.13
528.55	404.91
528.72	484.49
528.89	533.64
529.07	498.53
529.24	386.19
529.41	400.23
529.58	379.17
529.75	477.47
529.92	430.66
530.09	447.04
530.26	400.23
530.43	421.30
530.60	404.91
530.77	411.93
530.94	425.98
531.11	428.32
531.28	449.38
531.46	428.32
531.63	423.64
531.80	512.58
531.97	407.25
532.14	477.47
532.31	545.34
532.48	489.17
532.65	421.30
532.82	360.44
532.99	442.36
533.16	482.15
533.33	400.23
533.50	411.93
533.67	360.44
533.84	433.00
534.01	409.59
534.18	444.70
534.35	402.57
534.52	440.02
534.69	388.53
534.86	404.91
535.03	421.30
535.20	470.45
535.37	442.36
535.54	411.93
535.71	465.77
535.88	454.06
536.05	409.59
536.22	433.00
536.38	484.49
536.55	428.32
536.72	435.34
536.89	334.70
537.06	475.13
537.23	383.85
537.40	433.00
537.57	411.93
537.74	477.47
537.91	388.53
538.08	456.40
538.25	444.70
538.42	433.00
538.59	341.72
538.75	407.25
538.92	447.04
539.09	402.57
539.26	404.91
539.43	437.68
539.60	425.98
539.77	416.62
539.94	390.87
540.11	428.32
540.28	416.62
540.44	489.17
540.61	416.62
540.78	393.21
540.95	386.19
541.12	411.93
541.29	393.21
541.46	470.45
541.62	362.78
541.79	379.17
541.96	409.59
542.13	409.59
542.30	379.17
542.47	346.40
542.63	496.19
542.80	496.19
542.97	461.09
543.14	421.30
543.31	510.24
543.48	472.79
543.64	435.34
543.81	416.62
543.98	461.09
544.15	416.62
544.32	362.78
544.48	475.13
544.65	496.19
544.82	423.64
544.99	461.09
545.16	390.87
545.32	456.40
545.49	421.30
545.66	414.27
545.83	421.30
546.00	433.00
546.16	390.87
546.33	383.85
546.50	332.36
546.67	454.06
546.83	430.66
547.00	400.23
547.17	418.96
547.34	379.17
547.50	402.57
547.67	428.32
547.84	454.06
548.00	472.79
548.17	414.27
548.34	402.57
548.51	472.79
548.67	454.06
548.84	444.70
549.01	395.55
549.18	360.44
549.34	386.19
549.51	447.04
549.68	461.09
549.84	491.51
550.01	418.96
550.18	500.87
550.34	381.51
550.51	428.32
550.68	414.27
550.84	351.08
551.01	411.93
551.18	407.25
551.34	468.11
551.51	369.80
551.68	339.38
551.84	468.11
552.01	351.08
552.18	454.06
552.34	418.96
552.51	395.55
552.68	440.02
552.84	360.44
553.01	390.87
553.18	430.66
553.34	444.70
553.51	437.68
553.67	407.25
553.84	437.68
554.01	447.04
554.17	409.59
554.34	374.49
554.51	475.13
554.67	400.23
554.84	369.80
555.00	470.45
555.17	400.23
555.33	418.96
555.50	437.68
555.67	430.66
555.83	372.15
556.00	423.64
556.16	521.94
556.33	407.25
556.50	421.30
556.66	468.11
556.83	475.13
556.99	421.30
557.16	339.38
557.32	479.81
557.49	386.19
557.65	472.79
557.82	421.30
557.98	360.44
558.15	482.15
558.32	402.57
558.48	372.15
558.65	334.70
558.81	442.36
558.98	507.90
559.14	444.70
559.31	402.57
559.47	437.68
559.64	411.93
559.80	425.98
559.97	358.10
560.13	416.62
560.30	390.87
560.46	454.06
560.63	472.79
560.79	421.30
560.96	468.11
561.12	461.09
561.29	407.25
561.45	414.27
561.61	477.47
561.78	514.92
561.94	414.27
562.11	451.72
562.27	423.64
562.44	456.40
562.60	458.74
562.77	407.25
562.93	486.83
563.10	421.30
563.26	386.19
563.42	393.21
563.59	425.98
563.75	407.25
563.92	428.32
564.08	477.47
564.24	404.91
564.41	423.64
564.57	430.66
564.74	472.79
564.90	435.34
565.07	435.34
565.23	416.62
565.39	458.74
565.56	477.47
565.72	435.34
565.88	442.36
566.05	418.96
566.21	358.10
566.38	444.70
566.54	430.66
566.70	386.19
566.87	407.25
567.03	358.10
567.19	376.83
567.36	435.34
567.52	440.02
567.68	433.00
567.85	411.93
568.01	388.53
568.17	358.10
568.34	496.19
568.50	496.19
568.66	475.13
568.83	442.36
568.99	442.36
569.15	407.25
569.32	451.72
569.48	397.89
569.64	383.85
569.81	440.02
569.97	418.96
570.13	440.02
570.30	444.70
570.46	472.79
570.62	454.06
570.78	418.96
570.95	482.15
571.11	503.22
571.27	360.44
571.43	369.80
571.60	468.11
571.76	479.81
571.92	404.91
572.09	409.59
572.25	442.36
572.41	433.00
572.57	360.44
572.74	395.55
572.90	404.91
573.06	376.83
573.22	437.68
573.38	430.66
573.55	463.43
573.71	514.92
573.87	461.09
574.03	411.93
574.20	428.32
574.36	461.09
574.52	425.98
574.68	454.06
574.84	381.51
575.01	477.47
575.17	433.00
575.33	360.44
575.49	409.59
575.65	334.70
575.82	440.02
575.98	376.83
576.14	425.98
576.30	430.66
576.46	442.36
576.62	395.55
576.79	397.89
576.95	435.34
577.11	421.30
577.27	330.02
577.43	538.32
577.59	411.93
577.75	456.40
577.92	400.23
578.08	360.44
578.24	388.53
578.40	376.83
578.56	442.36
578.72	428.32
578.88	418.96
579.04	409.59
579.21	430.66
579.37	388.53
579.53	383.85
579.69	451.72
579.85	428.32
580.01	360.44
580.17	390.87
580.33	393.21
580.49	388.53
580.65	451.72
580.82	374.49
580.98	402.57
581.14	416.62
581.30	496.19
581.46	470.45
581.62	449.38
581.78	498.53
581.94	451.72
582.10	428.32
582.26	404.91
582.42	454.06
582.58	407.25
582.74	292.57
582.90	454.06
583.06	461.09
583.22	479.81
583.38	423.64
583.54	365.12
583.70	456.40
583.86	433.00
584.02	386.19
584.18	430.66
584.34	379.17
584.50	465.77
584.66	411.93
584.82	409.59
584.98	484.49
585.14	463.43
585.30	395.55
585.46	423.64
585.62	440.02
585.78	421.30
585.94	397.89
586.10	454.06
586.26	484.49
586.42	430.66
586.58	400.23
586.74	461.09
586.90	437.68
587.06	379.17
587.22	374.49
587.38	409.59
587.54	362.78
587.70	388.53
587.86	451.72
588.02	416.62
588.18	461.09
588.34	397.89
588.49	353.42
588.65	400.23
588.81	365.12
588.97	379.17
589.13	362.78
589.29	463.43
589.45	381.51
589.61	425.98
589.77	416.62
589.93	418.96
590.08	416.62
590.24	395.55
590.40	421.30
590.56	440.02
590.72	442.36
590.88	397.89
591.04	418.96
591.20	418.96
591.35	393.21
591.51	440.02
591.67	458.74
591.83	440.02
591.99	407.25
592.15	425.98
592.31	395.55
592.46	411.93
592.62	538.32
592.78	414.27
592.94	409.59
593.10	449.38
593.26	465.77
593.41	383.85
593.57	381.51
593.73	496.19
593.89	404.91
594.05	393.21
594.20	449.38
594.36	433.00
594.52	344.06
594.68	390.87
594.84	421.30
594.99	393.21
595.15	379.17
595.31	409.59
595.47	552.37
595.62	456.40
595.78	339.38
595.94	440.02
596.10	416.62
596.25	421.30
596.41	461.09
596.57	456.40
596.73	454.06
596.88	418.96
597.04	437.68
597.20	386.19
597.36	376.83
597.51	421.30
597.67	393.21
597.83	376.83
597.99	454.06
598.14	395.55
598.30	505.56
598.46	451.72
598.61	409.59
598.77	383.85
598.93	390.87
599.09	456.40
599.24	402.57
599.40	365.12
599.56	397.89
599.71	381.51
599.87	423.64
600.03	437.68
600.18	430.66
600.34	411.93
600.50	433.00
600.65	411.93
600.81	416.62
600.97	433.00
601.12	444.70
601.28	421.30
601.44	400.23
601.59	425.98
601.75	376.83
601.91	416.62
602.06	486.83
602.22	528.96
602.37	430.66
602.53	407.25
602.69	400.23
602.84	383.85
603.00	400.23
603.16	423.64
603.31	475.13
603.47	383.85
603.62	437.68
603.78	376.83
603.94	379.17
604.09	451.72
604.25	418.96
604.40	379.17
604.56	404.91
604.71	383.85
604.87	456.40
605.03	369.80
605.18	379.17
605.34	433.00
605.49	479.81
605.65	390.87
605.80	308.95
605.96	423.64
606.12	383.85
606.27	454.06
606.43	435.34
606.58	472.79
606.74	461.09
606.89	362.78
607.05	409.59
607.20	440.02
607.36	454.06
607.51	465.77
607.67	414.27
607.82	386.19
607.98	433.00
608.13	477.47
608.29	451.72
608.44	402.57
608.60	430.66
608.75	423.64
608.91	435.34
609.06	400.23
609.22	383.85
609.37	386.19
609.53	362.78
609.68	379.17
609.84	402.57
609.99	421.30
610.15	447.04
