SpectraSuite Data File
++++++++++++++++++++++++++++++++++++
Date: Fri Oct 25 12:10:19 EDT 2013
User: price-jones
Dark Spectrum Present: No
Reference Spectrum Present: No
Number of Sampled Component Spectra: 1
Spectrometers: USB2+H05261
Integration Time (usec): 100000 (USB2+H05261)
Spectra Averaged: 1 (USB2+H05261)
Boxcar Smoothing: 0 (USB2+H05261)
Correct for Electrical Dark: No (USB2+H05261)
Strobe/Lamp Enabled: No (USB2+H05261)
Correct for Detector Non-linearity: No (USB2+H05261)
Correct for Stray Light: No (USB2+H05261)
Number of Pixels in Processed Spectrum: 2048
>>>>>Begin Processed Spectral Data<<<<<
365.73	362.78
365.92	362.78
366.12	362.78
366.32	234.05
366.52	250.44
366.72	236.39
366.91	259.80
367.11	280.86
367.31	341.72
367.51	201.29
367.70	231.71
367.90	252.78
368.10	276.18
368.30	287.89
368.49	175.54
368.69	252.78
368.89	301.93
369.09	227.03
369.28	248.10
369.48	224.69
369.68	299.59
369.87	348.74
370.07	297.25
370.27	400.23
370.47	346.40
370.66	360.44
370.86	332.36
371.06	374.49
371.25	407.25
371.45	397.89
371.65	440.02
371.84	390.87
372.04	365.12
372.24	451.72
372.44	414.27
372.63	458.74
372.83	400.23
373.03	362.78
373.22	346.40
373.42	407.25
373.62	444.70
373.81	409.59
374.01	472.79
374.21	402.57
374.40	381.51
374.60	528.96
374.79	407.25
374.99	416.62
375.19	397.89
375.38	456.40
375.58	442.36
375.78	468.11
375.97	472.79
376.17	468.11
376.37	386.19
376.56	519.60
376.76	407.25
376.95	472.79
377.15	402.57
377.35	416.62
377.54	365.12
377.74	327.68
377.93	374.49
378.13	320.65
378.33	440.02
378.52	418.96
378.72	418.96
378.91	475.13
379.11	414.27
379.31	435.34
379.50	465.77
379.70	407.25
379.89	400.23
380.09	437.68
380.28	339.38
380.48	437.68
380.68	372.15
380.87	330.02
381.07	388.53
381.26	477.47
381.46	400.23
381.65	386.19
381.85	360.44
382.04	425.98
382.24	390.87
382.43	449.38
382.63	465.77
382.83	423.64
383.02	390.87
383.22	416.62
383.41	416.62
383.61	402.57
383.80	381.51
384.00	381.51
384.19	428.32
384.39	372.15
384.58	346.40
384.78	407.25
384.97	442.36
385.17	372.15
385.36	423.64
385.56	442.36
385.75	447.04
385.95	454.06
386.14	404.91
386.34	433.00
386.53	411.93
386.72	435.34
386.92	388.53
387.11	376.83
387.31	383.85
387.50	362.78
387.70	358.10
387.89	383.85
388.09	423.64
388.28	386.19
388.48	475.13
388.67	428.32
388.86	416.62
389.06	346.40
389.25	465.77
389.45	500.87
389.64	400.23
389.84	376.83
390.03	386.19
390.22	421.30
390.42	440.02
390.61	414.27
390.81	409.59
391.00	433.00
391.19	367.46
391.39	409.59
391.58	379.17
391.78	390.87
391.97	461.09
392.16	390.87
392.36	369.80
392.55	362.78
392.75	360.44
392.94	437.68
393.13	428.32
393.33	418.96
393.52	407.25
393.71	433.00
393.91	383.85
394.10	407.25
394.29	365.12
394.49	407.25
394.68	411.93
394.88	414.27
395.07	416.62
395.26	433.00
395.46	416.62
395.65	454.06
395.84	465.77
396.04	472.79
396.23	428.32
396.42	395.55
396.62	435.34
396.81	404.91
397.00	395.55
397.19	397.89
397.39	458.74
397.58	482.15
397.77	388.53
397.97	435.34
398.16	369.80
398.35	402.57
398.55	416.62
398.74	437.68
398.93	493.85
399.12	407.25
399.32	386.19
399.51	400.23
399.70	430.66
399.90	458.74
400.09	376.83
400.28	407.25
400.47	353.42
400.67	418.96
400.86	393.21
401.05	428.32
401.24	379.17
401.44	425.98
401.63	411.93
401.82	437.68
402.01	353.42
402.21	437.68
402.40	400.23
402.59	440.02
402.78	358.10
402.97	451.72
403.17	402.57
403.36	400.23
403.55	418.96
403.74	367.46
403.93	400.23
404.13	435.34
404.32	411.93
404.51	411.93
404.70	374.49
404.89	381.51
405.09	465.77
405.28	372.15
405.47	320.65
405.66	379.17
405.85	416.62
406.05	404.91
406.24	376.83
406.43	440.02
406.62	437.68
406.81	428.32
407.00	381.51
407.20	442.36
407.39	383.85
407.58	484.49
407.77	447.04
407.96	397.89
408.15	362.78
408.34	369.80
408.54	428.32
408.73	416.62
408.92	395.55
409.11	374.49
409.30	418.96
409.49	388.53
409.68	390.87
409.87	386.19
410.07	397.89
410.26	423.64
410.45	407.25
410.64	409.59
410.83	482.15
411.02	472.79
411.21	379.17
411.40	351.08
411.59	374.49
411.78	397.89
411.98	308.95
412.17	463.43
412.36	351.08
412.55	386.19
412.74	400.23
412.93	397.89
413.12	376.83
413.31	381.51
413.50	430.66
413.69	409.59
413.88	383.85
414.07	374.49
414.26	402.57
414.45	451.72
414.64	407.25
414.83	440.02
415.02	379.17
415.22	465.77
415.41	402.57
415.60	383.85
415.79	365.12
415.98	477.47
416.17	425.98
416.36	472.79
416.55	451.72
416.74	461.09
416.93	428.32
417.12	451.72
417.31	390.87
417.50	416.62
417.69	402.57
417.88	386.19
418.07	351.08
418.26	442.36
418.45	421.30
418.64	451.72
418.83	390.87
419.02	372.15
419.21	458.74
419.39	365.12
419.58	344.06
419.77	390.87
419.96	365.12
420.15	346.40
420.34	397.89
420.53	416.62
420.72	418.96
420.91	404.91
421.10	351.08
421.29	437.68
421.48	411.93
421.67	372.15
421.86	397.89
422.05	447.04
422.24	423.64
422.43	503.22
422.61	395.55
422.80	348.74
422.99	447.04
423.18	430.66
423.37	458.74
423.56	451.72
423.75	414.27
423.94	454.06
424.13	390.87
424.32	379.17
424.50	433.00
424.69	362.78
424.88	428.32
425.07	442.36
425.26	437.68
425.45	407.25
425.64	327.68
425.83	365.12
426.01	430.66
426.20	477.47
426.39	400.23
426.58	409.59
426.77	360.44
426.96	414.27
427.15	451.72
427.33	409.59
427.52	442.36
427.71	404.91
427.90	470.45
428.09	411.93
428.28	414.27
428.46	449.38
428.65	409.59
428.84	433.00
429.03	449.38
429.22	442.36
429.40	421.30
429.59	402.57
429.78	477.47
429.97	353.42
430.16	451.72
430.34	411.93
430.53	411.93
430.72	376.83
430.91	425.98
431.10	404.91
431.28	451.72
431.47	440.02
431.66	332.36
431.85	395.55
432.03	433.00
432.22	425.98
432.41	360.44
432.60	430.66
432.79	444.70
432.97	348.74
433.16	374.49
433.35	416.62
433.54	449.38
433.72	486.83
433.91	393.21
434.10	351.08
434.28	421.30
434.47	472.79
434.66	458.74
434.85	428.32
435.03	444.70
435.22	430.66
435.41	477.47
435.59	423.64
435.78	383.85
435.97	393.21
436.16	400.23
436.34	402.57
436.53	465.77
436.72	472.79
436.90	447.04
437.09	435.34
437.28	454.06
437.46	451.72
437.65	376.83
437.84	409.59
438.02	395.55
438.21	381.51
438.40	409.59
438.58	402.57
438.77	465.77
438.96	400.23
439.14	337.04
439.33	423.64
439.52	374.49
439.70	388.53
439.89	407.25
440.08	433.00
440.26	374.49
440.45	433.00
440.63	411.93
440.82	414.27
441.01	430.66
441.19	379.17
441.38	402.57
441.57	433.00
441.75	451.72
441.94	421.30
442.12	418.96
442.31	404.91
442.50	388.53
442.68	374.49
442.87	465.77
443.05	402.57
443.24	369.80
443.43	435.34
443.61	348.74
443.80	353.42
443.98	397.89
444.17	409.59
444.35	456.40
444.54	358.10
444.73	395.55
444.91	393.21
445.10	383.85
445.28	451.72
445.47	386.19
445.65	479.81
445.84	454.06
446.02	337.04
446.21	465.77
446.39	425.98
446.58	353.42
446.77	409.59
446.95	461.09
447.14	456.40
447.32	334.70
447.51	444.70
447.69	404.91
447.88	421.30
448.06	454.06
448.25	423.64
448.43	386.19
448.62	465.77
448.80	425.98
448.99	379.17
449.17	414.27
449.36	393.21
449.54	468.11
449.73	386.19
449.91	388.53
450.10	362.78
450.28	521.94
450.46	500.87
450.65	433.00
450.83	428.32
451.02	383.85
451.20	414.27
451.39	393.21
451.57	442.36
451.76	397.89
451.94	334.70
452.13	400.23
452.31	411.93
452.49	482.15
452.68	381.51
452.86	451.72
453.05	456.40
453.23	376.83
453.42	367.46
453.60	444.70
453.78	479.81
453.97	407.25
454.15	379.17
454.34	372.15
454.52	386.19
454.70	444.70
454.89	493.85
455.07	414.27
455.26	407.25
455.44	383.85
455.62	404.91
455.81	388.53
455.99	449.38
456.17	449.38
456.36	383.85
456.54	423.64
456.73	393.21
456.91	379.17
457.09	416.62
457.28	477.47
457.46	465.77
457.64	376.83
457.83	414.27
458.01	325.33
458.19	365.12
458.38	334.70
458.56	376.83
458.74	388.53
458.93	435.34
459.11	386.19
459.29	433.00
459.48	372.15
459.66	456.40
459.84	360.44
460.03	484.49
460.21	362.78
460.39	411.93
460.57	416.62
460.76	386.19
460.94	390.87
461.12	407.25
461.31	468.11
461.49	393.21
461.67	374.49
461.85	442.36
462.04	458.74
462.22	730.25
462.40	409.59
462.59	390.87
462.77	423.64
462.95	477.47
463.13	337.04
463.32	341.72
463.50	425.98
463.68	367.46
463.86	411.93
464.05	400.23
464.23	463.43
464.41	376.83
464.59	381.51
464.78	341.72
464.96	414.27
465.14	400.23
465.32	339.38
465.50	379.17
465.69	500.87
465.87	313.63
466.05	409.59
466.23	400.23
466.41	379.17
466.60	421.30
466.78	440.02
466.96	449.38
467.14	381.51
467.32	475.13
467.51	379.17
467.69	416.62
467.87	461.09
468.05	388.53
468.23	491.51
468.41	390.87
468.60	416.62
468.78	386.19
468.96	468.11
469.14	367.46
469.32	444.70
469.50	418.96
469.69	376.83
469.87	416.62
470.05	449.38
470.23	468.11
470.41	395.55
470.59	404.91
470.77	418.96
470.95	397.89
471.14	381.51
471.32	355.76
471.50	402.57
471.68	421.30
471.86	390.87
472.04	372.15
472.22	409.59
472.40	365.12
472.58	437.68
472.77	341.72
472.95	454.06
473.13	442.36
473.31	376.83
473.49	418.96
473.67	407.25
473.85	397.89
474.03	374.49
474.21	407.25
474.39	383.85
474.57	496.19
474.75	472.79
474.93	447.04
475.12	397.89
475.30	418.96
475.48	402.57
475.66	428.32
475.84	353.42
476.02	355.76
476.20	425.98
476.38	435.34
476.56	505.56
476.74	416.62
476.92	330.02
477.10	383.85
477.28	444.70
477.46	430.66
477.64	454.06
477.82	442.36
478.00	447.04
478.18	404.91
478.36	344.06
478.54	390.87
478.72	421.30
478.90	404.91
479.08	451.72
479.26	402.57
479.44	386.19
479.62	397.89
479.80	430.66
479.98	353.42
480.16	367.46
480.34	404.91
480.52	444.70
480.70	308.95
480.88	411.93
481.06	433.00
481.24	395.55
481.41	393.21
481.59	421.30
481.77	411.93
481.95	428.32
482.13	428.32
482.31	463.43
482.49	369.80
482.67	447.04
482.85	409.59
483.03	433.00
483.21	381.51
483.39	386.19
483.57	482.15
483.74	456.40
483.92	395.55
484.10	423.64
484.28	425.98
484.46	475.13
484.64	486.83
484.82	430.66
485.00	369.80
485.18	372.15
485.35	454.06
485.53	386.19
485.71	416.62
485.89	411.93
486.07	388.53
486.25	526.62
486.43	393.21
486.61	447.04
486.78	369.80
486.96	393.21
487.14	416.62
487.32	411.93
487.50	442.36
487.68	414.27
487.85	421.30
488.03	393.21
488.21	423.64
488.39	425.98
488.57	470.45
488.75	456.40
488.92	479.81
489.10	388.53
489.28	451.72
489.46	451.72
489.64	451.72
489.81	411.93
489.99	411.93
490.17	327.68
490.35	435.34
490.53	407.25
490.70	390.87
490.88	454.06
491.06	404.91
491.24	437.68
491.41	416.62
491.59	454.06
491.77	416.62
491.95	381.51
492.13	404.91
492.30	386.19
492.48	379.17
492.66	477.47
492.84	433.00
493.01	423.64
493.19	301.93
493.37	447.04
493.54	311.29
493.72	400.23
493.90	489.17
494.08	482.15
494.25	442.36
494.43	407.25
494.61	437.68
494.79	416.62
494.96	423.64
495.14	463.43
495.32	414.27
495.49	449.38
495.67	388.53
495.85	386.19
496.02	430.66
496.20	454.06
496.38	390.87
496.55	440.02
496.73	388.53
496.91	402.57
497.09	339.38
497.26	355.76
497.44	369.80
497.62	430.66
497.79	423.64
497.97	425.98
498.14	475.13
498.32	381.51
498.50	407.25
498.67	407.25
498.85	463.43
499.03	465.77
499.20	416.62
499.38	477.47
499.56	411.93
499.73	465.77
499.91	386.19
500.08	374.49
500.26	437.68
500.44	423.64
500.61	430.66
500.79	435.34
500.97	449.38
501.14	484.49
501.32	397.89
501.49	430.66
501.67	365.12
501.84	390.87
502.02	433.00
502.20	416.62
502.37	449.38
502.55	430.66
502.72	402.57
502.90	468.11
503.07	435.34
503.25	433.00
503.43	447.04
503.60	416.62
503.78	440.02
503.95	444.70
504.13	327.68
504.30	402.57
504.48	416.62
504.65	397.89
504.83	449.38
505.01	440.02
505.18	447.04
505.36	355.76
505.53	395.55
505.71	409.59
505.88	402.57
506.06	386.19
506.23	468.11
506.41	355.76
506.58	374.49
506.76	322.99
506.93	374.49
507.11	397.89
507.28	346.40
507.46	430.66
507.63	381.51
507.81	444.70
507.98	416.62
508.16	376.83
508.33	334.70
508.50	414.27
508.68	386.19
508.85	411.93
509.03	416.62
509.20	468.11
509.38	381.51
509.55	489.17
509.73	454.06
509.90	404.91
510.08	337.04
510.25	362.78
510.42	430.66
510.60	367.46
510.77	334.70
510.95	465.77
511.12	449.38
511.30	374.49
511.47	327.68
511.64	456.40
511.82	308.95
511.99	372.15
512.17	409.59
512.34	414.27
512.51	472.79
512.69	465.77
512.86	404.91
513.04	465.77
513.21	355.76
513.38	395.55
513.56	407.25
513.73	430.66
513.90	449.38
514.08	409.59
514.25	440.02
514.43	407.25
514.60	379.17
514.77	437.68
514.95	482.15
515.12	381.51
515.29	505.56
515.47	423.64
515.64	442.36
515.81	437.68
515.99	435.34
516.16	358.10
516.33	437.68
516.51	390.87
516.68	407.25
516.85	390.87
517.03	386.19
517.20	414.27
517.37	402.57
517.54	376.83
517.72	440.02
517.89	400.23
518.06	404.91
518.24	472.79
518.41	433.00
518.58	430.66
518.75	372.15
518.93	407.25
519.10	421.30
519.27	425.98
519.45	414.27
519.62	414.27
519.79	477.47
519.96	407.25
520.14	477.47
520.31	479.81
520.48	442.36
520.65	386.19
520.83	372.15
521.00	411.93
521.17	400.23
521.34	442.36
521.52	358.10
521.69	376.83
521.86	430.66
522.03	395.55
522.20	447.04
522.38	404.91
522.55	315.97
522.72	411.93
522.89	440.02
523.07	470.45
523.24	437.68
523.41	341.72
523.58	437.68
523.75	367.46
523.92	493.85
524.10	411.93
524.27	449.38
524.44	418.96
524.61	386.19
524.78	367.46
524.96	451.72
525.13	444.70
525.30	437.68
525.47	414.27
525.64	423.64
525.81	365.12
525.98	449.38
526.16	348.74
526.33	369.80
526.50	332.36
526.67	383.85
526.84	337.04
527.01	372.15
527.18	421.30
527.36	365.12
527.53	372.15
527.70	437.68
527.87	379.17
528.04	486.83
528.21	465.77
528.38	440.02
528.55	428.32
528.72	428.32
528.89	407.25
529.07	454.06
529.24	493.85
529.41	489.17
529.58	414.27
529.75	433.00
529.92	437.68
530.09	451.72
530.26	479.81
530.43	447.04
530.60	404.91
530.77	365.12
530.94	444.70
531.11	479.81
531.28	472.79
531.46	365.12
531.63	456.40
531.80	402.57
531.97	496.19
532.14	454.06
532.31	334.70
532.48	414.27
532.65	397.89
532.82	416.62
532.99	395.55
533.16	411.93
533.33	486.83
533.50	437.68
533.67	353.42
533.84	461.09
534.01	463.43
534.18	416.62
534.35	503.22
534.52	418.96
534.69	470.45
534.86	458.74
535.03	449.38
535.20	397.89
535.37	402.57
535.54	451.72
535.71	409.59
535.88	395.55
536.05	456.40
536.22	421.30
536.38	440.02
536.55	433.00
536.72	482.15
536.89	372.15
537.06	348.74
537.23	379.17
537.40	416.62
537.57	411.93
537.74	479.81
537.91	442.36
538.08	411.93
538.25	461.09
538.42	458.74
538.59	514.92
538.75	454.06
538.92	486.83
539.09	437.68
539.26	395.55
539.43	461.09
539.60	374.49
539.77	299.59
539.94	444.70
540.11	430.66
540.28	442.36
540.44	423.64
540.61	355.76
540.78	404.91
540.95	461.09
541.12	433.00
541.29	425.98
541.46	425.98
541.62	407.25
541.79	454.06
541.96	463.43
542.13	437.68
542.30	472.79
542.47	400.23
542.63	456.40
542.80	327.68
542.97	397.89
543.14	400.23
543.31	433.00
543.48	372.15
543.64	351.08
543.81	423.64
543.98	379.17
544.15	383.85
544.32	365.12
544.48	444.70
544.65	447.04
544.82	393.21
544.99	374.49
545.16	491.51
545.32	423.64
545.49	376.83
545.66	486.83
545.83	383.85
546.00	339.38
546.16	456.40
546.33	355.76
546.50	358.10
546.67	449.38
546.83	470.45
547.00	397.89
547.17	442.36
547.34	496.19
547.50	376.83
547.67	367.46
547.84	379.17
548.00	393.21
548.17	411.93
548.34	393.21
548.51	475.13
548.67	397.89
548.84	437.68
549.01	435.34
549.18	454.06
549.34	416.62
549.51	358.10
549.68	367.46
549.84	411.93
550.01	442.36
550.18	433.00
550.34	447.04
550.51	379.17
550.68	442.36
550.84	428.32
551.01	484.49
551.18	386.19
551.34	423.64
551.51	409.59
551.68	404.91
551.84	367.46
552.01	449.38
552.18	416.62
552.34	435.34
552.51	386.19
552.68	458.74
552.84	444.70
553.01	418.96
553.18	404.91
553.34	440.02
553.51	437.68
553.67	362.78
553.84	449.38
554.01	447.04
554.17	430.66
554.34	388.53
554.51	414.27
554.67	489.17
554.84	423.64
555.00	435.34
555.17	498.53
555.33	404.91
555.50	393.21
555.67	444.70
555.83	402.57
556.00	505.56
556.16	535.98
556.33	512.58
556.50	374.49
556.66	470.45
556.83	442.36
556.99	383.85
557.16	458.74
557.32	402.57
557.49	402.57
557.65	400.23
557.82	353.42
557.98	402.57
558.15	383.85
558.32	409.59
558.48	395.55
558.65	442.36
558.81	395.55
558.98	404.91
559.14	411.93
559.31	468.11
559.47	470.45
559.64	484.49
559.80	468.11
559.97	390.87
560.13	369.80
560.30	430.66
560.46	423.64
560.63	416.62
560.79	486.83
560.96	456.40
561.12	421.30
561.29	461.09
561.45	440.02
561.61	374.49
561.78	461.09
561.94	402.57
562.11	465.77
562.27	423.64
562.44	376.83
562.60	411.93
562.77	447.04
562.93	447.04
563.10	482.15
563.26	388.53
563.42	514.92
563.59	454.06
563.75	374.49
563.92	465.77
564.08	393.21
564.24	418.96
564.41	440.02
564.57	376.83
564.74	444.70
564.90	409.59
565.07	449.38
565.23	498.53
565.39	435.34
565.56	358.10
565.72	374.49
565.88	433.00
566.05	407.25
566.21	379.17
566.38	428.32
566.54	362.78
566.70	449.38
566.87	454.06
567.03	395.55
567.19	353.42
567.36	423.64
567.52	353.42
567.68	447.04
567.85	425.98
568.01	433.00
568.17	400.23
568.34	430.66
568.50	400.23
568.66	416.62
568.83	472.79
568.99	390.87
569.15	465.77
569.32	482.15
569.48	435.34
569.64	437.68
569.81	423.64
569.97	437.68
570.13	374.49
570.30	409.59
570.46	423.64
570.62	465.77
570.78	421.30
570.95	397.89
571.11	465.77
571.27	444.70
571.43	334.70
571.60	423.64
571.76	433.00
571.92	435.34
572.09	388.53
572.25	355.76
572.41	388.53
572.57	430.66
572.74	458.74
572.90	393.21
573.06	482.15
573.22	418.96
573.38	386.19
573.55	409.59
573.71	383.85
573.87	470.45
574.03	418.96
574.20	411.93
574.36	456.40
574.52	514.92
574.68	400.23
574.84	440.02
575.01	430.66
575.17	428.32
575.33	414.27
575.49	496.19
575.65	421.30
575.82	386.19
575.98	486.83
576.14	395.55
576.30	400.23
576.46	404.91
576.62	484.49
576.79	440.02
576.95	397.89
577.11	409.59
577.27	425.98
577.43	479.81
577.59	409.59
577.75	444.70
577.92	468.11
578.08	425.98
578.24	437.68
578.40	428.32
578.56	451.72
578.72	491.51
578.88	390.87
579.04	414.27
579.21	390.87
579.37	414.27
579.53	379.17
579.69	484.49
579.85	433.00
580.01	430.66
580.17	416.62
580.33	409.59
580.49	365.12
580.65	489.17
580.82	416.62
580.98	411.93
581.14	435.34
581.30	456.40
581.46	416.62
581.62	395.55
581.78	386.19
581.94	346.40
582.10	402.57
582.26	404.91
582.42	423.64
582.58	496.19
582.74	388.53
582.90	383.85
583.06	500.87
583.22	397.89
583.38	358.10
583.54	440.02
583.70	404.91
583.86	435.34
584.02	435.34
584.18	454.06
584.34	493.85
584.50	407.25
584.66	433.00
584.82	346.40
584.98	451.72
585.14	376.83
585.30	418.96
585.46	456.40
585.62	423.64
585.78	416.62
585.94	416.62
586.10	507.90
586.26	402.57
586.42	512.58
586.58	428.32
586.74	383.85
586.90	381.51
587.06	447.04
587.22	409.59
587.38	428.32
587.54	440.02
587.70	433.00
587.86	451.72
588.02	397.89
588.18	444.70
588.34	458.74
588.49	358.10
588.65	482.15
588.81	493.85
588.97	428.32
589.13	393.21
589.29	437.68
589.45	393.21
589.61	442.36
589.77	383.85
589.93	332.36
590.08	388.53
590.24	386.19
590.40	360.44
590.56	433.00
590.72	379.17
590.88	376.83
591.04	416.62
591.20	454.06
591.35	397.89
591.51	418.96
591.67	372.15
591.83	386.19
591.99	388.53
592.15	437.68
592.31	425.98
592.46	496.19
592.62	472.79
592.78	454.06
592.94	435.34
593.10	344.06
593.26	376.83
593.41	372.15
593.57	395.55
593.73	421.30
593.89	489.17
594.05	411.93
594.20	442.36
594.36	484.49
594.52	409.59
594.68	414.27
594.84	533.64
594.99	440.02
595.15	437.68
595.31	428.32
595.47	423.64
595.62	430.66
595.78	423.64
595.94	454.06
596.10	444.70
596.25	456.40
596.41	433.00
596.57	348.74
596.73	353.42
596.88	430.66
597.04	400.23
597.20	390.87
597.36	404.91
597.51	437.68
597.67	451.72
597.83	418.96
597.99	491.51
598.14	421.30
598.30	510.24
598.46	407.25
598.61	400.23
598.77	388.53
598.93	334.70
599.09	404.91
599.24	416.62
599.40	472.79
599.56	463.43
599.71	414.27
599.87	409.59
600.03	428.32
600.18	388.53
600.34	447.04
600.50	362.78
600.65	442.36
600.81	425.98
600.97	433.00
601.12	423.64
601.28	437.68
601.44	454.06
601.59	458.74
601.75	479.81
601.91	379.17
602.06	404.91
602.22	482.15
602.37	442.36
602.53	454.06
602.69	425.98
602.84	355.76
603.00	444.70
603.16	458.74
603.31	451.72
603.47	447.04
603.62	369.80
603.78	493.85
603.94	435.34
604.09	447.04
604.25	416.62
604.40	376.83
604.56	456.40
604.71	433.00
604.87	433.00
605.03	381.51
605.18	409.59
605.34	486.83
605.49	397.89
605.65	503.22
605.80	397.89
605.96	379.17
606.12	440.02
606.27	461.09
606.43	461.09
606.58	489.17
606.74	416.62
606.89	489.17
607.05	468.11
607.20	449.38
607.36	393.21
607.51	472.79
607.67	353.42
607.82	428.32
607.98	463.43
608.13	407.25
608.29	358.10
608.44	421.30
608.60	463.43
608.75	461.09
608.91	458.74
609.06	418.96
609.22	409.59
609.37	418.96
609.53	390.87
609.68	346.40
609.84	358.10
609.99	351.08
610.15	465.77
