SpectraSuite Data File
++++++++++++++++++++++++++++++++++++
Date: Fri Oct 25 12:11:23 EDT 2013
User: price-jones
Dark Spectrum Present: No
Reference Spectrum Present: No
Number of Sampled Component Spectra: 1
Spectrometers: USB2+H05261
Integration Time (usec): 100000 (USB2+H05261)
Spectra Averaged: 1 (USB2+H05261)
Boxcar Smoothing: 0 (USB2+H05261)
Correct for Electrical Dark: No (USB2+H05261)
Strobe/Lamp Enabled: No (USB2+H05261)
Correct for Detector Non-linearity: No (USB2+H05261)
Correct for Stray Light: No (USB2+H05261)
Number of Pixels in Processed Spectrum: 2048
>>>>>Begin Processed Spectral Data<<<<<
365.73	278.52
365.92	278.52
366.12	278.52
366.32	355.76
366.52	280.86
366.72	241.08
366.91	262.14
367.11	259.80
367.31	266.82
367.51	248.10
367.70	313.63
367.90	220.01
368.10	222.35
368.30	264.48
368.49	255.12
368.69	304.27
368.89	205.97
369.09	234.05
369.28	210.65
369.48	255.12
369.68	248.10
369.87	294.91
370.07	351.08
370.27	367.46
370.47	313.63
370.66	360.44
370.86	421.30
371.06	311.29
371.25	402.57
371.45	358.10
371.65	433.00
371.84	348.74
372.04	362.78
372.24	400.23
372.44	374.49
372.63	388.53
372.83	400.23
373.03	369.80
373.22	414.27
373.42	393.21
373.62	402.57
373.81	374.49
374.01	383.85
374.21	367.46
374.40	416.62
374.60	411.93
374.79	379.17
374.99	365.12
375.19	451.72
375.38	465.77
375.58	447.04
375.78	442.36
375.97	421.30
376.17	484.49
376.37	416.62
376.56	421.30
376.76	416.62
376.95	416.62
377.15	397.89
377.35	379.17
377.54	440.02
377.74	369.80
377.93	376.83
378.13	367.46
378.33	416.62
378.52	451.72
378.72	397.89
378.91	400.23
379.11	447.04
379.31	339.38
379.50	362.78
379.70	425.98
379.89	402.57
380.09	344.06
380.28	397.89
380.48	425.98
380.68	435.34
380.87	346.40
381.07	390.87
381.26	416.62
381.46	379.17
381.65	491.51
381.85	353.42
382.04	433.00
382.24	379.17
382.43	489.17
382.63	409.59
382.83	421.30
383.02	397.89
383.22	444.70
383.41	435.34
383.61	428.32
383.80	444.70
384.00	414.27
384.19	390.87
384.39	428.32
384.58	367.46
384.78	435.34
384.97	470.45
385.17	435.34
385.36	362.78
385.56	376.83
385.75	351.08
385.95	332.36
386.14	433.00
386.34	461.09
386.53	449.38
386.72	397.89
386.92	416.62
387.11	425.98
387.31	367.46
387.50	416.62
387.70	423.64
387.89	383.85
388.09	470.45
388.28	344.06
388.48	379.17
388.67	458.74
388.86	397.89
389.06	365.12
389.25	390.87
389.45	430.66
389.64	386.19
389.84	404.91
390.03	484.49
390.22	461.09
390.42	477.47
390.61	346.40
390.81	348.74
391.00	383.85
391.19	425.98
391.39	423.64
391.58	430.66
391.78	411.93
391.97	407.25
392.16	390.87
392.36	475.13
392.55	383.85
392.75	442.36
392.94	376.83
393.13	334.70
393.33	425.98
393.52	435.34
393.71	386.19
393.91	479.81
394.10	369.80
394.29	411.93
394.49	418.96
394.68	416.62
394.88	440.02
395.07	454.06
395.26	381.51
395.46	383.85
395.65	390.87
395.84	372.15
396.04	491.51
396.23	332.36
396.42	421.30
396.62	409.59
396.81	404.91
397.00	353.42
397.19	458.74
397.39	395.55
397.58	400.23
397.77	400.23
397.97	388.53
398.16	388.53
398.35	416.62
398.55	327.68
398.74	400.23
398.93	360.44
399.12	465.77
399.32	409.59
399.51	447.04
399.70	454.06
399.90	379.17
400.09	409.59
400.28	449.38
400.47	400.23
400.67	454.06
400.86	458.74
401.05	395.55
401.24	372.15
401.44	414.27
401.63	414.27
401.82	456.40
402.01	425.98
402.21	425.98
402.40	414.27
402.59	379.17
402.78	400.23
402.97	428.32
403.17	465.77
403.36	409.59
403.55	437.68
403.74	397.89
403.93	402.57
404.13	414.27
404.32	379.17
404.51	421.30
404.70	414.27
404.89	454.06
405.09	409.59
405.28	418.96
405.47	402.57
405.66	433.00
405.85	428.32
406.05	332.36
406.24	430.66
406.43	414.27
406.62	407.25
406.81	458.74
407.00	430.66
407.20	404.91
407.39	442.36
407.58	374.49
407.77	442.36
407.96	484.49
408.15	402.57
408.34	374.49
408.54	390.87
408.73	456.40
408.92	369.80
409.11	379.17
409.30	468.11
409.49	421.30
409.68	320.65
409.87	386.19
410.07	337.04
410.26	437.68
410.45	468.11
410.64	425.98
410.83	411.93
411.02	440.02
411.21	454.06
411.40	435.34
411.59	383.85
411.78	395.55
411.98	444.70
412.17	402.57
412.36	337.04
412.55	390.87
412.74	395.55
412.93	475.13
413.12	397.89
413.31	372.15
413.50	444.70
413.69	379.17
413.88	425.98
414.07	322.99
414.26	411.93
414.45	393.21
414.64	472.79
414.83	409.59
415.02	395.55
415.22	461.09
415.41	470.45
415.60	367.46
415.79	428.32
415.98	416.62
416.17	433.00
416.36	461.09
416.55	390.87
416.74	470.45
416.93	440.02
417.12	428.32
417.31	442.36
417.50	351.08
417.69	449.38
417.88	437.68
418.07	404.91
418.26	451.72
418.45	402.57
418.64	433.00
418.83	465.77
419.02	395.55
419.21	404.91
419.39	414.27
419.58	421.30
419.77	393.21
419.96	447.04
420.15	489.17
420.34	416.62
420.53	400.23
420.72	437.68
420.91	423.64
421.10	369.80
421.29	449.38
421.48	423.64
421.67	468.11
421.86	372.15
422.05	425.98
422.24	353.42
422.43	393.21
422.61	397.89
422.80	397.89
422.99	430.66
423.18	407.25
423.37	498.53
423.56	360.44
423.75	416.62
423.94	425.98
424.13	397.89
424.32	400.23
424.50	444.70
424.69	369.80
424.88	465.77
425.07	402.57
425.26	437.68
425.45	437.68
425.64	402.57
425.83	416.62
426.01	423.64
426.20	374.49
426.39	381.51
426.58	404.91
426.77	362.78
426.96	442.36
427.15	397.89
427.33	461.09
427.52	498.53
427.71	372.15
427.90	372.15
428.09	470.45
428.28	404.91
428.46	428.32
428.65	440.02
428.84	390.87
429.03	444.70
429.22	433.00
429.40	388.53
429.59	468.11
429.78	414.27
429.97	348.74
430.16	369.80
430.34	479.81
430.53	416.62
430.72	395.55
430.91	400.23
431.10	409.59
431.28	372.15
431.47	484.49
431.66	528.96
431.85	433.00
432.03	454.06
432.22	421.30
432.41	454.06
432.60	423.64
432.79	367.46
432.97	411.93
433.16	344.06
433.35	449.38
433.54	454.06
433.72	402.57
433.91	374.49
434.10	425.98
434.28	468.11
434.47	442.36
434.66	444.70
434.85	477.47
435.03	447.04
435.22	447.04
435.41	430.66
435.59	437.68
435.78	477.47
435.97	376.83
436.16	421.30
436.34	393.21
436.53	444.70
436.72	444.70
436.90	447.04
437.09	376.83
437.28	416.62
437.46	447.04
437.65	386.19
437.84	383.85
438.02	376.83
438.21	456.40
438.40	416.62
438.58	411.93
438.77	435.34
438.96	397.89
439.14	397.89
439.33	435.34
439.52	402.57
439.70	402.57
439.89	423.64
440.08	386.19
440.26	428.32
440.45	465.77
440.63	428.32
440.82	362.78
441.01	418.96
441.19	430.66
441.38	409.59
441.57	395.55
441.75	433.00
441.94	301.93
442.12	440.02
442.31	414.27
442.50	447.04
442.68	433.00
442.87	376.83
443.05	435.34
443.24	430.66
443.43	395.55
443.61	367.46
443.80	416.62
443.98	414.27
444.17	477.47
444.35	337.04
444.54	425.98
444.73	418.96
444.91	484.49
445.10	402.57
445.28	367.46
445.47	447.04
445.65	369.80
445.84	437.68
446.02	397.89
446.21	383.85
446.39	400.23
446.58	435.34
446.77	430.66
446.95	430.66
447.14	402.57
447.32	430.66
447.51	409.59
447.69	388.53
447.88	362.78
448.06	435.34
448.25	372.15
448.43	379.17
448.62	409.59
448.80	437.68
448.99	461.09
449.17	433.00
449.36	390.87
449.54	430.66
449.73	372.15
449.91	430.66
450.10	376.83
450.28	425.98
450.46	365.12
450.65	435.34
450.83	444.70
451.02	355.76
451.20	421.30
451.39	447.04
451.57	344.06
451.76	365.12
451.94	416.62
452.13	454.06
452.31	491.51
452.49	428.32
452.68	393.21
452.86	477.47
453.05	512.58
453.23	409.59
453.42	374.49
453.60	463.43
453.78	388.53
453.97	447.04
454.15	444.70
454.34	379.17
454.52	418.96
454.70	409.59
454.89	418.96
455.07	423.64
455.26	442.36
455.44	442.36
455.62	402.57
455.81	421.30
455.99	376.83
456.17	489.17
456.36	376.83
456.54	451.72
456.73	416.62
456.91	365.12
457.09	449.38
457.28	472.79
457.46	425.98
457.64	440.02
457.83	367.46
458.01	444.70
458.19	358.10
458.38	416.62
458.56	470.45
458.74	365.12
458.93	479.81
459.11	430.66
459.29	381.51
459.48	416.62
459.66	484.49
459.84	376.83
460.03	472.79
460.21	423.64
460.39	416.62
460.57	468.11
460.76	353.42
460.94	456.40
461.12	414.27
461.31	418.96
461.49	470.45
461.67	334.70
461.85	461.09
462.04	442.36
462.22	842.59
462.40	435.34
462.59	393.21
462.77	407.25
462.95	463.43
463.13	428.32
463.32	404.91
463.50	411.93
463.68	461.09
463.86	388.53
464.05	411.93
464.23	482.15
464.41	404.91
464.59	393.21
464.78	465.77
464.96	390.87
465.14	461.09
465.32	435.34
465.50	374.49
465.69	353.42
465.87	407.25
466.05	402.57
466.23	367.46
466.41	381.51
466.60	421.30
466.78	423.64
466.96	442.36
467.14	496.19
467.32	388.53
467.51	484.49
467.69	433.00
467.87	440.02
468.05	496.19
468.23	461.09
468.41	486.83
468.60	395.55
468.78	444.70
468.96	383.85
469.14	442.36
469.32	475.13
469.50	341.72
469.69	475.13
469.87	397.89
470.05	386.19
470.23	437.68
470.41	435.34
470.59	407.25
470.77	442.36
470.95	430.66
471.14	388.53
471.32	404.91
471.50	465.77
471.68	407.25
471.86	421.30
472.04	449.38
472.22	400.23
472.40	355.76
472.58	428.32
472.77	355.76
472.95	416.62
473.13	393.21
473.31	397.89
473.49	409.59
473.67	379.17
473.85	416.62
474.03	388.53
474.21	409.59
474.39	465.77
474.57	414.27
474.75	430.66
474.93	479.81
475.12	351.08
475.30	379.17
475.48	430.66
475.66	386.19
475.84	449.38
476.02	362.78
476.20	418.96
476.38	383.85
476.56	395.55
476.74	421.30
476.92	404.91
477.10	376.83
477.28	442.36
477.46	409.59
477.64	458.74
477.82	407.25
478.00	461.09
478.18	468.11
478.36	374.49
478.54	416.62
478.72	430.66
478.90	463.43
479.08	470.45
479.26	428.32
479.44	362.78
479.62	341.72
479.80	433.00
479.98	444.70
480.16	451.72
480.34	395.55
480.52	430.66
480.70	404.91
480.88	444.70
481.06	365.12
481.24	407.25
481.41	362.78
481.59	411.93
481.77	374.49
481.95	344.06
482.13	390.87
482.31	393.21
482.49	451.72
482.67	409.59
482.85	428.32
483.03	470.45
483.21	421.30
483.39	430.66
483.57	489.17
483.74	435.34
483.92	507.90
484.10	360.44
484.28	379.17
484.46	402.57
484.64	400.23
484.82	411.93
485.00	411.93
485.18	353.42
485.35	402.57
485.53	433.00
485.71	400.23
485.89	447.04
486.07	451.72
486.25	461.09
486.43	519.60
486.61	447.04
486.78	433.00
486.96	386.19
487.14	362.78
487.32	458.74
487.50	440.02
487.68	493.85
487.85	414.27
488.03	411.93
488.21	433.00
488.39	444.70
488.57	362.78
488.75	435.34
488.92	472.79
489.10	465.77
489.28	379.17
489.46	456.40
489.64	425.98
489.81	409.59
489.99	425.98
490.17	372.15
490.35	470.45
490.53	416.62
490.70	388.53
490.88	374.49
491.06	409.59
491.24	374.49
491.41	470.45
491.59	440.02
491.77	383.85
491.95	437.68
492.13	386.19
492.30	407.25
492.48	447.04
492.66	348.74
492.84	414.27
493.01	491.51
493.19	428.32
493.37	472.79
493.54	449.38
493.72	486.83
493.90	383.85
494.08	472.79
494.25	416.62
494.43	451.72
494.61	447.04
494.79	379.17
494.96	358.10
495.14	416.62
495.32	418.96
495.49	454.06
495.67	386.19
495.85	355.76
496.02	414.27
496.20	379.17
496.38	421.30
496.55	390.87
496.73	440.02
496.91	407.25
497.09	430.66
497.26	435.34
497.44	449.38
497.62	433.00
497.79	442.36
497.97	397.89
498.14	411.93
498.32	423.64
498.50	381.51
498.67	358.10
498.85	376.83
499.03	409.59
499.20	348.74
499.38	322.99
499.56	383.85
499.73	472.79
499.91	437.68
500.08	379.17
500.26	414.27
500.44	465.77
500.61	454.06
500.79	381.51
500.97	425.98
501.14	388.53
501.32	491.51
501.49	458.74
501.67	433.00
501.84	409.59
502.02	400.23
502.20	444.70
502.37	433.00
502.55	458.74
502.72	292.57
502.90	414.27
503.07	416.62
503.25	411.93
503.43	411.93
503.60	449.38
503.78	400.23
503.95	430.66
504.13	388.53
504.30	454.06
504.48	393.21
504.65	442.36
504.83	362.78
505.01	435.34
505.18	390.87
505.36	442.36
505.53	365.12
505.71	379.17
505.88	425.98
506.06	379.17
506.23	451.72
506.41	430.66
506.58	388.53
506.76	440.02
506.93	425.98
507.11	374.49
507.28	458.74
507.46	367.46
507.63	390.87
507.81	479.81
507.98	397.89
508.16	411.93
508.33	421.30
508.50	435.34
508.68	390.87
508.85	425.98
509.03	367.46
509.20	358.10
509.38	402.57
509.55	437.68
509.73	400.23
509.90	468.11
510.08	479.81
510.25	463.43
510.42	416.62
510.60	496.19
510.77	505.56
510.95	365.12
511.12	421.30
511.30	418.96
511.47	421.30
511.64	402.57
511.82	425.98
511.99	383.85
512.17	374.49
512.34	386.19
512.51	414.27
512.69	381.51
512.86	388.53
513.04	400.23
513.21	437.68
513.38	397.89
513.56	407.25
513.73	376.83
513.90	411.93
514.08	418.96
514.25	400.23
514.43	421.30
514.60	376.83
514.77	369.80
514.95	435.34
515.12	475.13
515.29	433.00
515.47	465.77
515.64	444.70
515.81	437.68
515.99	451.72
516.16	437.68
516.33	435.34
516.51	454.06
516.68	437.68
516.85	365.12
517.03	451.72
517.20	470.45
517.37	423.64
517.54	372.15
517.72	477.47
517.89	411.93
518.06	451.72
518.24	404.91
518.41	456.40
518.58	397.89
518.75	383.85
518.93	379.17
519.10	372.15
519.27	311.29
519.45	362.78
519.62	355.76
519.79	454.06
519.96	393.21
520.14	393.21
520.31	486.83
520.48	362.78
520.65	444.70
520.83	486.83
521.00	451.72
521.17	421.30
521.34	447.04
521.52	381.51
521.69	372.15
521.86	430.66
522.03	402.57
522.20	449.38
522.38	383.85
522.55	425.98
522.72	435.34
522.89	411.93
523.07	456.40
523.24	444.70
523.41	447.04
523.58	435.34
523.75	386.19
523.92	416.62
524.10	454.06
524.27	416.62
524.44	447.04
524.61	451.72
524.78	393.21
524.96	414.27
525.13	374.49
525.30	449.38
525.47	454.06
525.64	407.25
525.81	400.23
525.98	428.32
526.16	351.08
526.33	428.32
526.50	430.66
526.67	475.13
526.84	437.68
527.01	423.64
527.18	397.89
527.36	390.87
527.53	397.89
527.70	482.15
527.87	435.34
528.04	482.15
528.21	414.27
528.38	428.32
528.55	440.02
528.72	456.40
528.89	435.34
529.07	477.47
529.24	409.59
529.41	418.96
529.58	367.46
529.75	423.64
529.92	449.38
530.09	360.44
530.26	489.17
530.43	376.83
530.60	475.13
530.77	411.93
530.94	407.25
531.11	435.34
531.28	379.17
531.46	400.23
531.63	407.25
531.80	440.02
531.97	470.45
532.14	402.57
532.31	435.34
532.48	458.74
532.65	397.89
532.82	362.78
532.99	397.89
533.16	383.85
533.33	435.34
533.50	353.42
533.67	479.81
533.84	428.32
534.01	376.83
534.18	374.49
534.35	334.70
534.52	402.57
534.69	400.23
534.86	402.57
535.03	397.89
535.20	440.02
535.37	449.38
535.54	369.80
535.71	451.72
535.88	440.02
536.05	449.38
536.22	397.89
536.38	437.68
536.55	315.97
536.72	437.68
536.89	388.53
537.06	416.62
537.23	402.57
537.40	351.08
537.57	421.30
537.74	484.49
537.91	386.19
538.08	409.59
538.25	367.46
538.42	395.55
538.59	414.27
538.75	409.59
538.92	402.57
539.09	461.09
539.26	479.81
539.43	414.27
539.60	430.66
539.77	447.04
539.94	472.79
540.11	372.15
540.28	435.34
540.44	440.02
540.61	435.34
540.78	461.09
540.95	414.27
541.12	493.85
541.29	395.55
541.46	435.34
541.62	437.68
541.79	500.87
541.96	402.57
542.13	423.64
542.30	369.80
542.47	475.13
542.63	430.66
542.80	379.17
542.97	411.93
543.14	493.85
543.31	395.55
543.48	421.30
543.64	428.32
543.81	402.57
543.98	444.70
544.15	428.32
544.32	397.89
544.48	437.68
544.65	428.32
544.82	440.02
544.99	442.36
545.16	418.96
545.32	428.32
545.49	402.57
545.66	463.43
545.83	409.59
546.00	393.21
546.16	414.27
546.33	416.62
546.50	393.21
546.67	470.45
546.83	421.30
547.00	463.43
547.17	397.89
547.34	404.91
547.50	458.74
547.67	416.62
547.84	479.81
548.00	447.04
548.17	416.62
548.34	381.51
548.51	409.59
548.67	428.32
548.84	425.98
549.01	374.49
549.18	400.23
549.34	514.92
549.51	461.09
549.68	440.02
549.84	348.74
550.01	381.51
550.18	404.91
550.34	477.47
550.51	451.72
550.68	449.38
550.84	407.25
551.01	365.12
551.18	475.13
551.34	435.34
551.51	477.47
551.68	416.62
551.84	397.89
552.01	325.33
552.18	435.34
552.34	404.91
552.51	376.83
552.68	411.93
552.84	447.04
553.01	461.09
553.18	444.70
553.34	397.89
553.51	447.04
553.67	397.89
553.84	421.30
554.01	435.34
554.17	404.91
554.34	327.68
554.51	454.06
554.67	430.66
554.84	383.85
555.00	397.89
555.17	379.17
555.33	374.49
555.50	461.09
555.67	407.25
555.83	433.00
556.00	395.55
556.16	552.37
556.33	447.04
556.50	402.57
556.66	430.66
556.83	400.23
556.99	433.00
557.16	386.19
557.32	397.89
557.49	386.19
557.65	404.91
557.82	461.09
557.98	376.83
558.15	418.96
558.32	409.59
558.48	437.68
558.65	423.64
558.81	407.25
558.98	395.55
559.14	402.57
559.31	416.62
559.47	454.06
559.64	442.36
559.80	402.57
559.97	428.32
560.13	433.00
560.30	411.93
560.46	395.55
560.63	461.09
560.79	418.96
560.96	409.59
561.12	430.66
561.29	423.64
561.45	369.80
561.61	360.44
561.78	404.91
561.94	411.93
562.11	447.04
562.27	468.11
562.44	421.30
562.60	425.98
562.77	416.62
562.93	461.09
563.10	423.64
563.26	440.02
563.42	437.68
563.59	383.85
563.75	440.02
563.92	475.13
564.08	409.59
564.24	379.17
564.41	498.53
564.57	411.93
564.74	315.97
564.90	416.62
565.07	454.06
565.23	482.15
565.39	491.51
565.56	407.25
565.72	358.10
565.88	442.36
566.05	367.46
566.21	353.42
566.38	461.09
566.54	456.40
566.70	442.36
566.87	461.09
567.03	358.10
567.19	437.68
567.36	463.43
567.52	381.51
567.68	447.04
567.85	447.04
568.01	433.00
568.17	402.57
568.34	463.43
568.50	447.04
568.66	402.57
568.83	472.79
568.99	458.74
569.15	468.11
569.32	416.62
569.48	367.46
569.64	444.70
569.81	379.17
569.97	400.23
570.13	449.38
570.30	428.32
570.46	404.91
570.62	360.44
570.78	437.68
570.95	416.62
571.11	468.11
571.27	435.34
571.43	451.72
571.60	456.40
571.76	411.93
571.92	454.06
572.09	400.23
572.25	383.85
572.41	458.74
572.57	444.70
572.74	477.47
572.90	447.04
573.06	521.94
573.22	447.04
573.38	449.38
573.55	400.23
573.71	416.62
573.87	400.23
574.03	418.96
574.20	418.96
574.36	386.19
574.52	365.12
574.68	381.51
574.84	369.80
575.01	421.30
575.17	503.22
575.33	437.68
575.49	395.55
575.65	468.11
575.82	463.43
575.98	503.22
576.14	421.30
576.30	482.15
576.46	458.74
576.62	404.91
576.79	447.04
576.95	475.13
577.11	463.43
577.27	390.87
577.43	430.66
577.59	400.23
577.75	404.91
577.92	456.40
578.08	451.72
578.24	486.83
578.40	402.57
578.56	444.70
578.72	440.02
578.88	435.34
579.04	393.21
579.21	409.59
579.37	447.04
579.53	409.59
579.69	355.76
579.85	454.06
580.01	444.70
580.17	475.13
580.33	425.98
580.49	393.21
580.65	425.98
580.82	475.13
580.98	454.06
581.14	358.10
581.30	383.85
581.46	409.59
581.62	454.06
581.78	440.02
581.94	449.38
582.10	416.62
582.26	407.25
582.42	447.04
582.58	393.21
582.74	418.96
582.90	444.70
583.06	470.45
583.22	416.62
583.38	425.98
583.54	421.30
583.70	393.21
583.86	369.80
584.02	411.93
584.18	496.19
584.34	451.72
584.50	458.74
584.66	458.74
584.82	470.45
584.98	400.23
585.14	409.59
585.30	411.93
585.46	463.43
585.62	449.38
585.78	374.49
585.94	430.66
586.10	402.57
586.26	407.25
586.42	475.13
586.58	327.68
586.74	444.70
586.90	442.36
587.06	402.57
587.22	447.04
587.38	369.80
587.54	416.62
587.70	428.32
587.86	388.53
588.02	486.83
588.18	468.11
588.34	416.62
588.49	381.51
588.65	409.59
588.81	400.23
588.97	374.49
589.13	486.83
589.29	442.36
589.45	475.13
589.61	390.87
589.77	505.56
589.93	379.17
590.08	416.62
590.24	421.30
590.40	367.46
590.56	430.66
590.72	381.51
590.88	395.55
591.04	383.85
591.20	510.24
591.35	386.19
591.51	407.25
591.67	423.64
591.83	447.04
591.99	416.62
592.15	430.66
592.31	379.17
592.46	379.17
592.62	386.19
592.78	421.30
592.94	379.17
593.10	383.85
593.26	390.87
593.41	418.96
593.57	470.45
593.73	421.30
593.89	397.89
594.05	365.12
594.20	388.53
594.36	435.34
594.52	423.64
594.68	425.98
594.84	430.66
594.99	493.85
595.15	360.44
595.31	416.62
595.47	395.55
595.62	416.62
595.78	381.51
595.94	449.38
596.10	379.17
596.25	416.62
596.41	430.66
596.57	386.19
596.73	468.11
596.88	430.66
597.04	397.89
597.20	461.09
597.36	440.02
597.51	409.59
597.67	425.98
597.83	383.85
597.99	395.55
598.14	491.51
598.30	402.57
598.46	393.21
598.61	505.56
598.77	409.59
598.93	367.46
599.09	362.78
599.24	409.59
599.40	437.68
599.56	468.11
599.71	407.25
599.87	400.23
600.03	367.46
600.18	402.57
600.34	468.11
600.50	402.57
600.65	365.12
600.81	463.43
600.97	454.06
601.12	367.46
601.28	470.45
601.44	500.87
601.59	447.04
601.75	437.68
601.91	428.32
602.06	430.66
602.22	521.94
602.37	402.57
602.53	388.53
602.69	423.64
602.84	372.15
603.00	442.36
603.16	503.22
603.31	421.30
603.47	430.66
603.62	379.17
603.78	369.80
603.94	435.34
604.09	425.98
604.25	421.30
604.40	447.04
604.56	397.89
604.71	454.06
604.87	437.68
605.03	388.53
605.18	372.15
605.34	463.43
605.49	418.96
605.65	454.06
605.80	397.89
605.96	440.02
606.12	400.23
606.27	395.55
606.43	416.62
606.58	428.32
606.74	447.04
606.89	402.57
607.05	402.57
607.20	409.59
607.36	360.44
607.51	388.53
607.67	409.59
607.82	409.59
607.98	503.22
608.13	449.38
608.29	409.59
608.44	435.34
608.60	393.21
608.75	449.38
608.91	430.66
609.06	437.68
609.22	458.74
609.37	435.34
609.53	418.96
609.68	477.47
609.84	397.89
609.99	447.04
610.15	421.30
