SpectraSuite Data File
++++++++++++++++++++++++++++++++++++
Date: Fri Oct 25 12:10:58 EDT 2013
User: price-jones
Dark Spectrum Present: No
Reference Spectrum Present: No
Number of Sampled Component Spectra: 1
Spectrometers: USB2+H05261
Integration Time (usec): 100000 (USB2+H05261)
Spectra Averaged: 1 (USB2+H05261)
Boxcar Smoothing: 0 (USB2+H05261)
Correct for Electrical Dark: No (USB2+H05261)
Strobe/Lamp Enabled: No (USB2+H05261)
Correct for Detector Non-linearity: No (USB2+H05261)
Correct for Stray Light: No (USB2+H05261)
Number of Pixels in Processed Spectrum: 2048
>>>>>Begin Processed Spectral Data<<<<<
365.73	325.33
365.92	325.33
366.12	325.33
366.32	278.52
366.52	250.44
366.72	264.48
366.91	201.29
367.11	140.43
367.31	257.46
367.51	170.86
367.70	161.50
367.90	241.08
368.10	217.67
368.30	224.69
368.49	203.63
368.69	304.27
368.89	262.14
369.09	259.80
369.28	280.86
369.48	266.82
369.68	290.23
369.87	285.55
370.07	273.84
370.27	283.20
370.47	404.91
370.66	330.02
370.86	362.78
371.06	355.76
371.25	388.53
371.45	360.44
371.65	400.23
371.84	367.46
372.04	308.95
372.24	348.74
372.44	411.93
372.63	414.27
372.83	447.04
373.03	472.79
373.22	397.89
373.42	400.23
373.62	433.00
373.81	447.04
374.01	444.70
374.21	414.27
374.40	449.38
374.60	503.22
374.79	409.59
374.99	463.43
375.19	475.13
375.38	393.21
375.58	320.65
375.78	437.68
375.97	486.83
376.17	491.51
376.37	383.85
376.56	390.87
376.76	440.02
376.95	411.93
377.15	444.70
377.35	339.38
377.54	351.08
377.74	444.70
377.93	360.44
378.13	489.17
378.33	442.36
378.52	456.40
378.72	395.55
378.91	409.59
379.11	463.43
379.31	348.74
379.50	376.83
379.70	418.96
379.89	383.85
380.09	365.12
380.28	451.72
380.48	430.66
380.68	400.23
380.87	468.11
381.07	458.74
381.26	397.89
381.46	344.06
381.65	423.64
381.85	444.70
382.04	369.80
382.24	444.70
382.43	397.89
382.63	411.93
382.83	327.68
383.02	374.49
383.22	440.02
383.41	402.57
383.61	421.30
383.80	386.19
384.00	362.78
384.19	451.72
384.39	416.62
384.58	440.02
384.78	433.00
384.97	465.77
385.17	402.57
385.36	425.98
385.56	383.85
385.75	388.53
385.95	344.06
386.14	339.38
386.34	397.89
386.53	414.27
386.72	472.79
386.92	489.17
387.11	414.27
387.31	486.83
387.50	388.53
387.70	404.91
387.89	433.00
388.09	400.23
388.28	395.55
388.48	414.27
388.67	475.13
388.86	395.55
389.06	430.66
389.25	365.12
389.45	367.46
389.64	437.68
389.84	381.51
390.03	362.78
390.22	360.44
390.42	416.62
390.61	348.74
390.81	425.98
391.00	339.38
391.19	433.00
391.39	379.17
391.58	435.34
391.78	393.21
391.97	458.74
392.16	376.83
392.36	449.38
392.55	440.02
392.75	388.53
392.94	435.34
393.13	407.25
393.33	423.64
393.52	386.19
393.71	437.68
393.91	404.91
394.10	440.02
394.29	411.93
394.49	411.93
394.68	372.15
394.88	449.38
395.07	353.42
395.26	376.83
395.46	430.66
395.65	386.19
395.84	423.64
396.04	447.04
396.23	376.83
396.42	374.49
396.62	479.81
396.81	411.93
397.00	365.12
397.19	365.12
397.39	379.17
397.58	463.43
397.77	407.25
397.97	397.89
398.16	355.76
398.35	402.57
398.55	395.55
398.74	402.57
398.93	402.57
399.12	362.78
399.32	393.21
399.51	400.23
399.70	428.32
399.90	402.57
400.09	400.23
400.28	425.98
400.47	383.85
400.67	430.66
400.86	381.51
401.05	447.04
401.24	400.23
401.44	407.25
401.63	393.21
401.82	454.06
402.01	456.40
402.21	376.83
402.40	444.70
402.59	517.26
402.78	358.10
402.97	383.85
403.17	433.00
403.36	423.64
403.55	383.85
403.74	341.72
403.93	365.12
404.13	358.10
404.32	423.64
404.51	418.96
404.70	447.04
404.89	351.08
405.09	449.38
405.28	402.57
405.47	442.36
405.66	411.93
405.85	447.04
406.05	358.10
406.24	372.15
406.43	411.93
406.62	407.25
406.81	440.02
407.00	435.34
407.20	400.23
407.39	458.74
407.58	383.85
407.77	339.38
407.96	437.68
408.15	362.78
408.34	388.53
408.54	351.08
408.73	383.85
408.92	386.19
409.11	411.93
409.30	395.55
409.49	346.40
409.68	425.98
409.87	423.64
410.07	367.46
410.26	463.43
410.45	409.59
410.64	397.89
410.83	376.83
411.02	437.68
411.21	374.49
411.40	313.63
411.59	402.57
411.78	421.30
411.98	379.17
412.17	339.38
412.36	407.25
412.55	454.06
412.74	367.46
412.93	451.72
413.12	332.36
413.31	416.62
413.50	458.74
413.69	435.34
413.88	395.55
414.07	407.25
414.26	388.53
414.45	393.21
414.64	444.70
414.83	442.36
415.02	440.02
415.22	395.55
415.41	404.91
415.60	351.08
415.79	411.93
415.98	486.83
416.17	416.62
416.36	320.65
416.55	388.53
416.74	376.83
416.93	479.81
417.12	416.62
417.31	353.42
417.50	360.44
417.69	428.32
417.88	397.89
418.07	454.06
418.26	430.66
418.45	449.38
418.64	507.90
418.83	456.40
419.02	369.80
419.21	489.17
419.39	393.21
419.58	308.95
419.77	376.83
419.96	395.55
420.15	458.74
420.34	458.74
420.53	409.59
420.72	440.02
420.91	425.98
421.10	407.25
421.29	365.12
421.48	442.36
421.67	411.93
421.86	327.68
422.05	327.68
422.24	472.79
422.43	376.83
422.61	365.12
422.80	449.38
422.99	386.19
423.18	379.17
423.37	365.12
423.56	414.27
423.75	407.25
423.94	498.53
424.13	381.51
424.32	325.33
424.50	437.68
424.69	383.85
424.88	475.13
425.07	416.62
425.26	458.74
425.45	397.89
425.64	355.76
425.83	489.17
426.01	486.83
426.20	332.36
426.39	379.17
426.58	428.32
426.77	400.23
426.96	444.70
427.15	470.45
427.33	369.80
427.52	421.30
427.71	386.19
427.90	449.38
428.09	416.62
428.28	386.19
428.46	402.57
428.65	397.89
428.84	372.15
429.03	411.93
429.22	456.40
429.40	477.47
429.59	423.64
429.78	418.96
429.97	397.89
430.16	383.85
430.34	407.25
430.53	407.25
430.72	477.47
430.91	374.49
431.10	379.17
431.28	421.30
431.47	407.25
431.66	458.74
431.85	437.68
432.03	407.25
432.22	454.06
432.41	463.43
432.60	393.21
432.79	479.81
432.97	416.62
433.16	404.91
433.35	470.45
433.54	468.11
433.72	360.44
433.91	433.00
434.10	414.27
434.28	369.80
434.47	397.89
434.66	353.42
434.85	421.30
435.03	437.68
435.22	437.68
435.41	461.09
435.59	407.25
435.78	463.43
435.97	404.91
436.16	461.09
436.34	442.36
436.53	430.66
436.72	500.87
436.90	486.83
437.09	421.30
437.28	425.98
437.46	435.34
437.65	458.74
437.84	435.34
438.02	493.85
438.21	428.32
438.40	390.87
438.58	362.78
438.77	437.68
438.96	477.47
439.14	388.53
439.33	418.96
439.52	386.19
439.70	449.38
439.89	416.62
440.08	411.93
440.26	430.66
440.45	433.00
440.63	402.57
440.82	409.59
441.01	496.19
441.19	475.13
441.38	395.55
441.57	423.64
441.75	423.64
441.94	477.47
442.12	358.10
442.31	472.79
442.50	362.78
442.68	393.21
442.87	402.57
443.05	440.02
443.24	442.36
443.43	409.59
443.61	362.78
443.80	388.53
443.98	367.46
444.17	397.89
444.35	461.09
444.54	456.40
444.73	376.83
444.91	404.91
445.10	416.62
445.28	433.00
445.47	484.49
445.65	437.68
445.84	442.36
446.02	444.70
446.21	437.68
446.39	454.06
446.58	414.27
446.77	367.46
446.95	409.59
447.14	491.51
447.32	444.70
447.51	442.36
447.69	428.32
447.88	489.17
448.06	397.89
448.25	444.70
448.43	407.25
448.62	362.78
448.80	353.42
448.99	440.02
449.17	409.59
449.36	444.70
449.54	435.34
449.73	374.49
449.91	402.57
450.10	393.21
450.28	423.64
450.46	402.57
450.65	454.06
450.83	425.98
451.02	397.89
451.20	444.70
451.39	442.36
451.57	430.66
451.76	400.23
451.94	390.87
452.13	442.36
452.31	416.62
452.49	447.04
452.68	416.62
452.86	461.09
453.05	550.03
453.23	423.64
453.42	346.40
453.60	374.49
453.78	388.53
453.97	315.97
454.15	393.21
454.34	395.55
454.52	433.00
454.70	454.06
454.89	461.09
455.07	414.27
455.26	411.93
455.44	447.04
455.62	461.09
455.81	390.87
455.99	472.79
456.17	430.66
456.36	362.78
456.54	402.57
456.73	386.19
456.91	423.64
457.09	421.30
457.28	449.38
457.46	400.23
457.64	435.34
457.83	386.19
458.01	447.04
458.19	430.66
458.38	430.66
458.56	454.06
458.74	332.36
458.93	402.57
459.11	465.77
459.29	461.09
459.48	388.53
459.66	381.51
459.84	437.68
460.03	414.27
460.21	440.02
460.39	409.59
460.57	423.64
460.76	395.55
460.94	409.59
461.12	353.42
461.31	388.53
461.49	404.91
461.67	386.19
461.85	358.10
462.04	416.62
462.22	786.42
462.40	470.45
462.59	423.64
462.77	400.23
462.95	418.96
463.13	414.27
463.32	390.87
463.50	388.53
463.68	430.66
463.86	351.08
464.05	374.49
464.23	486.83
464.41	423.64
464.59	411.93
464.78	447.04
464.96	395.55
465.14	407.25
465.32	400.23
465.50	437.68
465.69	433.00
465.87	397.89
466.05	472.79
466.23	304.27
466.41	383.85
466.60	461.09
466.78	409.59
466.96	470.45
467.14	407.25
467.32	425.98
467.51	358.10
467.69	444.70
467.87	442.36
468.05	409.59
468.23	437.68
468.41	470.45
468.60	489.17
468.78	390.87
468.96	479.81
469.14	411.93
469.32	440.02
469.50	344.06
469.69	425.98
469.87	528.96
470.05	372.15
470.23	416.62
470.41	390.87
470.59	383.85
470.77	402.57
470.95	376.83
471.14	404.91
471.32	393.21
471.50	465.77
471.68	442.36
471.86	440.02
472.04	374.49
472.22	435.34
472.40	449.38
472.58	397.89
472.77	348.74
472.95	449.38
473.13	369.80
473.31	461.09
473.49	365.12
473.67	458.74
473.85	369.80
474.03	447.04
474.21	379.17
474.39	407.25
474.57	463.43
474.75	395.55
474.93	320.65
475.12	379.17
475.30	304.27
475.48	402.57
475.66	402.57
475.84	411.93
476.02	341.72
476.20	430.66
476.38	451.72
476.56	472.79
476.74	397.89
476.92	428.32
477.10	400.23
477.28	447.04
477.46	367.46
477.64	468.11
477.82	435.34
478.00	475.13
478.18	418.96
478.36	404.91
478.54	435.34
478.72	423.64
478.90	379.17
479.08	411.93
479.26	444.70
479.44	372.15
479.62	407.25
479.80	381.51
479.98	386.19
480.16	449.38
480.34	512.58
480.52	407.25
480.70	475.13
480.88	409.59
481.06	390.87
481.24	409.59
481.41	442.36
481.59	393.21
481.77	458.74
481.95	418.96
482.13	437.68
482.31	367.46
482.49	418.96
482.67	435.34
482.85	430.66
483.03	386.19
483.21	379.17
483.39	346.40
483.57	372.15
483.74	402.57
483.92	379.17
484.10	360.44
484.28	454.06
484.46	383.85
484.64	458.74
484.82	456.40
485.00	386.19
485.18	510.24
485.35	442.36
485.53	346.40
485.71	458.74
485.89	344.06
486.07	374.49
486.25	435.34
486.43	428.32
486.61	393.21
486.78	465.77
486.96	433.00
487.14	437.68
487.32	458.74
487.50	430.66
487.68	402.57
487.85	376.83
488.03	404.91
488.21	416.62
488.39	409.59
488.57	421.30
488.75	407.25
488.92	533.64
489.10	437.68
489.28	458.74
489.46	409.59
489.64	397.89
489.81	322.99
489.99	444.70
490.17	444.70
490.35	533.64
490.53	447.04
490.70	477.47
490.88	393.21
491.06	362.78
491.24	444.70
491.41	458.74
491.59	369.80
491.77	367.46
491.95	320.65
492.13	411.93
492.30	414.27
492.48	346.40
492.66	395.55
492.84	386.19
493.01	421.30
493.19	315.97
493.37	440.02
493.54	423.64
493.72	416.62
493.90	407.25
494.08	418.96
494.25	390.87
494.43	416.62
494.61	418.96
494.79	402.57
494.96	461.09
495.14	456.40
495.32	433.00
495.49	454.06
495.67	407.25
495.85	386.19
496.02	337.04
496.20	374.49
496.38	418.96
496.55	458.74
496.73	402.57
496.91	402.57
497.09	404.91
497.26	407.25
497.44	456.40
497.62	372.15
497.79	351.08
497.97	409.59
498.14	397.89
498.32	393.21
498.50	379.17
498.67	425.98
498.85	472.79
499.03	421.30
499.20	407.25
499.38	365.12
499.56	433.00
499.73	395.55
499.91	369.80
500.08	381.51
500.26	360.44
500.44	383.85
500.61	404.91
500.79	360.44
500.97	404.91
501.14	444.70
501.32	379.17
501.49	444.70
501.67	386.19
501.84	430.66
502.02	416.62
502.20	402.57
502.37	454.06
502.55	367.46
502.72	393.21
502.90	416.62
503.07	376.83
503.25	397.89
503.43	496.19
503.60	468.11
503.78	437.68
503.95	362.78
504.13	421.30
504.30	369.80
504.48	444.70
504.65	449.38
504.83	458.74
505.01	428.32
505.18	421.30
505.36	428.32
505.53	383.85
505.71	386.19
505.88	386.19
506.06	421.30
506.23	367.46
506.41	486.83
506.58	362.78
506.76	435.34
506.93	402.57
507.11	404.91
507.28	428.32
507.46	397.89
507.63	411.93
507.81	425.98
507.98	493.85
508.16	407.25
508.33	442.36
508.50	407.25
508.68	358.10
508.85	442.36
509.03	407.25
509.20	393.21
509.38	404.91
509.55	505.56
509.73	442.36
509.90	489.17
510.08	404.91
510.25	418.96
510.42	369.80
510.60	402.57
510.77	423.64
510.95	353.42
511.12	351.08
511.30	390.87
511.47	344.06
511.64	421.30
511.82	428.32
511.99	440.02
512.17	360.44
512.34	423.64
512.51	461.09
512.69	440.02
512.86	402.57
513.04	505.56
513.21	386.19
513.38	395.55
513.56	437.68
513.73	409.59
513.90	461.09
514.08	421.30
514.25	430.66
514.43	425.98
514.60	451.72
514.77	404.91
514.95	360.44
515.12	428.32
515.29	411.93
515.47	470.45
515.64	386.19
515.81	418.96
515.99	461.09
516.16	365.12
516.33	433.00
516.51	402.57
516.68	411.93
516.85	409.59
517.03	447.04
517.20	428.32
517.37	440.02
517.54	383.85
517.72	407.25
517.89	414.27
518.06	369.80
518.24	404.91
518.41	369.80
518.58	402.57
518.75	407.25
518.93	351.08
519.10	444.70
519.27	374.49
519.45	409.59
519.62	447.04
519.79	393.21
519.96	381.51
520.14	386.19
520.31	454.06
520.48	470.45
520.65	430.66
520.83	374.49
521.00	402.57
521.17	418.96
521.34	402.57
521.52	414.27
521.69	414.27
521.86	425.98
522.03	435.34
522.20	423.64
522.38	330.02
522.55	507.90
522.72	442.36
522.89	330.02
523.07	472.79
523.24	458.74
523.41	381.51
523.58	449.38
523.75	414.27
523.92	386.19
524.10	440.02
524.27	362.78
524.44	423.64
524.61	414.27
524.78	411.93
524.96	458.74
525.13	402.57
525.30	470.45
525.47	440.02
525.64	414.27
525.81	449.38
525.98	414.27
526.16	407.25
526.33	374.49
526.50	386.19
526.67	428.32
526.84	416.62
527.01	418.96
527.18	447.04
527.36	425.98
527.53	409.59
527.70	444.70
527.87	353.42
528.04	407.25
528.21	341.72
528.38	510.24
528.55	411.93
528.72	411.93
528.89	428.32
529.07	334.70
529.24	454.06
529.41	428.32
529.58	421.30
529.75	411.93
529.92	423.64
530.09	395.55
530.26	414.27
530.43	428.32
530.60	451.72
530.77	428.32
530.94	386.19
531.11	351.08
531.28	421.30
531.46	428.32
531.63	409.59
531.80	463.43
531.97	393.21
532.14	393.21
532.31	404.91
532.48	447.04
532.65	376.83
532.82	402.57
532.99	393.21
533.16	433.00
533.33	409.59
533.50	400.23
533.67	428.32
533.84	423.64
534.01	395.55
534.18	468.11
534.35	395.55
534.52	402.57
534.69	402.57
534.86	512.58
535.03	365.12
535.20	414.27
535.37	383.85
535.54	395.55
535.71	433.00
535.88	421.30
536.05	423.64
536.22	482.15
536.38	503.22
536.55	451.72
536.72	470.45
536.89	475.13
537.06	381.51
537.23	486.83
537.40	458.74
537.57	428.32
537.74	449.38
537.91	402.57
538.08	376.83
538.25	442.36
538.42	388.53
538.59	423.64
538.75	411.93
538.92	433.00
539.09	414.27
539.26	440.02
539.43	390.87
539.60	472.79
539.77	428.32
539.94	433.00
540.11	428.32
540.28	461.09
540.44	418.96
540.61	425.98
540.78	337.04
540.95	428.32
541.12	430.66
541.29	428.32
541.46	395.55
541.62	411.93
541.79	461.09
541.96	435.34
542.13	437.68
542.30	435.34
542.47	486.83
542.63	442.36
542.80	486.83
542.97	428.32
543.14	444.70
543.31	407.25
543.48	379.17
543.64	428.32
543.81	341.72
543.98	341.72
544.15	444.70
544.32	402.57
544.48	386.19
544.65	458.74
544.82	402.57
544.99	423.64
545.16	430.66
545.32	470.45
545.49	423.64
545.66	390.87
545.83	409.59
546.00	402.57
546.16	411.93
546.33	383.85
546.50	428.32
546.67	461.09
546.83	444.70
547.00	437.68
547.17	327.68
547.34	334.70
547.50	383.85
547.67	451.72
547.84	411.93
548.00	435.34
548.17	294.91
548.34	402.57
548.51	374.49
548.67	440.02
548.84	421.30
549.01	409.59
549.18	379.17
549.34	425.98
549.51	353.42
549.68	397.89
549.84	362.78
550.01	461.09
550.18	376.83
550.34	470.45
550.51	393.21
550.68	423.64
550.84	362.78
551.01	507.90
551.18	442.36
551.34	421.30
551.51	404.91
551.68	397.89
551.84	409.59
552.01	362.78
552.18	395.55
552.34	407.25
552.51	454.06
552.68	425.98
552.84	449.38
553.01	411.93
553.18	479.81
553.34	421.30
553.51	470.45
553.67	416.62
553.84	433.00
554.01	517.26
554.17	383.85
554.34	395.55
554.51	458.74
554.67	411.93
554.84	423.64
555.00	416.62
555.17	440.02
555.33	521.94
555.50	381.51
555.67	442.36
555.83	372.15
556.00	468.11
556.16	514.92
556.33	449.38
556.50	311.29
556.66	379.17
556.83	428.32
556.99	421.30
557.16	463.43
557.32	315.97
557.49	397.89
557.65	444.70
557.82	463.43
557.98	407.25
558.15	402.57
558.32	451.72
558.48	430.66
558.65	376.83
558.81	449.38
558.98	458.74
559.14	458.74
559.31	411.93
559.47	421.30
559.64	348.74
559.80	418.96
559.97	386.19
560.13	458.74
560.30	390.87
560.46	451.72
560.63	374.49
560.79	411.93
560.96	475.13
561.12	435.34
561.29	421.30
561.45	428.32
561.61	433.00
561.78	482.15
561.94	360.44
562.11	428.32
562.27	433.00
562.44	330.02
562.60	407.25
562.77	437.68
562.93	517.26
563.10	395.55
563.26	393.21
563.42	505.56
563.59	435.34
563.75	367.46
563.92	444.70
564.08	440.02
564.24	451.72
564.41	498.53
564.57	433.00
564.74	435.34
564.90	418.96
565.07	440.02
565.23	416.62
565.39	409.59
565.56	430.66
565.72	416.62
565.88	355.76
566.05	430.66
566.21	444.70
566.38	468.11
566.54	414.27
566.70	418.96
566.87	358.10
567.03	388.53
567.19	421.30
567.36	400.23
567.52	440.02
567.68	383.85
567.85	437.68
568.01	376.83
568.17	341.72
568.34	407.25
568.50	505.56
568.66	454.06
568.83	468.11
568.99	411.93
569.15	397.89
569.32	430.66
569.48	407.25
569.64	409.59
569.81	393.21
569.97	404.91
570.13	376.83
570.30	407.25
570.46	383.85
570.62	390.87
570.78	421.30
570.95	367.46
571.11	454.06
571.27	472.79
571.43	390.87
571.60	367.46
571.76	435.34
571.92	437.68
572.09	433.00
572.25	386.19
572.41	358.10
572.57	421.30
572.74	442.36
572.90	475.13
573.06	416.62
573.22	393.21
573.38	414.27
573.55	348.74
573.71	383.85
573.87	407.25
574.03	416.62
574.20	442.36
574.36	437.68
574.52	479.81
574.68	367.46
574.84	437.68
575.01	416.62
575.17	404.91
575.33	404.91
575.49	379.17
575.65	447.04
575.82	430.66
575.98	381.51
576.14	388.53
576.30	475.13
576.46	393.21
576.62	428.32
576.79	362.78
576.95	418.96
577.11	447.04
577.27	322.99
577.43	472.79
577.59	477.47
577.75	400.23
577.92	376.83
578.08	372.15
578.24	379.17
578.40	482.15
578.56	475.13
578.72	407.25
578.88	437.68
579.04	416.62
579.21	428.32
579.37	437.68
579.53	463.43
579.69	433.00
579.85	440.02
580.01	444.70
580.17	418.96
580.33	388.53
580.49	435.34
580.65	479.81
580.82	428.32
580.98	395.55
581.14	358.10
581.30	418.96
581.46	395.55
581.62	397.89
581.78	400.23
581.94	484.49
582.10	416.62
582.26	475.13
582.42	397.89
582.58	383.85
582.74	416.62
582.90	381.51
583.06	395.55
583.22	360.44
583.38	404.91
583.54	383.85
583.70	411.93
583.86	402.57
584.02	423.64
584.18	404.91
584.34	421.30
584.50	395.55
584.66	423.64
584.82	456.40
584.98	407.25
585.14	423.64
585.30	454.06
585.46	465.77
585.62	379.17
585.78	496.19
585.94	404.91
586.10	390.87
586.26	376.83
586.42	437.68
586.58	418.96
586.74	519.60
586.90	372.15
587.06	435.34
587.22	493.85
587.38	397.89
587.54	411.93
587.70	451.72
587.86	472.79
588.02	423.64
588.18	383.85
588.34	472.79
588.49	433.00
588.65	472.79
588.81	409.59
588.97	374.49
589.13	355.76
589.29	435.34
589.45	433.00
589.61	397.89
589.77	369.80
589.93	400.23
590.08	397.89
590.24	484.49
590.40	463.43
590.56	400.23
590.72	341.72
590.88	491.51
591.04	458.74
591.20	386.19
591.35	430.66
591.51	444.70
591.67	449.38
591.83	458.74
591.99	430.66
592.15	484.49
592.31	397.89
592.46	411.93
592.62	454.06
592.78	433.00
592.94	421.30
593.10	421.30
593.26	353.42
593.41	442.36
593.57	397.89
593.73	421.30
593.89	409.59
594.05	395.55
594.20	313.63
594.36	465.77
594.52	383.85
594.68	379.17
594.84	418.96
594.99	386.19
595.15	402.57
595.31	411.93
595.47	458.74
595.62	397.89
595.78	433.00
595.94	465.77
596.10	411.93
596.25	444.70
596.41	407.25
596.57	383.85
596.73	376.83
596.88	397.89
597.04	400.23
597.20	393.21
597.36	418.96
597.51	451.72
597.67	351.08
597.83	330.02
597.99	454.06
598.14	390.87
598.30	442.36
598.46	430.66
598.61	470.45
598.77	383.85
598.93	351.08
599.09	430.66
599.24	409.59
599.40	442.36
599.56	458.74
599.71	407.25
599.87	383.85
600.03	409.59
600.18	451.72
600.34	430.66
600.50	414.27
600.65	461.09
600.81	465.77
600.97	414.27
601.12	397.89
601.28	505.56
601.44	444.70
601.59	397.89
601.75	454.06
601.91	407.25
602.06	425.98
602.22	479.81
602.37	421.30
602.53	390.87
602.69	411.93
602.84	435.34
603.00	430.66
603.16	383.85
603.31	404.91
603.47	421.30
603.62	322.99
603.78	369.80
603.94	482.15
604.09	465.77
604.25	390.87
604.40	456.40
604.56	409.59
604.71	376.83
604.87	379.17
605.03	491.51
605.18	479.81
605.34	423.64
605.49	346.40
605.65	397.89
605.80	428.32
605.96	402.57
606.12	463.43
606.27	470.45
606.43	475.13
606.58	442.36
606.74	344.06
606.89	449.38
607.05	442.36
607.20	423.64
607.36	468.11
607.51	428.32
607.67	428.32
607.82	416.62
607.98	395.55
608.13	423.64
608.29	374.49
608.44	468.11
608.60	421.30
608.75	456.40
608.91	374.49
609.06	482.15
609.22	430.66
609.37	416.62
609.53	402.57
609.68	409.59
609.84	346.40
609.99	421.30
610.15	411.93
