SpectraSuite Data File
++++++++++++++++++++++++++++++++++++
Date: Fri Oct 25 12:11:15 EDT 2013
User: price-jones
Dark Spectrum Present: No
Reference Spectrum Present: No
Number of Sampled Component Spectra: 1
Spectrometers: USB2+H05261
Integration Time (usec): 100000 (USB2+H05261)
Spectra Averaged: 1 (USB2+H05261)
Boxcar Smoothing: 0 (USB2+H05261)
Correct for Electrical Dark: No (USB2+H05261)
Strobe/Lamp Enabled: No (USB2+H05261)
Correct for Detector Non-linearity: No (USB2+H05261)
Correct for Stray Light: No (USB2+H05261)
Number of Pixels in Processed Spectrum: 2048
>>>>>Begin Processed Spectral Data<<<<<
365.73	418.96
365.92	418.96
366.12	418.96
366.32	163.84
366.52	212.99
366.72	294.91
366.91	245.76
367.11	220.01
367.31	201.29
367.51	210.65
367.70	142.77
367.90	273.84
368.10	255.12
368.30	229.37
368.49	278.52
368.69	248.10
368.89	280.86
369.09	276.18
369.28	238.73
369.48	299.59
369.68	266.82
369.87	320.65
370.07	294.91
370.27	337.04
370.47	344.06
370.66	290.23
370.86	355.76
371.06	388.53
371.25	411.93
371.45	318.31
371.65	381.51
371.84	365.12
372.04	383.85
372.24	353.42
372.44	381.51
372.63	444.70
372.83	381.51
373.03	414.27
373.22	425.98
373.42	425.98
373.62	376.83
373.81	348.74
374.01	416.62
374.21	388.53
374.40	458.74
374.60	395.55
374.79	358.10
374.99	423.64
375.19	461.09
375.38	428.32
375.58	433.00
375.78	421.30
375.97	416.62
376.17	402.57
376.37	470.45
376.56	435.34
376.76	351.08
376.95	428.32
377.15	390.87
377.35	397.89
377.54	325.33
377.74	400.23
377.93	388.53
378.13	386.19
378.33	379.17
378.52	372.15
378.72	397.89
378.91	428.32
379.11	379.17
379.31	397.89
379.50	355.76
379.70	409.59
379.89	402.57
380.09	437.68
380.28	334.70
380.48	369.80
380.68	407.25
380.87	358.10
381.07	386.19
381.26	433.00
381.46	376.83
381.65	423.64
381.85	294.91
382.04	346.40
382.24	404.91
382.43	465.77
382.63	421.30
382.83	437.68
383.02	418.96
383.22	468.11
383.41	397.89
383.61	402.57
383.80	510.24
384.00	425.98
384.19	430.66
384.39	360.44
384.58	346.40
384.78	458.74
384.97	339.38
385.17	346.40
385.36	386.19
385.56	435.34
385.75	386.19
385.95	435.34
386.14	421.30
386.34	376.83
386.53	397.89
386.72	395.55
386.92	435.34
387.11	451.72
387.31	379.17
387.50	409.59
387.70	365.12
387.89	376.83
388.09	367.46
388.28	346.40
388.48	449.38
388.67	465.77
388.86	425.98
389.06	454.06
389.25	376.83
389.45	383.85
389.64	472.79
389.84	416.62
390.03	414.27
390.22	435.34
390.42	409.59
390.61	423.64
390.81	369.80
391.00	395.55
391.19	472.79
391.39	407.25
391.58	411.93
391.78	393.21
391.97	425.98
392.16	383.85
392.36	418.96
392.55	376.83
392.75	376.83
392.94	407.25
393.13	496.19
393.33	388.53
393.52	409.59
393.71	423.64
393.91	423.64
394.10	381.51
394.29	479.81
394.49	425.98
394.68	393.21
394.88	414.27
395.07	337.04
395.26	397.89
395.46	409.59
395.65	433.00
395.84	468.11
396.04	456.40
396.23	458.74
396.42	372.15
396.62	482.15
396.81	437.68
397.00	421.30
397.19	360.44
397.39	411.93
397.58	421.30
397.77	390.87
397.97	397.89
398.16	411.93
398.35	435.34
398.55	411.93
398.74	440.02
398.93	402.57
399.12	358.10
399.32	404.91
399.51	358.10
399.70	430.66
399.90	369.80
400.09	330.02
400.28	360.44
400.47	428.32
400.67	425.98
400.86	454.06
401.05	414.27
401.24	397.89
401.44	376.83
401.63	449.38
401.82	393.21
402.01	447.04
402.21	451.72
402.40	383.85
402.59	400.23
402.78	383.85
402.97	390.87
403.17	362.78
403.36	388.53
403.55	411.93
403.74	390.87
403.93	397.89
404.13	372.15
404.32	381.51
404.51	374.49
404.70	418.96
404.89	332.36
405.09	468.11
405.28	433.00
405.47	367.46
405.66	390.87
405.85	421.30
406.05	454.06
406.24	388.53
406.43	409.59
406.62	404.91
406.81	477.47
407.00	449.38
407.20	407.25
407.39	332.36
407.58	421.30
407.77	456.40
407.96	430.66
408.15	468.11
408.34	468.11
408.54	442.36
408.73	367.46
408.92	468.11
409.11	390.87
409.30	514.92
409.49	423.64
409.68	454.06
409.87	486.83
410.07	510.24
410.26	421.30
410.45	463.43
410.64	379.17
410.83	461.09
411.02	447.04
411.21	414.27
411.40	404.91
411.59	458.74
411.78	454.06
411.98	390.87
412.17	393.21
412.36	423.64
412.55	475.13
412.74	454.06
412.93	397.89
413.12	381.51
413.31	414.27
413.50	407.25
413.69	428.32
413.88	454.06
414.07	416.62
414.26	358.10
414.45	367.46
414.64	374.49
414.83	430.66
415.02	400.23
415.22	437.68
415.41	381.51
415.60	360.44
415.79	386.19
415.98	461.09
416.17	407.25
416.36	372.15
416.55	381.51
416.74	430.66
416.93	362.78
417.12	397.89
417.31	369.80
417.50	332.36
417.69	451.72
417.88	390.87
418.07	442.36
418.26	395.55
418.45	407.25
418.64	477.47
418.83	440.02
419.02	397.89
419.21	313.63
419.39	313.63
419.58	393.21
419.77	397.89
419.96	400.23
420.15	332.36
420.34	421.30
420.53	430.66
420.72	451.72
420.91	372.15
421.10	433.00
421.29	407.25
421.48	491.51
421.67	447.04
421.86	395.55
422.05	498.53
422.24	442.36
422.43	397.89
422.61	383.85
422.80	400.23
422.99	388.53
423.18	430.66
423.37	414.27
423.56	479.81
423.75	442.36
423.94	313.63
424.13	334.70
424.32	346.40
424.50	414.27
424.69	433.00
424.88	414.27
425.07	374.49
425.26	449.38
425.45	421.30
425.64	367.46
425.83	433.00
426.01	430.66
426.20	407.25
426.39	395.55
426.58	472.79
426.77	409.59
426.96	435.34
427.15	475.13
427.33	430.66
427.52	458.74
427.71	468.11
427.90	421.30
428.09	411.93
428.28	353.42
428.46	404.91
428.65	477.47
428.84	447.04
429.03	442.36
429.22	360.44
429.40	390.87
429.59	397.89
429.78	425.98
429.97	482.15
430.16	362.78
430.34	503.22
430.53	444.70
430.72	393.21
430.91	421.30
431.10	318.31
431.28	449.38
431.47	416.62
431.66	386.19
431.85	402.57
432.03	423.64
432.22	519.60
432.41	437.68
432.60	425.98
432.79	414.27
432.97	390.87
433.16	407.25
433.35	409.59
433.54	381.51
433.72	411.93
433.91	447.04
434.10	407.25
434.28	461.09
434.47	407.25
434.66	379.17
434.85	407.25
435.03	449.38
435.22	475.13
435.41	388.53
435.59	411.93
435.78	454.06
435.97	421.30
436.16	465.77
436.34	447.04
436.53	414.27
436.72	472.79
436.90	374.49
437.09	409.59
437.28	444.70
437.46	383.85
437.65	407.25
437.84	421.30
438.02	428.32
438.21	397.89
438.40	428.32
438.58	372.15
438.77	444.70
438.96	365.12
439.14	430.66
439.33	447.04
439.52	402.57
439.70	423.64
439.89	416.62
440.08	379.17
440.26	348.74
440.45	365.12
440.63	411.93
440.82	407.25
441.01	430.66
441.19	451.72
441.38	367.46
441.57	362.78
441.75	430.66
441.94	414.27
442.12	465.77
442.31	444.70
442.50	386.19
442.68	454.06
442.87	421.30
443.05	447.04
443.24	416.62
443.43	451.72
443.61	449.38
443.80	374.49
443.98	411.93
444.17	425.98
444.35	428.32
444.54	388.53
444.73	402.57
444.91	458.74
445.10	414.27
445.28	351.08
445.47	430.66
445.65	407.25
445.84	409.59
446.02	440.02
446.21	404.91
446.39	447.04
446.58	437.68
446.77	440.02
446.95	454.06
447.14	407.25
447.32	440.02
447.51	411.93
447.69	449.38
447.88	365.12
448.06	379.17
448.25	425.98
448.43	395.55
448.62	383.85
448.80	470.45
448.99	456.40
449.17	400.23
449.36	395.55
449.54	360.44
449.73	435.34
449.91	376.83
450.10	503.22
450.28	442.36
450.46	505.56
450.65	400.23
450.83	407.25
451.02	430.66
451.20	409.59
451.39	390.87
451.57	442.36
451.76	456.40
451.94	440.02
452.13	461.09
452.31	465.77
452.49	425.98
452.68	362.78
452.86	433.00
453.05	435.34
453.23	386.19
453.42	451.72
453.60	355.76
453.78	407.25
453.97	402.57
454.15	388.53
454.34	402.57
454.52	381.51
454.70	409.59
454.89	461.09
455.07	468.11
455.26	358.10
455.44	416.62
455.62	362.78
455.81	425.98
455.99	437.68
456.17	472.79
456.36	372.15
456.54	435.34
456.73	358.10
456.91	372.15
457.09	397.89
457.28	428.32
457.46	400.23
457.64	369.80
457.83	407.25
458.01	475.13
458.19	433.00
458.38	407.25
458.56	367.46
458.74	402.57
458.93	418.96
459.11	449.38
459.29	383.85
459.48	461.09
459.66	416.62
459.84	451.72
460.03	465.77
460.21	468.11
460.39	411.93
460.57	400.23
460.76	418.96
460.94	388.53
461.12	376.83
461.31	430.66
461.49	397.89
461.67	407.25
461.85	521.94
462.04	379.17
462.22	779.40
462.40	418.96
462.59	442.36
462.77	393.21
462.95	447.04
463.13	437.68
463.32	524.28
463.50	423.64
463.68	402.57
463.86	358.10
464.05	458.74
464.23	477.47
464.41	376.83
464.59	379.17
464.78	421.30
464.96	397.89
465.14	407.25
465.32	400.23
465.50	435.34
465.69	428.32
465.87	390.87
466.05	386.19
466.23	376.83
466.41	444.70
466.60	451.72
466.78	456.40
466.96	489.17
467.14	463.43
467.32	402.57
467.51	482.15
467.69	327.68
467.87	484.49
468.05	393.21
468.23	456.40
468.41	475.13
468.60	348.74
468.78	409.59
468.96	379.17
469.14	421.30
469.32	416.62
469.50	458.74
469.69	390.87
469.87	409.59
470.05	390.87
470.23	421.30
470.41	381.51
470.59	332.36
470.77	430.66
470.95	404.91
471.14	428.32
471.32	444.70
471.50	411.93
471.68	421.30
471.86	465.77
472.04	423.64
472.22	411.93
472.40	451.72
472.58	407.25
472.77	507.90
472.95	447.04
473.13	437.68
473.31	430.66
473.49	416.62
473.67	425.98
473.85	393.21
474.03	388.53
474.21	468.11
474.39	486.83
474.57	365.12
474.75	393.21
474.93	397.89
475.12	388.53
475.30	433.00
475.48	395.55
475.66	447.04
475.84	414.27
476.02	351.08
476.20	386.19
476.38	383.85
476.56	442.36
476.74	360.44
476.92	470.45
477.10	416.62
477.28	386.19
477.46	379.17
477.64	411.93
477.82	472.79
478.00	430.66
478.18	393.21
478.36	402.57
478.54	456.40
478.72	411.93
478.90	395.55
479.08	428.32
479.26	430.66
479.44	449.38
479.62	355.76
479.80	442.36
479.98	454.06
480.16	465.77
480.34	442.36
480.52	440.02
480.70	428.32
480.88	381.51
481.06	355.76
481.24	393.21
481.41	475.13
481.59	397.89
481.77	404.91
481.95	365.12
482.13	416.62
482.31	430.66
482.49	425.98
482.67	451.72
482.85	475.13
483.03	386.19
483.21	360.44
483.39	388.53
483.57	411.93
483.74	425.98
483.92	433.00
484.10	411.93
484.28	475.13
484.46	440.02
484.64	397.89
484.82	388.53
485.00	397.89
485.18	379.17
485.35	383.85
485.53	416.62
485.71	379.17
485.89	430.66
486.07	407.25
486.25	456.40
486.43	353.42
486.61	386.19
486.78	461.09
486.96	395.55
487.14	339.38
487.32	362.78
487.50	332.36
487.68	402.57
487.85	456.40
488.03	381.51
488.21	388.53
488.39	393.21
488.57	423.64
488.75	404.91
488.92	470.45
489.10	367.46
489.28	477.47
489.46	334.70
489.64	386.19
489.81	416.62
489.99	425.98
490.17	358.10
490.35	491.51
490.53	416.62
490.70	374.49
490.88	418.96
491.06	435.34
491.24	404.91
491.41	404.91
491.59	404.91
491.77	348.74
491.95	411.93
492.13	346.40
492.30	430.66
492.48	351.08
492.66	362.78
492.84	500.87
493.01	421.30
493.19	397.89
493.37	496.19
493.54	475.13
493.72	416.62
493.90	386.19
494.08	383.85
494.25	437.68
494.43	435.34
494.61	470.45
494.79	430.66
494.96	344.06
495.14	355.76
495.32	416.62
495.49	463.43
495.67	435.34
495.85	416.62
496.02	397.89
496.20	416.62
496.38	372.15
496.55	400.23
496.73	449.38
496.91	400.23
497.09	416.62
497.26	407.25
497.44	341.72
497.62	395.55
497.79	433.00
497.97	449.38
498.14	514.92
498.32	437.68
498.50	449.38
498.67	463.43
498.85	383.85
499.03	425.98
499.20	362.78
499.38	463.43
499.56	355.76
499.73	486.83
499.91	397.89
500.08	465.77
500.26	425.98
500.44	407.25
500.61	407.25
500.79	402.57
500.97	383.85
501.14	465.77
501.32	400.23
501.49	383.85
501.67	397.89
501.84	411.93
502.02	393.21
502.20	430.66
502.37	430.66
502.55	397.89
502.72	447.04
502.90	458.74
503.07	449.38
503.25	440.02
503.43	390.87
503.60	372.15
503.78	475.13
503.95	372.15
504.13	383.85
504.30	376.83
504.48	404.91
504.65	456.40
504.83	386.19
505.01	442.36
505.18	411.93
505.36	402.57
505.53	334.70
505.71	365.12
505.88	337.04
506.06	374.49
506.23	421.30
506.41	416.62
506.58	411.93
506.76	360.44
506.93	472.79
507.11	402.57
507.28	346.40
507.46	397.89
507.63	393.21
507.81	367.46
507.98	397.89
508.16	393.21
508.33	428.32
508.50	470.45
508.68	397.89
508.85	440.02
509.03	414.27
509.20	437.68
509.38	493.85
509.55	449.38
509.73	465.77
509.90	486.83
510.08	425.98
510.25	433.00
510.42	430.66
510.60	435.34
510.77	418.96
510.95	400.23
511.12	395.55
511.30	465.77
511.47	442.36
511.64	374.49
511.82	402.57
511.99	463.43
512.17	409.59
512.34	395.55
512.51	411.93
512.69	411.93
512.86	421.30
513.04	376.83
513.21	409.59
513.38	519.60
513.56	390.87
513.73	348.74
513.90	390.87
514.08	383.85
514.25	388.53
514.43	491.51
514.60	402.57
514.77	353.42
514.95	421.30
515.12	374.49
515.29	491.51
515.47	402.57
515.64	397.89
515.81	435.34
515.99	423.64
516.16	461.09
516.33	435.34
516.51	444.70
516.68	376.83
516.85	440.02
517.03	386.19
517.20	470.45
517.37	374.49
517.54	437.68
517.72	454.06
517.89	418.96
518.06	355.76
518.24	456.40
518.41	386.19
518.58	437.68
518.75	367.46
518.93	489.17
519.10	365.12
519.27	454.06
519.45	390.87
519.62	409.59
519.79	409.59
519.96	447.04
520.14	388.53
520.31	440.02
520.48	428.32
520.65	425.98
520.83	425.98
521.00	435.34
521.17	390.87
521.34	346.40
521.52	395.55
521.69	442.36
521.86	360.44
522.03	404.91
522.20	437.68
522.38	463.43
522.55	390.87
522.72	423.64
522.89	304.27
523.07	430.66
523.24	435.34
523.41	475.13
523.58	454.06
523.75	447.04
523.92	428.32
524.10	447.04
524.27	444.70
524.44	442.36
524.61	404.91
524.78	451.72
524.96	374.49
525.13	430.66
525.30	411.93
525.47	425.98
525.64	425.98
525.81	451.72
525.98	425.98
526.16	437.68
526.33	339.38
526.50	397.89
526.67	367.46
526.84	447.04
527.01	442.36
527.18	409.59
527.36	407.25
527.53	337.04
527.70	386.19
527.87	482.15
528.04	465.77
528.21	393.21
528.38	454.06
528.55	423.64
528.72	451.72
528.89	416.62
529.07	400.23
529.24	451.72
529.41	440.02
529.58	444.70
529.75	339.38
529.92	430.66
530.09	372.15
530.26	386.19
530.43	388.53
530.60	395.55
530.77	435.34
530.94	447.04
531.11	425.98
531.28	430.66
531.46	433.00
531.63	468.11
531.80	414.27
531.97	425.98
532.14	379.17
532.31	418.96
532.48	388.53
532.65	421.30
532.82	423.64
532.99	425.98
533.16	386.19
533.33	433.00
533.50	435.34
533.67	435.34
533.84	510.24
534.01	360.44
534.18	416.62
534.35	362.78
534.52	454.06
534.69	355.76
534.86	409.59
535.03	355.76
535.20	454.06
535.37	461.09
535.54	470.45
535.71	411.93
535.88	346.40
536.05	390.87
536.22	395.55
536.38	421.30
536.55	416.62
536.72	440.02
536.89	362.78
537.06	365.12
537.23	404.91
537.40	346.40
537.57	449.38
537.74	437.68
537.91	397.89
538.08	423.64
538.25	386.19
538.42	400.23
538.59	489.17
538.75	449.38
538.92	383.85
539.09	416.62
539.26	409.59
539.43	409.59
539.60	376.83
539.77	381.51
539.94	425.98
540.11	376.83
540.28	435.34
540.44	461.09
540.61	491.51
540.78	393.21
540.95	383.85
541.12	479.81
541.29	402.57
541.46	416.62
541.62	447.04
541.79	512.58
541.96	407.25
542.13	449.38
542.30	355.76
542.47	397.89
542.63	519.60
542.80	374.49
542.97	379.17
543.14	362.78
543.31	355.76
543.48	444.70
543.64	376.83
543.81	416.62
543.98	404.91
544.15	402.57
544.32	416.62
544.48	423.64
544.65	362.78
544.82	435.34
544.99	430.66
545.16	463.43
545.32	409.59
545.49	435.34
545.66	414.27
545.83	360.44
546.00	423.64
546.16	334.70
546.33	440.02
546.50	407.25
546.67	423.64
546.83	479.81
547.00	402.57
547.17	425.98
547.34	367.46
547.50	362.78
547.67	437.68
547.84	404.91
548.00	535.98
548.17	386.19
548.34	397.89
548.51	411.93
548.67	484.49
548.84	435.34
549.01	430.66
549.18	360.44
549.34	414.27
549.51	418.96
549.68	421.30
549.84	454.06
550.01	416.62
550.18	456.40
550.34	507.90
550.51	451.72
550.68	435.34
550.84	393.21
551.01	423.64
551.18	409.59
551.34	468.11
551.51	430.66
551.68	463.43
551.84	418.96
552.01	437.68
552.18	449.38
552.34	369.80
552.51	407.25
552.68	376.83
552.84	425.98
553.01	404.91
553.18	463.43
553.34	404.91
553.51	402.57
553.67	435.34
553.84	440.02
554.01	421.30
554.17	454.06
554.34	400.23
554.51	411.93
554.67	411.93
554.84	498.53
555.00	379.17
555.17	409.59
555.33	365.12
555.50	470.45
555.67	451.72
555.83	348.74
556.00	435.34
556.16	543.00
556.33	390.87
556.50	386.19
556.66	458.74
556.83	458.74
556.99	472.79
557.16	425.98
557.32	348.74
557.49	475.13
557.65	367.46
557.82	400.23
557.98	404.91
558.15	372.15
558.32	477.47
558.48	456.40
558.65	461.09
558.81	447.04
558.98	390.87
559.14	491.51
559.31	397.89
559.47	397.89
559.64	472.79
559.80	451.72
559.97	430.66
560.13	376.83
560.30	390.87
560.46	379.17
560.63	386.19
560.79	390.87
560.96	362.78
561.12	407.25
561.29	421.30
561.45	390.87
561.61	493.85
561.78	482.15
561.94	442.36
562.11	346.40
562.27	402.57
562.44	418.96
562.60	428.32
562.77	390.87
562.93	386.19
563.10	433.00
563.26	395.55
563.42	414.27
563.59	517.26
563.75	372.15
563.92	437.68
564.08	383.85
564.24	437.68
564.41	447.04
564.57	346.40
564.74	421.30
564.90	442.36
565.07	440.02
565.23	400.23
565.39	381.51
565.56	318.31
565.72	421.30
565.88	421.30
566.05	395.55
566.21	379.17
566.38	437.68
566.54	362.78
566.70	428.32
566.87	346.40
567.03	437.68
567.19	418.96
567.36	400.23
567.52	430.66
567.68	510.24
567.85	404.91
568.01	395.55
568.17	421.30
568.34	379.17
568.50	423.64
568.66	416.62
568.83	484.49
568.99	402.57
569.15	442.36
569.32	393.21
569.48	395.55
569.64	346.40
569.81	416.62
569.97	454.06
570.13	479.81
570.30	390.87
570.46	374.49
570.62	421.30
570.78	411.93
570.95	418.96
571.11	447.04
571.27	454.06
571.43	383.85
571.60	400.23
571.76	388.53
571.92	421.30
572.09	367.46
572.25	442.36
572.41	423.64
572.57	388.53
572.74	470.45
572.90	425.98
573.06	386.19
573.22	496.19
573.38	409.59
573.55	404.91
573.71	479.81
573.87	447.04
574.03	393.21
574.20	365.12
574.36	463.43
574.52	369.80
574.68	437.68
574.84	414.27
575.01	416.62
575.17	435.34
575.33	411.93
575.49	477.47
575.65	386.19
575.82	430.66
575.98	458.74
576.14	365.12
576.30	418.96
576.46	365.12
576.62	418.96
576.79	400.23
576.95	421.30
577.11	390.87
577.27	435.34
577.43	400.23
577.59	479.81
577.75	376.83
577.92	381.51
578.08	409.59
578.24	444.70
578.40	433.00
578.56	416.62
578.72	465.77
578.88	339.38
579.04	428.32
579.21	437.68
579.37	397.89
579.53	369.80
579.69	414.27
579.85	498.53
580.01	409.59
580.17	404.91
580.33	437.68
580.49	400.23
580.65	393.21
580.82	440.02
580.98	425.98
581.14	411.93
581.30	411.93
581.46	447.04
581.62	423.64
581.78	348.74
581.94	425.98
582.10	402.57
582.26	461.09
582.42	402.57
582.58	465.77
582.74	423.64
582.90	430.66
583.06	496.19
583.22	355.76
583.38	348.74
583.54	383.85
583.70	449.38
583.86	489.17
584.02	404.91
584.18	397.89
584.34	458.74
584.50	472.79
584.66	400.23
584.82	440.02
584.98	383.85
585.14	421.30
585.30	517.26
585.46	437.68
585.62	367.46
585.78	477.47
585.94	414.27
586.10	421.30
586.26	383.85
586.42	500.87
586.58	437.68
586.74	376.83
586.90	425.98
587.06	397.89
587.22	496.19
587.38	397.89
587.54	388.53
587.70	489.17
587.86	425.98
588.02	313.63
588.18	393.21
588.34	442.36
588.49	409.59
588.65	421.30
588.81	416.62
588.97	411.93
589.13	437.68
589.29	414.27
589.45	451.72
589.61	437.68
589.77	456.40
589.93	411.93
590.08	397.89
590.24	376.83
590.40	376.83
590.56	475.13
590.72	463.43
590.88	463.43
591.04	489.17
591.20	437.68
591.35	449.38
591.51	379.17
591.67	433.00
591.83	376.83
591.99	512.58
592.15	454.06
592.31	442.36
592.46	421.30
592.62	390.87
592.78	416.62
592.94	458.74
593.10	440.02
593.26	411.93
593.41	461.09
593.57	416.62
593.73	456.40
593.89	458.74
594.05	327.68
594.20	341.72
594.36	447.04
594.52	414.27
594.68	425.98
594.84	458.74
594.99	491.51
595.15	475.13
595.31	390.87
595.47	407.25
595.62	374.49
595.78	447.04
595.94	402.57
596.10	421.30
596.25	379.17
596.41	421.30
596.57	461.09
596.73	388.53
596.88	407.25
597.04	381.51
597.20	468.11
597.36	397.89
597.51	461.09
597.67	433.00
597.83	381.51
597.99	332.36
598.14	468.11
598.30	444.70
598.46	468.11
598.61	472.79
598.77	383.85
598.93	341.72
599.09	482.15
599.24	416.62
599.40	379.17
599.56	381.51
599.71	449.38
599.87	372.15
600.03	383.85
600.18	440.02
600.34	374.49
600.50	411.93
600.65	386.19
600.81	433.00
600.97	416.62
601.12	463.43
601.28	418.96
601.44	383.85
601.59	388.53
601.75	367.46
601.91	393.21
602.06	411.93
602.22	475.13
602.37	461.09
602.53	475.13
602.69	409.59
602.84	407.25
603.00	433.00
603.16	437.68
603.31	428.32
603.47	390.87
603.62	423.64
603.78	435.34
603.94	402.57
604.09	379.17
604.25	468.11
604.40	491.51
604.56	390.87
604.71	440.02
604.87	421.30
605.03	468.11
605.18	465.77
605.34	444.70
605.49	409.59
605.65	374.49
605.80	379.17
605.96	404.91
606.12	416.62
606.27	421.30
606.43	369.80
606.58	461.09
606.74	416.62
606.89	458.74
607.05	402.57
607.20	411.93
607.36	379.17
607.51	400.23
607.67	505.56
607.82	437.68
607.98	430.66
608.13	386.19
608.29	444.70
608.44	468.11
608.60	423.64
608.75	465.77
608.91	430.66
609.06	383.85
609.22	472.79
609.37	409.59
609.53	397.89
609.68	376.83
609.84	395.55
609.99	418.96
610.15	418.96
