SpectraSuite Data File
++++++++++++++++++++++++++++++++++++
Date: Fri Oct 25 12:10:28 EDT 2013
User: price-jones
Dark Spectrum Present: No
Reference Spectrum Present: No
Number of Sampled Component Spectra: 1
Spectrometers: USB2+H05261
Integration Time (usec): 100000 (USB2+H05261)
Spectra Averaged: 1 (USB2+H05261)
Boxcar Smoothing: 0 (USB2+H05261)
Correct for Electrical Dark: No (USB2+H05261)
Strobe/Lamp Enabled: No (USB2+H05261)
Correct for Detector Non-linearity: No (USB2+H05261)
Correct for Stray Light: No (USB2+H05261)
Number of Pixels in Processed Spectrum: 2048
>>>>>Begin Processed Spectral Data<<<<<
365.73	367.46
365.92	367.46
366.12	367.46
366.32	278.52
366.52	255.12
366.72	238.73
366.91	194.26
367.11	248.10
367.31	224.69
367.51	215.33
367.70	297.25
367.90	227.03
368.10	215.33
368.30	210.65
368.49	203.63
368.69	241.08
368.89	205.97
369.09	212.99
369.28	273.84
369.48	191.92
369.68	285.55
369.87	320.65
370.07	280.86
370.27	402.57
370.47	388.53
370.66	334.70
370.86	322.99
371.06	334.70
371.25	383.85
371.45	407.25
371.65	348.74
371.84	367.46
372.04	409.59
372.24	372.15
372.44	313.63
372.63	458.74
372.83	451.72
373.03	381.51
373.22	393.21
373.42	390.87
373.62	358.10
373.81	491.51
374.01	456.40
374.21	454.06
374.40	423.64
374.60	465.77
374.79	477.47
374.99	524.28
375.19	433.00
375.38	456.40
375.58	404.91
375.78	372.15
375.97	416.62
376.17	472.79
376.37	500.87
376.56	428.32
376.76	451.72
376.95	435.34
377.15	393.21
377.35	332.36
377.54	465.77
377.74	407.25
377.93	468.11
378.13	372.15
378.33	374.49
378.52	409.59
378.72	397.89
378.91	451.72
379.11	442.36
379.31	435.34
379.50	425.98
379.70	381.51
379.89	421.30
380.09	442.36
380.28	332.36
380.48	386.19
380.68	388.53
380.87	383.85
381.07	409.59
381.26	407.25
381.46	379.17
381.65	395.55
381.85	430.66
382.04	402.57
382.24	407.25
382.43	402.57
382.63	407.25
382.83	344.06
383.02	437.68
383.22	430.66
383.41	500.87
383.61	444.70
383.80	372.15
384.00	400.23
384.19	430.66
384.39	365.12
384.58	395.55
384.78	451.72
384.97	444.70
385.17	367.46
385.36	418.96
385.56	339.38
385.75	430.66
385.95	376.83
386.14	367.46
386.34	458.74
386.53	386.19
386.72	369.80
386.92	461.09
387.11	465.77
387.31	444.70
387.50	423.64
387.70	362.78
387.89	428.32
388.09	461.09
388.28	339.38
388.48	379.17
388.67	376.83
388.86	440.02
389.06	397.89
389.25	414.27
389.45	383.85
389.64	407.25
389.84	440.02
390.03	388.53
390.22	381.51
390.42	397.89
390.61	381.51
390.81	390.87
391.00	376.83
391.19	433.00
391.39	388.53
391.58	477.47
391.78	355.76
391.97	411.93
392.16	421.30
392.36	416.62
392.55	407.25
392.75	404.91
392.94	468.11
393.13	433.00
393.33	425.98
393.52	421.30
393.71	407.25
393.91	407.25
394.10	367.46
394.29	458.74
394.49	372.15
394.68	381.51
394.88	437.68
395.07	400.23
395.26	400.23
395.46	400.23
395.65	433.00
395.84	416.62
396.04	404.91
396.23	395.55
396.42	430.66
396.62	383.85
396.81	390.87
397.00	461.09
397.19	421.30
397.39	444.70
397.58	393.21
397.77	435.34
397.97	355.76
398.16	358.10
398.35	337.04
398.55	355.76
398.74	407.25
398.93	437.68
399.12	397.89
399.32	383.85
399.51	402.57
399.70	379.17
399.90	376.83
400.09	393.21
400.28	449.38
400.47	411.93
400.67	468.11
400.86	334.70
401.05	418.96
401.24	386.19
401.44	423.64
401.63	351.08
401.82	390.87
402.01	358.10
402.21	376.83
402.40	418.96
402.59	421.30
402.78	379.17
402.97	416.62
403.17	402.57
403.36	402.57
403.55	430.66
403.74	470.45
403.93	393.21
404.13	390.87
404.32	402.57
404.51	358.10
404.70	449.38
404.89	339.38
405.09	461.09
405.28	407.25
405.47	327.68
405.66	374.49
405.85	425.98
406.05	325.33
406.24	400.23
406.43	393.21
406.62	447.04
406.81	456.40
407.00	463.43
407.20	402.57
407.39	379.17
407.58	379.17
407.77	376.83
407.96	458.74
408.15	346.40
408.34	421.30
408.54	374.49
408.73	393.21
408.92	437.68
409.11	407.25
409.30	400.23
409.49	411.93
409.68	376.83
409.87	393.21
410.07	395.55
410.26	402.57
410.45	360.44
410.64	407.25
410.83	376.83
411.02	411.93
411.21	374.49
411.40	407.25
411.59	365.12
411.78	416.62
411.98	369.80
412.17	416.62
412.36	425.98
412.55	355.76
412.74	344.06
412.93	430.66
413.12	409.59
413.31	514.92
413.50	381.51
413.69	376.83
413.88	507.90
414.07	362.78
414.26	425.98
414.45	367.46
414.64	470.45
414.83	458.74
415.02	447.04
415.22	341.72
415.41	414.27
415.60	397.89
415.79	369.80
415.98	407.25
416.17	444.70
416.36	468.11
416.55	358.10
416.74	418.96
416.93	388.53
417.12	433.00
417.31	322.99
417.50	418.96
417.69	407.25
417.88	458.74
418.07	416.62
418.26	390.87
418.45	381.51
418.64	433.00
418.83	454.06
419.02	435.34
419.21	428.32
419.39	456.40
419.58	404.91
419.77	327.68
419.96	374.49
420.15	451.72
420.34	444.70
420.53	395.55
420.72	423.64
420.91	381.51
421.10	374.49
421.29	383.85
421.48	477.47
421.67	388.53
421.86	421.30
422.05	409.59
422.24	411.93
422.43	440.02
422.61	376.83
422.80	374.49
422.99	470.45
423.18	433.00
423.37	440.02
423.56	418.96
423.75	503.22
423.94	468.11
424.13	456.40
424.32	386.19
424.50	390.87
424.69	421.30
424.88	400.23
425.07	395.55
425.26	418.96
425.45	409.59
425.64	428.32
425.83	414.27
426.01	449.38
426.20	374.49
426.39	402.57
426.58	402.57
426.77	437.68
426.96	451.72
427.15	468.11
427.33	379.17
427.52	418.96
427.71	395.55
427.90	447.04
428.09	407.25
428.28	400.23
428.46	344.06
428.65	404.91
428.84	390.87
429.03	376.83
429.22	369.80
429.40	416.62
429.59	414.27
429.78	414.27
429.97	456.40
430.16	416.62
430.34	404.91
430.53	425.98
430.72	421.30
430.91	430.66
431.10	451.72
431.28	386.19
431.47	376.83
431.66	421.30
431.85	358.10
432.03	409.59
432.22	425.98
432.41	397.89
432.60	489.17
432.79	456.40
432.97	402.57
433.16	367.46
433.35	395.55
433.54	388.53
433.72	383.85
433.91	440.02
434.10	308.95
434.28	402.57
434.47	407.25
434.66	491.51
434.85	402.57
435.03	402.57
435.22	433.00
435.41	421.30
435.59	372.15
435.78	294.91
435.97	430.66
436.16	451.72
436.34	479.81
436.53	358.10
436.72	381.51
436.90	444.70
437.09	482.15
437.28	430.66
437.46	472.79
437.65	369.80
437.84	428.32
438.02	477.47
438.21	444.70
438.40	407.25
438.58	409.59
438.77	346.40
438.96	440.02
439.14	369.80
439.33	449.38
439.52	409.59
439.70	379.17
439.89	383.85
440.08	486.83
440.26	435.34
440.45	442.36
440.63	393.21
440.82	470.45
441.01	475.13
441.19	397.89
441.38	351.08
441.57	449.38
441.75	428.32
441.94	402.57
442.12	479.81
442.31	433.00
442.50	374.49
442.68	433.00
442.87	395.55
443.05	414.27
443.24	379.17
443.43	475.13
443.61	404.91
443.80	355.76
443.98	451.72
444.17	468.11
444.35	404.91
444.54	416.62
444.73	421.30
444.91	423.64
445.10	395.55
445.28	362.78
445.47	435.34
445.65	421.30
445.84	334.70
446.02	425.98
446.21	484.49
446.39	454.06
446.58	423.64
446.77	435.34
446.95	355.76
447.14	360.44
447.32	430.66
447.51	402.57
447.69	379.17
447.88	393.21
448.06	428.32
448.25	416.62
448.43	430.66
448.62	374.49
448.80	489.17
448.99	484.49
449.17	383.85
449.36	400.23
449.54	477.47
449.73	404.91
449.91	374.49
450.10	468.11
450.28	503.22
450.46	374.49
450.65	425.98
450.83	444.70
451.02	414.27
451.20	404.91
451.39	479.81
451.57	383.85
451.76	463.43
451.94	395.55
452.13	416.62
452.31	456.40
452.49	421.30
452.68	411.93
452.86	402.57
453.05	395.55
453.23	397.89
453.42	430.66
453.60	393.21
453.78	477.47
453.97	379.17
454.15	402.57
454.34	447.04
454.52	435.34
454.70	327.68
454.89	374.49
455.07	365.12
455.26	372.15
455.44	397.89
455.62	404.91
455.81	395.55
455.99	407.25
456.17	374.49
456.36	393.21
456.54	409.59
456.73	369.80
456.91	353.42
457.09	381.51
457.28	428.32
457.46	362.78
457.64	435.34
457.83	386.19
458.01	411.93
458.19	388.53
458.38	372.15
458.56	383.85
458.74	451.72
458.93	402.57
459.11	346.40
459.29	351.08
459.48	388.53
459.66	444.70
459.84	486.83
460.03	543.00
460.21	435.34
460.39	416.62
460.57	447.04
460.76	341.72
460.94	442.36
461.12	479.81
461.31	470.45
461.49	421.30
461.67	425.98
461.85	430.66
462.04	463.43
462.22	669.39
462.40	404.91
462.59	491.51
462.77	353.42
462.95	454.06
463.13	475.13
463.32	437.68
463.50	395.55
463.68	442.36
463.86	407.25
464.05	430.66
464.23	425.98
464.41	484.49
464.59	388.53
464.78	447.04
464.96	440.02
465.14	414.27
465.32	360.44
465.50	463.43
465.69	472.79
465.87	463.43
466.05	463.43
466.23	447.04
466.41	423.64
466.60	407.25
466.78	423.64
466.96	400.23
467.14	372.15
467.32	400.23
467.51	418.96
467.69	407.25
467.87	447.04
468.05	430.66
468.23	470.45
468.41	425.98
468.60	397.89
468.78	433.00
468.96	402.57
469.14	404.91
469.32	397.89
469.50	367.46
469.69	365.12
469.87	456.40
470.05	388.53
470.23	400.23
470.41	425.98
470.59	365.12
470.77	416.62
470.95	397.89
471.14	447.04
471.32	435.34
471.50	416.62
471.68	402.57
471.86	423.64
472.04	428.32
472.22	430.66
472.40	379.17
472.58	414.27
472.77	386.19
472.95	418.96
473.13	433.00
473.31	470.45
473.49	421.30
473.67	430.66
473.85	458.74
474.03	386.19
474.21	414.27
474.39	482.15
474.57	418.96
474.75	416.62
474.93	411.93
475.12	376.83
475.30	397.89
475.48	442.36
475.66	425.98
475.84	407.25
476.02	374.49
476.20	358.10
476.38	451.72
476.56	449.38
476.74	454.06
476.92	416.62
477.10	484.49
477.28	402.57
477.46	372.15
477.64	395.55
477.82	386.19
478.00	367.46
478.18	383.85
478.36	367.46
478.54	409.59
478.72	423.64
478.90	428.32
479.08	451.72
479.26	451.72
479.44	442.36
479.62	444.70
479.80	386.19
479.98	421.30
480.16	400.23
480.34	400.23
480.52	376.83
480.70	393.21
480.88	465.77
481.06	407.25
481.24	435.34
481.41	390.87
481.59	367.46
481.77	402.57
481.95	360.44
482.13	409.59
482.31	407.25
482.49	414.27
482.67	428.32
482.85	388.53
483.03	418.96
483.21	402.57
483.39	423.64
483.57	470.45
483.74	477.47
483.92	465.77
484.10	470.45
484.28	482.15
484.46	400.23
484.64	461.09
484.82	388.53
485.00	447.04
485.18	416.62
485.35	409.59
485.53	458.74
485.71	442.36
485.89	404.91
486.07	496.19
486.25	484.49
486.43	390.87
486.61	395.55
486.78	372.15
486.96	393.21
487.14	400.23
487.32	409.59
487.50	372.15
487.68	365.12
487.85	395.55
488.03	437.68
488.21	362.78
488.39	440.02
488.57	409.59
488.75	330.02
488.92	472.79
489.10	402.57
489.28	444.70
489.46	372.15
489.64	423.64
489.81	362.78
489.99	444.70
490.17	397.89
490.35	407.25
490.53	411.93
490.70	433.00
490.88	416.62
491.06	369.80
491.24	397.89
491.41	395.55
491.59	409.59
491.77	376.83
491.95	411.93
492.13	383.85
492.30	425.98
492.48	388.53
492.66	444.70
492.84	430.66
493.01	461.09
493.19	308.95
493.37	425.98
493.54	388.53
493.72	372.15
493.90	414.27
494.08	416.62
494.25	383.85
494.43	379.17
494.61	491.51
494.79	365.12
494.96	381.51
495.14	444.70
495.32	440.02
495.49	400.23
495.67	428.32
495.85	407.25
496.02	402.57
496.20	440.02
496.38	341.72
496.55	433.00
496.73	444.70
496.91	388.53
497.09	430.66
497.26	407.25
497.44	409.59
497.62	433.00
497.79	428.32
497.97	447.04
498.14	472.79
498.32	383.85
498.50	482.15
498.67	395.55
498.85	444.70
499.03	407.25
499.20	454.06
499.38	435.34
499.56	454.06
499.73	461.09
499.91	402.57
500.08	435.34
500.26	475.13
500.44	421.30
500.61	397.89
500.79	442.36
500.97	414.27
501.14	430.66
501.32	379.17
501.49	447.04
501.67	421.30
501.84	367.46
502.02	482.15
502.20	461.09
502.37	425.98
502.55	411.93
502.72	404.91
502.90	475.13
503.07	418.96
503.25	365.12
503.43	369.80
503.60	407.25
503.78	383.85
503.95	411.93
504.13	428.32
504.30	414.27
504.48	435.34
504.65	451.72
504.83	379.17
505.01	376.83
505.18	418.96
505.36	430.66
505.53	414.27
505.71	425.98
505.88	454.06
506.06	409.59
506.23	365.12
506.41	444.70
506.58	381.51
506.76	388.53
506.93	390.87
507.11	388.53
507.28	425.98
507.46	400.23
507.63	433.00
507.81	491.51
507.98	425.98
508.16	425.98
508.33	390.87
508.50	393.21
508.68	362.78
508.85	418.96
509.03	365.12
509.20	397.89
509.38	430.66
509.55	435.34
509.73	395.55
509.90	301.93
510.08	451.72
510.25	430.66
510.42	430.66
510.60	393.21
510.77	409.59
510.95	465.77
511.12	386.19
511.30	418.96
511.47	402.57
511.64	437.68
511.82	421.30
511.99	376.83
512.17	404.91
512.34	395.55
512.51	428.32
512.69	416.62
512.86	425.98
513.04	337.04
513.21	400.23
513.38	390.87
513.56	493.85
513.73	393.21
513.90	498.53
514.08	355.76
514.25	397.89
514.43	337.04
514.60	337.04
514.77	435.34
514.95	430.66
515.12	451.72
515.29	355.76
515.47	437.68
515.64	358.10
515.81	447.04
515.99	430.66
516.16	409.59
516.33	456.40
516.51	421.30
516.68	372.15
516.85	416.62
517.03	402.57
517.20	472.79
517.37	416.62
517.54	435.34
517.72	397.89
517.89	475.13
518.06	486.83
518.24	433.00
518.41	400.23
518.58	383.85
518.75	458.74
518.93	423.64
519.10	400.23
519.27	400.23
519.45	430.66
519.62	374.49
519.79	409.59
519.96	470.45
520.14	395.55
520.31	376.83
520.48	400.23
520.65	386.19
520.83	444.70
521.00	393.21
521.17	500.87
521.34	379.17
521.52	418.96
521.69	386.19
521.86	362.78
522.03	498.53
522.20	526.62
522.38	435.34
522.55	374.49
522.72	414.27
522.89	383.85
523.07	430.66
523.24	465.77
523.41	472.79
523.58	451.72
523.75	334.70
523.92	379.17
524.10	444.70
524.27	421.30
524.44	435.34
524.61	428.32
524.78	416.62
524.96	383.85
525.13	404.91
525.30	407.25
525.47	444.70
525.64	435.34
525.81	416.62
525.98	440.02
526.16	433.00
526.33	397.89
526.50	491.51
526.67	421.30
526.84	489.17
527.01	334.70
527.18	470.45
527.36	393.21
527.53	404.91
527.70	472.79
527.87	390.87
528.04	449.38
528.21	325.33
528.38	461.09
528.55	393.21
528.72	409.59
528.89	500.87
529.07	409.59
529.24	404.91
529.41	472.79
529.58	440.02
529.75	341.72
529.92	416.62
530.09	402.57
530.26	330.02
530.43	423.64
530.60	440.02
530.77	351.08
530.94	365.12
531.11	456.40
531.28	390.87
531.46	346.40
531.63	437.68
531.80	465.77
531.97	500.87
532.14	395.55
532.31	440.02
532.48	440.02
532.65	435.34
532.82	465.77
532.99	421.30
533.16	442.36
533.33	360.44
533.50	390.87
533.67	425.98
533.84	404.91
534.01	409.59
534.18	440.02
534.35	369.80
534.52	372.15
534.69	327.68
534.86	430.66
535.03	372.15
535.20	428.32
535.37	400.23
535.54	435.34
535.71	411.93
535.88	500.87
536.05	395.55
536.22	482.15
536.38	416.62
536.55	451.72
536.72	510.24
536.89	404.91
537.06	388.53
537.23	355.76
537.40	381.51
537.57	367.46
537.74	503.22
537.91	465.77
538.08	379.17
538.25	404.91
538.42	388.53
538.59	421.30
538.75	416.62
538.92	430.66
539.09	465.77
539.26	404.91
539.43	416.62
539.60	428.32
539.77	348.74
539.94	322.99
540.11	440.02
540.28	496.19
540.44	402.57
540.61	369.80
540.78	369.80
540.95	416.62
541.12	428.32
541.29	430.66
541.46	451.72
541.62	414.27
541.79	461.09
541.96	437.68
542.13	360.44
542.30	379.17
542.47	397.89
542.63	465.77
542.80	379.17
542.97	421.30
543.14	449.38
543.31	442.36
543.48	411.93
543.64	447.04
543.81	416.62
543.98	416.62
544.15	348.74
544.32	376.83
544.48	491.51
544.65	355.76
544.82	390.87
544.99	433.00
545.16	365.12
545.32	395.55
545.49	449.38
545.66	395.55
545.83	374.49
546.00	360.44
546.16	435.34
546.33	390.87
546.50	379.17
546.67	397.89
546.83	477.47
547.00	454.06
547.17	425.98
547.34	353.42
547.50	428.32
547.67	538.32
547.84	430.66
548.00	454.06
548.17	435.34
548.34	407.25
548.51	440.02
548.67	421.30
548.84	421.30
549.01	454.06
549.18	407.25
549.34	437.68
549.51	479.81
549.68	397.89
549.84	407.25
550.01	374.49
550.18	433.00
550.34	423.64
550.51	440.02
550.68	477.47
550.84	383.85
551.01	388.53
551.18	524.28
551.34	477.47
551.51	503.22
551.68	451.72
551.84	416.62
552.01	351.08
552.18	390.87
552.34	416.62
552.51	454.06
552.68	440.02
552.84	440.02
553.01	435.34
553.18	456.40
553.34	390.87
553.51	390.87
553.67	503.22
553.84	428.32
554.01	404.91
554.17	411.93
554.34	313.63
554.51	449.38
554.67	428.32
554.84	414.27
555.00	418.96
555.17	421.30
555.33	437.68
555.50	423.64
555.67	491.51
555.83	411.93
556.00	330.02
556.16	491.51
556.33	433.00
556.50	428.32
556.66	409.59
556.83	379.17
556.99	425.98
557.16	486.83
557.32	411.93
557.49	409.59
557.65	390.87
557.82	367.46
557.98	423.64
558.15	421.30
558.32	393.21
558.48	362.78
558.65	360.44
558.81	409.59
558.98	369.80
559.14	388.53
559.31	470.45
559.47	327.68
559.64	372.15
559.80	411.93
559.97	442.36
560.13	404.91
560.30	397.89
560.46	388.53
560.63	440.02
560.79	374.49
560.96	414.27
561.12	421.30
561.29	470.45
561.45	400.23
561.61	456.40
561.78	491.51
561.94	411.93
562.11	393.21
562.27	362.78
562.44	456.40
562.60	395.55
562.77	369.80
562.93	411.93
563.10	444.70
563.26	411.93
563.42	430.66
563.59	311.29
563.75	409.59
563.92	461.09
564.08	369.80
564.24	440.02
564.41	514.92
564.57	416.62
564.74	416.62
564.90	475.13
565.07	458.74
565.23	374.49
565.39	416.62
565.56	409.59
565.72	418.96
565.88	484.49
566.05	421.30
566.21	409.59
566.38	418.96
566.54	395.55
566.70	414.27
566.87	388.53
567.03	407.25
567.19	404.91
567.36	500.87
567.52	451.72
567.68	404.91
567.85	444.70
568.01	468.11
568.17	367.46
568.34	428.32
568.50	451.72
568.66	374.49
568.83	463.43
568.99	470.45
569.15	421.30
569.32	486.83
569.48	409.59
569.64	379.17
569.81	486.83
569.97	449.38
570.13	449.38
570.30	379.17
570.46	393.21
570.62	470.45
570.78	376.83
570.95	409.59
571.11	437.68
571.27	362.78
571.43	468.11
571.60	407.25
571.76	421.30
571.92	433.00
572.09	407.25
572.25	421.30
572.41	327.68
572.57	470.45
572.74	468.11
572.90	437.68
573.06	381.51
573.22	339.38
573.38	388.53
573.55	470.45
573.71	458.74
573.87	451.72
574.03	454.06
574.20	411.93
574.36	430.66
574.52	397.89
574.68	472.79
574.84	358.10
575.01	423.64
575.17	404.91
575.33	341.72
575.49	463.43
575.65	402.57
575.82	447.04
575.98	353.42
576.14	393.21
576.30	442.36
576.46	386.19
576.62	440.02
576.79	475.13
576.95	461.09
577.11	418.96
577.27	458.74
577.43	433.00
577.59	454.06
577.75	451.72
577.92	444.70
578.08	440.02
578.24	430.66
578.40	416.62
578.56	475.13
578.72	444.70
578.88	381.51
579.04	418.96
579.21	411.93
579.37	374.49
579.53	428.32
579.69	402.57
579.85	395.55
580.01	454.06
580.17	416.62
580.33	477.47
580.49	404.91
580.65	353.42
580.82	423.64
580.98	421.30
581.14	418.96
581.30	423.64
581.46	430.66
581.62	369.80
581.78	437.68
581.94	440.02
582.10	376.83
582.26	393.21
582.42	397.89
582.58	402.57
582.74	388.53
582.90	379.17
583.06	337.04
583.22	388.53
583.38	407.25
583.54	402.57
583.70	411.93
583.86	425.98
584.02	367.46
584.18	449.38
584.34	369.80
584.50	404.91
584.66	400.23
584.82	454.06
584.98	451.72
585.14	400.23
585.30	489.17
585.46	484.49
585.62	510.24
585.78	449.38
585.94	397.89
586.10	442.36
586.26	409.59
586.42	404.91
586.58	428.32
586.74	393.21
586.90	395.55
587.06	414.27
587.22	395.55
587.38	449.38
587.54	393.21
587.70	437.68
587.86	390.87
588.02	388.53
588.18	407.25
588.34	456.40
588.49	428.32
588.65	400.23
588.81	355.76
588.97	397.89
589.13	440.02
589.29	425.98
589.45	463.43
589.61	444.70
589.77	437.68
589.93	486.83
590.08	421.30
590.24	440.02
590.40	458.74
590.56	449.38
590.72	486.83
590.88	423.64
591.04	451.72
591.20	458.74
591.35	430.66
591.51	390.87
591.67	348.74
591.83	362.78
591.99	397.89
592.15	477.47
592.31	437.68
592.46	386.19
592.62	402.57
592.78	437.68
592.94	468.11
593.10	409.59
593.26	449.38
593.41	362.78
593.57	416.62
593.73	456.40
593.89	407.25
594.05	360.44
594.20	454.06
594.36	447.04
594.52	425.98
594.68	390.87
594.84	433.00
594.99	458.74
595.15	421.30
595.31	386.19
595.47	451.72
595.62	433.00
595.78	475.13
595.94	393.21
596.10	437.68
596.25	425.98
596.41	461.09
596.57	435.34
596.73	397.89
596.88	437.68
597.04	367.46
597.20	440.02
597.36	421.30
597.51	416.62
597.67	435.34
597.83	430.66
597.99	440.02
598.14	381.51
598.30	418.96
598.46	461.09
598.61	458.74
598.77	379.17
598.93	414.27
599.09	365.12
599.24	393.21
599.40	390.87
599.56	400.23
599.71	397.89
599.87	393.21
600.03	334.70
600.18	442.36
600.34	407.25
600.50	407.25
600.65	498.53
600.81	433.00
600.97	393.21
601.12	433.00
601.28	477.47
601.44	461.09
601.59	423.64
601.75	414.27
601.91	442.36
602.06	425.98
602.22	496.19
602.37	465.77
602.53	374.49
602.69	374.49
602.84	358.10
603.00	411.93
603.16	386.19
603.31	418.96
603.47	386.19
603.62	428.32
603.78	491.51
603.94	393.21
604.09	507.90
604.25	433.00
604.40	458.74
604.56	447.04
604.71	404.91
604.87	339.38
605.03	402.57
605.18	423.64
605.34	353.42
605.49	425.98
605.65	348.74
605.80	376.83
605.96	358.10
606.12	425.98
606.27	465.77
606.43	400.23
606.58	407.25
606.74	456.40
606.89	421.30
607.05	425.98
607.20	430.66
607.36	409.59
607.51	409.59
607.67	437.68
607.82	407.25
607.98	402.57
608.13	383.85
608.29	358.10
608.44	423.64
608.60	397.89
608.75	383.85
608.91	383.85
609.06	416.62
609.22	418.96
609.37	400.23
609.53	374.49
609.68	454.06
609.84	433.00
609.99	428.32
610.15	484.49
