SpectraSuite Data File
++++++++++++++++++++++++++++++++++++
Date: Fri Oct 25 12:10:59 EDT 2013
User: price-jones
Dark Spectrum Present: No
Reference Spectrum Present: No
Number of Sampled Component Spectra: 1
Spectrometers: USB2+H05261
Integration Time (usec): 100000 (USB2+H05261)
Spectra Averaged: 1 (USB2+H05261)
Boxcar Smoothing: 0 (USB2+H05261)
Correct for Electrical Dark: No (USB2+H05261)
Strobe/Lamp Enabled: No (USB2+H05261)
Correct for Detector Non-linearity: No (USB2+H05261)
Correct for Stray Light: No (USB2+H05261)
Number of Pixels in Processed Spectrum: 2048
>>>>>Begin Processed Spectral Data<<<<<
365.73	332.36
365.92	332.36
366.12	332.36
366.32	248.10
366.52	283.20
366.72	236.39
366.91	191.92
367.11	250.44
367.31	266.82
367.51	280.86
367.70	212.99
367.90	280.86
368.10	257.46
368.30	159.16
368.49	283.20
368.69	215.33
368.89	184.90
369.09	262.14
369.28	304.27
369.48	241.08
369.68	266.82
369.87	355.76
370.07	257.46
370.27	332.36
370.47	283.20
370.66	271.50
370.86	290.23
371.06	362.78
371.25	411.93
371.45	374.49
371.65	400.23
371.84	334.70
372.04	337.04
372.24	395.55
372.44	402.57
372.63	447.04
372.83	381.51
373.03	447.04
373.22	428.32
373.42	428.32
373.62	423.64
373.81	332.36
374.01	404.91
374.21	435.34
374.40	425.98
374.60	379.17
374.79	404.91
374.99	454.06
375.19	351.08
375.38	313.63
375.58	435.34
375.78	454.06
375.97	381.51
376.17	428.32
376.37	435.34
376.56	379.17
376.76	437.68
376.95	425.98
377.15	458.74
377.35	461.09
377.54	379.17
377.74	372.15
377.93	365.12
378.13	395.55
378.33	346.40
378.52	423.64
378.72	383.85
378.91	458.74
379.11	430.66
379.31	393.21
379.50	393.21
379.70	341.72
379.89	418.96
380.09	411.93
380.28	332.36
380.48	407.25
380.68	407.25
380.87	344.06
381.07	425.98
381.26	390.87
381.46	395.55
381.65	437.68
381.85	435.34
382.04	393.21
382.24	418.96
382.43	461.09
382.63	383.85
382.83	407.25
383.02	458.74
383.22	423.64
383.41	348.74
383.61	372.15
383.80	414.27
384.00	374.49
384.19	381.51
384.39	425.98
384.58	444.70
384.78	451.72
384.97	463.43
385.17	367.46
385.36	365.12
385.56	449.38
385.75	400.23
385.95	482.15
386.14	414.27
386.34	390.87
386.53	372.15
386.72	458.74
386.92	423.64
387.11	425.98
387.31	435.34
387.50	423.64
387.70	397.89
387.89	449.38
388.09	442.36
388.28	433.00
388.48	409.59
388.67	386.19
388.86	362.78
389.06	372.15
389.25	437.68
389.45	409.59
389.64	435.34
389.84	402.57
390.03	454.06
390.22	376.83
390.42	404.91
390.61	383.85
390.81	437.68
391.00	393.21
391.19	411.93
391.39	409.59
391.58	379.17
391.78	383.85
391.97	414.27
392.16	390.87
392.36	428.32
392.55	454.06
392.75	411.93
392.94	428.32
393.13	463.43
393.33	304.27
393.52	351.08
393.71	433.00
393.91	433.00
394.10	463.43
394.29	449.38
394.49	400.23
394.68	376.83
394.88	472.79
395.07	404.91
395.26	437.68
395.46	362.78
395.65	440.02
395.84	402.57
396.04	454.06
396.23	325.33
396.42	395.55
396.62	374.49
396.81	430.66
397.00	379.17
397.19	400.23
397.39	376.83
397.58	500.87
397.77	475.13
397.97	381.51
398.16	362.78
398.35	402.57
398.55	411.93
398.74	381.51
398.93	479.81
399.12	465.77
399.32	409.59
399.51	397.89
399.70	433.00
399.90	470.45
400.09	355.76
400.28	468.11
400.47	430.66
400.67	423.64
400.86	400.23
401.05	358.10
401.24	418.96
401.44	409.59
401.63	461.09
401.82	440.02
402.01	390.87
402.21	379.17
402.40	376.83
402.59	358.10
402.78	404.91
402.97	414.27
403.17	365.12
403.36	411.93
403.55	425.98
403.74	369.80
403.93	440.02
404.13	379.17
404.32	395.55
404.51	376.83
404.70	404.91
404.89	423.64
405.09	402.57
405.28	379.17
405.47	454.06
405.66	435.34
405.85	341.72
406.05	404.91
406.24	407.25
406.43	421.30
406.62	416.62
406.81	449.38
407.00	409.59
407.20	395.55
407.39	498.53
407.58	442.36
407.77	355.76
407.96	341.72
408.15	397.89
408.34	409.59
408.54	369.80
408.73	400.23
408.92	447.04
409.11	383.85
409.30	440.02
409.49	358.10
409.68	423.64
409.87	479.81
410.07	451.72
410.26	468.11
410.45	421.30
410.64	421.30
410.83	442.36
411.02	372.15
411.21	435.34
411.40	402.57
411.59	400.23
411.78	393.21
411.98	397.89
412.17	458.74
412.36	355.76
412.55	435.34
412.74	409.59
412.93	437.68
413.12	421.30
413.31	454.06
413.50	421.30
413.69	435.34
413.88	411.93
414.07	367.46
414.26	468.11
414.45	428.32
414.64	430.66
414.83	360.44
415.02	402.57
415.22	430.66
415.41	454.06
415.60	458.74
415.79	390.87
415.98	344.06
416.17	416.62
416.36	430.66
416.55	388.53
416.74	374.49
416.93	416.62
417.12	376.83
417.31	418.96
417.50	383.85
417.69	461.09
417.88	390.87
418.07	388.53
418.26	465.77
418.45	407.25
418.64	372.15
418.83	437.68
419.02	524.28
419.21	381.51
419.39	402.57
419.58	388.53
419.77	440.02
419.96	308.95
420.15	430.66
420.34	458.74
420.53	411.93
420.72	433.00
420.91	388.53
421.10	344.06
421.29	463.43
421.48	365.12
421.67	465.77
421.86	414.27
422.05	362.78
422.24	433.00
422.43	411.93
422.61	393.21
422.80	402.57
422.99	367.46
423.18	409.59
423.37	477.47
423.56	484.49
423.75	421.30
423.94	414.27
424.13	421.30
424.32	388.53
424.50	425.98
424.69	369.80
424.88	454.06
425.07	404.91
425.26	367.46
425.45	444.70
425.64	521.94
425.83	400.23
426.01	376.83
426.20	444.70
426.39	341.72
426.58	358.10
426.77	456.40
426.96	395.55
427.15	388.53
427.33	414.27
427.52	416.62
427.71	409.59
427.90	383.85
428.09	362.78
428.28	428.32
428.46	423.64
428.65	454.06
428.84	423.64
429.03	437.68
429.22	449.38
429.40	435.34
429.59	414.27
429.78	435.34
429.97	454.06
430.16	372.15
430.34	461.09
430.53	374.49
430.72	386.19
430.91	397.89
431.10	444.70
431.28	409.59
431.47	451.72
431.66	437.68
431.85	416.62
432.03	456.40
432.22	512.58
432.41	367.46
432.60	402.57
432.79	444.70
432.97	311.29
433.16	390.87
433.35	376.83
433.54	397.89
433.72	374.49
433.91	386.19
434.10	440.02
434.28	407.25
434.47	344.06
434.66	376.83
434.85	409.59
435.03	362.78
435.22	383.85
435.41	484.49
435.59	423.64
435.78	390.87
435.97	381.51
436.16	423.64
436.34	414.27
436.53	463.43
436.72	390.87
436.90	409.59
437.09	428.32
437.28	388.53
437.46	337.04
437.65	397.89
437.84	400.23
438.02	430.66
438.21	416.62
438.40	393.21
438.58	367.46
438.77	379.17
438.96	423.64
439.14	421.30
439.33	435.34
439.52	423.64
439.70	393.21
439.89	444.70
440.08	421.30
440.26	463.43
440.45	444.70
440.63	461.09
440.82	454.06
441.01	386.19
441.19	395.55
441.38	428.32
441.57	404.91
441.75	433.00
441.94	418.96
442.12	423.64
442.31	327.68
442.50	428.32
442.68	381.51
442.87	463.43
443.05	418.96
443.24	414.27
443.43	409.59
443.61	437.68
443.80	465.77
443.98	407.25
444.17	411.93
444.35	482.15
444.54	477.47
444.73	437.68
444.91	484.49
445.10	402.57
445.28	423.64
445.47	456.40
445.65	386.19
445.84	421.30
446.02	379.17
446.21	456.40
446.39	425.98
446.58	395.55
446.77	414.27
446.95	503.22
447.14	400.23
447.32	416.62
447.51	437.68
447.69	447.04
447.88	381.51
448.06	404.91
448.25	514.92
448.43	411.93
448.62	372.15
448.80	433.00
448.99	409.59
449.17	411.93
449.36	416.62
449.54	423.64
449.73	376.83
449.91	355.76
450.10	433.00
450.28	381.51
450.46	463.43
450.65	489.17
450.83	421.30
451.02	433.00
451.20	414.27
451.39	428.32
451.57	458.74
451.76	390.87
451.94	435.34
452.13	411.93
452.31	414.27
452.49	458.74
452.68	418.96
452.86	468.11
453.05	465.77
453.23	407.25
453.42	404.91
453.60	353.42
453.78	454.06
453.97	423.64
454.15	430.66
454.34	367.46
454.52	451.72
454.70	423.64
454.89	433.00
455.07	402.57
455.26	390.87
455.44	447.04
455.62	400.23
455.81	454.06
455.99	449.38
456.17	409.59
456.36	451.72
456.54	421.30
456.73	400.23
456.91	379.17
457.09	397.89
457.28	433.00
457.46	442.36
457.64	449.38
457.83	430.66
458.01	449.38
458.19	425.98
458.38	362.78
458.56	393.21
458.74	421.30
458.93	449.38
459.11	418.96
459.29	388.53
459.48	425.98
459.66	418.96
459.84	306.61
460.03	489.17
460.21	351.08
460.39	393.21
460.57	496.19
460.76	393.21
460.94	447.04
461.12	425.98
461.31	402.57
461.49	449.38
461.67	404.91
461.85	456.40
462.04	456.40
462.22	482.15
462.40	409.59
462.59	421.30
462.77	400.23
462.95	409.59
463.13	442.36
463.32	442.36
463.50	409.59
463.68	442.36
463.86	486.83
464.05	437.68
464.23	430.66
464.41	402.57
464.59	369.80
464.78	327.68
464.96	292.57
465.14	409.59
465.32	421.30
465.50	437.68
465.69	435.34
465.87	407.25
466.05	430.66
466.23	421.30
466.41	418.96
466.60	470.45
466.78	421.30
466.96	383.85
467.14	362.78
467.32	423.64
467.51	395.55
467.69	409.59
467.87	465.77
468.05	411.93
468.23	404.91
468.41	400.23
468.60	383.85
468.78	428.32
468.96	444.70
469.14	433.00
469.32	411.93
469.50	383.85
469.69	355.76
469.87	440.02
470.05	465.77
470.23	482.15
470.41	418.96
470.59	374.49
470.77	409.59
470.95	451.72
471.14	348.74
471.32	367.46
471.50	435.34
471.68	386.19
471.86	440.02
472.04	430.66
472.22	449.38
472.40	379.17
472.58	330.02
472.77	409.59
472.95	428.32
473.13	416.62
473.31	435.34
473.49	376.83
473.67	400.23
473.85	430.66
474.03	477.47
474.21	393.21
474.39	374.49
474.57	423.64
474.75	489.17
474.93	400.23
475.12	451.72
475.30	461.09
475.48	365.12
475.66	437.68
475.84	425.98
476.02	451.72
476.20	456.40
476.38	404.91
476.56	428.32
476.74	437.68
476.92	402.57
477.10	444.70
477.28	374.49
477.46	351.08
477.64	414.27
477.82	397.89
478.00	383.85
478.18	393.21
478.36	407.25
478.54	372.15
478.72	409.59
478.90	428.32
479.08	421.30
479.26	433.00
479.44	489.17
479.62	428.32
479.80	402.57
479.98	404.91
480.16	437.68
480.34	444.70
480.52	444.70
480.70	440.02
480.88	435.34
481.06	386.19
481.24	423.64
481.41	388.53
481.59	451.72
481.77	386.19
481.95	353.42
482.13	458.74
482.31	407.25
482.49	379.17
482.67	479.81
482.85	435.34
483.03	407.25
483.21	409.59
483.39	337.04
483.57	397.89
483.74	482.15
483.92	379.17
484.10	435.34
484.28	479.81
484.46	503.22
484.64	360.44
484.82	395.55
485.00	433.00
485.18	444.70
485.35	409.59
485.53	367.46
485.71	479.81
485.89	421.30
486.07	383.85
486.25	414.27
486.43	395.55
486.61	411.93
486.78	388.53
486.96	346.40
487.14	444.70
487.32	458.74
487.50	416.62
487.68	416.62
487.85	433.00
488.03	409.59
488.21	383.85
488.39	430.66
488.57	475.13
488.75	351.08
488.92	505.56
489.10	461.09
489.28	465.77
489.46	379.17
489.64	369.80
489.81	369.80
489.99	451.72
490.17	381.51
490.35	472.79
490.53	395.55
490.70	393.21
490.88	486.83
491.06	423.64
491.24	400.23
491.41	381.51
491.59	484.49
491.77	430.66
491.95	430.66
492.13	435.34
492.30	381.51
492.48	463.43
492.66	397.89
492.84	374.49
493.01	423.64
493.19	444.70
493.37	486.83
493.54	433.00
493.72	440.02
493.90	407.25
494.08	435.34
494.25	437.68
494.43	379.17
494.61	397.89
494.79	381.51
494.96	407.25
495.14	484.49
495.32	430.66
495.49	351.08
495.67	409.59
495.85	421.30
496.02	383.85
496.20	486.83
496.38	475.13
496.55	376.83
496.73	397.89
496.91	400.23
497.09	423.64
497.26	442.36
497.44	475.13
497.62	449.38
497.79	416.62
497.97	458.74
498.14	468.11
498.32	421.30
498.50	400.23
498.67	383.85
498.85	491.51
499.03	449.38
499.20	437.68
499.38	402.57
499.56	381.51
499.73	463.43
499.91	416.62
500.08	451.72
500.26	437.68
500.44	381.51
500.61	458.74
500.79	447.04
500.97	418.96
501.14	505.56
501.32	362.78
501.49	404.91
501.67	428.32
501.84	503.22
502.02	390.87
502.20	505.56
502.37	355.76
502.55	411.93
502.72	397.89
502.90	414.27
503.07	423.64
503.25	451.72
503.43	411.93
503.60	395.55
503.78	416.62
503.95	440.02
504.13	463.43
504.30	442.36
504.48	414.27
504.65	463.43
504.83	416.62
505.01	397.89
505.18	421.30
505.36	435.34
505.53	442.36
505.71	400.23
505.88	418.96
506.06	367.46
506.23	393.21
506.41	423.64
506.58	339.38
506.76	454.06
506.93	475.13
507.11	367.46
507.28	421.30
507.46	402.57
507.63	444.70
507.81	475.13
507.98	500.87
508.16	472.79
508.33	447.04
508.50	440.02
508.68	369.80
508.85	421.30
509.03	351.08
509.20	397.89
509.38	491.51
509.55	418.96
509.73	440.02
509.90	442.36
510.08	388.53
510.25	428.32
510.42	442.36
510.60	458.74
510.77	421.30
510.95	428.32
511.12	355.76
511.30	379.17
511.47	418.96
511.64	444.70
511.82	435.34
511.99	456.40
512.17	360.44
512.34	465.77
512.51	379.17
512.69	451.72
512.86	397.89
513.04	395.55
513.21	393.21
513.38	423.64
513.56	388.53
513.73	390.87
513.90	393.21
514.08	482.15
514.25	437.68
514.43	437.68
514.60	402.57
514.77	395.55
514.95	318.31
515.12	395.55
515.29	409.59
515.47	463.43
515.64	395.55
515.81	414.27
515.99	425.98
516.16	430.66
516.33	440.02
516.51	433.00
516.68	386.19
516.85	390.87
517.03	449.38
517.20	463.43
517.37	421.30
517.54	367.46
517.72	353.42
517.89	425.98
518.06	423.64
518.24	430.66
518.41	442.36
518.58	346.40
518.75	454.06
518.93	411.93
519.10	416.62
519.27	430.66
519.45	428.32
519.62	468.11
519.79	397.89
519.96	393.21
520.14	461.09
520.31	454.06
520.48	442.36
520.65	365.12
520.83	390.87
521.00	440.02
521.17	435.34
521.34	365.12
521.52	430.66
521.69	428.32
521.86	400.23
522.03	463.43
522.20	421.30
522.38	444.70
522.55	468.11
522.72	430.66
522.89	374.49
523.07	461.09
523.24	472.79
523.41	447.04
523.58	425.98
523.75	463.43
523.92	353.42
524.10	418.96
524.27	409.59
524.44	416.62
524.61	409.59
524.78	468.11
524.96	411.93
525.13	444.70
525.30	442.36
525.47	409.59
525.64	447.04
525.81	437.68
525.98	430.66
526.16	381.51
526.33	367.46
526.50	416.62
526.67	414.27
526.84	407.25
527.01	358.10
527.18	435.34
527.36	428.32
527.53	351.08
527.70	493.85
527.87	397.89
528.04	409.59
528.21	435.34
528.38	470.45
528.55	433.00
528.72	442.36
528.89	489.17
529.07	418.96
529.24	425.98
529.41	428.32
529.58	425.98
529.75	390.87
529.92	461.09
530.09	346.40
530.26	404.91
530.43	421.30
530.60	433.00
530.77	428.32
530.94	454.06
531.11	461.09
531.28	414.27
531.46	425.98
531.63	423.64
531.80	435.34
531.97	468.11
532.14	376.83
532.31	376.83
532.48	365.12
532.65	397.89
532.82	404.91
532.99	409.59
533.16	442.36
533.33	381.51
533.50	383.85
533.67	386.19
533.84	470.45
534.01	430.66
534.18	433.00
534.35	393.21
534.52	423.64
534.69	390.87
534.86	393.21
535.03	498.53
535.20	435.34
535.37	430.66
535.54	355.76
535.71	369.80
535.88	470.45
536.05	442.36
536.22	376.83
536.38	397.89
536.55	397.89
536.72	416.62
536.89	358.10
537.06	503.22
537.23	360.44
537.40	376.83
537.57	470.45
537.74	440.02
537.91	376.83
538.08	402.57
538.25	430.66
538.42	390.87
538.59	362.78
538.75	430.66
538.92	463.43
539.09	489.17
539.26	372.15
539.43	402.57
539.60	402.57
539.77	400.23
539.94	433.00
540.11	407.25
540.28	353.42
540.44	418.96
540.61	470.45
540.78	449.38
540.95	433.00
541.12	458.74
541.29	430.66
541.46	463.43
541.62	472.79
541.79	388.53
541.96	374.49
542.13	390.87
542.30	367.46
542.47	388.53
542.63	435.34
542.80	486.83
542.97	451.72
543.14	440.02
543.31	388.53
543.48	465.77
543.64	447.04
543.81	351.08
543.98	376.83
544.15	437.68
544.32	376.83
544.48	355.76
544.65	358.10
544.82	447.04
544.99	456.40
545.16	484.49
545.32	440.02
545.49	374.49
545.66	383.85
545.83	376.83
546.00	409.59
546.16	479.81
546.33	376.83
546.50	435.34
546.67	468.11
546.83	463.43
547.00	433.00
547.17	414.27
547.34	346.40
547.50	486.83
547.67	404.91
547.84	421.30
548.00	411.93
548.17	409.59
548.34	404.91
548.51	444.70
548.67	428.32
548.84	421.30
549.01	423.64
549.18	416.62
549.34	454.06
549.51	468.11
549.68	404.91
549.84	475.13
550.01	425.98
550.18	435.34
550.34	437.68
550.51	423.64
550.68	454.06
550.84	353.42
551.01	428.32
551.18	402.57
551.34	388.53
551.51	397.89
551.68	442.36
551.84	397.89
552.01	433.00
552.18	456.40
552.34	355.76
552.51	407.25
552.68	425.98
552.84	458.74
553.01	449.38
553.18	418.96
553.34	388.53
553.51	376.83
553.67	358.10
553.84	463.43
554.01	447.04
554.17	463.43
554.34	407.25
554.51	425.98
554.67	358.10
554.84	416.62
555.00	418.96
555.17	458.74
555.33	454.06
555.50	358.10
555.67	475.13
555.83	404.91
556.00	416.62
556.16	535.98
556.33	447.04
556.50	437.68
556.66	437.68
556.83	388.53
556.99	402.57
557.16	365.12
557.32	414.27
557.49	416.62
557.65	400.23
557.82	496.19
557.98	376.83
558.15	477.47
558.32	348.74
558.48	409.59
558.65	444.70
558.81	447.04
558.98	386.19
559.14	470.45
559.31	430.66
559.47	351.08
559.64	437.68
559.80	454.06
559.97	425.98
560.13	430.66
560.30	423.64
560.46	444.70
560.63	355.76
560.79	388.53
560.96	381.51
561.12	360.44
561.29	449.38
561.45	449.38
561.61	346.40
561.78	531.30
561.94	442.36
562.11	430.66
562.27	468.11
562.44	416.62
562.60	463.43
562.77	428.32
562.93	461.09
563.10	437.68
563.26	435.34
563.42	442.36
563.59	437.68
563.75	402.57
563.92	397.89
564.08	407.25
564.24	442.36
564.41	409.59
564.57	374.49
564.74	388.53
564.90	395.55
565.07	463.43
565.23	442.36
565.39	418.96
565.56	447.04
565.72	425.98
565.88	390.87
566.05	372.15
566.21	423.64
566.38	491.51
566.54	477.47
566.70	388.53
566.87	397.89
567.03	458.74
567.19	346.40
567.36	449.38
567.52	447.04
567.68	444.70
567.85	421.30
568.01	409.59
568.17	388.53
568.34	393.21
568.50	475.13
568.66	404.91
568.83	442.36
568.99	365.12
569.15	468.11
569.32	465.77
569.48	458.74
569.64	367.46
569.81	454.06
569.97	440.02
570.13	421.30
570.30	423.64
570.46	489.17
570.62	418.96
570.78	428.32
570.95	402.57
571.11	535.98
571.27	461.09
571.43	353.42
571.60	458.74
571.76	404.91
571.92	428.32
572.09	334.70
572.25	503.22
572.41	510.24
572.57	404.91
572.74	442.36
572.90	411.93
573.06	463.43
573.22	372.15
573.38	449.38
573.55	493.85
573.71	397.89
573.87	411.93
574.03	433.00
574.20	416.62
574.36	416.62
574.52	463.43
574.68	418.96
574.84	465.77
575.01	358.10
575.17	444.70
575.33	393.21
575.49	475.13
575.65	386.19
575.82	374.49
575.98	468.11
576.14	409.59
576.30	393.21
576.46	393.21
576.62	500.87
576.79	463.43
576.95	442.36
577.11	421.30
577.27	418.96
577.43	425.98
577.59	409.59
577.75	421.30
577.92	440.02
578.08	451.72
578.24	351.08
578.40	449.38
578.56	456.40
578.72	451.72
578.88	395.55
579.04	411.93
579.21	411.93
579.37	409.59
579.53	423.64
579.69	409.59
579.85	440.02
580.01	358.10
580.17	409.59
580.33	491.51
580.49	425.98
580.65	505.56
580.82	381.51
580.98	454.06
581.14	421.30
581.30	409.59
581.46	449.38
581.62	538.32
581.78	409.59
581.94	421.30
582.10	351.08
582.26	430.66
582.42	395.55
582.58	423.64
582.74	411.93
582.90	423.64
583.06	458.74
583.22	341.72
583.38	404.91
583.54	479.81
583.70	442.36
583.86	437.68
584.02	383.85
584.18	416.62
584.34	444.70
584.50	428.32
584.66	386.19
584.82	489.17
584.98	379.17
585.14	388.53
585.30	470.45
585.46	437.68
585.62	332.36
585.78	320.65
585.94	463.43
586.10	423.64
586.26	325.33
586.42	482.15
586.58	397.89
586.74	386.19
586.90	463.43
587.06	433.00
587.22	425.98
587.38	414.27
587.54	444.70
587.70	489.17
587.86	465.77
588.02	517.26
588.18	358.10
588.34	482.15
588.49	409.59
588.65	400.23
588.81	337.04
588.97	404.91
589.13	421.30
589.29	393.21
589.45	437.68
589.61	383.85
589.77	486.83
589.93	433.00
590.08	369.80
590.24	383.85
590.40	404.91
590.56	416.62
590.72	447.04
590.88	425.98
591.04	435.34
591.20	451.72
591.35	449.38
591.51	376.83
591.67	325.33
591.83	379.17
591.99	425.98
592.15	418.96
592.31	449.38
592.46	407.25
592.62	430.66
592.78	411.93
592.94	376.83
593.10	360.44
593.26	360.44
593.41	411.93
593.57	496.19
593.73	414.27
593.89	468.11
594.05	472.79
594.20	390.87
594.36	395.55
594.52	421.30
594.68	435.34
594.84	437.68
594.99	435.34
595.15	468.11
595.31	486.83
595.47	447.04
595.62	435.34
595.78	383.85
595.94	451.72
596.10	454.06
596.25	475.13
596.41	444.70
596.57	414.27
596.73	425.98
596.88	388.53
597.04	479.81
597.20	416.62
597.36	433.00
597.51	404.91
597.67	442.36
597.83	435.34
597.99	437.68
598.14	418.96
598.30	395.55
598.46	397.89
598.61	411.93
598.77	365.12
598.93	437.68
599.09	411.93
599.24	376.83
599.40	397.89
599.56	484.49
599.71	414.27
599.87	395.55
600.03	418.96
600.18	433.00
600.34	379.17
600.50	440.02
600.65	388.53
600.81	397.89
600.97	414.27
601.12	393.21
601.28	407.25
601.44	411.93
601.59	381.51
601.75	475.13
601.91	475.13
602.06	381.51
602.22	484.49
602.37	390.87
602.53	470.45
602.69	400.23
602.84	435.34
603.00	411.93
603.16	430.66
603.31	479.81
603.47	409.59
603.62	362.78
603.78	458.74
603.94	407.25
604.09	435.34
604.25	402.57
604.40	411.93
604.56	418.96
604.71	393.21
604.87	449.38
605.03	449.38
605.18	425.98
605.34	433.00
605.49	442.36
605.65	397.89
605.80	475.13
605.96	390.87
606.12	458.74
606.27	482.15
606.43	425.98
606.58	433.00
606.74	470.45
606.89	435.34
607.05	400.23
607.20	339.38
607.36	383.85
607.51	440.02
607.67	414.27
607.82	442.36
607.98	430.66
608.13	416.62
608.29	395.55
608.44	458.74
608.60	456.40
608.75	416.62
608.91	402.57
609.06	477.47
609.22	486.83
609.37	400.23
609.53	423.64
609.68	421.30
609.84	372.15
609.99	428.32
610.15	449.38
