SpectraSuite Data File
++++++++++++++++++++++++++++++++++++
Date: Fri Oct 25 12:11:33 EDT 2013
User: price-jones
Dark Spectrum Present: No
Reference Spectrum Present: No
Number of Sampled Component Spectra: 1
Spectrometers: USB2+H05261
Integration Time (usec): 100000 (USB2+H05261)
Spectra Averaged: 1 (USB2+H05261)
Boxcar Smoothing: 0 (USB2+H05261)
Correct for Electrical Dark: No (USB2+H05261)
Strobe/Lamp Enabled: No (USB2+H05261)
Correct for Detector Non-linearity: No (USB2+H05261)
Correct for Stray Light: No (USB2+H05261)
Number of Pixels in Processed Spectrum: 2048
>>>>>Begin Processed Spectral Data<<<<<
365.73	339.38
365.92	339.38
366.12	339.38
366.32	294.91
366.52	292.57
366.72	315.97
366.91	245.76
367.11	330.02
367.31	241.08
367.51	280.86
367.70	292.57
367.90	152.13
368.10	276.18
368.30	210.65
368.49	170.86
368.69	262.14
368.89	255.12
369.09	311.29
369.28	292.57
369.48	278.52
369.68	339.38
369.87	327.68
370.07	320.65
370.27	386.19
370.47	414.27
370.66	334.70
370.86	334.70
371.06	313.63
371.25	428.32
371.45	376.83
371.65	344.06
371.84	365.12
372.04	414.27
372.24	486.83
372.44	374.49
372.63	353.42
372.83	430.66
373.03	369.80
373.22	383.85
373.42	395.55
373.62	411.93
373.81	376.83
374.01	416.62
374.21	451.72
374.40	418.96
374.60	400.23
374.79	428.32
374.99	435.34
375.19	468.11
375.38	472.79
375.58	458.74
375.78	514.92
375.97	440.02
376.17	402.57
376.37	358.10
376.56	475.13
376.76	381.51
376.95	425.98
377.15	498.53
377.35	423.64
377.54	355.76
377.74	365.12
377.93	428.32
378.13	376.83
378.33	383.85
378.52	355.76
378.72	381.51
378.91	449.38
379.11	430.66
379.31	351.08
379.50	381.51
379.70	360.44
379.89	430.66
380.09	484.49
380.28	381.51
380.48	442.36
380.68	484.49
380.87	386.19
381.07	372.15
381.26	468.11
381.46	440.02
381.65	482.15
381.85	348.74
382.04	402.57
382.24	339.38
382.43	400.23
382.63	388.53
382.83	400.23
383.02	358.10
383.22	383.85
383.41	332.36
383.61	421.30
383.80	428.32
384.00	463.43
384.19	393.21
384.39	381.51
384.58	407.25
384.78	390.87
384.97	390.87
385.17	395.55
385.36	411.93
385.56	507.90
385.75	409.59
385.95	421.30
386.14	379.17
386.34	355.76
386.53	433.00
386.72	437.68
386.92	435.34
387.11	372.15
387.31	374.49
387.50	414.27
387.70	362.78
387.89	351.08
388.09	402.57
388.28	414.27
388.48	425.98
388.67	409.59
388.86	369.80
389.06	449.38
389.25	367.46
389.45	360.44
389.64	402.57
389.84	351.08
390.03	416.62
390.22	411.93
390.42	376.83
390.61	435.34
390.81	409.59
391.00	367.46
391.19	451.72
391.39	435.34
391.58	397.89
391.78	355.76
391.97	463.43
392.16	388.53
392.36	416.62
392.55	461.09
392.75	447.04
392.94	322.99
393.13	351.08
393.33	390.87
393.52	411.93
393.71	407.25
393.91	388.53
394.10	393.21
394.29	353.42
394.49	409.59
394.68	449.38
394.88	416.62
395.07	435.34
395.26	388.53
395.46	334.70
395.65	421.30
395.84	409.59
396.04	449.38
396.23	383.85
396.42	381.51
396.62	355.76
396.81	423.64
397.00	315.97
397.19	465.77
397.39	421.30
397.58	477.47
397.77	402.57
397.97	379.17
398.16	372.15
398.35	393.21
398.55	416.62
398.74	433.00
398.93	463.43
399.12	411.93
399.32	444.70
399.51	421.30
399.70	442.36
399.90	397.89
400.09	465.77
400.28	475.13
400.47	477.47
400.67	463.43
400.86	383.85
401.05	383.85
401.24	425.98
401.44	404.91
401.63	376.83
401.82	416.62
402.01	388.53
402.21	374.49
402.40	367.46
402.59	447.04
402.78	400.23
402.97	414.27
403.17	428.32
403.36	425.98
403.55	379.17
403.74	353.42
403.93	381.51
404.13	440.02
404.32	425.98
404.51	395.55
404.70	484.49
404.89	444.70
405.09	411.93
405.28	458.74
405.47	388.53
405.66	400.23
405.85	493.85
406.05	440.02
406.24	451.72
406.43	409.59
406.62	491.51
406.81	503.22
407.00	365.12
407.20	393.21
407.39	365.12
407.58	351.08
407.77	456.40
407.96	418.96
408.15	449.38
408.34	433.00
408.54	390.87
408.73	433.00
408.92	435.34
409.11	367.46
409.30	414.27
409.49	475.13
409.68	409.59
409.87	440.02
410.07	433.00
410.26	407.25
410.45	435.34
410.64	393.21
410.83	493.85
411.02	374.49
411.21	416.62
411.40	479.81
411.59	388.53
411.78	365.12
411.98	400.23
412.17	407.25
412.36	418.96
412.55	388.53
412.74	376.83
412.93	447.04
413.12	362.78
413.31	414.27
413.50	414.27
413.69	433.00
413.88	482.15
414.07	407.25
414.26	407.25
414.45	416.62
414.64	397.89
414.83	428.32
415.02	416.62
415.22	383.85
415.41	386.19
415.60	430.66
415.79	428.32
415.98	332.36
416.17	458.74
416.36	468.11
416.55	423.64
416.74	409.59
416.93	390.87
417.12	383.85
417.31	442.36
417.50	397.89
417.69	461.09
417.88	435.34
418.07	395.55
418.26	433.00
418.45	435.34
418.64	360.44
418.83	416.62
419.02	390.87
419.21	456.40
419.39	470.45
419.58	386.19
419.77	400.23
419.96	348.74
420.15	475.13
420.34	360.44
420.53	393.21
420.72	461.09
420.91	393.21
421.10	440.02
421.29	418.96
421.48	428.32
421.67	355.76
421.86	376.83
422.05	440.02
422.24	381.51
422.43	390.87
422.61	393.21
422.80	423.64
422.99	400.23
423.18	381.51
423.37	430.66
423.56	374.49
423.75	402.57
423.94	437.68
424.13	397.89
424.32	393.21
424.50	393.21
424.69	423.64
424.88	442.36
425.07	402.57
425.26	479.81
425.45	435.34
425.64	360.44
425.83	388.53
426.01	482.15
426.20	425.98
426.39	411.93
426.58	421.30
426.77	489.17
426.96	407.25
427.15	470.45
427.33	362.78
427.52	451.72
427.71	400.23
427.90	423.64
428.09	428.32
428.28	388.53
428.46	418.96
428.65	416.62
428.84	369.80
429.03	411.93
429.22	421.30
429.40	414.27
429.59	358.10
429.78	440.02
429.97	416.62
430.16	435.34
430.34	440.02
430.53	393.21
430.72	404.91
430.91	444.70
431.10	395.55
431.28	435.34
431.47	402.57
431.66	393.21
431.85	402.57
432.03	407.25
432.22	404.91
432.41	416.62
432.60	507.90
432.79	463.43
432.97	402.57
433.16	447.04
433.35	383.85
433.54	360.44
433.72	414.27
433.91	409.59
434.10	414.27
434.28	418.96
434.47	383.85
434.66	386.19
434.85	461.09
435.03	400.23
435.22	472.79
435.41	440.02
435.59	461.09
435.78	456.40
435.97	430.66
436.16	447.04
436.34	421.30
436.53	428.32
436.72	444.70
436.90	386.19
437.09	414.27
437.28	425.98
437.46	400.23
437.65	493.85
437.84	475.13
438.02	444.70
438.21	407.25
438.40	358.10
438.58	440.02
438.77	379.17
438.96	386.19
439.14	388.53
439.33	407.25
439.52	437.68
439.70	430.66
439.89	433.00
440.08	425.98
440.26	440.02
440.45	411.93
440.63	395.55
440.82	395.55
441.01	421.30
441.19	386.19
441.38	411.93
441.57	421.30
441.75	456.40
441.94	465.77
442.12	390.87
442.31	437.68
442.50	430.66
442.68	402.57
442.87	397.89
443.05	416.62
443.24	454.06
443.43	367.46
443.61	400.23
443.80	383.85
443.98	353.42
444.17	423.64
444.35	409.59
444.54	322.99
444.73	390.87
444.91	381.51
445.10	411.93
445.28	416.62
445.47	479.81
445.65	407.25
445.84	425.98
446.02	550.03
446.21	416.62
446.39	388.53
446.58	416.62
446.77	353.42
446.95	381.51
447.14	447.04
447.32	421.30
447.51	433.00
447.69	383.85
447.88	404.91
448.06	388.53
448.25	407.25
448.43	421.30
448.62	463.43
448.80	421.30
448.99	379.17
449.17	421.30
449.36	381.51
449.54	430.66
449.73	470.45
449.91	376.83
450.10	430.66
450.28	465.77
450.46	486.83
450.65	376.83
450.83	454.06
451.02	482.15
451.20	402.57
451.39	454.06
451.57	472.79
451.76	388.53
451.94	440.02
452.13	400.23
452.31	407.25
452.49	468.11
452.68	423.64
452.86	496.19
453.05	442.36
453.23	463.43
453.42	468.11
453.60	386.19
453.78	411.93
453.97	456.40
454.15	402.57
454.34	400.23
454.52	433.00
454.70	437.68
454.89	409.59
455.07	383.85
455.26	435.34
455.44	477.47
455.62	418.96
455.81	479.81
455.99	468.11
456.17	388.53
456.36	430.66
456.54	475.13
456.73	386.19
456.91	358.10
457.09	475.13
457.28	395.55
457.46	442.36
457.64	362.78
457.83	418.96
458.01	355.76
458.19	416.62
458.38	376.83
458.56	454.06
458.74	386.19
458.93	447.04
459.11	407.25
459.29	475.13
459.48	425.98
459.66	395.55
459.84	404.91
460.03	498.53
460.21	430.66
460.39	393.21
460.57	409.59
460.76	437.68
460.94	444.70
461.12	407.25
461.31	355.76
461.49	447.04
461.67	510.24
461.85	390.87
462.04	311.29
462.22	774.72
462.40	423.64
462.59	416.62
462.77	393.21
462.95	395.55
463.13	416.62
463.32	465.77
463.50	402.57
463.68	468.11
463.86	414.27
464.05	388.53
464.23	447.04
464.41	444.70
464.59	397.89
464.78	407.25
464.96	484.49
465.14	411.93
465.32	379.17
465.50	514.92
465.69	461.09
465.87	449.38
466.05	433.00
466.23	407.25
466.41	376.83
466.60	435.34
466.78	404.91
466.96	379.17
467.14	416.62
467.32	465.77
467.51	388.53
467.69	339.38
467.87	472.79
468.05	493.85
468.23	430.66
468.41	437.68
468.60	393.21
468.78	454.06
468.96	444.70
469.14	379.17
469.32	367.46
469.50	400.23
469.69	400.23
469.87	383.85
470.05	428.32
470.23	437.68
470.41	411.93
470.59	437.68
470.77	393.21
470.95	517.26
471.14	447.04
471.32	372.15
471.50	418.96
471.68	397.89
471.86	451.72
472.04	458.74
472.22	437.68
472.40	421.30
472.58	355.76
472.77	407.25
472.95	355.76
473.13	411.93
473.31	433.00
473.49	465.77
473.67	411.93
473.85	407.25
474.03	430.66
474.21	451.72
474.39	472.79
474.57	440.02
474.75	386.19
474.93	400.23
475.12	423.64
475.30	428.32
475.48	433.00
475.66	435.34
475.84	414.27
476.02	430.66
476.20	400.23
476.38	416.62
476.56	440.02
476.74	386.19
476.92	416.62
477.10	418.96
477.28	421.30
477.46	381.51
477.64	381.51
477.82	322.99
478.00	461.09
478.18	430.66
478.36	454.06
478.54	461.09
478.72	400.23
478.90	395.55
479.08	409.59
479.26	393.21
479.44	428.32
479.62	360.44
479.80	358.10
479.98	386.19
480.16	395.55
480.34	442.36
480.52	435.34
480.70	393.21
480.88	351.08
481.06	376.83
481.24	388.53
481.41	435.34
481.59	514.92
481.77	475.13
481.95	456.40
482.13	500.87
482.31	470.45
482.49	383.85
482.67	430.66
482.85	444.70
483.03	374.49
483.21	444.70
483.39	447.04
483.57	458.74
483.74	454.06
483.92	425.98
484.10	465.77
484.28	456.40
484.46	447.04
484.64	325.33
484.82	425.98
485.00	414.27
485.18	482.15
485.35	393.21
485.53	404.91
485.71	423.64
485.89	437.68
486.07	393.21
486.25	425.98
486.43	449.38
486.61	416.62
486.78	433.00
486.96	381.51
487.14	498.53
487.32	421.30
487.50	353.42
487.68	411.93
487.85	458.74
488.03	472.79
488.21	425.98
488.39	425.98
488.57	449.38
488.75	372.15
488.92	498.53
489.10	435.34
489.28	440.02
489.46	386.19
489.64	393.21
489.81	442.36
489.99	440.02
490.17	383.85
490.35	442.36
490.53	383.85
490.70	386.19
490.88	468.11
491.06	390.87
491.24	451.72
491.41	409.59
491.59	397.89
491.77	437.68
491.95	404.91
492.13	365.12
492.30	458.74
492.48	411.93
492.66	402.57
492.84	437.68
493.01	374.49
493.19	421.30
493.37	447.04
493.54	470.45
493.72	517.26
493.90	388.53
494.08	395.55
494.25	322.99
494.43	388.53
494.61	423.64
494.79	381.51
494.96	433.00
495.14	512.58
495.32	351.08
495.49	437.68
495.67	400.23
495.85	435.34
496.02	360.44
496.20	491.51
496.38	442.36
496.55	442.36
496.73	386.19
496.91	409.59
497.09	402.57
497.26	386.19
497.44	411.93
497.62	369.80
497.79	449.38
497.97	442.36
498.14	330.02
498.32	458.74
498.50	386.19
498.67	379.17
498.85	475.13
499.03	447.04
499.20	428.32
499.38	379.17
499.56	442.36
499.73	493.85
499.91	397.89
500.08	372.15
500.26	400.23
500.44	425.98
500.61	505.56
500.79	308.95
500.97	482.15
501.14	454.06
501.32	437.68
501.49	425.98
501.67	444.70
501.84	386.19
502.02	362.78
502.20	440.02
502.37	470.45
502.55	463.43
502.72	407.25
502.90	379.17
503.07	400.23
503.25	468.11
503.43	374.49
503.60	414.27
503.78	418.96
503.95	440.02
504.13	461.09
504.30	442.36
504.48	411.93
504.65	470.45
504.83	421.30
505.01	379.17
505.18	411.93
505.36	423.64
505.53	421.30
505.71	404.91
505.88	428.32
506.06	447.04
506.23	388.53
506.41	447.04
506.58	421.30
506.76	435.34
506.93	402.57
507.11	409.59
507.28	388.53
507.46	402.57
507.63	360.44
507.81	451.72
507.98	486.83
508.16	444.70
508.33	376.83
508.50	435.34
508.68	430.66
508.85	381.51
509.03	425.98
509.20	423.64
509.38	425.98
509.55	397.89
509.73	447.04
509.90	400.23
510.08	332.36
510.25	376.83
510.42	421.30
510.60	414.27
510.77	372.15
510.95	393.21
511.12	383.85
511.30	423.64
511.47	407.25
511.64	463.43
511.82	409.59
511.99	500.87
512.17	463.43
512.34	376.83
512.51	428.32
512.69	510.24
512.86	437.68
513.04	372.15
513.21	395.55
513.38	383.85
513.56	388.53
513.73	390.87
513.90	383.85
514.08	367.46
514.25	397.89
514.43	395.55
514.60	411.93
514.77	414.27
514.95	437.68
515.12	360.44
515.29	418.96
515.47	369.80
515.64	477.47
515.81	437.68
515.99	482.15
516.16	491.51
516.33	470.45
516.51	444.70
516.68	447.04
516.85	491.51
517.03	428.32
517.20	440.02
517.37	447.04
517.54	416.62
517.72	383.85
517.89	416.62
518.06	332.36
518.24	454.06
518.41	475.13
518.58	430.66
518.75	458.74
518.93	423.64
519.10	379.17
519.27	379.17
519.45	383.85
519.62	449.38
519.79	484.49
519.96	449.38
520.14	449.38
520.31	470.45
520.48	447.04
520.65	407.25
520.83	409.59
521.00	423.64
521.17	376.83
521.34	433.00
521.52	411.93
521.69	491.51
521.86	416.62
522.03	428.32
522.20	486.83
522.38	355.76
522.55	414.27
522.72	425.98
522.89	430.66
523.07	454.06
523.24	423.64
523.41	433.00
523.58	454.06
523.75	423.64
523.92	386.19
524.10	456.40
524.27	383.85
524.44	510.24
524.61	411.93
524.78	421.30
524.96	414.27
525.13	458.74
525.30	461.09
525.47	433.00
525.64	418.96
525.81	372.15
525.98	470.45
526.16	437.68
526.33	484.49
526.50	421.30
526.67	369.80
526.84	393.21
527.01	365.12
527.18	418.96
527.36	414.27
527.53	402.57
527.70	386.19
527.87	493.85
528.04	440.02
528.21	365.12
528.38	418.96
528.55	428.32
528.72	440.02
528.89	449.38
529.07	327.68
529.24	407.25
529.41	461.09
529.58	505.56
529.75	433.00
529.92	475.13
530.09	468.11
530.26	442.36
530.43	402.57
530.60	287.89
530.77	409.59
530.94	369.80
531.11	409.59
531.28	358.10
531.46	362.78
531.63	421.30
531.80	372.15
531.97	440.02
532.14	367.46
532.31	414.27
532.48	444.70
532.65	365.12
532.82	358.10
532.99	449.38
533.16	360.44
533.33	402.57
533.50	423.64
533.67	404.91
533.84	416.62
534.01	416.62
534.18	383.85
534.35	390.87
534.52	428.32
534.69	418.96
534.86	285.55
535.03	400.23
535.20	449.38
535.37	475.13
535.54	416.62
535.71	379.17
535.88	444.70
536.05	376.83
536.22	388.53
536.38	404.91
536.55	477.47
536.72	393.21
536.89	435.34
537.06	435.34
537.23	423.64
537.40	433.00
537.57	369.80
537.74	521.94
537.91	414.27
538.08	414.27
538.25	386.19
538.42	463.43
538.59	362.78
538.75	409.59
538.92	337.04
539.09	442.36
539.26	435.34
539.43	440.02
539.60	386.19
539.77	404.91
539.94	451.72
540.11	402.57
540.28	433.00
540.44	416.62
540.61	358.10
540.78	435.34
540.95	418.96
541.12	440.02
541.29	421.30
541.46	440.02
541.62	393.21
541.79	409.59
541.96	421.30
542.13	379.17
542.30	388.53
542.47	402.57
542.63	465.77
542.80	402.57
542.97	418.96
543.14	458.74
543.31	369.80
543.48	383.85
543.64	433.00
543.81	421.30
543.98	397.89
544.15	423.64
544.32	437.68
544.48	397.89
544.65	416.62
544.82	402.57
544.99	386.19
545.16	383.85
545.32	393.21
545.49	489.17
545.66	433.00
545.83	465.77
546.00	390.87
546.16	461.09
546.33	470.45
546.50	414.27
546.67	454.06
546.83	461.09
547.00	388.53
547.17	437.68
547.34	383.85
547.50	383.85
547.67	390.87
547.84	358.10
548.00	468.11
548.17	397.89
548.34	423.64
548.51	472.79
548.67	430.66
548.84	454.06
549.01	463.43
549.18	425.98
549.34	402.57
549.51	440.02
549.68	374.49
549.84	414.27
550.01	381.51
550.18	484.49
550.34	444.70
550.51	425.98
550.68	461.09
550.84	465.77
551.01	416.62
551.18	423.64
551.34	400.23
551.51	355.76
551.68	428.32
551.84	362.78
552.01	428.32
552.18	423.64
552.34	362.78
552.51	430.66
552.68	409.59
552.84	402.57
553.01	505.56
553.18	395.55
553.34	379.17
553.51	313.63
553.67	390.87
553.84	423.64
554.01	465.77
554.17	353.42
554.34	365.12
554.51	442.36
554.67	440.02
554.84	442.36
555.00	451.72
555.17	498.53
555.33	461.09
555.50	531.30
555.67	376.83
555.83	369.80
556.00	496.19
556.16	484.49
556.33	489.17
556.50	411.93
556.66	402.57
556.83	433.00
556.99	379.17
557.16	409.59
557.32	409.59
557.49	437.68
557.65	479.81
557.82	451.72
557.98	393.21
558.15	451.72
558.32	390.87
558.48	402.57
558.65	472.79
558.81	367.46
558.98	402.57
559.14	416.62
559.31	362.78
559.47	411.93
559.64	416.62
559.80	440.02
559.97	423.64
560.13	376.83
560.30	395.55
560.46	430.66
560.63	447.04
560.79	404.91
560.96	402.57
561.12	353.42
561.29	390.87
561.45	390.87
561.61	463.43
561.78	496.19
561.94	395.55
562.11	351.08
562.27	388.53
562.44	442.36
562.60	442.36
562.77	428.32
562.93	409.59
563.10	402.57
563.26	390.87
563.42	404.91
563.59	362.78
563.75	379.17
563.92	456.40
564.08	456.40
564.24	475.13
564.41	479.81
564.57	435.34
564.74	423.64
564.90	421.30
565.07	435.34
565.23	470.45
565.39	428.32
565.56	360.44
565.72	433.00
565.88	390.87
566.05	414.27
566.21	447.04
566.38	437.68
566.54	472.79
566.70	383.85
566.87	374.49
567.03	477.47
567.19	404.91
567.36	456.40
567.52	379.17
567.68	477.47
567.85	395.55
568.01	437.68
568.17	414.27
568.34	430.66
568.50	484.49
568.66	397.89
568.83	582.79
568.99	383.85
569.15	489.17
569.32	362.78
569.48	425.98
569.64	393.21
569.81	496.19
569.97	437.68
570.13	449.38
570.30	463.43
570.46	353.42
570.62	435.34
570.78	414.27
570.95	444.70
571.11	423.64
571.27	421.30
571.43	355.76
571.60	388.53
571.76	444.70
571.92	379.17
572.09	388.53
572.25	348.74
572.41	524.28
572.57	437.68
572.74	407.25
572.90	411.93
573.06	386.19
573.22	402.57
573.38	404.91
573.55	430.66
573.71	440.02
573.87	486.83
574.03	388.53
574.20	416.62
574.36	430.66
574.52	468.11
574.68	449.38
574.84	430.66
575.01	341.72
575.17	423.64
575.33	425.98
575.49	402.57
575.65	447.04
575.82	428.32
575.98	519.60
576.14	353.42
576.30	449.38
576.46	423.64
576.62	337.04
576.79	365.12
576.95	435.34
577.11	374.49
577.27	493.85
577.43	393.21
577.59	517.26
577.75	374.49
577.92	358.10
578.08	447.04
578.24	402.57
578.40	388.53
578.56	437.68
578.72	411.93
578.88	458.74
579.04	341.72
579.21	430.66
579.37	407.25
579.53	393.21
579.69	390.87
579.85	470.45
580.01	294.91
580.17	477.47
580.33	479.81
580.49	433.00
580.65	447.04
580.82	430.66
580.98	362.78
581.14	411.93
581.30	383.85
581.46	400.23
581.62	409.59
581.78	423.64
581.94	395.55
582.10	491.51
582.26	433.00
582.42	454.06
582.58	458.74
582.74	409.59
582.90	442.36
583.06	463.43
583.22	458.74
583.38	397.89
583.54	397.89
583.70	486.83
583.86	381.51
584.02	451.72
584.18	416.62
584.34	388.53
584.50	407.25
584.66	437.68
584.82	437.68
584.98	421.30
585.14	386.19
585.30	437.68
585.46	393.21
585.62	416.62
585.78	393.21
585.94	435.34
586.10	451.72
586.26	449.38
586.42	383.85
586.58	395.55
586.74	461.09
586.90	395.55
587.06	435.34
587.22	425.98
587.38	430.66
587.54	435.34
587.70	486.83
587.86	423.64
588.02	444.70
588.18	369.80
588.34	386.19
588.49	454.06
588.65	400.23
588.81	472.79
588.97	414.27
589.13	407.25
589.29	409.59
589.45	423.64
589.61	475.13
589.77	493.85
589.93	461.09
590.08	416.62
590.24	416.62
590.40	411.93
590.56	477.47
590.72	397.89
590.88	458.74
591.04	418.96
591.20	393.21
591.35	477.47
591.51	458.74
591.67	400.23
591.83	458.74
591.99	425.98
592.15	425.98
592.31	430.66
592.46	491.51
592.62	454.06
592.78	430.66
592.94	458.74
593.10	390.87
593.26	437.68
593.41	355.76
593.57	418.96
593.73	404.91
593.89	444.70
594.05	425.98
594.20	458.74
594.36	447.04
594.52	341.72
594.68	416.62
594.84	458.74
594.99	454.06
595.15	489.17
595.31	454.06
595.47	503.22
595.62	444.70
595.78	344.06
595.94	456.40
596.10	500.87
596.25	479.81
596.41	318.31
596.57	428.32
596.73	351.08
596.88	430.66
597.04	428.32
597.20	447.04
597.36	489.17
597.51	351.08
597.67	383.85
597.83	367.46
597.99	411.93
598.14	402.57
598.30	381.51
598.46	400.23
598.61	418.96
598.77	372.15
598.93	416.62
599.09	433.00
599.24	402.57
599.40	482.15
599.56	437.68
599.71	341.72
599.87	367.46
600.03	416.62
600.18	425.98
600.34	416.62
600.50	433.00
600.65	395.55
600.81	421.30
600.97	411.93
601.12	374.49
601.28	524.28
601.44	444.70
601.59	425.98
601.75	437.68
601.91	376.83
602.06	472.79
602.22	465.77
602.37	437.68
602.53	472.79
602.69	383.85
602.84	465.77
603.00	458.74
603.16	411.93
603.31	386.19
603.47	437.68
603.62	407.25
603.78	470.45
603.94	449.38
604.09	447.04
604.25	444.70
604.40	383.85
604.56	409.59
604.71	409.59
604.87	400.23
605.03	332.36
605.18	400.23
605.34	514.92
605.49	428.32
605.65	411.93
605.80	334.70
605.96	409.59
606.12	475.13
606.27	468.11
606.43	456.40
606.58	433.00
606.74	433.00
606.89	409.59
607.05	489.17
607.20	435.34
607.36	344.06
607.51	376.83
607.67	400.23
607.82	456.40
607.98	454.06
608.13	407.25
608.29	451.72
608.44	444.70
608.60	414.27
608.75	437.68
608.91	400.23
609.06	428.32
609.22	386.19
609.37	454.06
609.53	381.51
609.68	440.02
609.84	423.64
609.99	472.79
610.15	402.57
