SpectraSuite Data File
++++++++++++++++++++++++++++++++++++
Date: Fri Oct 25 12:11:09 EDT 2013
User: price-jones
Dark Spectrum Present: No
Reference Spectrum Present: No
Number of Sampled Component Spectra: 1
Spectrometers: USB2+H05261
Integration Time (usec): 100000 (USB2+H05261)
Spectra Averaged: 1 (USB2+H05261)
Boxcar Smoothing: 0 (USB2+H05261)
Correct for Electrical Dark: No (USB2+H05261)
Strobe/Lamp Enabled: No (USB2+H05261)
Correct for Detector Non-linearity: No (USB2+H05261)
Correct for Stray Light: No (USB2+H05261)
Number of Pixels in Processed Spectrum: 2048
>>>>>Begin Processed Spectral Data<<<<<
365.73	386.19
365.92	386.19
366.12	386.19
366.32	273.84
366.52	217.67
366.72	283.20
366.91	308.95
367.11	250.44
367.31	236.39
367.51	229.37
367.70	299.59
367.90	250.44
368.10	269.16
368.30	208.31
368.49	285.55
368.69	266.82
368.89	285.55
369.09	210.65
369.28	241.08
369.48	222.35
369.68	266.82
369.87	280.86
370.07	266.82
370.27	269.16
370.47	290.23
370.66	332.36
370.86	360.44
371.06	358.10
371.25	428.32
371.45	337.04
371.65	402.57
371.84	376.83
372.04	376.83
372.24	383.85
372.44	376.83
372.63	411.93
372.83	444.70
373.03	440.02
373.22	418.96
373.42	372.15
373.62	360.44
373.81	416.62
374.01	500.87
374.21	421.30
374.40	383.85
374.60	423.64
374.79	456.40
374.99	400.23
375.19	411.93
375.38	503.22
375.58	332.36
375.78	440.02
375.97	472.79
376.17	456.40
376.37	379.17
376.56	447.04
376.76	306.61
376.95	276.18
377.15	442.36
377.35	442.36
377.54	404.91
377.74	383.85
377.93	374.49
378.13	416.62
378.33	440.02
378.52	449.38
378.72	372.15
378.91	365.12
379.11	320.65
379.31	355.76
379.50	353.42
379.70	404.91
379.89	402.57
380.09	428.32
380.28	358.10
380.48	425.98
380.68	437.68
380.87	393.21
381.07	372.15
381.26	468.11
381.46	400.23
381.65	409.59
381.85	376.83
382.04	341.72
382.24	386.19
382.43	404.91
382.63	442.36
382.83	390.87
383.02	435.34
383.22	421.30
383.41	386.19
383.61	407.25
383.80	416.62
384.00	407.25
384.19	393.21
384.39	425.98
384.58	362.78
384.78	395.55
384.97	393.21
385.17	409.59
385.36	407.25
385.56	407.25
385.75	395.55
385.95	353.42
386.14	409.59
386.34	411.93
386.53	358.10
386.72	365.12
386.92	388.53
387.11	447.04
387.31	388.53
387.50	379.17
387.70	386.19
387.89	433.00
388.09	355.76
388.28	433.00
388.48	393.21
388.67	444.70
388.86	304.27
389.06	407.25
389.25	409.59
389.45	383.85
389.64	470.45
389.84	355.76
390.03	365.12
390.22	313.63
390.42	362.78
390.61	433.00
390.81	386.19
391.00	411.93
391.19	433.00
391.39	456.40
391.58	379.17
391.78	430.66
391.97	414.27
392.16	388.53
392.36	379.17
392.55	386.19
392.75	418.96
392.94	416.62
393.13	456.40
393.33	362.78
393.52	395.55
393.71	475.13
393.91	369.80
394.10	400.23
394.29	456.40
394.49	425.98
394.68	414.27
394.88	379.17
395.07	402.57
395.26	402.57
395.46	442.36
395.65	369.80
395.84	486.83
396.04	470.45
396.23	369.80
396.42	400.23
396.62	351.08
396.81	428.32
397.00	402.57
397.19	339.38
397.39	411.93
397.58	348.74
397.77	353.42
397.97	383.85
398.16	430.66
398.35	416.62
398.55	374.49
398.74	465.77
398.93	458.74
399.12	383.85
399.32	379.17
399.51	454.06
399.70	348.74
399.90	393.21
400.09	397.89
400.28	414.27
400.47	355.76
400.67	362.78
400.86	369.80
401.05	362.78
401.24	437.68
401.44	388.53
401.63	388.53
401.82	468.11
402.01	400.23
402.21	442.36
402.40	430.66
402.59	407.25
402.78	273.84
402.97	411.93
403.17	404.91
403.36	358.10
403.55	418.96
403.74	355.76
403.93	369.80
404.13	418.96
404.32	421.30
404.51	423.64
404.70	376.83
404.89	477.47
405.09	402.57
405.28	407.25
405.47	463.43
405.66	393.21
405.85	407.25
406.05	341.72
406.24	376.83
406.43	423.64
406.62	372.15
406.81	404.91
407.00	341.72
407.20	456.40
407.39	381.51
407.58	400.23
407.77	404.91
407.96	442.36
408.15	477.47
408.34	456.40
408.54	393.21
408.73	414.27
408.92	409.59
409.11	334.70
409.30	440.02
409.49	411.93
409.68	404.91
409.87	437.68
410.07	393.21
410.26	402.57
410.45	369.80
410.64	383.85
410.83	435.34
411.02	397.89
411.21	404.91
411.40	379.17
411.59	442.36
411.78	402.57
411.98	414.27
412.17	404.91
412.36	425.98
412.55	390.87
412.74	447.04
412.93	411.93
413.12	456.40
413.31	458.74
413.50	367.46
413.69	393.21
413.88	423.64
414.07	425.98
414.26	456.40
414.45	351.08
414.64	376.83
414.83	374.49
415.02	400.23
415.22	416.62
415.41	461.09
415.60	411.93
415.79	444.70
415.98	374.49
416.17	416.62
416.36	437.68
416.55	447.04
416.74	397.89
416.93	376.83
417.12	416.62
417.31	346.40
417.50	454.06
417.69	470.45
417.88	374.49
418.07	348.74
418.26	442.36
418.45	414.27
418.64	489.17
418.83	437.68
419.02	458.74
419.21	423.64
419.39	463.43
419.58	381.51
419.77	330.02
419.96	435.34
420.15	418.96
420.34	409.59
420.53	456.40
420.72	437.68
420.91	418.96
421.10	477.47
421.29	456.40
421.48	451.72
421.67	463.43
421.86	353.42
422.05	372.15
422.24	465.77
422.43	477.47
422.61	374.49
422.80	407.25
422.99	402.57
423.18	423.64
423.37	393.21
423.56	393.21
423.75	444.70
423.94	430.66
424.13	414.27
424.32	355.76
424.50	411.93
424.69	418.96
424.88	535.98
425.07	468.11
425.26	456.40
425.45	409.59
425.64	407.25
425.83	428.32
426.01	421.30
426.20	411.93
426.39	414.27
426.58	332.36
426.77	449.38
426.96	411.93
427.15	397.89
427.33	330.02
427.52	395.55
427.71	390.87
427.90	409.59
428.09	421.30
428.28	425.98
428.46	404.91
428.65	479.81
428.84	404.91
429.03	414.27
429.22	407.25
429.40	416.62
429.59	414.27
429.78	421.30
429.97	395.55
430.16	372.15
430.34	367.46
430.53	362.78
430.72	362.78
430.91	437.68
431.10	390.87
431.28	409.59
431.47	475.13
431.66	395.55
431.85	369.80
432.03	486.83
432.22	423.64
432.41	358.10
432.60	416.62
432.79	355.76
432.97	423.64
433.16	348.74
433.35	421.30
433.54	372.15
433.72	423.64
433.91	390.87
434.10	437.68
434.28	337.04
434.47	383.85
434.66	376.83
434.85	376.83
435.03	447.04
435.22	461.09
435.41	468.11
435.59	425.98
435.78	390.87
435.97	428.32
436.16	444.70
436.34	346.40
436.53	372.15
436.72	461.09
436.90	409.59
437.09	402.57
437.28	383.85
437.46	407.25
437.65	475.13
437.84	411.93
438.02	435.34
438.21	442.36
438.40	418.96
438.58	379.17
438.77	402.57
438.96	418.96
439.14	404.91
439.33	456.40
439.52	407.25
439.70	430.66
439.89	433.00
440.08	461.09
440.26	409.59
440.45	425.98
440.63	409.59
440.82	393.21
441.01	355.76
441.19	433.00
441.38	407.25
441.57	339.38
441.75	416.62
441.94	433.00
442.12	414.27
442.31	416.62
442.50	454.06
442.68	388.53
442.87	402.57
443.05	454.06
443.24	402.57
443.43	442.36
443.61	374.49
443.80	386.19
443.98	433.00
444.17	472.79
444.35	449.38
444.54	388.53
444.73	407.25
444.91	477.47
445.10	435.34
445.28	365.12
445.47	367.46
445.65	402.57
445.84	435.34
446.02	409.59
446.21	351.08
446.39	390.87
446.58	435.34
446.77	369.80
446.95	411.93
447.14	486.83
447.32	456.40
447.51	444.70
447.69	374.49
447.88	404.91
448.06	414.27
448.25	456.40
448.43	421.30
448.62	435.34
448.80	376.83
448.99	367.46
449.17	374.49
449.36	404.91
449.54	433.00
449.73	383.85
449.91	421.30
450.10	470.45
450.28	454.06
450.46	393.21
450.65	433.00
450.83	475.13
451.02	442.36
451.20	395.55
451.39	325.33
451.57	404.91
451.76	379.17
451.94	437.68
452.13	393.21
452.31	533.64
452.49	428.32
452.68	362.78
452.86	353.42
453.05	437.68
453.23	440.02
453.42	451.72
453.60	374.49
453.78	458.74
453.97	376.83
454.15	383.85
454.34	404.91
454.52	381.51
454.70	465.77
454.89	484.49
455.07	433.00
455.26	547.69
455.44	428.32
455.62	397.89
455.81	407.25
455.99	404.91
456.17	330.02
456.36	477.47
456.54	409.59
456.73	386.19
456.91	388.53
457.09	451.72
457.28	519.60
457.46	360.44
457.64	421.30
457.83	360.44
458.01	416.62
458.19	374.49
458.38	397.89
458.56	430.66
458.74	353.42
458.93	386.19
459.11	423.64
459.29	381.51
459.48	395.55
459.66	411.93
459.84	468.11
460.03	533.64
460.21	479.81
460.39	395.55
460.57	482.15
460.76	411.93
460.94	477.47
461.12	454.06
461.31	472.79
461.49	360.44
461.67	430.66
461.85	400.23
462.04	468.11
462.22	758.33
462.40	435.34
462.59	447.04
462.77	418.96
462.95	402.57
463.13	414.27
463.32	379.17
463.50	496.19
463.68	369.80
463.86	411.93
464.05	465.77
464.23	395.55
464.41	404.91
464.59	397.89
464.78	390.87
464.96	440.02
465.14	390.87
465.32	449.38
465.50	456.40
465.69	407.25
465.87	346.40
466.05	449.38
466.23	344.06
466.41	355.76
466.60	393.21
466.78	416.62
466.96	381.51
467.14	407.25
467.32	433.00
467.51	430.66
467.69	440.02
467.87	484.49
468.05	461.09
468.23	404.91
468.41	390.87
468.60	437.68
468.78	411.93
468.96	383.85
469.14	461.09
469.32	346.40
469.50	414.27
469.69	430.66
469.87	465.77
470.05	393.21
470.23	475.13
470.41	447.04
470.59	388.53
470.77	458.74
470.95	348.74
471.14	433.00
471.32	404.91
471.50	491.51
471.68	395.55
471.86	461.09
472.04	428.32
472.22	390.87
472.40	393.21
472.58	444.70
472.77	400.23
472.95	365.12
473.13	404.91
473.31	430.66
473.49	409.59
473.67	411.93
473.85	404.91
474.03	458.74
474.21	531.30
474.39	503.22
474.57	491.51
474.75	390.87
474.93	388.53
475.12	332.36
475.30	365.12
475.48	383.85
475.66	428.32
475.84	425.98
476.02	416.62
476.20	507.90
476.38	407.25
476.56	461.09
476.74	428.32
476.92	475.13
477.10	489.17
477.28	404.91
477.46	393.21
477.64	414.27
477.82	404.91
478.00	444.70
478.18	428.32
478.36	393.21
478.54	367.46
478.72	348.74
478.90	411.93
479.08	388.53
479.26	353.42
479.44	430.66
479.62	337.04
479.80	475.13
479.98	461.09
480.16	367.46
480.34	390.87
480.52	402.57
480.70	451.72
480.88	409.59
481.06	421.30
481.24	344.06
481.41	388.53
481.59	339.38
481.77	456.40
481.95	435.34
482.13	341.72
482.31	397.89
482.49	510.24
482.67	374.49
482.85	388.53
483.03	454.06
483.21	440.02
483.39	362.78
483.57	390.87
483.74	409.59
483.92	435.34
484.10	376.83
484.28	397.89
484.46	484.49
484.64	390.87
484.82	411.93
485.00	362.78
485.18	428.32
485.35	456.40
485.53	397.89
485.71	468.11
485.89	416.62
486.07	353.42
486.25	489.17
486.43	442.36
486.61	402.57
486.78	416.62
486.96	404.91
487.14	440.02
487.32	402.57
487.50	365.12
487.68	416.62
487.85	404.91
488.03	440.02
488.21	475.13
488.39	425.98
488.57	433.00
488.75	397.89
488.92	416.62
489.10	372.15
489.28	444.70
489.46	383.85
489.64	418.96
489.81	344.06
489.99	447.04
490.17	379.17
490.35	451.72
490.53	388.53
490.70	409.59
490.88	416.62
491.06	479.81
491.24	390.87
491.41	386.19
491.59	458.74
491.77	379.17
491.95	346.40
492.13	383.85
492.30	353.42
492.48	376.83
492.66	465.77
492.84	425.98
493.01	435.34
493.19	442.36
493.37	472.79
493.54	411.93
493.72	390.87
493.90	381.51
494.08	360.44
494.25	348.74
494.43	442.36
494.61	322.99
494.79	454.06
494.96	353.42
495.14	472.79
495.32	461.09
495.49	425.98
495.67	416.62
495.85	409.59
496.02	402.57
496.20	416.62
496.38	409.59
496.55	425.98
496.73	451.72
496.91	397.89
497.09	442.36
497.26	414.27
497.44	404.91
497.62	409.59
497.79	423.64
497.97	400.23
498.14	477.47
498.32	416.62
498.50	444.70
498.67	425.98
498.85	390.87
499.03	351.08
499.20	400.23
499.38	383.85
499.56	393.21
499.73	510.24
499.91	465.77
500.08	425.98
500.26	409.59
500.44	447.04
500.61	442.36
500.79	362.78
500.97	397.89
501.14	369.80
501.32	355.76
501.49	374.49
501.67	332.36
501.84	395.55
502.02	414.27
502.20	423.64
502.37	416.62
502.55	407.25
502.72	355.76
502.90	395.55
503.07	395.55
503.25	430.66
503.43	425.98
503.60	411.93
503.78	444.70
503.95	447.04
504.13	435.34
504.30	390.87
504.48	407.25
504.65	451.72
504.83	379.17
505.01	397.89
505.18	400.23
505.36	395.55
505.53	416.62
505.71	414.27
505.88	437.68
506.06	437.68
506.23	404.91
506.41	390.87
506.58	383.85
506.76	468.11
506.93	451.72
507.11	454.06
507.28	395.55
507.46	407.25
507.63	397.89
507.81	433.00
507.98	414.27
508.16	353.42
508.33	383.85
508.50	475.13
508.68	451.72
508.85	430.66
509.03	367.46
509.20	355.76
509.38	423.64
509.55	470.45
509.73	461.09
509.90	376.83
510.08	339.38
510.25	451.72
510.42	365.12
510.60	409.59
510.77	381.51
510.95	418.96
511.12	362.78
511.30	402.57
511.47	411.93
511.64	435.34
511.82	414.27
511.99	425.98
512.17	416.62
512.34	449.38
512.51	367.46
512.69	489.17
512.86	451.72
513.04	458.74
513.21	414.27
513.38	407.25
513.56	369.80
513.73	414.27
513.90	369.80
514.08	369.80
514.25	362.78
514.43	414.27
514.60	407.25
514.77	367.46
514.95	397.89
515.12	376.83
515.29	418.96
515.47	409.59
515.64	442.36
515.81	395.55
515.99	498.53
516.16	418.96
516.33	456.40
516.51	454.06
516.68	418.96
516.85	456.40
517.03	416.62
517.20	407.25
517.37	468.11
517.54	390.87
517.72	376.83
517.89	414.27
518.06	353.42
518.24	379.17
518.41	425.98
518.58	517.26
518.75	365.12
518.93	379.17
519.10	416.62
519.27	402.57
519.45	475.13
519.62	463.43
519.79	388.53
519.96	386.19
520.14	451.72
520.31	374.49
520.48	461.09
520.65	416.62
520.83	388.53
521.00	486.83
521.17	500.87
521.34	447.04
521.52	449.38
521.69	456.40
521.86	381.51
522.03	376.83
522.20	435.34
522.38	400.23
522.55	437.68
522.72	444.70
522.89	449.38
523.07	475.13
523.24	458.74
523.41	449.38
523.58	404.91
523.75	447.04
523.92	344.06
524.10	386.19
524.27	425.98
524.44	423.64
524.61	484.49
524.78	449.38
524.96	404.91
525.13	407.25
525.30	472.79
525.47	449.38
525.64	397.89
525.81	400.23
525.98	468.11
526.16	414.27
526.33	430.66
526.50	484.49
526.67	346.40
526.84	372.15
527.01	393.21
527.18	498.53
527.36	402.57
527.53	435.34
527.70	395.55
527.87	393.21
528.04	458.74
528.21	440.02
528.38	437.68
528.55	428.32
528.72	409.59
528.89	442.36
529.07	376.83
529.24	418.96
529.41	465.77
529.58	414.27
529.75	388.53
529.92	337.04
530.09	409.59
530.26	430.66
530.43	409.59
530.60	348.74
530.77	362.78
530.94	416.62
531.11	468.11
531.28	449.38
531.46	388.53
531.63	423.64
531.80	456.40
531.97	386.19
532.14	374.49
532.31	353.42
532.48	402.57
532.65	416.62
532.82	339.38
532.99	388.53
533.16	367.46
533.33	404.91
533.50	418.96
533.67	372.15
533.84	402.57
534.01	404.91
534.18	444.70
534.35	414.27
534.52	372.15
534.69	451.72
534.86	433.00
535.03	428.32
535.20	369.80
535.37	402.57
535.54	449.38
535.71	433.00
535.88	468.11
536.05	348.74
536.22	451.72
536.38	407.25
536.55	442.36
536.72	444.70
536.89	461.09
537.06	346.40
537.23	456.40
537.40	362.78
537.57	414.27
537.74	468.11
537.91	402.57
538.08	409.59
538.25	395.55
538.42	404.91
538.59	365.12
538.75	379.17
538.92	444.70
539.09	414.27
539.26	425.98
539.43	444.70
539.60	430.66
539.77	447.04
539.94	404.91
540.11	395.55
540.28	451.72
540.44	428.32
540.61	465.77
540.78	365.12
540.95	376.83
541.12	449.38
541.29	458.74
541.46	365.12
541.62	388.53
541.79	456.40
541.96	456.40
542.13	449.38
542.30	470.45
542.47	374.49
542.63	437.68
542.80	425.98
542.97	444.70
543.14	397.89
543.31	433.00
543.48	503.22
543.64	386.19
543.81	461.09
543.98	407.25
544.15	367.46
544.32	447.04
544.48	383.85
544.65	461.09
544.82	390.87
544.99	386.19
545.16	461.09
545.32	365.12
545.49	477.47
545.66	358.10
545.83	334.70
546.00	404.91
546.16	435.34
546.33	425.98
546.50	440.02
546.67	526.62
546.83	440.02
547.00	400.23
547.17	454.06
547.34	395.55
547.50	393.21
547.67	451.72
547.84	458.74
548.00	395.55
548.17	407.25
548.34	454.06
548.51	423.64
548.67	386.19
548.84	430.66
549.01	421.30
549.18	440.02
549.34	458.74
549.51	463.43
549.68	425.98
549.84	421.30
550.01	390.87
550.18	435.34
550.34	418.96
550.51	461.09
550.68	454.06
550.84	372.15
551.01	425.98
551.18	437.68
551.34	379.17
551.51	430.66
551.68	482.15
551.84	416.62
552.01	400.23
552.18	449.38
552.34	404.91
552.51	435.34
552.68	470.45
552.84	423.64
553.01	421.30
553.18	503.22
553.34	386.19
553.51	367.46
553.67	397.89
553.84	428.32
554.01	397.89
554.17	442.36
554.34	423.64
554.51	425.98
554.67	404.91
554.84	404.91
555.00	367.46
555.17	393.21
555.33	388.53
555.50	458.74
555.67	442.36
555.83	365.12
556.00	407.25
556.16	484.49
556.33	337.04
556.50	353.42
556.66	496.19
556.83	447.04
556.99	430.66
557.16	360.44
557.32	454.06
557.49	393.21
557.65	367.46
557.82	327.68
557.98	414.27
558.15	461.09
558.32	465.77
558.48	414.27
558.65	484.49
558.81	423.64
558.98	407.25
559.14	435.34
559.31	440.02
559.47	454.06
559.64	390.87
559.80	386.19
559.97	402.57
560.13	423.64
560.30	444.70
560.46	390.87
560.63	388.53
560.79	421.30
560.96	428.32
561.12	428.32
561.29	374.49
561.45	465.77
561.61	430.66
561.78	531.30
561.94	421.30
562.11	402.57
562.27	369.80
562.44	334.70
562.60	444.70
562.77	435.34
562.93	470.45
563.10	379.17
563.26	409.59
563.42	451.72
563.59	433.00
563.75	428.32
563.92	407.25
564.08	416.62
564.24	505.56
564.41	430.66
564.57	360.44
564.74	449.38
564.90	400.23
565.07	425.98
565.23	435.34
565.39	456.40
565.56	463.43
565.72	461.09
565.88	376.83
566.05	404.91
566.21	465.77
566.38	418.96
566.54	407.25
566.70	423.64
566.87	416.62
567.03	423.64
567.19	498.53
567.36	442.36
567.52	435.34
567.68	428.32
567.85	472.79
568.01	468.11
568.17	404.91
568.34	463.43
568.50	428.32
568.66	442.36
568.83	416.62
568.99	430.66
569.15	414.27
569.32	369.80
569.48	388.53
569.64	505.56
569.81	468.11
569.97	444.70
570.13	414.27
570.30	468.11
570.46	428.32
570.62	468.11
570.78	454.06
570.95	362.78
571.11	440.02
571.27	386.19
571.43	367.46
571.60	404.91
571.76	339.38
571.92	435.34
572.09	388.53
572.25	402.57
572.41	428.32
572.57	381.51
572.74	374.49
572.90	383.85
573.06	418.96
573.22	407.25
573.38	463.43
573.55	449.38
573.71	376.83
573.87	374.49
574.03	407.25
574.20	435.34
574.36	386.19
574.52	409.59
574.68	489.17
574.84	374.49
575.01	433.00
575.17	500.87
575.33	372.15
575.49	475.13
575.65	482.15
575.82	409.59
575.98	458.74
576.14	395.55
576.30	332.36
576.46	418.96
576.62	491.51
576.79	400.23
576.95	463.43
577.11	472.79
577.27	409.59
577.43	428.32
577.59	407.25
577.75	425.98
577.92	486.83
578.08	383.85
578.24	444.70
578.40	479.81
578.56	444.70
578.72	468.11
578.88	463.43
579.04	411.93
579.21	449.38
579.37	411.93
579.53	409.59
579.69	379.17
579.85	322.99
580.01	425.98
580.17	414.27
580.33	411.93
580.49	435.34
580.65	468.11
580.82	447.04
580.98	360.44
581.14	367.46
581.30	430.66
581.46	475.13
581.62	456.40
581.78	489.17
581.94	458.74
582.10	376.83
582.26	397.89
582.42	421.30
582.58	435.34
582.74	402.57
582.90	381.51
583.06	430.66
583.22	381.51
583.38	409.59
583.54	423.64
583.70	428.32
583.86	465.77
584.02	379.17
584.18	465.77
584.34	409.59
584.50	383.85
584.66	404.91
584.82	433.00
584.98	407.25
585.14	411.93
585.30	416.62
585.46	454.06
585.62	414.27
585.78	435.34
585.94	407.25
586.10	388.53
586.26	381.51
586.42	414.27
586.58	458.74
586.74	395.55
586.90	400.23
587.06	393.21
587.22	440.02
587.38	409.59
587.54	423.64
587.70	367.46
587.86	444.70
588.02	416.62
588.18	484.49
588.34	358.10
588.49	381.51
588.65	442.36
588.81	458.74
588.97	425.98
589.13	421.30
589.29	470.45
589.45	454.06
589.61	402.57
589.77	383.85
589.93	449.38
590.08	395.55
590.24	390.87
590.40	393.21
590.56	358.10
590.72	341.72
590.88	360.44
591.04	325.33
591.20	433.00
591.35	454.06
591.51	428.32
591.67	374.49
591.83	447.04
591.99	407.25
592.15	397.89
592.31	447.04
592.46	416.62
592.62	369.80
592.78	355.76
592.94	435.34
593.10	388.53
593.26	381.51
593.41	367.46
593.57	409.59
593.73	451.72
593.89	395.55
594.05	374.49
594.20	442.36
594.36	381.51
594.52	397.89
594.68	444.70
594.84	416.62
594.99	393.21
595.15	444.70
595.31	400.23
595.47	500.87
595.62	372.15
595.78	421.30
595.94	404.91
596.10	470.45
596.25	390.87
596.41	418.96
596.57	430.66
596.73	435.34
596.88	414.27
597.04	437.68
597.20	360.44
597.36	428.32
597.51	437.68
597.67	353.42
597.83	416.62
597.99	362.78
598.14	435.34
598.30	414.27
598.46	386.19
598.61	433.00
598.77	397.89
598.93	416.62
599.09	503.22
599.24	379.17
599.40	489.17
599.56	423.64
599.71	440.02
599.87	404.91
600.03	374.49
600.18	440.02
600.34	390.87
600.50	407.25
600.65	477.47
600.81	388.53
600.97	409.59
601.12	402.57
601.28	400.23
601.44	433.00
601.59	433.00
601.75	425.98
601.91	440.02
602.06	404.91
602.22	435.34
602.37	358.10
602.53	400.23
602.69	372.15
602.84	472.79
603.00	411.93
603.16	500.87
603.31	482.15
603.47	407.25
603.62	433.00
603.78	407.25
603.94	468.11
604.09	435.34
604.25	440.02
604.40	454.06
604.56	337.04
604.71	407.25
604.87	395.55
605.03	327.68
605.18	433.00
605.34	407.25
605.49	421.30
605.65	381.51
605.80	409.59
605.96	383.85
606.12	418.96
606.27	407.25
606.43	402.57
606.58	402.57
606.74	414.27
606.89	414.27
607.05	383.85
607.20	402.57
607.36	386.19
607.51	341.72
607.67	423.64
607.82	407.25
607.98	386.19
608.13	351.08
608.29	386.19
608.44	355.76
608.60	440.02
608.75	456.40
608.91	449.38
609.06	437.68
609.22	461.09
609.37	428.32
609.53	449.38
609.68	433.00
609.84	442.36
609.99	397.89
610.15	423.64
