SpectraSuite Data File
++++++++++++++++++++++++++++++++++++
Date: Fri Oct 25 12:11:46 EDT 2013
User: price-jones
Dark Spectrum Present: No
Reference Spectrum Present: No
Number of Sampled Component Spectra: 1
Spectrometers: USB2+H05261
Integration Time (usec): 100000 (USB2+H05261)
Spectra Averaged: 1 (USB2+H05261)
Boxcar Smoothing: 0 (USB2+H05261)
Correct for Electrical Dark: No (USB2+H05261)
Strobe/Lamp Enabled: No (USB2+H05261)
Correct for Detector Non-linearity: No (USB2+H05261)
Correct for Stray Light: No (USB2+H05261)
Number of Pixels in Processed Spectrum: 2048
>>>>>Begin Processed Spectral Data<<<<<
365.73	351.08
365.92	351.08
366.12	351.08
366.32	248.10
366.52	294.91
366.72	315.97
366.91	177.88
367.11	276.18
367.31	285.55
367.51	252.78
367.70	170.86
367.90	264.48
368.10	269.16
368.30	238.73
368.49	264.48
368.69	276.18
368.89	257.46
369.09	287.89
369.28	243.42
369.48	308.95
369.68	313.63
369.87	280.86
370.07	276.18
370.27	320.65
370.47	346.40
370.66	332.36
370.86	311.29
371.06	409.59
371.25	346.40
371.45	351.08
371.65	383.85
371.84	383.85
372.04	332.36
372.24	332.36
372.44	454.06
372.63	397.89
372.83	374.49
373.03	395.55
373.22	381.51
373.42	449.38
373.62	416.62
373.81	362.78
374.01	449.38
374.21	433.00
374.40	383.85
374.60	461.09
374.79	362.78
374.99	388.53
375.19	456.40
375.38	468.11
375.58	341.72
375.78	440.02
375.97	423.64
376.17	547.69
376.37	383.85
376.56	444.70
376.76	376.83
376.95	407.25
377.15	418.96
377.35	386.19
377.54	437.68
377.74	402.57
377.93	383.85
378.13	435.34
378.33	418.96
378.52	379.17
378.72	493.85
378.91	425.98
379.11	395.55
379.31	416.62
379.50	428.32
379.70	397.89
379.89	451.72
380.09	402.57
380.28	470.45
380.48	381.51
380.68	428.32
380.87	395.55
381.07	491.51
381.26	437.68
381.46	360.44
381.65	433.00
381.85	447.04
382.04	388.53
382.24	425.98
382.43	346.40
382.63	330.02
382.83	388.53
383.02	425.98
383.22	475.13
383.41	433.00
383.61	407.25
383.80	489.17
384.00	344.06
384.19	376.83
384.39	425.98
384.58	421.30
384.78	369.80
384.97	418.96
385.17	409.59
385.36	341.72
385.56	425.98
385.75	374.49
385.95	418.96
386.14	390.87
386.34	341.72
386.53	372.15
386.72	430.66
386.92	475.13
387.11	463.43
387.31	421.30
387.50	435.34
387.70	416.62
387.89	390.87
388.09	414.27
388.28	372.15
388.48	393.21
388.67	421.30
388.86	470.45
389.06	388.53
389.25	425.98
389.45	423.64
389.64	304.27
389.84	358.10
390.03	383.85
390.22	360.44
390.42	358.10
390.61	362.78
390.81	386.19
391.00	442.36
391.19	477.47
391.39	411.93
391.58	404.91
391.78	320.65
391.97	470.45
392.16	362.78
392.36	416.62
392.55	493.85
392.75	444.70
392.94	447.04
393.13	491.51
393.33	465.77
393.52	355.76
393.71	423.64
393.91	327.68
394.10	423.64
394.29	374.49
394.49	449.38
394.68	456.40
394.88	402.57
395.07	409.59
395.26	461.09
395.46	327.68
395.65	465.77
395.84	458.74
396.04	475.13
396.23	379.17
396.42	397.89
396.62	475.13
396.81	428.32
397.00	379.17
397.19	348.74
397.39	409.59
397.58	463.43
397.77	433.00
397.97	400.23
398.16	358.10
398.35	454.06
398.55	393.21
398.74	402.57
398.93	402.57
399.12	442.36
399.32	404.91
399.51	390.87
399.70	423.64
399.90	369.80
400.09	400.23
400.28	393.21
400.47	395.55
400.67	486.83
400.86	425.98
401.05	381.51
401.24	400.23
401.44	407.25
401.63	435.34
401.82	433.00
402.01	355.76
402.21	409.59
402.40	404.91
402.59	414.27
402.78	411.93
402.97	428.32
403.17	416.62
403.36	461.09
403.55	407.25
403.74	447.04
403.93	351.08
404.13	447.04
404.32	346.40
404.51	301.93
404.70	409.59
404.89	372.15
405.09	442.36
405.28	409.59
405.47	437.68
405.66	517.26
405.85	472.79
406.05	404.91
406.24	447.04
406.43	421.30
406.62	414.27
406.81	402.57
407.00	418.96
407.20	430.66
407.39	421.30
407.58	414.27
407.77	374.49
407.96	409.59
408.15	393.21
408.34	411.93
408.54	383.85
408.73	425.98
408.92	400.23
409.11	388.53
409.30	433.00
409.49	358.10
409.68	407.25
409.87	355.76
410.07	358.10
410.26	386.19
410.45	327.68
410.64	400.23
410.83	404.91
411.02	390.87
411.21	383.85
411.40	404.91
411.59	449.38
411.78	355.76
411.98	325.33
412.17	411.93
412.36	374.49
412.55	414.27
412.74	440.02
412.93	409.59
413.12	395.55
413.31	472.79
413.50	393.21
413.69	449.38
413.88	433.00
414.07	383.85
414.26	400.23
414.45	407.25
414.64	418.96
414.83	465.77
415.02	418.96
415.22	372.15
415.41	433.00
415.60	379.17
415.79	390.87
415.98	418.96
416.17	411.93
416.36	468.11
416.55	395.55
416.74	449.38
416.93	500.87
417.12	365.12
417.31	348.74
417.50	418.96
417.69	484.49
417.88	376.83
418.07	374.49
418.26	407.25
418.45	353.42
418.64	468.11
418.83	383.85
419.02	411.93
419.21	425.98
419.39	397.89
419.58	409.59
419.77	402.57
419.96	416.62
420.15	395.55
420.34	393.21
420.53	468.11
420.72	414.27
420.91	414.27
421.10	451.72
421.29	468.11
421.48	400.23
421.67	381.51
421.86	348.74
422.05	386.19
422.24	393.21
422.43	362.78
422.61	386.19
422.80	416.62
422.99	433.00
423.18	444.70
423.37	449.38
423.56	430.66
423.75	397.89
423.94	418.96
424.13	472.79
424.32	423.64
424.50	407.25
424.69	404.91
424.88	444.70
425.07	379.17
425.26	456.40
425.45	390.87
425.64	442.36
425.83	400.23
426.01	435.34
426.20	435.34
426.39	423.64
426.58	458.74
426.77	418.96
426.96	449.38
427.15	449.38
427.33	411.93
427.52	435.34
427.71	376.83
427.90	390.87
428.09	418.96
428.28	388.53
428.46	374.49
428.65	489.17
428.84	390.87
429.03	440.02
429.22	407.25
429.40	397.89
429.59	374.49
429.78	407.25
429.97	386.19
430.16	449.38
430.34	465.77
430.53	421.30
430.72	435.34
430.91	486.83
431.10	454.06
431.28	418.96
431.47	421.30
431.66	456.40
431.85	404.91
432.03	381.51
432.22	418.96
432.41	407.25
432.60	393.21
432.79	379.17
432.97	421.30
433.16	486.83
433.35	411.93
433.54	397.89
433.72	388.53
433.91	369.80
434.10	369.80
434.28	437.68
434.47	437.68
434.66	400.23
434.85	458.74
435.03	404.91
435.22	409.59
435.41	463.43
435.59	433.00
435.78	449.38
435.97	414.27
436.16	407.25
436.34	381.51
436.53	407.25
436.72	390.87
436.90	407.25
437.09	376.83
437.28	447.04
437.46	423.64
437.65	379.17
437.84	428.32
438.02	409.59
438.21	449.38
438.40	416.62
438.58	362.78
438.77	428.32
438.96	425.98
439.14	355.76
439.33	449.38
439.52	386.19
439.70	414.27
439.89	416.62
440.08	425.98
440.26	435.34
440.45	442.36
440.63	440.02
440.82	365.12
441.01	425.98
441.19	414.27
441.38	379.17
441.57	294.91
441.75	433.00
441.94	437.68
442.12	475.13
442.31	348.74
442.50	411.93
442.68	372.15
442.87	374.49
443.05	423.64
443.24	425.98
443.43	381.51
443.61	463.43
443.80	435.34
443.98	383.85
444.17	372.15
444.35	505.56
444.54	449.38
444.73	360.44
444.91	381.51
445.10	444.70
445.28	435.34
445.47	421.30
445.65	442.36
445.84	390.87
446.02	393.21
446.21	435.34
446.39	353.42
446.58	395.55
446.77	425.98
446.95	423.64
447.14	414.27
447.32	451.72
447.51	404.91
447.69	428.32
447.88	390.87
448.06	428.32
448.25	369.80
448.43	374.49
448.62	369.80
448.80	447.04
448.99	442.36
449.17	397.89
449.36	393.21
449.54	423.64
449.73	456.40
449.91	489.17
450.10	440.02
450.28	430.66
450.46	400.23
450.65	449.38
450.83	411.93
451.02	414.27
451.20	477.47
451.39	444.70
451.57	402.57
451.76	423.64
451.94	404.91
452.13	369.80
452.31	400.23
452.49	376.83
452.68	463.43
452.86	386.19
453.05	493.85
453.23	468.11
453.42	372.15
453.60	416.62
453.78	381.51
453.97	463.43
454.15	400.23
454.34	344.06
454.52	397.89
454.70	416.62
454.89	437.68
455.07	404.91
455.26	374.49
455.44	463.43
455.62	372.15
455.81	421.30
455.99	433.00
456.17	461.09
456.36	423.64
456.54	517.26
456.73	416.62
456.91	400.23
457.09	400.23
457.28	362.78
457.46	383.85
457.64	423.64
457.83	400.23
458.01	393.21
458.19	449.38
458.38	435.34
458.56	428.32
458.74	416.62
458.93	458.74
459.11	358.10
459.29	381.51
459.48	411.93
459.66	388.53
459.84	416.62
460.03	449.38
460.21	411.93
460.39	374.49
460.57	435.34
460.76	454.06
460.94	374.49
461.12	447.04
461.31	407.25
461.49	416.62
461.67	482.15
461.85	454.06
462.04	442.36
462.22	805.14
462.40	428.32
462.59	482.15
462.77	390.87
462.95	425.98
463.13	395.55
463.32	360.44
463.50	393.21
463.68	402.57
463.86	428.32
464.05	435.34
464.23	451.72
464.41	472.79
464.59	386.19
464.78	383.85
464.96	430.66
465.14	425.98
465.32	468.11
465.50	414.27
465.69	437.68
465.87	433.00
466.05	388.53
466.23	400.23
466.41	421.30
466.60	437.68
466.78	433.00
466.96	411.93
467.14	463.43
467.32	414.27
467.51	367.46
467.69	402.57
467.87	451.72
468.05	388.53
468.23	428.32
468.41	500.87
468.60	500.87
468.78	477.47
468.96	421.30
469.14	414.27
469.32	425.98
469.50	397.89
469.69	425.98
469.87	409.59
470.05	425.98
470.23	454.06
470.41	372.15
470.59	383.85
470.77	489.17
470.95	388.53
471.14	486.83
471.32	341.72
471.50	395.55
471.68	355.76
471.86	425.98
472.04	435.34
472.22	395.55
472.40	386.19
472.58	402.57
472.77	409.59
472.95	411.93
473.13	440.02
473.31	414.27
473.49	376.83
473.67	437.68
473.85	395.55
474.03	472.79
474.21	348.74
474.39	482.15
474.57	486.83
474.75	383.85
474.93	376.83
475.12	383.85
475.30	393.21
475.48	440.02
475.66	416.62
475.84	416.62
476.02	456.40
476.20	421.30
476.38	435.34
476.56	444.70
476.74	482.15
476.92	447.04
477.10	418.96
477.28	402.57
477.46	360.44
477.64	463.43
477.82	409.59
478.00	369.80
478.18	428.32
478.36	379.17
478.54	423.64
478.72	379.17
478.90	463.43
479.08	379.17
479.26	416.62
479.44	374.49
479.62	365.12
479.80	367.46
479.98	475.13
480.16	355.76
480.34	407.25
480.52	468.11
480.70	386.19
480.88	421.30
481.06	346.40
481.24	390.87
481.41	351.08
481.59	456.40
481.77	430.66
481.95	465.77
482.13	402.57
482.31	374.49
482.49	379.17
482.67	433.00
482.85	400.23
483.03	465.77
483.21	442.36
483.39	337.04
483.57	367.46
483.74	414.27
483.92	454.06
484.10	411.93
484.28	465.77
484.46	458.74
484.64	503.22
484.82	367.46
485.00	393.21
485.18	414.27
485.35	463.43
485.53	402.57
485.71	402.57
485.89	397.89
486.07	472.79
486.25	540.66
486.43	404.91
486.61	423.64
486.78	477.47
486.96	346.40
487.14	418.96
487.32	400.23
487.50	423.64
487.68	386.19
487.85	346.40
488.03	416.62
488.21	505.56
488.39	423.64
488.57	458.74
488.75	402.57
488.92	498.53
489.10	402.57
489.28	463.43
489.46	360.44
489.64	433.00
489.81	416.62
489.99	468.11
490.17	435.34
490.35	404.91
490.53	423.64
490.70	379.17
490.88	503.22
491.06	418.96
491.24	449.38
491.41	423.64
491.59	367.46
491.77	458.74
491.95	428.32
492.13	397.89
492.30	418.96
492.48	416.62
492.66	339.38
492.84	400.23
493.01	430.66
493.19	395.55
493.37	400.23
493.54	444.70
493.72	475.13
493.90	428.32
494.08	423.64
494.25	477.47
494.43	475.13
494.61	447.04
494.79	430.66
494.96	397.89
495.14	358.10
495.32	320.65
495.49	388.53
495.67	416.62
495.85	418.96
496.02	402.57
496.20	393.21
496.38	425.98
496.55	458.74
496.73	397.89
496.91	454.06
497.09	482.15
497.26	411.93
497.44	477.47
497.62	393.21
497.79	433.00
497.97	437.68
498.14	447.04
498.32	435.34
498.50	477.47
498.67	461.09
498.85	360.44
499.03	400.23
499.20	416.62
499.38	421.30
499.56	468.11
499.73	463.43
499.91	440.02
500.08	383.85
500.26	456.40
500.44	425.98
500.61	433.00
500.79	409.59
500.97	407.25
501.14	390.87
501.32	442.36
501.49	463.43
501.67	376.83
501.84	456.40
502.02	379.17
502.20	381.51
502.37	430.66
502.55	437.68
502.72	416.62
502.90	407.25
503.07	435.34
503.25	395.55
503.43	411.93
503.60	444.70
503.78	433.00
503.95	425.98
504.13	355.76
504.30	472.79
504.48	402.57
504.65	435.34
504.83	440.02
505.01	465.77
505.18	465.77
505.36	362.78
505.53	400.23
505.71	435.34
505.88	397.89
506.06	414.27
506.23	386.19
506.41	444.70
506.58	425.98
506.76	484.49
506.93	425.98
507.11	397.89
507.28	374.49
507.46	428.32
507.63	444.70
507.81	423.64
507.98	416.62
508.16	390.87
508.33	442.36
508.50	454.06
508.68	475.13
508.85	404.91
509.03	386.19
509.20	390.87
509.38	421.30
509.55	440.02
509.73	489.17
509.90	407.25
510.08	463.43
510.25	425.98
510.42	390.87
510.60	376.83
510.77	423.64
510.95	437.68
511.12	456.40
511.30	411.93
511.47	404.91
511.64	444.70
511.82	376.83
511.99	390.87
512.17	503.22
512.34	465.77
512.51	388.53
512.69	381.51
512.86	484.49
513.04	402.57
513.21	374.49
513.38	418.96
513.56	510.24
513.73	386.19
513.90	461.09
514.08	458.74
514.25	379.17
514.43	369.80
514.60	393.21
514.77	416.62
514.95	421.30
515.12	500.87
515.29	461.09
515.47	433.00
515.64	416.62
515.81	402.57
515.99	468.11
516.16	411.93
516.33	433.00
516.51	472.79
516.68	496.19
516.85	400.23
517.03	395.55
517.20	472.79
517.37	440.02
517.54	411.93
517.72	381.51
517.89	383.85
518.06	407.25
518.24	496.19
518.41	444.70
518.58	407.25
518.75	383.85
518.93	397.89
519.10	390.87
519.27	491.51
519.45	376.83
519.62	458.74
519.79	496.19
519.96	411.93
520.14	416.62
520.31	418.96
520.48	428.32
520.65	440.02
520.83	447.04
521.00	360.44
521.17	362.78
521.34	369.80
521.52	435.34
521.69	449.38
521.86	383.85
522.03	400.23
522.20	435.34
522.38	407.25
522.55	400.23
522.72	440.02
522.89	458.74
523.07	458.74
523.24	402.57
523.41	369.80
523.58	386.19
523.75	400.23
523.92	407.25
524.10	465.77
524.27	463.43
524.44	425.98
524.61	393.21
524.78	353.42
524.96	341.72
525.13	437.68
525.30	440.02
525.47	479.81
525.64	465.77
525.81	400.23
525.98	461.09
526.16	437.68
526.33	433.00
526.50	421.30
526.67	430.66
526.84	425.98
527.01	407.25
527.18	440.02
527.36	367.46
527.53	411.93
527.70	468.11
527.87	397.89
528.04	414.27
528.21	449.38
528.38	421.30
528.55	433.00
528.72	454.06
528.89	484.49
529.07	404.91
529.24	379.17
529.41	440.02
529.58	456.40
529.75	400.23
529.92	386.19
530.09	456.40
530.26	411.93
530.43	421.30
530.60	355.76
530.77	404.91
530.94	442.36
531.11	367.46
531.28	456.40
531.46	430.66
531.63	367.46
531.80	425.98
531.97	414.27
532.14	393.21
532.31	423.64
532.48	386.19
532.65	395.55
532.82	388.53
532.99	468.11
533.16	425.98
533.33	463.43
533.50	430.66
533.67	421.30
533.84	456.40
534.01	395.55
534.18	435.34
534.35	404.91
534.52	479.81
534.69	400.23
534.86	374.49
535.03	400.23
535.20	397.89
535.37	383.85
535.54	409.59
535.71	486.83
535.88	381.51
536.05	465.77
536.22	409.59
536.38	435.34
536.55	430.66
536.72	479.81
536.89	404.91
537.06	353.42
537.23	376.83
537.40	339.38
537.57	367.46
537.74	493.85
537.91	433.00
538.08	503.22
538.25	383.85
538.42	435.34
538.59	435.34
538.75	369.80
538.92	477.47
539.09	447.04
539.26	449.38
539.43	491.51
539.60	381.51
539.77	433.00
539.94	421.30
540.11	372.15
540.28	409.59
540.44	514.92
540.61	327.68
540.78	369.80
540.95	425.98
541.12	414.27
541.29	423.64
541.46	472.79
541.62	451.72
541.79	416.62
541.96	421.30
542.13	418.96
542.30	440.02
542.47	428.32
542.63	416.62
542.80	409.59
542.97	489.17
543.14	341.72
543.31	444.70
543.48	402.57
543.64	379.17
543.81	418.96
543.98	383.85
544.15	411.93
544.32	416.62
544.48	430.66
544.65	470.45
544.82	416.62
544.99	437.68
545.16	489.17
545.32	400.23
545.49	440.02
545.66	433.00
545.83	346.40
546.00	393.21
546.16	465.77
546.33	491.51
546.50	395.55
546.67	470.45
546.83	423.64
547.00	407.25
547.17	400.23
547.34	421.30
547.50	400.23
547.67	421.30
547.84	400.23
548.00	447.04
548.17	440.02
548.34	437.68
548.51	463.43
548.67	482.15
548.84	423.64
549.01	411.93
549.18	407.25
549.34	479.81
549.51	458.74
549.68	365.12
549.84	456.40
550.01	414.27
550.18	428.32
550.34	428.32
550.51	423.64
550.68	428.32
550.84	386.19
551.01	388.53
551.18	475.13
551.34	414.27
551.51	353.42
551.68	416.62
551.84	416.62
552.01	463.43
552.18	381.51
552.34	463.43
552.51	444.70
552.68	416.62
552.84	456.40
553.01	395.55
553.18	353.42
553.34	395.55
553.51	379.17
553.67	458.74
553.84	414.27
554.01	435.34
554.17	381.51
554.34	365.12
554.51	379.17
554.67	458.74
554.84	430.66
555.00	400.23
555.17	449.38
555.33	461.09
555.50	404.91
555.67	390.87
555.83	402.57
556.00	423.64
556.16	531.30
556.33	468.11
556.50	430.66
556.66	341.72
556.83	458.74
556.99	397.89
557.16	423.64
557.32	346.40
557.49	395.55
557.65	463.43
557.82	491.51
557.98	341.72
558.15	393.21
558.32	411.93
558.48	421.30
558.65	456.40
558.81	454.06
558.98	360.44
559.14	411.93
559.31	430.66
559.47	444.70
559.64	423.64
559.80	393.21
559.97	411.93
560.13	500.87
560.30	409.59
560.46	407.25
560.63	383.85
560.79	395.55
560.96	430.66
561.12	425.98
561.29	442.36
561.45	386.19
561.61	407.25
561.78	512.58
561.94	433.00
562.11	402.57
562.27	358.10
562.44	414.27
562.60	372.15
562.77	458.74
562.93	435.34
563.10	409.59
563.26	411.93
563.42	442.36
563.59	383.85
563.75	386.19
563.92	400.23
564.08	423.64
564.24	423.64
564.41	486.83
564.57	433.00
564.74	404.91
564.90	465.77
565.07	461.09
565.23	433.00
565.39	346.40
565.56	393.21
565.72	386.19
565.88	407.25
566.05	416.62
566.21	447.04
566.38	327.68
566.54	355.76
566.70	468.11
566.87	435.34
567.03	425.98
567.19	409.59
567.36	423.64
567.52	390.87
567.68	383.85
567.85	404.91
568.01	372.15
568.17	418.96
568.34	397.89
568.50	425.98
568.66	383.85
568.83	484.49
568.99	395.55
569.15	442.36
569.32	440.02
569.48	379.17
569.64	456.40
569.81	435.34
569.97	423.64
570.13	449.38
570.30	390.87
570.46	449.38
570.62	393.21
570.78	437.68
570.95	440.02
571.11	447.04
571.27	491.51
571.43	374.49
571.60	402.57
571.76	444.70
571.92	414.27
572.09	414.27
572.25	477.47
572.41	428.32
572.57	444.70
572.74	456.40
572.90	374.49
573.06	390.87
573.22	425.98
573.38	456.40
573.55	442.36
573.71	400.23
573.87	444.70
574.03	393.21
574.20	388.53
574.36	484.49
574.52	379.17
574.68	390.87
574.84	416.62
575.01	454.06
575.17	484.49
575.33	444.70
575.49	372.15
575.65	409.59
575.82	428.32
575.98	437.68
576.14	402.57
576.30	433.00
576.46	374.49
576.62	444.70
576.79	428.32
576.95	454.06
577.11	393.21
577.27	428.32
577.43	430.66
577.59	437.68
577.75	421.30
577.92	421.30
578.08	409.59
578.24	433.00
578.40	465.77
578.56	475.13
578.72	470.45
578.88	404.91
579.04	365.12
579.21	496.19
579.37	418.96
579.53	437.68
579.69	454.06
579.85	430.66
580.01	482.15
580.17	390.87
580.33	379.17
580.49	489.17
580.65	447.04
580.82	360.44
580.98	402.57
581.14	388.53
581.30	376.83
581.46	425.98
581.62	486.83
581.78	425.98
581.94	388.53
582.10	386.19
582.26	430.66
582.42	404.91
582.58	468.11
582.74	365.12
582.90	390.87
583.06	449.38
583.22	442.36
583.38	397.89
583.54	386.19
583.70	381.51
583.86	374.49
584.02	388.53
584.18	456.40
584.34	447.04
584.50	381.51
584.66	404.91
584.82	430.66
584.98	421.30
585.14	379.17
585.30	447.04
585.46	444.70
585.62	407.25
585.78	451.72
585.94	477.47
586.10	437.68
586.26	435.34
586.42	440.02
586.58	383.85
586.74	479.81
586.90	395.55
587.06	409.59
587.22	360.44
587.38	376.83
587.54	351.08
587.70	463.43
587.86	440.02
588.02	458.74
588.18	430.66
588.34	404.91
588.49	423.64
588.65	458.74
588.81	440.02
588.97	369.80
589.13	348.74
589.29	456.40
589.45	479.81
589.61	416.62
589.77	477.47
589.93	393.21
590.08	409.59
590.24	416.62
590.40	404.91
590.56	425.98
590.72	444.70
590.88	484.49
591.04	447.04
591.20	423.64
591.35	472.79
591.51	468.11
591.67	421.30
591.83	444.70
591.99	404.91
592.15	428.32
592.31	479.81
592.46	402.57
592.62	430.66
592.78	397.89
592.94	425.98
593.10	414.27
593.26	313.63
593.41	402.57
593.57	433.00
593.73	388.53
593.89	379.17
594.05	379.17
594.20	397.89
594.36	465.77
594.52	414.27
594.68	353.42
594.84	423.64
594.99	472.79
595.15	416.62
595.31	437.68
595.47	496.19
595.62	430.66
595.78	449.38
595.94	435.34
596.10	470.45
596.25	425.98
596.41	475.13
596.57	414.27
596.73	423.64
596.88	472.79
597.04	421.30
597.20	416.62
597.36	477.47
597.51	430.66
597.67	381.51
597.83	379.17
597.99	423.64
598.14	435.34
598.30	449.38
598.46	383.85
598.61	444.70
598.77	465.77
598.93	393.21
599.09	407.25
599.24	379.17
599.40	416.62
599.56	416.62
599.71	397.89
599.87	423.64
600.03	447.04
600.18	374.49
600.34	388.53
600.50	386.19
600.65	362.78
600.81	411.93
600.97	428.32
601.12	397.89
601.28	402.57
601.44	390.87
601.59	451.72
601.75	472.79
601.91	461.09
602.06	409.59
602.22	444.70
602.37	404.91
602.53	428.32
602.69	463.43
602.84	423.64
603.00	409.59
603.16	409.59
603.31	454.06
603.47	470.45
603.62	383.85
603.78	409.59
603.94	433.00
604.09	461.09
604.25	404.91
604.40	428.32
604.56	390.87
604.71	355.76
604.87	444.70
605.03	470.45
605.18	400.23
605.34	454.06
605.49	517.26
605.65	440.02
605.80	454.06
605.96	507.90
606.12	411.93
606.27	414.27
606.43	416.62
606.58	442.36
606.74	376.83
606.89	388.53
607.05	479.81
607.20	449.38
607.36	433.00
607.51	423.64
607.67	447.04
607.82	465.77
607.98	409.59
608.13	414.27
608.29	425.98
608.44	454.06
608.60	425.98
608.75	514.92
608.91	311.29
609.06	395.55
609.22	475.13
609.37	404.91
609.53	454.06
609.68	346.40
609.84	418.96
609.99	425.98
610.15	395.55
