SpectraSuite Data File
++++++++++++++++++++++++++++++++++++
Date: Fri Oct 25 12:11:21 EDT 2013
User: price-jones
Dark Spectrum Present: No
Reference Spectrum Present: No
Number of Sampled Component Spectra: 1
Spectrometers: USB2+H05261
Integration Time (usec): 100000 (USB2+H05261)
Spectra Averaged: 1 (USB2+H05261)
Boxcar Smoothing: 0 (USB2+H05261)
Correct for Electrical Dark: No (USB2+H05261)
Strobe/Lamp Enabled: No (USB2+H05261)
Correct for Detector Non-linearity: No (USB2+H05261)
Correct for Stray Light: No (USB2+H05261)
Number of Pixels in Processed Spectrum: 2048
>>>>>Begin Processed Spectral Data<<<<<
365.73	423.64
365.92	423.64
366.12	423.64
366.32	210.65
366.52	285.55
366.72	257.46
366.91	304.27
367.11	208.31
367.31	341.72
367.51	252.78
367.70	208.31
367.90	252.78
368.10	198.95
368.30	236.39
368.49	264.48
368.69	248.10
368.89	248.10
369.09	227.03
369.28	367.46
369.48	262.14
369.68	283.20
369.87	315.97
370.07	351.08
370.27	269.16
370.47	337.04
370.66	334.70
370.86	344.06
371.06	458.74
371.25	376.83
371.45	353.42
371.65	442.36
371.84	390.87
372.04	395.55
372.24	404.91
372.44	348.74
372.63	402.57
372.83	451.72
373.03	456.40
373.22	421.30
373.42	411.93
373.62	400.23
373.81	423.64
374.01	414.27
374.21	493.85
374.40	402.57
374.60	379.17
374.79	454.06
374.99	414.27
375.19	514.92
375.38	379.17
375.58	390.87
375.78	407.25
375.97	449.38
376.17	454.06
376.37	372.15
376.56	414.27
376.76	430.66
376.95	358.10
377.15	383.85
377.35	381.51
377.54	409.59
377.74	454.06
377.93	463.43
378.13	463.43
378.33	341.72
378.52	461.09
378.72	411.93
378.91	372.15
379.11	418.96
379.31	407.25
379.50	358.10
379.70	402.57
379.89	379.17
380.09	411.93
380.28	416.62
380.48	451.72
380.68	447.04
380.87	362.78
381.07	353.42
381.26	465.77
381.46	418.96
381.65	447.04
381.85	346.40
382.04	463.43
382.24	470.45
382.43	442.36
382.63	435.34
382.83	395.55
383.02	416.62
383.22	463.43
383.41	435.34
383.61	393.21
383.80	395.55
384.00	383.85
384.19	388.53
384.39	388.53
384.58	397.89
384.78	400.23
384.97	344.06
385.17	404.91
385.36	470.45
385.56	344.06
385.75	353.42
385.95	458.74
386.14	411.93
386.34	465.77
386.53	454.06
386.72	416.62
386.92	437.68
387.11	409.59
387.31	367.46
387.50	341.72
387.70	395.55
387.89	411.93
388.09	390.87
388.28	376.83
388.48	423.64
388.67	437.68
388.86	393.21
389.06	322.99
389.25	482.15
389.45	440.02
389.64	425.98
389.84	425.98
390.03	440.02
390.22	444.70
390.42	444.70
390.61	351.08
390.81	395.55
391.00	369.80
391.19	451.72
391.39	428.32
391.58	470.45
391.78	360.44
391.97	435.34
392.16	449.38
392.36	397.89
392.55	351.08
392.75	449.38
392.94	390.87
393.13	386.19
393.33	470.45
393.52	475.13
393.71	444.70
393.91	367.46
394.10	421.30
394.29	404.91
394.49	411.93
394.68	400.23
394.88	383.85
395.07	449.38
395.26	423.64
395.46	425.98
395.65	472.79
395.84	428.32
396.04	491.51
396.23	409.59
396.42	425.98
396.62	402.57
396.81	409.59
397.00	451.72
397.19	362.78
397.39	337.04
397.58	418.96
397.77	360.44
397.97	386.19
398.16	383.85
398.35	423.64
398.55	428.32
398.74	440.02
398.93	414.27
399.12	339.38
399.32	351.08
399.51	383.85
399.70	451.72
399.90	402.57
400.09	411.93
400.28	418.96
400.47	395.55
400.67	435.34
400.86	388.53
401.05	411.93
401.24	435.34
401.44	428.32
401.63	400.23
401.82	376.83
402.01	402.57
402.21	362.78
402.40	348.74
402.59	360.44
402.78	374.49
402.97	407.25
403.17	397.89
403.36	425.98
403.55	367.46
403.74	376.83
403.93	397.89
404.13	372.15
404.32	372.15
404.51	400.23
404.70	430.66
404.89	425.98
405.09	472.79
405.28	414.27
405.47	381.51
405.66	421.30
405.85	409.59
406.05	463.43
406.24	418.96
406.43	468.11
406.62	407.25
406.81	451.72
407.00	402.57
407.20	416.62
407.39	348.74
407.58	386.19
407.77	433.00
407.96	395.55
408.15	379.17
408.34	435.34
408.54	411.93
408.73	390.87
408.92	386.19
409.11	402.57
409.30	402.57
409.49	313.63
409.68	327.68
409.87	332.36
410.07	414.27
410.26	454.06
410.45	358.10
410.64	393.21
410.83	402.57
411.02	433.00
411.21	404.91
411.40	376.83
411.59	407.25
411.78	402.57
411.98	421.30
412.17	360.44
412.36	395.55
412.55	374.49
412.74	386.19
412.93	430.66
413.12	425.98
413.31	416.62
413.50	358.10
413.69	430.66
413.88	465.77
414.07	444.70
414.26	397.89
414.45	372.15
414.64	388.53
414.83	404.91
415.02	423.64
415.22	407.25
415.41	451.72
415.60	407.25
415.79	428.32
415.98	444.70
416.17	428.32
416.36	395.55
416.55	390.87
416.74	463.43
416.93	461.09
417.12	414.27
417.31	416.62
417.50	402.57
417.69	425.98
417.88	482.15
418.07	346.40
418.26	393.21
418.45	355.76
418.64	414.27
418.83	402.57
419.02	423.64
419.21	411.93
419.39	381.51
419.58	379.17
419.77	381.51
419.96	393.21
420.15	423.64
420.34	409.59
420.53	440.02
420.72	465.77
420.91	388.53
421.10	393.21
421.29	395.55
421.48	404.91
421.67	416.62
421.86	355.76
422.05	400.23
422.24	500.87
422.43	402.57
422.61	383.85
422.80	430.66
422.99	397.89
423.18	423.64
423.37	383.85
423.56	353.42
423.75	337.04
423.94	411.93
424.13	388.53
424.32	358.10
424.50	444.70
424.69	447.04
424.88	435.34
425.07	344.06
425.26	468.11
425.45	400.23
425.64	454.06
425.83	444.70
426.01	430.66
426.20	444.70
426.39	374.49
426.58	414.27
426.77	383.85
426.96	390.87
427.15	397.89
427.33	465.77
427.52	461.09
427.71	393.21
427.90	393.21
428.09	332.36
428.28	425.98
428.46	409.59
428.65	435.34
428.84	447.04
429.03	404.91
429.22	456.40
429.40	362.78
429.59	414.27
429.78	407.25
429.97	449.38
430.16	397.89
430.34	430.66
430.53	421.30
430.72	386.19
430.91	395.55
431.10	358.10
431.28	407.25
431.47	456.40
431.66	442.36
431.85	524.28
432.03	430.66
432.22	393.21
432.41	390.87
432.60	369.80
432.79	458.74
432.97	388.53
433.16	322.99
433.35	409.59
433.54	468.11
433.72	425.98
433.91	468.11
434.10	409.59
434.28	365.12
434.47	435.34
434.66	390.87
434.85	369.80
435.03	407.25
435.22	404.91
435.41	498.53
435.59	456.40
435.78	379.17
435.97	388.53
436.16	421.30
436.34	390.87
436.53	465.77
436.72	407.25
436.90	358.10
437.09	421.30
437.28	404.91
437.46	402.57
437.65	404.91
437.84	456.40
438.02	444.70
438.21	451.72
438.40	379.17
438.58	411.93
438.77	456.40
438.96	325.33
439.14	397.89
439.33	421.30
439.52	435.34
439.70	397.89
439.89	451.72
440.08	430.66
440.26	418.96
440.45	411.93
440.63	461.09
440.82	383.85
441.01	423.64
441.19	482.15
441.38	386.19
441.57	337.04
441.75	379.17
441.94	400.23
442.12	390.87
442.31	463.43
442.50	414.27
442.68	440.02
442.87	421.30
443.05	376.83
443.24	430.66
443.43	421.30
443.61	416.62
443.80	444.70
443.98	390.87
444.17	351.08
444.35	440.02
444.54	479.81
444.73	418.96
444.91	376.83
445.10	440.02
445.28	409.59
445.47	428.32
445.65	449.38
445.84	458.74
446.02	430.66
446.21	447.04
446.39	447.04
446.58	414.27
446.77	461.09
446.95	409.59
447.14	414.27
447.32	409.59
447.51	442.36
447.69	393.21
447.88	440.02
448.06	416.62
448.25	416.62
448.43	430.66
448.62	358.10
448.80	388.53
448.99	500.87
449.17	353.42
449.36	397.89
449.54	365.12
449.73	414.27
449.91	383.85
450.10	468.11
450.28	461.09
450.46	430.66
450.65	421.30
450.83	414.27
451.02	407.25
451.20	341.72
451.39	428.32
451.57	411.93
451.76	376.83
451.94	409.59
452.13	454.06
452.31	435.34
452.49	444.70
452.68	386.19
452.86	468.11
453.05	486.83
453.23	372.15
453.42	397.89
453.60	383.85
453.78	430.66
453.97	437.68
454.15	416.62
454.34	414.27
454.52	437.68
454.70	388.53
454.89	414.27
455.07	355.76
455.26	379.17
455.44	379.17
455.62	421.30
455.81	451.72
455.99	454.06
456.17	421.30
456.36	433.00
456.54	397.89
456.73	409.59
456.91	430.66
457.09	411.93
457.28	425.98
457.46	425.98
457.64	372.15
457.83	395.55
458.01	423.64
458.19	390.87
458.38	421.30
458.56	409.59
458.74	409.59
458.93	400.23
459.11	379.17
459.29	463.43
459.48	454.06
459.66	468.11
459.84	456.40
460.03	477.47
460.21	418.96
460.39	400.23
460.57	444.70
460.76	381.51
460.94	411.93
461.12	411.93
461.31	416.62
461.49	395.55
461.67	425.98
461.85	400.23
462.04	423.64
462.22	711.52
462.40	423.64
462.59	430.66
462.77	344.06
462.95	325.33
463.13	369.80
463.32	358.10
463.50	430.66
463.68	402.57
463.86	449.38
464.05	355.76
464.23	440.02
464.41	442.36
464.59	388.53
464.78	402.57
464.96	397.89
465.14	418.96
465.32	423.64
465.50	463.43
465.69	425.98
465.87	348.74
466.05	433.00
466.23	423.64
466.41	479.81
466.60	388.53
466.78	348.74
466.96	447.04
467.14	418.96
467.32	400.23
467.51	475.13
467.69	414.27
467.87	414.27
468.05	484.49
468.23	440.02
468.41	479.81
468.60	395.55
468.78	400.23
468.96	440.02
469.14	383.85
469.32	395.55
469.50	365.12
469.69	386.19
469.87	423.64
470.05	409.59
470.23	423.64
470.41	344.06
470.59	465.77
470.77	447.04
470.95	397.89
471.14	454.06
471.32	395.55
471.50	414.27
471.68	397.89
471.86	390.87
472.04	404.91
472.22	430.66
472.40	379.17
472.58	430.66
472.77	374.49
472.95	404.91
473.13	451.72
473.31	461.09
473.49	454.06
473.67	409.59
473.85	430.66
474.03	472.79
474.21	418.96
474.39	430.66
474.57	470.45
474.75	470.45
474.93	454.06
475.12	383.85
475.30	360.44
475.48	411.93
475.66	397.89
475.84	402.57
476.02	456.40
476.20	477.47
476.38	409.59
476.56	489.17
476.74	402.57
476.92	339.38
477.10	411.93
477.28	418.96
477.46	376.83
477.64	425.98
477.82	397.89
478.00	341.72
478.18	311.29
478.36	435.34
478.54	437.68
478.72	470.45
478.90	425.98
479.08	428.32
479.26	330.02
479.44	393.21
479.62	393.21
479.80	430.66
479.98	404.91
480.16	393.21
480.34	411.93
480.52	423.64
480.70	456.40
480.88	397.89
481.06	423.64
481.24	393.21
481.41	395.55
481.59	351.08
481.77	407.25
481.95	395.55
482.13	465.77
482.31	388.53
482.49	379.17
482.67	428.32
482.85	386.19
483.03	421.30
483.21	489.17
483.39	372.15
483.57	358.10
483.74	447.04
483.92	472.79
484.10	430.66
484.28	397.89
484.46	437.68
484.64	475.13
484.82	442.36
485.00	449.38
485.18	365.12
485.35	454.06
485.53	374.49
485.71	383.85
485.89	407.25
486.07	463.43
486.25	447.04
486.43	440.02
486.61	402.57
486.78	435.34
486.96	395.55
487.14	325.33
487.32	353.42
487.50	407.25
487.68	489.17
487.85	461.09
488.03	376.83
488.21	447.04
488.39	470.45
488.57	461.09
488.75	409.59
488.92	547.69
489.10	465.77
489.28	510.24
489.46	477.47
489.64	503.22
489.81	423.64
489.99	472.79
490.17	367.46
490.35	547.69
490.53	425.98
490.70	395.55
490.88	393.21
491.06	433.00
491.24	400.23
491.41	482.15
491.59	362.78
491.77	416.62
491.95	376.83
492.13	477.47
492.30	409.59
492.48	414.27
492.66	369.80
492.84	393.21
493.01	479.81
493.19	440.02
493.37	477.47
493.54	416.62
493.72	395.55
493.90	402.57
494.08	414.27
494.25	465.77
494.43	418.96
494.61	402.57
494.79	332.36
494.96	475.13
495.14	386.19
495.32	390.87
495.49	425.98
495.67	472.79
495.85	465.77
496.02	358.10
496.20	414.27
496.38	400.23
496.55	486.83
496.73	435.34
496.91	430.66
497.09	390.87
497.26	362.78
497.44	355.76
497.62	491.51
497.79	444.70
497.97	449.38
498.14	433.00
498.32	458.74
498.50	423.64
498.67	383.85
498.85	442.36
499.03	440.02
499.20	379.17
499.38	402.57
499.56	353.42
499.73	435.34
499.91	395.55
500.08	454.06
500.26	416.62
500.44	388.53
500.61	468.11
500.79	402.57
500.97	423.64
501.14	454.06
501.32	465.77
501.49	402.57
501.67	461.09
501.84	435.34
502.02	362.78
502.20	430.66
502.37	479.81
502.55	416.62
502.72	339.38
502.90	358.10
503.07	423.64
503.25	421.30
503.43	416.62
503.60	454.06
503.78	458.74
503.95	470.45
504.13	411.93
504.30	479.81
504.48	465.77
504.65	451.72
504.83	433.00
505.01	379.17
505.18	353.42
505.36	407.25
505.53	407.25
505.71	358.10
505.88	409.59
506.06	383.85
506.23	442.36
506.41	414.27
506.58	388.53
506.76	362.78
506.93	435.34
507.11	386.19
507.28	414.27
507.46	454.06
507.63	386.19
507.81	418.96
507.98	421.30
508.16	423.64
508.33	376.83
508.50	388.53
508.68	404.91
508.85	435.34
509.03	411.93
509.20	320.65
509.38	388.53
509.55	386.19
509.73	418.96
509.90	454.06
510.08	365.12
510.25	397.89
510.42	386.19
510.60	407.25
510.77	423.64
510.95	386.19
511.12	463.43
511.30	418.96
511.47	411.93
511.64	383.85
511.82	386.19
511.99	444.70
512.17	465.77
512.34	409.59
512.51	395.55
512.69	421.30
512.86	435.34
513.04	428.32
513.21	362.78
513.38	414.27
513.56	418.96
513.73	409.59
513.90	416.62
514.08	360.44
514.25	430.66
514.43	449.38
514.60	397.89
514.77	388.53
514.95	404.91
515.12	433.00
515.29	372.15
515.47	379.17
515.64	376.83
515.81	447.04
515.99	465.77
516.16	409.59
516.33	442.36
516.51	428.32
516.68	358.10
516.85	472.79
517.03	365.12
517.20	442.36
517.37	409.59
517.54	404.91
517.72	407.25
517.89	397.89
518.06	395.55
518.24	479.81
518.41	477.47
518.58	416.62
518.75	404.91
518.93	470.45
519.10	376.83
519.27	393.21
519.45	402.57
519.62	416.62
519.79	360.44
519.96	468.11
520.14	418.96
520.31	409.59
520.48	423.64
520.65	418.96
520.83	430.66
521.00	332.36
521.17	407.25
521.34	393.21
521.52	425.98
521.69	447.04
521.86	407.25
522.03	437.68
522.20	461.09
522.38	421.30
522.55	400.23
522.72	386.19
522.89	442.36
523.07	411.93
523.24	440.02
523.41	461.09
523.58	465.77
523.75	400.23
523.92	482.15
524.10	449.38
524.27	430.66
524.44	489.17
524.61	376.83
524.78	447.04
524.96	411.93
525.13	428.32
525.30	447.04
525.47	451.72
525.64	428.32
525.81	414.27
525.98	447.04
526.16	400.23
526.33	386.19
526.50	386.19
526.67	400.23
526.84	421.30
527.01	435.34
527.18	433.00
527.36	458.74
527.53	454.06
527.70	409.59
527.87	414.27
528.04	437.68
528.21	393.21
528.38	440.02
528.55	444.70
528.72	475.13
528.89	475.13
529.07	367.46
529.24	381.51
529.41	395.55
529.58	430.66
529.75	437.68
529.92	425.98
530.09	411.93
530.26	353.42
530.43	444.70
530.60	435.34
530.77	404.91
530.94	388.53
531.11	489.17
531.28	430.66
531.46	491.51
531.63	400.23
531.80	372.15
531.97	414.27
532.14	362.78
532.31	470.45
532.48	407.25
532.65	437.68
532.82	397.89
532.99	440.02
533.16	372.15
533.33	411.93
533.50	479.81
533.67	435.34
533.84	388.53
534.01	418.96
534.18	465.77
534.35	362.78
534.52	428.32
534.69	379.17
534.86	344.06
535.03	383.85
535.20	334.70
535.37	407.25
535.54	425.98
535.71	397.89
535.88	433.00
536.05	407.25
536.22	433.00
536.38	437.68
536.55	507.90
536.72	388.53
536.89	409.59
537.06	393.21
537.23	444.70
537.40	435.34
537.57	423.64
537.74	451.72
537.91	433.00
538.08	379.17
538.25	440.02
538.42	369.80
538.59	411.93
538.75	374.49
538.92	421.30
539.09	341.72
539.26	468.11
539.43	521.94
539.60	402.57
539.77	444.70
539.94	400.23
540.11	498.53
540.28	433.00
540.44	430.66
540.61	435.34
540.78	386.19
540.95	360.44
541.12	433.00
541.29	355.76
541.46	402.57
541.62	421.30
541.79	437.68
541.96	484.49
542.13	358.10
542.30	404.91
542.47	486.83
542.63	381.51
542.80	449.38
542.97	451.72
543.14	428.32
543.31	454.06
543.48	456.40
543.64	430.66
543.81	461.09
543.98	482.15
544.15	344.06
544.32	470.45
544.48	447.04
544.65	437.68
544.82	393.21
544.99	421.30
545.16	407.25
545.32	393.21
545.49	482.15
545.66	395.55
545.83	372.15
546.00	390.87
546.16	416.62
546.33	381.51
546.50	451.72
546.67	482.15
546.83	404.91
547.00	402.57
547.17	381.51
547.34	423.64
547.50	416.62
547.67	411.93
547.84	458.74
548.00	430.66
548.17	421.30
548.34	409.59
548.51	444.70
548.67	388.53
548.84	449.38
549.01	400.23
549.18	423.64
549.34	411.93
549.51	491.51
549.68	418.96
549.84	449.38
550.01	414.27
550.18	489.17
550.34	500.87
550.51	400.23
550.68	444.70
550.84	390.87
551.01	407.25
551.18	472.79
551.34	451.72
551.51	437.68
551.68	416.62
551.84	376.83
552.01	416.62
552.18	362.78
552.34	416.62
552.51	442.36
552.68	451.72
552.84	379.17
553.01	461.09
553.18	365.12
553.34	449.38
553.51	404.91
553.67	498.53
553.84	397.89
554.01	440.02
554.17	458.74
554.34	418.96
554.51	425.98
554.67	444.70
554.84	447.04
555.00	414.27
555.17	337.04
555.33	465.77
555.50	468.11
555.67	428.32
555.83	390.87
556.00	416.62
556.16	482.15
556.33	369.80
556.50	444.70
556.66	442.36
556.83	496.19
556.99	376.83
557.16	411.93
557.32	386.19
557.49	437.68
557.65	397.89
557.82	433.00
557.98	430.66
558.15	421.30
558.32	470.45
558.48	362.78
558.65	402.57
558.81	435.34
558.98	465.77
559.14	425.98
559.31	416.62
559.47	423.64
559.64	486.83
559.80	454.06
559.97	407.25
560.13	404.91
560.30	388.53
560.46	388.53
560.63	362.78
560.79	414.27
560.96	418.96
561.12	482.15
561.29	437.68
561.45	472.79
561.61	468.11
561.78	489.17
561.94	367.46
562.11	433.00
562.27	423.64
562.44	463.43
562.60	414.27
562.77	414.27
562.93	484.49
563.10	425.98
563.26	400.23
563.42	425.98
563.59	397.89
563.75	486.83
563.92	400.23
564.08	435.34
564.24	496.19
564.41	456.40
564.57	374.49
564.74	428.32
564.90	404.91
565.07	442.36
565.23	421.30
565.39	397.89
565.56	425.98
565.72	411.93
565.88	430.66
566.05	407.25
566.21	351.08
566.38	416.62
566.54	444.70
566.70	423.64
566.87	367.46
567.03	468.11
567.19	383.85
567.36	374.49
567.52	449.38
567.68	456.40
567.85	479.81
568.01	451.72
568.17	444.70
568.34	386.19
568.50	442.36
568.66	409.59
568.83	465.77
568.99	404.91
569.15	435.34
569.32	444.70
569.48	433.00
569.64	407.25
569.81	465.77
569.97	423.64
570.13	449.38
570.30	510.24
570.46	447.04
570.62	468.11
570.78	444.70
570.95	379.17
571.11	454.06
571.27	444.70
571.43	418.96
571.60	388.53
571.76	404.91
571.92	416.62
572.09	414.27
572.25	449.38
572.41	407.25
572.57	475.13
572.74	505.56
572.90	402.57
573.06	388.53
573.22	379.17
573.38	372.15
573.55	489.17
573.71	402.57
573.87	386.19
574.03	411.93
574.20	433.00
574.36	500.87
574.52	416.62
574.68	404.91
574.84	484.49
575.01	374.49
575.17	414.27
575.33	440.02
575.49	442.36
575.65	423.64
575.82	383.85
575.98	461.09
576.14	388.53
576.30	433.00
576.46	454.06
576.62	355.76
576.79	440.02
576.95	433.00
577.11	470.45
577.27	351.08
577.43	390.87
577.59	351.08
577.75	404.91
577.92	388.53
578.08	362.78
578.24	393.21
578.40	470.45
578.56	512.58
578.72	447.04
578.88	472.79
579.04	451.72
579.21	430.66
579.37	386.19
579.53	414.27
579.69	442.36
579.85	355.76
580.01	519.60
580.17	390.87
580.33	468.11
580.49	463.43
580.65	337.04
580.82	458.74
580.98	402.57
581.14	381.51
581.30	362.78
581.46	411.93
581.62	404.91
581.78	411.93
581.94	404.91
582.10	358.10
582.26	444.70
582.42	435.34
582.58	442.36
582.74	435.34
582.90	493.85
583.06	484.49
583.22	313.63
583.38	397.89
583.54	367.46
583.70	479.81
583.86	440.02
584.02	404.91
584.18	390.87
584.34	362.78
584.50	386.19
584.66	468.11
584.82	353.42
584.98	421.30
585.14	442.36
585.30	400.23
585.46	433.00
585.62	362.78
585.78	430.66
585.94	465.77
586.10	372.15
586.26	404.91
586.42	433.00
586.58	484.49
586.74	425.98
586.90	477.47
587.06	402.57
587.22	395.55
587.38	386.19
587.54	400.23
587.70	500.87
587.86	456.40
588.02	369.80
588.18	407.25
588.34	393.21
588.49	449.38
588.65	407.25
588.81	444.70
588.97	365.12
589.13	374.49
589.29	435.34
589.45	458.74
589.61	456.40
589.77	463.43
589.93	430.66
590.08	449.38
590.24	425.98
590.40	414.27
590.56	447.04
590.72	470.45
590.88	397.89
591.04	395.55
591.20	395.55
591.35	440.02
591.51	372.15
591.67	428.32
591.83	435.34
591.99	409.59
592.15	500.87
592.31	416.62
592.46	390.87
592.62	472.79
592.78	454.06
592.94	383.85
593.10	472.79
593.26	418.96
593.41	461.09
593.57	503.22
593.73	435.34
593.89	430.66
594.05	493.85
594.20	465.77
594.36	390.87
594.52	418.96
594.68	463.43
594.84	425.98
594.99	402.57
595.15	465.77
595.31	465.77
595.47	414.27
595.62	440.02
595.78	440.02
595.94	458.74
596.10	479.81
596.25	407.25
596.41	416.62
596.57	374.49
596.73	444.70
596.88	430.66
597.04	477.47
597.20	393.21
597.36	510.24
597.51	418.96
597.67	390.87
597.83	383.85
597.99	414.27
598.14	449.38
598.30	421.30
598.46	442.36
598.61	383.85
598.77	493.85
598.93	433.00
599.09	414.27
599.24	449.38
599.40	433.00
599.56	433.00
599.71	400.23
599.87	365.12
600.03	423.64
600.18	358.10
600.34	404.91
600.50	428.32
600.65	402.57
600.81	430.66
600.97	393.21
601.12	428.32
601.28	423.64
601.44	430.66
601.59	397.89
601.75	386.19
601.91	409.59
602.06	472.79
602.22	435.34
602.37	311.29
602.53	463.43
602.69	447.04
602.84	414.27
603.00	447.04
603.16	400.23
603.31	402.57
603.47	477.47
603.62	482.15
603.78	402.57
603.94	351.08
604.09	337.04
604.25	423.64
604.40	411.93
604.56	468.11
604.71	470.45
604.87	418.96
605.03	468.11
605.18	388.53
605.34	451.72
605.49	381.51
605.65	381.51
605.80	379.17
605.96	358.10
606.12	411.93
606.27	437.68
606.43	433.00
606.58	404.91
606.74	463.43
606.89	383.85
607.05	414.27
607.20	500.87
607.36	468.11
607.51	386.19
607.67	386.19
607.82	458.74
607.98	386.19
608.13	400.23
608.29	437.68
608.44	416.62
608.60	393.21
608.75	440.02
608.91	409.59
609.06	425.98
609.22	468.11
609.37	404.91
609.53	386.19
609.68	393.21
609.84	390.87
609.99	386.19
610.15	423.64
