SpectraSuite Data File
++++++++++++++++++++++++++++++++++++
Date: Fri Oct 25 12:11:37 EDT 2013
User: price-jones
Dark Spectrum Present: No
Reference Spectrum Present: No
Number of Sampled Component Spectra: 1
Spectrometers: USB2+H05261
Integration Time (usec): 100000 (USB2+H05261)
Spectra Averaged: 1 (USB2+H05261)
Boxcar Smoothing: 0 (USB2+H05261)
Correct for Electrical Dark: No (USB2+H05261)
Strobe/Lamp Enabled: No (USB2+H05261)
Correct for Detector Non-linearity: No (USB2+H05261)
Correct for Stray Light: No (USB2+H05261)
Number of Pixels in Processed Spectrum: 2048
>>>>>Begin Processed Spectral Data<<<<<
365.73	327.68
365.92	327.68
366.12	327.68
366.32	243.42
366.52	163.84
366.72	205.97
366.91	318.31
367.11	238.73
367.31	250.44
367.51	224.69
367.70	248.10
367.90	257.46
368.10	332.36
368.30	287.89
368.49	236.39
368.69	290.23
368.89	205.97
369.09	299.59
369.28	297.25
369.48	271.50
369.68	313.63
369.87	386.19
370.07	346.40
370.27	325.33
370.47	365.12
370.66	304.27
370.86	334.70
371.06	367.46
371.25	428.32
371.45	430.66
371.65	388.53
371.84	311.29
372.04	327.68
372.24	395.55
372.44	423.64
372.63	400.23
372.83	381.51
373.03	348.74
373.22	355.76
373.42	425.98
373.62	390.87
373.81	367.46
374.01	390.87
374.21	528.96
374.40	447.04
374.60	493.85
374.79	435.34
374.99	400.23
375.19	416.62
375.38	454.06
375.58	369.80
375.78	447.04
375.97	437.68
376.17	444.70
376.37	423.64
376.56	395.55
376.76	440.02
376.95	381.51
377.15	440.02
377.35	409.59
377.54	425.98
377.74	344.06
377.93	381.51
378.13	395.55
378.33	458.74
378.52	355.76
378.72	365.12
378.91	374.49
379.11	372.15
379.31	327.68
379.50	355.76
379.70	402.57
379.89	486.83
380.09	372.15
380.28	381.51
380.48	346.40
380.68	383.85
380.87	407.25
381.07	447.04
381.26	386.19
381.46	400.23
381.65	421.30
381.85	374.49
382.04	341.72
382.24	470.45
382.43	428.32
382.63	301.93
382.83	435.34
383.02	402.57
383.22	444.70
383.41	372.15
383.61	355.76
383.80	454.06
384.00	404.91
384.19	379.17
384.39	388.53
384.58	482.15
384.78	404.91
384.97	397.89
385.17	411.93
385.36	383.85
385.56	407.25
385.75	383.85
385.95	433.00
386.14	416.62
386.34	388.53
386.53	379.17
386.72	458.74
386.92	416.62
387.11	468.11
387.31	437.68
387.50	465.77
387.70	374.49
387.89	440.02
388.09	386.19
388.28	383.85
388.48	465.77
388.67	472.79
388.86	418.96
389.06	421.30
389.25	451.72
389.45	435.34
389.64	381.51
389.84	444.70
390.03	344.06
390.22	458.74
390.42	414.27
390.61	386.19
390.81	386.19
391.00	379.17
391.19	489.17
391.39	451.72
391.58	386.19
391.78	423.64
391.97	362.78
392.16	409.59
392.36	454.06
392.55	482.15
392.75	330.02
392.94	402.57
393.13	393.21
393.33	395.55
393.52	433.00
393.71	449.38
393.91	468.11
394.10	428.32
394.29	393.21
394.49	430.66
394.68	437.68
394.88	468.11
395.07	477.47
395.26	397.89
395.46	461.09
395.65	386.19
395.84	416.62
396.04	414.27
396.23	402.57
396.42	447.04
396.62	395.55
396.81	376.83
397.00	454.06
397.19	463.43
397.39	421.30
397.58	433.00
397.77	442.36
397.97	440.02
398.16	433.00
398.35	372.15
398.55	386.19
398.74	397.89
398.93	456.40
399.12	351.08
399.32	465.77
399.51	346.40
399.70	423.64
399.90	463.43
400.09	414.27
400.28	418.96
400.47	477.47
400.67	414.27
400.86	428.32
401.05	416.62
401.24	433.00
401.44	444.70
401.63	393.21
401.82	404.91
402.01	447.04
402.21	353.42
402.40	482.15
402.59	409.59
402.78	393.21
402.97	482.15
403.17	400.23
403.36	463.43
403.55	440.02
403.74	409.59
403.93	372.15
404.13	435.34
404.32	416.62
404.51	414.27
404.70	400.23
404.89	315.97
405.09	442.36
405.28	353.42
405.47	379.17
405.66	369.80
405.85	468.11
406.05	428.32
406.24	402.57
406.43	461.09
406.62	463.43
406.81	442.36
407.00	444.70
407.20	395.55
407.39	393.21
407.58	374.49
407.77	430.66
407.96	430.66
408.15	390.87
408.34	465.77
408.54	463.43
408.73	395.55
408.92	409.59
409.11	404.91
409.30	465.77
409.49	393.21
409.68	390.87
409.87	440.02
410.07	423.64
410.26	367.46
410.45	449.38
410.64	337.04
410.83	402.57
411.02	397.89
411.21	402.57
411.40	482.15
411.59	376.83
411.78	395.55
411.98	416.62
412.17	435.34
412.36	397.89
412.55	433.00
412.74	465.77
412.93	433.00
413.12	362.78
413.31	416.62
413.50	383.85
413.69	428.32
413.88	407.25
414.07	404.91
414.26	369.80
414.45	386.19
414.64	379.17
414.83	430.66
415.02	425.98
415.22	454.06
415.41	493.85
415.60	397.89
415.79	367.46
415.98	341.72
416.17	456.40
416.36	409.59
416.55	407.25
416.74	461.09
416.93	463.43
417.12	416.62
417.31	442.36
417.50	463.43
417.69	390.87
417.88	479.81
418.07	374.49
418.26	367.46
418.45	475.13
418.64	482.15
418.83	433.00
419.02	414.27
419.21	402.57
419.39	402.57
419.58	404.91
419.77	414.27
419.96	404.91
420.15	482.15
420.34	449.38
420.53	461.09
420.72	379.17
420.91	339.38
421.10	358.10
421.29	435.34
421.48	383.85
421.67	388.53
421.86	395.55
422.05	409.59
422.24	421.30
422.43	442.36
422.61	402.57
422.80	395.55
422.99	393.21
423.18	330.02
423.37	454.06
423.56	447.04
423.75	430.66
423.94	489.17
424.13	503.22
424.32	423.64
424.50	470.45
424.69	449.38
424.88	395.55
425.07	395.55
425.26	416.62
425.45	423.64
425.64	425.98
425.83	489.17
426.01	484.49
426.20	376.83
426.39	404.91
426.58	388.53
426.77	425.98
426.96	433.00
427.15	470.45
427.33	374.49
427.52	409.59
427.71	390.87
427.90	486.83
428.09	463.43
428.28	402.57
428.46	397.89
428.65	444.70
428.84	404.91
429.03	414.27
429.22	442.36
429.40	369.80
429.59	397.89
429.78	430.66
429.97	418.96
430.16	369.80
430.34	414.27
430.53	355.76
430.72	414.27
430.91	423.64
431.10	423.64
431.28	416.62
431.47	454.06
431.66	330.02
431.85	456.40
432.03	388.53
432.22	454.06
432.41	322.99
432.60	393.21
432.79	435.34
432.97	425.98
433.16	470.45
433.35	411.93
433.54	449.38
433.72	409.59
433.91	465.77
434.10	404.91
434.28	395.55
434.47	411.93
434.66	414.27
434.85	479.81
435.03	414.27
435.22	428.32
435.41	479.81
435.59	390.87
435.78	447.04
435.97	421.30
436.16	404.91
436.34	381.51
436.53	367.46
436.72	386.19
436.90	414.27
437.09	383.85
437.28	425.98
437.46	496.19
437.65	397.89
437.84	404.91
438.02	477.47
438.21	475.13
438.40	440.02
438.58	372.15
438.77	383.85
438.96	423.64
439.14	393.21
439.33	404.91
439.52	379.17
439.70	379.17
439.89	463.43
440.08	409.59
440.26	423.64
440.45	351.08
440.63	404.91
440.82	376.83
441.01	386.19
441.19	379.17
441.38	411.93
441.57	425.98
441.75	407.25
441.94	442.36
442.12	421.30
442.31	395.55
442.50	379.17
442.68	404.91
442.87	444.70
443.05	395.55
443.24	339.38
443.43	386.19
443.61	390.87
443.80	393.21
443.98	449.38
444.17	437.68
444.35	428.32
444.54	428.32
444.73	470.45
444.91	444.70
445.10	418.96
445.28	358.10
445.47	383.85
445.65	428.32
445.84	348.74
446.02	416.62
446.21	458.74
446.39	423.64
446.58	379.17
446.77	411.93
446.95	418.96
447.14	435.34
447.32	416.62
447.51	407.25
447.69	381.51
447.88	435.34
448.06	489.17
448.25	435.34
448.43	430.66
448.62	404.91
448.80	386.19
448.99	423.64
449.17	433.00
449.36	409.59
449.54	407.25
449.73	430.66
449.91	423.64
450.10	404.91
450.28	379.17
450.46	465.77
450.65	437.68
450.83	400.23
451.02	451.72
451.20	369.80
451.39	393.21
451.57	416.62
451.76	416.62
451.94	386.19
452.13	463.43
452.31	425.98
452.49	416.62
452.68	362.78
452.86	421.30
453.05	442.36
453.23	365.12
453.42	414.27
453.60	402.57
453.78	498.53
453.97	414.27
454.15	358.10
454.34	454.06
454.52	395.55
454.70	433.00
454.89	437.68
455.07	369.80
455.26	411.93
455.44	458.74
455.62	470.45
455.81	404.91
455.99	425.98
456.17	430.66
456.36	430.66
456.54	299.59
456.73	414.27
456.91	411.93
457.09	461.09
457.28	463.43
457.46	411.93
457.64	496.19
457.83	393.21
458.01	433.00
458.19	475.13
458.38	444.70
458.56	372.15
458.74	388.53
458.93	470.45
459.11	353.42
459.29	442.36
459.48	489.17
459.66	404.91
459.84	386.19
460.03	489.17
460.21	435.34
460.39	433.00
460.57	379.17
460.76	456.40
460.94	416.62
461.12	423.64
461.31	444.70
461.49	386.19
461.67	402.57
461.85	433.00
462.04	369.80
462.22	671.73
462.40	468.11
462.59	442.36
462.77	416.62
462.95	381.51
463.13	411.93
463.32	475.13
463.50	353.42
463.68	449.38
463.86	388.53
464.05	435.34
464.23	414.27
464.41	449.38
464.59	428.32
464.78	409.59
464.96	416.62
465.14	416.62
465.32	390.87
465.50	430.66
465.69	362.78
465.87	430.66
466.05	465.77
466.23	407.25
466.41	379.17
466.60	437.68
466.78	486.83
466.96	451.72
467.14	491.51
467.32	428.32
467.51	503.22
467.69	465.77
467.87	400.23
468.05	423.64
468.23	425.98
468.41	458.74
468.60	451.72
468.78	402.57
468.96	435.34
469.14	449.38
469.32	425.98
469.50	402.57
469.69	379.17
469.87	496.19
470.05	437.68
470.23	435.34
470.41	423.64
470.59	395.55
470.77	372.15
470.95	456.40
471.14	421.30
471.32	397.89
471.50	507.90
471.68	416.62
471.86	414.27
472.04	388.53
472.22	442.36
472.40	411.93
472.58	402.57
472.77	416.62
472.95	388.53
473.13	475.13
473.31	428.32
473.49	390.87
473.67	425.98
473.85	402.57
474.03	440.02
474.21	402.57
474.39	418.96
474.57	451.72
474.75	433.00
474.93	404.91
475.12	372.15
475.30	414.27
475.48	381.51
475.66	411.93
475.84	348.74
476.02	372.15
476.20	425.98
476.38	491.51
476.56	477.47
476.74	484.49
476.92	411.93
477.10	421.30
477.28	435.34
477.46	425.98
477.64	397.89
477.82	397.89
478.00	414.27
478.18	369.80
478.36	390.87
478.54	397.89
478.72	418.96
478.90	437.68
479.08	421.30
479.26	348.74
479.44	503.22
479.62	433.00
479.80	421.30
479.98	444.70
480.16	395.55
480.34	414.27
480.52	447.04
480.70	423.64
480.88	442.36
481.06	388.53
481.24	440.02
481.41	367.46
481.59	454.06
481.77	423.64
481.95	416.62
482.13	465.77
482.31	348.74
482.49	409.59
482.67	435.34
482.85	386.19
483.03	442.36
483.21	461.09
483.39	379.17
483.57	414.27
483.74	461.09
483.92	402.57
484.10	430.66
484.28	414.27
484.46	472.79
484.64	379.17
484.82	416.62
485.00	390.87
485.18	400.23
485.35	421.30
485.53	418.96
485.71	437.68
485.89	365.12
486.07	437.68
486.25	402.57
486.43	421.30
486.61	449.38
486.78	411.93
486.96	414.27
487.14	425.98
487.32	409.59
487.50	447.04
487.68	374.49
487.85	341.72
488.03	442.36
488.21	383.85
488.39	421.30
488.57	482.15
488.75	388.53
488.92	461.09
489.10	402.57
489.28	444.70
489.46	330.02
489.64	433.00
489.81	379.17
489.99	463.43
490.17	421.30
490.35	397.89
490.53	451.72
490.70	418.96
490.88	521.94
491.06	414.27
491.24	433.00
491.41	414.27
491.59	428.32
491.77	404.91
491.95	444.70
492.13	360.44
492.30	437.68
492.48	472.79
492.66	442.36
492.84	433.00
493.01	374.49
493.19	423.64
493.37	500.87
493.54	388.53
493.72	379.17
493.90	346.40
494.08	395.55
494.25	395.55
494.43	327.68
494.61	449.38
494.79	395.55
494.96	416.62
495.14	393.21
495.32	425.98
495.49	397.89
495.67	388.53
495.85	423.64
496.02	435.34
496.20	423.64
496.38	454.06
496.55	418.96
496.73	454.06
496.91	458.74
497.09	418.96
497.26	503.22
497.44	498.53
497.62	383.85
497.79	475.13
497.97	451.72
498.14	393.21
498.32	390.87
498.50	442.36
498.67	479.81
498.85	416.62
499.03	369.80
499.20	369.80
499.38	435.34
499.56	411.93
499.73	475.13
499.91	482.15
500.08	421.30
500.26	423.64
500.44	407.25
500.61	411.93
500.79	397.89
500.97	381.51
501.14	468.11
501.32	435.34
501.49	447.04
501.67	367.46
501.84	519.60
502.02	402.57
502.20	414.27
502.37	386.19
502.55	402.57
502.72	435.34
502.90	414.27
503.07	386.19
503.25	315.97
503.43	463.43
503.60	451.72
503.78	433.00
503.95	435.34
504.13	388.53
504.30	383.85
504.48	390.87
504.65	531.30
504.83	512.58
505.01	386.19
505.18	447.04
505.36	447.04
505.53	339.38
505.71	449.38
505.88	416.62
506.06	344.06
506.23	416.62
506.41	430.66
506.58	397.89
506.76	355.76
506.93	463.43
507.11	454.06
507.28	404.91
507.46	395.55
507.63	416.62
507.81	447.04
507.98	402.57
508.16	430.66
508.33	355.76
508.50	407.25
508.68	353.42
508.85	402.57
509.03	423.64
509.20	411.93
509.38	456.40
509.55	447.04
509.73	423.64
509.90	383.85
510.08	418.96
510.25	437.68
510.42	404.91
510.60	498.53
510.77	376.83
510.95	402.57
511.12	393.21
511.30	393.21
511.47	409.59
511.64	486.83
511.82	407.25
511.99	379.17
512.17	376.83
512.34	407.25
512.51	416.62
512.69	449.38
512.86	468.11
513.04	416.62
513.21	465.77
513.38	447.04
513.56	416.62
513.73	393.21
513.90	386.19
514.08	383.85
514.25	425.98
514.43	379.17
514.60	428.32
514.77	372.15
514.95	409.59
515.12	463.43
515.29	465.77
515.47	386.19
515.64	390.87
515.81	435.34
515.99	472.79
516.16	386.19
516.33	449.38
516.51	381.51
516.68	360.44
516.85	402.57
517.03	442.36
517.20	440.02
517.37	489.17
517.54	470.45
517.72	369.80
517.89	482.15
518.06	477.47
518.24	374.49
518.41	489.17
518.58	428.32
518.75	458.74
518.93	428.32
519.10	409.59
519.27	428.32
519.45	449.38
519.62	442.36
519.79	440.02
519.96	376.83
520.14	388.53
520.31	468.11
520.48	428.32
520.65	437.68
520.83	458.74
521.00	369.80
521.17	454.06
521.34	395.55
521.52	414.27
521.69	353.42
521.86	393.21
522.03	435.34
522.20	425.98
522.38	337.04
522.55	383.85
522.72	404.91
522.89	397.89
523.07	376.83
523.24	400.23
523.41	416.62
523.58	367.46
523.75	416.62
523.92	388.53
524.10	456.40
524.27	400.23
524.44	430.66
524.61	428.32
524.78	416.62
524.96	423.64
525.13	414.27
525.30	435.34
525.47	484.49
525.64	444.70
525.81	404.91
525.98	397.89
526.16	449.38
526.33	437.68
526.50	367.46
526.67	442.36
526.84	400.23
527.01	388.53
527.18	458.74
527.36	362.78
527.53	454.06
527.70	395.55
527.87	372.15
528.04	479.81
528.21	451.72
528.38	404.91
528.55	447.04
528.72	376.83
528.89	451.72
529.07	372.15
529.24	428.32
529.41	484.49
529.58	425.98
529.75	348.74
529.92	463.43
530.09	447.04
530.26	435.34
530.43	447.04
530.60	425.98
530.77	390.87
530.94	318.31
531.11	496.19
531.28	397.89
531.46	383.85
531.63	348.74
531.80	428.32
531.97	463.43
532.14	388.53
532.31	435.34
532.48	440.02
532.65	416.62
532.82	442.36
532.99	451.72
533.16	468.11
533.33	369.80
533.50	442.36
533.67	386.19
533.84	362.78
534.01	358.10
534.18	444.70
534.35	381.51
534.52	407.25
534.69	468.11
534.86	416.62
535.03	381.51
535.20	428.32
535.37	360.44
535.54	411.93
535.71	362.78
535.88	493.85
536.05	425.98
536.22	407.25
536.38	374.49
536.55	404.91
536.72	479.81
536.89	423.64
537.06	374.49
537.23	447.04
537.40	421.30
537.57	435.34
537.74	376.83
537.91	388.53
538.08	475.13
538.25	423.64
538.42	393.21
538.59	425.98
538.75	435.34
538.92	470.45
539.09	433.00
539.26	402.57
539.43	503.22
539.60	428.32
539.77	372.15
539.94	451.72
540.11	334.70
540.28	344.06
540.44	425.98
540.61	397.89
540.78	435.34
540.95	421.30
541.12	390.87
541.29	381.51
541.46	437.68
541.62	433.00
541.79	449.38
541.96	425.98
542.13	360.44
542.30	440.02
542.47	421.30
542.63	379.17
542.80	440.02
542.97	496.19
543.14	386.19
543.31	348.74
543.48	442.36
543.64	470.45
543.81	468.11
543.98	376.83
544.15	400.23
544.32	435.34
544.48	414.27
544.65	468.11
544.82	486.83
544.99	470.45
545.16	456.40
545.32	425.98
545.49	428.32
545.66	404.91
545.83	437.68
546.00	372.15
546.16	395.55
546.33	409.59
546.50	428.32
546.67	400.23
546.83	461.09
547.00	428.32
547.17	444.70
547.34	423.64
547.50	411.93
547.67	449.38
547.84	414.27
548.00	458.74
548.17	447.04
548.34	390.87
548.51	390.87
548.67	456.40
548.84	409.59
549.01	379.17
549.18	472.79
549.34	393.21
549.51	447.04
549.68	428.32
549.84	470.45
550.01	411.93
550.18	463.43
550.34	479.81
550.51	430.66
550.68	440.02
550.84	395.55
551.01	470.45
551.18	416.62
551.34	397.89
551.51	379.17
551.68	447.04
551.84	383.85
552.01	388.53
552.18	383.85
552.34	411.93
552.51	397.89
552.68	379.17
552.84	428.32
553.01	416.62
553.18	465.77
553.34	428.32
553.51	407.25
553.67	407.25
553.84	416.62
554.01	379.17
554.17	428.32
554.34	393.21
554.51	498.53
554.67	351.08
554.84	449.38
555.00	386.19
555.17	496.19
555.33	393.21
555.50	440.02
555.67	339.38
555.83	421.30
556.00	407.25
556.16	552.37
556.33	433.00
556.50	435.34
556.66	411.93
556.83	372.15
556.99	454.06
557.16	423.64
557.32	489.17
557.49	428.32
557.65	397.89
557.82	430.66
557.98	393.21
558.15	355.76
558.32	379.17
558.48	383.85
558.65	393.21
558.81	376.83
558.98	428.32
559.14	402.57
559.31	468.11
559.47	437.68
559.64	388.53
559.80	418.96
559.97	444.70
560.13	379.17
560.30	411.93
560.46	386.19
560.63	355.76
560.79	402.57
560.96	463.43
561.12	404.91
561.29	341.72
561.45	454.06
561.61	479.81
561.78	528.96
561.94	402.57
562.11	468.11
562.27	372.15
562.44	416.62
562.60	407.25
562.77	430.66
562.93	472.79
563.10	362.78
563.26	425.98
563.42	442.36
563.59	498.53
563.75	461.09
563.92	456.40
564.08	451.72
564.24	461.09
564.41	381.51
564.57	404.91
564.74	374.49
564.90	465.77
565.07	402.57
565.23	411.93
565.39	433.00
565.56	435.34
565.72	400.23
565.88	407.25
566.05	451.72
566.21	428.32
566.38	372.15
566.54	421.30
566.70	416.62
566.87	367.46
567.03	395.55
567.19	454.06
567.36	449.38
567.52	425.98
567.68	393.21
567.85	383.85
568.01	421.30
568.17	423.64
568.34	395.55
568.50	428.32
568.66	393.21
568.83	498.53
568.99	355.76
569.15	486.83
569.32	433.00
569.48	437.68
569.64	346.40
569.81	433.00
569.97	458.74
570.13	456.40
570.30	421.30
570.46	383.85
570.62	435.34
570.78	409.59
570.95	456.40
571.11	416.62
571.27	521.94
571.43	458.74
571.60	477.47
571.76	369.80
571.92	475.13
572.09	423.64
572.25	421.30
572.41	444.70
572.57	433.00
572.74	379.17
572.90	395.55
573.06	451.72
573.22	451.72
573.38	475.13
573.55	454.06
573.71	477.47
573.87	433.00
574.03	362.78
574.20	388.53
574.36	451.72
574.52	414.27
574.68	379.17
574.84	409.59
575.01	444.70
575.17	400.23
575.33	463.43
575.49	376.83
575.65	463.43
575.82	397.89
575.98	430.66
576.14	447.04
576.30	393.21
576.46	423.64
576.62	425.98
576.79	418.96
576.95	397.89
577.11	435.34
577.27	454.06
577.43	376.83
577.59	386.19
577.75	369.80
577.92	430.66
578.08	444.70
578.24	402.57
578.40	400.23
578.56	428.32
578.72	414.27
578.88	479.81
579.04	409.59
579.21	379.17
579.37	418.96
579.53	510.24
579.69	388.53
579.85	414.27
580.01	409.59
580.17	376.83
580.33	456.40
580.49	372.15
580.65	433.00
580.82	442.36
580.98	320.65
581.14	348.74
581.30	498.53
581.46	475.13
581.62	442.36
581.78	421.30
581.94	442.36
582.10	348.74
582.26	402.57
582.42	416.62
582.58	470.45
582.74	416.62
582.90	362.78
583.06	430.66
583.22	388.53
583.38	425.98
583.54	418.96
583.70	498.53
583.86	433.00
584.02	425.98
584.18	498.53
584.34	442.36
584.50	428.32
584.66	372.15
584.82	381.51
584.98	447.04
585.14	423.64
585.30	351.08
585.46	433.00
585.62	325.33
585.78	407.25
585.94	358.10
586.10	447.04
586.26	423.64
586.42	472.79
586.58	337.04
586.74	430.66
586.90	416.62
587.06	400.23
587.22	451.72
587.38	423.64
587.54	404.91
587.70	463.43
587.86	383.85
588.02	353.42
588.18	404.91
588.34	400.23
588.49	369.80
588.65	379.17
588.81	435.34
588.97	472.79
589.13	400.23
589.29	454.06
589.45	418.96
589.61	367.46
589.77	430.66
589.93	498.53
590.08	395.55
590.24	341.72
590.40	397.89
590.56	393.21
590.72	482.15
590.88	447.04
591.04	397.89
591.20	386.19
591.35	390.87
591.51	402.57
591.67	440.02
591.83	341.72
591.99	458.74
592.15	496.19
592.31	442.36
592.46	428.32
592.62	449.38
592.78	440.02
592.94	428.32
593.10	355.76
593.26	496.19
593.41	465.77
593.57	414.27
593.73	348.74
593.89	390.87
594.05	463.43
594.20	482.15
594.36	454.06
594.52	463.43
594.68	414.27
594.84	416.62
594.99	437.68
595.15	383.85
595.31	416.62
595.47	451.72
595.62	491.51
595.78	454.06
595.94	337.04
596.10	395.55
596.25	404.91
596.41	353.42
596.57	397.89
596.73	390.87
596.88	423.64
597.04	425.98
597.20	407.25
597.36	437.68
597.51	376.83
597.67	454.06
597.83	421.30
597.99	400.23
598.14	418.96
598.30	507.90
598.46	425.98
598.61	451.72
598.77	430.66
598.93	411.93
599.09	365.12
599.24	402.57
599.40	491.51
599.56	393.21
599.71	351.08
599.87	416.62
600.03	451.72
600.18	451.72
600.34	468.11
600.50	477.47
600.65	334.70
600.81	479.81
600.97	353.42
601.12	416.62
601.28	503.22
601.44	423.64
601.59	346.40
601.75	381.51
601.91	341.72
602.06	444.70
602.22	449.38
602.37	428.32
602.53	397.89
602.69	423.64
602.84	423.64
603.00	458.74
603.16	423.64
603.31	372.15
603.47	451.72
603.62	407.25
603.78	461.09
603.94	461.09
604.09	365.12
604.25	475.13
604.40	407.25
604.56	365.12
604.71	367.46
604.87	407.25
605.03	341.72
605.18	433.00
605.34	444.70
605.49	362.78
605.65	374.49
605.80	297.25
605.96	388.53
606.12	498.53
606.27	435.34
606.43	409.59
606.58	411.93
606.74	381.51
606.89	407.25
607.05	397.89
607.20	376.83
607.36	430.66
607.51	418.96
607.67	400.23
607.82	414.27
607.98	395.55
608.13	428.32
608.29	451.72
608.44	463.43
608.60	428.32
608.75	454.06
608.91	456.40
609.06	437.68
609.22	418.96
609.37	402.57
609.53	353.42
609.68	458.74
609.84	369.80
609.99	444.70
610.15	458.74
