SpectraSuite Data File
++++++++++++++++++++++++++++++++++++
Date: Fri Oct 25 12:10:35 EDT 2013
User: price-jones
Dark Spectrum Present: No
Reference Spectrum Present: No
Number of Sampled Component Spectra: 1
Spectrometers: USB2+H05261
Integration Time (usec): 100000 (USB2+H05261)
Spectra Averaged: 1 (USB2+H05261)
Boxcar Smoothing: 0 (USB2+H05261)
Correct for Electrical Dark: No (USB2+H05261)
Strobe/Lamp Enabled: No (USB2+H05261)
Correct for Detector Non-linearity: No (USB2+H05261)
Correct for Stray Light: No (USB2+H05261)
Number of Pixels in Processed Spectrum: 2048
>>>>>Begin Processed Spectral Data<<<<<
365.73	383.85
365.92	383.85
366.12	383.85
366.32	217.67
366.52	180.22
366.72	241.08
366.91	339.38
367.11	245.76
367.31	264.48
367.51	238.73
367.70	217.67
367.90	306.61
368.10	259.80
368.30	252.78
368.49	194.26
368.69	266.82
368.89	210.65
369.09	224.69
369.28	266.82
369.48	311.29
369.68	327.68
369.87	320.65
370.07	271.50
370.27	304.27
370.47	273.84
370.66	320.65
370.86	404.91
371.06	416.62
371.25	346.40
371.45	330.02
371.65	358.10
371.84	358.10
372.04	428.32
372.24	362.78
372.44	346.40
372.63	337.04
372.83	376.83
373.03	402.57
373.22	337.04
373.42	351.08
373.62	423.64
373.81	461.09
374.01	379.17
374.21	404.91
374.40	440.02
374.60	425.98
374.79	393.21
374.99	454.06
375.19	400.23
375.38	388.53
375.58	416.62
375.78	416.62
375.97	444.70
376.17	447.04
376.37	454.06
376.56	444.70
376.76	437.68
376.95	407.25
377.15	421.30
377.35	437.68
377.54	423.64
377.74	414.27
377.93	418.96
378.13	369.80
378.33	458.74
378.52	409.59
378.72	390.87
378.91	416.62
379.11	362.78
379.31	409.59
379.50	425.98
379.70	444.70
379.89	435.34
380.09	433.00
380.28	437.68
380.48	435.34
380.68	416.62
380.87	425.98
381.07	449.38
381.26	400.23
381.46	376.83
381.65	425.98
381.85	435.34
382.04	372.15
382.24	367.46
382.43	425.98
382.63	393.21
382.83	374.49
383.02	463.43
383.22	449.38
383.41	351.08
383.61	411.93
383.80	463.43
384.00	482.15
384.19	386.19
384.39	404.91
384.58	414.27
384.78	454.06
384.97	430.66
385.17	355.76
385.36	416.62
385.56	407.25
385.75	379.17
385.95	404.91
386.14	388.53
386.34	379.17
386.53	313.63
386.72	430.66
386.92	372.15
387.11	468.11
387.31	484.49
387.50	344.06
387.70	369.80
387.89	416.62
388.09	423.64
388.28	313.63
388.48	451.72
388.67	465.77
388.86	421.30
389.06	374.49
389.25	397.89
389.45	416.62
389.64	395.55
389.84	362.78
390.03	463.43
390.22	407.25
390.42	393.21
390.61	386.19
390.81	372.15
391.00	390.87
391.19	409.59
391.39	423.64
391.58	395.55
391.78	379.17
391.97	425.98
392.16	341.72
392.36	449.38
392.55	425.98
392.75	390.87
392.94	376.83
393.13	393.21
393.33	470.45
393.52	402.57
393.71	383.85
393.91	402.57
394.10	411.93
394.29	367.46
394.49	379.17
394.68	400.23
394.88	414.27
395.07	463.43
395.26	477.47
395.46	414.27
395.65	390.87
395.84	407.25
396.04	444.70
396.23	400.23
396.42	409.59
396.62	447.04
396.81	402.57
397.00	390.87
397.19	362.78
397.39	383.85
397.58	442.36
397.77	407.25
397.97	400.23
398.16	447.04
398.35	411.93
398.55	411.93
398.74	397.89
398.93	423.64
399.12	365.12
399.32	433.00
399.51	423.64
399.70	351.08
399.90	463.43
400.09	442.36
400.28	463.43
400.47	404.91
400.67	400.23
400.86	418.96
401.05	376.83
401.24	435.34
401.44	404.91
401.63	383.85
401.82	433.00
402.01	327.68
402.21	435.34
402.40	458.74
402.59	456.40
402.78	376.83
402.97	449.38
403.17	444.70
403.36	421.30
403.55	440.02
403.74	297.25
403.93	440.02
404.13	421.30
404.32	346.40
404.51	449.38
404.70	390.87
404.89	386.19
405.09	475.13
405.28	402.57
405.47	383.85
405.66	451.72
405.85	397.89
406.05	374.49
406.24	360.44
406.43	374.49
406.62	425.98
406.81	423.64
407.00	386.19
407.20	379.17
407.39	395.55
407.58	381.51
407.77	402.57
407.96	400.23
408.15	404.91
408.34	383.85
408.54	484.49
408.73	402.57
408.92	425.98
409.11	386.19
409.30	440.02
409.49	318.31
409.68	423.64
409.87	482.15
410.07	344.06
410.26	423.64
410.45	433.00
410.64	308.95
410.83	411.93
411.02	414.27
411.21	430.66
411.40	400.23
411.59	440.02
411.78	407.25
411.98	440.02
412.17	388.53
412.36	491.51
412.55	372.15
412.74	414.27
412.93	428.32
413.12	369.80
413.31	425.98
413.50	379.17
413.69	404.91
413.88	404.91
414.07	379.17
414.26	442.36
414.45	351.08
414.64	414.27
414.83	470.45
415.02	458.74
415.22	414.27
415.41	454.06
415.60	451.72
415.79	376.83
415.98	409.59
416.17	381.51
416.36	423.64
416.55	442.36
416.74	379.17
416.93	449.38
417.12	351.08
417.31	430.66
417.50	372.15
417.69	465.77
417.88	456.40
418.07	360.44
418.26	400.23
418.45	437.68
418.64	472.79
418.83	418.96
419.02	472.79
419.21	397.89
419.39	383.85
419.58	381.51
419.77	393.21
419.96	416.62
420.15	428.32
420.34	379.17
420.53	423.64
420.72	458.74
420.91	320.65
421.10	393.21
421.29	444.70
421.48	404.91
421.67	425.98
421.86	334.70
422.05	365.12
422.24	379.17
422.43	418.96
422.61	423.64
422.80	416.62
422.99	397.89
423.18	456.40
423.37	388.53
423.56	367.46
423.75	435.34
423.94	433.00
424.13	414.27
424.32	449.38
424.50	393.21
424.69	463.43
424.88	442.36
425.07	388.53
425.26	355.76
425.45	442.36
425.64	404.91
425.83	409.59
426.01	402.57
426.20	433.00
426.39	425.98
426.58	425.98
426.77	353.42
426.96	414.27
427.15	442.36
427.33	416.62
427.52	407.25
427.71	475.13
427.90	444.70
428.09	402.57
428.28	294.91
428.46	414.27
428.65	435.34
428.84	454.06
429.03	514.92
429.22	458.74
429.40	372.15
429.59	402.57
429.78	433.00
429.97	444.70
430.16	454.06
430.34	369.80
430.53	358.10
430.72	400.23
430.91	463.43
431.10	440.02
431.28	341.72
431.47	395.55
431.66	374.49
431.85	372.15
432.03	416.62
432.22	449.38
432.41	400.23
432.60	454.06
432.79	346.40
432.97	365.12
433.16	395.55
433.35	404.91
433.54	421.30
433.72	444.70
433.91	463.43
434.10	379.17
434.28	418.96
434.47	381.51
434.66	456.40
434.85	409.59
435.03	423.64
435.22	360.44
435.41	423.64
435.59	475.13
435.78	444.70
435.97	418.96
436.16	479.81
436.34	337.04
436.53	414.27
436.72	440.02
436.90	454.06
437.09	440.02
437.28	414.27
437.46	435.34
437.65	411.93
437.84	397.89
438.02	449.38
438.21	468.11
438.40	393.21
438.58	346.40
438.77	425.98
438.96	430.66
439.14	425.98
439.33	479.81
439.52	379.17
439.70	381.51
439.89	442.36
440.08	468.11
440.26	395.55
440.45	442.36
440.63	397.89
440.82	409.59
441.01	397.89
441.19	390.87
441.38	447.04
441.57	411.93
441.75	414.27
441.94	437.68
442.12	397.89
442.31	421.30
442.50	454.06
442.68	400.23
442.87	444.70
443.05	425.98
443.24	395.55
443.43	475.13
443.61	428.32
443.80	444.70
443.98	339.38
444.17	447.04
444.35	500.87
444.54	477.47
444.73	423.64
444.91	388.53
445.10	360.44
445.28	379.17
445.47	346.40
445.65	388.53
445.84	381.51
446.02	374.49
446.21	517.26
446.39	538.32
446.58	411.93
446.77	393.21
446.95	395.55
447.14	402.57
447.32	442.36
447.51	468.11
447.69	409.59
447.88	444.70
448.06	451.72
448.25	402.57
448.43	346.40
448.62	334.70
448.80	327.68
448.99	409.59
449.17	374.49
449.36	402.57
449.54	395.55
449.73	458.74
449.91	404.91
450.10	397.89
450.28	402.57
450.46	397.89
450.65	407.25
450.83	404.91
451.02	414.27
451.20	337.04
451.39	475.13
451.57	339.38
451.76	414.27
451.94	411.93
452.13	435.34
452.31	451.72
452.49	440.02
452.68	456.40
452.86	376.83
453.05	416.62
453.23	463.43
453.42	379.17
453.60	360.44
453.78	402.57
453.97	418.96
454.15	379.17
454.34	395.55
454.52	355.76
454.70	421.30
454.89	404.91
455.07	423.64
455.26	390.87
455.44	381.51
455.62	433.00
455.81	404.91
455.99	428.32
456.17	388.53
456.36	430.66
456.54	372.15
456.73	402.57
456.91	444.70
457.09	393.21
457.28	437.68
457.46	360.44
457.64	423.64
457.83	425.98
458.01	512.58
458.19	433.00
458.38	390.87
458.56	355.76
458.74	393.21
458.93	362.78
459.11	454.06
459.29	435.34
459.48	402.57
459.66	458.74
459.84	430.66
460.03	430.66
460.21	320.65
460.39	372.15
460.57	465.77
460.76	435.34
460.94	409.59
461.12	407.25
461.31	430.66
461.49	444.70
461.67	430.66
461.85	479.81
462.04	381.51
462.22	753.65
462.40	470.45
462.59	479.81
462.77	379.17
462.95	393.21
463.13	353.42
463.32	421.30
463.50	332.36
463.68	418.96
463.86	411.93
464.05	423.64
464.23	433.00
464.41	421.30
464.59	400.23
464.78	421.30
464.96	397.89
465.14	409.59
465.32	369.80
465.50	388.53
465.69	447.04
465.87	386.19
466.05	447.04
466.23	386.19
466.41	400.23
466.60	425.98
466.78	416.62
466.96	482.15
467.14	461.09
467.32	463.43
467.51	428.32
467.69	395.55
467.87	407.25
468.05	416.62
468.23	447.04
468.41	465.77
468.60	388.53
468.78	395.55
468.96	390.87
469.14	440.02
469.32	362.78
469.50	402.57
469.69	421.30
469.87	444.70
470.05	351.08
470.23	470.45
470.41	479.81
470.59	414.27
470.77	414.27
470.95	362.78
471.14	510.24
471.32	395.55
471.50	437.68
471.68	393.21
471.86	376.83
472.04	433.00
472.22	463.43
472.40	449.38
472.58	442.36
472.77	409.59
472.95	454.06
473.13	482.15
473.31	435.34
473.49	416.62
473.67	383.85
473.85	393.21
474.03	437.68
474.21	367.46
474.39	440.02
474.57	547.69
474.75	358.10
474.93	379.17
475.12	437.68
475.30	360.44
475.48	344.06
475.66	430.66
475.84	414.27
476.02	351.08
476.20	421.30
476.38	421.30
476.56	409.59
476.74	456.40
476.92	421.30
477.10	372.15
477.28	456.40
477.46	430.66
477.64	379.17
477.82	449.38
478.00	425.98
478.18	388.53
478.36	411.93
478.54	372.15
478.72	447.04
478.90	379.17
479.08	461.09
479.26	402.57
479.44	409.59
479.62	337.04
479.80	454.06
479.98	400.23
480.16	475.13
480.34	395.55
480.52	397.89
480.70	440.02
480.88	435.34
481.06	468.11
481.24	421.30
481.41	407.25
481.59	414.27
481.77	404.91
481.95	404.91
482.13	418.96
482.31	454.06
482.49	407.25
482.67	402.57
482.85	458.74
483.03	430.66
483.21	404.91
483.39	374.49
483.57	397.89
483.74	475.13
483.92	440.02
484.10	397.89
484.28	430.66
484.46	491.51
484.64	463.43
484.82	346.40
485.00	404.91
485.18	355.76
485.35	388.53
485.53	383.85
485.71	353.42
485.89	442.36
486.07	472.79
486.25	451.72
486.43	435.34
486.61	447.04
486.78	449.38
486.96	435.34
487.14	390.87
487.32	416.62
487.50	430.66
487.68	447.04
487.85	404.91
488.03	407.25
488.21	365.12
488.39	444.70
488.57	470.45
488.75	437.68
488.92	470.45
489.10	435.34
489.28	428.32
489.46	365.12
489.64	386.19
489.81	461.09
489.99	444.70
490.17	451.72
490.35	484.49
490.53	353.42
490.70	376.83
490.88	400.23
491.06	388.53
491.24	468.11
491.41	379.17
491.59	381.51
491.77	416.62
491.95	423.64
492.13	435.34
492.30	418.96
492.48	400.23
492.66	374.49
492.84	477.47
493.01	409.59
493.19	470.45
493.37	416.62
493.54	440.02
493.72	409.59
493.90	341.72
494.08	402.57
494.25	383.85
494.43	381.51
494.61	416.62
494.79	418.96
494.96	421.30
495.14	456.40
495.32	449.38
495.49	463.43
495.67	400.23
495.85	351.08
496.02	404.91
496.20	423.64
496.38	344.06
496.55	386.19
496.73	395.55
496.91	369.80
497.09	423.64
497.26	423.64
497.44	423.64
497.62	454.06
497.79	362.78
497.97	440.02
498.14	395.55
498.32	358.10
498.50	409.59
498.67	365.12
498.85	451.72
499.03	402.57
499.20	313.63
499.38	376.83
499.56	362.78
499.73	386.19
499.91	411.93
500.08	461.09
500.26	400.23
500.44	358.10
500.61	409.59
500.79	433.00
500.97	435.34
501.14	444.70
501.32	367.46
501.49	400.23
501.67	416.62
501.84	444.70
502.02	339.38
502.20	437.68
502.37	524.28
502.55	386.19
502.72	449.38
502.90	458.74
503.07	449.38
503.25	383.85
503.43	390.87
503.60	440.02
503.78	409.59
503.95	444.70
504.13	292.57
504.30	425.98
504.48	400.23
504.65	395.55
504.83	423.64
505.01	383.85
505.18	369.80
505.36	425.98
505.53	374.49
505.71	390.87
505.88	402.57
506.06	444.70
506.23	397.89
506.41	402.57
506.58	416.62
506.76	437.68
506.93	447.04
507.11	379.17
507.28	421.30
507.46	451.72
507.63	421.30
507.81	421.30
507.98	482.15
508.16	435.34
508.33	400.23
508.50	379.17
508.68	339.38
508.85	390.87
509.03	390.87
509.20	365.12
509.38	468.11
509.55	365.12
509.73	470.45
509.90	440.02
510.08	428.32
510.25	402.57
510.42	386.19
510.60	390.87
510.77	428.32
510.95	411.93
511.12	404.91
511.30	411.93
511.47	367.46
511.64	435.34
511.82	421.30
511.99	477.47
512.17	456.40
512.34	386.19
512.51	440.02
512.69	454.06
512.86	414.27
513.04	430.66
513.21	395.55
513.38	379.17
513.56	458.74
513.73	491.51
513.90	386.19
514.08	449.38
514.25	362.78
514.43	376.83
514.60	395.55
514.77	468.11
514.95	383.85
515.12	386.19
515.29	372.15
515.47	440.02
515.64	463.43
515.81	383.85
515.99	442.36
516.16	440.02
516.33	447.04
516.51	362.78
516.68	383.85
516.85	414.27
517.03	381.51
517.20	437.68
517.37	461.09
517.54	430.66
517.72	379.17
517.89	428.32
518.06	411.93
518.24	414.27
518.41	409.59
518.58	456.40
518.75	386.19
518.93	393.21
519.10	393.21
519.27	402.57
519.45	344.06
519.62	477.47
519.79	402.57
519.96	404.91
520.14	362.78
520.31	423.64
520.48	437.68
520.65	423.64
520.83	400.23
521.00	423.64
521.17	414.27
521.34	444.70
521.52	355.76
521.69	425.98
521.86	374.49
522.03	421.30
522.20	526.62
522.38	374.49
522.55	325.33
522.72	437.68
522.89	421.30
523.07	404.91
523.24	402.57
523.41	376.83
523.58	360.44
523.75	475.13
523.92	388.53
524.10	407.25
524.27	498.53
524.44	421.30
524.61	454.06
524.78	400.23
524.96	367.46
525.13	454.06
525.30	383.85
525.47	463.43
525.64	456.40
525.81	372.15
525.98	383.85
526.16	428.32
526.33	381.51
526.50	404.91
526.67	418.96
526.84	383.85
527.01	404.91
527.18	486.83
527.36	486.83
527.53	346.40
527.70	512.58
527.87	407.25
528.04	477.47
528.21	449.38
528.38	437.68
528.55	435.34
528.72	437.68
528.89	447.04
529.07	393.21
529.24	390.87
529.41	428.32
529.58	362.78
529.75	400.23
529.92	470.45
530.09	447.04
530.26	425.98
530.43	423.64
530.60	400.23
530.77	458.74
530.94	386.19
531.11	404.91
531.28	447.04
531.46	393.21
531.63	468.11
531.80	437.68
531.97	437.68
532.14	402.57
532.31	404.91
532.48	376.83
532.65	428.32
532.82	393.21
532.99	451.72
533.16	414.27
533.33	447.04
533.50	430.66
533.67	437.68
533.84	449.38
534.01	355.76
534.18	374.49
534.35	437.68
534.52	454.06
534.69	437.68
534.86	418.96
535.03	449.38
535.20	425.98
535.37	393.21
535.54	458.74
535.71	376.83
535.88	444.70
536.05	423.64
536.22	435.34
536.38	477.47
536.55	435.34
536.72	418.96
536.89	397.89
537.06	374.49
537.23	397.89
537.40	407.25
537.57	461.09
537.74	472.79
537.91	369.80
538.08	393.21
538.25	381.51
538.42	306.61
538.59	395.55
538.75	395.55
538.92	435.34
539.09	498.53
539.26	369.80
539.43	409.59
539.60	458.74
539.77	449.38
539.94	430.66
540.11	407.25
540.28	404.91
540.44	477.47
540.61	442.36
540.78	425.98
540.95	444.70
541.12	477.47
541.29	386.19
541.46	477.47
541.62	461.09
541.79	332.36
541.96	461.09
542.13	411.93
542.30	386.19
542.47	416.62
542.63	472.79
542.80	404.91
542.97	425.98
543.14	468.11
543.31	346.40
543.48	395.55
543.64	404.91
543.81	468.11
543.98	425.98
544.15	372.15
544.32	421.30
544.48	435.34
544.65	397.89
544.82	470.45
544.99	404.91
545.16	416.62
545.32	383.85
545.49	423.64
545.66	374.49
545.83	397.89
546.00	379.17
546.16	414.27
546.33	437.68
546.50	479.81
546.67	470.45
546.83	444.70
547.00	423.64
547.17	433.00
547.34	442.36
547.50	414.27
547.67	421.30
547.84	456.40
548.00	503.22
548.17	421.30
548.34	411.93
548.51	451.72
548.67	489.17
548.84	423.64
549.01	428.32
549.18	433.00
549.34	423.64
549.51	358.10
549.68	437.68
549.84	393.21
550.01	437.68
550.18	447.04
550.34	414.27
550.51	454.06
550.68	468.11
550.84	416.62
551.01	404.91
551.18	418.96
551.34	442.36
551.51	411.93
551.68	374.49
551.84	365.12
552.01	418.96
552.18	411.93
552.34	423.64
552.51	390.87
552.68	393.21
552.84	435.34
553.01	409.59
553.18	470.45
553.34	379.17
553.51	393.21
553.67	407.25
553.84	351.08
554.01	493.85
554.17	421.30
554.34	365.12
554.51	423.64
554.67	496.19
554.84	465.77
555.00	383.85
555.17	421.30
555.33	458.74
555.50	463.43
555.67	433.00
555.83	444.70
556.00	386.19
556.16	589.82
556.33	411.93
556.50	381.51
556.66	411.93
556.83	430.66
556.99	468.11
557.16	416.62
557.32	458.74
557.49	404.91
557.65	407.25
557.82	395.55
557.98	346.40
558.15	400.23
558.32	449.38
558.48	360.44
558.65	379.17
558.81	372.15
558.98	433.00
559.14	418.96
559.31	383.85
559.47	461.09
559.64	465.77
559.80	503.22
559.97	416.62
560.13	468.11
560.30	409.59
560.46	402.57
560.63	433.00
560.79	414.27
560.96	465.77
561.12	442.36
561.29	376.83
561.45	451.72
561.61	388.53
561.78	463.43
561.94	437.68
562.11	442.36
562.27	425.98
562.44	341.72
562.60	395.55
562.77	381.51
562.93	376.83
563.10	383.85
563.26	430.66
563.42	449.38
563.59	461.09
563.75	334.70
563.92	512.58
564.08	414.27
564.24	458.74
564.41	489.17
564.57	411.93
564.74	372.15
564.90	416.62
565.07	444.70
565.23	372.15
565.39	407.25
565.56	400.23
565.72	428.32
565.88	330.02
566.05	402.57
566.21	400.23
566.38	444.70
566.54	421.30
566.70	472.79
566.87	390.87
567.03	390.87
567.19	442.36
567.36	397.89
567.52	423.64
567.68	430.66
567.85	423.64
568.01	423.64
568.17	397.89
568.34	435.34
568.50	491.51
568.66	421.30
568.83	421.30
568.99	395.55
569.15	376.83
569.32	472.79
569.48	390.87
569.64	416.62
569.81	447.04
569.97	470.45
570.13	477.47
570.30	425.98
570.46	365.12
570.62	470.45
570.78	407.25
570.95	437.68
571.11	477.47
571.27	472.79
571.43	449.38
571.60	397.89
571.76	465.77
571.92	428.32
572.09	337.04
572.25	379.17
572.41	339.38
572.57	372.15
572.74	442.36
572.90	423.64
573.06	430.66
573.22	393.21
573.38	376.83
573.55	404.91
573.71	442.36
573.87	418.96
574.03	416.62
574.20	360.44
574.36	440.02
574.52	411.93
574.68	421.30
574.84	425.98
575.01	449.38
575.17	400.23
575.33	383.85
575.49	463.43
575.65	397.89
575.82	479.81
575.98	435.34
576.14	440.02
576.30	397.89
576.46	390.87
576.62	454.06
576.79	468.11
576.95	540.66
577.11	397.89
577.27	421.30
577.43	433.00
577.59	383.85
577.75	437.68
577.92	411.93
578.08	367.46
578.24	437.68
578.40	407.25
578.56	407.25
578.72	475.13
578.88	428.32
579.04	414.27
579.21	498.53
579.37	423.64
579.53	461.09
579.69	430.66
579.85	367.46
580.01	433.00
580.17	409.59
580.33	376.83
580.49	379.17
580.65	425.98
580.82	383.85
580.98	353.42
581.14	407.25
581.30	423.64
581.46	341.72
581.62	435.34
581.78	437.68
581.94	440.02
582.10	367.46
582.26	425.98
582.42	433.00
582.58	395.55
582.74	449.38
582.90	435.34
583.06	440.02
583.22	433.00
583.38	360.44
583.54	367.46
583.70	395.55
583.86	444.70
584.02	461.09
584.18	519.60
584.34	393.21
584.50	416.62
584.66	369.80
584.82	402.57
584.98	360.44
585.14	423.64
585.30	451.72
585.46	416.62
585.62	423.64
585.78	423.64
585.94	507.90
586.10	395.55
586.26	461.09
586.42	468.11
586.58	465.77
586.74	388.53
586.90	454.06
587.06	425.98
587.22	393.21
587.38	381.51
587.54	351.08
587.70	351.08
587.86	461.09
588.02	407.25
588.18	475.13
588.34	463.43
588.49	451.72
588.65	355.76
588.81	339.38
588.97	421.30
589.13	423.64
589.29	482.15
589.45	486.83
589.61	369.80
589.77	388.53
589.93	411.93
590.08	437.68
590.24	395.55
590.40	390.87
590.56	346.40
590.72	390.87
590.88	390.87
591.04	418.96
591.20	404.91
591.35	451.72
591.51	493.85
591.67	407.25
591.83	458.74
591.99	477.47
592.15	430.66
592.31	400.23
592.46	428.32
592.62	379.17
592.78	355.76
592.94	332.36
593.10	400.23
593.26	379.17
593.41	381.51
593.57	454.06
593.73	334.70
593.89	447.04
594.05	449.38
594.20	388.53
594.36	416.62
594.52	402.57
594.68	400.23
594.84	376.83
594.99	461.09
595.15	505.56
595.31	465.77
595.47	465.77
595.62	404.91
595.78	533.64
595.94	430.66
596.10	554.71
596.25	465.77
596.41	341.72
596.57	397.89
596.73	449.38
596.88	423.64
597.04	362.78
597.20	440.02
597.36	372.15
597.51	397.89
597.67	339.38
597.83	447.04
597.99	437.68
598.14	407.25
598.30	407.25
598.46	428.32
598.61	465.77
598.77	451.72
598.93	421.30
599.09	425.98
599.24	362.78
599.40	442.36
599.56	470.45
599.71	395.55
599.87	440.02
600.03	390.87
600.18	463.43
600.34	440.02
600.50	369.80
600.65	355.76
600.81	416.62
600.97	444.70
601.12	447.04
601.28	369.80
601.44	404.91
601.59	386.19
601.75	395.55
601.91	416.62
602.06	538.32
602.22	458.74
602.37	435.34
602.53	407.25
602.69	433.00
602.84	416.62
603.00	383.85
603.16	390.87
603.31	458.74
603.47	437.68
603.62	442.36
603.78	386.19
603.94	383.85
604.09	416.62
604.25	348.74
604.40	461.09
604.56	388.53
604.71	365.12
604.87	416.62
605.03	465.77
605.18	451.72
605.34	400.23
605.49	444.70
605.65	402.57
605.80	388.53
605.96	369.80
606.12	397.89
606.27	435.34
606.43	435.34
606.58	470.45
606.74	409.59
606.89	425.98
607.05	411.93
607.20	404.91
607.36	472.79
607.51	358.10
607.67	367.46
607.82	397.89
607.98	433.00
608.13	423.64
608.29	535.98
608.44	528.96
608.60	458.74
608.75	463.43
608.91	430.66
609.06	425.98
609.22	433.00
609.37	435.34
609.53	367.46
609.68	414.27
609.84	414.27
609.99	430.66
610.15	435.34
