SpectraSuite Data File
++++++++++++++++++++++++++++++++++++
Date: Fri Oct 25 12:10:48 EDT 2013
User: price-jones
Dark Spectrum Present: No
Reference Spectrum Present: No
Number of Sampled Component Spectra: 1
Spectrometers: USB2+H05261
Integration Time (usec): 100000 (USB2+H05261)
Spectra Averaged: 1 (USB2+H05261)
Boxcar Smoothing: 0 (USB2+H05261)
Correct for Electrical Dark: No (USB2+H05261)
Strobe/Lamp Enabled: No (USB2+H05261)
Correct for Detector Non-linearity: No (USB2+H05261)
Correct for Stray Light: No (USB2+H05261)
Number of Pixels in Processed Spectrum: 2048
>>>>>Begin Processed Spectral Data<<<<<
365.73	297.25
365.92	297.25
366.12	297.25
366.32	311.29
366.52	243.42
366.72	241.08
366.91	220.01
367.11	269.16
367.31	224.69
367.51	189.58
367.70	243.42
367.90	257.46
368.10	222.35
368.30	294.91
368.49	234.05
368.69	299.59
368.89	234.05
369.09	215.33
369.28	299.59
369.48	322.99
369.68	327.68
369.87	332.36
370.07	325.33
370.27	299.59
370.47	362.78
370.66	351.08
370.86	388.53
371.06	400.23
371.25	451.72
371.45	353.42
371.65	449.38
371.84	362.78
372.04	339.38
372.24	395.55
372.44	407.25
372.63	395.55
372.83	390.87
373.03	411.93
373.22	369.80
373.42	367.46
373.62	423.64
373.81	374.49
374.01	430.66
374.21	444.70
374.40	456.40
374.60	365.12
374.79	330.02
374.99	423.64
375.19	465.77
375.38	418.96
375.58	430.66
375.78	435.34
375.97	430.66
376.17	510.24
376.37	351.08
376.56	461.09
376.76	444.70
376.95	414.27
377.15	397.89
377.35	482.15
377.54	416.62
377.74	425.98
377.93	451.72
378.13	463.43
378.33	451.72
378.52	449.38
378.72	409.59
378.91	383.85
379.11	390.87
379.31	379.17
379.50	346.40
379.70	374.49
379.89	400.23
380.09	416.62
380.28	456.40
380.48	430.66
380.68	376.83
380.87	346.40
381.07	365.12
381.26	376.83
381.46	376.83
381.65	407.25
381.85	454.06
382.04	489.17
382.24	454.06
382.43	423.64
382.63	355.76
382.83	421.30
383.02	337.04
383.22	416.62
383.41	402.57
383.61	437.68
383.80	444.70
384.00	440.02
384.19	395.55
384.39	482.15
384.58	421.30
384.78	346.40
384.97	418.96
385.17	423.64
385.36	404.91
385.56	299.59
385.75	376.83
385.95	430.66
386.14	449.38
386.34	414.27
386.53	440.02
386.72	423.64
386.92	447.04
387.11	393.21
387.31	414.27
387.50	386.19
387.70	423.64
387.89	402.57
388.09	397.89
388.28	395.55
388.48	440.02
388.67	447.04
388.86	362.78
389.06	414.27
389.25	414.27
389.45	433.00
389.64	339.38
389.84	402.57
390.03	397.89
390.22	355.76
390.42	425.98
390.61	372.15
390.81	360.44
391.00	451.72
391.19	407.25
391.39	390.87
391.58	416.62
391.78	358.10
391.97	447.04
392.16	414.27
392.36	430.66
392.55	470.45
392.75	456.40
392.94	482.15
393.13	437.68
393.33	430.66
393.52	463.43
393.71	411.93
393.91	418.96
394.10	411.93
394.29	409.59
394.49	376.83
394.68	454.06
394.88	372.15
395.07	383.85
395.26	395.55
395.46	360.44
395.65	507.90
395.84	407.25
396.04	435.34
396.23	435.34
396.42	367.46
396.62	358.10
396.81	411.93
397.00	376.83
397.19	372.15
397.39	395.55
397.58	400.23
397.77	435.34
397.97	409.59
398.16	423.64
398.35	353.42
398.55	381.51
398.74	402.57
398.93	372.15
399.12	447.04
399.32	475.13
399.51	390.87
399.70	418.96
399.90	367.46
400.09	383.85
400.28	444.70
400.47	418.96
400.67	365.12
400.86	388.53
401.05	414.27
401.24	430.66
401.44	414.27
401.63	437.68
401.82	383.85
402.01	472.79
402.21	381.51
402.40	493.85
402.59	376.83
402.78	360.44
402.97	428.32
403.17	337.04
403.36	395.55
403.55	341.72
403.74	362.78
403.93	386.19
404.13	362.78
404.32	358.10
404.51	449.38
404.70	301.93
404.89	390.87
405.09	437.68
405.28	421.30
405.47	430.66
405.66	442.36
405.85	418.96
406.05	400.23
406.24	421.30
406.43	421.30
406.62	404.91
406.81	416.62
407.00	383.85
407.20	362.78
407.39	440.02
407.58	409.59
407.77	414.27
407.96	383.85
408.15	433.00
408.34	393.21
408.54	374.49
408.73	365.12
408.92	383.85
409.11	428.32
409.30	430.66
409.49	365.12
409.68	386.19
409.87	442.36
410.07	332.36
410.26	395.55
410.45	388.53
410.64	444.70
410.83	435.34
411.02	325.33
411.21	421.30
411.40	423.64
411.59	454.06
411.78	407.25
411.98	489.17
412.17	433.00
412.36	386.19
412.55	381.51
412.74	465.77
412.93	433.00
413.12	390.87
413.31	393.21
413.50	353.42
413.69	381.51
413.88	463.43
414.07	404.91
414.26	386.19
414.45	358.10
414.64	374.49
414.83	440.02
415.02	397.89
415.22	468.11
415.41	458.74
415.60	358.10
415.79	393.21
415.98	484.49
416.17	498.53
416.36	388.53
416.55	418.96
416.74	423.64
416.93	423.64
417.12	386.19
417.31	421.30
417.50	440.02
417.69	423.64
417.88	376.83
418.07	367.46
418.26	418.96
418.45	447.04
418.64	451.72
418.83	409.59
419.02	358.10
419.21	374.49
419.39	334.70
419.58	365.12
419.77	379.17
419.96	463.43
420.15	388.53
420.34	463.43
420.53	346.40
420.72	454.06
420.91	311.29
421.10	414.27
421.29	463.43
421.48	498.53
421.67	369.80
421.86	433.00
422.05	425.98
422.24	423.64
422.43	304.27
422.61	430.66
422.80	411.93
422.99	435.34
423.18	360.44
423.37	407.25
423.56	444.70
423.75	409.59
423.94	416.62
424.13	407.25
424.32	388.53
424.50	470.45
424.69	444.70
424.88	430.66
425.07	437.68
425.26	482.15
425.45	433.00
425.64	376.83
425.83	365.12
426.01	461.09
426.20	479.81
426.39	358.10
426.58	435.34
426.77	365.12
426.96	435.34
427.15	486.83
427.33	353.42
427.52	421.30
427.71	451.72
427.90	383.85
428.09	395.55
428.28	421.30
428.46	440.02
428.65	409.59
428.84	379.17
429.03	425.98
429.22	404.91
429.40	374.49
429.59	365.12
429.78	404.91
429.97	379.17
430.16	386.19
430.34	271.50
430.53	381.51
430.72	383.85
430.91	400.23
431.10	395.55
431.28	367.46
431.47	517.26
431.66	411.93
431.85	388.53
432.03	416.62
432.22	374.49
432.41	379.17
432.60	461.09
432.79	390.87
432.97	421.30
433.16	409.59
433.35	390.87
433.54	376.83
433.72	449.38
433.91	440.02
434.10	367.46
434.28	339.38
434.47	456.40
434.66	386.19
434.85	444.70
435.03	449.38
435.22	456.40
435.41	395.55
435.59	430.66
435.78	388.53
435.97	454.06
436.16	383.85
436.34	390.87
436.53	430.66
436.72	489.17
436.90	423.64
437.09	468.11
437.28	358.10
437.46	341.72
437.65	449.38
437.84	402.57
438.02	491.51
438.21	367.46
438.40	358.10
438.58	355.76
438.77	351.08
438.96	369.80
439.14	409.59
439.33	372.15
439.52	393.21
439.70	351.08
439.89	397.89
440.08	379.17
440.26	404.91
440.45	425.98
440.63	482.15
440.82	444.70
441.01	482.15
441.19	383.85
441.38	332.36
441.57	386.19
441.75	353.42
441.94	454.06
442.12	430.66
442.31	367.46
442.50	411.93
442.68	433.00
442.87	400.23
443.05	386.19
443.24	440.02
443.43	421.30
443.61	374.49
443.80	341.72
443.98	379.17
444.17	416.62
444.35	442.36
444.54	397.89
444.73	386.19
444.91	421.30
445.10	440.02
445.28	374.49
445.47	360.44
445.65	379.17
445.84	402.57
446.02	449.38
446.21	421.30
446.39	416.62
446.58	430.66
446.77	383.85
446.95	507.90
447.14	404.91
447.32	468.11
447.51	400.23
447.69	376.83
447.88	449.38
448.06	397.89
448.25	500.87
448.43	397.89
448.62	386.19
448.80	418.96
448.99	489.17
449.17	383.85
449.36	374.49
449.54	477.47
449.73	374.49
449.91	351.08
450.10	449.38
450.28	500.87
450.46	423.64
450.65	503.22
450.83	433.00
451.02	418.96
451.20	372.15
451.39	395.55
451.57	437.68
451.76	393.21
451.94	442.36
452.13	386.19
452.31	416.62
452.49	472.79
452.68	397.89
452.86	395.55
453.05	430.66
453.23	393.21
453.42	411.93
453.60	461.09
453.78	376.83
453.97	388.53
454.15	339.38
454.34	402.57
454.52	367.46
454.70	414.27
454.89	416.62
455.07	341.72
455.26	372.15
455.44	465.77
455.62	393.21
455.81	395.55
455.99	454.06
456.17	458.74
456.36	397.89
456.54	421.30
456.73	404.91
456.91	381.51
457.09	397.89
457.28	376.83
457.46	454.06
457.64	447.04
457.83	444.70
458.01	414.27
458.19	367.46
458.38	372.15
458.56	414.27
458.74	425.98
458.93	456.40
459.11	332.36
459.29	407.25
459.48	468.11
459.66	449.38
459.84	381.51
460.03	461.09
460.21	386.19
460.39	365.12
460.57	388.53
460.76	454.06
460.94	433.00
461.12	447.04
461.31	454.06
461.49	393.21
461.67	458.74
461.85	433.00
462.04	355.76
462.22	774.72
462.40	430.66
462.59	428.32
462.77	414.27
462.95	414.27
463.13	465.77
463.32	425.98
463.50	344.06
463.68	390.87
463.86	402.57
464.05	390.87
464.23	421.30
464.41	386.19
464.59	456.40
464.78	369.80
464.96	411.93
465.14	390.87
465.32	360.44
465.50	468.11
465.69	418.96
465.87	355.76
466.05	461.09
466.23	346.40
466.41	414.27
466.60	397.89
466.78	379.17
466.96	395.55
467.14	423.64
467.32	411.93
467.51	397.89
467.69	503.22
467.87	451.72
468.05	369.80
468.23	402.57
468.41	421.30
468.60	381.51
468.78	397.89
468.96	496.19
469.14	440.02
469.32	341.72
469.50	418.96
469.69	421.30
469.87	372.15
470.05	397.89
470.23	465.77
470.41	397.89
470.59	430.66
470.77	463.43
470.95	482.15
471.14	379.17
471.32	395.55
471.50	423.64
471.68	425.98
471.86	442.36
472.04	449.38
472.22	365.12
472.40	416.62
472.58	411.93
472.77	414.27
472.95	365.12
473.13	393.21
473.31	423.64
473.49	472.79
473.67	393.21
473.85	433.00
474.03	444.70
474.21	482.15
474.39	393.21
474.57	423.64
474.75	423.64
474.93	374.49
475.12	379.17
475.30	376.83
475.48	461.09
475.66	430.66
475.84	418.96
476.02	442.36
476.20	397.89
476.38	430.66
476.56	465.77
476.74	430.66
476.92	395.55
477.10	402.57
477.28	407.25
477.46	456.40
477.64	463.43
477.82	411.93
478.00	351.08
478.18	351.08
478.36	440.02
478.54	444.70
478.72	418.96
478.90	493.85
479.08	376.83
479.26	456.40
479.44	358.10
479.62	353.42
479.80	416.62
479.98	388.53
480.16	458.74
480.34	395.55
480.52	388.53
480.70	440.02
480.88	433.00
481.06	369.80
481.24	400.23
481.41	421.30
481.59	468.11
481.77	337.04
481.95	390.87
482.13	496.19
482.31	442.36
482.49	337.04
482.67	428.32
482.85	397.89
483.03	449.38
483.21	397.89
483.39	414.27
483.57	482.15
483.74	505.56
483.92	386.19
484.10	430.66
484.28	423.64
484.46	435.34
484.64	379.17
484.82	414.27
485.00	456.40
485.18	372.15
485.35	376.83
485.53	404.91
485.71	461.09
485.89	430.66
486.07	414.27
486.25	472.79
486.43	386.19
486.61	355.76
486.78	407.25
486.96	437.68
487.14	416.62
487.32	421.30
487.50	397.89
487.68	414.27
487.85	334.70
488.03	470.45
488.21	437.68
488.39	423.64
488.57	440.02
488.75	430.66
488.92	528.96
489.10	365.12
489.28	463.43
489.46	341.72
489.64	330.02
489.81	400.23
489.99	503.22
490.17	444.70
490.35	456.40
490.53	454.06
490.70	397.89
490.88	433.00
491.06	409.59
491.24	442.36
491.41	428.32
491.59	430.66
491.77	423.64
491.95	388.53
492.13	400.23
492.30	390.87
492.48	369.80
492.66	390.87
492.84	334.70
493.01	402.57
493.19	395.55
493.37	374.49
493.54	421.30
493.72	372.15
493.90	407.25
494.08	489.17
494.25	360.44
494.43	395.55
494.61	353.42
494.79	440.02
494.96	402.57
495.14	409.59
495.32	400.23
495.49	374.49
495.67	486.83
495.85	411.93
496.02	409.59
496.20	491.51
496.38	437.68
496.55	414.27
496.73	407.25
496.91	402.57
497.09	386.19
497.26	423.64
497.44	402.57
497.62	374.49
497.79	435.34
497.97	430.66
498.14	442.36
498.32	430.66
498.50	433.00
498.67	407.25
498.85	423.64
499.03	395.55
499.20	411.93
499.38	477.47
499.56	397.89
499.73	367.46
499.91	493.85
500.08	435.34
500.26	374.49
500.44	440.02
500.61	346.40
500.79	358.10
500.97	437.68
501.14	451.72
501.32	440.02
501.49	507.90
501.67	407.25
501.84	468.11
502.02	362.78
502.20	421.30
502.37	400.23
502.55	388.53
502.72	421.30
502.90	458.74
503.07	423.64
503.25	430.66
503.43	395.55
503.60	447.04
503.78	435.34
503.95	416.62
504.13	383.85
504.30	447.04
504.48	435.34
504.65	372.15
504.83	428.32
505.01	414.27
505.18	435.34
505.36	458.74
505.53	433.00
505.71	418.96
505.88	449.38
506.06	442.36
506.23	402.57
506.41	383.85
506.58	423.64
506.76	327.68
506.93	388.53
507.11	411.93
507.28	362.78
507.46	393.21
507.63	404.91
507.81	418.96
507.98	421.30
508.16	437.68
508.33	327.68
508.50	409.59
508.68	409.59
508.85	393.21
509.03	395.55
509.20	423.64
509.38	395.55
509.55	395.55
509.73	395.55
509.90	430.66
510.08	376.83
510.25	393.21
510.42	440.02
510.60	395.55
510.77	332.36
510.95	440.02
511.12	465.77
511.30	418.96
511.47	435.34
511.64	418.96
511.82	376.83
511.99	358.10
512.17	353.42
512.34	477.47
512.51	423.64
512.69	425.98
512.86	451.72
513.04	472.79
513.21	388.53
513.38	447.04
513.56	454.06
513.73	372.15
513.90	374.49
514.08	360.44
514.25	381.51
514.43	388.53
514.60	447.04
514.77	442.36
514.95	449.38
515.12	402.57
515.29	430.66
515.47	388.53
515.64	430.66
515.81	442.36
515.99	440.02
516.16	402.57
516.33	411.93
516.51	381.51
516.68	339.38
516.85	386.19
517.03	390.87
517.20	400.23
517.37	425.98
517.54	437.68
517.72	510.24
517.89	400.23
518.06	386.19
518.24	454.06
518.41	491.51
518.58	379.17
518.75	402.57
518.93	418.96
519.10	512.58
519.27	379.17
519.45	437.68
519.62	386.19
519.79	484.49
519.96	376.83
520.14	479.81
520.31	472.79
520.48	402.57
520.65	484.49
520.83	383.85
521.00	414.27
521.17	507.90
521.34	337.04
521.52	486.83
521.69	395.55
521.86	435.34
522.03	477.47
522.20	479.81
522.38	430.66
522.55	423.64
522.72	411.93
522.89	409.59
523.07	461.09
523.24	423.64
523.41	379.17
523.58	355.76
523.75	428.32
523.92	468.11
524.10	395.55
524.27	402.57
524.44	400.23
524.61	442.36
524.78	430.66
524.96	402.57
525.13	411.93
525.30	479.81
525.47	486.83
525.64	409.59
525.81	468.11
525.98	418.96
526.16	440.02
526.33	404.91
526.50	383.85
526.67	372.15
526.84	388.53
527.01	402.57
527.18	416.62
527.36	374.49
527.53	407.25
527.70	451.72
527.87	425.98
528.04	393.21
528.21	390.87
528.38	390.87
528.55	409.59
528.72	456.40
528.89	400.23
529.07	425.98
529.24	493.85
529.41	461.09
529.58	435.34
529.75	456.40
529.92	456.40
530.09	435.34
530.26	411.93
530.43	421.30
530.60	472.79
530.77	430.66
530.94	430.66
531.11	458.74
531.28	416.62
531.46	306.61
531.63	386.19
531.80	390.87
531.97	449.38
532.14	440.02
532.31	355.76
532.48	400.23
532.65	423.64
532.82	454.06
532.99	475.13
533.16	418.96
533.33	376.83
533.50	433.00
533.67	374.49
533.84	423.64
534.01	428.32
534.18	423.64
534.35	451.72
534.52	451.72
534.69	409.59
534.86	433.00
535.03	433.00
535.20	402.57
535.37	360.44
535.54	411.93
535.71	409.59
535.88	461.09
536.05	362.78
536.22	486.83
536.38	423.64
536.55	428.32
536.72	425.98
536.89	430.66
537.06	411.93
537.23	472.79
537.40	358.10
537.57	421.30
537.74	400.23
537.91	423.64
538.08	449.38
538.25	418.96
538.42	418.96
538.59	423.64
538.75	388.53
538.92	447.04
539.09	372.15
539.26	433.00
539.43	444.70
539.60	430.66
539.77	433.00
539.94	409.59
540.11	458.74
540.28	423.64
540.44	414.27
540.61	423.64
540.78	407.25
540.95	416.62
541.12	433.00
541.29	435.34
541.46	468.11
541.62	470.45
541.79	381.51
541.96	414.27
542.13	418.96
542.30	435.34
542.47	393.21
542.63	381.51
542.80	411.93
542.97	383.85
543.14	383.85
543.31	416.62
543.48	425.98
543.64	430.66
543.81	379.17
543.98	344.06
544.15	407.25
544.32	374.49
544.48	428.32
544.65	390.87
544.82	400.23
544.99	348.74
545.16	458.74
545.32	383.85
545.49	451.72
545.66	383.85
545.83	414.27
546.00	418.96
546.16	435.34
546.33	393.21
546.50	341.72
546.67	433.00
546.83	496.19
547.00	437.68
547.17	407.25
547.34	451.72
547.50	402.57
547.67	454.06
547.84	393.21
548.00	397.89
548.17	430.66
548.34	414.27
548.51	433.00
548.67	442.36
548.84	397.89
549.01	456.40
549.18	479.81
549.34	393.21
549.51	393.21
549.68	447.04
549.84	437.68
550.01	482.15
550.18	521.94
550.34	449.38
550.51	416.62
550.68	517.26
550.84	437.68
551.01	407.25
551.18	416.62
551.34	433.00
551.51	381.51
551.68	388.53
551.84	458.74
552.01	402.57
552.18	379.17
552.34	407.25
552.51	360.44
552.68	458.74
552.84	425.98
553.01	444.70
553.18	472.79
553.34	383.85
553.51	451.72
553.67	454.06
553.84	386.19
554.01	388.53
554.17	386.19
554.34	386.19
554.51	390.87
554.67	369.80
554.84	397.89
555.00	393.21
555.17	423.64
555.33	409.59
555.50	397.89
555.67	362.78
555.83	423.64
556.00	451.72
556.16	543.00
556.33	458.74
556.50	404.91
556.66	430.66
556.83	339.38
556.99	418.96
557.16	395.55
557.32	337.04
557.49	355.76
557.65	388.53
557.82	400.23
557.98	447.04
558.15	414.27
558.32	358.10
558.48	418.96
558.65	435.34
558.81	435.34
558.98	404.91
559.14	400.23
559.31	379.17
559.47	454.06
559.64	358.10
559.80	477.47
559.97	411.93
560.13	407.25
560.30	430.66
560.46	418.96
560.63	491.51
560.79	433.00
560.96	346.40
561.12	404.91
561.29	461.09
561.45	456.40
561.61	482.15
561.78	440.02
561.94	369.80
562.11	386.19
562.27	416.62
562.44	397.89
562.60	435.34
562.77	470.45
562.93	402.57
563.10	442.36
563.26	465.77
563.42	418.96
563.59	393.21
563.75	402.57
563.92	397.89
564.08	374.49
564.24	444.70
564.41	465.77
564.57	411.93
564.74	409.59
564.90	454.06
565.07	458.74
565.23	421.30
565.39	461.09
565.56	461.09
565.72	430.66
565.88	372.15
566.05	400.23
566.21	365.12
566.38	393.21
566.54	449.38
566.70	414.27
566.87	411.93
567.03	437.68
567.19	407.25
567.36	486.83
567.52	430.66
567.68	346.40
567.85	404.91
568.01	386.19
568.17	379.17
568.34	374.49
568.50	397.89
568.66	365.12
568.83	517.26
568.99	376.83
569.15	458.74
569.32	416.62
569.48	414.27
569.64	402.57
569.81	367.46
569.97	322.99
570.13	409.59
570.30	411.93
570.46	414.27
570.62	409.59
570.78	397.89
570.95	374.49
571.11	440.02
571.27	468.11
571.43	402.57
571.60	428.32
571.76	414.27
571.92	402.57
572.09	416.62
572.25	409.59
572.41	430.66
572.57	404.91
572.74	479.81
572.90	517.26
573.06	327.68
573.22	454.06
573.38	428.32
573.55	433.00
573.71	407.25
573.87	409.59
574.03	416.62
574.20	383.85
574.36	461.09
574.52	423.64
574.68	437.68
574.84	395.55
575.01	376.83
575.17	510.24
575.33	433.00
575.49	486.83
575.65	440.02
575.82	390.87
575.98	479.81
576.14	447.04
576.30	325.33
576.46	402.57
576.62	447.04
576.79	451.72
576.95	456.40
577.11	414.27
577.27	344.06
577.43	484.49
577.59	451.72
577.75	418.96
577.92	379.17
578.08	355.76
578.24	437.68
578.40	416.62
578.56	430.66
578.72	425.98
578.88	444.70
579.04	402.57
579.21	428.32
579.37	428.32
579.53	381.51
579.69	379.17
579.85	395.55
580.01	416.62
580.17	365.12
580.33	425.98
580.49	418.96
580.65	423.64
580.82	418.96
580.98	416.62
581.14	442.36
581.30	423.64
581.46	390.87
581.62	454.06
581.78	360.44
581.94	407.25
582.10	435.34
582.26	451.72
582.42	388.53
582.58	400.23
582.74	388.53
582.90	383.85
583.06	428.32
583.22	386.19
583.38	355.76
583.54	411.93
583.70	493.85
583.86	416.62
584.02	379.17
584.18	458.74
584.34	407.25
584.50	379.17
584.66	447.04
584.82	416.62
584.98	468.11
585.14	477.47
585.30	442.36
585.46	454.06
585.62	395.55
585.78	416.62
585.94	428.32
586.10	451.72
586.26	381.51
586.42	442.36
586.58	425.98
586.74	449.38
586.90	409.59
587.06	425.98
587.22	404.91
587.38	449.38
587.54	369.80
587.70	400.23
587.86	372.15
588.02	505.56
588.18	358.10
588.34	390.87
588.49	369.80
588.65	465.77
588.81	468.11
588.97	369.80
589.13	393.21
589.29	400.23
589.45	393.21
589.61	374.49
589.77	458.74
589.93	379.17
590.08	369.80
590.24	367.46
590.40	407.25
590.56	379.17
590.72	454.06
590.88	386.19
591.04	407.25
591.20	421.30
591.35	393.21
591.51	395.55
591.67	414.27
591.83	414.27
591.99	449.38
592.15	404.91
592.31	482.15
592.46	491.51
592.62	433.00
592.78	468.11
592.94	472.79
593.10	418.96
593.26	395.55
593.41	428.32
593.57	351.08
593.73	381.51
593.89	421.30
594.05	372.15
594.20	482.15
594.36	433.00
594.52	454.06
594.68	362.78
594.84	428.32
594.99	433.00
595.15	407.25
595.31	318.31
595.47	425.98
595.62	447.04
595.78	397.89
595.94	402.57
596.10	390.87
596.25	365.12
596.41	409.59
596.57	400.23
596.73	442.36
596.88	414.27
597.04	376.83
597.20	451.72
597.36	421.30
597.51	454.06
597.67	397.89
597.83	423.64
597.99	393.21
598.14	440.02
598.30	430.66
598.46	409.59
598.61	458.74
598.77	449.38
598.93	486.83
599.09	421.30
599.24	418.96
599.40	440.02
599.56	407.25
599.71	465.77
599.87	440.02
600.03	388.53
600.18	437.68
600.34	411.93
600.50	454.06
600.65	425.98
600.81	437.68
600.97	388.53
601.12	404.91
601.28	468.11
601.44	358.10
601.59	428.32
601.75	409.59
601.91	428.32
602.06	402.57
602.22	528.96
602.37	442.36
602.53	397.89
602.69	418.96
602.84	404.91
603.00	365.12
603.16	442.36
603.31	425.98
603.47	400.23
603.62	404.91
603.78	409.59
603.94	418.96
604.09	393.21
604.25	374.49
604.40	400.23
604.56	414.27
604.71	449.38
604.87	369.80
605.03	486.83
605.18	496.19
605.34	451.72
605.49	479.81
605.65	421.30
605.80	458.74
605.96	409.59
606.12	437.68
606.27	491.51
606.43	365.12
606.58	411.93
606.74	404.91
606.89	444.70
607.05	418.96
607.20	369.80
607.36	374.49
607.51	365.12
607.67	365.12
607.82	456.40
607.98	411.93
608.13	327.68
608.29	351.08
608.44	500.87
608.60	381.51
608.75	428.32
608.91	475.13
609.06	442.36
609.22	435.34
609.37	388.53
609.53	402.57
609.68	449.38
609.84	334.70
609.99	418.96
610.15	386.19
