SpectraSuite Data File
++++++++++++++++++++++++++++++++++++
Date: Fri Oct 25 12:11:19 EDT 2013
User: price-jones
Dark Spectrum Present: No
Reference Spectrum Present: No
Number of Sampled Component Spectra: 1
Spectrometers: USB2+H05261
Integration Time (usec): 100000 (USB2+H05261)
Spectra Averaged: 1 (USB2+H05261)
Boxcar Smoothing: 0 (USB2+H05261)
Correct for Electrical Dark: No (USB2+H05261)
Strobe/Lamp Enabled: No (USB2+H05261)
Correct for Detector Non-linearity: No (USB2+H05261)
Correct for Stray Light: No (USB2+H05261)
Number of Pixels in Processed Spectrum: 2048
>>>>>Begin Processed Spectral Data<<<<<
365.73	374.49
365.92	374.49
366.12	374.49
366.32	208.31
366.52	245.76
366.72	271.50
366.91	269.16
367.11	264.48
367.31	255.12
367.51	208.31
367.70	276.18
367.90	236.39
368.10	297.25
368.30	227.03
368.49	269.16
368.69	294.91
368.89	238.73
369.09	257.46
369.28	294.91
369.48	278.52
369.68	266.82
369.87	285.55
370.07	285.55
370.27	355.76
370.47	301.93
370.66	271.50
370.86	311.29
371.06	339.38
371.25	451.72
371.45	374.49
371.65	428.32
371.84	372.15
372.04	348.74
372.24	414.27
372.44	395.55
372.63	430.66
372.83	393.21
373.03	379.17
373.22	407.25
373.42	407.25
373.62	348.74
373.81	444.70
374.01	454.06
374.21	456.40
374.40	411.93
374.60	433.00
374.79	393.21
374.99	404.91
375.19	444.70
375.38	402.57
375.58	397.89
375.78	442.36
375.97	425.98
376.17	479.81
376.37	454.06
376.56	341.72
376.76	393.21
376.95	362.78
377.15	381.51
377.35	454.06
377.54	393.21
377.74	425.98
377.93	376.83
378.13	393.21
378.33	397.89
378.52	358.10
378.72	386.19
378.91	423.64
379.11	397.89
379.31	409.59
379.50	428.32
379.70	454.06
379.89	414.27
380.09	339.38
380.28	365.12
380.48	444.70
380.68	416.62
380.87	346.40
381.07	423.64
381.26	447.04
381.46	334.70
381.65	383.85
381.85	390.87
382.04	409.59
382.24	411.93
382.43	400.23
382.63	341.72
382.83	409.59
383.02	418.96
383.22	414.27
383.41	374.49
383.61	433.00
383.80	456.40
384.00	395.55
384.19	376.83
384.39	435.34
384.58	402.57
384.78	428.32
384.97	425.98
385.17	386.19
385.36	376.83
385.56	379.17
385.75	376.83
385.95	421.30
386.14	454.06
386.34	402.57
386.53	379.17
386.72	360.44
386.92	468.11
387.11	416.62
387.31	421.30
387.50	376.83
387.70	365.12
387.89	437.68
388.09	435.34
388.28	388.53
388.48	425.98
388.67	435.34
388.86	444.70
389.06	381.51
389.25	348.74
389.45	416.62
389.64	440.02
389.84	372.15
390.03	477.47
390.22	414.27
390.42	388.53
390.61	379.17
390.81	383.85
391.00	381.51
391.19	463.43
391.39	442.36
391.58	367.46
391.78	400.23
391.97	416.62
392.16	423.64
392.36	404.91
392.55	414.27
392.75	475.13
392.94	402.57
393.13	465.77
393.33	369.80
393.52	383.85
393.71	421.30
393.91	367.46
394.10	407.25
394.29	388.53
394.49	362.78
394.68	351.08
394.88	381.51
395.07	493.85
395.26	360.44
395.46	421.30
395.65	390.87
395.84	367.46
396.04	425.98
396.23	386.19
396.42	444.70
396.62	444.70
396.81	390.87
397.00	423.64
397.19	337.04
397.39	447.04
397.58	461.09
397.77	383.85
397.97	428.32
398.16	374.49
398.35	411.93
398.55	407.25
398.74	346.40
398.93	416.62
399.12	404.91
399.32	451.72
399.51	372.15
399.70	409.59
399.90	423.64
400.09	388.53
400.28	362.78
400.47	430.66
400.67	334.70
400.86	435.34
401.05	423.64
401.24	451.72
401.44	461.09
401.63	402.57
401.82	465.77
402.01	341.72
402.21	496.19
402.40	451.72
402.59	433.00
402.78	430.66
402.97	369.80
403.17	425.98
403.36	395.55
403.55	428.32
403.74	374.49
403.93	404.91
404.13	348.74
404.32	404.91
404.51	390.87
404.70	437.68
404.89	353.42
405.09	404.91
405.28	334.70
405.47	397.89
405.66	440.02
405.85	418.96
406.05	435.34
406.24	374.49
406.43	360.44
406.62	409.59
406.81	362.78
407.00	376.83
407.20	444.70
407.39	433.00
407.58	456.40
407.77	369.80
407.96	454.06
408.15	379.17
408.34	437.68
408.54	402.57
408.73	376.83
408.92	393.21
409.11	416.62
409.30	409.59
409.49	425.98
409.68	341.72
409.87	388.53
410.07	374.49
410.26	435.34
410.45	482.15
410.64	451.72
410.83	423.64
411.02	437.68
411.21	381.51
411.40	440.02
411.59	327.68
411.78	393.21
411.98	365.12
412.17	362.78
412.36	358.10
412.55	390.87
412.74	437.68
412.93	468.11
413.12	433.00
413.31	383.85
413.50	458.74
413.69	367.46
413.88	367.46
414.07	416.62
414.26	461.09
414.45	367.46
414.64	489.17
414.83	379.17
415.02	383.85
415.22	367.46
415.41	468.11
415.60	381.51
415.79	418.96
415.98	447.04
416.17	433.00
416.36	461.09
416.55	486.83
416.74	440.02
416.93	414.27
417.12	407.25
417.31	393.21
417.50	407.25
417.69	484.49
417.88	425.98
418.07	379.17
418.26	362.78
418.45	402.57
418.64	440.02
418.83	442.36
419.02	374.49
419.21	393.21
419.39	390.87
419.58	465.77
419.77	430.66
419.96	425.98
420.15	437.68
420.34	374.49
420.53	418.96
420.72	418.96
420.91	409.59
421.10	416.62
421.29	386.19
421.48	376.83
421.67	465.77
421.86	407.25
422.05	425.98
422.24	374.49
422.43	355.76
422.61	397.89
422.80	411.93
422.99	393.21
423.18	411.93
423.37	458.74
423.56	376.83
423.75	372.15
423.94	390.87
424.13	330.02
424.32	383.85
424.50	395.55
424.69	475.13
424.88	442.36
425.07	416.62
425.26	332.36
425.45	390.87
425.64	397.89
425.83	430.66
426.01	365.12
426.20	465.77
426.39	386.19
426.58	486.83
426.77	437.68
426.96	411.93
427.15	440.02
427.33	458.74
427.52	465.77
427.71	454.06
427.90	437.68
428.09	379.17
428.28	355.76
428.46	355.76
428.65	472.79
428.84	365.12
429.03	423.64
429.22	407.25
429.40	449.38
429.59	381.51
429.78	414.27
429.97	458.74
430.16	337.04
430.34	407.25
430.53	386.19
430.72	407.25
430.91	484.49
431.10	379.17
431.28	425.98
431.47	416.62
431.66	407.25
431.85	449.38
432.03	362.78
432.22	472.79
432.41	404.91
432.60	470.45
432.79	477.47
432.97	423.64
433.16	388.53
433.35	440.02
433.54	390.87
433.72	411.93
433.91	423.64
434.10	442.36
434.28	425.98
434.47	442.36
434.66	344.06
434.85	407.25
435.03	374.49
435.22	435.34
435.41	465.77
435.59	458.74
435.78	418.96
435.97	388.53
436.16	484.49
436.34	400.23
436.53	456.40
436.72	444.70
436.90	442.36
437.09	454.06
437.28	451.72
437.46	461.09
437.65	430.66
437.84	421.30
438.02	411.93
438.21	346.40
438.40	390.87
438.58	404.91
438.77	416.62
438.96	477.47
439.14	362.78
439.33	444.70
439.52	402.57
439.70	414.27
439.89	369.80
440.08	383.85
440.26	428.32
440.45	440.02
440.63	360.44
440.82	437.68
441.01	440.02
441.19	400.23
441.38	444.70
441.57	430.66
441.75	416.62
441.94	365.12
442.12	393.21
442.31	468.11
442.50	397.89
442.68	423.64
442.87	411.93
443.05	346.40
443.24	442.36
443.43	433.00
443.61	463.43
443.80	330.02
443.98	397.89
444.17	374.49
444.35	416.62
444.54	376.83
444.73	435.34
444.91	393.21
445.10	416.62
445.28	360.44
445.47	348.74
445.65	456.40
445.84	451.72
446.02	444.70
446.21	318.31
446.39	475.13
446.58	437.68
446.77	418.96
446.95	451.72
447.14	418.96
447.32	442.36
447.51	423.64
447.69	388.53
447.88	409.59
448.06	444.70
448.25	374.49
448.43	313.63
448.62	355.76
448.80	449.38
448.99	435.34
449.17	414.27
449.36	390.87
449.54	472.79
449.73	388.53
449.91	442.36
450.10	369.80
450.28	472.79
450.46	456.40
450.65	425.98
450.83	456.40
451.02	456.40
451.20	428.32
451.39	454.06
451.57	372.15
451.76	390.87
451.94	479.81
452.13	440.02
452.31	416.62
452.49	505.56
452.68	397.89
452.86	383.85
453.05	470.45
453.23	402.57
453.42	465.77
453.60	416.62
453.78	526.62
453.97	388.53
454.15	409.59
454.34	379.17
454.52	416.62
454.70	390.87
454.89	421.30
455.07	433.00
455.26	367.46
455.44	468.11
455.62	423.64
455.81	395.55
455.99	388.53
456.17	381.51
456.36	404.91
456.54	444.70
456.73	435.34
456.91	322.99
457.09	472.79
457.28	425.98
457.46	484.49
457.64	409.59
457.83	449.38
458.01	360.44
458.19	437.68
458.38	442.36
458.56	428.32
458.74	404.91
458.93	407.25
459.11	418.96
459.29	421.30
459.48	475.13
459.66	470.45
459.84	517.26
460.03	486.83
460.21	379.17
460.39	461.09
460.57	409.59
460.76	449.38
460.94	425.98
461.12	404.91
461.31	423.64
461.49	416.62
461.67	409.59
461.85	428.32
462.04	409.59
462.22	791.10
462.40	451.72
462.59	442.36
462.77	365.12
462.95	351.08
463.13	451.72
463.32	376.83
463.50	383.85
463.68	367.46
463.86	407.25
464.05	414.27
464.23	442.36
464.41	484.49
464.59	390.87
464.78	442.36
464.96	425.98
465.14	461.09
465.32	433.00
465.50	423.64
465.69	461.09
465.87	456.40
466.05	433.00
466.23	390.87
466.41	376.83
466.60	346.40
466.78	447.04
466.96	479.81
467.14	400.23
467.32	454.06
467.51	428.32
467.69	379.17
467.87	386.19
468.05	388.53
468.23	444.70
468.41	428.32
468.60	414.27
468.78	425.98
468.96	447.04
469.14	477.47
469.32	381.51
469.50	400.23
469.69	430.66
469.87	482.15
470.05	423.64
470.23	486.83
470.41	418.96
470.59	353.42
470.77	423.64
470.95	437.68
471.14	437.68
471.32	475.13
471.50	365.12
471.68	449.38
471.86	458.74
472.04	435.34
472.22	463.43
472.40	411.93
472.58	463.43
472.77	351.08
472.95	411.93
473.13	486.83
473.31	484.49
473.49	381.51
473.67	348.74
473.85	416.62
474.03	423.64
474.21	379.17
474.39	526.62
474.57	407.25
474.75	381.51
474.93	461.09
475.12	388.53
475.30	416.62
475.48	425.98
475.66	421.30
475.84	365.12
476.02	418.96
476.20	395.55
476.38	423.64
476.56	425.98
476.74	423.64
476.92	535.98
477.10	456.40
477.28	472.79
477.46	402.57
477.64	440.02
477.82	414.27
478.00	393.21
478.18	390.87
478.36	440.02
478.54	374.49
478.72	381.51
478.90	416.62
479.08	402.57
479.26	400.23
479.44	458.74
479.62	362.78
479.80	433.00
479.98	414.27
480.16	423.64
480.34	444.70
480.52	421.30
480.70	447.04
480.88	372.15
481.06	409.59
481.24	423.64
481.41	351.08
481.59	430.66
481.77	404.91
481.95	379.17
482.13	491.51
482.31	454.06
482.49	383.85
482.67	397.89
482.85	393.21
483.03	444.70
483.21	451.72
483.39	423.64
483.57	407.25
483.74	402.57
483.92	463.43
484.10	402.57
484.28	365.12
484.46	430.66
484.64	358.10
484.82	367.46
485.00	433.00
485.18	430.66
485.35	465.77
485.53	374.49
485.71	397.89
485.89	414.27
486.07	383.85
486.25	451.72
486.43	444.70
486.61	411.93
486.78	428.32
486.96	465.77
487.14	416.62
487.32	468.11
487.50	402.57
487.68	395.55
487.85	433.00
488.03	414.27
488.21	454.06
488.39	414.27
488.57	344.06
488.75	393.21
488.92	472.79
489.10	388.53
489.28	433.00
489.46	409.59
489.64	423.64
489.81	428.32
489.99	411.93
490.17	425.98
490.35	524.28
490.53	444.70
490.70	367.46
490.88	418.96
491.06	395.55
491.24	428.32
491.41	449.38
491.59	451.72
491.77	421.30
491.95	362.78
492.13	400.23
492.30	414.27
492.48	374.49
492.66	393.21
492.84	435.34
493.01	458.74
493.19	454.06
493.37	500.87
493.54	475.13
493.72	397.89
493.90	341.72
494.08	421.30
494.25	407.25
494.43	416.62
494.61	372.15
494.79	369.80
494.96	332.36
495.14	428.32
495.32	430.66
495.49	496.19
495.67	381.51
495.85	418.96
496.02	388.53
496.20	442.36
496.38	430.66
496.55	397.89
496.73	407.25
496.91	430.66
497.09	449.38
497.26	444.70
497.44	461.09
497.62	395.55
497.79	395.55
497.97	442.36
498.14	407.25
498.32	411.93
498.50	430.66
498.67	421.30
498.85	409.59
499.03	411.93
499.20	444.70
499.38	425.98
499.56	423.64
499.73	423.64
499.91	358.10
500.08	514.92
500.26	330.02
500.44	362.78
500.61	435.34
500.79	421.30
500.97	458.74
501.14	479.81
501.32	404.91
501.49	463.43
501.67	470.45
501.84	493.85
502.02	374.49
502.20	407.25
502.37	416.62
502.55	425.98
502.72	435.34
502.90	369.80
503.07	437.68
503.25	414.27
503.43	390.87
503.60	416.62
503.78	447.04
503.95	430.66
504.13	407.25
504.30	407.25
504.48	344.06
504.65	435.34
504.83	461.09
505.01	355.76
505.18	388.53
505.36	416.62
505.53	418.96
505.71	379.17
505.88	346.40
506.06	425.98
506.23	428.32
506.41	428.32
506.58	454.06
506.76	390.87
506.93	376.83
507.11	320.65
507.28	365.12
507.46	468.11
507.63	517.26
507.81	416.62
507.98	351.08
508.16	374.49
508.33	360.44
508.50	388.53
508.68	381.51
508.85	386.19
509.03	440.02
509.20	332.36
509.38	442.36
509.55	437.68
509.73	463.43
509.90	397.89
510.08	402.57
510.25	411.93
510.42	388.53
510.60	440.02
510.77	484.49
510.95	458.74
511.12	447.04
511.30	369.80
511.47	402.57
511.64	496.19
511.82	304.27
511.99	444.70
512.17	475.13
512.34	372.15
512.51	421.30
512.69	372.15
512.86	416.62
513.04	456.40
513.21	397.89
513.38	444.70
513.56	421.30
513.73	447.04
513.90	369.80
514.08	425.98
514.25	414.27
514.43	379.17
514.60	465.77
514.77	388.53
514.95	463.43
515.12	348.74
515.29	397.89
515.47	407.25
515.64	414.27
515.81	454.06
515.99	428.32
516.16	388.53
516.33	444.70
516.51	386.19
516.68	386.19
516.85	423.64
517.03	393.21
517.20	458.74
517.37	360.44
517.54	437.68
517.72	362.78
517.89	451.72
518.06	400.23
518.24	472.79
518.41	414.27
518.58	440.02
518.75	414.27
518.93	334.70
519.10	437.68
519.27	479.81
519.45	423.64
519.62	374.49
519.79	479.81
519.96	468.11
520.14	484.49
520.31	395.55
520.48	430.66
520.65	416.62
520.83	428.32
521.00	423.64
521.17	409.59
521.34	386.19
521.52	372.15
521.69	454.06
521.86	414.27
522.03	456.40
522.20	470.45
522.38	437.68
522.55	348.74
522.72	489.17
522.89	425.98
523.07	477.47
523.24	379.17
523.41	463.43
523.58	472.79
523.75	430.66
523.92	437.68
524.10	393.21
524.27	414.27
524.44	313.63
524.61	470.45
524.78	416.62
524.96	386.19
525.13	421.30
525.30	430.66
525.47	449.38
525.64	456.40
525.81	482.15
525.98	435.34
526.16	435.34
526.33	416.62
526.50	416.62
526.67	353.42
526.84	425.98
527.01	421.30
527.18	411.93
527.36	425.98
527.53	348.74
527.70	414.27
527.87	423.64
528.04	407.25
528.21	440.02
528.38	528.96
528.55	430.66
528.72	411.93
528.89	465.77
529.07	369.80
529.24	496.19
529.41	416.62
529.58	393.21
529.75	407.25
529.92	418.96
530.09	418.96
530.26	451.72
530.43	395.55
530.60	400.23
530.77	402.57
530.94	414.27
531.11	395.55
531.28	421.30
531.46	393.21
531.63	437.68
531.80	440.02
531.97	470.45
532.14	491.51
532.31	418.96
532.48	411.93
532.65	351.08
532.82	400.23
532.99	353.42
533.16	376.83
533.33	379.17
533.50	353.42
533.67	433.00
533.84	376.83
534.01	423.64
534.18	414.27
534.35	442.36
534.52	421.30
534.69	444.70
534.86	386.19
535.03	421.30
535.20	315.97
535.37	381.51
535.54	456.40
535.71	433.00
535.88	454.06
536.05	404.91
536.22	444.70
536.38	365.12
536.55	458.74
536.72	440.02
536.89	386.19
537.06	433.00
537.23	449.38
537.40	409.59
537.57	404.91
537.74	470.45
537.91	454.06
538.08	386.19
538.25	479.81
538.42	374.49
538.59	440.02
538.75	440.02
538.92	404.91
539.09	404.91
539.26	435.34
539.43	454.06
539.60	458.74
539.77	416.62
539.94	461.09
540.11	365.12
540.28	447.04
540.44	433.00
540.61	447.04
540.78	465.77
540.95	393.21
541.12	475.13
541.29	365.12
541.46	437.68
541.62	416.62
541.79	409.59
541.96	390.87
542.13	372.15
542.30	428.32
542.47	458.74
542.63	451.72
542.80	451.72
542.97	454.06
543.14	430.66
543.31	402.57
543.48	421.30
543.64	407.25
543.81	414.27
543.98	430.66
544.15	433.00
544.32	402.57
544.48	374.49
544.65	395.55
544.82	447.04
544.99	458.74
545.16	395.55
545.32	433.00
545.49	458.74
545.66	440.02
545.83	418.96
546.00	425.98
546.16	449.38
546.33	397.89
546.50	496.19
546.67	414.27
546.83	407.25
547.00	383.85
547.17	400.23
547.34	440.02
547.50	407.25
547.67	379.17
547.84	430.66
548.00	416.62
548.17	435.34
548.34	433.00
548.51	421.30
548.67	430.66
548.84	425.98
549.01	402.57
549.18	390.87
549.34	425.98
549.51	477.47
549.68	463.43
549.84	433.00
550.01	395.55
550.18	486.83
550.34	435.34
550.51	470.45
550.68	507.90
550.84	442.36
551.01	421.30
551.18	456.40
551.34	327.68
551.51	435.34
551.68	414.27
551.84	454.06
552.01	355.76
552.18	479.81
552.34	430.66
552.51	416.62
552.68	444.70
552.84	381.51
553.01	402.57
553.18	440.02
553.34	402.57
553.51	430.66
553.67	433.00
553.84	428.32
554.01	440.02
554.17	390.87
554.34	421.30
554.51	404.91
554.67	449.38
554.84	402.57
555.00	393.21
555.17	367.46
555.33	444.70
555.50	489.17
555.67	416.62
555.83	376.83
556.00	374.49
556.16	564.07
556.33	498.53
556.50	388.53
556.66	430.66
556.83	416.62
556.99	383.85
557.16	386.19
557.32	447.04
557.49	367.46
557.65	456.40
557.82	414.27
557.98	402.57
558.15	395.55
558.32	355.76
558.48	414.27
558.65	435.34
558.81	531.30
558.98	400.23
559.14	433.00
559.31	465.77
559.47	449.38
559.64	416.62
559.80	430.66
559.97	393.21
560.13	395.55
560.30	386.19
560.46	440.02
560.63	397.89
560.79	442.36
560.96	421.30
561.12	475.13
561.29	365.12
561.45	454.06
561.61	383.85
561.78	468.11
561.94	454.06
562.11	351.08
562.27	369.80
562.44	423.64
562.60	423.64
562.77	346.40
562.93	498.53
563.10	428.32
563.26	407.25
563.42	414.27
563.59	454.06
563.75	397.89
563.92	447.04
564.08	386.19
564.24	447.04
564.41	463.43
564.57	379.17
564.74	393.21
564.90	493.85
565.07	421.30
565.23	479.81
565.39	383.85
565.56	374.49
565.72	388.53
565.88	430.66
566.05	397.89
566.21	458.74
566.38	409.59
566.54	454.06
566.70	484.49
566.87	411.93
567.03	461.09
567.19	369.80
567.36	421.30
567.52	411.93
567.68	507.90
567.85	411.93
568.01	402.57
568.17	418.96
568.34	437.68
568.50	456.40
568.66	393.21
568.83	407.25
568.99	379.17
569.15	456.40
569.32	423.64
569.48	442.36
569.64	454.06
569.81	362.78
569.97	395.55
570.13	425.98
570.30	381.51
570.46	315.97
570.62	397.89
570.78	465.77
570.95	428.32
571.11	388.53
571.27	440.02
571.43	407.25
571.60	468.11
571.76	402.57
571.92	463.43
572.09	411.93
572.25	383.85
572.41	423.64
572.57	411.93
572.74	449.38
572.90	491.51
573.06	400.23
573.22	484.49
573.38	449.38
573.55	376.83
573.71	407.25
573.87	435.34
574.03	451.72
574.20	447.04
574.36	425.98
574.52	435.34
574.68	402.57
574.84	407.25
575.01	411.93
575.17	444.70
575.33	400.23
575.49	454.06
575.65	390.87
575.82	433.00
575.98	444.70
576.14	477.47
576.30	500.87
576.46	437.68
576.62	358.10
576.79	402.57
576.95	496.19
577.11	423.64
577.27	404.91
577.43	423.64
577.59	433.00
577.75	500.87
577.92	386.19
578.08	468.11
578.24	395.55
578.40	456.40
578.56	425.98
578.72	447.04
578.88	428.32
579.04	423.64
579.21	425.98
579.37	472.79
579.53	465.77
579.69	458.74
579.85	512.58
580.01	425.98
580.17	411.93
580.33	409.59
580.49	414.27
580.65	456.40
580.82	421.30
580.98	428.32
581.14	360.44
581.30	447.04
581.46	475.13
581.62	463.43
581.78	423.64
581.94	409.59
582.10	407.25
582.26	489.17
582.42	402.57
582.58	447.04
582.74	433.00
582.90	416.62
583.06	447.04
583.22	388.53
583.38	428.32
583.54	449.38
583.70	381.51
583.86	449.38
584.02	409.59
584.18	332.36
584.34	416.62
584.50	493.85
584.66	351.08
584.82	416.62
584.98	421.30
585.14	386.19
585.30	514.92
585.46	486.83
585.62	428.32
585.78	388.53
585.94	414.27
586.10	456.40
586.26	440.02
586.42	477.47
586.58	425.98
586.74	447.04
586.90	454.06
587.06	449.38
587.22	376.83
587.38	374.49
587.54	369.80
587.70	379.17
587.86	430.66
588.02	404.91
588.18	379.17
588.34	458.74
588.49	409.59
588.65	454.06
588.81	482.15
588.97	409.59
589.13	447.04
589.29	376.83
589.45	418.96
589.61	433.00
589.77	416.62
589.93	390.87
590.08	355.76
590.24	390.87
590.40	367.46
590.56	421.30
590.72	369.80
590.88	484.49
591.04	425.98
591.20	414.27
591.35	477.47
591.51	425.98
591.67	454.06
591.83	332.36
591.99	447.04
592.15	451.72
592.31	517.26
592.46	449.38
592.62	465.77
592.78	393.21
592.94	479.81
593.10	465.77
593.26	475.13
593.41	449.38
593.57	416.62
593.73	372.15
593.89	404.91
594.05	437.68
594.20	407.25
594.36	423.64
594.52	444.70
594.68	437.68
594.84	447.04
594.99	451.72
595.15	423.64
595.31	421.30
595.47	430.66
595.62	442.36
595.78	425.98
595.94	388.53
596.10	451.72
596.25	465.77
596.41	458.74
596.57	512.58
596.73	395.55
596.88	421.30
597.04	442.36
597.20	416.62
597.36	451.72
597.51	409.59
597.67	430.66
597.83	428.32
597.99	416.62
598.14	449.38
598.30	465.77
598.46	360.44
598.61	447.04
598.77	435.34
598.93	397.89
599.09	458.74
599.24	372.15
599.40	440.02
599.56	428.32
599.71	418.96
599.87	447.04
600.03	407.25
600.18	442.36
600.34	440.02
600.50	428.32
600.65	454.06
600.81	465.77
600.97	472.79
601.12	440.02
601.28	442.36
601.44	437.68
601.59	409.59
601.75	411.93
601.91	374.49
602.06	435.34
602.22	468.11
602.37	353.42
602.53	400.23
602.69	477.47
602.84	376.83
603.00	390.87
603.16	372.15
603.31	428.32
603.47	437.68
603.62	421.30
603.78	369.80
603.94	390.87
604.09	425.98
604.25	388.53
604.40	390.87
604.56	386.19
604.71	409.59
604.87	402.57
605.03	351.08
605.18	383.85
605.34	395.55
605.49	428.32
605.65	416.62
605.80	402.57
605.96	390.87
606.12	414.27
606.27	454.06
606.43	400.23
606.58	423.64
606.74	423.64
606.89	390.87
607.05	433.00
607.20	440.02
607.36	416.62
607.51	479.81
607.67	451.72
607.82	437.68
607.98	491.51
608.13	395.55
608.29	407.25
608.44	470.45
608.60	437.68
608.75	489.17
608.91	390.87
609.06	351.08
609.22	409.59
609.37	454.06
609.53	344.06
609.68	386.19
609.84	425.98
609.99	435.34
610.15	400.23
