SpectraSuite Data File
++++++++++++++++++++++++++++++++++++
Date: Fri Oct 25 12:10:15 EDT 2013
User: price-jones
Dark Spectrum Present: No
Reference Spectrum Present: No
Number of Sampled Component Spectra: 1
Spectrometers: USB2+H05261
Integration Time (usec): 100000 (USB2+H05261)
Spectra Averaged: 1 (USB2+H05261)
Boxcar Smoothing: 0 (USB2+H05261)
Correct for Electrical Dark: No (USB2+H05261)
Strobe/Lamp Enabled: No (USB2+H05261)
Correct for Detector Non-linearity: No (USB2+H05261)
Correct for Stray Light: No (USB2+H05261)
Number of Pixels in Processed Spectrum: 2048
>>>>>Begin Processed Spectral Data<<<<<
365.73	287.89
365.92	287.89
366.12	287.89
366.32	262.14
366.52	252.78
366.72	306.61
366.91	215.33
367.11	215.33
367.31	196.60
367.51	210.65
367.70	161.50
367.90	276.18
368.10	259.80
368.30	198.95
368.49	238.73
368.69	248.10
368.89	271.50
369.09	255.12
369.28	276.18
369.48	262.14
369.68	205.97
369.87	290.23
370.07	318.31
370.27	301.93
370.47	351.08
370.66	301.93
370.86	337.04
371.06	393.21
371.25	416.62
371.45	407.25
371.65	372.15
371.84	327.68
372.04	311.29
372.24	353.42
372.44	327.68
372.63	418.96
372.83	369.80
373.03	355.76
373.22	383.85
373.42	407.25
373.62	423.64
373.81	393.21
374.01	390.87
374.21	428.32
374.40	458.74
374.60	493.85
374.79	400.23
374.99	404.91
375.19	425.98
375.38	369.80
375.58	461.09
375.78	388.53
375.97	400.23
376.17	430.66
376.37	383.85
376.56	414.27
376.76	423.64
376.95	465.77
377.15	430.66
377.35	428.32
377.54	393.21
377.74	428.32
377.93	337.04
378.13	355.76
378.33	433.00
378.52	414.27
378.72	423.64
378.91	416.62
379.11	400.23
379.31	409.59
379.50	418.96
379.70	362.78
379.89	376.83
380.09	404.91
380.28	425.98
380.48	383.85
380.68	400.23
380.87	402.57
381.07	414.27
381.26	437.68
381.46	383.85
381.65	369.80
381.85	402.57
382.04	416.62
382.24	428.32
382.43	386.19
382.63	393.21
382.83	458.74
383.02	416.62
383.22	428.32
383.41	400.23
383.61	435.34
383.80	425.98
384.00	425.98
384.19	433.00
384.39	400.23
384.58	381.51
384.78	423.64
384.97	404.91
385.17	423.64
385.36	404.91
385.56	404.91
385.75	437.68
385.95	437.68
386.14	409.59
386.34	409.59
386.53	428.32
386.72	416.62
386.92	435.34
387.11	407.25
387.31	390.87
387.50	330.02
387.70	414.27
387.89	409.59
388.09	430.66
388.28	358.10
388.48	318.31
388.67	395.55
388.86	379.17
389.06	395.55
389.25	409.59
389.45	489.17
389.64	447.04
389.84	444.70
390.03	433.00
390.22	388.53
390.42	374.49
390.61	388.53
390.81	411.93
391.00	386.19
391.19	461.09
391.39	454.06
391.58	395.55
391.78	360.44
391.97	383.85
392.16	423.64
392.36	423.64
392.55	486.83
392.75	418.96
392.94	397.89
393.13	433.00
393.33	388.53
393.52	372.15
393.71	421.30
393.91	372.15
394.10	402.57
394.29	355.76
394.49	407.25
394.68	376.83
394.88	435.34
395.07	433.00
395.26	409.59
395.46	351.08
395.65	440.02
395.84	386.19
396.04	451.72
396.23	437.68
396.42	367.46
396.62	416.62
396.81	423.64
397.00	461.09
397.19	461.09
397.39	414.27
397.58	430.66
397.77	400.23
397.97	416.62
398.16	397.89
398.35	463.43
398.55	393.21
398.74	376.83
398.93	383.85
399.12	411.93
399.32	486.83
399.51	318.31
399.70	404.91
399.90	372.15
400.09	404.91
400.28	437.68
400.47	400.23
400.67	472.79
400.86	376.83
401.05	395.55
401.24	360.44
401.44	430.66
401.63	430.66
401.82	397.89
402.01	386.19
402.21	388.53
402.40	442.36
402.59	376.83
402.78	374.49
402.97	486.83
403.17	475.13
403.36	411.93
403.55	458.74
403.74	388.53
403.93	428.32
404.13	379.17
404.32	351.08
404.51	351.08
404.70	402.57
404.89	393.21
405.09	458.74
405.28	369.80
405.47	421.30
405.66	388.53
405.85	374.49
406.05	369.80
406.24	397.89
406.43	376.83
406.62	404.91
406.81	463.43
407.00	449.38
407.20	465.77
407.39	390.87
407.58	400.23
407.77	400.23
407.96	470.45
408.15	397.89
408.34	393.21
408.54	346.40
408.73	330.02
408.92	418.96
409.11	362.78
409.30	360.44
409.49	334.70
409.68	388.53
409.87	409.59
410.07	383.85
410.26	416.62
410.45	379.17
410.64	388.53
410.83	395.55
411.02	386.19
411.21	437.68
411.40	477.47
411.59	376.83
411.78	421.30
411.98	416.62
412.17	388.53
412.36	414.27
412.55	341.72
412.74	454.06
412.93	442.36
413.12	423.64
413.31	425.98
413.50	428.32
413.69	372.15
413.88	444.70
414.07	477.47
414.26	383.85
414.45	440.02
414.64	379.17
414.83	423.64
415.02	367.46
415.22	440.02
415.41	362.78
415.60	332.36
415.79	367.46
415.98	421.30
416.17	414.27
416.36	411.93
416.55	418.96
416.74	482.15
416.93	416.62
417.12	395.55
417.31	386.19
417.50	400.23
417.69	472.79
417.88	400.23
418.07	355.76
418.26	437.68
418.45	404.91
418.64	470.45
418.83	425.98
419.02	353.42
419.21	381.51
419.39	418.96
419.58	372.15
419.77	411.93
419.96	404.91
420.15	491.51
420.34	418.96
420.53	456.40
420.72	421.30
420.91	411.93
421.10	388.53
421.29	397.89
421.48	447.04
421.67	425.98
421.86	383.85
422.05	440.02
422.24	409.59
422.43	388.53
422.61	374.49
422.80	444.70
422.99	414.27
423.18	416.62
423.37	383.85
423.56	418.96
423.75	337.04
423.94	355.76
424.13	468.11
424.32	428.32
424.50	421.30
424.69	425.98
424.88	479.81
425.07	379.17
425.26	397.89
425.45	428.32
425.64	409.59
425.83	339.38
426.01	475.13
426.20	379.17
426.39	374.49
426.58	421.30
426.77	348.74
426.96	451.72
427.15	367.46
427.33	402.57
427.52	435.34
427.71	390.87
427.90	425.98
428.09	407.25
428.28	353.42
428.46	407.25
428.65	465.77
428.84	369.80
429.03	416.62
429.22	351.08
429.40	444.70
429.59	407.25
429.78	444.70
429.97	341.72
430.16	407.25
430.34	390.87
430.53	358.10
430.72	402.57
430.91	411.93
431.10	407.25
431.28	376.83
431.47	402.57
431.66	355.76
431.85	376.83
432.03	367.46
432.22	461.09
432.41	301.93
432.60	493.85
432.79	383.85
432.97	465.77
433.16	395.55
433.35	397.89
433.54	430.66
433.72	526.62
433.91	458.74
434.10	407.25
434.28	372.15
434.47	367.46
434.66	451.72
434.85	416.62
435.03	421.30
435.22	465.77
435.41	404.91
435.59	437.68
435.78	404.91
435.97	414.27
436.16	454.06
436.34	465.77
436.53	400.23
436.72	470.45
436.90	411.93
437.09	365.12
437.28	437.68
437.46	355.76
437.65	395.55
437.84	386.19
438.02	444.70
438.21	407.25
438.40	379.17
438.58	346.40
438.77	407.25
438.96	451.72
439.14	414.27
439.33	397.89
439.52	458.74
439.70	437.68
439.89	404.91
440.08	388.53
440.26	454.06
440.45	393.21
440.63	465.77
440.82	383.85
441.01	430.66
441.19	425.98
441.38	388.53
441.57	365.12
441.75	414.27
441.94	409.59
442.12	468.11
442.31	416.62
442.50	379.17
442.68	425.98
442.87	437.68
443.05	440.02
443.24	433.00
443.43	414.27
443.61	423.64
443.80	447.04
443.98	402.57
444.17	442.36
444.35	365.12
444.54	425.98
444.73	468.11
444.91	428.32
445.10	496.19
445.28	348.74
445.47	353.42
445.65	386.19
445.84	428.32
446.02	440.02
446.21	425.98
446.39	418.96
446.58	430.66
446.77	435.34
446.95	416.62
447.14	402.57
447.32	390.87
447.51	400.23
447.69	404.91
447.88	379.17
448.06	411.93
448.25	383.85
448.43	393.21
448.62	409.59
448.80	407.25
448.99	428.32
449.17	479.81
449.36	376.83
449.54	489.17
449.73	315.97
449.91	414.27
450.10	393.21
450.28	491.51
450.46	433.00
450.65	402.57
450.83	365.12
451.02	402.57
451.20	435.34
451.39	449.38
451.57	367.46
451.76	418.96
451.94	433.00
452.13	383.85
452.31	454.06
452.49	493.85
452.68	348.74
452.86	395.55
453.05	461.09
453.23	442.36
453.42	425.98
453.60	418.96
453.78	479.81
453.97	376.83
454.15	341.72
454.34	449.38
454.52	407.25
454.70	376.83
454.89	407.25
455.07	362.78
455.26	470.45
455.44	404.91
455.62	393.21
455.81	421.30
455.99	454.06
456.17	442.36
456.36	416.62
456.54	442.36
456.73	395.55
456.91	477.47
457.09	372.15
457.28	400.23
457.46	437.68
457.64	442.36
457.83	409.59
458.01	421.30
458.19	358.10
458.38	390.87
458.56	390.87
458.74	430.66
458.93	449.38
459.11	423.64
459.29	372.15
459.48	402.57
459.66	423.64
459.84	365.12
460.03	461.09
460.21	430.66
460.39	425.98
460.57	327.68
460.76	461.09
460.94	397.89
461.12	433.00
461.31	475.13
461.49	440.02
461.67	383.85
461.85	477.47
462.04	475.13
462.22	772.38
462.40	461.09
462.59	454.06
462.77	444.70
462.95	400.23
463.13	332.36
463.32	477.47
463.50	456.40
463.68	475.13
463.86	440.02
464.05	393.21
464.23	458.74
464.41	425.98
464.59	388.53
464.78	454.06
464.96	386.19
465.14	411.93
465.32	472.79
465.50	400.23
465.69	404.91
465.87	365.12
466.05	433.00
466.23	372.15
466.41	461.09
466.60	353.42
466.78	409.59
466.96	425.98
467.14	444.70
467.32	414.27
467.51	369.80
467.69	428.32
467.87	468.11
468.05	447.04
468.23	451.72
468.41	414.27
468.60	503.22
468.78	358.10
468.96	388.53
469.14	409.59
469.32	386.19
469.50	379.17
469.69	411.93
469.87	411.93
470.05	402.57
470.23	435.34
470.41	374.49
470.59	484.49
470.77	468.11
470.95	416.62
471.14	437.68
471.32	393.21
471.50	430.66
471.68	383.85
471.86	369.80
472.04	493.85
472.22	458.74
472.40	383.85
472.58	411.93
472.77	327.68
472.95	372.15
473.13	482.15
473.31	444.70
473.49	379.17
473.67	388.53
473.85	430.66
474.03	451.72
474.21	358.10
474.39	507.90
474.57	468.11
474.75	381.51
474.93	372.15
475.12	355.76
475.30	404.91
475.48	365.12
475.66	402.57
475.84	397.89
476.02	414.27
476.20	414.27
476.38	428.32
476.56	458.74
476.74	433.00
476.92	451.72
477.10	386.19
477.28	318.31
477.46	475.13
477.64	383.85
477.82	463.43
478.00	409.59
478.18	479.81
478.36	395.55
478.54	341.72
478.72	458.74
478.90	418.96
479.08	470.45
479.26	465.77
479.44	365.12
479.62	379.17
479.80	341.72
479.98	402.57
480.16	374.49
480.34	400.23
480.52	337.04
480.70	388.53
480.88	411.93
481.06	390.87
481.24	360.44
481.41	369.80
481.59	463.43
481.77	440.02
481.95	353.42
482.13	440.02
482.31	407.25
482.49	381.51
482.67	454.06
482.85	437.68
483.03	463.43
483.21	402.57
483.39	440.02
483.57	330.02
483.74	428.32
483.92	472.79
484.10	454.06
484.28	411.93
484.46	465.77
484.64	400.23
484.82	418.96
485.00	423.64
485.18	374.49
485.35	435.34
485.53	425.98
485.71	507.90
485.89	423.64
486.07	358.10
486.25	528.96
486.43	440.02
486.61	390.87
486.78	449.38
486.96	386.19
487.14	440.02
487.32	433.00
487.50	386.19
487.68	390.87
487.85	470.45
488.03	451.72
488.21	402.57
488.39	395.55
488.57	428.32
488.75	409.59
488.92	475.13
489.10	414.27
489.28	409.59
489.46	407.25
489.64	360.44
489.81	449.38
489.99	500.87
490.17	451.72
490.35	409.59
490.53	418.96
490.70	472.79
490.88	416.62
491.06	451.72
491.24	311.29
491.41	388.53
491.59	383.85
491.77	442.36
491.95	402.57
492.13	400.23
492.30	374.49
492.48	409.59
492.66	418.96
492.84	425.98
493.01	332.36
493.19	407.25
493.37	451.72
493.54	430.66
493.72	425.98
493.90	383.85
494.08	447.04
494.25	449.38
494.43	440.02
494.61	458.74
494.79	414.27
494.96	423.64
495.14	372.15
495.32	365.12
495.49	381.51
495.67	402.57
495.85	421.30
496.02	360.44
496.20	416.62
496.38	416.62
496.55	367.46
496.73	423.64
496.91	414.27
497.09	486.83
497.26	435.34
497.44	416.62
497.62	416.62
497.79	465.77
497.97	418.96
498.14	475.13
498.32	461.09
498.50	449.38
498.67	414.27
498.85	383.85
499.03	402.57
499.20	428.32
499.38	421.30
499.56	346.40
499.73	421.30
499.91	376.83
500.08	407.25
500.26	383.85
500.44	433.00
500.61	475.13
500.79	393.21
500.97	437.68
501.14	418.96
501.32	482.15
501.49	435.34
501.67	461.09
501.84	381.51
502.02	407.25
502.20	430.66
502.37	355.76
502.55	395.55
502.72	402.57
502.90	463.43
503.07	388.53
503.25	454.06
503.43	383.85
503.60	383.85
503.78	390.87
503.95	369.80
504.13	397.89
504.30	414.27
504.48	400.23
504.65	407.25
504.83	454.06
505.01	395.55
505.18	421.30
505.36	428.32
505.53	435.34
505.71	416.62
505.88	468.11
506.06	404.91
506.23	383.85
506.41	397.89
506.58	376.83
506.76	421.30
506.93	468.11
507.11	353.42
507.28	367.46
507.46	372.15
507.63	369.80
507.81	404.91
507.98	414.27
508.16	355.76
508.33	407.25
508.50	418.96
508.68	447.04
508.85	402.57
509.03	390.87
509.20	404.91
509.38	442.36
509.55	414.27
509.73	388.53
509.90	470.45
510.08	400.23
510.25	451.72
510.42	416.62
510.60	409.59
510.77	416.62
510.95	425.98
511.12	311.29
511.30	454.06
511.47	423.64
511.64	435.34
511.82	444.70
511.99	386.19
512.17	414.27
512.34	430.66
512.51	390.87
512.69	367.46
512.86	409.59
513.04	386.19
513.21	451.72
513.38	383.85
513.56	461.09
513.73	444.70
513.90	423.64
514.08	395.55
514.25	409.59
514.43	463.43
514.60	433.00
514.77	447.04
514.95	433.00
515.12	421.30
515.29	421.30
515.47	397.89
515.64	402.57
515.81	365.12
515.99	358.10
516.16	423.64
516.33	472.79
516.51	423.64
516.68	425.98
516.85	421.30
517.03	404.91
517.20	425.98
517.37	402.57
517.54	440.02
517.72	428.32
517.89	402.57
518.06	397.89
518.24	451.72
518.41	468.11
518.58	456.40
518.75	458.74
518.93	418.96
519.10	449.38
519.27	409.59
519.45	360.44
519.62	503.22
519.79	414.27
519.96	365.12
520.14	365.12
520.31	425.98
520.48	327.68
520.65	409.59
520.83	409.59
521.00	421.30
521.17	491.51
521.34	421.30
521.52	351.08
521.69	411.93
521.86	400.23
522.03	402.57
522.20	409.59
522.38	418.96
522.55	430.66
522.72	390.87
522.89	440.02
523.07	498.53
523.24	472.79
523.41	397.89
523.58	348.74
523.75	369.80
523.92	416.62
524.10	362.78
524.27	449.38
524.44	444.70
524.61	477.47
524.78	411.93
524.96	430.66
525.13	369.80
525.30	444.70
525.47	414.27
525.64	416.62
525.81	425.98
525.98	433.00
526.16	374.49
526.33	383.85
526.50	421.30
526.67	435.34
526.84	458.74
527.01	381.51
527.18	414.27
527.36	411.93
527.53	369.80
527.70	491.51
527.87	418.96
528.04	395.55
528.21	433.00
528.38	447.04
528.55	489.17
528.72	365.12
528.89	465.77
529.07	433.00
529.24	418.96
529.41	414.27
529.58	421.30
529.75	402.57
529.92	433.00
530.09	456.40
530.26	395.55
530.43	486.83
530.60	456.40
530.77	414.27
530.94	339.38
531.11	390.87
531.28	393.21
531.46	475.13
531.63	458.74
531.80	440.02
531.97	442.36
532.14	486.83
532.31	465.77
532.48	463.43
532.65	428.32
532.82	365.12
532.99	344.06
533.16	433.00
533.33	383.85
533.50	447.04
533.67	381.51
533.84	442.36
534.01	400.23
534.18	437.68
534.35	425.98
534.52	395.55
534.69	409.59
534.86	358.10
535.03	421.30
535.20	388.53
535.37	451.72
535.54	440.02
535.71	465.77
535.88	463.43
536.05	393.21
536.22	477.47
536.38	383.85
536.55	372.15
536.72	402.57
536.89	383.85
537.06	461.09
537.23	440.02
537.40	437.68
537.57	360.44
537.74	447.04
537.91	456.40
538.08	435.34
538.25	444.70
538.42	458.74
538.59	465.77
538.75	383.85
538.92	386.19
539.09	484.49
539.26	358.10
539.43	519.60
539.60	421.30
539.77	421.30
539.94	407.25
540.11	435.34
540.28	428.32
540.44	402.57
540.61	409.59
540.78	433.00
540.95	433.00
541.12	449.38
541.29	388.53
541.46	442.36
541.62	421.30
541.79	440.02
541.96	374.49
542.13	416.62
542.30	376.83
542.47	440.02
542.63	458.74
542.80	437.68
542.97	395.55
543.14	479.81
543.31	440.02
543.48	395.55
543.64	456.40
543.81	383.85
543.98	367.46
544.15	458.74
544.32	374.49
544.48	430.66
544.65	407.25
544.82	442.36
544.99	435.34
545.16	430.66
545.32	470.45
545.49	451.72
545.66	402.57
545.83	388.53
546.00	353.42
546.16	461.09
546.33	465.77
546.50	428.32
546.67	409.59
546.83	372.15
547.00	372.15
547.17	404.91
547.34	374.49
547.50	458.74
547.67	390.87
547.84	440.02
548.00	395.55
548.17	458.74
548.34	404.91
548.51	479.81
548.67	376.83
548.84	475.13
549.01	461.09
549.18	416.62
549.34	407.25
549.51	430.66
549.68	437.68
549.84	374.49
550.01	442.36
550.18	528.96
550.34	458.74
550.51	411.93
550.68	423.64
550.84	353.42
551.01	393.21
551.18	386.19
551.34	440.02
551.51	430.66
551.68	456.40
551.84	472.79
552.01	409.59
552.18	435.34
552.34	397.89
552.51	411.93
552.68	414.27
552.84	404.91
553.01	468.11
553.18	393.21
553.34	430.66
553.51	372.15
553.67	407.25
553.84	465.77
554.01	444.70
554.17	423.64
554.34	423.64
554.51	449.38
554.67	397.89
554.84	421.30
555.00	369.80
555.17	449.38
555.33	458.74
555.50	402.57
555.67	470.45
555.83	322.99
556.00	332.36
556.16	533.64
556.33	456.40
556.50	430.66
556.66	379.17
556.83	444.70
556.99	475.13
557.16	465.77
557.32	346.40
557.49	388.53
557.65	407.25
557.82	430.66
557.98	402.57
558.15	428.32
558.32	369.80
558.48	379.17
558.65	351.08
558.81	430.66
558.98	407.25
559.14	440.02
559.31	463.43
559.47	437.68
559.64	409.59
559.80	435.34
559.97	386.19
560.13	461.09
560.30	397.89
560.46	409.59
560.63	444.70
560.79	465.77
560.96	416.62
561.12	458.74
561.29	449.38
561.45	393.21
561.61	393.21
561.78	524.28
561.94	365.12
562.11	435.34
562.27	416.62
562.44	402.57
562.60	360.44
562.77	465.77
562.93	414.27
563.10	440.02
563.26	353.42
563.42	383.85
563.59	468.11
563.75	393.21
563.92	339.38
564.08	386.19
564.24	437.68
564.41	449.38
564.57	376.83
564.74	414.27
564.90	451.72
565.07	318.31
565.23	404.91
565.39	416.62
565.56	428.32
565.72	456.40
565.88	463.43
566.05	444.70
566.21	423.64
566.38	503.22
566.54	425.98
566.70	411.93
566.87	454.06
567.03	397.89
567.19	444.70
567.36	514.92
567.52	390.87
567.68	404.91
567.85	458.74
568.01	421.30
568.17	414.27
568.34	482.15
568.50	444.70
568.66	468.11
568.83	348.74
568.99	381.51
569.15	463.43
569.32	437.68
569.48	454.06
569.64	402.57
569.81	372.15
569.97	400.23
570.13	449.38
570.30	404.91
570.46	381.51
570.62	379.17
570.78	414.27
570.95	421.30
571.11	454.06
571.27	458.74
571.43	465.77
571.60	414.27
571.76	425.98
571.92	381.51
572.09	367.46
572.25	411.93
572.41	433.00
572.57	416.62
572.74	451.72
572.90	423.64
573.06	414.27
573.22	411.93
573.38	393.21
573.55	425.98
573.71	418.96
573.87	477.47
574.03	397.89
574.20	386.19
574.36	449.38
574.52	423.64
574.68	430.66
574.84	454.06
575.01	404.91
575.17	475.13
575.33	472.79
575.49	468.11
575.65	454.06
575.82	430.66
575.98	397.89
576.14	365.12
576.30	425.98
576.46	496.19
576.62	458.74
576.79	379.17
576.95	437.68
577.11	358.10
577.27	358.10
577.43	437.68
577.59	423.64
577.75	397.89
577.92	376.83
578.08	440.02
578.24	435.34
578.40	458.74
578.56	423.64
578.72	440.02
578.88	425.98
579.04	423.64
579.21	491.51
579.37	367.46
579.53	376.83
579.69	402.57
579.85	463.43
580.01	428.32
580.17	411.93
580.33	390.87
580.49	386.19
580.65	447.04
580.82	472.79
580.98	465.77
581.14	402.57
581.30	416.62
581.46	348.74
581.62	479.81
581.78	433.00
581.94	416.62
582.10	468.11
582.26	411.93
582.42	358.10
582.58	414.27
582.74	451.72
582.90	395.55
583.06	402.57
583.22	414.27
583.38	388.53
583.54	339.38
583.70	358.10
583.86	444.70
584.02	376.83
584.18	500.87
584.34	421.30
584.50	400.23
584.66	416.62
584.82	388.53
584.98	482.15
585.14	447.04
585.30	484.49
585.46	407.25
585.62	393.21
585.78	411.93
585.94	388.53
586.10	423.64
586.26	402.57
586.42	451.72
586.58	402.57
586.74	416.62
586.90	430.66
587.06	404.91
587.22	428.32
587.38	365.12
587.54	374.49
587.70	442.36
587.86	440.02
588.02	409.59
588.18	395.55
588.34	465.77
588.49	411.93
588.65	414.27
588.81	393.21
588.97	386.19
589.13	421.30
589.29	444.70
589.45	430.66
589.61	390.87
589.77	484.49
589.93	435.34
590.08	416.62
590.24	433.00
590.40	482.15
590.56	421.30
590.72	355.76
590.88	372.15
591.04	418.96
591.20	421.30
591.35	463.43
591.51	444.70
591.67	440.02
591.83	407.25
591.99	421.30
592.15	479.81
592.31	411.93
592.46	404.91
592.62	423.64
592.78	367.46
592.94	416.62
593.10	437.68
593.26	414.27
593.41	465.77
593.57	447.04
593.73	433.00
593.89	435.34
594.05	421.30
594.20	407.25
594.36	400.23
594.52	362.78
594.68	360.44
594.84	414.27
594.99	482.15
595.15	430.66
595.31	482.15
595.47	475.13
595.62	428.32
595.78	423.64
595.94	425.98
596.10	369.80
596.25	423.64
596.41	416.62
596.57	407.25
596.73	425.98
596.88	447.04
597.04	344.06
597.20	386.19
597.36	414.27
597.51	454.06
597.67	414.27
597.83	414.27
597.99	482.15
598.14	390.87
598.30	451.72
598.46	386.19
598.61	463.43
598.77	400.23
598.93	428.32
599.09	428.32
599.24	484.49
599.40	369.80
599.56	365.12
599.71	400.23
599.87	505.56
600.03	470.45
600.18	372.15
600.34	414.27
600.50	475.13
600.65	358.10
600.81	332.36
600.97	433.00
601.12	433.00
601.28	456.40
601.44	402.57
601.59	425.98
601.75	425.98
601.91	372.15
602.06	425.98
602.22	552.37
602.37	468.11
602.53	400.23
602.69	447.04
602.84	360.44
603.00	395.55
603.16	369.80
603.31	449.38
603.47	435.34
603.62	390.87
603.78	376.83
603.94	440.02
604.09	418.96
604.25	428.32
604.40	440.02
604.56	421.30
604.71	414.27
604.87	449.38
605.03	433.00
605.18	397.89
605.34	430.66
605.49	463.43
605.65	402.57
605.80	367.46
605.96	327.68
606.12	425.98
606.27	437.68
606.43	451.72
606.58	437.68
606.74	395.55
606.89	411.93
607.05	425.98
607.20	414.27
607.36	435.34
607.51	470.45
607.67	402.57
607.82	383.85
607.98	461.09
608.13	383.85
608.29	395.55
608.44	444.70
608.60	411.93
608.75	407.25
608.91	393.21
609.06	486.83
609.22	379.17
609.37	402.57
609.53	430.66
609.68	449.38
609.84	475.13
609.99	383.85
610.15	407.25
