SpectraSuite Data File
++++++++++++++++++++++++++++++++++++
Date: Fri Oct 25 12:10:11 EDT 2013
User: price-jones
Dark Spectrum Present: No
Reference Spectrum Present: No
Number of Sampled Component Spectra: 1
Spectrometers: USB2+H05261
Integration Time (usec): 100000 (USB2+H05261)
Spectra Averaged: 1 (USB2+H05261)
Boxcar Smoothing: 0 (USB2+H05261)
Correct for Electrical Dark: No (USB2+H05261)
Strobe/Lamp Enabled: No (USB2+H05261)
Correct for Detector Non-linearity: No (USB2+H05261)
Correct for Stray Light: No (USB2+H05261)
Number of Pixels in Processed Spectrum: 2048
>>>>>Begin Processed Spectral Data<<<<<
365.73	346.40
365.92	346.40
366.12	346.40
366.32	245.76
366.52	205.97
366.72	269.16
366.91	290.23
367.11	257.46
367.31	229.37
367.51	245.76
367.70	231.71
367.90	250.44
368.10	210.65
368.30	313.63
368.49	212.99
368.69	241.08
368.89	252.78
369.09	262.14
369.28	290.23
369.48	210.65
369.68	231.71
369.87	374.49
370.07	372.15
370.27	313.63
370.47	320.65
370.66	322.99
370.86	337.04
371.06	402.57
371.25	393.21
371.45	315.97
371.65	334.70
371.84	376.83
372.04	322.99
372.24	383.85
372.44	376.83
372.63	442.36
372.83	416.62
373.03	365.12
373.22	348.74
373.42	379.17
373.62	421.30
373.81	454.06
374.01	461.09
374.21	393.21
374.40	367.46
374.60	421.30
374.79	386.19
374.99	320.65
375.19	376.83
375.38	477.47
375.58	414.27
375.78	493.85
375.97	402.57
376.17	461.09
376.37	344.06
376.56	402.57
376.76	397.89
376.95	468.11
377.15	416.62
377.35	315.97
377.54	425.98
377.74	372.15
377.93	351.08
378.13	437.68
378.33	414.27
378.52	367.46
378.72	423.64
378.91	440.02
379.11	458.74
379.31	409.59
379.50	402.57
379.70	433.00
379.89	458.74
380.09	376.83
380.28	409.59
380.48	433.00
380.68	397.89
380.87	320.65
381.07	433.00
381.26	386.19
381.46	315.97
381.65	428.32
381.85	409.59
382.04	463.43
382.24	388.53
382.43	440.02
382.63	395.55
382.83	423.64
383.02	379.17
383.22	451.72
383.41	376.83
383.61	381.51
383.80	435.34
384.00	414.27
384.19	339.38
384.39	402.57
384.58	416.62
384.78	437.68
384.97	325.33
385.17	327.68
385.36	416.62
385.56	400.23
385.75	311.29
385.95	423.64
386.14	376.83
386.34	409.59
386.53	430.66
386.72	423.64
386.92	418.96
387.11	383.85
387.31	341.72
387.50	402.57
387.70	395.55
387.89	421.30
388.09	402.57
388.28	386.19
388.48	409.59
388.67	430.66
388.86	383.85
389.06	411.93
389.25	451.72
389.45	369.80
389.64	444.70
389.84	468.11
390.03	519.60
390.22	379.17
390.42	414.27
390.61	379.17
390.81	430.66
391.00	400.23
391.19	360.44
391.39	425.98
391.58	416.62
391.78	397.89
391.97	369.80
392.16	411.93
392.36	451.72
392.55	433.00
392.75	383.85
392.94	393.21
393.13	395.55
393.33	376.83
393.52	337.04
393.71	421.30
393.91	379.17
394.10	416.62
394.29	442.36
394.49	381.51
394.68	360.44
394.88	444.70
395.07	425.98
395.26	367.46
395.46	456.40
395.65	416.62
395.84	369.80
396.04	442.36
396.23	353.42
396.42	381.51
396.62	390.87
396.81	341.72
397.00	397.89
397.19	433.00
397.39	479.81
397.58	423.64
397.77	397.89
397.97	381.51
398.16	447.04
398.35	421.30
398.55	414.27
398.74	390.87
398.93	442.36
399.12	435.34
399.32	346.40
399.51	393.21
399.70	472.79
399.90	409.59
400.09	402.57
400.28	444.70
400.47	442.36
400.67	416.62
400.86	482.15
401.05	397.89
401.24	425.98
401.44	418.96
401.63	367.46
401.82	418.96
402.01	489.17
402.21	346.40
402.40	409.59
402.59	362.78
402.78	486.83
402.97	418.96
403.17	393.21
403.36	414.27
403.55	386.19
403.74	430.66
403.93	456.40
404.13	538.32
404.32	456.40
404.51	379.17
404.70	449.38
404.89	351.08
405.09	444.70
405.28	388.53
405.47	374.49
405.66	447.04
405.85	461.09
406.05	404.91
406.24	416.62
406.43	386.19
406.62	440.02
406.81	449.38
407.00	454.06
407.20	482.15
407.39	451.72
407.58	402.57
407.77	437.68
407.96	512.58
408.15	430.66
408.34	330.02
408.54	393.21
408.73	414.27
408.92	423.64
409.11	421.30
409.30	425.98
409.49	372.15
409.68	351.08
409.87	362.78
410.07	477.47
410.26	411.93
410.45	393.21
410.64	416.62
410.83	395.55
411.02	395.55
411.21	465.77
411.40	477.47
411.59	421.30
411.78	411.93
411.98	362.78
412.17	320.65
412.36	404.91
412.55	400.23
412.74	454.06
412.93	477.47
413.12	390.87
413.31	440.02
413.50	365.12
413.69	390.87
413.88	393.21
414.07	409.59
414.26	433.00
414.45	402.57
414.64	404.91
414.83	479.81
415.02	348.74
415.22	376.83
415.41	456.40
415.60	402.57
415.79	491.51
415.98	437.68
416.17	386.19
416.36	444.70
416.55	383.85
416.74	351.08
416.93	430.66
417.12	470.45
417.31	449.38
417.50	430.66
417.69	421.30
417.88	339.38
418.07	372.15
418.26	425.98
418.45	444.70
418.64	411.93
418.83	456.40
419.02	423.64
419.21	379.17
419.39	423.64
419.58	442.36
419.77	365.12
419.96	376.83
420.15	425.98
420.34	449.38
420.53	376.83
420.72	456.40
420.91	402.57
421.10	393.21
421.29	388.53
421.48	435.34
421.67	423.64
421.86	395.55
422.05	393.21
422.24	379.17
422.43	440.02
422.61	308.95
422.80	430.66
422.99	334.70
423.18	379.17
423.37	433.00
423.56	402.57
423.75	390.87
423.94	379.17
424.13	416.62
424.32	411.93
424.50	428.32
424.69	400.23
424.88	416.62
425.07	435.34
425.26	407.25
425.45	407.25
425.64	411.93
425.83	395.55
426.01	409.59
426.20	472.79
426.39	440.02
426.58	388.53
426.77	435.34
426.96	386.19
427.15	435.34
427.33	505.56
427.52	456.40
427.71	425.98
427.90	414.27
428.09	447.04
428.28	386.19
428.46	433.00
428.65	397.89
428.84	402.57
429.03	414.27
429.22	374.49
429.40	461.09
429.59	390.87
429.78	358.10
429.97	433.00
430.16	447.04
430.34	386.19
430.53	346.40
430.72	397.89
430.91	463.43
431.10	416.62
431.28	379.17
431.47	479.81
431.66	395.55
431.85	365.12
432.03	416.62
432.22	416.62
432.41	383.85
432.60	421.30
432.79	423.64
432.97	404.91
433.16	421.30
433.35	425.98
433.54	404.91
433.72	388.53
433.91	472.79
434.10	365.12
434.28	423.64
434.47	440.02
434.66	449.38
434.85	383.85
435.03	442.36
435.22	454.06
435.41	388.53
435.59	418.96
435.78	358.10
435.97	451.72
436.16	437.68
436.34	484.49
436.53	418.96
436.72	465.77
436.90	409.59
437.09	454.06
437.28	463.43
437.46	353.42
437.65	463.43
437.84	451.72
438.02	468.11
438.21	362.78
438.40	348.74
438.58	322.99
438.77	442.36
438.96	374.49
439.14	397.89
439.33	463.43
439.52	449.38
439.70	362.78
439.89	428.32
440.08	447.04
440.26	379.17
440.45	414.27
440.63	444.70
440.82	430.66
441.01	411.93
441.19	444.70
441.38	383.85
441.57	407.25
441.75	411.93
441.94	416.62
442.12	339.38
442.31	395.55
442.50	421.30
442.68	381.51
442.87	351.08
443.05	437.68
443.24	367.46
443.43	397.89
443.61	444.70
443.80	414.27
443.98	418.96
444.17	318.31
444.35	472.79
444.54	369.80
444.73	390.87
444.91	479.81
445.10	381.51
445.28	395.55
445.47	433.00
445.65	297.25
445.84	372.15
446.02	404.91
446.21	435.34
446.39	346.40
446.58	407.25
446.77	418.96
446.95	430.66
447.14	397.89
447.32	341.72
447.51	409.59
447.69	379.17
447.88	475.13
448.06	397.89
448.25	416.62
448.43	433.00
448.62	440.02
448.80	430.66
448.99	468.11
449.17	421.30
449.36	400.23
449.54	437.68
449.73	388.53
449.91	458.74
450.10	461.09
450.28	379.17
450.46	395.55
450.65	440.02
450.83	355.76
451.02	442.36
451.20	444.70
451.39	430.66
451.57	440.02
451.76	365.12
451.94	425.98
452.13	379.17
452.31	486.83
452.49	454.06
452.68	465.77
452.86	421.30
453.05	461.09
453.23	451.72
453.42	390.87
453.60	348.74
453.78	409.59
453.97	437.68
454.15	418.96
454.34	416.62
454.52	390.87
454.70	435.34
454.89	454.06
455.07	346.40
455.26	418.96
455.44	381.51
455.62	433.00
455.81	433.00
455.99	418.96
456.17	400.23
456.36	414.27
456.54	423.64
456.73	379.17
456.91	442.36
457.09	404.91
457.28	409.59
457.46	435.34
457.64	430.66
457.83	400.23
458.01	409.59
458.19	456.40
458.38	297.25
458.56	416.62
458.74	344.06
458.93	423.64
459.11	491.51
459.29	409.59
459.48	496.19
459.66	454.06
459.84	433.00
460.03	423.64
460.21	402.57
460.39	376.83
460.57	381.51
460.76	386.19
460.94	402.57
461.12	447.04
461.31	454.06
461.49	444.70
461.67	407.25
461.85	407.25
462.04	397.89
462.22	732.59
462.40	465.77
462.59	463.43
462.77	404.91
462.95	425.98
463.13	425.98
463.32	402.57
463.50	365.12
463.68	400.23
463.86	409.59
464.05	355.76
464.23	491.51
464.41	402.57
464.59	414.27
464.78	411.93
464.96	409.59
465.14	390.87
465.32	411.93
465.50	449.38
465.69	425.98
465.87	418.96
466.05	425.98
466.23	369.80
466.41	379.17
466.60	442.36
466.78	414.27
466.96	447.04
467.14	470.45
467.32	395.55
467.51	418.96
467.69	418.96
467.87	428.32
468.05	468.11
468.23	461.09
468.41	402.57
468.60	433.00
468.78	411.93
468.96	496.19
469.14	393.21
469.32	425.98
469.50	339.38
469.69	386.19
469.87	454.06
470.05	386.19
470.23	442.36
470.41	458.74
470.59	472.79
470.77	510.24
470.95	400.23
471.14	386.19
471.32	416.62
471.50	463.43
471.68	447.04
471.86	454.06
472.04	433.00
472.22	381.51
472.40	332.36
472.58	435.34
472.77	402.57
472.95	404.91
473.13	395.55
473.31	435.34
473.49	365.12
473.67	397.89
473.85	402.57
474.03	475.13
474.21	425.98
474.39	437.68
474.57	400.23
474.75	400.23
474.93	383.85
475.12	402.57
475.30	383.85
475.48	482.15
475.66	451.72
475.84	369.80
476.02	414.27
476.20	430.66
476.38	437.68
476.56	482.15
476.74	451.72
476.92	433.00
477.10	409.59
477.28	433.00
477.46	444.70
477.64	468.11
477.82	374.49
478.00	369.80
478.18	379.17
478.36	379.17
478.54	416.62
478.72	461.09
478.90	404.91
479.08	437.68
479.26	428.32
479.44	369.80
479.62	400.23
479.80	418.96
479.98	425.98
480.16	461.09
480.34	461.09
480.52	428.32
480.70	440.02
480.88	409.59
481.06	381.51
481.24	341.72
481.41	421.30
481.59	400.23
481.77	383.85
481.95	397.89
482.13	407.25
482.31	477.47
482.49	409.59
482.67	428.32
482.85	393.21
483.03	519.60
483.21	454.06
483.39	383.85
483.57	440.02
483.74	458.74
483.92	404.91
484.10	404.91
484.28	433.00
484.46	477.47
484.64	463.43
484.82	425.98
485.00	409.59
485.18	442.36
485.35	484.49
485.53	372.15
485.71	411.93
485.89	437.68
486.07	465.77
486.25	411.93
486.43	395.55
486.61	393.21
486.78	433.00
486.96	430.66
487.14	374.49
487.32	442.36
487.50	346.40
487.68	440.02
487.85	416.62
488.03	470.45
488.21	416.62
488.39	411.93
488.57	416.62
488.75	437.68
488.92	547.69
489.10	543.00
489.28	461.09
489.46	388.53
489.64	461.09
489.81	355.76
489.99	390.87
490.17	425.98
490.35	433.00
490.53	437.68
490.70	404.91
490.88	409.59
491.06	456.40
491.24	402.57
491.41	433.00
491.59	449.38
491.77	416.62
491.95	416.62
492.13	470.45
492.30	360.44
492.48	428.32
492.66	409.59
492.84	376.83
493.01	395.55
493.19	395.55
493.37	496.19
493.54	351.08
493.72	484.49
493.90	442.36
494.08	346.40
494.25	390.87
494.43	355.76
494.61	458.74
494.79	287.89
494.96	440.02
495.14	400.23
495.32	416.62
495.49	390.87
495.67	425.98
495.85	386.19
496.02	355.76
496.20	369.80
496.38	414.27
496.55	507.90
496.73	477.47
496.91	437.68
497.09	428.32
497.26	414.27
497.44	425.98
497.62	433.00
497.79	360.44
497.97	414.27
498.14	393.21
498.32	458.74
498.50	458.74
498.67	334.70
498.85	428.32
499.03	358.10
499.20	458.74
499.38	475.13
499.56	435.34
499.73	463.43
499.91	395.55
500.08	428.32
500.26	414.27
500.44	470.45
500.61	418.96
500.79	390.87
500.97	440.02
501.14	482.15
501.32	430.66
501.49	397.89
501.67	414.27
501.84	386.19
502.02	355.76
502.20	386.19
502.37	475.13
502.55	397.89
502.72	456.40
502.90	409.59
503.07	475.13
503.25	433.00
503.43	428.32
503.60	433.00
503.78	461.09
503.95	428.32
504.13	496.19
504.30	414.27
504.48	449.38
504.65	423.64
504.83	355.76
505.01	433.00
505.18	435.34
505.36	358.10
505.53	388.53
505.71	388.53
505.88	353.42
506.06	390.87
506.23	477.47
506.41	451.72
506.58	397.89
506.76	407.25
506.93	402.57
507.11	332.36
507.28	425.98
507.46	440.02
507.63	395.55
507.81	442.36
507.98	479.81
508.16	374.49
508.33	437.68
508.50	402.57
508.68	414.27
508.85	503.22
509.03	409.59
509.20	367.46
509.38	397.89
509.55	442.36
509.73	381.51
509.90	463.43
510.08	430.66
510.25	404.91
510.42	444.70
510.60	327.68
510.77	400.23
510.95	428.32
511.12	421.30
511.30	463.43
511.47	442.36
511.64	484.49
511.82	470.45
511.99	395.55
512.17	414.27
512.34	454.06
512.51	456.40
512.69	376.83
512.86	430.66
513.04	353.42
513.21	411.93
513.38	430.66
513.56	407.25
513.73	341.72
513.90	416.62
514.08	376.83
514.25	404.91
514.43	390.87
514.60	346.40
514.77	404.91
514.95	353.42
515.12	411.93
515.29	411.93
515.47	409.59
515.64	374.49
515.81	414.27
515.99	507.90
516.16	397.89
516.33	381.51
516.51	397.89
516.68	423.64
516.85	409.59
517.03	447.04
517.20	451.72
517.37	456.40
517.54	465.77
517.72	404.91
517.89	409.59
518.06	440.02
518.24	475.13
518.41	458.74
518.58	454.06
518.75	425.98
518.93	470.45
519.10	351.08
519.27	383.85
519.45	404.91
519.62	372.15
519.79	440.02
519.96	418.96
520.14	402.57
520.31	463.43
520.48	353.42
520.65	458.74
520.83	461.09
521.00	449.38
521.17	421.30
521.34	437.68
521.52	463.43
521.69	402.57
521.86	437.68
522.03	407.25
522.20	531.30
522.38	442.36
522.55	374.49
522.72	400.23
522.89	435.34
523.07	479.81
523.24	414.27
523.41	435.34
523.58	402.57
523.75	461.09
523.92	386.19
524.10	395.55
524.27	430.66
524.44	435.34
524.61	440.02
524.78	390.87
524.96	435.34
525.13	339.38
525.30	425.98
525.47	451.72
525.64	402.57
525.81	409.59
525.98	404.91
526.16	351.08
526.33	430.66
526.50	428.32
526.67	451.72
526.84	395.55
527.01	365.12
527.18	423.64
527.36	372.15
527.53	435.34
527.70	351.08
527.87	388.53
528.04	407.25
528.21	325.33
528.38	470.45
528.55	463.43
528.72	379.17
528.89	465.77
529.07	430.66
529.24	414.27
529.41	454.06
529.58	381.51
529.75	393.21
529.92	402.57
530.09	440.02
530.26	465.77
530.43	400.23
530.60	477.47
530.77	397.89
530.94	360.44
531.11	393.21
531.28	388.53
531.46	468.11
531.63	447.04
531.80	344.06
531.97	447.04
532.14	393.21
532.31	411.93
532.48	386.19
532.65	327.68
532.82	454.06
532.99	400.23
533.16	386.19
533.33	465.77
533.50	372.15
533.67	393.21
533.84	355.76
534.01	458.74
534.18	489.17
534.35	383.85
534.52	416.62
534.69	411.93
534.86	383.85
535.03	353.42
535.20	404.91
535.37	425.98
535.54	386.19
535.71	482.15
535.88	463.43
536.05	444.70
536.22	444.70
536.38	425.98
536.55	423.64
536.72	493.85
536.89	416.62
537.06	346.40
537.23	390.87
537.40	386.19
537.57	428.32
537.74	458.74
537.91	418.96
538.08	451.72
538.25	379.17
538.42	369.80
538.59	360.44
538.75	496.19
538.92	339.38
539.09	386.19
539.26	355.76
539.43	440.02
539.60	421.30
539.77	435.34
539.94	418.96
540.11	465.77
540.28	505.56
540.44	496.19
540.61	414.27
540.78	346.40
540.95	327.68
541.12	465.77
541.29	416.62
541.46	379.17
541.62	456.40
541.79	327.68
541.96	414.27
542.13	423.64
542.30	447.04
542.47	407.25
542.63	428.32
542.80	402.57
542.97	449.38
543.14	489.17
543.31	388.53
543.48	437.68
543.64	479.81
543.81	416.62
543.98	437.68
544.15	320.65
544.32	395.55
544.48	442.36
544.65	447.04
544.82	416.62
544.99	355.76
545.16	418.96
545.32	440.02
545.49	372.15
545.66	386.19
545.83	395.55
546.00	437.68
546.16	433.00
546.33	393.21
546.50	294.91
546.67	531.30
546.83	461.09
547.00	407.25
547.17	411.93
547.34	428.32
547.50	372.15
547.67	440.02
547.84	315.97
548.00	442.36
548.17	425.98
548.34	339.38
548.51	360.44
548.67	456.40
548.84	358.10
549.01	421.30
549.18	372.15
549.34	393.21
549.51	418.96
549.68	372.15
549.84	351.08
550.01	376.83
550.18	496.19
550.34	514.92
550.51	414.27
550.68	454.06
550.84	428.32
551.01	374.49
551.18	428.32
551.34	440.02
551.51	395.55
551.68	320.65
551.84	418.96
552.01	409.59
552.18	435.34
552.34	425.98
552.51	423.64
552.68	451.72
552.84	416.62
553.01	372.15
553.18	430.66
553.34	407.25
553.51	451.72
553.67	423.64
553.84	442.36
554.01	379.17
554.17	418.96
554.34	386.19
554.51	379.17
554.67	421.30
554.84	433.00
555.00	374.49
555.17	465.77
555.33	365.12
555.50	482.15
555.67	461.09
555.83	444.70
556.00	491.51
556.16	547.69
556.33	493.85
556.50	428.32
556.66	393.21
556.83	449.38
556.99	461.09
557.16	458.74
557.32	287.89
557.49	423.64
557.65	458.74
557.82	421.30
557.98	395.55
558.15	418.96
558.32	365.12
558.48	458.74
558.65	400.23
558.81	390.87
558.98	430.66
559.14	430.66
559.31	390.87
559.47	409.59
559.64	440.02
559.80	362.78
559.97	456.40
560.13	409.59
560.30	393.21
560.46	449.38
560.63	379.17
560.79	374.49
560.96	404.91
561.12	423.64
561.29	423.64
561.45	414.27
561.61	428.32
561.78	472.79
561.94	437.68
562.11	341.72
562.27	388.53
562.44	423.64
562.60	463.43
562.77	472.79
562.93	451.72
563.10	437.68
563.26	407.25
563.42	428.32
563.59	374.49
563.75	414.27
563.92	449.38
564.08	402.57
564.24	390.87
564.41	402.57
564.57	411.93
564.74	430.66
564.90	472.79
565.07	449.38
565.23	489.17
565.39	402.57
565.56	437.68
565.72	346.40
565.88	491.51
566.05	468.11
566.21	393.21
566.38	461.09
566.54	330.02
566.70	454.06
566.87	414.27
567.03	435.34
567.19	440.02
567.36	418.96
567.52	411.93
567.68	430.66
567.85	463.43
568.01	397.89
568.17	451.72
568.34	456.40
568.50	463.43
568.66	395.55
568.83	510.24
568.99	449.38
569.15	512.58
569.32	437.68
569.48	428.32
569.64	351.08
569.81	486.83
569.97	425.98
570.13	489.17
570.30	486.83
570.46	486.83
570.62	379.17
570.78	423.64
570.95	365.12
571.11	472.79
571.27	444.70
571.43	463.43
571.60	461.09
571.76	416.62
571.92	416.62
572.09	379.17
572.25	404.91
572.41	355.76
572.57	454.06
572.74	472.79
572.90	395.55
573.06	390.87
573.22	367.46
573.38	381.51
573.55	479.81
573.71	503.22
573.87	433.00
574.03	395.55
574.20	416.62
574.36	433.00
574.52	440.02
574.68	447.04
574.84	440.02
575.01	425.98
575.17	397.89
575.33	409.59
575.49	407.25
575.65	421.30
575.82	423.64
575.98	348.74
576.14	447.04
576.30	376.83
576.46	435.34
576.62	435.34
576.79	440.02
576.95	463.43
577.11	416.62
577.27	449.38
577.43	423.64
577.59	416.62
577.75	425.98
577.92	444.70
578.08	416.62
578.24	411.93
578.40	468.11
578.56	400.23
578.72	449.38
578.88	421.30
579.04	393.21
579.21	381.51
579.37	395.55
579.53	437.68
579.69	418.96
579.85	449.38
580.01	440.02
580.17	423.64
580.33	491.51
580.49	388.53
580.65	414.27
580.82	379.17
580.98	444.70
581.14	414.27
581.30	451.72
581.46	418.96
581.62	451.72
581.78	423.64
581.94	440.02
582.10	337.04
582.26	442.36
582.42	388.53
582.58	449.38
582.74	369.80
582.90	435.34
583.06	435.34
583.22	400.23
583.38	425.98
583.54	404.91
583.70	430.66
583.86	435.34
584.02	322.99
584.18	423.64
584.34	449.38
584.50	423.64
584.66	449.38
584.82	358.10
584.98	454.06
585.14	451.72
585.30	421.30
585.46	454.06
585.62	390.87
585.78	491.51
585.94	475.13
586.10	447.04
586.26	454.06
586.42	440.02
586.58	365.12
586.74	383.85
586.90	414.27
587.06	402.57
587.22	386.19
587.38	451.72
587.54	395.55
587.70	407.25
587.86	404.91
588.02	437.68
588.18	416.62
588.34	404.91
588.49	425.98
588.65	402.57
588.81	461.09
588.97	402.57
589.13	433.00
589.29	388.53
589.45	463.43
589.61	360.44
589.77	482.15
589.93	484.49
590.08	393.21
590.24	404.91
590.40	428.32
590.56	411.93
590.72	383.85
590.88	358.10
591.04	425.98
591.20	447.04
591.35	374.49
591.51	465.77
591.67	388.53
591.83	423.64
591.99	486.83
592.15	397.89
592.31	449.38
592.46	468.11
592.62	425.98
592.78	423.64
592.94	463.43
593.10	383.85
593.26	458.74
593.41	440.02
593.57	458.74
593.73	416.62
593.89	397.89
594.05	425.98
594.20	379.17
594.36	491.51
594.52	395.55
594.68	435.34
594.84	416.62
594.99	390.87
595.15	437.68
595.31	491.51
595.47	449.38
595.62	428.32
595.78	423.64
595.94	449.38
596.10	409.59
596.25	428.32
596.41	475.13
596.57	330.02
596.73	337.04
596.88	360.44
597.04	433.00
597.20	428.32
597.36	437.68
597.51	402.57
597.67	421.30
597.83	353.42
597.99	428.32
598.14	440.02
598.30	418.96
598.46	386.19
598.61	395.55
598.77	461.09
598.93	418.96
599.09	454.06
599.24	365.12
599.40	451.72
599.56	407.25
599.71	440.02
599.87	435.34
600.03	330.02
600.18	381.51
600.34	437.68
600.50	376.83
600.65	404.91
600.81	400.23
600.97	437.68
601.12	437.68
601.28	400.23
601.44	416.62
601.59	409.59
601.75	414.27
601.91	358.10
602.06	390.87
602.22	470.45
602.37	454.06
602.53	463.43
602.69	339.38
602.84	409.59
603.00	409.59
603.16	428.32
603.31	411.93
603.47	374.49
603.62	362.78
603.78	400.23
603.94	449.38
604.09	407.25
604.25	395.55
604.40	472.79
604.56	468.11
604.71	479.81
604.87	395.55
605.03	425.98
605.18	402.57
605.34	493.85
605.49	486.83
605.65	423.64
605.80	393.21
605.96	407.25
606.12	482.15
606.27	468.11
606.43	411.93
606.58	400.23
606.74	437.68
606.89	433.00
607.05	482.15
607.20	407.25
607.36	447.04
607.51	379.17
607.67	447.04
607.82	454.06
607.98	383.85
608.13	418.96
608.29	372.15
608.44	325.33
608.60	355.76
608.75	416.62
608.91	507.90
609.06	465.77
609.22	411.93
609.37	369.80
609.53	402.57
609.68	362.78
609.84	313.63
609.99	468.11
610.15	418.96
