SpectraSuite Data File
++++++++++++++++++++++++++++++++++++
Date: Fri Oct 25 12:11:13 EDT 2013
User: price-jones
Dark Spectrum Present: No
Reference Spectrum Present: No
Number of Sampled Component Spectra: 1
Spectrometers: USB2+H05261
Integration Time (usec): 100000 (USB2+H05261)
Spectra Averaged: 1 (USB2+H05261)
Boxcar Smoothing: 0 (USB2+H05261)
Correct for Electrical Dark: No (USB2+H05261)
Strobe/Lamp Enabled: No (USB2+H05261)
Correct for Detector Non-linearity: No (USB2+H05261)
Correct for Stray Light: No (USB2+H05261)
Number of Pixels in Processed Spectrum: 2048
>>>>>Begin Processed Spectral Data<<<<<
365.73	372.15
365.92	372.15
366.12	372.15
366.32	292.57
366.52	245.76
366.72	264.48
366.91	241.08
367.11	236.39
367.31	189.58
367.51	215.33
367.70	278.52
367.90	203.63
368.10	255.12
368.30	311.29
368.49	196.60
368.69	330.02
368.89	301.93
369.09	290.23
369.28	212.99
369.48	262.14
369.68	297.25
369.87	341.72
370.07	346.40
370.27	409.59
370.47	362.78
370.66	346.40
370.86	437.68
371.06	341.72
371.25	437.68
371.45	346.40
371.65	409.59
371.84	381.51
372.04	355.76
372.24	390.87
372.44	374.49
372.63	409.59
372.83	388.53
373.03	348.74
373.22	355.76
373.42	390.87
373.62	376.83
373.81	482.15
374.01	456.40
374.21	507.90
374.40	442.36
374.60	463.43
374.79	414.27
374.99	475.13
375.19	416.62
375.38	428.32
375.58	386.19
375.78	477.47
375.97	416.62
376.17	400.23
376.37	372.15
376.56	482.15
376.76	430.66
376.95	374.49
377.15	388.53
377.35	430.66
377.54	433.00
377.74	395.55
377.93	416.62
378.13	374.49
378.33	456.40
378.52	397.89
378.72	416.62
378.91	444.70
379.11	386.19
379.31	383.85
379.50	379.17
379.70	433.00
379.89	414.27
380.09	404.91
380.28	369.80
380.48	390.87
380.68	386.19
380.87	339.38
381.07	475.13
381.26	414.27
381.46	379.17
381.65	388.53
381.85	374.49
382.04	437.68
382.24	430.66
382.43	397.89
382.63	315.97
382.83	437.68
383.02	390.87
383.22	365.12
383.41	367.46
383.61	327.68
383.80	320.65
384.00	402.57
384.19	425.98
384.39	381.51
384.58	383.85
384.78	428.32
384.97	393.21
385.17	346.40
385.36	362.78
385.56	414.27
385.75	404.91
385.95	444.70
386.14	421.30
386.34	304.27
386.53	451.72
386.72	339.38
386.92	433.00
387.11	430.66
387.31	381.51
387.50	362.78
387.70	395.55
387.89	421.30
388.09	428.32
388.28	463.43
388.48	479.81
388.67	374.49
388.86	430.66
389.06	348.74
389.25	400.23
389.45	393.21
389.64	379.17
389.84	376.83
390.03	440.02
390.22	379.17
390.42	393.21
390.61	348.74
390.81	379.17
391.00	393.21
391.19	465.77
391.39	416.62
391.58	407.25
391.78	423.64
391.97	381.51
392.16	374.49
392.36	449.38
392.55	461.09
392.75	365.12
392.94	414.27
393.13	489.17
393.33	376.83
393.52	374.49
393.71	435.34
393.91	304.27
394.10	411.93
394.29	451.72
394.49	390.87
394.68	479.81
394.88	442.36
395.07	449.38
395.26	386.19
395.46	400.23
395.65	442.36
395.84	435.34
396.04	397.89
396.23	397.89
396.42	451.72
396.62	383.85
396.81	430.66
397.00	369.80
397.19	337.04
397.39	444.70
397.58	461.09
397.77	404.91
397.97	339.38
398.16	433.00
398.35	435.34
398.55	421.30
398.74	367.46
398.93	479.81
399.12	421.30
399.32	430.66
399.51	393.21
399.70	383.85
399.90	433.00
400.09	430.66
400.28	395.55
400.47	421.30
400.67	376.83
400.86	407.25
401.05	376.83
401.24	365.12
401.44	437.68
401.63	442.36
401.82	440.02
402.01	449.38
402.21	435.34
402.40	376.83
402.59	404.91
402.78	435.34
402.97	376.83
403.17	407.25
403.36	344.06
403.55	454.06
403.74	362.78
403.93	372.15
404.13	381.51
404.32	358.10
404.51	416.62
404.70	428.32
404.89	435.34
405.09	393.21
405.28	397.89
405.47	409.59
405.66	510.24
405.85	374.49
406.05	400.23
406.24	374.49
406.43	433.00
406.62	503.22
406.81	489.17
407.00	491.51
407.20	454.06
407.39	402.57
407.58	407.25
407.77	360.44
407.96	440.02
408.15	416.62
408.34	430.66
408.54	327.68
408.73	397.89
408.92	381.51
409.11	402.57
409.30	416.62
409.49	409.59
409.68	437.68
409.87	381.51
410.07	372.15
410.26	416.62
410.45	409.59
410.64	451.72
410.83	468.11
411.02	369.80
411.21	440.02
411.40	437.68
411.59	393.21
411.78	365.12
411.98	388.53
412.17	348.74
412.36	402.57
412.55	477.47
412.74	449.38
412.93	465.77
413.12	486.83
413.31	451.72
413.50	456.40
413.69	379.17
413.88	360.44
414.07	465.77
414.26	451.72
414.45	360.44
414.64	428.32
414.83	456.40
415.02	479.81
415.22	407.25
415.41	430.66
415.60	425.98
415.79	421.30
415.98	514.92
416.17	433.00
416.36	367.46
416.55	411.93
416.74	411.93
416.93	472.79
417.12	468.11
417.31	454.06
417.50	411.93
417.69	454.06
417.88	404.91
418.07	402.57
418.26	358.10
418.45	388.53
418.64	458.74
418.83	418.96
419.02	407.25
419.21	451.72
419.39	433.00
419.58	437.68
419.77	416.62
419.96	479.81
420.15	407.25
420.34	386.19
420.53	393.21
420.72	470.45
420.91	414.27
421.10	393.21
421.29	388.53
421.48	454.06
421.67	468.11
421.86	388.53
422.05	346.40
422.24	435.34
422.43	475.13
422.61	322.99
422.80	409.59
422.99	421.30
423.18	393.21
423.37	451.72
423.56	414.27
423.75	351.08
423.94	381.51
424.13	383.85
424.32	451.72
424.50	339.38
424.69	423.64
424.88	409.59
425.07	472.79
425.26	414.27
425.45	423.64
425.64	414.27
425.83	376.83
426.01	437.68
426.20	435.34
426.39	416.62
426.58	411.93
426.77	358.10
426.96	404.91
427.15	386.19
427.33	430.66
427.52	386.19
427.71	381.51
427.90	430.66
428.09	404.91
428.28	465.77
428.46	372.15
428.65	451.72
428.84	409.59
429.03	451.72
429.22	447.04
429.40	390.87
429.59	395.55
429.78	442.36
429.97	447.04
430.16	339.38
430.34	409.59
430.53	416.62
430.72	379.17
430.91	425.98
431.10	315.97
431.28	416.62
431.47	374.49
431.66	433.00
431.85	486.83
432.03	395.55
432.22	402.57
432.41	411.93
432.60	386.19
432.79	416.62
432.97	390.87
433.16	397.89
433.35	362.78
433.54	397.89
433.72	442.36
433.91	414.27
434.10	374.49
434.28	411.93
434.47	479.81
434.66	458.74
434.85	430.66
435.03	400.23
435.22	468.11
435.41	440.02
435.59	407.25
435.78	458.74
435.97	456.40
436.16	444.70
436.34	360.44
436.53	491.51
436.72	423.64
436.90	425.98
437.09	430.66
437.28	388.53
437.46	367.46
437.65	367.46
437.84	435.34
438.02	545.34
438.21	425.98
438.40	421.30
438.58	381.51
438.77	421.30
438.96	409.59
439.14	362.78
439.33	358.10
439.52	379.17
439.70	393.21
439.89	393.21
440.08	383.85
440.26	390.87
440.45	407.25
440.63	440.02
440.82	409.59
441.01	477.47
441.19	433.00
441.38	400.23
441.57	444.70
441.75	442.36
441.94	428.32
442.12	409.59
442.31	400.23
442.50	400.23
442.68	400.23
442.87	416.62
443.05	425.98
443.24	472.79
443.43	400.23
443.61	435.34
443.80	435.34
443.98	407.25
444.17	411.93
444.35	435.34
444.54	430.66
444.73	437.68
444.91	461.09
445.10	358.10
445.28	372.15
445.47	423.64
445.65	425.98
445.84	428.32
446.02	402.57
446.21	425.98
446.39	383.85
446.58	397.89
446.77	402.57
446.95	418.96
447.14	395.55
447.32	425.98
447.51	330.02
447.69	433.00
447.88	423.64
448.06	493.85
448.25	395.55
448.43	358.10
448.62	461.09
448.80	411.93
448.99	423.64
449.17	414.27
449.36	416.62
449.54	395.55
449.73	379.17
449.91	393.21
450.10	430.66
450.28	451.72
450.46	404.91
450.65	421.30
450.83	437.68
451.02	418.96
451.20	395.55
451.39	421.30
451.57	395.55
451.76	416.62
451.94	395.55
452.13	374.49
452.31	514.92
452.49	433.00
452.68	407.25
452.86	442.36
453.05	449.38
453.23	444.70
453.42	381.51
453.60	376.83
453.78	416.62
453.97	416.62
454.15	353.42
454.34	421.30
454.52	461.09
454.70	458.74
454.89	451.72
455.07	437.68
455.26	425.98
455.44	402.57
455.62	428.32
455.81	351.08
455.99	374.49
456.17	456.40
456.36	421.30
456.54	339.38
456.73	416.62
456.91	418.96
457.09	388.53
457.28	416.62
457.46	425.98
457.64	437.68
457.83	484.49
458.01	421.30
458.19	461.09
458.38	416.62
458.56	346.40
458.74	351.08
458.93	461.09
459.11	418.96
459.29	327.68
459.48	411.93
459.66	461.09
459.84	461.09
460.03	430.66
460.21	395.55
460.39	416.62
460.57	397.89
460.76	411.93
460.94	381.51
461.12	400.23
461.31	472.79
461.49	411.93
461.67	430.66
461.85	341.72
462.04	367.46
462.22	718.54
462.40	416.62
462.59	456.40
462.77	414.27
462.95	430.66
463.13	334.70
463.32	461.09
463.50	379.17
463.68	402.57
463.86	409.59
464.05	367.46
464.23	358.10
464.41	447.04
464.59	468.11
464.78	355.76
464.96	393.21
465.14	425.98
465.32	395.55
465.50	421.30
465.69	451.72
465.87	365.12
466.05	404.91
466.23	304.27
466.41	449.38
466.60	379.17
466.78	376.83
466.96	414.27
467.14	402.57
467.32	482.15
467.51	372.15
467.69	393.21
467.87	442.36
468.05	334.70
468.23	372.15
468.41	379.17
468.60	421.30
468.78	440.02
468.96	430.66
469.14	437.68
469.32	395.55
469.50	433.00
469.69	369.80
469.87	463.43
470.05	421.30
470.23	433.00
470.41	362.78
470.59	402.57
470.77	428.32
470.95	414.27
471.14	454.06
471.32	395.55
471.50	388.53
471.68	411.93
471.86	402.57
472.04	337.04
472.22	437.68
472.40	388.53
472.58	383.85
472.77	428.32
472.95	433.00
473.13	510.24
473.31	421.30
473.49	437.68
473.67	388.53
473.85	402.57
474.03	430.66
474.21	425.98
474.39	428.32
474.57	482.15
474.75	386.19
474.93	379.17
475.12	411.93
475.30	379.17
475.48	386.19
475.66	383.85
475.84	402.57
476.02	470.45
476.20	496.19
476.38	388.53
476.56	397.89
476.74	416.62
476.92	409.59
477.10	388.53
477.28	369.80
477.46	374.49
477.64	421.30
477.82	440.02
478.00	402.57
478.18	409.59
478.36	341.72
478.54	421.30
478.72	505.56
478.90	409.59
479.08	383.85
479.26	449.38
479.44	393.21
479.62	372.15
479.80	362.78
479.98	411.93
480.16	404.91
480.34	458.74
480.52	358.10
480.70	381.51
480.88	351.08
481.06	409.59
481.24	386.19
481.41	393.21
481.59	433.00
481.77	482.15
481.95	465.77
482.13	440.02
482.31	388.53
482.49	409.59
482.67	416.62
482.85	409.59
483.03	440.02
483.21	383.85
483.39	390.87
483.57	451.72
483.74	411.93
483.92	393.21
484.10	428.32
484.28	418.96
484.46	472.79
484.64	348.74
484.82	383.85
485.00	456.40
485.18	397.89
485.35	381.51
485.53	461.09
485.71	404.91
485.89	416.62
486.07	425.98
486.25	404.91
486.43	465.77
486.61	421.30
486.78	414.27
486.96	383.85
487.14	451.72
487.32	440.02
487.50	365.12
487.68	444.70
487.85	444.70
488.03	440.02
488.21	458.74
488.39	369.80
488.57	425.98
488.75	407.25
488.92	512.58
489.10	440.02
489.28	479.81
489.46	409.59
489.64	484.49
489.81	465.77
489.99	379.17
490.17	409.59
490.35	456.40
490.53	411.93
490.70	407.25
490.88	440.02
491.06	388.53
491.24	435.34
491.41	493.85
491.59	418.96
491.77	425.98
491.95	433.00
492.13	425.98
492.30	407.25
492.48	402.57
492.66	407.25
492.84	440.02
493.01	409.59
493.19	425.98
493.37	479.81
493.54	435.34
493.72	430.66
493.90	414.27
494.08	428.32
494.25	437.68
494.43	463.43
494.61	435.34
494.79	325.33
494.96	449.38
495.14	451.72
495.32	402.57
495.49	416.62
495.67	449.38
495.85	425.98
496.02	404.91
496.20	423.64
496.38	486.83
496.55	470.45
496.73	404.91
496.91	386.19
497.09	411.93
497.26	400.23
497.44	421.30
497.62	463.43
497.79	358.10
497.97	381.51
498.14	428.32
498.32	407.25
498.50	454.06
498.67	484.49
498.85	404.91
499.03	437.68
499.20	414.27
499.38	407.25
499.56	407.25
499.73	449.38
499.91	449.38
500.08	440.02
500.26	334.70
500.44	433.00
500.61	440.02
500.79	421.30
500.97	355.76
501.14	435.34
501.32	456.40
501.49	425.98
501.67	327.68
501.84	440.02
502.02	418.96
502.20	456.40
502.37	423.64
502.55	463.43
502.72	390.87
502.90	388.53
503.07	425.98
503.25	423.64
503.43	454.06
503.60	433.00
503.78	442.36
503.95	409.59
504.13	409.59
504.30	435.34
504.48	461.09
504.65	482.15
504.83	400.23
505.01	447.04
505.18	397.89
505.36	390.87
505.53	376.83
505.71	409.59
505.88	456.40
506.06	397.89
506.23	442.36
506.41	322.99
506.58	395.55
506.76	411.93
506.93	456.40
507.11	468.11
507.28	388.53
507.46	390.87
507.63	449.38
507.81	388.53
507.98	407.25
508.16	468.11
508.33	395.55
508.50	416.62
508.68	463.43
508.85	416.62
509.03	395.55
509.20	379.17
509.38	379.17
509.55	365.12
509.73	430.66
509.90	369.80
510.08	425.98
510.25	414.27
510.42	416.62
510.60	414.27
510.77	468.11
510.95	491.51
511.12	465.77
511.30	482.15
511.47	463.43
511.64	463.43
511.82	374.49
511.99	479.81
512.17	393.21
512.34	386.19
512.51	435.34
512.69	425.98
512.86	447.04
513.04	447.04
513.21	440.02
513.38	454.06
513.56	433.00
513.73	454.06
513.90	442.36
514.08	386.19
514.25	433.00
514.43	407.25
514.60	409.59
514.77	383.85
514.95	386.19
515.12	500.87
515.29	477.47
515.47	440.02
515.64	440.02
515.81	505.56
515.99	461.09
516.16	470.45
516.33	447.04
516.51	397.89
516.68	447.04
516.85	346.40
517.03	440.02
517.20	428.32
517.37	383.85
517.54	386.19
517.72	397.89
517.89	421.30
518.06	397.89
518.24	451.72
518.41	423.64
518.58	379.17
518.75	386.19
518.93	404.91
519.10	414.27
519.27	437.68
519.45	395.55
519.62	416.62
519.79	447.04
519.96	313.63
520.14	372.15
520.31	386.19
520.48	444.70
520.65	365.12
520.83	360.44
521.00	470.45
521.17	458.74
521.34	449.38
521.52	407.25
521.69	358.10
521.86	458.74
522.03	447.04
522.20	442.36
522.38	416.62
522.55	428.32
522.72	414.27
522.89	454.06
523.07	381.51
523.24	444.70
523.41	365.12
523.58	395.55
523.75	477.47
523.92	444.70
524.10	358.10
524.27	404.91
524.44	407.25
524.61	468.11
524.78	423.64
524.96	358.10
525.13	428.32
525.30	376.83
525.47	435.34
525.64	428.32
525.81	402.57
525.98	454.06
526.16	393.21
526.33	386.19
526.50	369.80
526.67	447.04
526.84	402.57
527.01	379.17
527.18	372.15
527.36	454.06
527.53	465.77
527.70	496.19
527.87	388.53
528.04	409.59
528.21	435.34
528.38	463.43
528.55	416.62
528.72	337.04
528.89	425.98
529.07	362.78
529.24	435.34
529.41	407.25
529.58	456.40
529.75	465.77
529.92	397.89
530.09	379.17
530.26	425.98
530.43	411.93
530.60	411.93
530.77	428.32
530.94	404.91
531.11	351.08
531.28	447.04
531.46	484.49
531.63	379.17
531.80	421.30
531.97	440.02
532.14	440.02
532.31	437.68
532.48	327.68
532.65	397.89
532.82	379.17
532.99	437.68
533.16	393.21
533.33	428.32
533.50	465.77
533.67	376.83
533.84	442.36
534.01	362.78
534.18	430.66
534.35	451.72
534.52	447.04
534.69	402.57
534.86	395.55
535.03	407.25
535.20	337.04
535.37	430.66
535.54	404.91
535.71	360.44
535.88	470.45
536.05	379.17
536.22	437.68
536.38	444.70
536.55	477.47
536.72	421.30
536.89	430.66
537.06	386.19
537.23	407.25
537.40	374.49
537.57	416.62
537.74	421.30
537.91	409.59
538.08	421.30
538.25	372.15
538.42	322.99
538.59	411.93
538.75	407.25
538.92	454.06
539.09	402.57
539.26	400.23
539.43	437.68
539.60	358.10
539.77	454.06
539.94	393.21
540.11	430.66
540.28	442.36
540.44	369.80
540.61	404.91
540.78	418.96
540.95	421.30
541.12	330.02
541.29	388.53
541.46	444.70
541.62	430.66
541.79	360.44
541.96	461.09
542.13	458.74
542.30	440.02
542.47	437.68
542.63	411.93
542.80	451.72
542.97	465.77
543.14	418.96
543.31	372.15
543.48	379.17
543.64	393.21
543.81	372.15
543.98	484.49
544.15	407.25
544.32	372.15
544.48	433.00
544.65	418.96
544.82	442.36
544.99	482.15
545.16	463.43
545.32	404.91
545.49	402.57
545.66	535.98
545.83	395.55
546.00	437.68
546.16	463.43
546.33	411.93
546.50	435.34
546.67	379.17
546.83	486.83
547.00	430.66
547.17	393.21
547.34	411.93
547.50	386.19
547.67	374.49
547.84	379.17
548.00	409.59
548.17	423.64
548.34	388.53
548.51	393.21
548.67	472.79
548.84	400.23
549.01	397.89
549.18	470.45
549.34	395.55
549.51	400.23
549.68	442.36
549.84	484.49
550.01	416.62
550.18	402.57
550.34	414.27
550.51	463.43
550.68	390.87
550.84	411.93
551.01	430.66
551.18	425.98
551.34	475.13
551.51	458.74
551.68	421.30
551.84	383.85
552.01	393.21
552.18	407.25
552.34	362.78
552.51	470.45
552.68	433.00
552.84	414.27
553.01	381.51
553.18	416.62
553.34	433.00
553.51	435.34
553.67	416.62
553.84	428.32
554.01	433.00
554.17	444.70
554.34	428.32
554.51	374.49
554.67	386.19
554.84	407.25
555.00	360.44
555.17	358.10
555.33	451.72
555.50	444.70
555.67	472.79
555.83	468.11
556.00	351.08
556.16	519.60
556.33	444.70
556.50	477.47
556.66	351.08
556.83	470.45
556.99	475.13
557.16	414.27
557.32	348.74
557.49	437.68
557.65	330.02
557.82	430.66
557.98	383.85
558.15	404.91
558.32	379.17
558.48	440.02
558.65	496.19
558.81	360.44
558.98	416.62
559.14	416.62
559.31	437.68
559.47	358.10
559.64	454.06
559.80	510.24
559.97	411.93
560.13	395.55
560.30	341.72
560.46	337.04
560.63	447.04
560.79	472.79
560.96	507.90
561.12	461.09
561.29	425.98
561.45	454.06
561.61	447.04
561.78	496.19
561.94	395.55
562.11	440.02
562.27	390.87
562.44	367.46
562.60	484.49
562.77	395.55
562.93	521.94
563.10	386.19
563.26	383.85
563.42	390.87
563.59	421.30
563.75	393.21
563.92	440.02
564.08	404.91
564.24	428.32
564.41	486.83
564.57	418.96
564.74	393.21
564.90	465.77
565.07	489.17
565.23	411.93
565.39	491.51
565.56	449.38
565.72	425.98
565.88	374.49
566.05	456.40
566.21	423.64
566.38	376.83
566.54	451.72
566.70	376.83
566.87	421.30
567.03	355.76
567.19	390.87
567.36	411.93
567.52	418.96
567.68	402.57
567.85	397.89
568.01	404.91
568.17	402.57
568.34	433.00
568.50	458.74
568.66	463.43
568.83	425.98
568.99	423.64
569.15	409.59
569.32	465.77
569.48	451.72
569.64	421.30
569.81	397.89
569.97	421.30
570.13	400.23
570.30	454.06
570.46	430.66
570.62	416.62
570.78	390.87
570.95	433.00
571.11	430.66
571.27	435.34
571.43	365.12
571.60	388.53
571.76	383.85
571.92	362.78
572.09	475.13
572.25	454.06
572.41	421.30
572.57	430.66
572.74	423.64
572.90	437.68
573.06	433.00
573.22	470.45
573.38	472.79
573.55	461.09
573.71	447.04
573.87	388.53
574.03	472.79
574.20	355.76
574.36	395.55
574.52	379.17
574.68	355.76
574.84	447.04
575.01	477.47
575.17	447.04
575.33	433.00
575.49	423.64
575.65	454.06
575.82	470.45
575.98	416.62
576.14	379.17
576.30	365.12
576.46	461.09
576.62	440.02
576.79	461.09
576.95	461.09
577.11	472.79
577.27	421.30
577.43	491.51
577.59	390.87
577.75	428.32
577.92	362.78
578.08	379.17
578.24	372.15
578.40	407.25
578.56	454.06
578.72	402.57
578.88	456.40
579.04	400.23
579.21	470.45
579.37	435.34
579.53	327.68
579.69	379.17
579.85	407.25
580.01	472.79
580.17	414.27
580.33	409.59
580.49	418.96
580.65	435.34
580.82	390.87
580.98	355.76
581.14	482.15
581.30	428.32
581.46	379.17
581.62	475.13
581.78	393.21
581.94	437.68
582.10	411.93
582.26	454.06
582.42	353.42
582.58	411.93
582.74	440.02
582.90	465.77
583.06	428.32
583.22	404.91
583.38	416.62
583.54	444.70
583.70	390.87
583.86	404.91
584.02	421.30
584.18	461.09
584.34	512.58
584.50	421.30
584.66	407.25
584.82	416.62
584.98	407.25
585.14	386.19
585.30	449.38
585.46	444.70
585.62	353.42
585.78	388.53
585.94	454.06
586.10	409.59
586.26	433.00
586.42	411.93
586.58	433.00
586.74	409.59
586.90	395.55
587.06	458.74
587.22	388.53
587.38	416.62
587.54	414.27
587.70	386.19
587.86	407.25
588.02	341.72
588.18	379.17
588.34	407.25
588.49	442.36
588.65	430.66
588.81	400.23
588.97	433.00
589.13	482.15
589.29	372.15
589.45	465.77
589.61	416.62
589.77	458.74
589.93	468.11
590.08	451.72
590.24	447.04
590.40	381.51
590.56	465.77
590.72	442.36
590.88	372.15
591.04	468.11
591.20	430.66
591.35	416.62
591.51	416.62
591.67	421.30
591.83	442.36
591.99	428.32
592.15	390.87
592.31	433.00
592.46	505.56
592.62	442.36
592.78	418.96
592.94	411.93
593.10	388.53
593.26	390.87
593.41	435.34
593.57	428.32
593.73	402.57
593.89	465.77
594.05	383.85
594.20	440.02
594.36	451.72
594.52	386.19
594.68	362.78
594.84	437.68
594.99	430.66
595.15	484.49
595.31	416.62
595.47	428.32
595.62	397.89
595.78	425.98
595.94	351.08
596.10	442.36
596.25	454.06
596.41	440.02
596.57	353.42
596.73	425.98
596.88	367.46
597.04	463.43
597.20	447.04
597.36	458.74
597.51	400.23
597.67	369.80
597.83	418.96
597.99	458.74
598.14	388.53
598.30	435.34
598.46	440.02
598.61	395.55
598.77	376.83
598.93	456.40
599.09	442.36
599.24	376.83
599.40	433.00
599.56	388.53
599.71	454.06
599.87	376.83
600.03	430.66
600.18	461.09
600.34	425.98
600.50	505.56
600.65	411.93
600.81	423.64
600.97	390.87
601.12	416.62
601.28	477.47
601.44	442.36
601.59	425.98
601.75	440.02
601.91	407.25
602.06	404.91
602.22	475.13
602.37	526.62
602.53	409.59
602.69	390.87
602.84	374.49
603.00	463.43
603.16	472.79
603.31	411.93
603.47	397.89
603.62	418.96
603.78	428.32
603.94	402.57
604.09	458.74
604.25	440.02
604.40	425.98
604.56	418.96
604.71	362.78
604.87	411.93
605.03	461.09
605.18	440.02
605.34	486.83
605.49	369.80
605.65	414.27
605.80	395.55
605.96	416.62
606.12	418.96
606.27	468.11
606.43	451.72
606.58	383.85
606.74	390.87
606.89	428.32
607.05	411.93
607.20	397.89
607.36	421.30
607.51	390.87
607.67	404.91
607.82	367.46
607.98	430.66
608.13	344.06
608.29	339.38
608.44	437.68
608.60	442.36
608.75	528.96
608.91	475.13
609.06	414.27
609.22	433.00
609.37	383.85
609.53	379.17
609.68	451.72
609.84	437.68
609.99	418.96
610.15	411.93
