SpectraSuite Data File
++++++++++++++++++++++++++++++++++++
Date: Fri Oct 25 12:11:13 EDT 2013
User: price-jones
Dark Spectrum Present: No
Reference Spectrum Present: No
Number of Sampled Component Spectra: 1
Spectrometers: USB2+H05261
Integration Time (usec): 100000 (USB2+H05261)
Spectra Averaged: 1 (USB2+H05261)
Boxcar Smoothing: 0 (USB2+H05261)
Correct for Electrical Dark: No (USB2+H05261)
Strobe/Lamp Enabled: No (USB2+H05261)
Correct for Detector Non-linearity: No (USB2+H05261)
Correct for Stray Light: No (USB2+H05261)
Number of Pixels in Processed Spectrum: 2048
>>>>>Begin Processed Spectral Data<<<<<
365.73	301.93
365.92	301.93
366.12	301.93
366.32	325.33
366.52	257.46
366.72	210.65
366.91	229.37
367.11	285.55
367.31	241.08
367.51	224.69
367.70	311.29
367.90	266.82
368.10	248.10
368.30	231.71
368.49	280.86
368.69	287.89
368.89	252.78
369.09	224.69
369.28	208.31
369.48	285.55
369.68	238.73
369.87	283.20
370.07	315.97
370.27	411.93
370.47	332.36
370.66	304.27
370.86	315.97
371.06	379.17
371.25	447.04
371.45	360.44
371.65	416.62
371.84	365.12
372.04	372.15
372.24	407.25
372.44	425.98
372.63	418.96
372.83	435.34
373.03	390.87
373.22	400.23
373.42	400.23
373.62	367.46
373.81	437.68
374.01	491.51
374.21	463.43
374.40	423.64
374.60	484.49
374.79	454.06
374.99	456.40
375.19	437.68
375.38	449.38
375.58	386.19
375.78	428.32
375.97	411.93
376.17	498.53
376.37	393.21
376.56	393.21
376.76	461.09
376.95	463.43
377.15	414.27
377.35	449.38
377.54	362.78
377.74	409.59
377.93	365.12
378.13	440.02
378.33	484.49
378.52	372.15
378.72	430.66
378.91	404.91
379.11	425.98
379.31	386.19
379.50	346.40
379.70	444.70
379.89	386.19
380.09	451.72
380.28	362.78
380.48	379.17
380.68	451.72
380.87	397.89
381.07	320.65
381.26	367.46
381.46	435.34
381.65	381.51
381.85	414.27
382.04	400.23
382.24	442.36
382.43	447.04
382.63	362.78
382.83	409.59
383.02	425.98
383.22	458.74
383.41	425.98
383.61	421.30
383.80	447.04
384.00	369.80
384.19	390.87
384.39	383.85
384.58	308.95
384.78	376.83
384.97	402.57
385.17	400.23
385.36	362.78
385.56	388.53
385.75	334.70
385.95	421.30
386.14	449.38
386.34	355.76
386.53	390.87
386.72	379.17
386.92	498.53
387.11	447.04
387.31	489.17
387.50	367.46
387.70	381.51
387.89	496.19
388.09	407.25
388.28	348.74
388.48	397.89
388.67	468.11
388.86	456.40
389.06	430.66
389.25	402.57
389.45	341.72
389.64	440.02
389.84	407.25
390.03	437.68
390.22	425.98
390.42	477.47
390.61	381.51
390.81	360.44
391.00	383.85
391.19	423.64
391.39	348.74
391.58	433.00
391.78	475.13
391.97	400.23
392.16	346.40
392.36	383.85
392.55	433.00
392.75	451.72
392.94	341.72
393.13	360.44
393.33	388.53
393.52	372.15
393.71	362.78
393.91	402.57
394.10	327.68
394.29	390.87
394.49	395.55
394.68	472.79
394.88	365.12
395.07	386.19
395.26	423.64
395.46	351.08
395.65	461.09
395.84	395.55
396.04	486.83
396.23	409.59
396.42	390.87
396.62	383.85
396.81	351.08
397.00	388.53
397.19	430.66
397.39	451.72
397.58	461.09
397.77	411.93
397.97	381.51
398.16	435.34
398.35	433.00
398.55	365.12
398.74	416.62
398.93	418.96
399.12	421.30
399.32	355.76
399.51	444.70
399.70	402.57
399.90	374.49
400.09	351.08
400.28	435.34
400.47	379.17
400.67	447.04
400.86	458.74
401.05	428.32
401.24	442.36
401.44	428.32
401.63	383.85
401.82	458.74
402.01	440.02
402.21	367.46
402.40	404.91
402.59	430.66
402.78	376.83
402.97	381.51
403.17	374.49
403.36	428.32
403.55	397.89
403.74	376.83
403.93	414.27
404.13	418.96
404.32	386.19
404.51	472.79
404.70	381.51
404.89	397.89
405.09	411.93
405.28	442.36
405.47	423.64
405.66	442.36
405.85	425.98
406.05	442.36
406.24	407.25
406.43	346.40
406.62	365.12
406.81	458.74
407.00	433.00
407.20	400.23
407.39	402.57
407.58	374.49
407.77	454.06
407.96	407.25
408.15	442.36
408.34	362.78
408.54	407.25
408.73	416.62
408.92	388.53
409.11	425.98
409.30	390.87
409.49	374.49
409.68	407.25
409.87	407.25
410.07	414.27
410.26	397.89
410.45	393.21
410.64	444.70
410.83	414.27
411.02	409.59
411.21	411.93
411.40	423.64
411.59	409.59
411.78	414.27
411.98	404.91
412.17	313.63
412.36	376.83
412.55	463.43
412.74	451.72
412.93	402.57
413.12	407.25
413.31	458.74
413.50	411.93
413.69	393.21
413.88	358.10
414.07	386.19
414.26	379.17
414.45	433.00
414.64	390.87
414.83	421.30
415.02	458.74
415.22	402.57
415.41	411.93
415.60	437.68
415.79	451.72
415.98	395.55
416.17	411.93
416.36	456.40
416.55	421.30
416.74	369.80
416.93	411.93
417.12	418.96
417.31	374.49
417.50	414.27
417.69	491.51
417.88	402.57
418.07	358.10
418.26	400.23
418.45	381.51
418.64	404.91
418.83	437.68
419.02	411.93
419.21	351.08
419.39	388.53
419.58	376.83
419.77	484.49
419.96	430.66
420.15	444.70
420.34	411.93
420.53	465.77
420.72	456.40
420.91	367.46
421.10	374.49
421.29	468.11
421.48	390.87
421.67	360.44
421.86	339.38
422.05	376.83
422.24	383.85
422.43	458.74
422.61	397.89
422.80	400.23
422.99	411.93
423.18	458.74
423.37	423.64
423.56	388.53
423.75	437.68
423.94	402.57
424.13	379.17
424.32	472.79
424.50	421.30
424.69	395.55
424.88	451.72
425.07	437.68
425.26	367.46
425.45	428.32
425.64	393.21
425.83	414.27
426.01	397.89
426.20	440.02
426.39	365.12
426.58	418.96
426.77	372.15
426.96	411.93
427.15	486.83
427.33	444.70
427.52	367.46
427.71	433.00
427.90	451.72
428.09	468.11
428.28	402.57
428.46	388.53
428.65	383.85
428.84	430.66
429.03	440.02
429.22	435.34
429.40	425.98
429.59	444.70
429.78	409.59
429.97	402.57
430.16	407.25
430.34	393.21
430.53	407.25
430.72	416.62
430.91	461.09
431.10	414.27
431.28	376.83
431.47	369.80
431.66	372.15
431.85	428.32
432.03	411.93
432.22	479.81
432.41	393.21
432.60	440.02
432.79	407.25
432.97	435.34
433.16	407.25
433.35	409.59
433.54	461.09
433.72	414.27
433.91	428.32
434.10	400.23
434.28	461.09
434.47	383.85
434.66	425.98
434.85	496.19
435.03	414.27
435.22	444.70
435.41	479.81
435.59	433.00
435.78	400.23
435.97	341.72
436.16	475.13
436.34	440.02
436.53	390.87
436.72	407.25
436.90	374.49
437.09	418.96
437.28	428.32
437.46	447.04
437.65	435.34
437.84	435.34
438.02	339.38
438.21	409.59
438.40	393.21
438.58	369.80
438.77	397.89
438.96	470.45
439.14	390.87
439.33	435.34
439.52	437.68
439.70	418.96
439.89	407.25
440.08	407.25
440.26	374.49
440.45	339.38
440.63	510.24
440.82	430.66
441.01	383.85
441.19	388.53
441.38	440.02
441.57	367.46
441.75	437.68
441.94	428.32
442.12	383.85
442.31	355.76
442.50	369.80
442.68	447.04
442.87	433.00
443.05	332.36
443.24	423.64
443.43	425.98
443.61	472.79
443.80	451.72
443.98	407.25
444.17	381.51
444.35	433.00
444.54	411.93
444.73	404.91
444.91	423.64
445.10	409.59
445.28	404.91
445.47	397.89
445.65	414.27
445.84	365.12
446.02	409.59
446.21	435.34
446.39	442.36
446.58	383.85
446.77	451.72
446.95	414.27
447.14	374.49
447.32	470.45
447.51	379.17
447.69	393.21
447.88	393.21
448.06	367.46
448.25	470.45
448.43	430.66
448.62	376.83
448.80	435.34
448.99	369.80
449.17	463.43
449.36	468.11
449.54	376.83
449.73	355.76
449.91	418.96
450.10	430.66
450.28	400.23
450.46	400.23
450.65	416.62
450.83	444.70
451.02	402.57
451.20	409.59
451.39	456.40
451.57	383.85
451.76	402.57
451.94	414.27
452.13	358.10
452.31	454.06
452.49	327.68
452.68	416.62
452.86	297.25
453.05	489.17
453.23	409.59
453.42	379.17
453.60	433.00
453.78	444.70
453.97	437.68
454.15	404.91
454.34	444.70
454.52	358.10
454.70	404.91
454.89	444.70
455.07	372.15
455.26	456.40
455.44	409.59
455.62	395.55
455.81	428.32
455.99	400.23
456.17	444.70
456.36	383.85
456.54	411.93
456.73	416.62
456.91	365.12
457.09	404.91
457.28	456.40
457.46	400.23
457.64	491.51
457.83	461.09
458.01	397.89
458.19	383.85
458.38	306.61
458.56	421.30
458.74	409.59
458.93	376.83
459.11	437.68
459.29	411.93
459.48	430.66
459.66	447.04
459.84	479.81
460.03	400.23
460.21	379.17
460.39	376.83
460.57	402.57
460.76	442.36
460.94	449.38
461.12	404.91
461.31	437.68
461.49	430.66
461.67	404.91
461.85	402.57
462.04	404.91
462.22	716.20
462.40	425.98
462.59	411.93
462.77	437.68
462.95	397.89
463.13	416.62
463.32	512.58
463.50	400.23
463.68	456.40
463.86	409.59
464.05	372.15
464.23	423.64
464.41	421.30
464.59	416.62
464.78	404.91
464.96	400.23
465.14	456.40
465.32	404.91
465.50	543.00
465.69	404.91
465.87	390.87
466.05	372.15
466.23	308.95
466.41	423.64
466.60	383.85
466.78	425.98
466.96	421.30
467.14	489.17
467.32	477.47
467.51	390.87
467.69	447.04
467.87	395.55
468.05	404.91
468.23	374.49
468.41	414.27
468.60	411.93
468.78	470.45
468.96	444.70
469.14	442.36
469.32	313.63
469.50	454.06
469.69	430.66
469.87	421.30
470.05	402.57
470.23	447.04
470.41	421.30
470.59	346.40
470.77	416.62
470.95	360.44
471.14	379.17
471.32	423.64
471.50	484.49
471.68	437.68
471.86	407.25
472.04	381.51
472.22	433.00
472.40	372.15
472.58	400.23
472.77	433.00
472.95	465.77
473.13	435.34
473.31	388.53
473.49	339.38
473.67	414.27
473.85	440.02
474.03	442.36
474.21	388.53
474.39	428.32
474.57	400.23
474.75	447.04
474.93	397.89
475.12	416.62
475.30	409.59
475.48	404.91
475.66	355.76
475.84	409.59
476.02	493.85
476.20	421.30
476.38	376.83
476.56	461.09
476.74	409.59
476.92	435.34
477.10	404.91
477.28	395.55
477.46	435.34
477.64	358.10
477.82	435.34
478.00	404.91
478.18	409.59
478.36	388.53
478.54	372.15
478.72	362.78
478.90	425.98
479.08	435.34
479.26	388.53
479.44	416.62
479.62	360.44
479.80	395.55
479.98	367.46
480.16	390.87
480.34	449.38
480.52	428.32
480.70	393.21
480.88	458.74
481.06	372.15
481.24	447.04
481.41	461.09
481.59	402.57
481.77	444.70
481.95	395.55
482.13	454.06
482.31	425.98
482.49	482.15
482.67	451.72
482.85	437.68
483.03	402.57
483.21	374.49
483.39	407.25
483.57	374.49
483.74	409.59
483.92	374.49
484.10	444.70
484.28	425.98
484.46	489.17
484.64	374.49
484.82	365.12
485.00	404.91
485.18	451.72
485.35	416.62
485.53	332.36
485.71	493.85
485.89	456.40
486.07	395.55
486.25	498.53
486.43	461.09
486.61	367.46
486.78	425.98
486.96	369.80
487.14	362.78
487.32	407.25
487.50	416.62
487.68	468.11
487.85	428.32
488.03	486.83
488.21	447.04
488.39	388.53
488.57	367.46
488.75	435.34
488.92	456.40
489.10	369.80
489.28	423.64
489.46	447.04
489.64	456.40
489.81	449.38
489.99	435.34
490.17	386.19
490.35	454.06
490.53	442.36
490.70	365.12
490.88	414.27
491.06	397.89
491.24	397.89
491.41	367.46
491.59	400.23
491.77	430.66
491.95	404.91
492.13	388.53
492.30	425.98
492.48	414.27
492.66	447.04
492.84	437.68
493.01	440.02
493.19	433.00
493.37	451.72
493.54	435.34
493.72	449.38
493.90	442.36
494.08	341.72
494.25	454.06
494.43	402.57
494.61	409.59
494.79	414.27
494.96	423.64
495.14	449.38
495.32	404.91
495.49	355.76
495.67	444.70
495.85	365.12
496.02	395.55
496.20	386.19
496.38	449.38
496.55	393.21
496.73	381.51
496.91	362.78
497.09	402.57
497.26	442.36
497.44	358.10
497.62	407.25
497.79	386.19
497.97	500.87
498.14	388.53
498.32	491.51
498.50	416.62
498.67	353.42
498.85	437.68
499.03	451.72
499.20	358.10
499.38	404.91
499.56	444.70
499.73	428.32
499.91	411.93
500.08	381.51
500.26	400.23
500.44	477.47
500.61	433.00
500.79	313.63
500.97	400.23
501.14	477.47
501.32	397.89
501.49	414.27
501.67	433.00
501.84	465.77
502.02	379.17
502.20	376.83
502.37	409.59
502.55	425.98
502.72	430.66
502.90	397.89
503.07	444.70
503.25	383.85
503.43	416.62
503.60	348.74
503.78	456.40
503.95	421.30
504.13	411.93
504.30	409.59
504.48	395.55
504.65	416.62
504.83	402.57
505.01	414.27
505.18	479.81
505.36	414.27
505.53	400.23
505.71	376.83
505.88	393.21
506.06	358.10
506.23	402.57
506.41	400.23
506.58	423.64
506.76	479.81
506.93	402.57
507.11	414.27
507.28	428.32
507.46	442.36
507.63	437.68
507.81	416.62
507.98	472.79
508.16	414.27
508.33	409.59
508.50	400.23
508.68	449.38
508.85	400.23
509.03	376.83
509.20	393.21
509.38	414.27
509.55	449.38
509.73	425.98
509.90	456.40
510.08	423.64
510.25	409.59
510.42	393.21
510.60	416.62
510.77	393.21
510.95	397.89
511.12	416.62
511.30	400.23
511.47	440.02
511.64	414.27
511.82	430.66
511.99	386.19
512.17	381.51
512.34	428.32
512.51	435.34
512.69	404.91
512.86	503.22
513.04	418.96
513.21	369.80
513.38	454.06
513.56	411.93
513.73	411.93
513.90	372.15
514.08	393.21
514.25	444.70
514.43	379.17
514.60	421.30
514.77	306.61
514.95	397.89
515.12	437.68
515.29	383.85
515.47	433.00
515.64	322.99
515.81	437.68
515.99	512.58
516.16	421.30
516.33	367.46
516.51	416.62
516.68	409.59
516.85	346.40
517.03	369.80
517.20	393.21
517.37	440.02
517.54	435.34
517.72	397.89
517.89	404.91
518.06	397.89
518.24	472.79
518.41	428.32
518.58	407.25
518.75	390.87
518.93	386.19
519.10	423.64
519.27	388.53
519.45	440.02
519.62	416.62
519.79	376.83
519.96	372.15
520.14	383.85
520.31	468.11
520.48	411.93
520.65	440.02
520.83	397.89
521.00	468.11
521.17	421.30
521.34	411.93
521.52	402.57
521.69	407.25
521.86	465.77
522.03	327.68
522.20	463.43
522.38	353.42
522.55	493.85
522.72	393.21
522.89	376.83
523.07	503.22
523.24	433.00
523.41	414.27
523.58	463.43
523.75	425.98
523.92	421.30
524.10	402.57
524.27	365.12
524.44	425.98
524.61	416.62
524.78	442.36
524.96	376.83
525.13	372.15
525.30	435.34
525.47	449.38
525.64	433.00
525.81	369.80
525.98	430.66
526.16	411.93
526.33	402.57
526.50	407.25
526.67	400.23
526.84	505.56
527.01	374.49
527.18	447.04
527.36	437.68
527.53	454.06
527.70	433.00
527.87	430.66
528.04	407.25
528.21	388.53
528.38	416.62
528.55	437.68
528.72	447.04
528.89	503.22
529.07	423.64
529.24	409.59
529.41	444.70
529.58	428.32
529.75	444.70
529.92	454.06
530.09	442.36
530.26	430.66
530.43	428.32
530.60	440.02
530.77	444.70
530.94	498.53
531.11	465.77
531.28	383.85
531.46	411.93
531.63	379.17
531.80	416.62
531.97	500.87
532.14	393.21
532.31	437.68
532.48	465.77
532.65	440.02
532.82	383.85
532.99	365.12
533.16	430.66
533.33	418.96
533.50	428.32
533.67	369.80
533.84	411.93
534.01	388.53
534.18	397.89
534.35	407.25
534.52	390.87
534.69	437.68
534.86	409.59
535.03	437.68
535.20	414.27
535.37	526.62
535.54	369.80
535.71	402.57
535.88	425.98
536.05	461.09
536.22	500.87
536.38	440.02
536.55	421.30
536.72	465.77
536.89	440.02
537.06	451.72
537.23	451.72
537.40	383.85
537.57	435.34
537.74	421.30
537.91	397.89
538.08	390.87
538.25	402.57
538.42	374.49
538.59	458.74
538.75	484.49
538.92	430.66
539.09	456.40
539.26	395.55
539.43	407.25
539.60	491.51
539.77	428.32
539.94	454.06
540.11	402.57
540.28	468.11
540.44	414.27
540.61	465.77
540.78	411.93
540.95	388.53
541.12	444.70
541.29	433.00
541.46	388.53
541.62	367.46
541.79	393.21
541.96	383.85
542.13	447.04
542.30	440.02
542.47	425.98
542.63	411.93
542.80	393.21
542.97	379.17
543.14	447.04
543.31	425.98
543.48	400.23
543.64	491.51
543.81	386.19
543.98	428.32
544.15	379.17
544.32	454.06
544.48	435.34
544.65	362.78
544.82	386.19
544.99	461.09
545.16	435.34
545.32	416.62
545.49	493.85
545.66	444.70
545.83	433.00
546.00	402.57
546.16	421.30
546.33	451.72
546.50	440.02
546.67	475.13
546.83	397.89
547.00	421.30
547.17	365.12
547.34	358.10
547.50	374.49
547.67	402.57
547.84	423.64
548.00	442.36
548.17	315.97
548.34	400.23
548.51	449.38
548.67	409.59
548.84	461.09
549.01	400.23
549.18	425.98
549.34	409.59
549.51	423.64
549.68	428.32
549.84	409.59
550.01	395.55
550.18	423.64
550.34	510.24
550.51	400.23
550.68	449.38
550.84	395.55
551.01	397.89
551.18	435.34
551.34	449.38
551.51	447.04
551.68	437.68
551.84	367.46
552.01	468.11
552.18	301.93
552.34	472.79
552.51	407.25
552.68	414.27
552.84	425.98
553.01	358.10
553.18	409.59
553.34	437.68
553.51	433.00
553.67	430.66
553.84	395.55
554.01	369.80
554.17	423.64
554.34	362.78
554.51	465.77
554.67	447.04
554.84	409.59
555.00	374.49
555.17	379.17
555.33	498.53
555.50	454.06
555.67	407.25
555.83	435.34
556.00	463.43
556.16	489.17
556.33	472.79
556.50	451.72
556.66	409.59
556.83	372.15
556.99	393.21
557.16	404.91
557.32	435.34
557.49	397.89
557.65	390.87
557.82	411.93
557.98	465.77
558.15	395.55
558.32	369.80
558.48	472.79
558.65	433.00
558.81	400.23
558.98	447.04
559.14	423.64
559.31	510.24
559.47	430.66
559.64	409.59
559.80	433.00
559.97	404.91
560.13	444.70
560.30	449.38
560.46	461.09
560.63	386.19
560.79	407.25
560.96	407.25
561.12	388.53
561.29	355.76
561.45	444.70
561.61	409.59
561.78	430.66
561.94	332.36
562.11	461.09
562.27	470.45
562.44	386.19
562.60	409.59
562.77	407.25
562.93	421.30
563.10	435.34
563.26	449.38
563.42	468.11
563.59	388.53
563.75	386.19
563.92	421.30
564.08	437.68
564.24	463.43
564.41	451.72
564.57	414.27
564.74	461.09
564.90	440.02
565.07	461.09
565.23	376.83
565.39	442.36
565.56	430.66
565.72	416.62
565.88	477.47
566.05	383.85
566.21	414.27
566.38	458.74
566.54	423.64
566.70	428.32
566.87	430.66
567.03	440.02
567.19	376.83
567.36	425.98
567.52	404.91
567.68	416.62
567.85	414.27
568.01	360.44
568.17	447.04
568.34	409.59
568.50	367.46
568.66	367.46
568.83	416.62
568.99	447.04
569.15	428.32
569.32	470.45
569.48	444.70
569.64	390.87
569.81	411.93
569.97	430.66
570.13	407.25
570.30	416.62
570.46	390.87
570.62	407.25
570.78	428.32
570.95	358.10
571.11	479.81
571.27	456.40
571.43	358.10
571.60	423.64
571.76	411.93
571.92	351.08
572.09	400.23
572.25	409.59
572.41	461.09
572.57	416.62
572.74	454.06
572.90	351.08
573.06	409.59
573.22	437.68
573.38	472.79
573.55	465.77
573.71	402.57
573.87	397.89
574.03	454.06
574.20	430.66
574.36	390.87
574.52	395.55
574.68	390.87
574.84	449.38
575.01	428.32
575.17	463.43
575.33	468.11
575.49	437.68
575.65	393.21
575.82	435.34
575.98	440.02
576.14	393.21
576.30	404.91
576.46	442.36
576.62	360.44
576.79	435.34
576.95	390.87
577.11	400.23
577.27	428.32
577.43	416.62
577.59	475.13
577.75	465.77
577.92	465.77
578.08	521.94
578.24	360.44
578.40	414.27
578.56	442.36
578.72	414.27
578.88	484.49
579.04	433.00
579.21	390.87
579.37	404.91
579.53	468.11
579.69	393.21
579.85	416.62
580.01	425.98
580.17	425.98
580.33	397.89
580.49	444.70
580.65	372.15
580.82	390.87
580.98	374.49
581.14	444.70
581.30	402.57
581.46	435.34
581.62	477.47
581.78	442.36
581.94	430.66
582.10	390.87
582.26	425.98
582.42	360.44
582.58	397.89
582.74	430.66
582.90	400.23
583.06	393.21
583.22	440.02
583.38	402.57
583.54	409.59
583.70	449.38
583.86	428.32
584.02	395.55
584.18	461.09
584.34	468.11
584.50	430.66
584.66	388.53
584.82	376.83
584.98	395.55
585.14	451.72
585.30	397.89
585.46	374.49
585.62	395.55
585.78	444.70
585.94	360.44
586.10	393.21
586.26	454.06
586.42	407.25
586.58	496.19
586.74	416.62
586.90	421.30
587.06	390.87
587.22	416.62
587.38	414.27
587.54	386.19
587.70	397.89
587.86	397.89
588.02	390.87
588.18	505.56
588.34	472.79
588.49	344.06
588.65	402.57
588.81	500.87
588.97	390.87
589.13	395.55
589.29	435.34
589.45	538.32
589.61	393.21
589.77	468.11
589.93	390.87
590.08	484.49
590.24	418.96
590.40	440.02
590.56	421.30
590.72	339.38
590.88	437.68
591.04	416.62
591.20	332.36
591.35	449.38
591.51	491.51
591.67	376.83
591.83	428.32
591.99	425.98
592.15	484.49
592.31	440.02
592.46	477.47
592.62	456.40
592.78	376.83
592.94	390.87
593.10	411.93
593.26	449.38
593.41	400.23
593.57	418.96
593.73	388.53
593.89	369.80
594.05	423.64
594.20	418.96
594.36	475.13
594.52	407.25
594.68	383.85
594.84	475.13
594.99	461.09
595.15	430.66
595.31	360.44
595.47	423.64
595.62	440.02
595.78	390.87
595.94	461.09
596.10	402.57
596.25	404.91
596.41	442.36
596.57	442.36
596.73	386.19
596.88	435.34
597.04	465.77
597.20	449.38
597.36	444.70
597.51	365.12
597.67	379.17
597.83	423.64
597.99	404.91
598.14	433.00
598.30	505.56
598.46	461.09
598.61	386.19
598.77	447.04
598.93	360.44
599.09	397.89
599.24	386.19
599.40	454.06
599.56	414.27
599.71	395.55
599.87	461.09
600.03	447.04
600.18	355.76
600.34	400.23
600.50	428.32
600.65	458.74
600.81	437.68
600.97	407.25
601.12	388.53
601.28	449.38
601.44	416.62
601.59	362.78
601.75	430.66
601.91	465.77
602.06	409.59
602.22	442.36
602.37	496.19
602.53	482.15
602.69	437.68
602.84	411.93
603.00	379.17
603.16	433.00
603.31	388.53
603.47	461.09
603.62	447.04
603.78	416.62
603.94	402.57
604.09	409.59
604.25	465.77
604.40	442.36
604.56	449.38
604.71	388.53
604.87	442.36
605.03	402.57
605.18	447.04
605.34	409.59
605.49	376.83
605.65	414.27
605.80	372.15
605.96	416.62
606.12	409.59
606.27	449.38
606.43	374.49
606.58	479.81
606.74	472.79
606.89	449.38
607.05	416.62
607.20	379.17
607.36	458.74
607.51	409.59
607.67	421.30
607.82	425.98
607.98	484.49
608.13	449.38
608.29	433.00
608.44	367.46
608.60	454.06
608.75	437.68
608.91	425.98
609.06	416.62
609.22	404.91
609.37	411.93
609.53	379.17
609.68	425.98
609.84	395.55
609.99	449.38
610.15	400.23
