SpectraSuite Data File
++++++++++++++++++++++++++++++++++++
Date: Fri Oct 25 12:11:17 EDT 2013
User: price-jones
Dark Spectrum Present: No
Reference Spectrum Present: No
Number of Sampled Component Spectra: 1
Spectrometers: USB2+H05261
Integration Time (usec): 100000 (USB2+H05261)
Spectra Averaged: 1 (USB2+H05261)
Boxcar Smoothing: 0 (USB2+H05261)
Correct for Electrical Dark: No (USB2+H05261)
Strobe/Lamp Enabled: No (USB2+H05261)
Correct for Detector Non-linearity: No (USB2+H05261)
Correct for Stray Light: No (USB2+H05261)
Number of Pixels in Processed Spectrum: 2048
>>>>>Begin Processed Spectral Data<<<<<
365.73	322.99
365.92	322.99
366.12	322.99
366.32	271.50
366.52	269.16
366.72	250.44
366.91	245.76
367.11	180.22
367.31	198.95
367.51	227.03
367.70	224.69
367.90	259.80
368.10	252.78
368.30	264.48
368.49	236.39
368.69	290.23
368.89	278.52
369.09	313.63
369.28	287.89
369.48	269.16
369.68	285.55
369.87	297.25
370.07	304.27
370.27	332.36
370.47	283.20
370.66	346.40
370.86	280.86
371.06	322.99
371.25	346.40
371.45	353.42
371.65	393.21
371.84	423.64
372.04	315.97
372.24	334.70
372.44	332.36
372.63	393.21
372.83	440.02
373.03	404.91
373.22	360.44
373.42	423.64
373.62	409.59
373.81	383.85
374.01	430.66
374.21	463.43
374.40	423.64
374.60	430.66
374.79	470.45
374.99	402.57
375.19	386.19
375.38	444.70
375.58	454.06
375.78	440.02
375.97	421.30
376.17	498.53
376.37	425.98
376.56	451.72
376.76	390.87
376.95	444.70
377.15	498.53
377.35	372.15
377.54	451.72
377.74	379.17
377.93	414.27
378.13	411.93
378.33	428.32
378.52	365.12
378.72	393.21
378.91	395.55
379.11	395.55
379.31	379.17
379.50	376.83
379.70	458.74
379.89	393.21
380.09	348.74
380.28	390.87
380.48	456.40
380.68	463.43
380.87	320.65
381.07	437.68
381.26	397.89
381.46	407.25
381.65	393.21
381.85	388.53
382.04	372.15
382.24	402.57
382.43	482.15
382.63	416.62
382.83	447.04
383.02	414.27
383.22	447.04
383.41	440.02
383.61	491.51
383.80	381.51
384.00	395.55
384.19	397.89
384.39	435.34
384.58	416.62
384.78	503.22
384.97	407.25
385.17	486.83
385.36	416.62
385.56	388.53
385.75	449.38
385.95	365.12
386.14	428.32
386.34	374.49
386.53	400.23
386.72	400.23
386.92	444.70
387.11	435.34
387.31	475.13
387.50	353.42
387.70	365.12
387.89	292.57
388.09	510.24
388.28	365.12
388.48	365.12
388.67	390.87
388.86	425.98
389.06	379.17
389.25	430.66
389.45	447.04
389.64	369.80
389.84	423.64
390.03	397.89
390.22	430.66
390.42	381.51
390.61	355.76
390.81	414.27
391.00	435.34
391.19	418.96
391.39	454.06
391.58	447.04
391.78	418.96
391.97	449.38
392.16	395.55
392.36	451.72
392.55	470.45
392.75	383.85
392.94	437.68
393.13	456.40
393.33	425.98
393.52	442.36
393.71	512.58
393.91	402.57
394.10	461.09
394.29	444.70
394.49	409.59
394.68	409.59
394.88	421.30
395.07	376.83
395.26	430.66
395.46	416.62
395.65	430.66
395.84	416.62
396.04	433.00
396.23	390.87
396.42	379.17
396.62	404.91
396.81	421.30
397.00	404.91
397.19	418.96
397.39	421.30
397.58	388.53
397.77	381.51
397.97	367.46
398.16	444.70
398.35	437.68
398.55	416.62
398.74	421.30
398.93	433.00
399.12	397.89
399.32	482.15
399.51	360.44
399.70	435.34
399.90	414.27
400.09	437.68
400.28	484.49
400.47	374.49
400.67	379.17
400.86	451.72
401.05	430.66
401.24	409.59
401.44	418.96
401.63	411.93
401.82	407.25
402.01	400.23
402.21	416.62
402.40	442.36
402.59	437.68
402.78	395.55
402.97	411.93
403.17	449.38
403.36	468.11
403.55	463.43
403.74	395.55
403.93	376.83
404.13	461.09
404.32	449.38
404.51	353.42
404.70	395.55
404.89	418.96
405.09	362.78
405.28	381.51
405.47	454.06
405.66	503.22
405.85	470.45
406.05	400.23
406.24	402.57
406.43	414.27
406.62	320.65
406.81	393.21
407.00	442.36
407.20	433.00
407.39	355.76
407.58	397.89
407.77	468.11
407.96	381.51
408.15	360.44
408.34	425.98
408.54	440.02
408.73	458.74
408.92	470.45
409.11	454.06
409.30	456.40
409.49	430.66
409.68	372.15
409.87	425.98
410.07	376.83
410.26	259.80
410.45	400.23
410.64	358.10
410.83	355.76
411.02	435.34
411.21	447.04
411.40	395.55
411.59	416.62
411.78	297.25
411.98	379.17
412.17	386.19
412.36	374.49
412.55	388.53
412.74	458.74
412.93	468.11
413.12	388.53
413.31	400.23
413.50	365.12
413.69	430.66
413.88	454.06
414.07	463.43
414.26	425.98
414.45	430.66
414.64	430.66
414.83	430.66
415.02	435.34
415.22	404.91
415.41	461.09
415.60	395.55
415.79	475.13
415.98	449.38
416.17	402.57
416.36	470.45
416.55	430.66
416.74	442.36
416.93	425.98
417.12	402.57
417.31	390.87
417.50	411.93
417.69	383.85
417.88	376.83
418.07	393.21
418.26	447.04
418.45	411.93
418.64	400.23
418.83	416.62
419.02	418.96
419.21	447.04
419.39	437.68
419.58	442.36
419.77	334.70
419.96	379.17
420.15	430.66
420.34	353.42
420.53	369.80
420.72	365.12
420.91	430.66
421.10	416.62
421.29	353.42
421.48	421.30
421.67	425.98
421.86	388.53
422.05	444.70
422.24	421.30
422.43	400.23
422.61	320.65
422.80	430.66
422.99	355.76
423.18	376.83
423.37	428.32
423.56	414.27
423.75	491.51
423.94	372.15
424.13	407.25
424.32	463.43
424.50	390.87
424.69	435.34
424.88	465.77
425.07	383.85
425.26	393.21
425.45	458.74
425.64	411.93
425.83	393.21
426.01	421.30
426.20	372.15
426.39	374.49
426.58	433.00
426.77	383.85
426.96	404.91
427.15	444.70
427.33	379.17
427.52	388.53
427.71	428.32
427.90	461.09
428.09	348.74
428.28	388.53
428.46	409.59
428.65	500.87
428.84	430.66
429.03	435.34
429.22	402.57
429.40	388.53
429.59	414.27
429.78	468.11
429.97	440.02
430.16	430.66
430.34	430.66
430.53	348.74
430.72	433.00
430.91	442.36
431.10	355.76
431.28	395.55
431.47	353.42
431.66	414.27
431.85	341.72
432.03	395.55
432.22	477.47
432.41	461.09
432.60	388.53
432.79	360.44
432.97	404.91
433.16	414.27
433.35	454.06
433.54	390.87
433.72	358.10
433.91	404.91
434.10	416.62
434.28	386.19
434.47	465.77
434.66	421.30
434.85	397.89
435.03	421.30
435.22	447.04
435.41	503.22
435.59	447.04
435.78	437.68
435.97	341.72
436.16	451.72
436.34	433.00
436.53	393.21
436.72	433.00
436.90	477.47
437.09	411.93
437.28	386.19
437.46	372.15
437.65	376.83
437.84	372.15
438.02	489.17
438.21	414.27
438.40	454.06
438.58	437.68
438.77	421.30
438.96	411.93
439.14	376.83
439.33	489.17
439.52	416.62
439.70	421.30
439.89	442.36
440.08	484.49
440.26	393.21
440.45	383.85
440.63	430.66
440.82	425.98
441.01	423.64
441.19	414.27
441.38	404.91
441.57	320.65
441.75	433.00
441.94	397.89
442.12	447.04
442.31	454.06
442.50	390.87
442.68	397.89
442.87	416.62
443.05	437.68
443.24	369.80
443.43	393.21
443.61	409.59
443.80	423.64
443.98	447.04
444.17	491.51
444.35	449.38
444.54	379.17
444.73	498.53
444.91	468.11
445.10	409.59
445.28	486.83
445.47	456.40
445.65	472.79
445.84	463.43
446.02	411.93
446.21	341.72
446.39	402.57
446.58	388.53
446.77	456.40
446.95	519.60
447.14	381.51
447.32	479.81
447.51	468.11
447.69	400.23
447.88	418.96
448.06	470.45
448.25	402.57
448.43	369.80
448.62	388.53
448.80	393.21
448.99	411.93
449.17	369.80
449.36	351.08
449.54	383.85
449.73	416.62
449.91	386.19
450.10	468.11
450.28	402.57
450.46	409.59
450.65	381.51
450.83	327.68
451.02	395.55
451.20	491.51
451.39	381.51
451.57	444.70
451.76	346.40
451.94	456.40
452.13	351.08
452.31	447.04
452.49	416.62
452.68	306.61
452.86	374.49
453.05	433.00
453.23	402.57
453.42	386.19
453.60	451.72
453.78	379.17
453.97	430.66
454.15	402.57
454.34	435.34
454.52	458.74
454.70	442.36
454.89	416.62
455.07	386.19
455.26	339.38
455.44	435.34
455.62	447.04
455.81	325.33
455.99	454.06
456.17	449.38
456.36	425.98
456.54	376.83
456.73	404.91
456.91	449.38
457.09	465.77
457.28	360.44
457.46	447.04
457.64	369.80
457.83	409.59
458.01	346.40
458.19	458.74
458.38	367.46
458.56	388.53
458.74	440.02
458.93	390.87
459.11	414.27
459.29	365.12
459.48	390.87
459.66	397.89
459.84	411.93
460.03	435.34
460.21	428.32
460.39	442.36
460.57	374.49
460.76	416.62
460.94	421.30
461.12	444.70
461.31	505.56
461.49	397.89
461.67	400.23
461.85	475.13
462.04	423.64
462.22	830.89
462.40	437.68
462.59	463.43
462.77	374.49
462.95	423.64
463.13	435.34
463.32	367.46
463.50	461.09
463.68	418.96
463.86	435.34
464.05	418.96
464.23	393.21
464.41	411.93
464.59	423.64
464.78	472.79
464.96	393.21
465.14	458.74
465.32	402.57
465.50	362.78
465.69	451.72
465.87	376.83
466.05	463.43
466.23	379.17
466.41	388.53
466.60	376.83
466.78	397.89
466.96	393.21
467.14	472.79
467.32	526.62
467.51	440.02
467.69	470.45
467.87	383.85
468.05	358.10
468.23	449.38
468.41	430.66
468.60	407.25
468.78	428.32
468.96	430.66
469.14	381.51
469.32	362.78
469.50	393.21
469.69	386.19
469.87	379.17
470.05	454.06
470.23	433.00
470.41	386.19
470.59	421.30
470.77	458.74
470.95	308.95
471.14	470.45
471.32	416.62
471.50	435.34
471.68	400.23
471.86	381.51
472.04	428.32
472.22	461.09
472.40	472.79
472.58	463.43
472.77	397.89
472.95	400.23
473.13	444.70
473.31	435.34
473.49	418.96
473.67	397.89
473.85	472.79
474.03	423.64
474.21	451.72
474.39	416.62
474.57	470.45
474.75	463.43
474.93	475.13
475.12	292.57
475.30	444.70
475.48	402.57
475.66	461.09
475.84	444.70
476.02	423.64
476.20	383.85
476.38	397.89
476.56	461.09
476.74	425.98
476.92	376.83
477.10	388.53
477.28	369.80
477.46	369.80
477.64	475.13
477.82	355.76
478.00	376.83
478.18	388.53
478.36	449.38
478.54	393.21
478.72	397.89
478.90	447.04
479.08	458.74
479.26	414.27
479.44	472.79
479.62	348.74
479.80	451.72
479.98	507.90
480.16	372.15
480.34	407.25
480.52	379.17
480.70	344.06
480.88	425.98
481.06	414.27
481.24	374.49
481.41	369.80
481.59	451.72
481.77	388.53
481.95	306.61
482.13	411.93
482.31	383.85
482.49	444.70
482.67	411.93
482.85	475.13
483.03	430.66
483.21	411.93
483.39	461.09
483.57	449.38
483.74	498.53
483.92	451.72
484.10	442.36
484.28	461.09
484.46	447.04
484.64	376.83
484.82	465.77
485.00	421.30
485.18	461.09
485.35	402.57
485.53	383.85
485.71	397.89
485.89	418.96
486.07	376.83
486.25	479.81
486.43	447.04
486.61	414.27
486.78	369.80
486.96	330.02
487.14	374.49
487.32	367.46
487.50	374.49
487.68	372.15
487.85	393.21
488.03	430.66
488.21	442.36
488.39	451.72
488.57	360.44
488.75	393.21
488.92	486.83
489.10	470.45
489.28	442.36
489.46	390.87
489.64	447.04
489.81	365.12
489.99	418.96
490.17	475.13
490.35	472.79
490.53	458.74
490.70	428.32
490.88	369.80
491.06	325.33
491.24	475.13
491.41	444.70
491.59	369.80
491.77	390.87
491.95	383.85
492.13	365.12
492.30	383.85
492.48	383.85
492.66	428.32
492.84	388.53
493.01	425.98
493.19	383.85
493.37	465.77
493.54	416.62
493.72	418.96
493.90	454.06
494.08	346.40
494.25	395.55
494.43	400.23
494.61	346.40
494.79	416.62
494.96	454.06
495.14	540.66
495.32	444.70
495.49	409.59
495.67	498.53
495.85	365.12
496.02	360.44
496.20	397.89
496.38	461.09
496.55	393.21
496.73	428.32
496.91	404.91
497.09	454.06
497.26	330.02
497.44	383.85
497.62	313.63
497.79	315.97
497.97	468.11
498.14	526.62
498.32	461.09
498.50	437.68
498.67	374.49
498.85	411.93
499.03	435.34
499.20	437.68
499.38	416.62
499.56	437.68
499.73	451.72
499.91	409.59
500.08	468.11
500.26	425.98
500.44	430.66
500.61	407.25
500.79	332.36
500.97	365.12
501.14	360.44
501.32	388.53
501.49	456.40
501.67	489.17
501.84	381.51
502.02	433.00
502.20	416.62
502.37	355.76
502.55	440.02
502.72	325.33
502.90	447.04
503.07	421.30
503.25	463.43
503.43	437.68
503.60	437.68
503.78	442.36
503.95	369.80
504.13	402.57
504.30	463.43
504.48	369.80
504.65	425.98
504.83	388.53
505.01	400.23
505.18	416.62
505.36	421.30
505.53	421.30
505.71	393.21
505.88	386.19
506.06	362.78
506.23	346.40
506.41	496.19
506.58	416.62
506.76	409.59
506.93	440.02
507.11	367.46
507.28	433.00
507.46	463.43
507.63	461.09
507.81	463.43
507.98	341.72
508.16	402.57
508.33	346.40
508.50	344.06
508.68	397.89
508.85	346.40
509.03	358.10
509.20	397.89
509.38	402.57
509.55	451.72
509.73	407.25
509.90	454.06
510.08	381.51
510.25	362.78
510.42	390.87
510.60	447.04
510.77	369.80
510.95	458.74
511.12	465.77
511.30	484.49
511.47	393.21
511.64	517.26
511.82	470.45
511.99	416.62
512.17	407.25
512.34	362.78
512.51	400.23
512.69	430.66
512.86	421.30
513.04	449.38
513.21	365.12
513.38	416.62
513.56	393.21
513.73	386.19
513.90	435.34
514.08	400.23
514.25	421.30
514.43	433.00
514.60	409.59
514.77	411.93
514.95	372.15
515.12	390.87
515.29	407.25
515.47	402.57
515.64	454.06
515.81	430.66
515.99	447.04
516.16	418.96
516.33	454.06
516.51	437.68
516.68	435.34
516.85	421.30
517.03	393.21
517.20	458.74
517.37	411.93
517.54	430.66
517.72	362.78
517.89	351.08
518.06	397.89
518.24	409.59
518.41	423.64
518.58	374.49
518.75	425.98
518.93	428.32
519.10	444.70
519.27	414.27
519.45	395.55
519.62	414.27
519.79	407.25
519.96	358.10
520.14	407.25
520.31	404.91
520.48	440.02
520.65	414.27
520.83	451.72
521.00	437.68
521.17	442.36
521.34	404.91
521.52	440.02
521.69	477.47
521.86	418.96
522.03	386.19
522.20	500.87
522.38	442.36
522.55	442.36
522.72	402.57
522.89	400.23
523.07	437.68
523.24	456.40
523.41	447.04
523.58	360.44
523.75	435.34
523.92	411.93
524.10	491.51
524.27	425.98
524.44	416.62
524.61	454.06
524.78	409.59
524.96	447.04
525.13	395.55
525.30	435.34
525.47	521.94
525.64	437.68
525.81	463.43
525.98	463.43
526.16	402.57
526.33	369.80
526.50	423.64
526.67	435.34
526.84	374.49
527.01	381.51
527.18	437.68
527.36	425.98
527.53	423.64
527.70	451.72
527.87	458.74
528.04	458.74
528.21	430.66
528.38	465.77
528.55	428.32
528.72	468.11
528.89	463.43
529.07	404.91
529.24	393.21
529.41	437.68
529.58	395.55
529.75	414.27
529.92	470.45
530.09	484.49
530.26	395.55
530.43	442.36
530.60	454.06
530.77	414.27
530.94	486.83
531.11	409.59
531.28	372.15
531.46	411.93
531.63	376.83
531.80	393.21
531.97	444.70
532.14	428.32
532.31	369.80
532.48	423.64
532.65	367.46
532.82	351.08
532.99	386.19
533.16	290.23
533.33	416.62
533.50	351.08
533.67	461.09
533.84	447.04
534.01	346.40
534.18	390.87
534.35	507.90
534.52	409.59
534.69	376.83
534.86	390.87
535.03	470.45
535.20	409.59
535.37	451.72
535.54	507.90
535.71	465.77
535.88	435.34
536.05	433.00
536.22	421.30
536.38	383.85
536.55	444.70
536.72	381.51
536.89	393.21
537.06	369.80
537.23	484.49
537.40	442.36
537.57	425.98
537.74	493.85
537.91	493.85
538.08	433.00
538.25	451.72
538.42	437.68
538.59	440.02
538.75	470.45
538.92	414.27
539.09	458.74
539.26	351.08
539.43	414.27
539.60	416.62
539.77	479.81
539.94	402.57
540.11	440.02
540.28	393.21
540.44	416.62
540.61	498.53
540.78	407.25
540.95	416.62
541.12	442.36
541.29	425.98
541.46	444.70
541.62	407.25
541.79	421.30
541.96	330.02
542.13	397.89
542.30	393.21
542.47	472.79
542.63	390.87
542.80	454.06
542.97	407.25
543.14	479.81
543.31	355.76
543.48	468.11
543.64	472.79
543.81	421.30
543.98	388.53
544.15	486.83
544.32	390.87
544.48	402.57
544.65	404.91
544.82	411.93
544.99	407.25
545.16	465.77
545.32	376.83
545.49	456.40
545.66	393.21
545.83	376.83
546.00	395.55
546.16	388.53
546.33	397.89
546.50	376.83
546.67	397.89
546.83	411.93
547.00	414.27
547.17	444.70
547.34	411.93
547.50	465.77
547.67	393.21
547.84	393.21
548.00	407.25
548.17	451.72
548.34	372.15
548.51	421.30
548.67	454.06
548.84	409.59
549.01	425.98
549.18	437.68
549.34	402.57
549.51	374.49
549.68	435.34
549.84	381.51
550.01	442.36
550.18	482.15
550.34	503.22
550.51	393.21
550.68	526.62
550.84	388.53
551.01	423.64
551.18	491.51
551.34	388.53
551.51	390.87
551.68	414.27
551.84	440.02
552.01	416.62
552.18	313.63
552.34	409.59
552.51	360.44
552.68	454.06
552.84	451.72
553.01	409.59
553.18	421.30
553.34	395.55
553.51	409.59
553.67	507.90
553.84	486.83
554.01	435.34
554.17	454.06
554.34	400.23
554.51	484.49
554.67	433.00
554.84	360.44
555.00	397.89
555.17	337.04
555.33	402.57
555.50	421.30
555.67	465.77
555.83	376.83
556.00	372.15
556.16	535.98
556.33	440.02
556.50	465.77
556.66	442.36
556.83	451.72
556.99	416.62
557.16	369.80
557.32	479.81
557.49	449.38
557.65	411.93
557.82	393.21
557.98	463.43
558.15	372.15
558.32	440.02
558.48	468.11
558.65	465.77
558.81	400.23
558.98	418.96
559.14	444.70
559.31	458.74
559.47	472.79
559.64	447.04
559.80	437.68
559.97	397.89
560.13	503.22
560.30	400.23
560.46	355.76
560.63	423.64
560.79	440.02
560.96	479.81
561.12	430.66
561.29	383.85
561.45	397.89
561.61	454.06
561.78	470.45
561.94	461.09
562.11	421.30
562.27	428.32
562.44	390.87
562.60	498.53
562.77	374.49
562.93	458.74
563.10	383.85
563.26	351.08
563.42	383.85
563.59	458.74
563.75	379.17
563.92	479.81
564.08	388.53
564.24	430.66
564.41	437.68
564.57	395.55
564.74	409.59
564.90	379.17
565.07	435.34
565.23	444.70
565.39	514.92
565.56	472.79
565.72	388.53
565.88	435.34
566.05	475.13
566.21	416.62
566.38	456.40
566.54	393.21
566.70	381.51
566.87	388.53
567.03	407.25
567.19	383.85
567.36	395.55
567.52	423.64
567.68	458.74
567.85	407.25
568.01	437.68
568.17	411.93
568.34	444.70
568.50	423.64
568.66	402.57
568.83	517.26
568.99	437.68
569.15	479.81
569.32	407.25
569.48	390.87
569.64	351.08
569.81	435.34
569.97	456.40
570.13	444.70
570.30	449.38
570.46	433.00
570.62	477.47
570.78	440.02
570.95	372.15
571.11	465.77
571.27	463.43
571.43	418.96
571.60	442.36
571.76	433.00
571.92	418.96
572.09	440.02
572.25	456.40
572.41	472.79
572.57	416.62
572.74	435.34
572.90	362.78
573.06	449.38
573.22	402.57
573.38	470.45
573.55	489.17
573.71	470.45
573.87	475.13
574.03	393.21
574.20	367.46
574.36	444.70
574.52	386.19
574.68	496.19
574.84	423.64
575.01	444.70
575.17	477.47
575.33	407.25
575.49	440.02
575.65	383.85
575.82	433.00
575.98	421.30
576.14	402.57
576.30	390.87
576.46	430.66
576.62	428.32
576.79	374.49
576.95	479.81
577.11	388.53
577.27	493.85
577.43	430.66
577.59	456.40
577.75	449.38
577.92	374.49
578.08	421.30
578.24	463.43
578.40	440.02
578.56	411.93
578.72	430.66
578.88	477.47
579.04	411.93
579.21	421.30
579.37	423.64
579.53	334.70
579.69	404.91
579.85	435.34
580.01	423.64
580.17	379.17
580.33	430.66
580.49	383.85
580.65	425.98
580.82	444.70
580.98	386.19
581.14	447.04
581.30	458.74
581.46	346.40
581.62	463.43
581.78	484.49
581.94	433.00
582.10	407.25
582.26	454.06
582.42	409.59
582.58	449.38
582.74	362.78
582.90	386.19
583.06	435.34
583.22	430.66
583.38	416.62
583.54	437.68
583.70	447.04
583.86	477.47
584.02	449.38
584.18	402.57
584.34	433.00
584.50	451.72
584.66	358.10
584.82	386.19
584.98	360.44
585.14	407.25
585.30	437.68
585.46	409.59
585.62	423.64
585.78	409.59
585.94	367.46
586.10	414.27
586.26	430.66
586.42	519.60
586.58	407.25
586.74	442.36
586.90	451.72
587.06	449.38
587.22	397.89
587.38	409.59
587.54	444.70
587.70	456.40
587.86	437.68
588.02	372.15
588.18	411.93
588.34	477.47
588.49	393.21
588.65	374.49
588.81	390.87
588.97	395.55
589.13	407.25
589.29	390.87
589.45	416.62
589.61	463.43
589.77	496.19
589.93	470.45
590.08	430.66
590.24	397.89
590.40	449.38
590.56	416.62
590.72	341.72
590.88	447.04
591.04	360.44
591.20	428.32
591.35	409.59
591.51	472.79
591.67	386.19
591.83	369.80
591.99	444.70
592.15	423.64
592.31	433.00
592.46	346.40
592.62	372.15
592.78	379.17
592.94	423.64
593.10	397.89
593.26	376.83
593.41	447.04
593.57	482.15
593.73	423.64
593.89	407.25
594.05	414.27
594.20	383.85
594.36	418.96
594.52	418.96
594.68	449.38
594.84	407.25
594.99	458.74
595.15	449.38
595.31	414.27
595.47	437.68
595.62	451.72
595.78	477.47
595.94	433.00
596.10	418.96
596.25	421.30
596.41	421.30
596.57	374.49
596.73	449.38
596.88	425.98
597.04	430.66
597.20	397.89
597.36	465.77
597.51	411.93
597.67	400.23
597.83	386.19
597.99	372.15
598.14	390.87
598.30	470.45
598.46	411.93
598.61	416.62
598.77	418.96
598.93	397.89
599.09	428.32
599.24	447.04
599.40	447.04
599.56	369.80
599.71	395.55
599.87	386.19
600.03	505.56
600.18	407.25
600.34	395.55
600.50	367.46
600.65	381.51
600.81	477.47
600.97	444.70
601.12	423.64
601.28	430.66
601.44	428.32
601.59	416.62
601.75	362.78
601.91	362.78
602.06	411.93
602.22	456.40
602.37	390.87
602.53	376.83
602.69	461.09
602.84	407.25
603.00	414.27
603.16	428.32
603.31	442.36
603.47	407.25
603.62	374.49
603.78	407.25
603.94	440.02
604.09	425.98
604.25	498.53
604.40	358.10
604.56	395.55
604.71	425.98
604.87	496.19
605.03	425.98
605.18	435.34
605.34	444.70
605.49	421.30
605.65	454.06
605.80	433.00
605.96	425.98
606.12	355.76
606.27	362.78
606.43	437.68
606.58	449.38
606.74	468.11
606.89	444.70
607.05	444.70
607.20	458.74
607.36	463.43
607.51	334.70
607.67	449.38
607.82	379.17
607.98	470.45
608.13	358.10
608.29	423.64
608.44	430.66
608.60	393.21
608.75	390.87
608.91	395.55
609.06	447.04
609.22	416.62
609.37	402.57
609.53	386.19
609.68	381.51
609.84	369.80
609.99	400.23
610.15	442.36
