SpectraSuite Data File
++++++++++++++++++++++++++++++++++++
Date: Fri Oct 25 12:10:25 EDT 2013
User: price-jones
Dark Spectrum Present: No
Reference Spectrum Present: No
Number of Sampled Component Spectra: 1
Spectrometers: USB2+H05261
Integration Time (usec): 100000 (USB2+H05261)
Spectra Averaged: 1 (USB2+H05261)
Boxcar Smoothing: 0 (USB2+H05261)
Correct for Electrical Dark: No (USB2+H05261)
Strobe/Lamp Enabled: No (USB2+H05261)
Correct for Detector Non-linearity: No (USB2+H05261)
Correct for Stray Light: No (USB2+H05261)
Number of Pixels in Processed Spectrum: 2048
>>>>>Begin Processed Spectral Data<<<<<
365.73	423.64
365.92	423.64
366.12	423.64
366.32	255.12
366.52	191.92
366.72	205.97
366.91	184.90
367.11	236.39
367.31	315.97
367.51	201.29
367.70	252.78
367.90	227.03
368.10	252.78
368.30	243.42
368.49	212.99
368.69	294.91
368.89	236.39
369.09	273.84
369.28	227.03
369.48	344.06
369.68	280.86
369.87	252.78
370.07	304.27
370.27	369.80
370.47	355.76
370.66	292.57
370.86	367.46
371.06	367.46
371.25	395.55
371.45	402.57
371.65	383.85
371.84	330.02
372.04	379.17
372.24	362.78
372.44	386.19
372.63	367.46
372.83	351.08
373.03	461.09
373.22	482.15
373.42	404.91
373.62	437.68
373.81	500.87
374.01	470.45
374.21	507.90
374.40	425.98
374.60	468.11
374.79	367.46
374.99	463.43
375.19	390.87
375.38	433.00
375.58	325.33
375.78	454.06
375.97	447.04
376.17	458.74
376.37	409.59
376.56	330.02
376.76	365.12
376.95	425.98
377.15	418.96
377.35	400.23
377.54	447.04
377.74	425.98
377.93	440.02
378.13	440.02
378.33	447.04
378.52	383.85
378.72	435.34
378.91	433.00
379.11	425.98
379.31	418.96
379.50	334.70
379.70	379.17
379.89	454.06
380.09	444.70
380.28	402.57
380.48	409.59
380.68	411.93
380.87	369.80
381.07	416.62
381.26	451.72
381.46	386.19
381.65	421.30
381.85	367.46
382.04	449.38
382.24	386.19
382.43	416.62
382.63	362.78
382.83	365.12
383.02	451.72
383.22	397.89
383.41	353.42
383.61	440.02
383.80	430.66
384.00	411.93
384.19	425.98
384.39	468.11
384.58	397.89
384.78	421.30
384.97	475.13
385.17	486.83
385.36	402.57
385.56	425.98
385.75	484.49
385.95	418.96
386.14	451.72
386.34	358.10
386.53	381.51
386.72	435.34
386.92	369.80
387.11	393.21
387.31	414.27
387.50	397.89
387.70	400.23
387.89	344.06
388.09	376.83
388.28	458.74
388.48	409.59
388.67	451.72
388.86	372.15
389.06	337.04
389.25	372.15
389.45	386.19
389.64	411.93
389.84	414.27
390.03	365.12
390.22	402.57
390.42	458.74
390.61	444.70
390.81	395.55
391.00	390.87
391.19	362.78
391.39	388.53
391.58	400.23
391.78	388.53
391.97	388.53
392.16	418.96
392.36	421.30
392.55	428.32
392.75	369.80
392.94	360.44
393.13	456.40
393.33	463.43
393.52	423.64
393.71	486.83
393.91	416.62
394.10	411.93
394.29	400.23
394.49	458.74
394.68	428.32
394.88	400.23
395.07	381.51
395.26	451.72
395.46	397.89
395.65	435.34
395.84	404.91
396.04	512.58
396.23	393.21
396.42	428.32
396.62	456.40
396.81	367.46
397.00	449.38
397.19	374.49
397.39	461.09
397.58	437.68
397.77	447.04
397.97	374.49
398.16	379.17
398.35	430.66
398.55	360.44
398.74	397.89
398.93	346.40
399.12	437.68
399.32	428.32
399.51	423.64
399.70	411.93
399.90	395.55
400.09	397.89
400.28	437.68
400.47	351.08
400.67	423.64
400.86	440.02
401.05	451.72
401.24	416.62
401.44	435.34
401.63	425.98
401.82	433.00
402.01	418.96
402.21	407.25
402.40	430.66
402.59	372.15
402.78	381.51
402.97	418.96
403.17	421.30
403.36	430.66
403.55	404.91
403.74	407.25
403.93	470.45
404.13	418.96
404.32	388.53
404.51	442.36
404.70	383.85
404.89	442.36
405.09	404.91
405.28	444.70
405.47	435.34
405.66	374.49
405.85	430.66
406.05	451.72
406.24	409.59
406.43	447.04
406.62	379.17
406.81	423.64
407.00	381.51
407.20	376.83
407.39	372.15
407.58	390.87
407.77	379.17
407.96	388.53
408.15	409.59
408.34	362.78
408.54	440.02
408.73	418.96
408.92	369.80
409.11	346.40
409.30	475.13
409.49	437.68
409.68	433.00
409.87	395.55
410.07	430.66
410.26	428.32
410.45	402.57
410.64	374.49
410.83	465.77
411.02	395.55
411.21	442.36
411.40	402.57
411.59	397.89
411.78	458.74
411.98	355.76
412.17	351.08
412.36	393.21
412.55	423.64
412.74	444.70
412.93	444.70
413.12	376.83
413.31	447.04
413.50	402.57
413.69	393.21
413.88	425.98
414.07	461.09
414.26	416.62
414.45	351.08
414.64	400.23
414.83	362.78
415.02	407.25
415.22	404.91
415.41	416.62
415.60	344.06
415.79	362.78
415.98	425.98
416.17	442.36
416.36	418.96
416.55	330.02
416.74	390.87
416.93	369.80
417.12	416.62
417.31	367.46
417.50	390.87
417.69	414.27
417.88	355.76
418.07	416.62
418.26	409.59
418.45	351.08
418.64	442.36
418.83	454.06
419.02	418.96
419.21	477.47
419.39	311.29
419.58	353.42
419.77	355.76
419.96	400.23
420.15	400.23
420.34	397.89
420.53	425.98
420.72	379.17
420.91	390.87
421.10	470.45
421.29	425.98
421.48	337.04
421.67	388.53
421.86	360.44
422.05	383.85
422.24	407.25
422.43	418.96
422.61	395.55
422.80	437.68
422.99	355.76
423.18	386.19
423.37	390.87
423.56	423.64
423.75	447.04
423.94	444.70
424.13	369.80
424.32	390.87
424.50	454.06
424.69	538.32
424.88	430.66
425.07	458.74
425.26	486.83
425.45	390.87
425.64	351.08
425.83	461.09
426.01	369.80
426.20	451.72
426.39	379.17
426.58	409.59
426.77	430.66
426.96	440.02
427.15	425.98
427.33	407.25
427.52	437.68
427.71	407.25
427.90	418.96
428.09	433.00
428.28	433.00
428.46	477.47
428.65	407.25
428.84	372.15
429.03	411.93
429.22	458.74
429.40	383.85
429.59	418.96
429.78	418.96
429.97	379.17
430.16	400.23
430.34	416.62
430.53	421.30
430.72	369.80
430.91	430.66
431.10	409.59
431.28	386.19
431.47	468.11
431.66	393.21
431.85	423.64
432.03	407.25
432.22	440.02
432.41	407.25
432.60	416.62
432.79	402.57
432.97	339.38
433.16	386.19
433.35	390.87
433.54	404.91
433.72	428.32
433.91	416.62
434.10	358.10
434.28	414.27
434.47	383.85
434.66	454.06
434.85	449.38
435.03	353.42
435.22	425.98
435.41	475.13
435.59	430.66
435.78	423.64
435.97	407.25
436.16	423.64
436.34	381.51
436.53	411.93
436.72	489.17
436.90	402.57
437.09	390.87
437.28	409.59
437.46	390.87
437.65	479.81
437.84	337.04
438.02	360.44
438.21	376.83
438.40	360.44
438.58	365.12
438.77	479.81
438.96	393.21
439.14	416.62
439.33	383.85
439.52	442.36
439.70	458.74
439.89	397.89
440.08	374.49
440.26	507.90
440.45	477.47
440.63	348.74
440.82	376.83
441.01	418.96
441.19	435.34
441.38	442.36
441.57	475.13
441.75	493.85
441.94	465.77
442.12	416.62
442.31	351.08
442.50	376.83
442.68	433.00
442.87	482.15
443.05	468.11
443.24	435.34
443.43	428.32
443.61	461.09
443.80	379.17
443.98	351.08
444.17	486.83
444.35	433.00
444.54	355.76
444.73	318.31
444.91	395.55
445.10	421.30
445.28	306.61
445.47	374.49
445.65	435.34
445.84	383.85
446.02	383.85
446.21	381.51
446.39	386.19
446.58	407.25
446.77	362.78
446.95	414.27
447.14	365.12
447.32	374.49
447.51	395.55
447.69	454.06
447.88	423.64
448.06	435.34
448.25	430.66
448.43	369.80
448.62	381.51
448.80	407.25
448.99	437.68
449.17	442.36
449.36	365.12
449.54	442.36
449.73	376.83
449.91	397.89
450.10	325.33
450.28	456.40
450.46	449.38
450.65	444.70
450.83	491.51
451.02	381.51
451.20	454.06
451.39	376.83
451.57	344.06
451.76	416.62
451.94	365.12
452.13	433.00
452.31	421.30
452.49	393.21
452.68	402.57
452.86	411.93
453.05	376.83
453.23	428.32
453.42	456.40
453.60	400.23
453.78	404.91
453.97	411.93
454.15	423.64
454.34	397.89
454.52	440.02
454.70	425.98
454.89	409.59
455.07	409.59
455.26	444.70
455.44	390.87
455.62	402.57
455.81	489.17
455.99	407.25
456.17	416.62
456.36	376.83
456.54	348.74
456.73	407.25
456.91	383.85
457.09	407.25
457.28	449.38
457.46	379.17
457.64	461.09
457.83	386.19
458.01	435.34
458.19	409.59
458.38	414.27
458.56	461.09
458.74	395.55
458.93	355.76
459.11	444.70
459.29	433.00
459.48	475.13
459.66	433.00
459.84	390.87
460.03	512.58
460.21	397.89
460.39	388.53
460.57	461.09
460.76	447.04
460.94	458.74
461.12	475.13
461.31	421.30
461.49	435.34
461.67	367.46
461.85	407.25
462.04	395.55
462.22	730.25
462.40	369.80
462.59	454.06
462.77	390.87
462.95	477.47
463.13	423.64
463.32	418.96
463.50	353.42
463.68	402.57
463.86	479.81
464.05	458.74
464.23	461.09
464.41	451.72
464.59	414.27
464.78	404.91
464.96	411.93
465.14	425.98
465.32	418.96
465.50	440.02
465.69	463.43
465.87	482.15
466.05	418.96
466.23	428.32
466.41	411.93
466.60	486.83
466.78	388.53
466.96	397.89
467.14	489.17
467.32	440.02
467.51	362.78
467.69	472.79
467.87	454.06
468.05	411.93
468.23	500.87
468.41	472.79
468.60	397.89
468.78	388.53
468.96	428.32
469.14	451.72
469.32	437.68
469.50	386.19
469.69	376.83
469.87	456.40
470.05	454.06
470.23	465.77
470.41	416.62
470.59	407.25
470.77	458.74
470.95	449.38
471.14	456.40
471.32	444.70
471.50	451.72
471.68	346.40
471.86	528.96
472.04	372.15
472.22	393.21
472.40	416.62
472.58	379.17
472.77	409.59
472.95	442.36
473.13	395.55
473.31	430.66
473.49	386.19
473.67	395.55
473.85	433.00
474.03	315.97
474.21	402.57
474.39	395.55
474.57	421.30
474.75	369.80
474.93	475.13
475.12	407.25
475.30	322.99
475.48	451.72
475.66	416.62
475.84	390.87
476.02	381.51
476.20	430.66
476.38	428.32
476.56	519.60
476.74	379.17
476.92	404.91
477.10	393.21
477.28	388.53
477.46	416.62
477.64	418.96
477.82	358.10
478.00	442.36
478.18	430.66
478.36	355.76
478.54	430.66
478.72	376.83
478.90	418.96
479.08	386.19
479.26	358.10
479.44	374.49
479.62	332.36
479.80	372.15
479.98	379.17
480.16	388.53
480.34	372.15
480.52	325.33
480.70	397.89
480.88	407.25
481.06	404.91
481.24	414.27
481.41	386.19
481.59	372.15
481.77	444.70
481.95	327.68
482.13	444.70
482.31	348.74
482.49	402.57
482.67	397.89
482.85	433.00
483.03	435.34
483.21	355.76
483.39	416.62
483.57	374.49
483.74	397.89
483.92	390.87
484.10	465.77
484.28	461.09
484.46	421.30
484.64	381.51
484.82	365.12
485.00	444.70
485.18	397.89
485.35	397.89
485.53	365.12
485.71	444.70
485.89	341.72
486.07	337.04
486.25	507.90
486.43	421.30
486.61	381.51
486.78	337.04
486.96	418.96
487.14	437.68
487.32	397.89
487.50	465.77
487.68	463.43
487.85	454.06
488.03	351.08
488.21	390.87
488.39	465.77
488.57	440.02
488.75	390.87
488.92	496.19
489.10	393.21
489.28	430.66
489.46	348.74
489.64	395.55
489.81	437.68
489.99	362.78
490.17	367.46
490.35	475.13
490.53	428.32
490.70	400.23
490.88	465.77
491.06	395.55
491.24	360.44
491.41	374.49
491.59	437.68
491.77	458.74
491.95	449.38
492.13	379.17
492.30	437.68
492.48	423.64
492.66	397.89
492.84	437.68
493.01	437.68
493.19	374.49
493.37	465.77
493.54	425.98
493.72	409.59
493.90	470.45
494.08	433.00
494.25	404.91
494.43	411.93
494.61	418.96
494.79	447.04
494.96	430.66
495.14	447.04
495.32	397.89
495.49	388.53
495.67	416.62
495.85	362.78
496.02	449.38
496.20	465.77
496.38	414.27
496.55	470.45
496.73	421.30
496.91	421.30
497.09	421.30
497.26	414.27
497.44	348.74
497.62	330.02
497.79	423.64
497.97	503.22
498.14	449.38
498.32	442.36
498.50	379.17
498.67	428.32
498.85	454.06
499.03	444.70
499.20	428.32
499.38	418.96
499.56	451.72
499.73	463.43
499.91	447.04
500.08	374.49
500.26	402.57
500.44	337.04
500.61	386.19
500.79	404.91
500.97	423.64
501.14	362.78
501.32	465.77
501.49	440.02
501.67	425.98
501.84	351.08
502.02	376.83
502.20	367.46
502.37	404.91
502.55	369.80
502.72	360.44
502.90	482.15
503.07	411.93
503.25	418.96
503.43	379.17
503.60	400.23
503.78	486.83
503.95	374.49
504.13	430.66
504.30	365.12
504.48	435.34
504.65	411.93
504.83	400.23
505.01	489.17
505.18	425.98
505.36	451.72
505.53	435.34
505.71	407.25
505.88	512.58
506.06	463.43
506.23	393.21
506.41	423.64
506.58	404.91
506.76	388.53
506.93	397.89
507.11	402.57
507.28	402.57
507.46	428.32
507.63	479.81
507.81	437.68
507.98	477.47
508.16	421.30
508.33	353.42
508.50	372.15
508.68	355.76
508.85	414.27
509.03	395.55
509.20	353.42
509.38	421.30
509.55	423.64
509.73	416.62
509.90	430.66
510.08	407.25
510.25	409.59
510.42	484.49
510.60	365.12
510.77	444.70
510.95	447.04
511.12	425.98
511.30	440.02
511.47	367.46
511.64	442.36
511.82	447.04
511.99	425.98
512.17	454.06
512.34	360.44
512.51	351.08
512.69	440.02
512.86	386.19
513.04	409.59
513.21	486.83
513.38	477.47
513.56	454.06
513.73	409.59
513.90	404.91
514.08	393.21
514.25	320.65
514.43	451.72
514.60	367.46
514.77	393.21
514.95	381.51
515.12	386.19
515.29	442.36
515.47	449.38
515.64	449.38
515.81	337.04
515.99	423.64
516.16	397.89
516.33	369.80
516.51	341.72
516.68	435.34
516.85	409.59
517.03	461.09
517.20	423.64
517.37	458.74
517.54	418.96
517.72	397.89
517.89	369.80
518.06	397.89
518.24	465.77
518.41	447.04
518.58	477.47
518.75	397.89
518.93	390.87
519.10	465.77
519.27	449.38
519.45	428.32
519.62	365.12
519.79	402.57
519.96	383.85
520.14	428.32
520.31	395.55
520.48	393.21
520.65	444.70
520.83	388.53
521.00	425.98
521.17	402.57
521.34	348.74
521.52	362.78
521.69	496.19
521.86	416.62
522.03	423.64
522.20	404.91
522.38	372.15
522.55	425.98
522.72	402.57
522.89	444.70
523.07	475.13
523.24	397.89
523.41	376.83
523.58	437.68
523.75	430.66
523.92	376.83
524.10	388.53
524.27	376.83
524.44	465.77
524.61	374.49
524.78	374.49
524.96	393.21
525.13	374.49
525.30	425.98
525.47	383.85
525.64	449.38
525.81	404.91
525.98	442.36
526.16	451.72
526.33	444.70
526.50	365.12
526.67	454.06
526.84	402.57
527.01	458.74
527.18	397.89
527.36	430.66
527.53	449.38
527.70	533.64
527.87	447.04
528.04	411.93
528.21	404.91
528.38	353.42
528.55	407.25
528.72	395.55
528.89	416.62
529.07	400.23
529.24	369.80
529.41	449.38
529.58	472.79
529.75	372.15
529.92	388.53
530.09	421.30
530.26	341.72
530.43	433.00
530.60	416.62
530.77	353.42
530.94	348.74
531.11	330.02
531.28	376.83
531.46	409.59
531.63	374.49
531.80	397.89
531.97	437.68
532.14	461.09
532.31	444.70
532.48	418.96
532.65	411.93
532.82	400.23
532.99	435.34
533.16	433.00
533.33	463.43
533.50	411.93
533.67	423.64
533.84	442.36
534.01	475.13
534.18	365.12
534.35	482.15
534.52	428.32
534.69	437.68
534.86	484.49
535.03	503.22
535.20	374.49
535.37	325.33
535.54	437.68
535.71	402.57
535.88	409.59
536.05	372.15
536.22	454.06
536.38	404.91
536.55	411.93
536.72	409.59
536.89	365.12
537.06	411.93
537.23	409.59
537.40	461.09
537.57	418.96
537.74	510.24
537.91	454.06
538.08	397.89
538.25	468.11
538.42	379.17
538.59	456.40
538.75	341.72
538.92	400.23
539.09	433.00
539.26	416.62
539.43	454.06
539.60	416.62
539.77	404.91
539.94	374.49
540.11	423.64
540.28	440.02
540.44	362.78
540.61	472.79
540.78	451.72
540.95	421.30
541.12	435.34
541.29	355.76
541.46	444.70
541.62	344.06
541.79	351.08
541.96	402.57
542.13	407.25
542.30	433.00
542.47	407.25
542.63	430.66
542.80	447.04
542.97	393.21
543.14	337.04
543.31	402.57
543.48	470.45
543.64	397.89
543.81	423.64
543.98	423.64
544.15	430.66
544.32	447.04
544.48	428.32
544.65	355.76
544.82	374.49
544.99	337.04
545.16	444.70
545.32	402.57
545.49	528.96
545.66	383.85
545.83	369.80
546.00	299.59
546.16	383.85
546.33	411.93
546.50	409.59
546.67	482.15
546.83	468.11
547.00	411.93
547.17	339.38
547.34	353.42
547.50	456.40
547.67	379.17
547.84	477.47
548.00	461.09
548.17	456.40
548.34	362.78
548.51	493.85
548.67	433.00
548.84	421.30
549.01	421.30
549.18	418.96
549.34	407.25
549.51	447.04
549.68	421.30
549.84	379.17
550.01	383.85
550.18	472.79
550.34	505.56
550.51	440.02
550.68	409.59
550.84	355.76
551.01	409.59
551.18	447.04
551.34	400.23
551.51	400.23
551.68	451.72
551.84	435.34
552.01	404.91
552.18	388.53
552.34	430.66
552.51	367.46
552.68	465.77
552.84	404.91
553.01	442.36
553.18	458.74
553.34	411.93
553.51	477.47
553.67	451.72
553.84	435.34
554.01	493.85
554.17	430.66
554.34	390.87
554.51	465.77
554.67	386.19
554.84	425.98
555.00	435.34
555.17	418.96
555.33	355.76
555.50	423.64
555.67	395.55
555.83	449.38
556.00	440.02
556.16	573.43
556.33	491.51
556.50	379.17
556.66	449.38
556.83	402.57
556.99	386.19
557.16	458.74
557.32	393.21
557.49	409.59
557.65	402.57
557.82	465.77
557.98	463.43
558.15	435.34
558.32	440.02
558.48	353.42
558.65	425.98
558.81	360.44
558.98	418.96
559.14	400.23
559.31	409.59
559.47	447.04
559.64	386.19
559.80	411.93
559.97	402.57
560.13	402.57
560.30	383.85
560.46	393.21
560.63	428.32
560.79	444.70
560.96	374.49
561.12	430.66
561.29	414.27
561.45	374.49
561.61	470.45
561.78	461.09
561.94	395.55
562.11	435.34
562.27	465.77
562.44	416.62
562.60	421.30
562.77	341.72
562.93	486.83
563.10	472.79
563.26	388.53
563.42	393.21
563.59	374.49
563.75	447.04
563.92	449.38
564.08	430.66
564.24	454.06
564.41	444.70
564.57	372.15
564.74	365.12
564.90	463.43
565.07	414.27
565.23	386.19
565.39	365.12
565.56	365.12
565.72	433.00
565.88	416.62
566.05	416.62
566.21	393.21
566.38	442.36
566.54	379.17
566.70	442.36
566.87	423.64
567.03	386.19
567.19	388.53
567.36	465.77
567.52	470.45
567.68	463.43
567.85	449.38
568.01	428.32
568.17	400.23
568.34	433.00
568.50	468.11
568.66	355.76
568.83	461.09
568.99	414.27
569.15	493.85
569.32	407.25
569.48	430.66
569.64	395.55
569.81	454.06
569.97	421.30
570.13	409.59
570.30	444.70
570.46	454.06
570.62	454.06
570.78	416.62
570.95	355.76
571.11	468.11
571.27	423.64
571.43	449.38
571.60	505.56
571.76	421.30
571.92	437.68
572.09	416.62
572.25	404.91
572.41	388.53
572.57	367.46
572.74	407.25
572.90	397.89
573.06	353.42
573.22	390.87
573.38	402.57
573.55	456.40
573.71	472.79
573.87	418.96
574.03	388.53
574.20	440.02
574.36	397.89
574.52	428.32
574.68	367.46
574.84	301.93
575.01	351.08
575.17	418.96
575.33	381.51
575.49	421.30
575.65	383.85
575.82	381.51
575.98	435.34
576.14	442.36
576.30	388.53
576.46	390.87
576.62	418.96
576.79	421.30
576.95	418.96
577.11	383.85
577.27	433.00
577.43	421.30
577.59	435.34
577.75	461.09
577.92	472.79
578.08	407.25
578.24	374.49
578.40	423.64
578.56	498.53
578.72	477.47
578.88	465.77
579.04	491.51
579.21	315.97
579.37	416.62
579.53	390.87
579.69	510.24
579.85	367.46
580.01	381.51
580.17	449.38
580.33	430.66
580.49	425.98
580.65	346.40
580.82	423.64
580.98	505.56
581.14	486.83
581.30	496.19
581.46	463.43
581.62	461.09
581.78	425.98
581.94	433.00
582.10	409.59
582.26	360.44
582.42	418.96
582.58	425.98
582.74	447.04
582.90	358.10
583.06	533.64
583.22	381.51
583.38	397.89
583.54	355.76
583.70	442.36
583.86	482.15
584.02	440.02
584.18	418.96
584.34	418.96
584.50	447.04
584.66	435.34
584.82	423.64
584.98	451.72
585.14	315.97
585.30	418.96
585.46	430.66
585.62	442.36
585.78	472.79
585.94	444.70
586.10	393.21
586.26	489.17
586.42	437.68
586.58	465.77
586.74	386.19
586.90	400.23
587.06	400.23
587.22	418.96
587.38	409.59
587.54	437.68
587.70	449.38
587.86	505.56
588.02	447.04
588.18	486.83
588.34	470.45
588.49	383.85
588.65	449.38
588.81	421.30
588.97	386.19
589.13	486.83
589.29	435.34
589.45	433.00
589.61	409.59
589.77	437.68
589.93	358.10
590.08	449.38
590.24	489.17
590.40	428.32
590.56	444.70
590.72	407.25
590.88	379.17
591.04	409.59
591.20	435.34
591.35	423.64
591.51	477.47
591.67	411.93
591.83	456.40
591.99	437.68
592.15	451.72
592.31	433.00
592.46	440.02
592.62	414.27
592.78	383.85
592.94	376.83
593.10	479.81
593.26	440.02
593.41	482.15
593.57	362.78
593.73	397.89
593.89	351.08
594.05	414.27
594.20	402.57
594.36	451.72
594.52	484.49
594.68	430.66
594.84	379.17
594.99	491.51
595.15	395.55
595.31	400.23
595.47	337.04
595.62	437.68
595.78	484.49
595.94	430.66
596.10	430.66
596.25	442.36
596.41	447.04
596.57	421.30
596.73	381.51
596.88	397.89
597.04	390.87
597.20	402.57
597.36	430.66
597.51	402.57
597.67	416.62
597.83	400.23
597.99	388.53
598.14	397.89
598.30	428.32
598.46	383.85
598.61	468.11
598.77	465.77
598.93	341.72
599.09	402.57
599.24	433.00
599.40	444.70
599.56	437.68
599.71	418.96
599.87	388.53
600.03	416.62
600.18	428.32
600.34	299.59
600.50	409.59
600.65	433.00
600.81	379.17
600.97	428.32
601.12	402.57
601.28	393.21
601.44	381.51
601.59	411.93
601.75	376.83
601.91	449.38
602.06	470.45
602.22	531.30
602.37	470.45
602.53	386.19
602.69	449.38
602.84	313.63
603.00	414.27
603.16	433.00
603.31	444.70
603.47	416.62
603.62	423.64
603.78	449.38
603.94	468.11
604.09	322.99
604.25	425.98
604.40	428.32
604.56	465.77
604.71	332.36
604.87	526.62
605.03	425.98
605.18	442.36
605.34	458.74
605.49	407.25
605.65	360.44
605.80	362.78
605.96	468.11
606.12	437.68
606.27	447.04
606.43	421.30
606.58	449.38
606.74	414.27
606.89	414.27
607.05	381.51
607.20	425.98
607.36	482.15
607.51	444.70
607.67	421.30
607.82	418.96
607.98	451.72
608.13	421.30
608.29	435.34
608.44	404.91
608.60	374.49
608.75	458.74
608.91	386.19
609.06	463.43
609.22	381.51
609.37	500.87
609.53	402.57
609.68	433.00
609.84	423.64
609.99	416.62
610.15	423.64
