SpectraSuite Data File
++++++++++++++++++++++++++++++++++++
Date: Fri Oct 25 12:11:45 EDT 2013
User: price-jones
Dark Spectrum Present: No
Reference Spectrum Present: No
Number of Sampled Component Spectra: 1
Spectrometers: USB2+H05261
Integration Time (usec): 100000 (USB2+H05261)
Spectra Averaged: 1 (USB2+H05261)
Boxcar Smoothing: 0 (USB2+H05261)
Correct for Electrical Dark: No (USB2+H05261)
Strobe/Lamp Enabled: No (USB2+H05261)
Correct for Detector Non-linearity: No (USB2+H05261)
Correct for Stray Light: No (USB2+H05261)
Number of Pixels in Processed Spectrum: 2048
>>>>>Begin Processed Spectral Data<<<<<
365.73	327.68
365.92	327.68
366.12	327.68
366.32	306.61
366.52	273.84
366.72	259.80
366.91	222.35
367.11	285.55
367.31	215.33
367.51	250.44
367.70	266.82
367.90	234.05
368.10	236.39
368.30	231.71
368.49	306.61
368.69	311.29
368.89	278.52
369.09	224.69
369.28	241.08
369.48	248.10
369.68	287.89
369.87	325.33
370.07	322.99
370.27	313.63
370.47	360.44
370.66	346.40
370.86	337.04
371.06	367.46
371.25	411.93
371.45	334.70
371.65	397.89
371.84	414.27
372.04	400.23
372.24	362.78
372.44	411.93
372.63	407.25
372.83	430.66
373.03	416.62
373.22	461.09
373.42	416.62
373.62	360.44
373.81	372.15
374.01	444.70
374.21	437.68
374.40	463.43
374.60	404.91
374.79	393.21
374.99	376.83
375.19	475.13
375.38	437.68
375.58	489.17
375.78	428.32
375.97	433.00
376.17	442.36
376.37	381.51
376.56	402.57
376.76	388.53
376.95	444.70
377.15	444.70
377.35	454.06
377.54	407.25
377.74	418.96
377.93	400.23
378.13	358.10
378.33	381.51
378.52	339.38
378.72	409.59
378.91	365.12
379.11	358.10
379.31	355.76
379.50	386.19
379.70	428.32
379.89	414.27
380.09	374.49
380.28	332.36
380.48	320.65
380.68	346.40
380.87	327.68
381.07	409.59
381.26	402.57
381.46	388.53
381.65	383.85
381.85	437.68
382.04	372.15
382.24	393.21
382.43	418.96
382.63	461.09
382.83	430.66
383.02	447.04
383.22	442.36
383.41	418.96
383.61	402.57
383.80	421.30
384.00	386.19
384.19	386.19
384.39	437.68
384.58	454.06
384.78	372.15
384.97	444.70
385.17	425.98
385.36	409.59
385.56	458.74
385.75	322.99
385.95	367.46
386.14	400.23
386.34	369.80
386.53	393.21
386.72	348.74
386.92	477.47
387.11	418.96
387.31	416.62
387.50	416.62
387.70	416.62
387.89	414.27
388.09	386.19
388.28	461.09
388.48	362.78
388.67	489.17
388.86	449.38
389.06	360.44
389.25	425.98
389.45	381.51
389.64	444.70
389.84	479.81
390.03	444.70
390.22	458.74
390.42	430.66
390.61	306.61
390.81	379.17
391.00	477.47
391.19	407.25
391.39	393.21
391.58	423.64
391.78	386.19
391.97	435.34
392.16	440.02
392.36	383.85
392.55	407.25
392.75	456.40
392.94	456.40
393.13	470.45
393.33	402.57
393.52	376.83
393.71	416.62
393.91	362.78
394.10	425.98
394.29	308.95
394.49	397.89
394.68	493.85
394.88	458.74
395.07	400.23
395.26	402.57
395.46	407.25
395.65	442.36
395.84	491.51
396.04	414.27
396.23	358.10
396.42	437.68
396.62	458.74
396.81	442.36
397.00	454.06
397.19	407.25
397.39	390.87
397.58	381.51
397.77	353.42
397.97	416.62
398.16	379.17
398.35	475.13
398.55	423.64
398.74	447.04
398.93	320.65
399.12	346.40
399.32	430.66
399.51	355.76
399.70	407.25
399.90	390.87
400.09	351.08
400.28	433.00
400.47	447.04
400.67	454.06
400.86	341.72
401.05	440.02
401.24	416.62
401.44	442.36
401.63	477.47
401.82	374.49
402.01	374.49
402.21	435.34
402.40	411.93
402.59	383.85
402.78	414.27
402.97	454.06
403.17	306.61
403.36	386.19
403.55	400.23
403.74	374.49
403.93	444.70
404.13	437.68
404.32	433.00
404.51	479.81
404.70	409.59
404.89	379.17
405.09	390.87
405.28	407.25
405.47	358.10
405.66	404.91
405.85	386.19
406.05	397.89
406.24	376.83
406.43	484.49
406.62	437.68
406.81	421.30
407.00	421.30
407.20	395.55
407.39	301.93
407.58	421.30
407.77	433.00
407.96	491.51
408.15	388.53
408.34	447.04
408.54	433.00
408.73	407.25
408.92	444.70
409.11	454.06
409.30	456.40
409.49	411.93
409.68	421.30
409.87	414.27
410.07	409.59
410.26	369.80
410.45	372.15
410.64	386.19
410.83	437.68
411.02	388.53
411.21	454.06
411.40	498.53
411.59	351.08
411.78	369.80
411.98	388.53
412.17	372.15
412.36	386.19
412.55	386.19
412.74	383.85
412.93	411.93
413.12	325.33
413.31	409.59
413.50	414.27
413.69	470.45
413.88	418.96
414.07	418.96
414.26	416.62
414.45	444.70
414.64	416.62
414.83	421.30
415.02	411.93
415.22	470.45
415.41	437.68
415.60	418.96
415.79	411.93
415.98	440.02
416.17	379.17
416.36	395.55
416.55	353.42
416.74	381.51
416.93	475.13
417.12	435.34
417.31	421.30
417.50	428.32
417.69	428.32
417.88	411.93
418.07	425.98
418.26	477.47
418.45	365.12
418.64	458.74
418.83	407.25
419.02	451.72
419.21	397.89
419.39	372.15
419.58	458.74
419.77	374.49
419.96	517.26
420.15	477.47
420.34	409.59
420.53	395.55
420.72	374.49
420.91	428.32
421.10	407.25
421.29	449.38
421.48	433.00
421.67	447.04
421.86	374.49
422.05	428.32
422.24	409.59
422.43	479.81
422.61	362.78
422.80	418.96
422.99	400.23
423.18	365.12
423.37	458.74
423.56	388.53
423.75	404.91
423.94	374.49
424.13	414.27
424.32	428.32
424.50	416.62
424.69	468.11
424.88	482.15
425.07	433.00
425.26	386.19
425.45	351.08
425.64	339.38
425.83	433.00
426.01	472.79
426.20	451.72
426.39	444.70
426.58	397.89
426.77	475.13
426.96	468.11
427.15	386.19
427.33	372.15
427.52	421.30
427.71	395.55
427.90	416.62
428.09	369.80
428.28	447.04
428.46	390.87
428.65	425.98
428.84	425.98
429.03	470.45
429.22	416.62
429.40	395.55
429.59	341.72
429.78	451.72
429.97	341.72
430.16	393.21
430.34	402.57
430.53	437.68
430.72	451.72
430.91	440.02
431.10	444.70
431.28	374.49
431.47	512.58
431.66	379.17
431.85	386.19
432.03	418.96
432.22	482.15
432.41	465.77
432.60	423.64
432.79	489.17
432.97	369.80
433.16	461.09
433.35	465.77
433.54	409.59
433.72	421.30
433.91	451.72
434.10	421.30
434.28	365.12
434.47	461.09
434.66	407.25
434.85	409.59
435.03	456.40
435.22	428.32
435.41	425.98
435.59	465.77
435.78	369.80
435.97	418.96
436.16	416.62
436.34	486.83
436.53	435.34
436.72	463.43
436.90	390.87
437.09	402.57
437.28	491.51
437.46	428.32
437.65	383.85
437.84	447.04
438.02	402.57
438.21	416.62
438.40	367.46
438.58	390.87
438.77	409.59
438.96	421.30
439.14	400.23
439.33	421.30
439.52	334.70
439.70	437.68
439.89	383.85
440.08	414.27
440.26	475.13
440.45	430.66
440.63	503.22
440.82	402.57
441.01	393.21
441.19	381.51
441.38	388.53
441.57	353.42
441.75	372.15
441.94	440.02
442.12	425.98
442.31	454.06
442.50	458.74
442.68	414.27
442.87	433.00
443.05	386.19
443.24	407.25
443.43	456.40
443.61	411.93
443.80	421.30
443.98	362.78
444.17	418.96
444.35	395.55
444.54	402.57
444.73	386.19
444.91	395.55
445.10	402.57
445.28	409.59
445.47	334.70
445.65	456.40
445.84	449.38
446.02	407.25
446.21	388.53
446.39	383.85
446.58	381.51
446.77	428.32
446.95	386.19
447.14	435.34
447.32	444.70
447.51	402.57
447.69	463.43
447.88	414.27
448.06	465.77
448.25	404.91
448.43	430.66
448.62	353.42
448.80	440.02
448.99	425.98
449.17	468.11
449.36	463.43
449.54	498.53
449.73	433.00
449.91	435.34
450.10	418.96
450.28	486.83
450.46	430.66
450.65	444.70
450.83	358.10
451.02	388.53
451.20	397.89
451.39	379.17
451.57	400.23
451.76	444.70
451.94	430.66
452.13	409.59
452.31	383.85
452.49	367.46
452.68	461.09
452.86	397.89
453.05	442.36
453.23	418.96
453.42	376.83
453.60	383.85
453.78	465.77
453.97	447.04
454.15	472.79
454.34	493.85
454.52	388.53
454.70	491.51
454.89	491.51
455.07	400.23
455.26	428.32
455.44	447.04
455.62	484.49
455.81	433.00
455.99	341.72
456.17	425.98
456.36	421.30
456.54	383.85
456.73	400.23
456.91	355.76
457.09	400.23
457.28	447.04
457.46	449.38
457.64	449.38
457.83	430.66
458.01	449.38
458.19	418.96
458.38	400.23
458.56	397.89
458.74	367.46
458.93	409.59
459.11	367.46
459.29	421.30
459.48	465.77
459.66	390.87
459.84	379.17
460.03	470.45
460.21	386.19
460.39	379.17
460.57	376.83
460.76	400.23
460.94	397.89
461.12	454.06
461.31	447.04
461.49	395.55
461.67	334.70
461.85	404.91
462.04	440.02
462.22	788.76
462.40	372.15
462.59	503.22
462.77	376.83
462.95	367.46
463.13	472.79
463.32	423.64
463.50	479.81
463.68	421.30
463.86	456.40
464.05	393.21
464.23	479.81
464.41	423.64
464.59	428.32
464.78	383.85
464.96	421.30
465.14	400.23
465.32	381.51
465.50	374.49
465.69	386.19
465.87	376.83
466.05	409.59
466.23	425.98
466.41	346.40
466.60	430.66
466.78	423.64
466.96	374.49
467.14	365.12
467.32	447.04
467.51	421.30
467.69	411.93
467.87	479.81
468.05	437.68
468.23	442.36
468.41	400.23
468.60	404.91
468.78	381.51
468.96	409.59
469.14	447.04
469.32	425.98
469.50	409.59
469.69	409.59
469.87	409.59
470.05	470.45
470.23	334.70
470.41	425.98
470.59	416.62
470.77	463.43
470.95	362.78
471.14	409.59
471.32	449.38
471.50	404.91
471.68	440.02
471.86	425.98
472.04	416.62
472.22	411.93
472.40	353.42
472.58	353.42
472.77	430.66
472.95	428.32
473.13	528.96
473.31	470.45
473.49	456.40
473.67	463.43
473.85	414.27
474.03	383.85
474.21	379.17
474.39	454.06
474.57	486.83
474.75	437.68
474.93	397.89
475.12	360.44
475.30	416.62
475.48	451.72
475.66	400.23
475.84	430.66
476.02	393.21
476.20	486.83
476.38	362.78
476.56	442.36
476.74	458.74
476.92	430.66
477.10	425.98
477.28	416.62
477.46	482.15
477.64	484.49
477.82	435.34
478.00	369.80
478.18	456.40
478.36	433.00
478.54	470.45
478.72	411.93
478.90	425.98
479.08	425.98
479.26	395.55
479.44	381.51
479.62	400.23
479.80	386.19
479.98	440.02
480.16	418.96
480.34	468.11
480.52	358.10
480.70	451.72
480.88	428.32
481.06	416.62
481.24	388.53
481.41	367.46
481.59	416.62
481.77	395.55
481.95	416.62
482.13	482.15
482.31	472.79
482.49	386.19
482.67	416.62
482.85	451.72
483.03	482.15
483.21	341.72
483.39	386.19
483.57	468.11
483.74	414.27
483.92	383.85
484.10	358.10
484.28	409.59
484.46	414.27
484.64	416.62
484.82	458.74
485.00	379.17
485.18	411.93
485.35	386.19
485.53	465.77
485.71	454.06
485.89	383.85
486.07	334.70
486.25	428.32
486.43	362.78
486.61	402.57
486.78	456.40
486.96	414.27
487.14	397.89
487.32	423.64
487.50	397.89
487.68	440.02
487.85	468.11
488.03	447.04
488.21	463.43
488.39	425.98
488.57	407.25
488.75	425.98
488.92	500.87
489.10	416.62
489.28	440.02
489.46	409.59
489.64	390.87
489.81	444.70
489.99	416.62
490.17	390.87
490.35	496.19
490.53	372.15
490.70	423.64
490.88	339.38
491.06	358.10
491.24	437.68
491.41	447.04
491.59	430.66
491.77	402.57
491.95	365.12
492.13	447.04
492.30	418.96
492.48	437.68
492.66	468.11
492.84	393.21
493.01	388.53
493.19	404.91
493.37	498.53
493.54	409.59
493.72	493.85
493.90	456.40
494.08	449.38
494.25	454.06
494.43	482.15
494.61	433.00
494.79	430.66
494.96	379.17
495.14	374.49
495.32	369.80
495.49	428.32
495.67	447.04
495.85	393.21
496.02	437.68
496.20	372.15
496.38	447.04
496.55	397.89
496.73	411.93
496.91	334.70
497.09	423.64
497.26	421.30
497.44	444.70
497.62	454.06
497.79	390.87
497.97	433.00
498.14	458.74
498.32	411.93
498.50	376.83
498.67	418.96
498.85	477.47
499.03	449.38
499.20	437.68
499.38	367.46
499.56	486.83
499.73	512.58
499.91	421.30
500.08	365.12
500.26	428.32
500.44	463.43
500.61	379.17
500.79	433.00
500.97	397.89
501.14	440.02
501.32	428.32
501.49	435.34
501.67	428.32
501.84	341.72
502.02	456.40
502.20	435.34
502.37	479.81
502.55	376.83
502.72	444.70
502.90	348.74
503.07	421.30
503.25	388.53
503.43	428.32
503.60	369.80
503.78	463.43
503.95	383.85
504.13	381.51
504.30	430.66
504.48	479.81
504.65	358.10
504.83	500.87
505.01	395.55
505.18	411.93
505.36	454.06
505.53	383.85
505.71	463.43
505.88	486.83
506.06	482.15
506.23	386.19
506.41	376.83
506.58	463.43
506.76	411.93
506.93	386.19
507.11	465.77
507.28	444.70
507.46	381.51
507.63	463.43
507.81	411.93
507.98	409.59
508.16	404.91
508.33	414.27
508.50	461.09
508.68	418.96
508.85	404.91
509.03	390.87
509.20	423.64
509.38	458.74
509.55	397.89
509.73	472.79
509.90	421.30
510.08	430.66
510.25	449.38
510.42	407.25
510.60	414.27
510.77	470.45
510.95	437.68
511.12	365.12
511.30	447.04
511.47	421.30
511.64	444.70
511.82	383.85
511.99	381.51
512.17	360.44
512.34	381.51
512.51	447.04
512.69	353.42
512.86	442.36
513.04	465.77
513.21	390.87
513.38	346.40
513.56	393.21
513.73	369.80
513.90	341.72
514.08	383.85
514.25	362.78
514.43	381.51
514.60	360.44
514.77	381.51
514.95	400.23
515.12	397.89
515.29	365.12
515.47	379.17
515.64	383.85
515.81	418.96
515.99	418.96
516.16	470.45
516.33	423.64
516.51	435.34
516.68	365.12
516.85	486.83
517.03	500.87
517.20	421.30
517.37	447.04
517.54	404.91
517.72	416.62
517.89	416.62
518.06	425.98
518.24	397.89
518.41	423.64
518.58	421.30
518.75	479.81
518.93	435.34
519.10	423.64
519.27	465.77
519.45	402.57
519.62	416.62
519.79	433.00
519.96	400.23
520.14	437.68
520.31	440.02
520.48	409.59
520.65	341.72
520.83	409.59
521.00	468.11
521.17	486.83
521.34	367.46
521.52	414.27
521.69	407.25
521.86	407.25
522.03	421.30
522.20	393.21
522.38	454.06
522.55	388.53
522.72	440.02
522.89	433.00
523.07	337.04
523.24	447.04
523.41	374.49
523.58	381.51
523.75	400.23
523.92	409.59
524.10	423.64
524.27	390.87
524.44	442.36
524.61	374.49
524.78	479.81
524.96	451.72
525.13	498.53
525.30	461.09
525.47	404.91
525.64	437.68
525.81	484.49
525.98	444.70
526.16	400.23
526.33	355.76
526.50	320.65
526.67	461.09
526.84	423.64
527.01	395.55
527.18	407.25
527.36	454.06
527.53	425.98
527.70	461.09
527.87	454.06
528.04	505.56
528.21	383.85
528.38	393.21
528.55	402.57
528.72	458.74
528.89	449.38
529.07	407.25
529.24	437.68
529.41	393.21
529.58	374.49
529.75	402.57
529.92	376.83
530.09	379.17
530.26	465.77
530.43	444.70
530.60	407.25
530.77	425.98
530.94	465.77
531.11	409.59
531.28	428.32
531.46	411.93
531.63	360.44
531.80	386.19
531.97	463.43
532.14	433.00
532.31	447.04
532.48	433.00
532.65	463.43
532.82	372.15
532.99	341.72
533.16	346.40
533.33	440.02
533.50	358.10
533.67	440.02
533.84	400.23
534.01	425.98
534.18	421.30
534.35	442.36
534.52	447.04
534.69	433.00
534.86	449.38
535.03	404.91
535.20	421.30
535.37	369.80
535.54	367.46
535.71	458.74
535.88	454.06
536.05	367.46
536.22	475.13
536.38	386.19
536.55	442.36
536.72	414.27
536.89	418.96
537.06	337.04
537.23	379.17
537.40	430.66
537.57	477.47
537.74	435.34
537.91	390.87
538.08	465.77
538.25	411.93
538.42	374.49
538.59	409.59
538.75	465.77
538.92	393.21
539.09	461.09
539.26	360.44
539.43	458.74
539.60	381.51
539.77	414.27
539.94	369.80
540.11	458.74
540.28	447.04
540.44	468.11
540.61	418.96
540.78	367.46
540.95	468.11
541.12	360.44
541.29	421.30
541.46	451.72
541.62	430.66
541.79	433.00
541.96	372.15
542.13	491.51
542.30	444.70
542.47	400.23
542.63	372.15
542.80	395.55
542.97	374.49
543.14	425.98
543.31	430.66
543.48	423.64
543.64	421.30
543.81	362.78
543.98	402.57
544.15	365.12
544.32	444.70
544.48	393.21
544.65	397.89
544.82	320.65
544.99	428.32
545.16	465.77
545.32	395.55
545.49	407.25
545.66	397.89
545.83	430.66
546.00	390.87
546.16	365.12
546.33	449.38
546.50	416.62
546.67	458.74
546.83	454.06
547.00	409.59
547.17	362.78
547.34	433.00
547.50	386.19
547.67	374.49
547.84	475.13
548.00	404.91
548.17	454.06
548.34	414.27
548.51	491.51
548.67	447.04
548.84	414.27
549.01	428.32
549.18	470.45
549.34	430.66
549.51	437.68
549.68	400.23
549.84	454.06
550.01	400.23
550.18	514.92
550.34	423.64
550.51	444.70
550.68	433.00
550.84	362.78
551.01	442.36
551.18	369.80
551.34	444.70
551.51	411.93
551.68	449.38
551.84	428.32
552.01	383.85
552.18	418.96
552.34	454.06
552.51	414.27
552.68	390.87
552.84	395.55
553.01	416.62
553.18	386.19
553.34	423.64
553.51	369.80
553.67	496.19
553.84	447.04
554.01	433.00
554.17	411.93
554.34	386.19
554.51	468.11
554.67	435.34
554.84	458.74
555.00	449.38
555.17	358.10
555.33	402.57
555.50	416.62
555.67	503.22
555.83	414.27
556.00	372.15
556.16	547.69
556.33	339.38
556.50	344.06
556.66	388.53
556.83	428.32
556.99	449.38
557.16	407.25
557.32	360.44
557.49	428.32
557.65	437.68
557.82	397.89
557.98	430.66
558.15	411.93
558.32	360.44
558.48	414.27
558.65	447.04
558.81	442.36
558.98	463.43
559.14	428.32
559.31	358.10
559.47	472.79
559.64	514.92
559.80	411.93
559.97	379.17
560.13	346.40
560.30	416.62
560.46	423.64
560.63	390.87
560.79	397.89
560.96	411.93
561.12	423.64
561.29	416.62
561.45	381.51
561.61	404.91
561.78	454.06
561.94	449.38
562.11	421.30
562.27	372.15
562.44	393.21
562.60	402.57
562.77	374.49
562.93	421.30
563.10	416.62
563.26	430.66
563.42	418.96
563.59	383.85
563.75	433.00
563.92	503.22
564.08	355.76
564.24	475.13
564.41	496.19
564.57	482.15
564.74	369.80
564.90	409.59
565.07	325.33
565.23	367.46
565.39	383.85
565.56	433.00
565.72	393.21
565.88	367.46
566.05	423.64
566.21	395.55
566.38	397.89
566.54	435.34
566.70	414.27
566.87	369.80
567.03	341.72
567.19	451.72
567.36	393.21
567.52	425.98
567.68	425.98
567.85	475.13
568.01	433.00
568.17	383.85
568.34	442.36
568.50	367.46
568.66	458.74
568.83	465.77
568.99	397.89
569.15	470.45
569.32	390.87
569.48	416.62
569.64	344.06
569.81	407.25
569.97	461.09
570.13	470.45
570.30	346.40
570.46	386.19
570.62	489.17
570.78	465.77
570.95	381.51
571.11	423.64
571.27	463.43
571.43	409.59
571.60	397.89
571.76	428.32
571.92	416.62
572.09	468.11
572.25	456.40
572.41	425.98
572.57	414.27
572.74	479.81
572.90	390.87
573.06	409.59
573.22	404.91
573.38	435.34
573.55	423.64
573.71	454.06
573.87	451.72
574.03	418.96
574.20	437.68
574.36	503.22
574.52	397.89
574.68	400.23
574.84	442.36
575.01	421.30
575.17	379.17
575.33	433.00
575.49	409.59
575.65	334.70
575.82	428.32
575.98	418.96
576.14	367.46
576.30	372.15
576.46	435.34
576.62	442.36
576.79	489.17
576.95	421.30
577.11	414.27
577.27	407.25
577.43	397.89
577.59	463.43
577.75	470.45
577.92	418.96
578.08	437.68
578.24	411.93
578.40	489.17
578.56	447.04
578.72	440.02
578.88	456.40
579.04	447.04
579.21	428.32
579.37	484.49
579.53	416.62
579.69	444.70
579.85	388.53
580.01	404.91
580.17	454.06
580.33	395.55
580.49	411.93
580.65	430.66
580.82	332.36
580.98	461.09
581.14	386.19
581.30	458.74
581.46	393.21
581.62	451.72
581.78	409.59
581.94	437.68
582.10	407.25
582.26	374.49
582.42	397.89
582.58	435.34
582.74	383.85
582.90	421.30
583.06	463.43
583.22	397.89
583.38	428.32
583.54	388.53
583.70	362.78
583.86	362.78
584.02	390.87
584.18	360.44
584.34	381.51
584.50	418.96
584.66	388.53
584.82	411.93
584.98	461.09
585.14	341.72
585.30	416.62
585.46	442.36
585.62	381.51
585.78	388.53
585.94	358.10
586.10	353.42
586.26	454.06
586.42	376.83
586.58	435.34
586.74	330.02
586.90	421.30
587.06	416.62
587.22	383.85
587.38	440.02
587.54	454.06
587.70	491.51
587.86	496.19
588.02	484.49
588.18	402.57
588.34	409.59
588.49	430.66
588.65	381.51
588.81	433.00
588.97	393.21
589.13	425.98
589.29	395.55
589.45	407.25
589.61	491.51
589.77	442.36
589.93	414.27
590.08	416.62
590.24	444.70
590.40	416.62
590.56	484.49
590.72	458.74
590.88	376.83
591.04	390.87
591.20	381.51
591.35	454.06
591.51	407.25
591.67	411.93
591.83	458.74
591.99	435.34
592.15	447.04
592.31	458.74
592.46	437.68
592.62	435.34
592.78	435.34
592.94	376.83
593.10	433.00
593.26	489.17
593.41	475.13
593.57	414.27
593.73	414.27
593.89	383.85
594.05	423.64
594.20	395.55
594.36	442.36
594.52	402.57
594.68	451.72
594.84	374.49
594.99	468.11
595.15	472.79
595.31	430.66
595.47	421.30
595.62	390.87
595.78	435.34
595.94	390.87
596.10	498.53
596.25	437.68
596.41	454.06
596.57	414.27
596.73	388.53
596.88	440.02
597.04	416.62
597.20	341.72
597.36	421.30
597.51	428.32
597.67	367.46
597.83	454.06
597.99	444.70
598.14	395.55
598.30	425.98
598.46	365.12
598.61	402.57
598.77	435.34
598.93	358.10
599.09	414.27
599.24	400.23
599.40	444.70
599.56	404.91
599.71	393.21
599.87	514.92
600.03	411.93
600.18	430.66
600.34	461.09
600.50	449.38
600.65	430.66
600.81	414.27
600.97	451.72
601.12	411.93
601.28	437.68
601.44	437.68
601.59	418.96
601.75	381.51
601.91	381.51
602.06	414.27
602.22	418.96
602.37	465.77
602.53	409.59
602.69	437.68
602.84	418.96
603.00	491.51
603.16	376.83
603.31	425.98
603.47	409.59
603.62	447.04
603.78	414.27
603.94	416.62
604.09	402.57
604.25	402.57
604.40	409.59
604.56	400.23
604.71	400.23
604.87	444.70
605.03	461.09
605.18	407.25
605.34	402.57
605.49	386.19
605.65	397.89
605.80	404.91
605.96	430.66
606.12	456.40
606.27	400.23
606.43	397.89
606.58	402.57
606.74	346.40
606.89	407.25
607.05	433.00
607.20	484.49
607.36	372.15
607.51	390.87
607.67	421.30
607.82	397.89
607.98	423.64
608.13	421.30
608.29	447.04
608.44	409.59
608.60	402.57
608.75	437.68
608.91	402.57
609.06	379.17
609.22	463.43
609.37	402.57
609.53	433.00
609.68	374.49
609.84	383.85
609.99	435.34
610.15	454.06
