SpectraSuite Data File
++++++++++++++++++++++++++++++++++++
Date: Fri Oct 25 12:10:43 EDT 2013
User: price-jones
Dark Spectrum Present: No
Reference Spectrum Present: No
Number of Sampled Component Spectra: 1
Spectrometers: USB2+H05261
Integration Time (usec): 100000 (USB2+H05261)
Spectra Averaged: 1 (USB2+H05261)
Boxcar Smoothing: 0 (USB2+H05261)
Correct for Electrical Dark: No (USB2+H05261)
Strobe/Lamp Enabled: No (USB2+H05261)
Correct for Detector Non-linearity: No (USB2+H05261)
Correct for Stray Light: No (USB2+H05261)
Number of Pixels in Processed Spectrum: 2048
>>>>>Begin Processed Spectral Data<<<<<
365.73	337.04
365.92	337.04
366.12	337.04
366.32	205.97
366.52	236.39
366.72	255.12
366.91	191.92
367.11	224.69
367.31	280.86
367.51	131.07
367.70	168.52
367.90	266.82
368.10	266.82
368.30	234.05
368.49	220.01
368.69	283.20
368.89	212.99
369.09	318.31
369.28	273.84
369.48	252.78
369.68	287.89
369.87	264.48
370.07	306.61
370.27	388.53
370.47	376.83
370.66	325.33
370.86	280.86
371.06	330.02
371.25	433.00
371.45	341.72
371.65	386.19
371.84	407.25
372.04	372.15
372.24	400.23
372.44	386.19
372.63	458.74
372.83	418.96
373.03	383.85
373.22	353.42
373.42	454.06
373.62	428.32
373.81	458.74
374.01	425.98
374.21	463.43
374.40	348.74
374.60	456.40
374.79	425.98
374.99	383.85
375.19	397.89
375.38	379.17
375.58	428.32
375.78	428.32
375.97	444.70
376.17	435.34
376.37	477.47
376.56	386.19
376.76	360.44
376.95	372.15
377.15	454.06
377.35	437.68
377.54	468.11
377.74	416.62
377.93	395.55
378.13	402.57
378.33	390.87
378.52	351.08
378.72	430.66
378.91	416.62
379.11	430.66
379.31	367.46
379.50	330.02
379.70	386.19
379.89	465.77
380.09	463.43
380.28	330.02
380.48	433.00
380.68	411.93
380.87	447.04
381.07	435.34
381.26	414.27
381.46	447.04
381.65	388.53
381.85	348.74
382.04	433.00
382.24	418.96
382.43	393.21
382.63	411.93
382.83	400.23
383.02	416.62
383.22	355.76
383.41	383.85
383.61	369.80
383.80	428.32
384.00	425.98
384.19	372.15
384.39	393.21
384.58	440.02
384.78	447.04
384.97	376.83
385.17	461.09
385.36	374.49
385.56	433.00
385.75	397.89
385.95	454.06
386.14	449.38
386.34	400.23
386.53	423.64
386.72	360.44
386.92	463.43
387.11	440.02
387.31	381.51
387.50	334.70
387.70	355.76
387.89	404.91
388.09	400.23
388.28	381.51
388.48	423.64
388.67	421.30
388.86	421.30
389.06	454.06
389.25	360.44
389.45	393.21
389.64	435.34
389.84	444.70
390.03	358.10
390.22	390.87
390.42	381.51
390.61	351.08
390.81	383.85
391.00	330.02
391.19	435.34
391.39	395.55
391.58	376.83
391.78	463.43
391.97	376.83
392.16	442.36
392.36	411.93
392.55	414.27
392.75	348.74
392.94	360.44
393.13	353.42
393.33	428.32
393.52	393.21
393.71	374.49
393.91	337.04
394.10	404.91
394.29	404.91
394.49	344.06
394.68	463.43
394.88	395.55
395.07	430.66
395.26	409.59
395.46	400.23
395.65	477.47
395.84	447.04
396.04	423.64
396.23	421.30
396.42	402.57
396.62	442.36
396.81	407.25
397.00	397.89
397.19	489.17
397.39	407.25
397.58	369.80
397.77	435.34
397.97	397.89
398.16	367.46
398.35	404.91
398.55	423.64
398.74	416.62
398.93	437.68
399.12	346.40
399.32	372.15
399.51	348.74
399.70	428.32
399.90	458.74
400.09	456.40
400.28	374.49
400.47	465.77
400.67	409.59
400.86	365.12
401.05	411.93
401.24	430.66
401.44	449.38
401.63	386.19
401.82	348.74
402.01	372.15
402.21	397.89
402.40	395.55
402.59	393.21
402.78	322.99
402.97	442.36
403.17	447.04
403.36	379.17
403.55	425.98
403.74	440.02
403.93	386.19
404.13	451.72
404.32	404.91
404.51	376.83
404.70	397.89
404.89	407.25
405.09	390.87
405.28	524.28
405.47	372.15
405.66	367.46
405.85	409.59
406.05	404.91
406.24	355.76
406.43	404.91
406.62	428.32
406.81	442.36
407.00	393.21
407.20	337.04
407.39	367.46
407.58	421.30
407.77	397.89
407.96	437.68
408.15	393.21
408.34	416.62
408.54	379.17
408.73	456.40
408.92	411.93
409.11	440.02
409.30	444.70
409.49	463.43
409.68	440.02
409.87	440.02
410.07	447.04
410.26	374.49
410.45	369.80
410.64	416.62
410.83	423.64
411.02	416.62
411.21	411.93
411.40	421.30
411.59	447.04
411.78	430.66
411.98	386.19
412.17	386.19
412.36	444.70
412.55	376.83
412.74	470.45
412.93	437.68
413.12	444.70
413.31	360.44
413.50	423.64
413.69	435.34
413.88	402.57
414.07	353.42
414.26	374.49
414.45	388.53
414.64	454.06
414.83	421.30
415.02	400.23
415.22	447.04
415.41	409.59
415.60	416.62
415.79	339.38
415.98	433.00
416.17	369.80
416.36	461.09
416.55	397.89
416.74	428.32
416.93	365.12
417.12	402.57
417.31	383.85
417.50	425.98
417.69	444.70
417.88	386.19
418.07	442.36
418.26	388.53
418.45	348.74
418.64	386.19
418.83	423.64
419.02	358.10
419.21	397.89
419.39	414.27
419.58	449.38
419.77	425.98
419.96	449.38
420.15	418.96
420.34	320.65
420.53	402.57
420.72	407.25
420.91	388.53
421.10	355.76
421.29	397.89
421.48	402.57
421.67	435.34
421.86	507.90
422.05	428.32
422.24	351.08
422.43	383.85
422.61	404.91
422.80	479.81
422.99	428.32
423.18	402.57
423.37	414.27
423.56	393.21
423.75	339.38
423.94	451.72
424.13	402.57
424.32	381.51
424.50	421.30
424.69	440.02
424.88	369.80
425.07	421.30
425.26	433.00
425.45	433.00
425.64	339.38
425.83	355.76
426.01	423.64
426.20	353.42
426.39	409.59
426.58	402.57
426.77	388.53
426.96	444.70
427.15	444.70
427.33	411.93
427.52	330.02
427.71	397.89
427.90	447.04
428.09	414.27
428.28	383.85
428.46	390.87
428.65	433.00
428.84	414.27
429.03	421.30
429.22	430.66
429.40	390.87
429.59	456.40
429.78	386.19
429.97	416.62
430.16	409.59
430.34	458.74
430.53	440.02
430.72	407.25
430.91	470.45
431.10	395.55
431.28	414.27
431.47	416.62
431.66	339.38
431.85	383.85
432.03	358.10
432.22	421.30
432.41	372.15
432.60	447.04
432.79	425.98
432.97	456.40
433.16	435.34
433.35	430.66
433.54	381.51
433.72	393.21
433.91	397.89
434.10	404.91
434.28	409.59
434.47	372.15
434.66	454.06
434.85	393.21
435.03	404.91
435.22	475.13
435.41	442.36
435.59	428.32
435.78	381.51
435.97	447.04
436.16	358.10
436.34	454.06
436.53	430.66
436.72	416.62
436.90	416.62
437.09	442.36
437.28	447.04
437.46	395.55
437.65	451.72
437.84	449.38
438.02	404.91
438.21	409.59
438.40	423.64
438.58	444.70
438.77	388.53
438.96	402.57
439.14	421.30
439.33	447.04
439.52	468.11
439.70	482.15
439.89	379.17
440.08	423.64
440.26	423.64
440.45	451.72
440.63	416.62
440.82	421.30
441.01	437.68
441.19	440.02
441.38	411.93
441.57	433.00
441.75	430.66
441.94	456.40
442.12	411.93
442.31	360.44
442.50	421.30
442.68	416.62
442.87	362.78
443.05	416.62
443.24	341.72
443.43	407.25
443.61	369.80
443.80	379.17
443.98	472.79
444.17	402.57
444.35	404.91
444.54	421.30
444.73	397.89
444.91	451.72
445.10	423.64
445.28	433.00
445.47	437.68
445.65	393.21
445.84	355.76
446.02	404.91
446.21	444.70
446.39	433.00
446.58	355.76
446.77	360.44
446.95	418.96
447.14	435.34
447.32	402.57
447.51	409.59
447.69	440.02
447.88	507.90
448.06	451.72
448.25	407.25
448.43	383.85
448.62	372.15
448.80	355.76
448.99	407.25
449.17	369.80
449.36	454.06
449.54	418.96
449.73	395.55
449.91	374.49
450.10	400.23
450.28	531.30
450.46	390.87
450.65	514.92
450.83	383.85
451.02	447.04
451.20	358.10
451.39	437.68
451.57	360.44
451.76	402.57
451.94	407.25
452.13	477.47
452.31	414.27
452.49	498.53
452.68	362.78
452.86	425.98
453.05	435.34
453.23	395.55
453.42	449.38
453.60	402.57
453.78	367.46
453.97	388.53
454.15	388.53
454.34	489.17
454.52	358.10
454.70	470.45
454.89	444.70
455.07	355.76
455.26	463.43
455.44	388.53
455.62	430.66
455.81	454.06
455.99	454.06
456.17	414.27
456.36	421.30
456.54	440.02
456.73	435.34
456.91	421.30
457.09	390.87
457.28	423.64
457.46	393.21
457.64	440.02
457.83	416.62
458.01	414.27
458.19	383.85
458.38	365.12
458.56	388.53
458.74	451.72
458.93	442.36
459.11	390.87
459.29	404.91
459.48	404.91
459.66	451.72
459.84	489.17
460.03	440.02
460.21	367.46
460.39	435.34
460.57	444.70
460.76	386.19
460.94	388.53
461.12	423.64
461.31	428.32
461.49	440.02
461.67	362.78
461.85	461.09
462.04	369.80
462.22	681.10
462.40	468.11
462.59	435.34
462.77	400.23
462.95	442.36
463.13	442.36
463.32	376.83
463.50	423.64
463.68	454.06
463.86	379.17
464.05	351.08
464.23	461.09
464.41	496.19
464.59	411.93
464.78	421.30
464.96	358.10
465.14	360.44
465.32	372.15
465.50	414.27
465.69	360.44
465.87	430.66
466.05	409.59
466.23	395.55
466.41	414.27
466.60	393.21
466.78	430.66
466.96	416.62
467.14	477.47
467.32	447.04
467.51	395.55
467.69	390.87
467.87	395.55
468.05	440.02
468.23	444.70
468.41	390.87
468.60	353.42
468.78	449.38
468.96	519.60
469.14	362.78
469.32	404.91
469.50	358.10
469.69	442.36
469.87	425.98
470.05	451.72
470.23	493.85
470.41	369.80
470.59	416.62
470.77	421.30
470.95	447.04
471.14	475.13
471.32	411.93
471.50	430.66
471.68	423.64
471.86	454.06
472.04	390.87
472.22	433.00
472.40	386.19
472.58	381.51
472.77	383.85
472.95	447.04
473.13	437.68
473.31	421.30
473.49	425.98
473.67	404.91
473.85	484.49
474.03	395.55
474.21	461.09
474.39	388.53
474.57	451.72
474.75	402.57
474.93	425.98
475.12	442.36
475.30	404.91
475.48	477.47
475.66	379.17
475.84	367.46
476.02	395.55
476.20	407.25
476.38	449.38
476.56	463.43
476.74	367.46
476.92	444.70
477.10	437.68
477.28	465.77
477.46	393.21
477.64	454.06
477.82	428.32
478.00	465.77
478.18	456.40
478.36	355.76
478.54	400.23
478.72	374.49
478.90	437.68
479.08	355.76
479.26	369.80
479.44	395.55
479.62	458.74
479.80	379.17
479.98	397.89
480.16	411.93
480.34	472.79
480.52	498.53
480.70	386.19
480.88	435.34
481.06	353.42
481.24	444.70
481.41	449.38
481.59	388.53
481.77	416.62
481.95	393.21
482.13	447.04
482.31	355.76
482.49	454.06
482.67	456.40
482.85	433.00
483.03	348.74
483.21	379.17
483.39	402.57
483.57	397.89
483.74	449.38
483.92	407.25
484.10	435.34
484.28	416.62
484.46	386.19
484.64	425.98
484.82	388.53
485.00	505.56
485.18	423.64
485.35	437.68
485.53	383.85
485.71	402.57
485.89	491.51
486.07	454.06
486.25	454.06
486.43	433.00
486.61	454.06
486.78	369.80
486.96	421.30
487.14	442.36
487.32	414.27
487.50	437.68
487.68	381.51
487.85	383.85
488.03	407.25
488.21	458.74
488.39	407.25
488.57	414.27
488.75	395.55
488.92	491.51
489.10	383.85
489.28	423.64
489.46	353.42
489.64	395.55
489.81	416.62
489.99	407.25
490.17	409.59
490.35	468.11
490.53	337.04
490.70	351.08
490.88	372.15
491.06	414.27
491.24	383.85
491.41	440.02
491.59	482.15
491.77	355.76
491.95	374.49
492.13	360.44
492.30	379.17
492.48	393.21
492.66	411.93
492.84	395.55
493.01	428.32
493.19	346.40
493.37	430.66
493.54	334.70
493.72	369.80
493.90	425.98
494.08	414.27
494.25	390.87
494.43	447.04
494.61	386.19
494.79	423.64
494.96	437.68
495.14	507.90
495.32	397.89
495.49	451.72
495.67	451.72
495.85	372.15
496.02	355.76
496.20	409.59
496.38	414.27
496.55	409.59
496.73	365.12
496.91	393.21
497.09	411.93
497.26	404.91
497.44	381.51
497.62	393.21
497.79	477.47
497.97	383.85
498.14	437.68
498.32	447.04
498.50	425.98
498.67	402.57
498.85	386.19
499.03	430.66
499.20	482.15
499.38	355.76
499.56	353.42
499.73	505.56
499.91	416.62
500.08	430.66
500.26	449.38
500.44	400.23
500.61	435.34
500.79	416.62
500.97	470.45
501.14	444.70
501.32	397.89
501.49	454.06
501.67	409.59
501.84	465.77
502.02	465.77
502.20	470.45
502.37	465.77
502.55	482.15
502.72	348.74
502.90	416.62
503.07	428.32
503.25	470.45
503.43	386.19
503.60	397.89
503.78	454.06
503.95	404.91
504.13	390.87
504.30	435.34
504.48	447.04
504.65	440.02
504.83	409.59
505.01	365.12
505.18	369.80
505.36	369.80
505.53	358.10
505.71	393.21
505.88	416.62
506.06	531.30
506.23	461.09
506.41	369.80
506.58	423.64
506.76	390.87
506.93	465.77
507.11	407.25
507.28	430.66
507.46	458.74
507.63	383.85
507.81	421.30
507.98	430.66
508.16	362.78
508.33	374.49
508.50	451.72
508.68	379.17
508.85	414.27
509.03	440.02
509.20	376.83
509.38	458.74
509.55	433.00
509.73	400.23
509.90	447.04
510.08	407.25
510.25	447.04
510.42	397.89
510.60	437.68
510.77	383.85
510.95	449.38
511.12	458.74
511.30	430.66
511.47	397.89
511.64	428.32
511.82	414.27
511.99	369.80
512.17	402.57
512.34	468.11
512.51	372.15
512.69	393.21
512.86	409.59
513.04	472.79
513.21	407.25
513.38	393.21
513.56	358.10
513.73	402.57
513.90	404.91
514.08	374.49
514.25	454.06
514.43	461.09
514.60	365.12
514.77	416.62
514.95	416.62
515.12	423.64
515.29	372.15
515.47	379.17
515.64	475.13
515.81	400.23
515.99	449.38
516.16	491.51
516.33	447.04
516.51	447.04
516.68	341.72
516.85	425.98
517.03	365.12
517.20	416.62
517.37	355.76
517.54	416.62
517.72	416.62
517.89	409.59
518.06	447.04
518.24	402.57
518.41	372.15
518.58	486.83
518.75	456.40
518.93	449.38
519.10	409.59
519.27	433.00
519.45	393.21
519.62	458.74
519.79	421.30
519.96	365.12
520.14	421.30
520.31	390.87
520.48	341.72
520.65	482.15
520.83	423.64
521.00	402.57
521.17	414.27
521.34	397.89
521.52	447.04
521.69	444.70
521.86	376.83
522.03	393.21
522.20	500.87
522.38	444.70
522.55	381.51
522.72	409.59
522.89	430.66
523.07	404.91
523.24	358.10
523.41	374.49
523.58	346.40
523.75	451.72
523.92	360.44
524.10	444.70
524.27	430.66
524.44	433.00
524.61	418.96
524.78	433.00
524.96	425.98
525.13	407.25
525.30	376.83
525.47	454.06
525.64	479.81
525.81	379.17
525.98	475.13
526.16	353.42
526.33	390.87
526.50	451.72
526.67	313.63
526.84	447.04
527.01	367.46
527.18	339.38
527.36	386.19
527.53	383.85
527.70	362.78
527.87	409.59
528.04	395.55
528.21	374.49
528.38	407.25
528.55	463.43
528.72	456.40
528.89	514.92
529.07	463.43
529.24	421.30
529.41	442.36
529.58	418.96
529.75	411.93
529.92	416.62
530.09	402.57
530.26	435.34
530.43	423.64
530.60	425.98
530.77	454.06
530.94	456.40
531.11	414.27
531.28	360.44
531.46	383.85
531.63	402.57
531.80	355.76
531.97	416.62
532.14	402.57
532.31	465.77
532.48	388.53
532.65	355.76
532.82	512.58
532.99	425.98
533.16	381.51
533.33	388.53
533.50	409.59
533.67	353.42
533.84	447.04
534.01	449.38
534.18	418.96
534.35	395.55
534.52	442.36
534.69	411.93
534.86	454.06
535.03	430.66
535.20	416.62
535.37	397.89
535.54	430.66
535.71	421.30
535.88	463.43
536.05	411.93
536.22	400.23
536.38	372.15
536.55	397.89
536.72	402.57
536.89	379.17
537.06	454.06
537.23	362.78
537.40	383.85
537.57	407.25
537.74	440.02
537.91	433.00
538.08	374.49
538.25	407.25
538.42	334.70
538.59	372.15
538.75	435.34
538.92	463.43
539.09	418.96
539.26	383.85
539.43	393.21
539.60	369.80
539.77	479.81
539.94	376.83
540.11	461.09
540.28	416.62
540.44	519.60
540.61	463.43
540.78	428.32
540.95	500.87
541.12	491.51
541.29	425.98
541.46	465.77
541.62	444.70
541.79	423.64
541.96	465.77
542.13	383.85
542.30	379.17
542.47	475.13
542.63	388.53
542.80	395.55
542.97	528.96
543.14	461.09
543.31	400.23
543.48	461.09
543.64	390.87
543.81	461.09
543.98	348.74
544.15	442.36
544.32	397.89
544.48	390.87
544.65	358.10
544.82	433.00
544.99	486.83
545.16	435.34
545.32	383.85
545.49	397.89
545.66	402.57
545.83	461.09
546.00	425.98
546.16	477.47
546.33	442.36
546.50	372.15
546.67	454.06
546.83	423.64
547.00	379.17
547.17	388.53
547.34	376.83
547.50	444.70
547.67	381.51
547.84	449.38
548.00	425.98
548.17	393.21
548.34	379.17
548.51	454.06
548.67	390.87
548.84	372.15
549.01	383.85
549.18	365.12
549.34	367.46
549.51	442.36
549.68	442.36
549.84	444.70
550.01	369.80
550.18	458.74
550.34	493.85
550.51	404.91
550.68	418.96
550.84	444.70
551.01	358.10
551.18	486.83
551.34	416.62
551.51	479.81
551.68	472.79
551.84	395.55
552.01	423.64
552.18	418.96
552.34	447.04
552.51	339.38
552.68	407.25
552.84	425.98
553.01	362.78
553.18	468.11
553.34	458.74
553.51	362.78
553.67	409.59
553.84	454.06
554.01	407.25
554.17	376.83
554.34	383.85
554.51	461.09
554.67	393.21
554.84	428.32
555.00	444.70
555.17	477.47
555.33	414.27
555.50	402.57
555.67	458.74
555.83	428.32
556.00	430.66
556.16	571.09
556.33	496.19
556.50	362.78
556.66	425.98
556.83	400.23
556.99	400.23
557.16	379.17
557.32	442.36
557.49	404.91
557.65	477.47
557.82	393.21
557.98	397.89
558.15	390.87
558.32	390.87
558.48	423.64
558.65	369.80
558.81	475.13
558.98	437.68
559.14	423.64
559.31	451.72
559.47	381.51
559.64	358.10
559.80	437.68
559.97	425.98
560.13	440.02
560.30	414.27
560.46	440.02
560.63	475.13
560.79	456.40
560.96	374.49
561.12	411.93
561.29	433.00
561.45	449.38
561.61	397.89
561.78	416.62
561.94	390.87
562.11	383.85
562.27	425.98
562.44	421.30
562.60	383.85
562.77	386.19
562.93	500.87
563.10	407.25
563.26	348.74
563.42	437.68
563.59	369.80
563.75	416.62
563.92	458.74
564.08	444.70
564.24	425.98
564.41	454.06
564.57	388.53
564.74	416.62
564.90	425.98
565.07	475.13
565.23	414.27
565.39	440.02
565.56	451.72
565.72	486.83
565.88	400.23
566.05	411.93
566.21	423.64
566.38	498.53
566.54	414.27
566.70	379.17
566.87	355.76
567.03	444.70
567.19	353.42
567.36	369.80
567.52	416.62
567.68	369.80
567.85	437.68
568.01	451.72
568.17	442.36
568.34	444.70
568.50	475.13
568.66	383.85
568.83	456.40
568.99	442.36
569.15	397.89
569.32	430.66
569.48	435.34
569.64	435.34
569.81	388.53
569.97	409.59
570.13	444.70
570.30	463.43
570.46	418.96
570.62	390.87
570.78	386.19
570.95	376.83
571.11	433.00
571.27	411.93
571.43	374.49
571.60	468.11
571.76	407.25
571.92	458.74
572.09	482.15
572.25	472.79
572.41	388.53
572.57	433.00
572.74	425.98
572.90	390.87
573.06	400.23
573.22	498.53
573.38	444.70
573.55	454.06
573.71	400.23
573.87	383.85
574.03	461.09
574.20	365.12
574.36	407.25
574.52	414.27
574.68	444.70
574.84	484.49
575.01	414.27
575.17	425.98
575.33	442.36
575.49	423.64
575.65	444.70
575.82	468.11
575.98	423.64
576.14	379.17
576.30	463.43
576.46	376.83
576.62	390.87
576.79	428.32
576.95	433.00
577.11	496.19
577.27	425.98
577.43	442.36
577.59	416.62
577.75	409.59
577.92	416.62
578.08	381.51
578.24	397.89
578.40	479.81
578.56	416.62
578.72	440.02
578.88	535.98
579.04	461.09
579.21	437.68
579.37	428.32
579.53	421.30
579.69	503.22
579.85	456.40
580.01	444.70
580.17	442.36
580.33	437.68
580.49	411.93
580.65	482.15
580.82	440.02
580.98	414.27
581.14	416.62
581.30	479.81
581.46	449.38
581.62	423.64
581.78	425.98
581.94	407.25
582.10	393.21
582.26	390.87
582.42	416.62
582.58	463.43
582.74	428.32
582.90	440.02
583.06	428.32
583.22	447.04
583.38	463.43
583.54	353.42
583.70	386.19
583.86	423.64
584.02	409.59
584.18	402.57
584.34	475.13
584.50	472.79
584.66	404.91
584.82	468.11
584.98	447.04
585.14	428.32
585.30	425.98
585.46	360.44
585.62	400.23
585.78	433.00
585.94	374.49
586.10	470.45
586.26	418.96
586.42	425.98
586.58	433.00
586.74	430.66
586.90	451.72
587.06	402.57
587.22	423.64
587.38	475.13
587.54	505.56
587.70	430.66
587.86	447.04
588.02	372.15
588.18	395.55
588.34	475.13
588.49	538.32
588.65	440.02
588.81	437.68
588.97	404.91
589.13	454.06
589.29	500.87
589.45	404.91
589.61	372.15
589.77	339.38
589.93	367.46
590.08	505.56
590.24	435.34
590.40	458.74
590.56	407.25
590.72	383.85
590.88	414.27
591.04	451.72
591.20	386.19
591.35	393.21
591.51	355.76
591.67	407.25
591.83	423.64
591.99	416.62
592.15	393.21
592.31	400.23
592.46	437.68
592.62	383.85
592.78	379.17
592.94	430.66
593.10	458.74
593.26	341.72
593.41	442.36
593.57	369.80
593.73	449.38
593.89	456.40
594.05	423.64
594.20	430.66
594.36	470.45
594.52	322.99
594.68	416.62
594.84	411.93
594.99	489.17
595.15	451.72
595.31	435.34
595.47	456.40
595.62	379.17
595.78	386.19
595.94	341.72
596.10	451.72
596.25	400.23
596.41	428.32
596.57	376.83
596.73	409.59
596.88	386.19
597.04	353.42
597.20	381.51
597.36	414.27
597.51	407.25
597.67	414.27
597.83	472.79
597.99	383.85
598.14	400.23
598.30	465.77
598.46	390.87
598.61	425.98
598.77	463.43
598.93	428.32
599.09	433.00
599.24	395.55
599.40	484.49
599.56	388.53
599.71	411.93
599.87	421.30
600.03	414.27
600.18	400.23
600.34	390.87
600.50	383.85
600.65	386.19
600.81	425.98
600.97	383.85
601.12	341.72
601.28	463.43
601.44	386.19
601.59	379.17
601.75	362.78
601.91	360.44
602.06	407.25
602.22	454.06
602.37	421.30
602.53	416.62
602.69	407.25
602.84	421.30
603.00	355.76
603.16	416.62
603.31	479.81
603.47	461.09
603.62	442.36
603.78	433.00
603.94	472.79
604.09	369.80
604.25	451.72
604.40	489.17
604.56	404.91
604.71	404.91
604.87	395.55
605.03	418.96
605.18	386.19
605.34	503.22
605.49	400.23
605.65	461.09
605.80	416.62
605.96	416.62
606.12	418.96
606.27	416.62
606.43	379.17
606.58	407.25
606.74	440.02
606.89	381.51
607.05	449.38
607.20	365.12
607.36	423.64
607.51	365.12
607.67	440.02
607.82	425.98
607.98	362.78
608.13	414.27
608.29	425.98
608.44	444.70
608.60	407.25
608.75	479.81
608.91	358.10
609.06	433.00
609.22	524.28
609.37	437.68
609.53	390.87
609.68	430.66
609.84	444.70
609.99	416.62
610.15	489.17
