SpectraSuite Data File
++++++++++++++++++++++++++++++++++++
Date: Fri Oct 25 12:10:29 EDT 2013
User: price-jones
Dark Spectrum Present: No
Reference Spectrum Present: No
Number of Sampled Component Spectra: 1
Spectrometers: USB2+H05261
Integration Time (usec): 100000 (USB2+H05261)
Spectra Averaged: 1 (USB2+H05261)
Boxcar Smoothing: 0 (USB2+H05261)
Correct for Electrical Dark: No (USB2+H05261)
Strobe/Lamp Enabled: No (USB2+H05261)
Correct for Detector Non-linearity: No (USB2+H05261)
Correct for Stray Light: No (USB2+H05261)
Number of Pixels in Processed Spectrum: 2048
>>>>>Begin Processed Spectral Data<<<<<
365.73	308.95
365.92	308.95
366.12	308.95
366.32	234.05
366.52	297.25
366.72	360.44
366.91	262.14
367.11	306.61
367.31	243.42
367.51	262.14
367.70	203.63
367.90	315.97
368.10	203.63
368.30	271.50
368.49	269.16
368.69	257.46
368.89	255.12
369.09	262.14
369.28	334.70
369.48	322.99
369.68	273.84
369.87	250.44
370.07	297.25
370.27	379.17
370.47	367.46
370.66	301.93
370.86	376.83
371.06	386.19
371.25	409.59
371.45	358.10
371.65	367.46
371.84	383.85
372.04	365.12
372.24	383.85
372.44	344.06
372.63	418.96
372.83	451.72
373.03	428.32
373.22	435.34
373.42	404.91
373.62	440.02
373.81	402.57
374.01	358.10
374.21	433.00
374.40	421.30
374.60	491.51
374.79	362.78
374.99	351.08
375.19	379.17
375.38	454.06
375.58	409.59
375.78	475.13
375.97	437.68
376.17	442.36
376.37	383.85
376.56	414.27
376.76	400.23
376.95	407.25
377.15	397.89
377.35	491.51
377.54	425.98
377.74	475.13
377.93	341.72
378.13	404.91
378.33	365.12
378.52	397.89
378.72	416.62
378.91	458.74
379.11	325.33
379.31	449.38
379.50	418.96
379.70	367.46
379.89	479.81
380.09	397.89
380.28	313.63
380.48	400.23
380.68	421.30
380.87	411.93
381.07	381.51
381.26	430.66
381.46	435.34
381.65	477.47
381.85	388.53
382.04	395.55
382.24	470.45
382.43	386.19
382.63	510.24
382.83	395.55
383.02	395.55
383.22	461.09
383.41	393.21
383.61	454.06
383.80	414.27
384.00	393.21
384.19	404.91
384.39	435.34
384.58	367.46
384.78	447.04
384.97	386.19
385.17	386.19
385.36	358.10
385.56	414.27
385.75	390.87
385.95	376.83
386.14	379.17
386.34	367.46
386.53	418.96
386.72	451.72
386.92	451.72
387.11	493.85
387.31	428.32
387.50	402.57
387.70	451.72
387.89	435.34
388.09	397.89
388.28	376.83
388.48	369.80
388.67	444.70
388.86	470.45
389.06	355.76
389.25	451.72
389.45	322.99
389.64	372.15
389.84	414.27
390.03	362.78
390.22	372.15
390.42	362.78
390.61	423.64
390.81	386.19
391.00	416.62
391.19	433.00
391.39	365.12
391.58	440.02
391.78	475.13
391.97	409.59
392.16	348.74
392.36	397.89
392.55	395.55
392.75	397.89
392.94	325.33
393.13	444.70
393.33	440.02
393.52	344.06
393.71	428.32
393.91	388.53
394.10	411.93
394.29	355.76
394.49	416.62
394.68	442.36
394.88	463.43
395.07	397.89
395.26	454.06
395.46	451.72
395.65	451.72
395.84	369.80
396.04	433.00
396.23	397.89
396.42	416.62
396.62	491.51
396.81	386.19
397.00	470.45
397.19	435.34
397.39	390.87
397.58	414.27
397.77	327.68
397.97	362.78
398.16	395.55
398.35	484.49
398.55	404.91
398.74	374.49
398.93	395.55
399.12	397.89
399.32	383.85
399.51	390.87
399.70	468.11
399.90	409.59
400.09	353.42
400.28	407.25
400.47	416.62
400.67	498.53
400.86	447.04
401.05	484.49
401.24	383.85
401.44	400.23
401.63	421.30
401.82	332.36
402.01	421.30
402.21	388.53
402.40	397.89
402.59	346.40
402.78	383.85
402.97	395.55
403.17	416.62
403.36	386.19
403.55	404.91
403.74	418.96
403.93	402.57
404.13	437.68
404.32	376.83
404.51	393.21
404.70	458.74
404.89	428.32
405.09	402.57
405.28	407.25
405.47	372.15
405.66	425.98
405.85	400.23
406.05	430.66
406.24	409.59
406.43	437.68
406.62	397.89
406.81	414.27
407.00	444.70
407.20	456.40
407.39	400.23
407.58	390.87
407.77	376.83
407.96	402.57
408.15	379.17
408.34	411.93
408.54	348.74
408.73	383.85
408.92	421.30
409.11	470.45
409.30	528.96
409.49	383.85
409.68	372.15
409.87	423.64
410.07	407.25
410.26	458.74
410.45	365.12
410.64	376.83
410.83	386.19
411.02	383.85
411.21	421.30
411.40	489.17
411.59	456.40
411.78	447.04
411.98	449.38
412.17	334.70
412.36	381.51
412.55	388.53
412.74	479.81
412.93	407.25
413.12	367.46
413.31	437.68
413.50	383.85
413.69	388.53
413.88	400.23
414.07	437.68
414.26	388.53
414.45	397.89
414.64	418.96
414.83	407.25
415.02	376.83
415.22	402.57
415.41	468.11
415.60	414.27
415.79	416.62
415.98	369.80
416.17	397.89
416.36	444.70
416.55	395.55
416.74	369.80
416.93	416.62
417.12	463.43
417.31	435.34
417.50	346.40
417.69	447.04
417.88	437.68
418.07	402.57
418.26	365.12
418.45	360.44
418.64	395.55
418.83	411.93
419.02	442.36
419.21	440.02
419.39	444.70
419.58	421.30
419.77	402.57
419.96	381.51
420.15	395.55
420.34	447.04
420.53	374.49
420.72	397.89
420.91	430.66
421.10	400.23
421.29	383.85
421.48	395.55
421.67	395.55
421.86	409.59
422.05	435.34
422.24	418.96
422.43	402.57
422.61	430.66
422.80	418.96
422.99	435.34
423.18	463.43
423.37	430.66
423.56	463.43
423.75	496.19
423.94	447.04
424.13	362.78
424.32	428.32
424.50	449.38
424.69	372.15
424.88	477.47
425.07	421.30
425.26	390.87
425.45	435.34
425.64	437.68
425.83	421.30
426.01	355.76
426.20	416.62
426.39	416.62
426.58	421.30
426.77	397.89
426.96	449.38
427.15	360.44
427.33	411.93
427.52	411.93
427.71	397.89
427.90	407.25
428.09	407.25
428.28	442.36
428.46	472.79
428.65	402.57
428.84	369.80
429.03	400.23
429.22	409.59
429.40	454.06
429.59	322.99
429.78	416.62
429.97	404.91
430.16	351.08
430.34	409.59
430.53	390.87
430.72	416.62
430.91	416.62
431.10	428.32
431.28	386.19
431.47	414.27
431.66	407.25
431.85	400.23
432.03	425.98
432.22	468.11
432.41	468.11
432.60	404.91
432.79	365.12
432.97	423.64
433.16	376.83
433.35	397.89
433.54	451.72
433.72	379.17
433.91	475.13
434.10	414.27
434.28	353.42
434.47	451.72
434.66	386.19
434.85	421.30
435.03	404.91
435.22	444.70
435.41	444.70
435.59	468.11
435.78	355.76
435.97	355.76
436.16	423.64
436.34	517.26
436.53	386.19
436.72	390.87
436.90	447.04
437.09	402.57
437.28	414.27
437.46	404.91
437.65	433.00
437.84	468.11
438.02	390.87
438.21	433.00
438.40	411.93
438.58	358.10
438.77	400.23
438.96	400.23
439.14	425.98
439.33	369.80
439.52	468.11
439.70	407.25
439.89	407.25
440.08	440.02
440.26	414.27
440.45	465.77
440.63	400.23
440.82	379.17
441.01	390.87
441.19	425.98
441.38	372.15
441.57	367.46
441.75	475.13
441.94	440.02
442.12	388.53
442.31	421.30
442.50	428.32
442.68	381.51
442.87	404.91
443.05	395.55
443.24	475.13
443.43	414.27
443.61	468.11
443.80	395.55
443.98	447.04
444.17	358.10
444.35	430.66
444.54	421.30
444.73	397.89
444.91	475.13
445.10	409.59
445.28	425.98
445.47	411.93
445.65	454.06
445.84	447.04
446.02	386.19
446.21	332.36
446.39	388.53
446.58	519.60
446.77	369.80
446.95	395.55
447.14	468.11
447.32	447.04
447.51	437.68
447.69	449.38
447.88	379.17
448.06	447.04
448.25	428.32
448.43	393.21
448.62	367.46
448.80	393.21
448.99	421.30
449.17	334.70
449.36	372.15
449.54	404.91
449.73	423.64
449.91	388.53
450.10	428.32
450.28	437.68
450.46	379.17
450.65	454.06
450.83	341.72
451.02	414.27
451.20	489.17
451.39	379.17
451.57	386.19
451.76	404.91
451.94	365.12
452.13	393.21
452.31	379.17
452.49	404.91
452.68	461.09
452.86	440.02
453.05	468.11
453.23	451.72
453.42	437.68
453.60	393.21
453.78	435.34
453.97	437.68
454.15	402.57
454.34	447.04
454.52	402.57
454.70	550.03
454.89	418.96
455.07	430.66
455.26	414.27
455.44	430.66
455.62	458.74
455.81	428.32
455.99	404.91
456.17	449.38
456.36	437.68
456.54	437.68
456.73	411.93
456.91	360.44
457.09	425.98
457.28	449.38
457.46	440.02
457.64	416.62
457.83	465.77
458.01	388.53
458.19	472.79
458.38	372.15
458.56	444.70
458.74	325.33
458.93	376.83
459.11	395.55
459.29	402.57
459.48	496.19
459.66	435.34
459.84	428.32
460.03	430.66
460.21	458.74
460.39	355.76
460.57	407.25
460.76	428.32
460.94	456.40
461.12	451.72
461.31	470.45
461.49	421.30
461.67	440.02
461.85	421.30
462.04	451.72
462.22	770.04
462.40	442.36
462.59	365.12
462.77	421.30
462.95	388.53
463.13	341.72
463.32	353.42
463.50	482.15
463.68	428.32
463.86	388.53
464.05	383.85
464.23	484.49
464.41	442.36
464.59	430.66
464.78	341.72
464.96	430.66
465.14	397.89
465.32	430.66
465.50	430.66
465.69	442.36
465.87	386.19
466.05	402.57
466.23	397.89
466.41	365.12
466.60	325.33
466.78	376.83
466.96	444.70
467.14	418.96
467.32	454.06
467.51	437.68
467.69	437.68
467.87	433.00
468.05	416.62
468.23	430.66
468.41	461.09
468.60	395.55
468.78	479.81
468.96	456.40
469.14	517.26
469.32	425.98
469.50	325.33
469.69	390.87
469.87	433.00
470.05	393.21
470.23	463.43
470.41	407.25
470.59	402.57
470.77	477.47
470.95	449.38
471.14	400.23
471.32	379.17
471.50	463.43
471.68	440.02
471.86	451.72
472.04	433.00
472.22	358.10
472.40	414.27
472.58	400.23
472.77	379.17
472.95	425.98
473.13	379.17
473.31	451.72
473.49	404.91
473.67	397.89
473.85	414.27
474.03	407.25
474.21	369.80
474.39	477.47
474.57	475.13
474.75	437.68
474.93	383.85
475.12	430.66
475.30	423.64
475.48	475.13
475.66	416.62
475.84	362.78
476.02	421.30
476.20	484.49
476.38	407.25
476.56	442.36
476.74	346.40
476.92	390.87
477.10	355.76
477.28	449.38
477.46	421.30
477.64	435.34
477.82	407.25
478.00	425.98
478.18	425.98
478.36	369.80
478.54	409.59
478.72	374.49
478.90	369.80
479.08	414.27
479.26	374.49
479.44	421.30
479.62	381.51
479.80	308.95
479.98	374.49
480.16	430.66
480.34	411.93
480.52	386.19
480.70	425.98
480.88	355.76
481.06	444.70
481.24	372.15
481.41	425.98
481.59	414.27
481.77	351.08
481.95	397.89
482.13	458.74
482.31	409.59
482.49	372.15
482.67	472.79
482.85	475.13
483.03	465.77
483.21	409.59
483.39	395.55
483.57	465.77
483.74	440.02
483.92	440.02
484.10	337.04
484.28	428.32
484.46	428.32
484.64	461.09
484.82	404.91
485.00	390.87
485.18	358.10
485.35	444.70
485.53	407.25
485.71	500.87
485.89	376.83
486.07	421.30
486.25	421.30
486.43	388.53
486.61	388.53
486.78	369.80
486.96	451.72
487.14	440.02
487.32	386.19
487.50	437.68
487.68	437.68
487.85	379.17
488.03	456.40
488.21	428.32
488.39	400.23
488.57	437.68
488.75	454.06
488.92	493.85
489.10	358.10
489.28	444.70
489.46	374.49
489.64	512.58
489.81	484.49
489.99	390.87
490.17	442.36
490.35	503.22
490.53	358.10
490.70	376.83
490.88	472.79
491.06	421.30
491.24	351.08
491.41	435.34
491.59	381.51
491.77	407.25
491.95	414.27
492.13	360.44
492.30	383.85
492.48	423.64
492.66	433.00
492.84	306.61
493.01	409.59
493.19	360.44
493.37	388.53
493.54	442.36
493.72	393.21
493.90	365.12
494.08	435.34
494.25	376.83
494.43	409.59
494.61	468.11
494.79	416.62
494.96	386.19
495.14	409.59
495.32	433.00
495.49	425.98
495.67	386.19
495.85	414.27
496.02	444.70
496.20	458.74
496.38	444.70
496.55	395.55
496.73	425.98
496.91	428.32
497.09	395.55
497.26	411.93
497.44	451.72
497.62	409.59
497.79	411.93
497.97	486.83
498.14	374.49
498.32	465.77
498.50	400.23
498.67	400.23
498.85	425.98
499.03	465.77
499.20	458.74
499.38	339.38
499.56	414.27
499.73	407.25
499.91	472.79
500.08	390.87
500.26	411.93
500.44	372.15
500.61	353.42
500.79	425.98
500.97	491.51
501.14	400.23
501.32	475.13
501.49	421.30
501.67	414.27
501.84	376.83
502.02	411.93
502.20	440.02
502.37	442.36
502.55	353.42
502.72	444.70
502.90	381.51
503.07	451.72
503.25	402.57
503.43	367.46
503.60	383.85
503.78	404.91
503.95	397.89
504.13	365.12
504.30	372.15
504.48	411.93
504.65	505.56
504.83	475.13
505.01	379.17
505.18	416.62
505.36	404.91
505.53	447.04
505.71	393.21
505.88	365.12
506.06	360.44
506.23	346.40
506.41	372.15
506.58	407.25
506.76	397.89
506.93	337.04
507.11	418.96
507.28	353.42
507.46	381.51
507.63	418.96
507.81	362.78
507.98	416.62
508.16	388.53
508.33	468.11
508.50	489.17
508.68	374.49
508.85	348.74
509.03	414.27
509.20	395.55
509.38	447.04
509.55	456.40
509.73	388.53
509.90	433.00
510.08	416.62
510.25	397.89
510.42	414.27
510.60	470.45
510.77	383.85
510.95	433.00
511.12	444.70
511.30	430.66
511.47	418.96
511.64	447.04
511.82	400.23
511.99	411.93
512.17	451.72
512.34	423.64
512.51	390.87
512.69	400.23
512.86	379.17
513.04	416.62
513.21	360.44
513.38	418.96
513.56	430.66
513.73	404.91
513.90	458.74
514.08	355.76
514.25	493.85
514.43	376.83
514.60	367.46
514.77	362.78
514.95	339.38
515.12	463.43
515.29	414.27
515.47	449.38
515.64	435.34
515.81	449.38
515.99	454.06
516.16	395.55
516.33	397.89
516.51	430.66
516.68	362.78
516.85	465.77
517.03	393.21
517.20	414.27
517.37	388.53
517.54	409.59
517.72	416.62
517.89	418.96
518.06	386.19
518.24	468.11
518.41	486.83
518.58	461.09
518.75	425.98
518.93	454.06
519.10	425.98
519.27	358.10
519.45	451.72
519.62	407.25
519.79	468.11
519.96	381.51
520.14	440.02
520.31	414.27
520.48	447.04
520.65	404.91
520.83	451.72
521.00	435.34
521.17	470.45
521.34	407.25
521.52	428.32
521.69	521.94
521.86	472.79
522.03	470.45
522.20	477.47
522.38	390.87
522.55	470.45
522.72	337.04
522.89	409.59
523.07	437.68
523.24	418.96
523.41	351.08
523.58	404.91
523.75	409.59
523.92	416.62
524.10	458.74
524.27	411.93
524.44	379.17
524.61	430.66
524.78	393.21
524.96	447.04
525.13	479.81
525.30	456.40
525.47	404.91
525.64	332.36
525.81	454.06
525.98	404.91
526.16	404.91
526.33	477.47
526.50	400.23
526.67	404.91
526.84	451.72
527.01	428.32
527.18	388.53
527.36	372.15
527.53	444.70
527.70	470.45
527.87	418.96
528.04	468.11
528.21	444.70
528.38	425.98
528.55	484.49
528.72	442.36
528.89	505.56
529.07	468.11
529.24	482.15
529.41	416.62
529.58	440.02
529.75	444.70
529.92	461.09
530.09	407.25
530.26	442.36
530.43	411.93
530.60	383.85
530.77	365.12
530.94	423.64
531.11	376.83
531.28	449.38
531.46	468.11
531.63	372.15
531.80	447.04
531.97	451.72
532.14	418.96
532.31	486.83
532.48	381.51
532.65	358.10
532.82	407.25
532.99	456.40
533.16	414.27
533.33	475.13
533.50	404.91
533.67	430.66
533.84	407.25
534.01	360.44
534.18	402.57
534.35	390.87
534.52	372.15
534.69	486.83
534.86	465.77
535.03	374.49
535.20	409.59
535.37	365.12
535.54	482.15
535.71	428.32
535.88	444.70
536.05	404.91
536.22	458.74
536.38	440.02
536.55	447.04
536.72	407.25
536.89	425.98
537.06	386.19
537.23	393.21
537.40	409.59
537.57	372.15
537.74	418.96
537.91	449.38
538.08	376.83
538.25	386.19
538.42	372.15
538.59	447.04
538.75	428.32
538.92	351.08
539.09	416.62
539.26	393.21
539.43	430.66
539.60	442.36
539.77	423.64
539.94	484.49
540.11	400.23
540.28	461.09
540.44	390.87
540.61	367.46
540.78	440.02
540.95	390.87
541.12	418.96
541.29	421.30
541.46	449.38
541.62	433.00
541.79	411.93
541.96	360.44
542.13	503.22
542.30	383.85
542.47	379.17
542.63	433.00
542.80	400.23
542.97	414.27
543.14	458.74
543.31	390.87
543.48	388.53
543.64	435.34
543.81	381.51
543.98	428.32
544.15	367.46
544.32	416.62
544.48	440.02
544.65	376.83
544.82	409.59
544.99	423.64
545.16	444.70
545.32	404.91
545.49	365.12
545.66	414.27
545.83	393.21
546.00	386.19
546.16	433.00
546.33	437.68
546.50	430.66
546.67	475.13
546.83	463.43
547.00	344.06
547.17	386.19
547.34	330.02
547.50	341.72
547.67	454.06
547.84	365.12
548.00	369.80
548.17	407.25
548.34	372.15
548.51	433.00
548.67	489.17
548.84	393.21
549.01	388.53
549.18	435.34
549.34	447.04
549.51	440.02
549.68	381.51
549.84	428.32
550.01	395.55
550.18	482.15
550.34	425.98
550.51	386.19
550.68	372.15
550.84	383.85
551.01	395.55
551.18	540.66
551.34	360.44
551.51	369.80
551.68	475.13
551.84	449.38
552.01	402.57
552.18	411.93
552.34	454.06
552.51	409.59
552.68	367.46
552.84	381.51
553.01	454.06
553.18	435.34
553.34	383.85
553.51	379.17
553.67	418.96
553.84	451.72
554.01	470.45
554.17	386.19
554.34	416.62
554.51	395.55
554.67	451.72
554.84	442.36
555.00	367.46
555.17	409.59
555.33	447.04
555.50	407.25
555.67	423.64
555.83	390.87
556.00	479.81
556.16	512.58
556.33	507.90
556.50	393.21
556.66	404.91
556.83	416.62
556.99	395.55
557.16	444.70
557.32	402.57
557.49	418.96
557.65	486.83
557.82	475.13
557.98	414.27
558.15	414.27
558.32	421.30
558.48	440.02
558.65	421.30
558.81	449.38
558.98	418.96
559.14	337.04
559.31	447.04
559.47	449.38
559.64	395.55
559.80	435.34
559.97	442.36
560.13	442.36
560.30	367.46
560.46	435.34
560.63	414.27
560.79	458.74
560.96	472.79
561.12	463.43
561.29	404.91
561.45	365.12
561.61	395.55
561.78	491.51
561.94	437.68
562.11	456.40
562.27	402.57
562.44	393.21
562.60	339.38
562.77	458.74
562.93	449.38
563.10	444.70
563.26	404.91
563.42	400.23
563.59	395.55
563.75	428.32
563.92	454.06
564.08	430.66
564.24	514.92
564.41	404.91
564.57	428.32
564.74	388.53
564.90	414.27
565.07	428.32
565.23	477.47
565.39	400.23
565.56	418.96
565.72	367.46
565.88	369.80
566.05	409.59
566.21	400.23
566.38	418.96
566.54	374.49
566.70	468.11
566.87	425.98
567.03	407.25
567.19	351.08
567.36	479.81
567.52	418.96
567.68	386.19
567.85	404.91
568.01	369.80
568.17	383.85
568.34	376.83
568.50	444.70
568.66	433.00
568.83	557.05
568.99	376.83
569.15	435.34
569.32	454.06
569.48	360.44
569.64	461.09
569.81	421.30
569.97	442.36
570.13	423.64
570.30	433.00
570.46	407.25
570.62	379.17
570.78	395.55
570.95	416.62
571.11	444.70
571.27	479.81
571.43	444.70
571.60	433.00
571.76	388.53
571.92	489.17
572.09	465.77
572.25	369.80
572.41	425.98
572.57	383.85
572.74	397.89
572.90	409.59
573.06	442.36
573.22	449.38
573.38	437.68
573.55	397.89
573.71	449.38
573.87	470.45
574.03	365.12
574.20	400.23
574.36	442.36
574.52	428.32
574.68	456.40
574.84	411.93
575.01	433.00
575.17	425.98
575.33	451.72
575.49	374.49
575.65	416.62
575.82	491.51
575.98	437.68
576.14	407.25
576.30	376.83
576.46	456.40
576.62	437.68
576.79	493.85
576.95	463.43
577.11	372.15
577.27	365.12
577.43	484.49
577.59	449.38
577.75	397.89
577.92	411.93
578.08	475.13
578.24	367.46
578.40	449.38
578.56	411.93
578.72	418.96
578.88	414.27
579.04	425.98
579.21	423.64
579.37	388.53
579.53	437.68
579.69	433.00
579.85	461.09
580.01	475.13
580.17	367.46
580.33	458.74
580.49	447.04
580.65	390.87
580.82	437.68
580.98	346.40
581.14	355.76
581.30	409.59
581.46	470.45
581.62	461.09
581.78	304.27
581.94	411.93
582.10	381.51
582.26	360.44
582.42	397.89
582.58	313.63
582.74	397.89
582.90	435.34
583.06	456.40
583.22	463.43
583.38	451.72
583.54	433.00
583.70	458.74
583.86	393.21
584.02	379.17
584.18	393.21
584.34	376.83
584.50	362.78
584.66	397.89
584.82	353.42
584.98	421.30
585.14	484.49
585.30	449.38
585.46	344.06
585.62	423.64
585.78	447.04
585.94	435.34
586.10	440.02
586.26	435.34
586.42	402.57
586.58	407.25
586.74	470.45
586.90	461.09
587.06	416.62
587.22	451.72
587.38	425.98
587.54	407.25
587.70	468.11
587.86	444.70
588.02	423.64
588.18	456.40
588.34	463.43
588.49	393.21
588.65	423.64
588.81	402.57
588.97	360.44
589.13	421.30
589.29	383.85
589.45	498.53
589.61	444.70
589.77	435.34
589.93	423.64
590.08	400.23
590.24	388.53
590.40	430.66
590.56	430.66
590.72	456.40
590.88	393.21
591.04	409.59
591.20	360.44
591.35	376.83
591.51	454.06
591.67	409.59
591.83	447.04
591.99	423.64
592.15	500.87
592.31	383.85
592.46	500.87
592.62	360.44
592.78	395.55
592.94	397.89
593.10	414.27
593.26	489.17
593.41	402.57
593.57	507.90
593.73	416.62
593.89	463.43
594.05	355.76
594.20	416.62
594.36	374.49
594.52	461.09
594.68	332.36
594.84	423.64
594.99	404.91
595.15	430.66
595.31	372.15
595.47	397.89
595.62	397.89
595.78	404.91
595.94	414.27
596.10	461.09
596.25	311.29
596.41	435.34
596.57	449.38
596.73	475.13
596.88	414.27
597.04	430.66
597.20	423.64
597.36	477.47
597.51	404.91
597.67	409.59
597.83	444.70
597.99	465.77
598.14	468.11
598.30	491.51
598.46	418.96
598.61	461.09
598.77	376.83
598.93	339.38
599.09	451.72
599.24	447.04
599.40	435.34
599.56	425.98
599.71	414.27
599.87	437.68
600.03	418.96
600.18	414.27
600.34	437.68
600.50	395.55
600.65	475.13
600.81	407.25
600.97	402.57
601.12	416.62
601.28	390.87
601.44	493.85
601.59	477.47
601.75	425.98
601.91	425.98
602.06	372.15
602.22	489.17
602.37	451.72
602.53	458.74
602.69	418.96
602.84	440.02
603.00	463.43
603.16	456.40
603.31	486.83
603.47	425.98
603.62	297.25
603.78	463.43
603.94	482.15
604.09	369.80
604.25	463.43
604.40	409.59
604.56	428.32
604.71	400.23
604.87	409.59
605.03	395.55
605.18	416.62
605.34	496.19
605.49	458.74
605.65	430.66
605.80	411.93
605.96	414.27
606.12	374.49
606.27	456.40
606.43	507.90
606.58	397.89
606.74	351.08
606.89	440.02
607.05	388.53
607.20	339.38
607.36	425.98
607.51	407.25
607.67	407.25
607.82	428.32
607.98	465.77
608.13	411.93
608.29	449.38
608.44	482.15
608.60	409.59
608.75	402.57
608.91	444.70
609.06	418.96
609.22	433.00
609.37	430.66
609.53	407.25
609.68	369.80
609.84	318.31
609.99	411.93
610.15	484.49
