SpectraSuite Data File
++++++++++++++++++++++++++++++++++++
Date: Fri Oct 25 12:11:31 EDT 2013
User: price-jones
Dark Spectrum Present: No
Reference Spectrum Present: No
Number of Sampled Component Spectra: 1
Spectrometers: USB2+H05261
Integration Time (usec): 100000 (USB2+H05261)
Spectra Averaged: 1 (USB2+H05261)
Boxcar Smoothing: 0 (USB2+H05261)
Correct for Electrical Dark: No (USB2+H05261)
Strobe/Lamp Enabled: No (USB2+H05261)
Correct for Detector Non-linearity: No (USB2+H05261)
Correct for Stray Light: No (USB2+H05261)
Number of Pixels in Processed Spectrum: 2048
>>>>>Begin Processed Spectral Data<<<<<
365.73	348.74
365.92	348.74
366.12	348.74
366.32	294.91
366.52	229.37
366.72	299.59
366.91	175.54
367.11	262.14
367.31	241.08
367.51	191.92
367.70	255.12
367.90	229.37
368.10	201.29
368.30	264.48
368.49	229.37
368.69	248.10
368.89	215.33
369.09	208.31
369.28	285.55
369.48	306.61
369.68	297.25
369.87	262.14
370.07	308.95
370.27	322.99
370.47	362.78
370.66	358.10
370.86	304.27
371.06	369.80
371.25	386.19
371.45	355.76
371.65	418.96
371.84	423.64
372.04	425.98
372.24	353.42
372.44	379.17
372.63	416.62
372.83	423.64
373.03	390.87
373.22	416.62
373.42	440.02
373.62	491.51
373.81	421.30
374.01	421.30
374.21	468.11
374.40	435.34
374.60	411.93
374.79	351.08
374.99	411.93
375.19	355.76
375.38	414.27
375.58	390.87
375.78	421.30
375.97	428.32
376.17	423.64
376.37	334.70
376.56	360.44
376.76	484.49
376.95	402.57
377.15	435.34
377.35	414.27
377.54	428.32
377.74	435.34
377.93	444.70
378.13	383.85
378.33	442.36
378.52	341.72
378.72	390.87
378.91	383.85
379.11	330.02
379.31	351.08
379.50	456.40
379.70	428.32
379.89	376.83
380.09	416.62
380.28	430.66
380.48	355.76
380.68	421.30
380.87	397.89
381.07	435.34
381.26	414.27
381.46	402.57
381.65	409.59
381.85	440.02
382.04	400.23
382.24	430.66
382.43	379.17
382.63	346.40
382.83	409.59
383.02	463.43
383.22	421.30
383.41	341.72
383.61	444.70
383.80	379.17
384.00	397.89
384.19	362.78
384.39	423.64
384.58	425.98
384.78	423.64
384.97	372.15
385.17	376.83
385.36	416.62
385.56	374.49
385.75	351.08
385.95	435.34
386.14	376.83
386.34	407.25
386.53	458.74
386.72	355.76
386.92	423.64
387.11	390.87
387.31	435.34
387.50	400.23
387.70	423.64
387.89	395.55
388.09	411.93
388.28	437.68
388.48	360.44
388.67	374.49
388.86	440.02
389.06	425.98
389.25	472.79
389.45	407.25
389.64	423.64
389.84	461.09
390.03	418.96
390.22	425.98
390.42	334.70
390.61	353.42
390.81	411.93
391.00	395.55
391.19	505.56
391.39	411.93
391.58	433.00
391.78	409.59
391.97	425.98
392.16	428.32
392.36	440.02
392.55	400.23
392.75	425.98
392.94	372.15
393.13	437.68
393.33	374.49
393.52	376.83
393.71	433.00
393.91	416.62
394.10	416.62
394.29	393.21
394.49	442.36
394.68	404.91
394.88	442.36
395.07	372.15
395.26	465.77
395.46	393.21
395.65	386.19
395.84	379.17
396.04	440.02
396.23	358.10
396.42	447.04
396.62	449.38
396.81	388.53
397.00	423.64
397.19	444.70
397.39	409.59
397.58	447.04
397.77	451.72
397.97	397.89
398.16	407.25
398.35	351.08
398.55	355.76
398.74	360.44
398.93	390.87
399.12	423.64
399.32	425.98
399.51	407.25
399.70	423.64
399.90	365.12
400.09	409.59
400.28	435.34
400.47	365.12
400.67	367.46
400.86	444.70
401.05	430.66
401.24	505.56
401.44	437.68
401.63	404.91
401.82	383.85
402.01	400.23
402.21	390.87
402.40	414.27
402.59	407.25
402.78	386.19
402.97	423.64
403.17	435.34
403.36	334.70
403.55	383.85
403.74	423.64
403.93	395.55
404.13	493.85
404.32	348.74
404.51	376.83
404.70	409.59
404.89	423.64
405.09	414.27
405.28	414.27
405.47	362.78
405.66	442.36
405.85	463.43
406.05	383.85
406.24	409.59
406.43	425.98
406.62	430.66
406.81	552.37
407.00	421.30
407.20	404.91
407.39	423.64
407.58	425.98
407.77	400.23
407.96	390.87
408.15	372.15
408.34	379.17
408.54	404.91
408.73	395.55
408.92	421.30
409.11	458.74
409.30	482.15
409.49	386.19
409.68	433.00
409.87	376.83
410.07	386.19
410.26	271.50
410.45	407.25
410.64	425.98
410.83	454.06
411.02	440.02
411.21	444.70
411.40	425.98
411.59	430.66
411.78	425.98
411.98	374.49
412.17	425.98
412.36	397.89
412.55	449.38
412.74	423.64
412.93	423.64
413.12	346.40
413.31	435.34
413.50	451.72
413.69	470.45
413.88	435.34
414.07	418.96
414.26	456.40
414.45	353.42
414.64	383.85
414.83	418.96
415.02	440.02
415.22	395.55
415.41	383.85
415.60	423.64
415.79	397.89
415.98	437.68
416.17	365.12
416.36	447.04
416.55	442.36
416.74	379.17
416.93	411.93
417.12	402.57
417.31	418.96
417.50	390.87
417.69	423.64
417.88	346.40
418.07	440.02
418.26	388.53
418.45	395.55
418.64	447.04
418.83	416.62
419.02	418.96
419.21	423.64
419.39	397.89
419.58	379.17
419.77	404.91
419.96	414.27
420.15	449.38
420.34	430.66
420.53	430.66
420.72	395.55
420.91	416.62
421.10	365.12
421.29	393.21
421.48	381.51
421.67	355.76
421.86	353.42
422.05	433.00
422.24	402.57
422.43	404.91
422.61	367.46
422.80	463.43
422.99	390.87
423.18	395.55
423.37	479.81
423.56	461.09
423.75	344.06
423.94	440.02
424.13	379.17
424.32	353.42
424.50	395.55
424.69	397.89
424.88	449.38
425.07	440.02
425.26	421.30
425.45	418.96
425.64	404.91
425.83	440.02
426.01	400.23
426.20	414.27
426.39	360.44
426.58	425.98
426.77	409.59
426.96	435.34
427.15	449.38
427.33	402.57
427.52	407.25
427.71	411.93
427.90	444.70
428.09	449.38
428.28	430.66
428.46	423.64
428.65	409.59
428.84	407.25
429.03	454.06
429.22	449.38
429.40	461.09
429.59	404.91
429.78	362.78
429.97	414.27
430.16	461.09
430.34	482.15
430.53	383.85
430.72	421.30
430.91	435.34
431.10	374.49
431.28	395.55
431.47	425.98
431.66	440.02
431.85	355.76
432.03	428.32
432.22	484.49
432.41	376.83
432.60	395.55
432.79	425.98
432.97	475.13
433.16	437.68
433.35	409.59
433.54	428.32
433.72	339.38
433.91	400.23
434.10	379.17
434.28	381.51
434.47	320.65
434.66	449.38
434.85	376.83
435.03	428.32
435.22	423.64
435.41	440.02
435.59	447.04
435.78	416.62
435.97	365.12
436.16	433.00
436.34	437.68
436.53	421.30
436.72	458.74
436.90	437.68
437.09	374.49
437.28	423.64
437.46	381.51
437.65	435.34
437.84	414.27
438.02	479.81
438.21	449.38
438.40	430.66
438.58	479.81
438.77	423.64
438.96	414.27
439.14	360.44
439.33	498.53
439.52	482.15
439.70	411.93
439.89	409.59
440.08	461.09
440.26	393.21
440.45	437.68
440.63	402.57
440.82	365.12
441.01	458.74
441.19	423.64
441.38	322.99
441.57	390.87
441.75	442.36
441.94	379.17
442.12	374.49
442.31	353.42
442.50	390.87
442.68	416.62
442.87	376.83
443.05	414.27
443.24	416.62
443.43	463.43
443.61	369.80
443.80	386.19
443.98	425.98
444.17	386.19
444.35	409.59
444.54	381.51
444.73	449.38
444.91	395.55
445.10	374.49
445.28	451.72
445.47	416.62
445.65	381.51
445.84	449.38
446.02	372.15
446.21	322.99
446.39	414.27
446.58	433.00
446.77	379.17
446.95	421.30
447.14	421.30
447.32	421.30
447.51	341.72
447.69	482.15
447.88	360.44
448.06	456.40
448.25	322.99
448.43	400.23
448.62	395.55
448.80	390.87
448.99	369.80
449.17	390.87
449.36	414.27
449.54	423.64
449.73	416.62
449.91	402.57
450.10	339.38
450.28	400.23
450.46	470.45
450.65	330.02
450.83	440.02
451.02	444.70
451.20	388.53
451.39	381.51
451.57	444.70
451.76	407.25
451.94	407.25
452.13	496.19
452.31	477.47
452.49	402.57
452.68	374.49
452.86	444.70
453.05	475.13
453.23	362.78
453.42	421.30
453.60	404.91
453.78	423.64
453.97	421.30
454.15	386.19
454.34	393.21
454.52	374.49
454.70	451.72
454.89	477.47
455.07	444.70
455.26	470.45
455.44	435.34
455.62	451.72
455.81	395.55
455.99	397.89
456.17	423.64
456.36	430.66
456.54	440.02
456.73	402.57
456.91	379.17
457.09	564.07
457.28	472.79
457.46	416.62
457.64	444.70
457.83	433.00
458.01	362.78
458.19	425.98
458.38	395.55
458.56	397.89
458.74	374.49
458.93	379.17
459.11	475.13
459.29	440.02
459.48	397.89
459.66	454.06
459.84	407.25
460.03	503.22
460.21	421.30
460.39	477.47
460.57	346.40
460.76	365.12
460.94	411.93
461.12	463.43
461.31	409.59
461.49	479.81
461.67	444.70
461.85	379.17
462.04	395.55
462.22	765.36
462.40	475.13
462.59	447.04
462.77	325.33
462.95	437.68
463.13	351.08
463.32	477.47
463.50	425.98
463.68	367.46
463.86	449.38
464.05	393.21
464.23	482.15
464.41	334.70
464.59	442.36
464.78	348.74
464.96	404.91
465.14	411.93
465.32	407.25
465.50	428.32
465.69	428.32
465.87	369.80
466.05	430.66
466.23	367.46
466.41	351.08
466.60	465.77
466.78	456.40
466.96	435.34
467.14	388.53
467.32	407.25
467.51	414.27
467.69	421.30
467.87	365.12
468.05	454.06
468.23	397.89
468.41	477.47
468.60	411.93
468.78	376.83
468.96	360.44
469.14	416.62
469.32	353.42
469.50	395.55
469.69	454.06
469.87	447.04
470.05	416.62
470.23	451.72
470.41	454.06
470.59	470.45
470.77	369.80
470.95	421.30
471.14	418.96
471.32	409.59
471.50	477.47
471.68	409.59
471.86	400.23
472.04	414.27
472.22	404.91
472.40	404.91
472.58	433.00
472.77	360.44
472.95	374.49
473.13	407.25
473.31	442.36
473.49	376.83
473.67	383.85
473.85	404.91
474.03	369.80
474.21	395.55
474.39	369.80
474.57	430.66
474.75	486.83
474.93	486.83
475.12	346.40
475.30	428.32
475.48	440.02
475.66	444.70
475.84	407.25
476.02	435.34
476.20	425.98
476.38	454.06
476.56	468.11
476.74	369.80
476.92	400.23
477.10	433.00
477.28	430.66
477.46	383.85
477.64	442.36
477.82	404.91
478.00	430.66
478.18	404.91
478.36	414.27
478.54	421.30
478.72	360.44
478.90	388.53
479.08	416.62
479.26	461.09
479.44	456.40
479.62	418.96
479.80	369.80
479.98	458.74
480.16	407.25
480.34	369.80
480.52	390.87
480.70	376.83
480.88	369.80
481.06	348.74
481.24	416.62
481.41	379.17
481.59	461.09
481.77	395.55
481.95	379.17
482.13	365.12
482.31	421.30
482.49	393.21
482.67	440.02
482.85	381.51
483.03	358.10
483.21	437.68
483.39	400.23
483.57	430.66
483.74	428.32
483.92	369.80
484.10	339.38
484.28	402.57
484.46	451.72
484.64	339.38
484.82	482.15
485.00	414.27
485.18	440.02
485.35	407.25
485.53	372.15
485.71	397.89
485.89	379.17
486.07	351.08
486.25	454.06
486.43	376.83
486.61	383.85
486.78	390.87
486.96	428.32
487.14	493.85
487.32	369.80
487.50	444.70
487.68	458.74
487.85	500.87
488.03	442.36
488.21	393.21
488.39	411.93
488.57	468.11
488.75	379.17
488.92	496.19
489.10	379.17
489.28	463.43
489.46	304.27
489.64	395.55
489.81	346.40
489.99	374.49
490.17	421.30
490.35	435.34
490.53	433.00
490.70	367.46
490.88	425.98
491.06	414.27
491.24	383.85
491.41	418.96
491.59	440.02
491.77	355.76
491.95	470.45
492.13	400.23
492.30	409.59
492.48	381.51
492.66	388.53
492.84	348.74
493.01	386.19
493.19	449.38
493.37	463.43
493.54	435.34
493.72	414.27
493.90	388.53
494.08	381.51
494.25	414.27
494.43	388.53
494.61	470.45
494.79	430.66
494.96	433.00
495.14	479.81
495.32	416.62
495.49	428.32
495.67	444.70
495.85	388.53
496.02	353.42
496.20	379.17
496.38	461.09
496.55	430.66
496.73	404.91
496.91	456.40
497.09	470.45
497.26	461.09
497.44	414.27
497.62	435.34
497.79	475.13
497.97	454.06
498.14	358.10
498.32	477.47
498.50	430.66
498.67	456.40
498.85	414.27
499.03	484.49
499.20	390.87
499.38	337.04
499.56	447.04
499.73	463.43
499.91	470.45
500.08	458.74
500.26	465.77
500.44	402.57
500.61	421.30
500.79	409.59
500.97	407.25
501.14	390.87
501.32	425.98
501.49	416.62
501.67	458.74
501.84	435.34
502.02	416.62
502.20	414.27
502.37	390.87
502.55	442.36
502.72	498.53
502.90	465.77
503.07	379.17
503.25	428.32
503.43	393.21
503.60	451.72
503.78	440.02
503.95	393.21
504.13	465.77
504.30	444.70
504.48	458.74
504.65	507.90
504.83	411.93
505.01	440.02
505.18	376.83
505.36	402.57
505.53	461.09
505.71	425.98
505.88	374.49
506.06	416.62
506.23	397.89
506.41	386.19
506.58	423.64
506.76	433.00
506.93	393.21
507.11	393.21
507.28	337.04
507.46	353.42
507.63	430.66
507.81	393.21
507.98	465.77
508.16	355.76
508.33	318.31
508.50	362.78
508.68	465.77
508.85	444.70
509.03	372.15
509.20	400.23
509.38	362.78
509.55	456.40
509.73	468.11
509.90	482.15
510.08	470.45
510.25	395.55
510.42	477.47
510.60	388.53
510.77	437.68
510.95	407.25
511.12	433.00
511.30	409.59
511.47	404.91
511.64	423.64
511.82	374.49
511.99	379.17
512.17	397.89
512.34	404.91
512.51	418.96
512.69	428.32
512.86	372.15
513.04	388.53
513.21	362.78
513.38	449.38
513.56	421.30
513.73	390.87
513.90	521.94
514.08	402.57
514.25	376.83
514.43	437.68
514.60	451.72
514.77	454.06
514.95	374.49
515.12	407.25
515.29	442.36
515.47	337.04
515.64	360.44
515.81	393.21
515.99	388.53
516.16	369.80
516.33	400.23
516.51	454.06
516.68	400.23
516.85	367.46
517.03	351.08
517.20	437.68
517.37	360.44
517.54	477.47
517.72	386.19
517.89	430.66
518.06	348.74
518.24	486.83
518.41	402.57
518.58	559.39
518.75	440.02
518.93	404.91
519.10	407.25
519.27	463.43
519.45	503.22
519.62	482.15
519.79	407.25
519.96	393.21
520.14	435.34
520.31	470.45
520.48	472.79
520.65	526.62
520.83	379.17
521.00	383.85
521.17	505.56
521.34	407.25
521.52	479.81
521.69	463.43
521.86	360.44
522.03	447.04
522.20	428.32
522.38	407.25
522.55	367.46
522.72	353.42
522.89	482.15
523.07	437.68
523.24	430.66
523.41	379.17
523.58	414.27
523.75	383.85
523.92	416.62
524.10	428.32
524.27	393.21
524.44	390.87
524.61	498.53
524.78	402.57
524.96	383.85
525.13	447.04
525.30	409.59
525.47	470.45
525.64	374.49
525.81	440.02
525.98	528.96
526.16	461.09
526.33	404.91
526.50	418.96
526.67	379.17
526.84	421.30
527.01	379.17
527.18	437.68
527.36	447.04
527.53	358.10
527.70	456.40
527.87	386.19
528.04	414.27
528.21	402.57
528.38	374.49
528.55	491.51
528.72	409.59
528.89	444.70
529.07	430.66
529.24	332.36
529.41	465.77
529.58	421.30
529.75	407.25
529.92	437.68
530.09	423.64
530.26	381.51
530.43	423.64
530.60	365.12
530.77	397.89
530.94	428.32
531.11	425.98
531.28	407.25
531.46	379.17
531.63	388.53
531.80	404.91
531.97	437.68
532.14	454.06
532.31	411.93
532.48	479.81
532.65	430.66
532.82	407.25
532.99	433.00
533.16	397.89
533.33	440.02
533.50	463.43
533.67	376.83
533.84	402.57
534.01	440.02
534.18	372.15
534.35	320.65
534.52	402.57
534.69	425.98
534.86	444.70
535.03	383.85
535.20	503.22
535.37	489.17
535.54	416.62
535.71	388.53
535.88	491.51
536.05	435.34
536.22	418.96
536.38	463.43
536.55	440.02
536.72	444.70
536.89	409.59
537.06	425.98
537.23	433.00
537.40	409.59
537.57	374.49
537.74	409.59
537.91	376.83
538.08	365.12
538.25	440.02
538.42	369.80
538.59	388.53
538.75	355.76
538.92	388.53
539.09	425.98
539.26	433.00
539.43	395.55
539.60	435.34
539.77	425.98
539.94	425.98
540.11	521.94
540.28	470.45
540.44	402.57
540.61	400.23
540.78	411.93
540.95	447.04
541.12	407.25
541.29	376.83
541.46	489.17
541.62	402.57
541.79	372.15
541.96	470.45
542.13	449.38
542.30	418.96
542.47	409.59
542.63	486.83
542.80	444.70
542.97	393.21
543.14	421.30
543.31	444.70
543.48	411.93
543.64	395.55
543.81	433.00
543.98	449.38
544.15	437.68
544.32	411.93
544.48	437.68
544.65	461.09
544.82	360.44
544.99	402.57
545.16	433.00
545.32	447.04
545.49	484.49
545.66	339.38
545.83	416.62
546.00	367.46
546.16	383.85
546.33	444.70
546.50	447.04
546.67	468.11
546.83	433.00
547.00	397.89
547.17	514.92
547.34	423.64
547.50	402.57
547.67	402.57
547.84	327.68
548.00	414.27
548.17	376.83
548.34	475.13
548.51	526.62
548.67	435.34
548.84	425.98
549.01	475.13
549.18	388.53
549.34	454.06
549.51	433.00
549.68	428.32
549.84	344.06
550.01	388.53
550.18	550.03
550.34	477.47
550.51	400.23
550.68	447.04
550.84	379.17
551.01	451.72
551.18	463.43
551.34	365.12
551.51	409.59
551.68	440.02
551.84	465.77
552.01	344.06
552.18	430.66
552.34	402.57
552.51	444.70
552.68	430.66
552.84	428.32
553.01	463.43
553.18	437.68
553.34	411.93
553.51	449.38
553.67	402.57
553.84	433.00
554.01	390.87
554.17	367.46
554.34	423.64
554.51	451.72
554.67	409.59
554.84	383.85
555.00	402.57
555.17	376.83
555.33	428.32
555.50	433.00
555.67	454.06
555.83	409.59
556.00	390.87
556.16	500.87
556.33	421.30
556.50	397.89
556.66	407.25
556.83	376.83
556.99	435.34
557.16	433.00
557.32	418.96
557.49	416.62
557.65	407.25
557.82	318.31
557.98	451.72
558.15	421.30
558.32	379.17
558.48	369.80
558.65	449.38
558.81	463.43
558.98	411.93
559.14	367.46
559.31	418.96
559.47	395.55
559.64	458.74
559.80	409.59
559.97	367.46
560.13	423.64
560.30	355.76
560.46	440.02
560.63	395.55
560.79	433.00
560.96	414.27
561.12	407.25
561.29	393.21
561.45	372.15
561.61	425.98
561.78	491.51
561.94	379.17
562.11	369.80
562.27	435.34
562.44	425.98
562.60	451.72
562.77	433.00
562.93	428.32
563.10	454.06
563.26	418.96
563.42	393.21
563.59	393.21
563.75	416.62
563.92	435.34
564.08	468.11
564.24	414.27
564.41	435.34
564.57	367.46
564.74	404.91
564.90	451.72
565.07	496.19
565.23	433.00
565.39	440.02
565.56	470.45
565.72	470.45
565.88	484.49
566.05	379.17
566.21	461.09
566.38	430.66
566.54	442.36
566.70	418.96
566.87	397.89
567.03	334.70
567.19	369.80
567.36	433.00
567.52	383.85
567.68	414.27
567.85	463.43
568.01	433.00
568.17	369.80
568.34	379.17
568.50	367.46
568.66	390.87
568.83	442.36
568.99	397.89
569.15	425.98
569.32	440.02
569.48	388.53
569.64	344.06
569.81	404.91
569.97	428.32
570.13	437.68
570.30	477.47
570.46	374.49
570.62	463.43
570.78	435.34
570.95	418.96
571.11	447.04
571.27	425.98
571.43	451.72
571.60	369.80
571.76	465.77
571.92	397.89
572.09	416.62
572.25	411.93
572.41	397.89
572.57	353.42
572.74	470.45
572.90	418.96
573.06	425.98
573.22	418.96
573.38	454.06
573.55	372.15
573.71	435.34
573.87	397.89
574.03	306.61
574.20	416.62
574.36	411.93
574.52	411.93
574.68	479.81
574.84	379.17
575.01	475.13
575.17	468.11
575.33	388.53
575.49	393.21
575.65	451.72
575.82	437.68
575.98	428.32
576.14	461.09
576.30	482.15
576.46	442.36
576.62	379.17
576.79	479.81
576.95	456.40
577.11	418.96
577.27	369.80
577.43	442.36
577.59	472.79
577.75	386.19
577.92	440.02
578.08	416.62
578.24	404.91
578.40	468.11
578.56	437.68
578.72	437.68
578.88	465.77
579.04	468.11
579.21	400.23
579.37	376.83
579.53	437.68
579.69	500.87
579.85	395.55
580.01	442.36
580.17	395.55
580.33	479.81
580.49	463.43
580.65	402.57
580.82	339.38
580.98	440.02
581.14	418.96
581.30	449.38
581.46	404.91
581.62	435.34
581.78	449.38
581.94	519.60
582.10	402.57
582.26	376.83
582.42	425.98
582.58	423.64
582.74	479.81
582.90	430.66
583.06	411.93
583.22	376.83
583.38	386.19
583.54	465.77
583.70	430.66
583.86	379.17
584.02	365.12
584.18	414.27
584.34	442.36
584.50	451.72
584.66	435.34
584.82	435.34
584.98	416.62
585.14	423.64
585.30	435.34
585.46	437.68
585.62	372.15
585.78	430.66
585.94	374.49
586.10	425.98
586.26	404.91
586.42	444.70
586.58	402.57
586.74	489.17
586.90	358.10
587.06	489.17
587.22	355.76
587.38	402.57
587.54	451.72
587.70	440.02
587.86	376.83
588.02	397.89
588.18	496.19
588.34	397.89
588.49	404.91
588.65	397.89
588.81	397.89
588.97	447.04
589.13	402.57
589.29	442.36
589.45	489.17
589.61	367.46
589.77	437.68
589.93	418.96
590.08	447.04
590.24	400.23
590.40	372.15
590.56	456.40
590.72	379.17
590.88	381.51
591.04	379.17
591.20	374.49
591.35	395.55
591.51	456.40
591.67	407.25
591.83	423.64
591.99	472.79
592.15	442.36
592.31	440.02
592.46	416.62
592.62	430.66
592.78	381.51
592.94	440.02
593.10	510.24
593.26	360.44
593.41	440.02
593.57	442.36
593.73	397.89
593.89	454.06
594.05	388.53
594.20	365.12
594.36	388.53
594.52	409.59
594.68	360.44
594.84	425.98
594.99	517.26
595.15	433.00
595.31	491.51
595.47	444.70
595.62	414.27
595.78	372.15
595.94	442.36
596.10	388.53
596.25	451.72
596.41	437.68
596.57	372.15
596.73	407.25
596.88	381.51
597.04	416.62
597.20	402.57
597.36	393.21
597.51	395.55
597.67	463.43
597.83	386.19
597.99	470.45
598.14	421.30
598.30	470.45
598.46	388.53
598.61	379.17
598.77	376.83
598.93	367.46
599.09	461.09
599.24	386.19
599.40	400.23
599.56	418.96
599.71	491.51
599.87	418.96
600.03	463.43
600.18	423.64
600.34	404.91
600.50	395.55
600.65	437.68
600.81	491.51
600.97	418.96
601.12	430.66
601.28	423.64
601.44	416.62
601.59	414.27
601.75	444.70
601.91	447.04
602.06	433.00
602.22	442.36
602.37	428.32
602.53	390.87
602.69	348.74
602.84	339.38
603.00	369.80
603.16	500.87
603.31	442.36
603.47	435.34
603.62	454.06
603.78	435.34
603.94	367.46
604.09	393.21
604.25	402.57
604.40	468.11
604.56	360.44
604.71	390.87
604.87	372.15
605.03	433.00
605.18	470.45
605.34	440.02
605.49	395.55
605.65	381.51
605.80	355.76
605.96	353.42
606.12	430.66
606.27	435.34
606.43	447.04
606.58	531.30
606.74	402.57
606.89	379.17
607.05	425.98
607.20	358.10
607.36	433.00
607.51	386.19
607.67	339.38
607.82	468.11
607.98	433.00
608.13	444.70
608.29	404.91
608.44	472.79
608.60	416.62
608.75	449.38
608.91	383.85
609.06	482.15
609.22	524.28
609.37	402.57
609.53	451.72
609.68	440.02
609.84	447.04
609.99	437.68
610.15	479.81
