SpectraSuite Data File
++++++++++++++++++++++++++++++++++++
Date: Fri Oct 25 12:10:28 EDT 2013
User: price-jones
Dark Spectrum Present: No
Reference Spectrum Present: No
Number of Sampled Component Spectra: 1
Spectrometers: USB2+H05261
Integration Time (usec): 100000 (USB2+H05261)
Spectra Averaged: 1 (USB2+H05261)
Boxcar Smoothing: 0 (USB2+H05261)
Correct for Electrical Dark: No (USB2+H05261)
Strobe/Lamp Enabled: No (USB2+H05261)
Correct for Detector Non-linearity: No (USB2+H05261)
Correct for Stray Light: No (USB2+H05261)
Number of Pixels in Processed Spectrum: 2048
>>>>>Begin Processed Spectral Data<<<<<
365.73	358.10
365.92	358.10
366.12	358.10
366.32	245.76
366.52	257.46
366.72	290.23
366.91	182.56
367.11	229.37
367.31	236.39
367.51	166.18
367.70	259.80
367.90	215.33
368.10	208.31
368.30	217.67
368.49	266.82
368.69	250.44
368.89	224.69
369.09	222.35
369.28	250.44
369.48	234.05
369.68	351.08
369.87	299.59
370.07	273.84
370.27	332.36
370.47	355.76
370.66	383.85
370.86	369.80
371.06	346.40
371.25	383.85
371.45	409.59
371.65	353.42
371.84	449.38
372.04	369.80
372.24	400.23
372.44	337.04
372.63	393.21
372.83	440.02
373.03	285.55
373.22	337.04
373.42	388.53
373.62	421.30
373.81	339.38
374.01	447.04
374.21	402.57
374.40	423.64
374.60	498.53
374.79	383.85
374.99	374.49
375.19	425.98
375.38	402.57
375.58	390.87
375.78	489.17
375.97	379.17
376.17	437.68
376.37	409.59
376.56	395.55
376.76	388.53
376.95	414.27
377.15	454.06
377.35	440.02
377.54	423.64
377.74	355.76
377.93	381.51
378.13	447.04
378.33	491.51
378.52	411.93
378.72	414.27
378.91	383.85
379.11	404.91
379.31	360.44
379.50	402.57
379.70	470.45
379.89	454.06
380.09	388.53
380.28	351.08
380.48	395.55
380.68	407.25
380.87	416.62
381.07	369.80
381.26	397.89
381.46	414.27
381.65	430.66
381.85	444.70
382.04	395.55
382.24	383.85
382.43	423.64
382.63	397.89
382.83	400.23
383.02	407.25
383.22	428.32
383.41	416.62
383.61	407.25
383.80	346.40
384.00	409.59
384.19	397.89
384.39	379.17
384.58	346.40
384.78	390.87
384.97	456.40
385.17	425.98
385.36	444.70
385.56	458.74
385.75	386.19
385.95	395.55
386.14	372.15
386.34	348.74
386.53	442.36
386.72	407.25
386.92	451.72
387.11	444.70
387.31	519.60
387.50	418.96
387.70	372.15
387.89	407.25
388.09	390.87
388.28	367.46
388.48	430.66
388.67	402.57
388.86	444.70
389.06	451.72
389.25	388.53
389.45	421.30
389.64	355.76
389.84	418.96
390.03	404.91
390.22	348.74
390.42	404.91
390.61	437.68
390.81	411.93
391.00	334.70
391.19	411.93
391.39	306.61
391.58	411.93
391.78	418.96
391.97	334.70
392.16	381.51
392.36	444.70
392.55	372.15
392.75	397.89
392.94	365.12
393.13	451.72
393.33	395.55
393.52	374.49
393.71	414.27
393.91	362.78
394.10	423.64
394.29	451.72
394.49	435.34
394.68	362.78
394.88	433.00
395.07	489.17
395.26	355.76
395.46	418.96
395.65	397.89
395.84	418.96
396.04	395.55
396.23	374.49
396.42	458.74
396.62	388.53
396.81	407.25
397.00	447.04
397.19	379.17
397.39	411.93
397.58	435.34
397.77	430.66
397.97	334.70
398.16	386.19
398.35	358.10
398.55	397.89
398.74	451.72
398.93	379.17
399.12	451.72
399.32	484.49
399.51	400.23
399.70	393.21
399.90	444.70
400.09	421.30
400.28	449.38
400.47	404.91
400.67	484.49
400.86	444.70
401.05	414.27
401.24	428.32
401.44	454.06
401.63	409.59
401.82	437.68
402.01	395.55
402.21	404.91
402.40	390.87
402.59	360.44
402.78	482.15
402.97	386.19
403.17	376.83
403.36	421.30
403.55	348.74
403.74	416.62
403.93	388.53
404.13	437.68
404.32	395.55
404.51	428.32
404.70	416.62
404.89	416.62
405.09	430.66
405.28	468.11
405.47	383.85
405.66	379.17
405.85	414.27
406.05	416.62
406.24	435.34
406.43	411.93
406.62	393.21
406.81	479.81
407.00	479.81
407.20	353.42
407.39	444.70
407.58	344.06
407.77	430.66
407.96	404.91
408.15	402.57
408.34	433.00
408.54	369.80
408.73	402.57
408.92	346.40
409.11	386.19
409.30	416.62
409.49	447.04
409.68	304.27
409.87	376.83
410.07	376.83
410.26	463.43
410.45	395.55
410.64	390.87
410.83	411.93
411.02	404.91
411.21	372.15
411.40	414.27
411.59	351.08
411.78	458.74
411.98	351.08
412.17	402.57
412.36	393.21
412.55	425.98
412.74	454.06
412.93	456.40
413.12	444.70
413.31	414.27
413.50	507.90
413.69	402.57
413.88	425.98
414.07	486.83
414.26	397.89
414.45	404.91
414.64	458.74
414.83	383.85
415.02	369.80
415.22	409.59
415.41	383.85
415.60	418.96
415.79	472.79
415.98	372.15
416.17	376.83
416.36	411.93
416.55	411.93
416.74	498.53
416.93	514.92
417.12	418.96
417.31	418.96
417.50	374.49
417.69	463.43
417.88	421.30
418.07	334.70
418.26	397.89
418.45	369.80
418.64	454.06
418.83	470.45
419.02	395.55
419.21	435.34
419.39	468.11
419.58	423.64
419.77	386.19
419.96	442.36
420.15	433.00
420.34	433.00
420.53	489.17
420.72	433.00
420.91	449.38
421.10	456.40
421.29	442.36
421.48	472.79
421.67	425.98
421.86	409.59
422.05	402.57
422.24	451.72
422.43	440.02
422.61	456.40
422.80	421.30
422.99	414.27
423.18	388.53
423.37	449.38
423.56	428.32
423.75	374.49
423.94	393.21
424.13	388.53
424.32	355.76
424.50	372.15
424.69	463.43
424.88	423.64
425.07	416.62
425.26	425.98
425.45	418.96
425.64	353.42
425.83	376.83
426.01	433.00
426.20	376.83
426.39	407.25
426.58	451.72
426.77	496.19
426.96	428.32
427.15	451.72
427.33	418.96
427.52	388.53
427.71	479.81
427.90	395.55
428.09	416.62
428.28	421.30
428.46	442.36
428.65	444.70
428.84	404.91
429.03	489.17
429.22	454.06
429.40	430.66
429.59	442.36
429.78	437.68
429.97	386.19
430.16	456.40
430.34	393.21
430.53	442.36
430.72	477.47
430.91	362.78
431.10	339.38
431.28	423.64
431.47	407.25
431.66	463.43
431.85	414.27
432.03	470.45
432.22	442.36
432.41	475.13
432.60	456.40
432.79	409.59
432.97	454.06
433.16	390.87
433.35	416.62
433.54	337.04
433.72	390.87
433.91	374.49
434.10	421.30
434.28	433.00
434.47	425.98
434.66	414.27
434.85	423.64
435.03	414.27
435.22	416.62
435.41	477.47
435.59	475.13
435.78	388.53
435.97	444.70
436.16	428.32
436.34	372.15
436.53	428.32
436.72	475.13
436.90	465.77
437.09	407.25
437.28	381.51
437.46	404.91
437.65	397.89
437.84	425.98
438.02	425.98
438.21	444.70
438.40	397.89
438.58	404.91
438.77	425.98
438.96	351.08
439.14	372.15
439.33	358.10
439.52	454.06
439.70	411.93
439.89	468.11
440.08	362.78
440.26	372.15
440.45	425.98
440.63	393.21
440.82	404.91
441.01	379.17
441.19	416.62
441.38	449.38
441.57	341.72
441.75	418.96
441.94	374.49
442.12	435.34
442.31	365.12
442.50	435.34
442.68	337.04
442.87	355.76
443.05	348.74
443.24	435.34
443.43	409.59
443.61	430.66
443.80	442.36
443.98	386.19
444.17	428.32
444.35	444.70
444.54	386.19
444.73	418.96
444.91	477.47
445.10	444.70
445.28	360.44
445.47	407.25
445.65	402.57
445.84	362.78
446.02	360.44
446.21	381.51
446.39	416.62
446.58	449.38
446.77	430.66
446.95	397.89
447.14	381.51
447.32	379.17
447.51	433.00
447.69	435.34
447.88	379.17
448.06	442.36
448.25	430.66
448.43	416.62
448.62	397.89
448.80	355.76
448.99	414.27
449.17	465.77
449.36	461.09
449.54	411.93
449.73	433.00
449.91	402.57
450.10	376.83
450.28	423.64
450.46	463.43
450.65	496.19
450.83	423.64
451.02	496.19
451.20	404.91
451.39	365.12
451.57	409.59
451.76	407.25
451.94	402.57
452.13	491.51
452.31	428.32
452.49	440.02
452.68	428.32
452.86	355.76
453.05	433.00
453.23	383.85
453.42	430.66
453.60	383.85
453.78	395.55
453.97	411.93
454.15	390.87
454.34	390.87
454.52	346.40
454.70	479.81
454.89	409.59
455.07	435.34
455.26	386.19
455.44	369.80
455.62	353.42
455.81	386.19
455.99	416.62
456.17	379.17
456.36	465.77
456.54	348.74
456.73	365.12
456.91	407.25
457.09	390.87
457.28	454.06
457.46	433.00
457.64	440.02
457.83	390.87
458.01	344.06
458.19	451.72
458.38	402.57
458.56	388.53
458.74	444.70
458.93	414.27
459.11	428.32
459.29	369.80
459.48	402.57
459.66	379.17
459.84	437.68
460.03	550.03
460.21	393.21
460.39	465.77
460.57	440.02
460.76	451.72
460.94	440.02
461.12	379.17
461.31	425.98
461.49	418.96
461.67	409.59
461.85	388.53
462.04	409.59
462.22	807.48
462.40	355.76
462.59	444.70
462.77	433.00
462.95	395.55
463.13	468.11
463.32	512.58
463.50	493.85
463.68	369.80
463.86	442.36
464.05	339.38
464.23	468.11
464.41	407.25
464.59	458.74
464.78	353.42
464.96	315.97
465.14	456.40
465.32	402.57
465.50	451.72
465.69	351.08
465.87	437.68
466.05	451.72
466.23	365.12
466.41	402.57
466.60	418.96
466.78	409.59
466.96	423.64
467.14	393.21
467.32	397.89
467.51	411.93
467.69	451.72
467.87	428.32
468.05	360.44
468.23	451.72
468.41	437.68
468.60	379.17
468.78	362.78
468.96	397.89
469.14	430.66
469.32	369.80
469.50	397.89
469.69	404.91
469.87	383.85
470.05	519.60
470.23	430.66
470.41	407.25
470.59	320.65
470.77	390.87
470.95	416.62
471.14	428.32
471.32	409.59
471.50	383.85
471.68	418.96
471.86	440.02
472.04	383.85
472.22	407.25
472.40	344.06
472.58	362.78
472.77	407.25
472.95	433.00
473.13	397.89
473.31	472.79
473.49	451.72
473.67	397.89
473.85	402.57
474.03	416.62
474.21	409.59
474.39	442.36
474.57	421.30
474.75	400.23
474.93	397.89
475.12	353.42
475.30	437.68
475.48	430.66
475.66	407.25
475.84	400.23
476.02	355.76
476.20	411.93
476.38	383.85
476.56	447.04
476.74	435.34
476.92	416.62
477.10	442.36
477.28	465.77
477.46	322.99
477.64	416.62
477.82	418.96
478.00	367.46
478.18	411.93
478.36	465.77
478.54	411.93
478.72	423.64
478.90	362.78
479.08	486.83
479.26	367.46
479.44	365.12
479.62	440.02
479.80	369.80
479.98	372.15
480.16	318.31
480.34	447.04
480.52	489.17
480.70	369.80
480.88	397.89
481.06	418.96
481.24	402.57
481.41	407.25
481.59	442.36
481.77	437.68
481.95	433.00
482.13	388.53
482.31	372.15
482.49	463.43
482.67	402.57
482.85	449.38
483.03	444.70
483.21	477.47
483.39	421.30
483.57	435.34
483.74	468.11
483.92	458.74
484.10	402.57
484.28	421.30
484.46	456.40
484.64	330.02
484.82	437.68
485.00	397.89
485.18	388.53
485.35	388.53
485.53	355.76
485.71	381.51
485.89	437.68
486.07	365.12
486.25	512.58
486.43	435.34
486.61	435.34
486.78	414.27
486.96	411.93
487.14	372.15
487.32	383.85
487.50	388.53
487.68	435.34
487.85	414.27
488.03	409.59
488.21	409.59
488.39	400.23
488.57	449.38
488.75	337.04
488.92	418.96
489.10	390.87
489.28	430.66
489.46	348.74
489.64	444.70
489.81	430.66
489.99	458.74
490.17	463.43
490.35	428.32
490.53	404.91
490.70	369.80
490.88	451.72
491.06	344.06
491.24	440.02
491.41	393.21
491.59	465.77
491.77	440.02
491.95	393.21
492.13	330.02
492.30	447.04
492.48	428.32
492.66	423.64
492.84	411.93
493.01	472.79
493.19	379.17
493.37	458.74
493.54	437.68
493.72	397.89
493.90	376.83
494.08	390.87
494.25	397.89
494.43	358.10
494.61	383.85
494.79	367.46
494.96	367.46
495.14	433.00
495.32	477.47
495.49	416.62
495.67	404.91
495.85	440.02
496.02	358.10
496.20	400.23
496.38	376.83
496.55	484.49
496.73	456.40
496.91	360.44
497.09	430.66
497.26	423.64
497.44	496.19
497.62	514.92
497.79	421.30
497.97	374.49
498.14	397.89
498.32	418.96
498.50	440.02
498.67	409.59
498.85	411.93
499.03	355.76
499.20	458.74
499.38	369.80
499.56	344.06
499.73	397.89
499.91	421.30
500.08	358.10
500.26	440.02
500.44	360.44
500.61	454.06
500.79	409.59
500.97	404.91
501.14	421.30
501.32	416.62
501.49	475.13
501.67	346.40
501.84	428.32
502.02	376.83
502.20	486.83
502.37	442.36
502.55	365.12
502.72	470.45
502.90	381.51
503.07	397.89
503.25	402.57
503.43	451.72
503.60	437.68
503.78	402.57
503.95	372.15
504.13	372.15
504.30	372.15
504.48	468.11
504.65	444.70
504.83	458.74
505.01	388.53
505.18	393.21
505.36	423.64
505.53	414.27
505.71	397.89
505.88	475.13
506.06	367.46
506.23	360.44
506.41	428.32
506.58	404.91
506.76	381.51
506.93	379.17
507.11	465.77
507.28	475.13
507.46	346.40
507.63	353.42
507.81	393.21
507.98	369.80
508.16	381.51
508.33	449.38
508.50	395.55
508.68	409.59
508.85	339.38
509.03	461.09
509.20	414.27
509.38	362.78
509.55	465.77
509.73	374.49
509.90	414.27
510.08	454.06
510.25	411.93
510.42	425.98
510.60	381.51
510.77	393.21
510.95	444.70
511.12	379.17
511.30	407.25
511.47	437.68
511.64	449.38
511.82	461.09
511.99	393.21
512.17	381.51
512.34	400.23
512.51	369.80
512.69	383.85
512.86	407.25
513.04	451.72
513.21	428.32
513.38	447.04
513.56	449.38
513.73	397.89
513.90	430.66
514.08	372.15
514.25	433.00
514.43	393.21
514.60	379.17
514.77	383.85
514.95	451.72
515.12	400.23
515.29	388.53
515.47	461.09
515.64	423.64
515.81	402.57
515.99	461.09
516.16	430.66
516.33	479.81
516.51	425.98
516.68	421.30
516.85	400.23
517.03	425.98
517.20	472.79
517.37	374.49
517.54	442.36
517.72	351.08
517.89	404.91
518.06	442.36
518.24	484.49
518.41	475.13
518.58	404.91
518.75	390.87
518.93	372.15
519.10	388.53
519.27	468.11
519.45	428.32
519.62	400.23
519.79	442.36
519.96	330.02
520.14	376.83
520.31	430.66
520.48	435.34
520.65	383.85
520.83	411.93
521.00	442.36
521.17	437.68
521.34	449.38
521.52	409.59
521.69	470.45
521.86	437.68
522.03	505.56
522.20	414.27
522.38	430.66
522.55	444.70
522.72	397.89
522.89	383.85
523.07	463.43
523.24	463.43
523.41	395.55
523.58	379.17
523.75	360.44
523.92	418.96
524.10	351.08
524.27	404.91
524.44	404.91
524.61	397.89
524.78	440.02
524.96	440.02
525.13	451.72
525.30	428.32
525.47	479.81
525.64	390.87
525.81	435.34
525.98	393.21
526.16	332.36
526.33	418.96
526.50	418.96
526.67	451.72
526.84	383.85
527.01	407.25
527.18	386.19
527.36	447.04
527.53	325.33
527.70	454.06
527.87	397.89
528.04	449.38
528.21	360.44
528.38	449.38
528.55	465.77
528.72	435.34
528.89	430.66
529.07	447.04
529.24	395.55
529.41	388.53
529.58	425.98
529.75	418.96
529.92	456.40
530.09	458.74
530.26	437.68
530.43	435.34
530.60	376.83
530.77	404.91
530.94	425.98
531.11	404.91
531.28	414.27
531.46	430.66
531.63	381.51
531.80	374.49
531.97	479.81
532.14	461.09
532.31	416.62
532.48	491.51
532.65	449.38
532.82	454.06
532.99	351.08
533.16	428.32
533.33	386.19
533.50	409.59
533.67	514.92
533.84	475.13
534.01	372.15
534.18	400.23
534.35	423.64
534.52	411.93
534.69	414.27
534.86	454.06
535.03	407.25
535.20	418.96
535.37	353.42
535.54	482.15
535.71	395.55
535.88	449.38
536.05	383.85
536.22	411.93
536.38	421.30
536.55	465.77
536.72	491.51
536.89	411.93
537.06	421.30
537.23	315.97
537.40	493.85
537.57	404.91
537.74	461.09
537.91	372.15
538.08	435.34
538.25	404.91
538.42	428.32
538.59	407.25
538.75	430.66
538.92	472.79
539.09	442.36
539.26	402.57
539.43	477.47
539.60	444.70
539.77	475.13
539.94	451.72
540.11	479.81
540.28	458.74
540.44	416.62
540.61	442.36
540.78	437.68
540.95	421.30
541.12	442.36
541.29	472.79
541.46	472.79
541.62	433.00
541.79	423.64
541.96	372.15
542.13	454.06
542.30	369.80
542.47	475.13
542.63	311.29
542.80	388.53
542.97	428.32
543.14	430.66
543.31	409.59
543.48	444.70
543.64	421.30
543.81	433.00
543.98	418.96
544.15	367.46
544.32	397.89
544.48	351.08
544.65	433.00
544.82	425.98
544.99	477.47
545.16	344.06
545.32	425.98
545.49	435.34
545.66	463.43
545.83	435.34
546.00	423.64
546.16	428.32
546.33	423.64
546.50	458.74
546.67	351.08
546.83	409.59
547.00	433.00
547.17	390.87
547.34	414.27
547.50	433.00
547.67	409.59
547.84	393.21
548.00	456.40
548.17	475.13
548.34	395.55
548.51	404.91
548.67	500.87
548.84	435.34
549.01	418.96
549.18	423.64
549.34	451.72
549.51	435.34
549.68	379.17
549.84	451.72
550.01	390.87
550.18	496.19
550.34	470.45
550.51	390.87
550.68	433.00
550.84	449.38
551.01	430.66
551.18	407.25
551.34	411.93
551.51	404.91
551.68	409.59
551.84	447.04
552.01	496.19
552.18	383.85
552.34	418.96
552.51	449.38
552.68	418.96
552.84	416.62
553.01	386.19
553.18	348.74
553.34	444.70
553.51	353.42
553.67	407.25
553.84	433.00
554.01	386.19
554.17	447.04
554.34	397.89
554.51	397.89
554.67	440.02
554.84	395.55
555.00	477.47
555.17	393.21
555.33	491.51
555.50	437.68
555.67	388.53
555.83	395.55
556.00	428.32
556.16	496.19
556.33	418.96
556.50	400.23
556.66	393.21
556.83	390.87
556.99	395.55
557.16	435.34
557.32	400.23
557.49	489.17
557.65	332.36
557.82	409.59
557.98	468.11
558.15	400.23
558.32	451.72
558.48	475.13
558.65	365.12
558.81	402.57
558.98	414.27
559.14	465.77
559.31	505.56
559.47	472.79
559.64	372.15
559.80	397.89
559.97	402.57
560.13	418.96
560.30	344.06
560.46	454.06
560.63	388.53
560.79	407.25
560.96	390.87
561.12	465.77
561.29	440.02
561.45	468.11
561.61	411.93
561.78	547.69
561.94	458.74
562.11	397.89
562.27	421.30
562.44	451.72
562.60	409.59
562.77	414.27
562.93	421.30
563.10	444.70
563.26	404.91
563.42	425.98
563.59	409.59
563.75	390.87
563.92	395.55
564.08	477.47
564.24	416.62
564.41	493.85
564.57	397.89
564.74	379.17
564.90	423.64
565.07	425.98
565.23	477.47
565.39	390.87
565.56	463.43
565.72	500.87
565.88	425.98
566.05	409.59
566.21	425.98
566.38	411.93
566.54	442.36
566.70	437.68
566.87	411.93
567.03	372.15
567.19	475.13
567.36	482.15
567.52	454.06
567.68	425.98
567.85	402.57
568.01	444.70
568.17	407.25
568.34	482.15
568.50	449.38
568.66	402.57
568.83	456.40
568.99	456.40
569.15	428.32
569.32	458.74
569.48	386.19
569.64	395.55
569.81	381.51
569.97	463.43
570.13	390.87
570.30	423.64
570.46	404.91
570.62	461.09
570.78	477.47
570.95	346.40
571.11	435.34
571.27	433.00
571.43	388.53
571.60	428.32
571.76	411.93
571.92	491.51
572.09	423.64
572.25	447.04
572.41	390.87
572.57	397.89
572.74	458.74
572.90	470.45
573.06	472.79
573.22	430.66
573.38	421.30
573.55	418.96
573.71	505.56
573.87	468.11
574.03	346.40
574.20	442.36
574.36	435.34
574.52	409.59
574.68	395.55
574.84	435.34
575.01	435.34
575.17	418.96
575.33	454.06
575.49	447.04
575.65	456.40
575.82	486.83
575.98	428.32
576.14	381.51
576.30	358.10
576.46	421.30
576.62	444.70
576.79	428.32
576.95	519.60
577.11	376.83
577.27	386.19
577.43	421.30
577.59	358.10
577.75	468.11
577.92	379.17
578.08	423.64
578.24	388.53
578.40	442.36
578.56	503.22
578.72	437.68
578.88	411.93
579.04	425.98
579.21	444.70
579.37	407.25
579.53	344.06
579.69	440.02
579.85	440.02
580.01	491.51
580.17	409.59
580.33	428.32
580.49	465.77
580.65	409.59
580.82	458.74
580.98	428.32
581.14	348.74
581.30	444.70
581.46	444.70
581.62	376.83
581.78	348.74
581.94	383.85
582.10	383.85
582.26	360.44
582.42	397.89
582.58	402.57
582.74	475.13
582.90	496.19
583.06	435.34
583.22	390.87
583.38	454.06
583.54	507.90
583.70	411.93
583.86	367.46
584.02	421.30
584.18	458.74
584.34	449.38
584.50	386.19
584.66	395.55
584.82	402.57
584.98	409.59
585.14	461.09
585.30	489.17
585.46	447.04
585.62	388.53
585.78	404.91
585.94	409.59
586.10	418.96
586.26	395.55
586.42	414.27
586.58	491.51
586.74	411.93
586.90	435.34
587.06	437.68
587.22	346.40
587.38	386.19
587.54	390.87
587.70	465.77
587.86	463.43
588.02	381.51
588.18	407.25
588.34	433.00
588.49	386.19
588.65	442.36
588.81	461.09
588.97	416.62
589.13	442.36
589.29	393.21
589.45	484.49
589.61	430.66
589.77	395.55
589.93	442.36
590.08	454.06
590.24	388.53
590.40	423.64
590.56	374.49
590.72	367.46
590.88	428.32
591.04	472.79
591.20	358.10
591.35	393.21
591.51	470.45
591.67	491.51
591.83	362.78
591.99	463.43
592.15	449.38
592.31	447.04
592.46	468.11
592.62	447.04
592.78	409.59
592.94	404.91
593.10	425.98
593.26	308.95
593.41	451.72
593.57	367.46
593.73	369.80
593.89	458.74
594.05	376.83
594.20	414.27
594.36	498.53
594.52	400.23
594.68	423.64
594.84	449.38
594.99	358.10
595.15	461.09
595.31	404.91
595.47	423.64
595.62	425.98
595.78	433.00
595.94	416.62
596.10	423.64
596.25	444.70
596.41	418.96
596.57	407.25
596.73	437.68
596.88	411.93
597.04	416.62
597.20	386.19
597.36	397.89
597.51	388.53
597.67	306.61
597.83	472.79
597.99	479.81
598.14	374.49
598.30	421.30
598.46	433.00
598.61	430.66
598.77	404.91
598.93	390.87
599.09	416.62
599.24	440.02
599.40	491.51
599.56	425.98
599.71	395.55
599.87	376.83
600.03	442.36
600.18	393.21
600.34	442.36
600.50	433.00
600.65	393.21
600.81	479.81
600.97	402.57
601.12	353.42
601.28	428.32
601.44	428.32
601.59	376.83
601.75	351.08
601.91	423.64
602.06	409.59
602.22	531.30
602.37	411.93
602.53	355.76
602.69	421.30
602.84	437.68
603.00	372.15
603.16	470.45
603.31	456.40
603.47	362.78
603.62	386.19
603.78	416.62
603.94	435.34
604.09	430.66
604.25	461.09
604.40	421.30
604.56	430.66
604.71	444.70
604.87	374.49
605.03	393.21
605.18	442.36
605.34	374.49
605.49	423.64
605.65	463.43
605.80	442.36
605.96	437.68
606.12	404.91
606.27	442.36
606.43	402.57
606.58	421.30
606.74	430.66
606.89	444.70
607.05	449.38
607.20	456.40
607.36	430.66
607.51	365.12
607.67	430.66
607.82	418.96
607.98	404.91
608.13	435.34
608.29	416.62
608.44	407.25
608.60	433.00
608.75	386.19
608.91	428.32
609.06	423.64
609.22	440.02
609.37	423.64
609.53	358.10
609.68	362.78
609.84	435.34
609.99	402.57
610.15	388.53
