SpectraSuite Data File
++++++++++++++++++++++++++++++++++++
Date: Fri Oct 25 12:10:59 EDT 2013
User: price-jones
Dark Spectrum Present: No
Reference Spectrum Present: No
Number of Sampled Component Spectra: 1
Spectrometers: USB2+H05261
Integration Time (usec): 100000 (USB2+H05261)
Spectra Averaged: 1 (USB2+H05261)
Boxcar Smoothing: 0 (USB2+H05261)
Correct for Electrical Dark: No (USB2+H05261)
Strobe/Lamp Enabled: No (USB2+H05261)
Correct for Detector Non-linearity: No (USB2+H05261)
Correct for Stray Light: No (USB2+H05261)
Number of Pixels in Processed Spectrum: 2048
>>>>>Begin Processed Spectral Data<<<<<
365.73	332.36
365.92	332.36
366.12	332.36
366.32	301.93
366.52	231.71
366.72	315.97
366.91	229.37
367.11	283.20
367.31	194.26
367.51	189.58
367.70	285.55
367.90	257.46
368.10	266.82
368.30	212.99
368.49	262.14
368.69	315.97
368.89	215.33
369.09	322.99
369.28	245.76
369.48	224.69
369.68	285.55
369.87	210.65
370.07	285.55
370.27	304.27
370.47	358.10
370.66	365.12
370.86	381.51
371.06	409.59
371.25	444.70
371.45	344.06
371.65	360.44
371.84	332.36
372.04	355.76
372.24	418.96
372.44	437.68
372.63	400.23
372.83	388.53
373.03	437.68
373.22	456.40
373.42	362.78
373.62	430.66
373.81	414.27
374.01	449.38
374.21	463.43
374.40	372.15
374.60	372.15
374.79	423.64
374.99	393.21
375.19	468.11
375.38	433.00
375.58	360.44
375.78	372.15
375.97	477.47
376.17	409.59
376.37	395.55
376.56	337.04
376.76	423.64
376.95	423.64
377.15	421.30
377.35	365.12
377.54	404.91
377.74	407.25
377.93	358.10
378.13	365.12
378.33	404.91
378.52	353.42
378.72	421.30
378.91	437.68
379.11	418.96
379.31	365.12
379.50	428.32
379.70	383.85
379.89	411.93
380.09	418.96
380.28	468.11
380.48	379.17
380.68	388.53
380.87	418.96
381.07	416.62
381.26	444.70
381.46	381.51
381.65	425.98
381.85	400.23
382.04	421.30
382.24	433.00
382.43	381.51
382.63	393.21
382.83	402.57
383.02	423.64
383.22	440.02
383.41	414.27
383.61	393.21
383.80	444.70
384.00	442.36
384.19	491.51
384.39	416.62
384.58	351.08
384.78	365.12
384.97	423.64
385.17	383.85
385.36	388.53
385.56	400.23
385.75	390.87
385.95	407.25
386.14	395.55
386.34	383.85
386.53	416.62
386.72	379.17
386.92	407.25
387.11	442.36
387.31	416.62
387.50	376.83
387.70	423.64
387.89	390.87
388.09	365.12
388.28	390.87
388.48	423.64
388.67	418.96
388.86	365.12
389.06	376.83
389.25	496.19
389.45	409.59
389.64	423.64
389.84	440.02
390.03	407.25
390.22	433.00
390.42	435.34
390.61	374.49
390.81	442.36
391.00	416.62
391.19	463.43
391.39	437.68
391.58	418.96
391.78	407.25
391.97	449.38
392.16	449.38
392.36	433.00
392.55	404.91
392.75	435.34
392.94	395.55
393.13	414.27
393.33	444.70
393.52	390.87
393.71	397.89
393.91	362.78
394.10	400.23
394.29	404.91
394.49	400.23
394.68	397.89
394.88	374.49
395.07	416.62
395.26	397.89
395.46	447.04
395.65	376.83
395.84	365.12
396.04	503.22
396.23	409.59
396.42	444.70
396.62	425.98
396.81	461.09
397.00	451.72
397.19	315.97
397.39	383.85
397.58	388.53
397.77	381.51
397.97	402.57
398.16	407.25
398.35	461.09
398.55	444.70
398.74	402.57
398.93	444.70
399.12	351.08
399.32	411.93
399.51	470.45
399.70	367.46
399.90	444.70
400.09	433.00
400.28	451.72
400.47	351.08
400.67	423.64
400.86	465.77
401.05	454.06
401.24	418.96
401.44	376.83
401.63	407.25
401.82	425.98
402.01	383.85
402.21	332.36
402.40	454.06
402.59	416.62
402.78	400.23
402.97	409.59
403.17	454.06
403.36	440.02
403.55	393.21
403.74	348.74
403.93	411.93
404.13	400.23
404.32	458.74
404.51	433.00
404.70	519.60
404.89	496.19
405.09	395.55
405.28	435.34
405.47	383.85
405.66	400.23
405.85	440.02
406.05	358.10
406.24	339.38
406.43	414.27
406.62	444.70
406.81	414.27
407.00	407.25
407.20	442.36
407.39	428.32
407.58	365.12
407.77	447.04
407.96	433.00
408.15	381.51
408.34	367.46
408.54	407.25
408.73	393.21
408.92	503.22
409.11	374.49
409.30	397.89
409.49	421.30
409.68	358.10
409.87	416.62
410.07	315.97
410.26	381.51
410.45	418.96
410.64	414.27
410.83	355.76
411.02	346.40
411.21	454.06
411.40	472.79
411.59	423.64
411.78	386.19
411.98	454.06
412.17	390.87
412.36	468.11
412.55	355.76
412.74	440.02
412.93	435.34
413.12	482.15
413.31	449.38
413.50	386.19
413.69	379.17
413.88	407.25
414.07	400.23
414.26	395.55
414.45	404.91
414.64	376.83
414.83	411.93
415.02	379.17
415.22	493.85
415.41	369.80
415.60	339.38
415.79	372.15
415.98	458.74
416.17	369.80
416.36	402.57
416.55	409.59
416.74	454.06
416.93	381.51
417.12	390.87
417.31	395.55
417.50	402.57
417.69	409.59
417.88	393.21
418.07	330.02
418.26	414.27
418.45	372.15
418.64	430.66
418.83	376.83
419.02	418.96
419.21	397.89
419.39	407.25
419.58	418.96
419.77	334.70
419.96	442.36
420.15	418.96
420.34	381.51
420.53	486.83
420.72	491.51
420.91	463.43
421.10	386.19
421.29	416.62
421.48	458.74
421.67	456.40
421.86	402.57
422.05	433.00
422.24	407.25
422.43	491.51
422.61	472.79
422.80	409.59
422.99	425.98
423.18	341.72
423.37	433.00
423.56	451.72
423.75	355.76
423.94	477.47
424.13	388.53
424.32	421.30
424.50	458.74
424.69	425.98
424.88	376.83
425.07	435.34
425.26	435.34
425.45	423.64
425.64	383.85
425.83	444.70
426.01	440.02
426.20	470.45
426.39	330.02
426.58	337.04
426.77	437.68
426.96	393.21
427.15	435.34
427.33	428.32
427.52	475.13
427.71	404.91
427.90	409.59
428.09	465.77
428.28	482.15
428.46	433.00
428.65	381.51
428.84	447.04
429.03	433.00
429.22	407.25
429.40	372.15
429.59	435.34
429.78	425.98
429.97	456.40
430.16	402.57
430.34	451.72
430.53	411.93
430.72	468.11
430.91	386.19
431.10	433.00
431.28	465.77
431.47	414.27
431.66	390.87
431.85	461.09
432.03	451.72
432.22	442.36
432.41	470.45
432.60	463.43
432.79	444.70
432.97	411.93
433.16	407.25
433.35	416.62
433.54	423.64
433.72	407.25
433.91	463.43
434.10	484.49
434.28	428.32
434.47	421.30
434.66	416.62
434.85	390.87
435.03	397.89
435.22	409.59
435.41	463.43
435.59	397.89
435.78	395.55
435.97	437.68
436.16	388.53
436.34	437.68
436.53	442.36
436.72	383.85
436.90	442.36
437.09	447.04
437.28	334.70
437.46	430.66
437.65	437.68
437.84	425.98
438.02	454.06
438.21	388.53
438.40	393.21
438.58	327.68
438.77	374.49
438.96	430.66
439.14	341.72
439.33	409.59
439.52	418.96
439.70	482.15
439.89	404.91
440.08	395.55
440.26	376.83
440.45	493.85
440.63	381.51
440.82	379.17
441.01	386.19
441.19	430.66
441.38	418.96
441.57	393.21
441.75	463.43
441.94	437.68
442.12	425.98
442.31	404.91
442.50	376.83
442.68	416.62
442.87	369.80
443.05	388.53
443.24	411.93
443.43	421.30
443.61	397.89
443.80	414.27
443.98	449.38
444.17	423.64
444.35	390.87
444.54	407.25
444.73	390.87
444.91	461.09
445.10	400.23
445.28	397.89
445.47	437.68
445.65	360.44
445.84	341.72
446.02	397.89
446.21	379.17
446.39	372.15
446.58	414.27
446.77	421.30
446.95	348.74
447.14	411.93
447.32	540.66
447.51	383.85
447.69	411.93
447.88	393.21
448.06	465.77
448.25	444.70
448.43	397.89
448.62	411.93
448.80	433.00
448.99	465.77
449.17	360.44
449.36	440.02
449.54	411.93
449.73	425.98
449.91	416.62
450.10	505.56
450.28	433.00
450.46	353.42
450.65	468.11
450.83	376.83
451.02	374.49
451.20	468.11
451.39	461.09
451.57	440.02
451.76	449.38
451.94	444.70
452.13	418.96
452.31	440.02
452.49	409.59
452.68	400.23
452.86	360.44
453.05	440.02
453.23	400.23
453.42	435.34
453.60	402.57
453.78	346.40
453.97	400.23
454.15	365.12
454.34	409.59
454.52	472.79
454.70	407.25
454.89	367.46
455.07	397.89
455.26	479.81
455.44	374.49
455.62	383.85
455.81	456.40
455.99	388.53
456.17	421.30
456.36	379.17
456.54	437.68
456.73	369.80
456.91	376.83
457.09	362.78
457.28	451.72
457.46	449.38
457.64	456.40
457.83	372.15
458.01	404.91
458.19	404.91
458.38	358.10
458.56	393.21
458.74	374.49
458.93	365.12
459.11	327.68
459.29	421.30
459.48	463.43
459.66	496.19
459.84	425.98
460.03	507.90
460.21	465.77
460.39	416.62
460.57	440.02
460.76	397.89
460.94	416.62
461.12	479.81
461.31	470.45
461.49	461.09
461.67	358.10
461.85	376.83
462.04	404.91
462.22	528.96
462.40	390.87
462.59	433.00
462.77	425.98
462.95	358.10
463.13	346.40
463.32	435.34
463.50	369.80
463.68	386.19
463.86	454.06
464.05	430.66
464.23	376.83
464.41	465.77
464.59	395.55
464.78	400.23
464.96	388.53
465.14	468.11
465.32	376.83
465.50	425.98
465.69	425.98
465.87	442.36
466.05	423.64
466.23	425.98
466.41	390.87
466.60	351.08
466.78	496.19
466.96	503.22
467.14	374.49
467.32	381.51
467.51	418.96
467.69	337.04
467.87	435.34
468.05	414.27
468.23	463.43
468.41	475.13
468.60	444.70
468.78	461.09
468.96	430.66
469.14	397.89
469.32	369.80
469.50	447.04
469.69	437.68
469.87	372.15
470.05	395.55
470.23	442.36
470.41	409.59
470.59	400.23
470.77	430.66
470.95	440.02
471.14	409.59
471.32	390.87
471.50	456.40
471.68	423.64
471.86	444.70
472.04	376.83
472.22	423.64
472.40	475.13
472.58	421.30
472.77	397.89
472.95	449.38
473.13	435.34
473.31	414.27
473.49	355.76
473.67	409.59
473.85	550.03
474.03	369.80
474.21	463.43
474.39	449.38
474.57	482.15
474.75	454.06
474.93	404.91
475.12	404.91
475.30	440.02
475.48	433.00
475.66	425.98
475.84	440.02
476.02	456.40
476.20	521.94
476.38	435.34
476.56	470.45
476.74	416.62
476.92	360.44
477.10	346.40
477.28	404.91
477.46	330.02
477.64	416.62
477.82	395.55
478.00	411.93
478.18	437.68
478.36	393.21
478.54	365.12
478.72	390.87
478.90	367.46
479.08	440.02
479.26	409.59
479.44	395.55
479.62	358.10
479.80	390.87
479.98	386.19
480.16	416.62
480.34	425.98
480.52	451.72
480.70	435.34
480.88	418.96
481.06	325.33
481.24	383.85
481.41	421.30
481.59	393.21
481.77	440.02
481.95	365.12
482.13	505.56
482.31	409.59
482.49	334.70
482.67	461.09
482.85	440.02
483.03	472.79
483.21	421.30
483.39	383.85
483.57	447.04
483.74	409.59
483.92	423.64
484.10	351.08
484.28	425.98
484.46	482.15
484.64	379.17
484.82	374.49
485.00	414.27
485.18	486.83
485.35	407.25
485.53	341.72
485.71	409.59
485.89	325.33
486.07	435.34
486.25	503.22
486.43	442.36
486.61	402.57
486.78	425.98
486.96	402.57
487.14	421.30
487.32	456.40
487.50	383.85
487.68	435.34
487.85	390.87
488.03	451.72
488.21	355.76
488.39	376.83
488.57	479.81
488.75	437.68
488.92	468.11
489.10	451.72
489.28	404.91
489.46	418.96
489.64	411.93
489.81	475.13
489.99	433.00
490.17	397.89
490.35	456.40
490.53	475.13
490.70	414.27
490.88	444.70
491.06	367.46
491.24	449.38
491.41	512.58
491.59	383.85
491.77	397.89
491.95	332.36
492.13	334.70
492.30	425.98
492.48	482.15
492.66	381.51
492.84	388.53
493.01	411.93
493.19	388.53
493.37	489.17
493.54	386.19
493.72	428.32
493.90	402.57
494.08	341.72
494.25	418.96
494.43	456.40
494.61	397.89
494.79	451.72
494.96	393.21
495.14	407.25
495.32	353.42
495.49	425.98
495.67	458.74
495.85	447.04
496.02	416.62
496.20	341.72
496.38	414.27
496.55	486.83
496.73	383.85
496.91	449.38
497.09	433.00
497.26	449.38
497.44	395.55
497.62	468.11
497.79	353.42
497.97	386.19
498.14	416.62
498.32	461.09
498.50	404.91
498.67	423.64
498.85	425.98
499.03	440.02
499.20	332.36
499.38	402.57
499.56	407.25
499.73	395.55
499.91	430.66
500.08	423.64
500.26	400.23
500.44	355.76
500.61	414.27
500.79	465.77
500.97	472.79
501.14	414.27
501.32	449.38
501.49	409.59
501.67	451.72
501.84	409.59
502.02	428.32
502.20	442.36
502.37	386.19
502.55	447.04
502.72	341.72
502.90	418.96
503.07	390.87
503.25	402.57
503.43	423.64
503.60	484.49
503.78	435.34
503.95	376.83
504.13	376.83
504.30	477.47
504.48	449.38
504.65	351.08
504.83	435.34
505.01	390.87
505.18	435.34
505.36	430.66
505.53	428.32
505.71	449.38
505.88	491.51
506.06	440.02
506.23	442.36
506.41	442.36
506.58	435.34
506.76	425.98
506.93	402.57
507.11	493.85
507.28	416.62
507.46	458.74
507.63	423.64
507.81	360.44
507.98	386.19
508.16	369.80
508.33	390.87
508.50	425.98
508.68	440.02
508.85	435.34
509.03	491.51
509.20	360.44
509.38	386.19
509.55	402.57
509.73	388.53
509.90	423.64
510.08	449.38
510.25	451.72
510.42	372.15
510.60	362.78
510.77	409.59
510.95	482.15
511.12	418.96
511.30	386.19
511.47	435.34
511.64	425.98
511.82	386.19
511.99	421.30
512.17	386.19
512.34	447.04
512.51	447.04
512.69	489.17
512.86	447.04
513.04	493.85
513.21	397.89
513.38	449.38
513.56	409.59
513.73	379.17
513.90	358.10
514.08	409.59
514.25	475.13
514.43	407.25
514.60	449.38
514.77	372.15
514.95	414.27
515.12	393.21
515.29	388.53
515.47	337.04
515.64	433.00
515.81	486.83
515.99	430.66
516.16	362.78
516.33	449.38
516.51	500.87
516.68	468.11
516.85	376.83
517.03	386.19
517.20	388.53
517.37	449.38
517.54	379.17
517.72	433.00
517.89	355.76
518.06	484.49
518.24	486.83
518.41	423.64
518.58	456.40
518.75	428.32
518.93	423.64
519.10	390.87
519.27	458.74
519.45	418.96
519.62	449.38
519.79	353.42
519.96	327.68
520.14	437.68
520.31	397.89
520.48	444.70
520.65	402.57
520.83	430.66
521.00	472.79
521.17	339.38
521.34	430.66
521.52	409.59
521.69	407.25
521.86	393.21
522.03	388.53
522.20	456.40
522.38	383.85
522.55	407.25
522.72	341.72
522.89	423.64
523.07	435.34
523.24	351.08
523.41	379.17
523.58	386.19
523.75	360.44
523.92	348.74
524.10	360.44
524.27	306.61
524.44	376.83
524.61	414.27
524.78	402.57
524.96	442.36
525.13	475.13
525.30	507.90
525.47	395.55
525.64	393.21
525.81	421.30
525.98	428.32
526.16	358.10
526.33	388.53
526.50	409.59
526.67	437.68
526.84	416.62
527.01	355.76
527.18	454.06
527.36	388.53
527.53	376.83
527.70	435.34
527.87	334.70
528.04	435.34
528.21	435.34
528.38	454.06
528.55	489.17
528.72	444.70
528.89	430.66
529.07	463.43
529.24	423.64
529.41	461.09
529.58	372.15
529.75	407.25
529.92	418.96
530.09	428.32
530.26	397.89
530.43	416.62
530.60	376.83
530.77	484.49
530.94	386.19
531.11	393.21
531.28	376.83
531.46	423.64
531.63	381.51
531.80	423.64
531.97	430.66
532.14	423.64
532.31	430.66
532.48	409.59
532.65	393.21
532.82	369.80
532.99	421.30
533.16	489.17
533.33	407.25
533.50	386.19
533.67	397.89
533.84	437.68
534.01	433.00
534.18	390.87
534.35	393.21
534.52	433.00
534.69	425.98
534.86	351.08
535.03	430.66
535.20	365.12
535.37	402.57
535.54	400.23
535.71	418.96
535.88	402.57
536.05	397.89
536.22	409.59
536.38	425.98
536.55	435.34
536.72	465.77
536.89	430.66
537.06	409.59
537.23	374.49
537.40	390.87
537.57	381.51
537.74	400.23
537.91	397.89
538.08	379.17
538.25	418.96
538.42	346.40
538.59	414.27
538.75	407.25
538.92	454.06
539.09	395.55
539.26	440.02
539.43	447.04
539.60	433.00
539.77	390.87
539.94	390.87
540.11	400.23
540.28	447.04
540.44	458.74
540.61	397.89
540.78	456.40
540.95	386.19
541.12	423.64
541.29	360.44
541.46	397.89
541.62	386.19
541.79	393.21
541.96	346.40
542.13	386.19
542.30	390.87
542.47	442.36
542.63	430.66
542.80	489.17
542.97	416.62
543.14	358.10
543.31	400.23
543.48	423.64
543.64	477.47
543.81	433.00
543.98	395.55
544.15	369.80
544.32	393.21
544.48	388.53
544.65	400.23
544.82	362.78
544.99	388.53
545.16	416.62
545.32	414.27
545.49	465.77
545.66	472.79
545.83	514.92
546.00	411.93
546.16	489.17
546.33	428.32
546.50	411.93
546.67	491.51
546.83	437.68
547.00	423.64
547.17	348.74
547.34	430.66
547.50	414.27
547.67	444.70
547.84	414.27
548.00	468.11
548.17	362.78
548.34	409.59
548.51	465.77
548.67	465.77
548.84	423.64
549.01	383.85
549.18	507.90
549.34	444.70
549.51	423.64
549.68	416.62
549.84	435.34
550.01	418.96
550.18	425.98
550.34	557.05
550.51	414.27
550.68	442.36
550.84	353.42
551.01	440.02
551.18	463.43
551.34	414.27
551.51	428.32
551.68	435.34
551.84	463.43
552.01	407.25
552.18	367.46
552.34	386.19
552.51	409.59
552.68	451.72
552.84	409.59
553.01	433.00
553.18	468.11
553.34	425.98
553.51	353.42
553.67	449.38
553.84	440.02
554.01	479.81
554.17	433.00
554.34	381.51
554.51	411.93
554.67	402.57
554.84	433.00
555.00	379.17
555.17	386.19
555.33	433.00
555.50	411.93
555.67	404.91
555.83	381.51
556.00	423.64
556.16	610.88
556.33	482.15
556.50	409.59
556.66	430.66
556.83	414.27
556.99	337.04
557.16	454.06
557.32	388.53
557.49	397.89
557.65	449.38
557.82	395.55
557.98	430.66
558.15	414.27
558.32	416.62
558.48	409.59
558.65	409.59
558.81	440.02
558.98	444.70
559.14	376.83
559.31	376.83
559.47	418.96
559.64	367.46
559.80	519.60
559.97	458.74
560.13	454.06
560.30	454.06
560.46	360.44
560.63	440.02
560.79	470.45
560.96	402.57
561.12	362.78
561.29	430.66
561.45	423.64
561.61	418.96
561.78	447.04
561.94	437.68
562.11	383.85
562.27	400.23
562.44	397.89
562.60	397.89
562.77	409.59
562.93	526.62
563.10	428.32
563.26	458.74
563.42	454.06
563.59	484.49
563.75	320.65
563.92	423.64
564.08	365.12
564.24	468.11
564.41	423.64
564.57	332.36
564.74	468.11
564.90	390.87
565.07	409.59
565.23	444.70
565.39	421.30
565.56	421.30
565.72	367.46
565.88	447.04
566.05	447.04
566.21	425.98
566.38	397.89
566.54	402.57
566.70	451.72
566.87	358.10
567.03	411.93
567.19	414.27
567.36	458.74
567.52	407.25
567.68	402.57
567.85	409.59
568.01	423.64
568.17	428.32
568.34	414.27
568.50	512.58
568.66	454.06
568.83	414.27
568.99	386.19
569.15	475.13
569.32	416.62
569.48	454.06
569.64	421.30
569.81	404.91
569.97	449.38
570.13	388.53
570.30	374.49
570.46	414.27
570.62	477.47
570.78	416.62
570.95	503.22
571.11	486.83
571.27	409.59
571.43	442.36
571.60	470.45
571.76	428.32
571.92	430.66
572.09	479.81
572.25	376.83
572.41	358.10
572.57	393.21
572.74	468.11
572.90	442.36
573.06	456.40
573.22	425.98
573.38	465.77
573.55	372.15
573.71	463.43
573.87	418.96
574.03	386.19
574.20	397.89
574.36	411.93
574.52	337.04
574.68	423.64
574.84	388.53
575.01	416.62
575.17	430.66
575.33	341.72
575.49	433.00
575.65	505.56
575.82	454.06
575.98	458.74
576.14	447.04
576.30	397.89
576.46	404.91
576.62	440.02
576.79	484.49
576.95	433.00
577.11	379.17
577.27	372.15
577.43	442.36
577.59	402.57
577.75	540.66
577.92	416.62
578.08	409.59
578.24	376.83
578.40	334.70
578.56	465.77
578.72	397.89
578.88	470.45
579.04	402.57
579.21	416.62
579.37	444.70
579.53	418.96
579.69	423.64
579.85	421.30
580.01	421.30
580.17	404.91
580.33	383.85
580.49	388.53
580.65	468.11
580.82	428.32
580.98	390.87
581.14	407.25
581.30	482.15
581.46	444.70
581.62	435.34
581.78	395.55
581.94	440.02
582.10	430.66
582.26	390.87
582.42	362.78
582.58	503.22
582.74	437.68
582.90	486.83
583.06	414.27
583.22	428.32
583.38	442.36
583.54	402.57
583.70	411.93
583.86	421.30
584.02	400.23
584.18	454.06
584.34	454.06
584.50	372.15
584.66	416.62
584.82	372.15
584.98	365.12
585.14	362.78
585.30	433.00
585.46	437.68
585.62	411.93
585.78	407.25
585.94	390.87
586.10	409.59
586.26	388.53
586.42	411.93
586.58	418.96
586.74	407.25
586.90	393.21
587.06	383.85
587.22	451.72
587.38	461.09
587.54	428.32
587.70	463.43
587.86	500.87
588.02	397.89
588.18	440.02
588.34	444.70
588.49	442.36
588.65	418.96
588.81	395.55
588.97	475.13
589.13	454.06
589.29	418.96
589.45	456.40
589.61	447.04
589.77	470.45
589.93	416.62
590.08	390.87
590.24	451.72
590.40	454.06
590.56	477.47
590.72	470.45
590.88	437.68
591.04	404.91
591.20	388.53
591.35	425.98
591.51	409.59
591.67	416.62
591.83	393.21
591.99	425.98
592.15	400.23
592.31	465.77
592.46	369.80
592.62	444.70
592.78	388.53
592.94	388.53
593.10	353.42
593.26	369.80
593.41	423.64
593.57	458.74
593.73	379.17
593.89	440.02
594.05	407.25
594.20	433.00
594.36	489.17
594.52	421.30
594.68	458.74
594.84	458.74
594.99	404.91
595.15	404.91
595.31	411.93
595.47	409.59
595.62	425.98
595.78	355.76
595.94	463.43
596.10	421.30
596.25	416.62
596.41	444.70
596.57	353.42
596.73	379.17
596.88	407.25
597.04	461.09
597.20	470.45
597.36	437.68
597.51	341.72
597.67	409.59
597.83	454.06
597.99	451.72
598.14	390.87
598.30	425.98
598.46	397.89
598.61	449.38
598.77	369.80
598.93	402.57
599.09	376.83
599.24	402.57
599.40	463.43
599.56	411.93
599.71	437.68
599.87	418.96
600.03	397.89
600.18	411.93
600.34	393.21
600.50	376.83
600.65	411.93
600.81	444.70
600.97	437.68
601.12	451.72
601.28	442.36
601.44	447.04
601.59	379.17
601.75	376.83
601.91	421.30
602.06	409.59
602.22	514.92
602.37	510.24
602.53	386.19
602.69	430.66
602.84	397.89
603.00	379.17
603.16	433.00
603.31	409.59
603.47	451.72
603.62	360.44
603.78	472.79
603.94	463.43
604.09	433.00
604.25	414.27
604.40	386.19
604.56	428.32
604.71	400.23
604.87	367.46
605.03	451.72
605.18	449.38
605.34	447.04
605.49	397.89
605.65	440.02
605.80	400.23
605.96	447.04
606.12	454.06
606.27	390.87
606.43	383.85
606.58	472.79
606.74	430.66
606.89	430.66
607.05	360.44
607.20	418.96
607.36	458.74
607.51	493.85
607.67	430.66
607.82	416.62
607.98	447.04
608.13	397.89
608.29	409.59
608.44	449.38
608.60	468.11
608.75	423.64
608.91	477.47
609.06	468.11
609.22	454.06
609.37	397.89
609.53	383.85
609.68	400.23
609.84	421.30
609.99	362.78
610.15	407.25
