SpectraSuite Data File
++++++++++++++++++++++++++++++++++++
Date: Fri Oct 25 12:10:14 EDT 2013
User: price-jones
Dark Spectrum Present: No
Reference Spectrum Present: No
Number of Sampled Component Spectra: 1
Spectrometers: USB2+H05261
Integration Time (usec): 100000 (USB2+H05261)
Spectra Averaged: 1 (USB2+H05261)
Boxcar Smoothing: 0 (USB2+H05261)
Correct for Electrical Dark: No (USB2+H05261)
Strobe/Lamp Enabled: No (USB2+H05261)
Correct for Detector Non-linearity: No (USB2+H05261)
Correct for Stray Light: No (USB2+H05261)
Number of Pixels in Processed Spectrum: 2048
>>>>>Begin Processed Spectral Data<<<<<
365.73	402.57
365.92	402.57
366.12	402.57
366.32	306.61
366.52	255.12
366.72	238.73
366.91	276.18
367.11	191.92
367.31	184.90
367.51	269.16
367.70	245.76
367.90	234.05
368.10	205.97
368.30	205.97
368.49	222.35
368.69	154.48
368.89	351.08
369.09	301.93
369.28	278.52
369.48	201.29
369.68	334.70
369.87	344.06
370.07	322.99
370.27	327.68
370.47	294.91
370.66	318.31
370.86	376.83
371.06	395.55
371.25	353.42
371.45	313.63
371.65	416.62
371.84	369.80
372.04	367.46
372.24	416.62
372.44	332.36
372.63	411.93
372.83	379.17
373.03	433.00
373.22	433.00
373.42	369.80
373.62	362.78
373.81	461.09
374.01	395.55
374.21	383.85
374.40	355.76
374.60	470.45
374.79	369.80
374.99	496.19
375.19	365.12
375.38	451.72
375.58	433.00
375.78	484.49
375.97	428.32
376.17	468.11
376.37	435.34
376.56	454.06
376.76	447.04
376.95	404.91
377.15	367.46
377.35	337.04
377.54	454.06
377.74	407.25
377.93	404.91
378.13	423.64
378.33	400.23
378.52	437.68
378.72	470.45
378.91	337.04
379.11	409.59
379.31	374.49
379.50	379.17
379.70	428.32
379.89	416.62
380.09	428.32
380.28	322.99
380.48	381.51
380.68	339.38
380.87	322.99
381.07	383.85
381.26	425.98
381.46	372.15
381.65	465.77
381.85	390.87
382.04	440.02
382.24	414.27
382.43	330.02
382.63	379.17
382.83	360.44
383.02	330.02
383.22	512.58
383.41	346.40
383.61	353.42
383.80	461.09
384.00	437.68
384.19	423.64
384.39	435.34
384.58	423.64
384.78	414.27
384.97	374.49
385.17	425.98
385.36	379.17
385.56	362.78
385.75	425.98
385.95	433.00
386.14	358.10
386.34	369.80
386.53	344.06
386.72	411.93
386.92	425.98
387.11	393.21
387.31	416.62
387.50	402.57
387.70	433.00
387.89	416.62
388.09	367.46
388.28	365.12
388.48	421.30
388.67	465.77
388.86	365.12
389.06	414.27
389.25	351.08
389.45	435.34
389.64	404.91
389.84	430.66
390.03	477.47
390.22	465.77
390.42	447.04
390.61	454.06
390.81	386.19
391.00	458.74
391.19	395.55
391.39	346.40
391.58	404.91
391.78	376.83
391.97	369.80
392.16	346.40
392.36	440.02
392.55	430.66
392.75	395.55
392.94	379.17
393.13	435.34
393.33	360.44
393.52	397.89
393.71	409.59
393.91	386.19
394.10	353.42
394.29	397.89
394.49	390.87
394.68	479.81
394.88	437.68
395.07	388.53
395.26	416.62
395.46	400.23
395.65	390.87
395.84	395.55
396.04	430.66
396.23	425.98
396.42	395.55
396.62	388.53
396.81	369.80
397.00	435.34
397.19	425.98
397.39	435.34
397.58	491.51
397.77	402.57
397.97	409.59
398.16	397.89
398.35	428.32
398.55	337.04
398.74	322.99
398.93	435.34
399.12	470.45
399.32	407.25
399.51	449.38
399.70	458.74
399.90	362.78
400.09	404.91
400.28	411.93
400.47	425.98
400.67	379.17
400.86	411.93
401.05	418.96
401.24	409.59
401.44	503.22
401.63	414.27
401.82	404.91
402.01	337.04
402.21	395.55
402.40	369.80
402.59	386.19
402.78	397.89
402.97	369.80
403.17	414.27
403.36	397.89
403.55	407.25
403.74	421.30
403.93	369.80
404.13	421.30
404.32	423.64
404.51	442.36
404.70	433.00
404.89	425.98
405.09	430.66
405.28	468.11
405.47	411.93
405.66	397.89
405.85	374.49
406.05	402.57
406.24	362.78
406.43	402.57
406.62	444.70
406.81	428.32
407.00	423.64
407.20	437.68
407.39	414.27
407.58	433.00
407.77	411.93
407.96	491.51
408.15	407.25
408.34	418.96
408.54	465.77
408.73	449.38
408.92	367.46
409.11	395.55
409.30	351.08
409.49	379.17
409.68	390.87
409.87	463.43
410.07	388.53
410.26	332.36
410.45	390.87
410.64	395.55
410.83	360.44
411.02	369.80
411.21	376.83
411.40	472.79
411.59	365.12
411.78	397.89
411.98	442.36
412.17	435.34
412.36	355.76
412.55	346.40
412.74	386.19
412.93	475.13
413.12	395.55
413.31	463.43
413.50	395.55
413.69	383.85
413.88	400.23
414.07	360.44
414.26	458.74
414.45	451.72
414.64	435.34
414.83	411.93
415.02	447.04
415.22	400.23
415.41	416.62
415.60	425.98
415.79	346.40
415.98	496.19
416.17	461.09
416.36	442.36
416.55	372.15
416.74	397.89
416.93	404.91
417.12	407.25
417.31	421.30
417.50	418.96
417.69	369.80
417.88	477.47
418.07	390.87
418.26	449.38
418.45	411.93
418.64	360.44
418.83	425.98
419.02	388.53
419.21	437.68
419.39	407.25
419.58	376.83
419.77	444.70
419.96	367.46
420.15	449.38
420.34	393.21
420.53	437.68
420.72	409.59
420.91	433.00
421.10	421.30
421.29	433.00
421.48	383.85
421.67	428.32
421.86	461.09
422.05	414.27
422.24	348.74
422.43	404.91
422.61	433.00
422.80	372.15
422.99	407.25
423.18	355.76
423.37	383.85
423.56	425.98
423.75	297.25
423.94	425.98
424.13	423.64
424.32	425.98
424.50	379.17
424.69	404.91
424.88	376.83
425.07	407.25
425.26	437.68
425.45	428.32
425.64	372.15
425.83	390.87
426.01	456.40
426.20	444.70
426.39	440.02
426.58	421.30
426.77	346.40
426.96	451.72
427.15	465.77
427.33	334.70
427.52	416.62
427.71	404.91
427.90	400.23
428.09	423.64
428.28	344.06
428.46	395.55
428.65	454.06
428.84	437.68
429.03	418.96
429.22	367.46
429.40	486.83
429.59	390.87
429.78	440.02
429.97	416.62
430.16	334.70
430.34	418.96
430.53	404.91
430.72	475.13
430.91	397.89
431.10	381.51
431.28	440.02
431.47	383.85
431.66	428.32
431.85	358.10
432.03	407.25
432.22	482.15
432.41	437.68
432.60	416.62
432.79	428.32
432.97	346.40
433.16	428.32
433.35	339.38
433.54	465.77
433.72	428.32
433.91	393.21
434.10	388.53
434.28	435.34
434.47	374.49
434.66	390.87
434.85	407.25
435.03	379.17
435.22	397.89
435.41	472.79
435.59	433.00
435.78	479.81
435.97	400.23
436.16	407.25
436.34	400.23
436.53	402.57
436.72	433.00
436.90	369.80
437.09	418.96
437.28	404.91
437.46	414.27
437.65	423.64
437.84	404.91
438.02	388.53
438.21	440.02
438.40	430.66
438.58	383.85
438.77	468.11
438.96	444.70
439.14	423.64
439.33	458.74
439.52	496.19
439.70	379.17
439.89	430.66
440.08	414.27
440.26	482.15
440.45	411.93
440.63	440.02
440.82	411.93
441.01	393.21
441.19	451.72
441.38	381.51
441.57	404.91
441.75	386.19
441.94	360.44
442.12	449.38
442.31	374.49
442.50	334.70
442.68	341.72
442.87	435.34
443.05	433.00
443.24	451.72
443.43	360.44
443.61	425.98
443.80	425.98
443.98	374.49
444.17	430.66
444.35	353.42
444.54	365.12
444.73	402.57
444.91	477.47
445.10	418.96
445.28	484.49
445.47	458.74
445.65	437.68
445.84	444.70
446.02	360.44
446.21	381.51
446.39	409.59
446.58	407.25
446.77	376.83
446.95	395.55
447.14	428.32
447.32	409.59
447.51	383.85
447.69	388.53
447.88	421.30
448.06	421.30
448.25	435.34
448.43	390.87
448.62	407.25
448.80	451.72
448.99	507.90
449.17	379.17
449.36	402.57
449.54	372.15
449.73	388.53
449.91	372.15
450.10	360.44
450.28	472.79
450.46	470.45
450.65	461.09
450.83	353.42
451.02	383.85
451.20	425.98
451.39	433.00
451.57	407.25
451.76	379.17
451.94	437.68
452.13	425.98
452.31	437.68
452.49	458.74
452.68	400.23
452.86	393.21
453.05	442.36
453.23	390.87
453.42	404.91
453.60	428.32
453.78	442.36
453.97	407.25
454.15	456.40
454.34	425.98
454.52	437.68
454.70	390.87
454.89	470.45
455.07	414.27
455.26	430.66
455.44	440.02
455.62	411.93
455.81	414.27
455.99	447.04
456.17	435.34
456.36	449.38
456.54	393.21
456.73	397.89
456.91	383.85
457.09	465.77
457.28	386.19
457.46	447.04
457.64	409.59
457.83	414.27
458.01	421.30
458.19	472.79
458.38	353.42
458.56	447.04
458.74	428.32
458.93	372.15
459.11	393.21
459.29	383.85
459.48	472.79
459.66	454.06
459.84	442.36
460.03	463.43
460.21	423.64
460.39	393.21
460.57	404.91
460.76	402.57
460.94	458.74
461.12	468.11
461.31	449.38
461.49	463.43
461.67	397.89
461.85	449.38
462.04	524.28
462.22	772.38
462.40	388.53
462.59	383.85
462.77	435.34
462.95	458.74
463.13	409.59
463.32	379.17
463.50	428.32
463.68	376.83
463.86	477.47
464.05	430.66
464.23	475.13
464.41	437.68
464.59	440.02
464.78	397.89
464.96	477.47
465.14	421.30
465.32	423.64
465.50	458.74
465.69	372.15
465.87	397.89
466.05	365.12
466.23	395.55
466.41	435.34
466.60	383.85
466.78	470.45
466.96	440.02
467.14	461.09
467.32	519.60
467.51	472.79
467.69	428.32
467.87	418.96
468.05	447.04
468.23	400.23
468.41	437.68
468.60	449.38
468.78	372.15
468.96	421.30
469.14	435.34
469.32	353.42
469.50	458.74
469.69	449.38
469.87	477.47
470.05	496.19
470.23	454.06
470.41	421.30
470.59	411.93
470.77	381.51
470.95	447.04
471.14	461.09
471.32	397.89
471.50	444.70
471.68	404.91
471.86	395.55
472.04	367.46
472.22	430.66
472.40	397.89
472.58	353.42
472.77	358.10
472.95	379.17
473.13	388.53
473.31	428.32
473.49	423.64
473.67	395.55
473.85	381.51
474.03	348.74
474.21	440.02
474.39	411.93
474.57	416.62
474.75	330.02
474.93	449.38
475.12	397.89
475.30	360.44
475.48	440.02
475.66	414.27
475.84	400.23
476.02	449.38
476.20	433.00
476.38	416.62
476.56	477.47
476.74	372.15
476.92	400.23
477.10	362.78
477.28	383.85
477.46	461.09
477.64	376.83
477.82	423.64
478.00	451.72
478.18	447.04
478.36	386.19
478.54	449.38
478.72	414.27
478.90	407.25
479.08	404.91
479.26	362.78
479.44	416.62
479.62	496.19
479.80	397.89
479.98	388.53
480.16	390.87
480.34	393.21
480.52	386.19
480.70	454.06
480.88	404.91
481.06	418.96
481.24	374.49
481.41	386.19
481.59	444.70
481.77	416.62
481.95	372.15
482.13	491.51
482.31	437.68
482.49	423.64
482.67	376.83
482.85	444.70
483.03	362.78
483.21	472.79
483.39	369.80
483.57	404.91
483.74	409.59
483.92	332.36
484.10	409.59
484.28	388.53
484.46	493.85
484.64	318.31
484.82	416.62
485.00	365.12
485.18	376.83
485.35	416.62
485.53	404.91
485.71	493.85
485.89	409.59
486.07	388.53
486.25	463.43
486.43	500.87
486.61	458.74
486.78	423.64
486.96	423.64
487.14	418.96
487.32	386.19
487.50	430.66
487.68	383.85
487.85	383.85
488.03	353.42
488.21	479.81
488.39	442.36
488.57	435.34
488.75	386.19
488.92	425.98
489.10	411.93
489.28	400.23
489.46	454.06
489.64	404.91
489.81	425.98
489.99	351.08
490.17	428.32
490.35	425.98
490.53	362.78
490.70	456.40
490.88	437.68
491.06	386.19
491.24	468.11
491.41	416.62
491.59	449.38
491.77	388.53
491.95	367.46
492.13	414.27
492.30	414.27
492.48	409.59
492.66	409.59
492.84	416.62
493.01	482.15
493.19	430.66
493.37	470.45
493.54	458.74
493.72	423.64
493.90	421.30
494.08	397.89
494.25	402.57
494.43	421.30
494.61	418.96
494.79	416.62
494.96	428.32
495.14	416.62
495.32	402.57
495.49	383.85
495.67	376.83
495.85	348.74
496.02	404.91
496.20	447.04
496.38	454.06
496.55	500.87
496.73	440.02
496.91	339.38
497.09	428.32
497.26	369.80
497.44	397.89
497.62	465.77
497.79	400.23
497.97	456.40
498.14	362.78
498.32	421.30
498.50	456.40
498.67	458.74
498.85	390.87
499.03	414.27
499.20	393.21
499.38	435.34
499.56	381.51
499.73	414.27
499.91	404.91
500.08	407.25
500.26	402.57
500.44	482.15
500.61	397.89
500.79	402.57
500.97	411.93
501.14	421.30
501.32	423.64
501.49	374.49
501.67	395.55
501.84	418.96
502.02	402.57
502.20	360.44
502.37	322.99
502.55	339.38
502.72	395.55
502.90	390.87
503.07	423.64
503.25	433.00
503.43	306.61
503.60	414.27
503.78	402.57
503.95	484.49
504.13	498.53
504.30	472.79
504.48	393.21
504.65	435.34
504.83	484.49
505.01	416.62
505.18	447.04
505.36	418.96
505.53	407.25
505.71	348.74
505.88	407.25
506.06	393.21
506.23	409.59
506.41	397.89
506.58	407.25
506.76	458.74
506.93	386.19
507.11	409.59
507.28	414.27
507.46	402.57
507.63	437.68
507.81	449.38
507.98	468.11
508.16	447.04
508.33	451.72
508.50	531.30
508.68	425.98
508.85	400.23
509.03	407.25
509.20	411.93
509.38	376.83
509.55	435.34
509.73	411.93
509.90	402.57
510.08	372.15
510.25	402.57
510.42	374.49
510.60	402.57
510.77	454.06
510.95	411.93
511.12	393.21
511.30	393.21
511.47	472.79
511.64	421.30
511.82	372.15
511.99	402.57
512.17	400.23
512.34	423.64
512.51	362.78
512.69	362.78
512.86	390.87
513.04	348.74
513.21	437.68
513.38	416.62
513.56	355.76
513.73	395.55
513.90	400.23
514.08	346.40
514.25	414.27
514.43	456.40
514.60	475.13
514.77	393.21
514.95	348.74
515.12	465.77
515.29	458.74
515.47	430.66
515.64	435.34
515.81	397.89
515.99	444.70
516.16	393.21
516.33	411.93
516.51	334.70
516.68	383.85
516.85	454.06
517.03	442.36
517.20	463.43
517.37	423.64
517.54	404.91
517.72	430.66
517.89	383.85
518.06	409.59
518.24	475.13
518.41	418.96
518.58	461.09
518.75	435.34
518.93	442.36
519.10	484.49
519.27	395.55
519.45	353.42
519.62	428.32
519.79	353.42
519.96	414.27
520.14	409.59
520.31	461.09
520.48	444.70
520.65	437.68
520.83	437.68
521.00	409.59
521.17	411.93
521.34	390.87
521.52	362.78
521.69	433.00
521.86	404.91
522.03	435.34
522.20	444.70
522.38	418.96
522.55	395.55
522.72	360.44
522.89	454.06
523.07	526.62
523.24	428.32
523.41	388.53
523.58	461.09
523.75	369.80
523.92	400.23
524.10	437.68
524.27	362.78
524.44	444.70
524.61	435.34
524.78	409.59
524.96	407.25
525.13	386.19
525.30	393.21
525.47	442.36
525.64	430.66
525.81	416.62
525.98	461.09
526.16	374.49
526.33	381.51
526.50	414.27
526.67	444.70
526.84	400.23
527.01	390.87
527.18	440.02
527.36	393.21
527.53	479.81
527.70	390.87
527.87	393.21
528.04	425.98
528.21	421.30
528.38	404.91
528.55	472.79
528.72	425.98
528.89	418.96
529.07	388.53
529.24	503.22
529.41	465.77
529.58	388.53
529.75	400.23
529.92	414.27
530.09	344.06
530.26	463.43
530.43	421.30
530.60	372.15
530.77	372.15
530.94	395.55
531.11	400.23
531.28	334.70
531.46	428.32
531.63	458.74
531.80	414.27
531.97	454.06
532.14	472.79
532.31	409.59
532.48	500.87
532.65	449.38
532.82	414.27
532.99	379.17
533.16	402.57
533.33	447.04
533.50	411.93
533.67	353.42
533.84	451.72
534.01	514.92
534.18	376.83
534.35	437.68
534.52	369.80
534.69	414.27
534.86	449.38
535.03	393.21
535.20	463.43
535.37	374.49
535.54	468.11
535.71	477.47
535.88	440.02
536.05	437.68
536.22	383.85
536.38	348.74
536.55	479.81
536.72	433.00
536.89	444.70
537.06	327.68
537.23	440.02
537.40	386.19
537.57	472.79
537.74	482.15
537.91	444.70
538.08	477.47
538.25	440.02
538.42	409.59
538.59	468.11
538.75	470.45
538.92	418.96
539.09	421.30
539.26	362.78
539.43	482.15
539.60	416.62
539.77	477.47
539.94	425.98
540.11	397.89
540.28	421.30
540.44	402.57
540.61	393.21
540.78	423.64
540.95	430.66
541.12	421.30
541.29	407.25
541.46	407.25
541.62	393.21
541.79	362.78
541.96	360.44
542.13	409.59
542.30	369.80
542.47	435.34
542.63	421.30
542.80	397.89
542.97	475.13
543.14	376.83
543.31	435.34
543.48	400.23
543.64	416.62
543.81	470.45
543.98	383.85
544.15	458.74
544.32	491.51
544.48	463.43
544.65	404.91
544.82	404.91
544.99	365.12
545.16	365.12
545.32	433.00
545.49	414.27
545.66	430.66
545.83	447.04
546.00	367.46
546.16	444.70
546.33	475.13
546.50	440.02
546.67	423.64
546.83	421.30
547.00	465.77
547.17	444.70
547.34	381.51
547.50	414.27
547.67	407.25
547.84	386.19
548.00	468.11
548.17	444.70
548.34	397.89
548.51	451.72
548.67	451.72
548.84	402.57
549.01	397.89
549.18	486.83
549.34	428.32
549.51	397.89
549.68	353.42
549.84	433.00
550.01	346.40
550.18	486.83
550.34	416.62
550.51	456.40
550.68	458.74
550.84	390.87
551.01	393.21
551.18	402.57
551.34	489.17
551.51	369.80
551.68	351.08
551.84	374.49
552.01	358.10
552.18	283.20
552.34	404.91
552.51	414.27
552.68	463.43
552.84	468.11
553.01	386.19
553.18	428.32
553.34	334.70
553.51	444.70
553.67	423.64
553.84	447.04
554.01	433.00
554.17	428.32
554.34	411.93
554.51	388.53
554.67	449.38
554.84	425.98
555.00	388.53
555.17	470.45
555.33	498.53
555.50	421.30
555.67	411.93
555.83	421.30
556.00	421.30
556.16	545.34
556.33	393.21
556.50	414.27
556.66	409.59
556.83	414.27
556.99	423.64
557.16	475.13
557.32	444.70
557.49	486.83
557.65	411.93
557.82	386.19
557.98	409.59
558.15	477.47
558.32	418.96
558.48	435.34
558.65	454.06
558.81	447.04
558.98	376.83
559.14	510.24
559.31	416.62
559.47	430.66
559.64	447.04
559.80	444.70
559.97	437.68
560.13	430.66
560.30	390.87
560.46	383.85
560.63	388.53
560.79	414.27
560.96	395.55
561.12	393.21
561.29	421.30
561.45	393.21
561.61	451.72
561.78	510.24
561.94	458.74
562.11	447.04
562.27	400.23
562.44	423.64
562.60	397.89
562.77	407.25
562.93	519.60
563.10	362.78
563.26	435.34
563.42	409.59
563.59	379.17
563.75	395.55
563.92	477.47
564.08	477.47
564.24	465.77
564.41	477.47
564.57	344.06
564.74	388.53
564.90	388.53
565.07	395.55
565.23	404.91
565.39	407.25
565.56	400.23
565.72	360.44
565.88	444.70
566.05	395.55
566.21	418.96
566.38	400.23
566.54	423.64
566.70	428.32
566.87	388.53
567.03	395.55
567.19	442.36
567.36	425.98
567.52	458.74
567.68	379.17
567.85	447.04
568.01	386.19
568.17	479.81
568.34	346.40
568.50	437.68
568.66	447.04
568.83	491.51
568.99	374.49
569.15	414.27
569.32	454.06
569.48	461.09
569.64	390.87
569.81	369.80
569.97	440.02
570.13	498.53
570.30	402.57
570.46	477.47
570.62	456.40
570.78	482.15
570.95	395.55
571.11	444.70
571.27	496.19
571.43	437.68
571.60	433.00
571.76	414.27
571.92	374.49
572.09	423.64
572.25	409.59
572.41	447.04
572.57	461.09
572.74	545.34
572.90	449.38
573.06	454.06
573.22	463.43
573.38	348.74
573.55	383.85
573.71	348.74
573.87	435.34
574.03	416.62
574.20	339.38
574.36	383.85
574.52	341.72
574.68	444.70
574.84	433.00
575.01	383.85
575.17	423.64
575.33	491.51
575.49	451.72
575.65	517.26
575.82	404.91
575.98	381.51
576.14	407.25
576.30	423.64
576.46	407.25
576.62	388.53
576.79	435.34
576.95	409.59
577.11	297.25
577.27	402.57
577.43	477.47
577.59	477.47
577.75	355.76
577.92	355.76
578.08	395.55
578.24	463.43
578.40	444.70
578.56	381.51
578.72	500.87
578.88	397.89
579.04	456.40
579.21	437.68
579.37	435.34
579.53	376.83
579.69	390.87
579.85	355.76
580.01	372.15
580.17	430.66
580.33	400.23
580.49	388.53
580.65	402.57
580.82	472.79
580.98	449.38
581.14	383.85
581.30	461.09
581.46	454.06
581.62	470.45
581.78	414.27
581.94	407.25
582.10	407.25
582.26	470.45
582.42	468.11
582.58	367.46
582.74	402.57
582.90	367.46
583.06	386.19
583.22	374.49
583.38	376.83
583.54	463.43
583.70	500.87
583.86	468.11
584.02	437.68
584.18	407.25
584.34	409.59
584.50	428.32
584.66	423.64
584.82	358.10
584.98	437.68
585.14	400.23
585.30	435.34
585.46	463.43
585.62	454.06
585.78	402.57
585.94	437.68
586.10	400.23
586.26	365.12
586.42	463.43
586.58	454.06
586.74	346.40
586.90	381.51
587.06	468.11
587.22	400.23
587.38	393.21
587.54	482.15
587.70	428.32
587.86	547.69
588.02	386.19
588.18	414.27
588.34	400.23
588.49	397.89
588.65	411.93
588.81	409.59
588.97	332.36
589.13	402.57
589.29	411.93
589.45	456.40
589.61	379.17
589.77	491.51
589.93	369.80
590.08	437.68
590.24	435.34
590.40	407.25
590.56	489.17
590.72	404.91
590.88	475.13
591.04	461.09
591.20	437.68
591.35	437.68
591.51	423.64
591.67	400.23
591.83	472.79
591.99	430.66
592.15	374.49
592.31	470.45
592.46	381.51
592.62	444.70
592.78	442.36
592.94	404.91
593.10	472.79
593.26	421.30
593.41	449.38
593.57	386.19
593.73	379.17
593.89	409.59
594.05	402.57
594.20	418.96
594.36	451.72
594.52	400.23
594.68	447.04
594.84	437.68
594.99	477.47
595.15	435.34
595.31	454.06
595.47	454.06
595.62	472.79
595.78	362.78
595.94	379.17
596.10	442.36
596.25	402.57
596.41	454.06
596.57	435.34
596.73	437.68
596.88	423.64
597.04	404.91
597.20	425.98
597.36	409.59
597.51	421.30
597.67	369.80
597.83	472.79
597.99	472.79
598.14	430.66
598.30	393.21
598.46	425.98
598.61	433.00
598.77	425.98
598.93	421.30
599.09	327.68
599.24	374.49
599.40	411.93
599.56	395.55
599.71	393.21
599.87	423.64
600.03	416.62
600.18	437.68
600.34	456.40
600.50	409.59
600.65	407.25
600.81	435.34
600.97	404.91
601.12	468.11
601.28	430.66
601.44	390.87
601.59	390.87
601.75	374.49
601.91	500.87
602.06	454.06
602.22	510.24
602.37	454.06
602.53	442.36
602.69	461.09
602.84	423.64
603.00	334.70
603.16	444.70
603.31	435.34
603.47	440.02
603.62	425.98
603.78	390.87
603.94	454.06
604.09	353.42
604.25	351.08
604.40	376.83
604.56	411.93
604.71	477.47
604.87	428.32
605.03	442.36
605.18	402.57
605.34	407.25
605.49	404.91
605.65	404.91
605.80	409.59
605.96	404.91
606.12	421.30
606.27	416.62
606.43	454.06
606.58	447.04
606.74	344.06
606.89	437.68
607.05	390.87
607.20	461.09
607.36	444.70
607.51	393.21
607.67	463.43
607.82	458.74
607.98	479.81
608.13	383.85
608.29	435.34
608.44	451.72
608.60	416.62
608.75	468.11
608.91	444.70
609.06	484.49
609.22	447.04
609.37	428.32
609.53	397.89
609.68	475.13
609.84	390.87
609.99	372.15
610.15	334.70
