SpectraSuite Data File
++++++++++++++++++++++++++++++++++++
Date: Fri Oct 25 12:10:22 EDT 2013
User: price-jones
Dark Spectrum Present: No
Reference Spectrum Present: No
Number of Sampled Component Spectra: 1
Spectrometers: USB2+H05261
Integration Time (usec): 100000 (USB2+H05261)
Spectra Averaged: 1 (USB2+H05261)
Boxcar Smoothing: 0 (USB2+H05261)
Correct for Electrical Dark: No (USB2+H05261)
Strobe/Lamp Enabled: No (USB2+H05261)
Correct for Detector Non-linearity: No (USB2+H05261)
Correct for Stray Light: No (USB2+H05261)
Number of Pixels in Processed Spectrum: 2048
>>>>>Begin Processed Spectral Data<<<<<
365.73	400.23
365.92	400.23
366.12	400.23
366.32	299.59
366.52	175.54
366.72	194.26
366.91	231.71
367.11	182.56
367.31	231.71
367.51	236.39
367.70	234.05
367.90	196.60
368.10	236.39
368.30	215.33
368.49	266.82
368.69	250.44
368.89	238.73
369.09	234.05
369.28	360.44
369.48	346.40
369.68	290.23
369.87	243.42
370.07	308.95
370.27	313.63
370.47	346.40
370.66	327.68
370.86	346.40
371.06	383.85
371.25	306.61
371.45	322.99
371.65	360.44
371.84	376.83
372.04	390.87
372.24	318.31
372.44	311.29
372.63	425.98
372.83	472.79
373.03	365.12
373.22	421.30
373.42	425.98
373.62	411.93
373.81	383.85
374.01	416.62
374.21	397.89
374.40	409.59
374.60	461.09
374.79	444.70
374.99	407.25
375.19	454.06
375.38	444.70
375.58	411.93
375.78	374.49
375.97	444.70
376.17	397.89
376.37	376.83
376.56	465.77
376.76	332.36
376.95	372.15
377.15	449.38
377.35	404.91
377.54	397.89
377.74	390.87
377.93	397.89
378.13	395.55
378.33	433.00
378.52	383.85
378.72	456.40
378.91	416.62
379.11	404.91
379.31	330.02
379.50	344.06
379.70	379.17
379.89	411.93
380.09	362.78
380.28	421.30
380.48	395.55
380.68	306.61
380.87	388.53
381.07	440.02
381.26	477.47
381.46	301.93
381.65	397.89
381.85	334.70
382.04	423.64
382.24	365.12
382.43	337.04
382.63	346.40
382.83	407.25
383.02	440.02
383.22	390.87
383.41	351.08
383.61	372.15
383.80	374.49
384.00	404.91
384.19	430.66
384.39	397.89
384.58	416.62
384.78	400.23
384.97	383.85
385.17	395.55
385.36	397.89
385.56	374.49
385.75	423.64
385.95	444.70
386.14	433.00
386.34	421.30
386.53	369.80
386.72	418.96
386.92	409.59
387.11	430.66
387.31	313.63
387.50	418.96
387.70	393.21
387.89	416.62
388.09	407.25
388.28	421.30
388.48	440.02
388.67	344.06
388.86	404.91
389.06	440.02
389.25	468.11
389.45	421.30
389.64	320.65
389.84	358.10
390.03	407.25
390.22	386.19
390.42	414.27
390.61	390.87
390.81	430.66
391.00	383.85
391.19	440.02
391.39	397.89
391.58	435.34
391.78	360.44
391.97	367.46
392.16	351.08
392.36	454.06
392.55	395.55
392.75	379.17
392.94	428.32
393.13	479.81
393.33	440.02
393.52	383.85
393.71	418.96
393.91	451.72
394.10	409.59
394.29	421.30
394.49	425.98
394.68	383.85
394.88	402.57
395.07	367.46
395.26	458.74
395.46	365.12
395.65	383.85
395.84	414.27
396.04	414.27
396.23	416.62
396.42	397.89
396.62	390.87
396.81	386.19
397.00	409.59
397.19	365.12
397.39	416.62
397.58	353.42
397.77	437.68
397.97	454.06
398.16	360.44
398.35	395.55
398.55	358.10
398.74	449.38
398.93	383.85
399.12	465.77
399.32	393.21
399.51	425.98
399.70	418.96
399.90	397.89
400.09	442.36
400.28	414.27
400.47	402.57
400.67	418.96
400.86	409.59
401.05	383.85
401.24	435.34
401.44	451.72
401.63	416.62
401.82	461.09
402.01	421.30
402.21	477.47
402.40	437.68
402.59	383.85
402.78	402.57
402.97	390.87
403.17	379.17
403.36	444.70
403.55	393.21
403.74	346.40
403.93	458.74
404.13	421.30
404.32	395.55
404.51	414.27
404.70	430.66
404.89	409.59
405.09	355.76
405.28	360.44
405.47	425.98
405.66	454.06
405.85	428.32
406.05	454.06
406.24	388.53
406.43	362.78
406.62	332.36
406.81	421.30
407.00	477.47
407.20	472.79
407.39	442.36
407.58	407.25
407.77	416.62
407.96	468.11
408.15	383.85
408.34	468.11
408.54	463.43
408.73	402.57
408.92	400.23
409.11	449.38
409.30	411.93
409.49	407.25
409.68	341.72
409.87	428.32
410.07	393.21
410.26	400.23
410.45	411.93
410.64	381.51
410.83	468.11
411.02	348.74
411.21	433.00
411.40	376.83
411.59	393.21
411.78	442.36
411.98	411.93
412.17	325.33
412.36	381.51
412.55	341.72
412.74	423.64
412.93	500.87
413.12	421.30
413.31	376.83
413.50	393.21
413.69	404.91
413.88	449.38
414.07	390.87
414.26	416.62
414.45	346.40
414.64	390.87
414.83	374.49
415.02	416.62
415.22	360.44
415.41	400.23
415.60	407.25
415.79	433.00
415.98	388.53
416.17	433.00
416.36	397.89
416.55	390.87
416.74	393.21
416.93	358.10
417.12	369.80
417.31	404.91
417.50	386.19
417.69	425.98
417.88	465.77
418.07	388.53
418.26	479.81
418.45	421.30
418.64	496.19
418.83	430.66
419.02	440.02
419.21	365.12
419.39	465.77
419.58	409.59
419.77	449.38
419.96	376.83
420.15	472.79
420.34	367.46
420.53	407.25
420.72	395.55
420.91	386.19
421.10	400.23
421.29	449.38
421.48	306.61
421.67	393.21
421.86	374.49
422.05	379.17
422.24	433.00
422.43	402.57
422.61	379.17
422.80	463.43
422.99	390.87
423.18	381.51
423.37	423.64
423.56	451.72
423.75	449.38
423.94	428.32
424.13	346.40
424.32	423.64
424.50	351.08
424.69	442.36
424.88	404.91
425.07	372.15
425.26	397.89
425.45	418.96
425.64	400.23
425.83	416.62
426.01	376.83
426.20	440.02
426.39	362.78
426.58	346.40
426.77	409.59
426.96	381.51
427.15	383.85
427.33	376.83
427.52	489.17
427.71	362.78
427.90	334.70
428.09	430.66
428.28	379.17
428.46	339.38
428.65	390.87
428.84	423.64
429.03	433.00
429.22	367.46
429.40	428.32
429.59	381.51
429.78	454.06
429.97	390.87
430.16	449.38
430.34	334.70
430.53	395.55
430.72	393.21
430.91	423.64
431.10	400.23
431.28	404.91
431.47	465.77
431.66	365.12
431.85	456.40
432.03	379.17
432.22	521.94
432.41	397.89
432.60	475.13
432.79	383.85
432.97	442.36
433.16	486.83
433.35	379.17
433.54	388.53
433.72	395.55
433.91	447.04
434.10	358.10
434.28	421.30
434.47	472.79
434.66	482.15
434.85	418.96
435.03	390.87
435.22	402.57
435.41	421.30
435.59	442.36
435.78	470.45
435.97	351.08
436.16	428.32
436.34	444.70
436.53	461.09
436.72	465.77
436.90	449.38
437.09	449.38
437.28	388.53
437.46	430.66
437.65	442.36
437.84	402.57
438.02	472.79
438.21	372.15
438.40	425.98
438.58	435.34
438.77	433.00
438.96	367.46
439.14	409.59
439.33	397.89
439.52	444.70
439.70	369.80
439.89	383.85
440.08	447.04
440.26	404.91
440.45	358.10
440.63	404.91
440.82	369.80
441.01	365.12
441.19	407.25
441.38	360.44
441.57	381.51
441.75	421.30
441.94	437.68
442.12	383.85
442.31	461.09
442.50	416.62
442.68	372.15
442.87	358.10
443.05	367.46
443.24	379.17
443.43	414.27
443.61	465.77
443.80	379.17
443.98	463.43
444.17	440.02
444.35	341.72
444.54	390.87
444.73	367.46
444.91	458.74
445.10	435.34
445.28	393.21
445.47	456.40
445.65	477.47
445.84	351.08
446.02	400.23
446.21	447.04
446.39	407.25
446.58	414.27
446.77	365.12
446.95	414.27
447.14	433.00
447.32	421.30
447.51	374.49
447.69	404.91
447.88	388.53
448.06	475.13
448.25	440.02
448.43	372.15
448.62	393.21
448.80	425.98
448.99	428.32
449.17	423.64
449.36	456.40
449.54	440.02
449.73	400.23
449.91	393.21
450.10	437.68
450.28	498.53
450.46	454.06
450.65	411.93
450.83	411.93
451.02	411.93
451.20	383.85
451.39	435.34
451.57	433.00
451.76	423.64
451.94	386.19
452.13	447.04
452.31	451.72
452.49	430.66
452.68	372.15
452.86	461.09
453.05	402.57
453.23	423.64
453.42	416.62
453.60	454.06
453.78	454.06
453.97	400.23
454.15	358.10
454.34	442.36
454.52	400.23
454.70	411.93
454.89	409.59
455.07	421.30
455.26	416.62
455.44	407.25
455.62	407.25
455.81	393.21
455.99	407.25
456.17	393.21
456.36	379.17
456.54	369.80
456.73	383.85
456.91	407.25
457.09	430.66
457.28	320.65
457.46	402.57
457.64	482.15
457.83	444.70
458.01	463.43
458.19	411.93
458.38	428.32
458.56	397.89
458.74	407.25
458.93	404.91
459.11	451.72
459.29	395.55
459.48	383.85
459.66	435.34
459.84	383.85
460.03	454.06
460.21	458.74
460.39	458.74
460.57	458.74
460.76	425.98
460.94	355.76
461.12	423.64
461.31	423.64
461.49	425.98
461.67	351.08
461.85	475.13
462.04	379.17
462.22	718.54
462.40	407.25
462.59	498.53
462.77	496.19
462.95	416.62
463.13	369.80
463.32	451.72
463.50	404.91
463.68	374.49
463.86	404.91
464.05	416.62
464.23	444.70
464.41	421.30
464.59	430.66
464.78	425.98
464.96	425.98
465.14	365.12
465.32	390.87
465.50	425.98
465.69	428.32
465.87	421.30
466.05	355.76
466.23	376.83
466.41	430.66
466.60	440.02
466.78	379.17
466.96	395.55
467.14	358.10
467.32	440.02
467.51	407.25
467.69	468.11
467.87	440.02
468.05	470.45
468.23	433.00
468.41	386.19
468.60	351.08
468.78	400.23
468.96	381.51
469.14	433.00
469.32	393.21
469.50	372.15
469.69	505.56
469.87	421.30
470.05	430.66
470.23	472.79
470.41	437.68
470.59	475.13
470.77	435.34
470.95	365.12
471.14	433.00
471.32	449.38
471.50	444.70
471.68	442.36
471.86	423.64
472.04	367.46
472.22	376.83
472.40	428.32
472.58	379.17
472.77	369.80
472.95	440.02
473.13	484.49
473.31	416.62
473.49	437.68
473.67	407.25
473.85	397.89
474.03	393.21
474.21	477.47
474.39	461.09
474.57	440.02
474.75	365.12
474.93	400.23
475.12	393.21
475.30	418.96
475.48	348.74
475.66	407.25
475.84	386.19
476.02	334.70
476.20	418.96
476.38	442.36
476.56	447.04
476.74	470.45
476.92	472.79
477.10	435.34
477.28	416.62
477.46	428.32
477.64	423.64
477.82	379.17
478.00	374.49
478.18	414.27
478.36	416.62
478.54	369.80
478.72	421.30
478.90	376.83
479.08	437.68
479.26	416.62
479.44	395.55
479.62	393.21
479.80	346.40
479.98	355.76
480.16	430.66
480.34	400.23
480.52	409.59
480.70	447.04
480.88	440.02
481.06	409.59
481.24	341.72
481.41	395.55
481.59	486.83
481.77	320.65
481.95	440.02
482.13	411.93
482.31	458.74
482.49	397.89
482.67	400.23
482.85	374.49
483.03	461.09
483.21	337.04
483.39	362.78
483.57	332.36
483.74	484.49
483.92	416.62
484.10	374.49
484.28	393.21
484.46	449.38
484.64	379.17
484.82	381.51
485.00	388.53
485.18	379.17
485.35	425.98
485.53	444.70
485.71	397.89
485.89	404.91
486.07	381.51
486.25	362.78
486.43	397.89
486.61	418.96
486.78	433.00
486.96	416.62
487.14	421.30
487.32	418.96
487.50	376.83
487.68	425.98
487.85	400.23
488.03	470.45
488.21	388.53
488.39	423.64
488.57	475.13
488.75	416.62
488.92	449.38
489.10	449.38
489.28	407.25
489.46	437.68
489.64	484.49
489.81	442.36
489.99	461.09
490.17	369.80
490.35	430.66
490.53	369.80
490.70	454.06
490.88	428.32
491.06	374.49
491.24	411.93
491.41	362.78
491.59	437.68
491.77	404.91
491.95	430.66
492.13	479.81
492.30	411.93
492.48	425.98
492.66	423.64
492.84	369.80
493.01	416.62
493.19	418.96
493.37	463.43
493.54	425.98
493.72	447.04
493.90	395.55
494.08	423.64
494.25	407.25
494.43	468.11
494.61	341.72
494.79	402.57
494.96	437.68
495.14	430.66
495.32	388.53
495.49	463.43
495.67	409.59
495.85	372.15
496.02	407.25
496.20	402.57
496.38	475.13
496.55	400.23
496.73	402.57
496.91	437.68
497.09	416.62
497.26	390.87
497.44	341.72
497.62	395.55
497.79	400.23
497.97	428.32
498.14	388.53
498.32	463.43
498.50	425.98
498.67	397.89
498.85	365.12
499.03	386.19
499.20	465.77
499.38	374.49
499.56	360.44
499.73	468.11
499.91	449.38
500.08	390.87
500.26	348.74
500.44	409.59
500.61	369.80
500.79	369.80
500.97	414.27
501.14	435.34
501.32	428.32
501.49	397.89
501.67	416.62
501.84	404.91
502.02	423.64
502.20	381.51
502.37	353.42
502.55	416.62
502.72	468.11
502.90	414.27
503.07	411.93
503.25	461.09
503.43	327.68
503.60	386.19
503.78	400.23
503.95	416.62
504.13	383.85
504.30	402.57
504.48	337.04
504.65	491.51
504.83	442.36
505.01	376.83
505.18	386.19
505.36	482.15
505.53	435.34
505.71	437.68
505.88	395.55
506.06	458.74
506.23	440.02
506.41	454.06
506.58	411.93
506.76	437.68
506.93	367.46
507.11	383.85
507.28	362.78
507.46	372.15
507.63	390.87
507.81	365.12
507.98	440.02
508.16	407.25
508.33	430.66
508.50	376.83
508.68	409.59
508.85	416.62
509.03	486.83
509.20	337.04
509.38	454.06
509.55	454.06
509.73	379.17
509.90	397.89
510.08	402.57
510.25	470.45
510.42	395.55
510.60	500.87
510.77	458.74
510.95	482.15
511.12	449.38
511.30	376.83
511.47	442.36
511.64	416.62
511.82	428.32
511.99	402.57
512.17	383.85
512.34	430.66
512.51	393.21
512.69	414.27
512.86	407.25
513.04	341.72
513.21	379.17
513.38	381.51
513.56	442.36
513.73	416.62
513.90	390.87
514.08	425.98
514.25	461.09
514.43	425.98
514.60	376.83
514.77	414.27
514.95	325.33
515.12	418.96
515.29	379.17
515.47	449.38
515.64	461.09
515.81	348.74
515.99	390.87
516.16	383.85
516.33	458.74
516.51	393.21
516.68	372.15
516.85	383.85
517.03	308.95
517.20	418.96
517.37	435.34
517.54	383.85
517.72	367.46
517.89	404.91
518.06	435.34
518.24	449.38
518.41	400.23
518.58	437.68
518.75	433.00
518.93	365.12
519.10	386.19
519.27	421.30
519.45	409.59
519.62	425.98
519.79	397.89
519.96	372.15
520.14	372.15
520.31	465.77
520.48	369.80
520.65	388.53
520.83	409.59
521.00	428.32
521.17	383.85
521.34	437.68
521.52	395.55
521.69	395.55
521.86	451.72
522.03	433.00
522.20	486.83
522.38	390.87
522.55	402.57
522.72	423.64
522.89	484.49
523.07	461.09
523.24	365.12
523.41	367.46
523.58	306.61
523.75	400.23
523.92	428.32
524.10	442.36
524.27	482.15
524.44	447.04
524.61	402.57
524.78	418.96
524.96	411.93
525.13	358.10
525.30	442.36
525.47	435.34
525.64	456.40
525.81	376.83
525.98	411.93
526.16	397.89
526.33	416.62
526.50	397.89
526.67	444.70
526.84	437.68
527.01	423.64
527.18	437.68
527.36	390.87
527.53	369.80
527.70	418.96
527.87	381.51
528.04	428.32
528.21	428.32
528.38	468.11
528.55	402.57
528.72	461.09
528.89	486.83
529.07	421.30
529.24	388.53
529.41	447.04
529.58	409.59
529.75	369.80
529.92	425.98
530.09	365.12
530.26	402.57
530.43	379.17
530.60	379.17
530.77	388.53
530.94	435.34
531.11	367.46
531.28	430.66
531.46	369.80
531.63	423.64
531.80	409.59
531.97	414.27
532.14	374.49
532.31	376.83
532.48	411.93
532.65	409.59
532.82	362.78
532.99	418.96
533.16	435.34
533.33	416.62
533.50	449.38
533.67	383.85
533.84	440.02
534.01	395.55
534.18	395.55
534.35	322.99
534.52	454.06
534.69	437.68
534.86	381.51
535.03	409.59
535.20	465.77
535.37	393.21
535.54	362.78
535.71	433.00
535.88	482.15
536.05	440.02
536.22	477.47
536.38	407.25
536.55	425.98
536.72	430.66
536.89	454.06
537.06	456.40
537.23	397.89
537.40	414.27
537.57	372.15
537.74	451.72
537.91	430.66
538.08	472.79
538.25	433.00
538.42	386.19
538.59	365.12
538.75	372.15
538.92	451.72
539.09	437.68
539.26	423.64
539.43	524.28
539.60	463.43
539.77	482.15
539.94	444.70
540.11	454.06
540.28	447.04
540.44	535.98
540.61	355.76
540.78	465.77
540.95	376.83
541.12	402.57
541.29	416.62
541.46	411.93
541.62	430.66
541.79	463.43
541.96	444.70
542.13	360.44
542.30	393.21
542.47	386.19
542.63	395.55
542.80	435.34
542.97	510.24
543.14	484.49
543.31	407.25
543.48	456.40
543.64	428.32
543.81	428.32
543.98	411.93
544.15	393.21
544.32	402.57
544.48	327.68
544.65	388.53
544.82	383.85
544.99	381.51
545.16	463.43
545.32	362.78
545.49	416.62
545.66	430.66
545.83	358.10
546.00	414.27
546.16	418.96
546.33	379.17
546.50	416.62
546.67	414.27
546.83	386.19
547.00	409.59
547.17	447.04
547.34	344.06
547.50	386.19
547.67	437.68
547.84	379.17
548.00	390.87
548.17	400.23
548.34	404.91
548.51	489.17
548.67	425.98
548.84	372.15
549.01	475.13
549.18	376.83
549.34	475.13
549.51	442.36
549.68	463.43
549.84	484.49
550.01	411.93
550.18	491.51
550.34	463.43
550.51	482.15
550.68	447.04
550.84	341.72
551.01	393.21
551.18	388.53
551.34	414.27
551.51	514.92
551.68	402.57
551.84	393.21
552.01	454.06
552.18	430.66
552.34	407.25
552.51	400.23
552.68	421.30
552.84	330.02
553.01	444.70
553.18	491.51
553.34	444.70
553.51	444.70
553.67	416.62
553.84	393.21
554.01	493.85
554.17	425.98
554.34	479.81
554.51	353.42
554.67	475.13
554.84	388.53
555.00	414.27
555.17	330.02
555.33	379.17
555.50	468.11
555.67	360.44
555.83	425.98
556.00	390.87
556.16	538.32
556.33	379.17
556.50	447.04
556.66	482.15
556.83	428.32
556.99	418.96
557.16	430.66
557.32	475.13
557.49	465.77
557.65	355.76
557.82	421.30
557.98	425.98
558.15	463.43
558.32	400.23
558.48	411.93
558.65	437.68
558.81	425.98
558.98	395.55
559.14	374.49
559.31	409.59
559.47	454.06
559.64	393.21
559.80	379.17
559.97	409.59
560.13	381.51
560.30	308.95
560.46	353.42
560.63	428.32
560.79	463.43
560.96	428.32
561.12	358.10
561.29	433.00
561.45	409.59
561.61	430.66
561.78	491.51
561.94	451.72
562.11	463.43
562.27	395.55
562.44	351.08
562.60	425.98
562.77	409.59
562.93	491.51
563.10	425.98
563.26	465.77
563.42	414.27
563.59	437.68
563.75	451.72
563.92	397.89
564.08	411.93
564.24	465.77
564.41	477.47
564.57	346.40
564.74	423.64
564.90	423.64
565.07	425.98
565.23	489.17
565.39	475.13
565.56	512.58
565.72	393.21
565.88	351.08
566.05	407.25
566.21	393.21
566.38	461.09
566.54	475.13
566.70	386.19
566.87	425.98
567.03	416.62
567.19	341.72
567.36	416.62
567.52	395.55
567.68	372.15
567.85	472.79
568.01	395.55
568.17	332.36
568.34	416.62
568.50	456.40
568.66	416.62
568.83	461.09
568.99	351.08
569.15	472.79
569.32	463.43
569.48	463.43
569.64	456.40
569.81	449.38
569.97	360.44
570.13	449.38
570.30	433.00
570.46	463.43
570.62	482.15
570.78	433.00
570.95	428.32
571.11	425.98
571.27	395.55
571.43	407.25
571.60	418.96
571.76	376.83
571.92	355.76
572.09	372.15
572.25	339.38
572.41	386.19
572.57	355.76
572.74	468.11
572.90	437.68
573.06	393.21
573.22	500.87
573.38	388.53
573.55	472.79
573.71	472.79
573.87	482.15
574.03	414.27
574.20	344.06
574.36	400.23
574.52	400.23
574.68	376.83
574.84	465.77
575.01	397.89
575.17	383.85
575.33	447.04
575.49	351.08
575.65	360.44
575.82	454.06
575.98	433.00
576.14	489.17
576.30	428.32
576.46	423.64
576.62	407.25
576.79	390.87
576.95	404.91
577.11	315.97
577.27	372.15
577.43	491.51
577.59	477.47
577.75	409.59
577.92	358.10
578.08	369.80
578.24	376.83
578.40	404.91
578.56	428.32
578.72	407.25
578.88	430.66
579.04	351.08
579.21	430.66
579.37	442.36
579.53	454.06
579.69	425.98
579.85	418.96
580.01	477.47
580.17	414.27
580.33	388.53
580.49	435.34
580.65	402.57
580.82	423.64
580.98	402.57
581.14	421.30
581.30	433.00
581.46	409.59
581.62	437.68
581.78	440.02
581.94	475.13
582.10	397.89
582.26	367.46
582.42	362.78
582.58	521.94
582.74	409.59
582.90	397.89
583.06	414.27
583.22	409.59
583.38	341.72
583.54	390.87
583.70	388.53
583.86	339.38
584.02	374.49
584.18	479.81
584.34	461.09
584.50	416.62
584.66	386.19
584.82	414.27
584.98	421.30
585.14	381.51
585.30	423.64
585.46	440.02
585.62	475.13
585.78	397.89
585.94	358.10
586.10	435.34
586.26	402.57
586.42	414.27
586.58	369.80
586.74	390.87
586.90	440.02
587.06	414.27
587.22	435.34
587.38	390.87
587.54	372.15
587.70	444.70
587.86	479.81
588.02	383.85
588.18	442.36
588.34	423.64
588.49	454.06
588.65	390.87
588.81	477.47
588.97	449.38
589.13	505.56
589.29	421.30
589.45	404.91
589.61	465.77
589.77	407.25
589.93	423.64
590.08	482.15
590.24	447.04
590.40	407.25
590.56	449.38
590.72	461.09
590.88	449.38
591.04	404.91
591.20	470.45
591.35	470.45
591.51	395.55
591.67	437.68
591.83	449.38
591.99	409.59
592.15	458.74
592.31	383.85
592.46	435.34
592.62	428.32
592.78	437.68
592.94	381.51
593.10	388.53
593.26	414.27
593.41	379.17
593.57	425.98
593.73	365.12
593.89	461.09
594.05	411.93
594.20	433.00
594.36	442.36
594.52	463.43
594.68	360.44
594.84	444.70
594.99	451.72
595.15	454.06
595.31	404.91
595.47	451.72
595.62	458.74
595.78	402.57
595.94	348.74
596.10	477.47
596.25	430.66
596.41	395.55
596.57	421.30
596.73	397.89
596.88	447.04
597.04	493.85
597.20	383.85
597.36	390.87
597.51	376.83
597.67	428.32
597.83	416.62
597.99	386.19
598.14	414.27
598.30	430.66
598.46	411.93
598.61	458.74
598.77	372.15
598.93	418.96
599.09	400.23
599.24	393.21
599.40	442.36
599.56	444.70
599.71	355.76
599.87	386.19
600.03	421.30
600.18	381.51
600.34	418.96
600.50	435.34
600.65	379.17
600.81	475.13
600.97	479.81
601.12	442.36
601.28	491.51
601.44	409.59
601.59	416.62
601.75	416.62
601.91	402.57
602.06	468.11
602.22	498.53
602.37	433.00
602.53	386.19
602.69	407.25
602.84	400.23
603.00	421.30
603.16	440.02
603.31	409.59
603.47	383.85
603.62	411.93
603.78	454.06
603.94	430.66
604.09	379.17
604.25	510.24
604.40	369.80
604.56	479.81
604.71	414.27
604.87	447.04
605.03	337.04
605.18	353.42
605.34	433.00
605.49	430.66
605.65	440.02
605.80	376.83
605.96	472.79
606.12	390.87
606.27	423.64
606.43	379.17
606.58	484.49
606.74	411.93
606.89	348.74
607.05	465.77
607.20	433.00
607.36	409.59
607.51	472.79
607.67	418.96
607.82	489.17
607.98	465.77
608.13	353.42
608.29	416.62
608.44	477.47
608.60	521.94
608.75	440.02
608.91	418.96
609.06	435.34
609.22	400.23
609.37	402.57
609.53	386.19
609.68	500.87
609.84	428.32
609.99	411.93
610.15	409.59
