SpectraSuite Data File
++++++++++++++++++++++++++++++++++++
Date: Fri Oct 25 12:10:42 EDT 2013
User: price-jones
Dark Spectrum Present: No
Reference Spectrum Present: No
Number of Sampled Component Spectra: 1
Spectrometers: USB2+H05261
Integration Time (usec): 100000 (USB2+H05261)
Spectra Averaged: 1 (USB2+H05261)
Boxcar Smoothing: 0 (USB2+H05261)
Correct for Electrical Dark: No (USB2+H05261)
Strobe/Lamp Enabled: No (USB2+H05261)
Correct for Detector Non-linearity: No (USB2+H05261)
Correct for Stray Light: No (USB2+H05261)
Number of Pixels in Processed Spectrum: 2048
>>>>>Begin Processed Spectral Data<<<<<
365.73	332.36
365.92	332.36
366.12	332.36
366.32	306.61
366.52	290.23
366.72	238.73
366.91	215.33
367.11	285.55
367.31	205.97
367.51	255.12
367.70	133.41
367.90	224.69
368.10	318.31
368.30	238.73
368.49	285.55
368.69	292.57
368.89	245.76
369.09	327.68
369.28	322.99
369.48	304.27
369.68	248.10
369.87	311.29
370.07	278.52
370.27	330.02
370.47	362.78
370.66	330.02
370.86	407.25
371.06	386.19
371.25	425.98
371.45	346.40
371.65	414.27
371.84	376.83
372.04	404.91
372.24	393.21
372.44	374.49
372.63	383.85
372.83	400.23
373.03	404.91
373.22	402.57
373.42	449.38
373.62	454.06
373.81	344.06
374.01	390.87
374.21	383.85
374.40	414.27
374.60	416.62
374.79	381.51
374.99	437.68
375.19	318.31
375.38	416.62
375.58	358.10
375.78	463.43
375.97	449.38
376.17	418.96
376.37	400.23
376.56	404.91
376.76	435.34
376.95	433.00
377.15	493.85
377.35	430.66
377.54	407.25
377.74	451.72
377.93	421.30
378.13	449.38
378.33	369.80
378.52	395.55
378.72	383.85
378.91	411.93
379.11	458.74
379.31	433.00
379.50	514.92
379.70	411.93
379.89	374.49
380.09	374.49
380.28	367.46
380.48	416.62
380.68	360.44
380.87	344.06
381.07	395.55
381.26	402.57
381.46	477.47
381.65	421.30
381.85	475.13
382.04	383.85
382.24	449.38
382.43	397.89
382.63	451.72
382.83	407.25
383.02	433.00
383.22	423.64
383.41	379.17
383.61	423.64
383.80	383.85
384.00	416.62
384.19	390.87
384.39	358.10
384.58	390.87
384.78	407.25
384.97	409.59
385.17	458.74
385.36	451.72
385.56	423.64
385.75	411.93
385.95	400.23
386.14	425.98
386.34	430.66
386.53	447.04
386.72	388.53
386.92	475.13
387.11	402.57
387.31	409.59
387.50	383.85
387.70	374.49
387.89	402.57
388.09	339.38
388.28	411.93
388.48	418.96
388.67	444.70
388.86	374.49
389.06	386.19
389.25	395.55
389.45	503.22
389.64	379.17
389.84	465.77
390.03	475.13
390.22	486.83
390.42	407.25
390.61	397.89
390.81	409.59
391.00	430.66
391.19	404.91
391.39	337.04
391.58	425.98
391.78	517.26
391.97	386.19
392.16	381.51
392.36	381.51
392.55	386.19
392.75	465.77
392.94	395.55
393.13	451.72
393.33	381.51
393.52	400.23
393.71	402.57
393.91	351.08
394.10	407.25
394.29	442.36
394.49	386.19
394.68	346.40
394.88	444.70
395.07	414.27
395.26	440.02
395.46	395.55
395.65	365.12
395.84	407.25
396.04	456.40
396.23	409.59
396.42	376.83
396.62	388.53
396.81	414.27
397.00	451.72
397.19	402.57
397.39	451.72
397.58	421.30
397.77	365.12
397.97	430.66
398.16	409.59
398.35	437.68
398.55	416.62
398.74	290.23
398.93	400.23
399.12	341.72
399.32	409.59
399.51	344.06
399.70	416.62
399.90	404.91
400.09	369.80
400.28	360.44
400.47	390.87
400.67	320.65
400.86	425.98
401.05	447.04
401.24	421.30
401.44	421.30
401.63	402.57
401.82	470.45
402.01	430.66
402.21	409.59
402.40	475.13
402.59	386.19
402.78	421.30
402.97	444.70
403.17	458.74
403.36	397.89
403.55	393.21
403.74	411.93
403.93	416.62
404.13	430.66
404.32	416.62
404.51	360.44
404.70	404.91
404.89	397.89
405.09	383.85
405.28	353.42
405.47	346.40
405.66	397.89
405.85	421.30
406.05	449.38
406.24	390.87
406.43	393.21
406.62	404.91
406.81	400.23
407.00	294.91
407.20	411.93
407.39	402.57
407.58	397.89
407.77	402.57
407.96	477.47
408.15	383.85
408.34	381.51
408.54	395.55
408.73	428.32
408.92	437.68
409.11	381.51
409.30	386.19
409.49	353.42
409.68	400.23
409.87	397.89
410.07	376.83
410.26	468.11
410.45	510.24
410.64	482.15
410.83	428.32
411.02	444.70
411.21	397.89
411.40	437.68
411.59	423.64
411.78	404.91
411.98	374.49
412.17	395.55
412.36	358.10
412.55	390.87
412.74	400.23
412.93	421.30
413.12	470.45
413.31	411.93
413.50	397.89
413.69	404.91
413.88	442.36
414.07	461.09
414.26	463.43
414.45	367.46
414.64	404.91
414.83	367.46
415.02	372.15
415.22	390.87
415.41	374.49
415.60	418.96
415.79	397.89
415.98	381.51
416.17	454.06
416.36	355.76
416.55	386.19
416.74	461.09
416.93	447.04
417.12	421.30
417.31	393.21
417.50	407.25
417.69	468.11
417.88	337.04
418.07	341.72
418.26	475.13
418.45	428.32
418.64	386.19
418.83	348.74
419.02	402.57
419.21	454.06
419.39	372.15
419.58	381.51
419.77	416.62
419.96	346.40
420.15	503.22
420.34	404.91
420.53	351.08
420.72	379.17
420.91	360.44
421.10	416.62
421.29	430.66
421.48	430.66
421.67	400.23
421.86	383.85
422.05	393.21
422.24	484.49
422.43	372.15
422.61	379.17
422.80	374.49
422.99	435.34
423.18	416.62
423.37	477.47
423.56	475.13
423.75	339.38
423.94	433.00
424.13	360.44
424.32	409.59
424.50	374.49
424.69	423.64
424.88	390.87
425.07	353.42
425.26	411.93
425.45	493.85
425.64	374.49
425.83	348.74
426.01	489.17
426.20	440.02
426.39	477.47
426.58	395.55
426.77	374.49
426.96	472.79
427.15	416.62
427.33	409.59
427.52	425.98
427.71	390.87
427.90	435.34
428.09	472.79
428.28	379.17
428.46	386.19
428.65	362.78
428.84	355.76
429.03	416.62
429.22	407.25
429.40	433.00
429.59	423.64
429.78	451.72
429.97	404.91
430.16	376.83
430.34	421.30
430.53	423.64
430.72	465.77
430.91	475.13
431.10	362.78
431.28	386.19
431.47	386.19
431.66	503.22
431.85	444.70
432.03	423.64
432.22	479.81
432.41	409.59
432.60	475.13
432.79	451.72
432.97	374.49
433.16	428.32
433.35	383.85
433.54	449.38
433.72	433.00
433.91	369.80
434.10	458.74
434.28	437.68
434.47	437.68
434.66	505.56
434.85	362.78
435.03	407.25
435.22	440.02
435.41	425.98
435.59	383.85
435.78	444.70
435.97	355.76
436.16	454.06
436.34	348.74
436.53	409.59
436.72	435.34
436.90	442.36
437.09	454.06
437.28	334.70
437.46	411.93
437.65	451.72
437.84	407.25
438.02	435.34
438.21	414.27
438.40	416.62
438.58	430.66
438.77	379.17
438.96	425.98
439.14	390.87
439.33	498.53
439.52	421.30
439.70	315.97
439.89	425.98
440.08	388.53
440.26	404.91
440.45	402.57
440.63	395.55
440.82	365.12
441.01	400.23
441.19	447.04
441.38	404.91
441.57	416.62
441.75	355.76
441.94	402.57
442.12	423.64
442.31	425.98
442.50	395.55
442.68	437.68
442.87	447.04
443.05	430.66
443.24	397.89
443.43	498.53
443.61	425.98
443.80	477.47
443.98	414.27
444.17	358.10
444.35	454.06
444.54	414.27
444.73	442.36
444.91	421.30
445.10	430.66
445.28	388.53
445.47	435.34
445.65	496.19
445.84	325.33
446.02	330.02
446.21	365.12
446.39	425.98
446.58	404.91
446.77	404.91
446.95	451.72
447.14	390.87
447.32	414.27
447.51	388.53
447.69	379.17
447.88	491.51
448.06	386.19
448.25	386.19
448.43	344.06
448.62	404.91
448.80	486.83
448.99	393.21
449.17	365.12
449.36	411.93
449.54	463.43
449.73	400.23
449.91	456.40
450.10	416.62
450.28	409.59
450.46	423.64
450.65	465.77
450.83	402.57
451.02	451.72
451.20	414.27
451.39	416.62
451.57	437.68
451.76	477.47
451.94	461.09
452.13	402.57
452.31	468.11
452.49	348.74
452.68	379.17
452.86	442.36
453.05	477.47
453.23	397.89
453.42	381.51
453.60	416.62
453.78	423.64
453.97	416.62
454.15	390.87
454.34	353.42
454.52	355.76
454.70	442.36
454.89	402.57
455.07	411.93
455.26	395.55
455.44	435.34
455.62	400.23
455.81	433.00
455.99	440.02
456.17	397.89
456.36	360.44
456.54	390.87
456.73	472.79
456.91	360.44
457.09	407.25
457.28	472.79
457.46	388.53
457.64	416.62
457.83	400.23
458.01	430.66
458.19	475.13
458.38	465.77
458.56	449.38
458.74	306.61
458.93	374.49
459.11	402.57
459.29	390.87
459.48	390.87
459.66	381.51
459.84	477.47
460.03	435.34
460.21	447.04
460.39	402.57
460.57	423.64
460.76	367.46
460.94	386.19
461.12	425.98
461.31	472.79
461.49	496.19
461.67	369.80
461.85	393.21
462.04	425.98
462.22	830.89
462.40	407.25
462.59	414.27
462.77	348.74
462.95	411.93
463.13	428.32
463.32	433.00
463.50	397.89
463.68	404.91
463.86	437.68
464.05	383.85
464.23	372.15
464.41	470.45
464.59	355.76
464.78	358.10
464.96	353.42
465.14	311.29
465.32	397.89
465.50	437.68
465.69	461.09
465.87	348.74
466.05	423.64
466.23	447.04
466.41	395.55
466.60	433.00
466.78	423.64
466.96	437.68
467.14	381.51
467.32	383.85
467.51	425.98
467.69	468.11
467.87	454.06
468.05	435.34
468.23	451.72
468.41	421.30
468.60	414.27
468.78	386.19
468.96	423.64
469.14	437.68
469.32	360.44
469.50	416.62
469.69	430.66
469.87	435.34
470.05	395.55
470.23	416.62
470.41	355.76
470.59	404.91
470.77	367.46
470.95	451.72
471.14	404.91
471.32	409.59
471.50	514.92
471.68	407.25
471.86	360.44
472.04	383.85
472.22	400.23
472.40	365.12
472.58	451.72
472.77	479.81
472.95	475.13
473.13	442.36
473.31	418.96
473.49	409.59
473.67	400.23
473.85	493.85
474.03	395.55
474.21	383.85
474.39	477.47
474.57	414.27
474.75	416.62
474.93	337.04
475.12	374.49
475.30	447.04
475.48	461.09
475.66	346.40
475.84	346.40
476.02	388.53
476.20	414.27
476.38	402.57
476.56	521.94
476.74	346.40
476.92	369.80
477.10	383.85
477.28	442.36
477.46	430.66
477.64	435.34
477.82	458.74
478.00	416.62
478.18	428.32
478.36	409.59
478.54	414.27
478.72	437.68
478.90	395.55
479.08	418.96
479.26	404.91
479.44	409.59
479.62	407.25
479.80	437.68
479.98	390.87
480.16	482.15
480.34	404.91
480.52	404.91
480.70	437.68
480.88	425.98
481.06	416.62
481.24	402.57
481.41	498.53
481.59	400.23
481.77	425.98
481.95	421.30
482.13	447.04
482.31	400.23
482.49	430.66
482.67	414.27
482.85	463.43
483.03	376.83
483.21	458.74
483.39	393.21
483.57	425.98
483.74	421.30
483.92	447.04
484.10	423.64
484.28	435.34
484.46	456.40
484.64	435.34
484.82	346.40
485.00	451.72
485.18	498.53
485.35	425.98
485.53	379.17
485.71	416.62
485.89	400.23
486.07	421.30
486.25	458.74
486.43	400.23
486.61	451.72
486.78	423.64
486.96	421.30
487.14	430.66
487.32	449.38
487.50	428.32
487.68	404.91
487.85	358.10
488.03	404.91
488.21	404.91
488.39	463.43
488.57	379.17
488.75	421.30
488.92	507.90
489.10	493.85
489.28	369.80
489.46	395.55
489.64	430.66
489.81	404.91
489.99	416.62
490.17	500.87
490.35	468.11
490.53	411.93
490.70	421.30
490.88	447.04
491.06	397.89
491.24	395.55
491.41	379.17
491.59	353.42
491.77	353.42
491.95	404.91
492.13	414.27
492.30	411.93
492.48	402.57
492.66	390.87
492.84	383.85
493.01	484.49
493.19	388.53
493.37	362.78
493.54	418.96
493.72	482.15
493.90	433.00
494.08	416.62
494.25	372.15
494.43	407.25
494.61	407.25
494.79	500.87
494.96	404.91
495.14	430.66
495.32	437.68
495.49	442.36
495.67	362.78
495.85	463.43
496.02	461.09
496.20	454.06
496.38	411.93
496.55	407.25
496.73	454.06
496.91	451.72
497.09	463.43
497.26	447.04
497.44	463.43
497.62	421.30
497.79	447.04
497.97	320.65
498.14	430.66
498.32	367.46
498.50	355.76
498.67	395.55
498.85	362.78
499.03	393.21
499.20	409.59
499.38	447.04
499.56	411.93
499.73	451.72
499.91	404.91
500.08	388.53
500.26	433.00
500.44	358.10
500.61	449.38
500.79	393.21
500.97	416.62
501.14	395.55
501.32	449.38
501.49	449.38
501.67	402.57
501.84	442.36
502.02	388.53
502.20	470.45
502.37	358.10
502.55	416.62
502.72	388.53
502.90	440.02
503.07	456.40
503.25	423.64
503.43	381.51
503.60	463.43
503.78	400.23
503.95	400.23
504.13	360.44
504.30	425.98
504.48	461.09
504.65	425.98
504.83	414.27
505.01	421.30
505.18	360.44
505.36	355.76
505.53	372.15
505.71	362.78
505.88	409.59
506.06	360.44
506.23	362.78
506.41	437.68
506.58	374.49
506.76	383.85
506.93	379.17
507.11	407.25
507.28	461.09
507.46	418.96
507.63	447.04
507.81	507.90
507.98	393.21
508.16	397.89
508.33	418.96
508.50	454.06
508.68	360.44
508.85	383.85
509.03	447.04
509.20	360.44
509.38	440.02
509.55	397.89
509.73	393.21
509.90	393.21
510.08	388.53
510.25	463.43
510.42	416.62
510.60	397.89
510.77	463.43
510.95	454.06
511.12	395.55
511.30	360.44
511.47	461.09
511.64	465.77
511.82	421.30
511.99	418.96
512.17	362.78
512.34	390.87
512.51	367.46
512.69	468.11
512.86	348.74
513.04	444.70
513.21	463.43
513.38	449.38
513.56	456.40
513.73	355.76
513.90	421.30
514.08	355.76
514.25	442.36
514.43	421.30
514.60	440.02
514.77	454.06
514.95	407.25
515.12	397.89
515.29	414.27
515.47	472.79
515.64	423.64
515.81	421.30
515.99	367.46
516.16	428.32
516.33	430.66
516.51	360.44
516.68	388.53
516.85	447.04
517.03	395.55
517.20	458.74
517.37	369.80
517.54	430.66
517.72	437.68
517.89	479.81
518.06	421.30
518.24	355.76
518.41	404.91
518.58	409.59
518.75	440.02
518.93	433.00
519.10	386.19
519.27	440.02
519.45	435.34
519.62	346.40
519.79	425.98
519.96	407.25
520.14	360.44
520.31	498.53
520.48	451.72
520.65	461.09
520.83	409.59
521.00	430.66
521.17	428.32
521.34	444.70
521.52	372.15
521.69	454.06
521.86	428.32
522.03	379.17
522.20	503.22
522.38	484.49
522.55	430.66
522.72	461.09
522.89	425.98
523.07	468.11
523.24	440.02
523.41	402.57
523.58	440.02
523.75	458.74
523.92	372.15
524.10	425.98
524.27	418.96
524.44	362.78
524.61	440.02
524.78	397.89
524.96	475.13
525.13	421.30
525.30	362.78
525.47	479.81
525.64	397.89
525.81	337.04
525.98	388.53
526.16	379.17
526.33	388.53
526.50	372.15
526.67	395.55
526.84	351.08
527.01	421.30
527.18	435.34
527.36	374.49
527.53	400.23
527.70	447.04
527.87	411.93
528.04	409.59
528.21	388.53
528.38	496.19
528.55	535.98
528.72	411.93
528.89	414.27
529.07	376.83
529.24	404.91
529.41	447.04
529.58	379.17
529.75	381.51
529.92	440.02
530.09	400.23
530.26	390.87
530.43	416.62
530.60	430.66
530.77	416.62
530.94	404.91
531.11	421.30
531.28	372.15
531.46	407.25
531.63	402.57
531.80	433.00
531.97	411.93
532.14	404.91
532.31	393.21
532.48	486.83
532.65	430.66
532.82	400.23
532.99	346.40
533.16	409.59
533.33	472.79
533.50	402.57
533.67	404.91
533.84	355.76
534.01	376.83
534.18	358.10
534.35	386.19
534.52	421.30
534.69	390.87
534.86	360.44
535.03	447.04
535.20	407.25
535.37	496.19
535.54	414.27
535.71	374.49
535.88	479.81
536.05	383.85
536.22	437.68
536.38	414.27
536.55	416.62
536.72	355.76
536.89	421.30
537.06	411.93
537.23	458.74
537.40	402.57
537.57	397.89
537.74	409.59
537.91	411.93
538.08	376.83
538.25	463.43
538.42	454.06
538.59	496.19
538.75	416.62
538.92	381.51
539.09	428.32
539.26	376.83
539.43	475.13
539.60	409.59
539.77	435.34
539.94	414.27
540.11	360.44
540.28	470.45
540.44	409.59
540.61	428.32
540.78	423.64
540.95	351.08
541.12	447.04
541.29	353.42
541.46	411.93
541.62	407.25
541.79	437.68
541.96	423.64
542.13	428.32
542.30	376.83
542.47	465.77
542.63	402.57
542.80	461.09
542.97	423.64
543.14	463.43
543.31	430.66
543.48	393.21
543.64	491.51
543.81	409.59
543.98	451.72
544.15	404.91
544.32	484.49
544.48	444.70
544.65	435.34
544.82	339.38
544.99	404.91
545.16	428.32
545.32	463.43
545.49	416.62
545.66	355.76
545.83	308.95
546.00	365.12
546.16	416.62
546.33	486.83
546.50	454.06
546.67	475.13
546.83	447.04
547.00	407.25
547.17	409.59
547.34	414.27
547.50	404.91
547.67	390.87
547.84	351.08
548.00	461.09
548.17	409.59
548.34	390.87
548.51	463.43
548.67	545.34
548.84	440.02
549.01	407.25
549.18	486.83
549.34	402.57
549.51	447.04
549.68	456.40
549.84	409.59
550.01	334.70
550.18	423.64
550.34	433.00
550.51	390.87
550.68	496.19
550.84	458.74
551.01	444.70
551.18	444.70
551.34	402.57
551.51	397.89
551.68	379.17
551.84	463.43
552.01	428.32
552.18	547.69
552.34	454.06
552.51	493.85
552.68	477.47
552.84	454.06
553.01	458.74
553.18	393.21
553.34	369.80
553.51	454.06
553.67	430.66
553.84	416.62
554.01	383.85
554.17	388.53
554.34	414.27
554.51	358.10
554.67	423.64
554.84	451.72
555.00	449.38
555.17	461.09
555.33	482.15
555.50	470.45
555.67	451.72
555.83	348.74
556.00	397.89
556.16	503.22
556.33	372.15
556.50	393.21
556.66	381.51
556.83	369.80
556.99	407.25
557.16	414.27
557.32	393.21
557.49	381.51
557.65	435.34
557.82	444.70
557.98	388.53
558.15	400.23
558.32	433.00
558.48	425.98
558.65	407.25
558.81	383.85
558.98	393.21
559.14	428.32
559.31	447.04
559.47	461.09
559.64	402.57
559.80	372.15
559.97	414.27
560.13	407.25
560.30	442.36
560.46	407.25
560.63	402.57
560.79	348.74
560.96	416.62
561.12	374.49
561.29	346.40
561.45	461.09
561.61	451.72
561.78	535.98
561.94	423.64
562.11	341.72
562.27	351.08
562.44	383.85
562.60	421.30
562.77	379.17
562.93	421.30
563.10	423.64
563.26	496.19
563.42	397.89
563.59	407.25
563.75	456.40
563.92	491.51
564.08	416.62
564.24	458.74
564.41	503.22
564.57	477.47
564.74	374.49
564.90	428.32
565.07	383.85
565.23	451.72
565.39	381.51
565.56	414.27
565.72	470.45
565.88	400.23
566.05	365.12
566.21	433.00
566.38	409.59
566.54	414.27
566.70	435.34
566.87	475.13
567.03	400.23
567.19	423.64
567.36	425.98
567.52	433.00
567.68	465.77
567.85	444.70
568.01	451.72
568.17	355.76
568.34	449.38
568.50	472.79
568.66	435.34
568.83	454.06
568.99	435.34
569.15	465.77
569.32	491.51
569.48	449.38
569.64	437.68
569.81	444.70
569.97	430.66
570.13	428.32
570.30	376.83
570.46	416.62
570.62	365.12
570.78	395.55
570.95	402.57
571.11	463.43
571.27	437.68
571.43	437.68
571.60	414.27
571.76	390.87
571.92	407.25
572.09	409.59
572.25	376.83
572.41	421.30
572.57	440.02
572.74	411.93
572.90	465.77
573.06	454.06
573.22	461.09
573.38	428.32
573.55	456.40
573.71	418.96
573.87	477.47
574.03	395.55
574.20	395.55
574.36	463.43
574.52	402.57
574.68	346.40
574.84	409.59
575.01	484.49
575.17	477.47
575.33	418.96
575.49	423.64
575.65	404.91
575.82	376.83
575.98	402.57
576.14	447.04
576.30	475.13
576.46	353.42
576.62	390.87
576.79	456.40
576.95	430.66
577.11	397.89
577.27	465.77
577.43	348.74
577.59	402.57
577.75	409.59
577.92	425.98
578.08	381.51
578.24	372.15
578.40	437.68
578.56	395.55
578.72	470.45
578.88	374.49
579.04	379.17
579.21	435.34
579.37	447.04
579.53	409.59
579.69	397.89
579.85	421.30
580.01	449.38
580.17	458.74
580.33	390.87
580.49	461.09
580.65	463.43
580.82	433.00
580.98	409.59
581.14	449.38
581.30	456.40
581.46	463.43
581.62	395.55
581.78	404.91
581.94	425.98
582.10	407.25
582.26	416.62
582.42	425.98
582.58	388.53
582.74	393.21
582.90	376.83
583.06	430.66
583.22	430.66
583.38	409.59
583.54	376.83
583.70	503.22
583.86	425.98
584.02	353.42
584.18	421.30
584.34	379.17
584.50	451.72
584.66	421.30
584.82	425.98
584.98	468.11
585.14	423.64
585.30	418.96
585.46	393.21
585.62	414.27
585.78	482.15
585.94	416.62
586.10	491.51
586.26	376.83
586.42	482.15
586.58	395.55
586.74	440.02
586.90	358.10
587.06	383.85
587.22	386.19
587.38	379.17
587.54	425.98
587.70	463.43
587.86	402.57
588.02	411.93
588.18	479.81
588.34	461.09
588.49	339.38
588.65	461.09
588.81	388.53
588.97	435.34
589.13	442.36
589.29	461.09
589.45	365.12
589.61	433.00
589.77	444.70
589.93	308.95
590.08	353.42
590.24	360.44
590.40	430.66
590.56	468.11
590.72	388.53
590.88	355.76
591.04	395.55
591.20	334.70
591.35	395.55
591.51	395.55
591.67	416.62
591.83	407.25
591.99	442.36
592.15	447.04
592.31	454.06
592.46	461.09
592.62	393.21
592.78	367.46
592.94	388.53
593.10	372.15
593.26	430.66
593.41	393.21
593.57	477.47
593.73	390.87
593.89	475.13
594.05	435.34
594.20	433.00
594.36	496.19
594.52	435.34
594.68	425.98
594.84	397.89
594.99	479.81
595.15	374.49
595.31	423.64
595.47	472.79
595.62	421.30
595.78	411.93
595.94	440.02
596.10	416.62
596.25	388.53
596.41	395.55
596.57	395.55
596.73	372.15
596.88	411.93
597.04	393.21
597.20	355.76
597.36	397.89
597.51	454.06
597.67	379.17
597.83	414.27
597.99	442.36
598.14	383.85
598.30	423.64
598.46	379.17
598.61	383.85
598.77	344.06
598.93	400.23
599.09	458.74
599.24	489.17
599.40	393.21
599.56	425.98
599.71	388.53
599.87	381.51
600.03	379.17
600.18	477.47
600.34	449.38
600.50	421.30
600.65	388.53
600.81	421.30
600.97	472.79
601.12	449.38
601.28	421.30
601.44	388.53
601.59	416.62
601.75	395.55
601.91	372.15
602.06	390.87
602.22	519.60
602.37	470.45
602.53	393.21
602.69	395.55
602.84	414.27
603.00	402.57
603.16	358.10
603.31	447.04
603.47	402.57
603.62	479.81
603.78	423.64
603.94	442.36
604.09	358.10
604.25	433.00
604.40	397.89
604.56	351.08
604.71	393.21
604.87	334.70
605.03	418.96
605.18	360.44
605.34	491.51
605.49	411.93
605.65	402.57
605.80	395.55
605.96	416.62
606.12	430.66
606.27	390.87
606.43	461.09
606.58	435.34
606.74	397.89
606.89	402.57
607.05	444.70
607.20	397.89
607.36	437.68
607.51	416.62
607.67	454.06
607.82	400.23
607.98	383.85
608.13	444.70
608.29	440.02
608.44	475.13
608.60	461.09
608.75	409.59
608.91	395.55
609.06	409.59
609.22	451.72
609.37	381.51
609.53	440.02
609.68	416.62
609.84	362.78
609.99	414.27
610.15	418.96
