SpectraSuite Data File
++++++++++++++++++++++++++++++++++++
Date: Fri Oct 25 12:11:32 EDT 2013
User: price-jones
Dark Spectrum Present: No
Reference Spectrum Present: No
Number of Sampled Component Spectra: 1
Spectrometers: USB2+H05261
Integration Time (usec): 100000 (USB2+H05261)
Spectra Averaged: 1 (USB2+H05261)
Boxcar Smoothing: 0 (USB2+H05261)
Correct for Electrical Dark: No (USB2+H05261)
Strobe/Lamp Enabled: No (USB2+H05261)
Correct for Detector Non-linearity: No (USB2+H05261)
Correct for Stray Light: No (USB2+H05261)
Number of Pixels in Processed Spectrum: 2048
>>>>>Begin Processed Spectral Data<<<<<
365.73	416.62
365.92	416.62
366.12	416.62
366.32	220.01
366.52	184.90
366.72	212.99
366.91	203.63
367.11	297.25
367.31	257.46
367.51	147.45
367.70	212.99
367.90	229.37
368.10	245.76
368.30	269.16
368.49	264.48
368.69	262.14
368.89	276.18
369.09	205.97
369.28	262.14
369.48	257.46
369.68	283.20
369.87	330.02
370.07	234.05
370.27	358.10
370.47	325.33
370.66	308.95
370.86	320.65
371.06	423.64
371.25	393.21
371.45	372.15
371.65	346.40
371.84	362.78
372.04	372.15
372.24	442.36
372.44	409.59
372.63	386.19
372.83	390.87
373.03	407.25
373.22	423.64
373.42	388.53
373.62	456.40
373.81	418.96
374.01	388.53
374.21	451.72
374.40	486.83
374.60	500.87
374.79	402.57
374.99	358.10
375.19	411.93
375.38	402.57
375.58	369.80
375.78	409.59
375.97	414.27
376.17	451.72
376.37	418.96
376.56	325.33
376.76	397.89
376.95	414.27
377.15	444.70
377.35	327.68
377.54	365.12
377.74	404.91
377.93	409.59
378.13	451.72
378.33	425.98
378.52	409.59
378.72	433.00
378.91	475.13
379.11	407.25
379.31	402.57
379.50	372.15
379.70	411.93
379.89	454.06
380.09	360.44
380.28	395.55
380.48	486.83
380.68	416.62
380.87	397.89
381.07	360.44
381.26	355.76
381.46	374.49
381.65	337.04
381.85	402.57
382.04	423.64
382.24	395.55
382.43	344.06
382.63	400.23
382.83	468.11
383.02	479.81
383.22	465.77
383.41	425.98
383.61	456.40
383.80	428.32
384.00	449.38
384.19	440.02
384.39	348.74
384.58	449.38
384.78	414.27
384.97	409.59
385.17	449.38
385.36	425.98
385.56	423.64
385.75	407.25
385.95	362.78
386.14	463.43
386.34	395.55
386.53	430.66
386.72	444.70
386.92	407.25
387.11	374.49
387.31	369.80
387.50	355.76
387.70	374.49
387.89	386.19
388.09	388.53
388.28	388.53
388.48	423.64
388.67	437.68
388.86	472.79
389.06	437.68
389.25	418.96
389.45	379.17
389.64	444.70
389.84	337.04
390.03	447.04
390.22	423.64
390.42	402.57
390.61	400.23
390.81	369.80
391.00	381.51
391.19	435.34
391.39	418.96
391.58	423.64
391.78	409.59
391.97	416.62
392.16	402.57
392.36	472.79
392.55	444.70
392.75	372.15
392.94	390.87
393.13	435.34
393.33	388.53
393.52	498.53
393.71	386.19
393.91	451.72
394.10	395.55
394.29	461.09
394.49	360.44
394.68	425.98
394.88	472.79
395.07	407.25
395.26	395.55
395.46	484.49
395.65	468.11
395.84	470.45
396.04	482.15
396.23	386.19
396.42	383.85
396.62	374.49
396.81	388.53
397.00	430.66
397.19	383.85
397.39	416.62
397.58	418.96
397.77	407.25
397.97	365.12
398.16	386.19
398.35	425.98
398.55	379.17
398.74	430.66
398.93	416.62
399.12	404.91
399.32	381.51
399.51	383.85
399.70	414.27
399.90	463.43
400.09	400.23
400.28	355.76
400.47	444.70
400.67	360.44
400.86	390.87
401.05	388.53
401.24	402.57
401.44	440.02
401.63	369.80
401.82	437.68
402.01	442.36
402.21	425.98
402.40	425.98
402.59	397.89
402.78	409.59
402.97	416.62
403.17	447.04
403.36	451.72
403.55	430.66
403.74	346.40
403.93	414.27
404.13	423.64
404.32	397.89
404.51	374.49
404.70	465.77
404.89	465.77
405.09	411.93
405.28	428.32
405.47	414.27
405.66	437.68
405.85	407.25
406.05	376.83
406.24	458.74
406.43	442.36
406.62	414.27
406.81	437.68
407.00	463.43
407.20	402.57
407.39	379.17
407.58	381.51
407.77	395.55
407.96	456.40
408.15	400.23
408.34	465.77
408.54	430.66
408.73	451.72
408.92	402.57
409.11	449.38
409.30	407.25
409.49	341.72
409.68	449.38
409.87	376.83
410.07	395.55
410.26	360.44
410.45	411.93
410.64	379.17
410.83	386.19
411.02	369.80
411.21	407.25
411.40	400.23
411.59	386.19
411.78	369.80
411.98	418.96
412.17	372.15
412.36	454.06
412.55	362.78
412.74	421.30
412.93	514.92
413.12	414.27
413.31	393.21
413.50	437.68
413.69	318.31
413.88	421.30
414.07	496.19
414.26	397.89
414.45	421.30
414.64	442.36
414.83	400.23
415.02	400.23
415.22	444.70
415.41	362.78
415.60	341.72
415.79	372.15
415.98	369.80
416.17	411.93
416.36	428.32
416.55	411.93
416.74	423.64
416.93	475.13
417.12	407.25
417.31	456.40
417.50	355.76
417.69	421.30
417.88	482.15
418.07	395.55
418.26	404.91
418.45	435.34
418.64	411.93
418.83	421.30
419.02	390.87
419.21	400.23
419.39	468.11
419.58	346.40
419.77	416.62
419.96	435.34
420.15	369.80
420.34	386.19
420.53	414.27
420.72	496.19
420.91	440.02
421.10	393.21
421.29	425.98
421.48	414.27
421.67	360.44
421.86	362.78
422.05	381.51
422.24	444.70
422.43	313.63
422.61	379.17
422.80	390.87
422.99	472.79
423.18	367.46
423.37	447.04
423.56	395.55
423.75	442.36
423.94	407.25
424.13	372.15
424.32	430.66
424.50	454.06
424.69	374.49
424.88	468.11
425.07	367.46
425.26	395.55
425.45	365.12
425.64	397.89
425.83	447.04
426.01	470.45
426.20	369.80
426.39	381.51
426.58	425.98
426.77	430.66
426.96	461.09
427.15	379.17
427.33	369.80
427.52	425.98
427.71	332.36
427.90	397.89
428.09	318.31
428.28	397.89
428.46	367.46
428.65	458.74
428.84	402.57
429.03	418.96
429.22	430.66
429.40	402.57
429.59	477.47
429.78	433.00
429.97	430.66
430.16	409.59
430.34	402.57
430.53	386.19
430.72	362.78
430.91	454.06
431.10	292.57
431.28	463.43
431.47	397.89
431.66	402.57
431.85	379.17
432.03	454.06
432.22	447.04
432.41	433.00
432.60	425.98
432.79	423.64
432.97	379.17
433.16	344.06
433.35	447.04
433.54	418.96
433.72	376.83
433.91	393.21
434.10	367.46
434.28	407.25
434.47	442.36
434.66	428.32
434.85	341.72
435.03	339.38
435.22	477.47
435.41	475.13
435.59	418.96
435.78	423.64
435.97	355.76
436.16	409.59
436.34	386.19
436.53	404.91
436.72	390.87
436.90	393.21
437.09	449.38
437.28	449.38
437.46	386.19
437.65	421.30
437.84	428.32
438.02	402.57
438.21	372.15
438.40	367.46
438.58	444.70
438.77	351.08
438.96	442.36
439.14	362.78
439.33	407.25
439.52	360.44
439.70	393.21
439.89	482.15
440.08	430.66
440.26	376.83
440.45	428.32
440.63	402.57
440.82	330.02
441.01	386.19
441.19	409.59
441.38	428.32
441.57	477.47
441.75	449.38
441.94	372.15
442.12	517.26
442.31	461.09
442.50	402.57
442.68	482.15
442.87	444.70
443.05	463.43
443.24	390.87
443.43	505.56
443.61	397.89
443.80	465.77
443.98	407.25
444.17	355.76
444.35	517.26
444.54	447.04
444.73	407.25
444.91	468.11
445.10	451.72
445.28	386.19
445.47	369.80
445.65	425.98
445.84	332.36
446.02	435.34
446.21	393.21
446.39	428.32
446.58	442.36
446.77	423.64
446.95	414.27
447.14	404.91
447.32	451.72
447.51	425.98
447.69	461.09
447.88	428.32
448.06	423.64
448.25	489.17
448.43	339.38
448.62	425.98
448.80	386.19
448.99	477.47
449.17	423.64
449.36	395.55
449.54	381.51
449.73	402.57
449.91	393.21
450.10	372.15
450.28	386.19
450.46	414.27
450.65	411.93
450.83	360.44
451.02	418.96
451.20	433.00
451.39	355.76
451.57	414.27
451.76	454.06
451.94	416.62
452.13	369.80
452.31	365.12
452.49	472.79
452.68	423.64
452.86	400.23
453.05	458.74
453.23	435.34
453.42	402.57
453.60	465.77
453.78	409.59
453.97	409.59
454.15	421.30
454.34	414.27
454.52	346.40
454.70	489.17
454.89	374.49
455.07	425.98
455.26	402.57
455.44	475.13
455.62	402.57
455.81	482.15
455.99	421.30
456.17	397.89
456.36	360.44
456.54	416.62
456.73	365.12
456.91	461.09
457.09	421.30
457.28	449.38
457.46	388.53
457.64	404.91
457.83	388.53
458.01	425.98
458.19	454.06
458.38	322.99
458.56	428.32
458.74	372.15
458.93	416.62
459.11	362.78
459.29	416.62
459.48	470.45
459.66	451.72
459.84	414.27
460.03	477.47
460.21	451.72
460.39	437.68
460.57	482.15
460.76	341.72
460.94	428.32
461.12	414.27
461.31	400.23
461.49	475.13
461.67	437.68
461.85	390.87
462.04	388.53
462.22	709.18
462.40	447.04
462.59	447.04
462.77	423.64
462.95	390.87
463.13	390.87
463.32	383.85
463.50	400.23
463.68	484.49
463.86	414.27
464.05	407.25
464.23	442.36
464.41	484.49
464.59	437.68
464.78	409.59
464.96	358.10
465.14	430.66
465.32	372.15
465.50	444.70
465.69	428.32
465.87	376.83
466.05	369.80
466.23	372.15
466.41	433.00
466.60	458.74
466.78	388.53
466.96	442.36
467.14	407.25
467.32	470.45
467.51	411.93
467.69	489.17
467.87	393.21
468.05	397.89
468.23	538.32
468.41	374.49
468.60	411.93
468.78	440.02
468.96	489.17
469.14	430.66
469.32	362.78
469.50	416.62
469.69	404.91
469.87	430.66
470.05	430.66
470.23	400.23
470.41	442.36
470.59	404.91
470.77	437.68
470.95	348.74
471.14	407.25
471.32	430.66
471.50	430.66
471.68	428.32
471.86	428.32
472.04	461.09
472.22	397.89
472.40	407.25
472.58	496.19
472.77	348.74
472.95	353.42
473.13	465.77
473.31	428.32
473.49	456.40
473.67	437.68
473.85	442.36
474.03	482.15
474.21	437.68
474.39	454.06
474.57	390.87
474.75	418.96
474.93	376.83
475.12	475.13
475.30	402.57
475.48	447.04
475.66	437.68
475.84	423.64
476.02	414.27
476.20	404.91
476.38	425.98
476.56	437.68
476.74	351.08
476.92	425.98
477.10	489.17
477.28	433.00
477.46	421.30
477.64	390.87
477.82	404.91
478.00	430.66
478.18	372.15
478.36	372.15
478.54	362.78
478.72	409.59
478.90	437.68
479.08	414.27
479.26	390.87
479.44	430.66
479.62	395.55
479.80	388.53
479.98	404.91
480.16	421.30
480.34	458.74
480.52	416.62
480.70	346.40
480.88	411.93
481.06	421.30
481.24	348.74
481.41	416.62
481.59	411.93
481.77	465.77
481.95	430.66
482.13	447.04
482.31	463.43
482.49	365.12
482.67	430.66
482.85	400.23
483.03	381.51
483.21	407.25
483.39	365.12
483.57	456.40
483.74	393.21
483.92	400.23
484.10	404.91
484.28	388.53
484.46	379.17
484.64	447.04
484.82	367.46
485.00	409.59
485.18	477.47
485.35	362.78
485.53	491.51
485.71	440.02
485.89	376.83
486.07	409.59
486.25	428.32
486.43	447.04
486.61	400.23
486.78	404.91
486.96	404.91
487.14	430.66
487.32	379.17
487.50	430.66
487.68	454.06
487.85	404.91
488.03	430.66
488.21	409.59
488.39	423.64
488.57	414.27
488.75	428.32
488.92	491.51
489.10	402.57
489.28	465.77
489.46	365.12
489.64	440.02
489.81	423.64
489.99	407.25
490.17	376.83
490.35	444.70
490.53	388.53
490.70	430.66
490.88	393.21
491.06	486.83
491.24	458.74
491.41	444.70
491.59	496.19
491.77	355.76
491.95	402.57
492.13	397.89
492.30	376.83
492.48	411.93
492.66	425.98
492.84	475.13
493.01	416.62
493.19	386.19
493.37	442.36
493.54	393.21
493.72	425.98
493.90	425.98
494.08	416.62
494.25	491.51
494.43	425.98
494.61	428.32
494.79	411.93
494.96	430.66
495.14	393.21
495.32	407.25
495.49	482.15
495.67	402.57
495.85	383.85
496.02	404.91
496.20	477.47
496.38	428.32
496.55	430.66
496.73	383.85
496.91	362.78
497.09	437.68
497.26	458.74
497.44	416.62
497.62	383.85
497.79	372.15
497.97	367.46
498.14	456.40
498.32	411.93
498.50	400.23
498.67	404.91
498.85	397.89
499.03	479.81
499.20	484.49
499.38	428.32
499.56	404.91
499.73	521.94
499.91	437.68
500.08	472.79
500.26	461.09
500.44	402.57
500.61	435.34
500.79	327.68
500.97	379.17
501.14	440.02
501.32	411.93
501.49	402.57
501.67	404.91
501.84	425.98
502.02	470.45
502.20	449.38
502.37	465.77
502.55	402.57
502.72	348.74
502.90	360.44
503.07	402.57
503.25	465.77
503.43	425.98
503.60	444.70
503.78	388.53
503.95	393.21
504.13	404.91
504.30	465.77
504.48	470.45
504.65	400.23
504.83	369.80
505.01	458.74
505.18	407.25
505.36	358.10
505.53	414.27
505.71	433.00
505.88	465.77
506.06	442.36
506.23	470.45
506.41	393.21
506.58	444.70
506.76	440.02
506.93	435.34
507.11	358.10
507.28	374.49
507.46	369.80
507.63	430.66
507.81	348.74
507.98	435.34
508.16	433.00
508.33	425.98
508.50	435.34
508.68	440.02
508.85	372.15
509.03	339.38
509.20	411.93
509.38	402.57
509.55	489.17
509.73	390.87
509.90	388.53
510.08	414.27
510.25	433.00
510.42	430.66
510.60	435.34
510.77	376.83
510.95	454.06
511.12	393.21
511.30	418.96
511.47	440.02
511.64	507.90
511.82	362.78
511.99	414.27
512.17	421.30
512.34	407.25
512.51	388.53
512.69	423.64
512.86	430.66
513.04	421.30
513.21	479.81
513.38	376.83
513.56	414.27
513.73	437.68
513.90	346.40
514.08	400.23
514.25	496.19
514.43	430.66
514.60	351.08
514.77	472.79
514.95	423.64
515.12	360.44
515.29	369.80
515.47	433.00
515.64	454.06
515.81	409.59
515.99	416.62
516.16	430.66
516.33	409.59
516.51	402.57
516.68	376.83
516.85	433.00
517.03	454.06
517.20	454.06
517.37	411.93
517.54	451.72
517.72	512.58
517.89	442.36
518.06	355.76
518.24	411.93
518.41	507.90
518.58	503.22
518.75	376.83
518.93	374.49
519.10	425.98
519.27	383.85
519.45	442.36
519.62	418.96
519.79	463.43
519.96	423.64
520.14	463.43
520.31	430.66
520.48	437.68
520.65	425.98
520.83	447.04
521.00	528.96
521.17	425.98
521.34	430.66
521.52	496.19
521.69	526.62
521.86	435.34
522.03	454.06
522.20	458.74
522.38	400.23
522.55	386.19
522.72	437.68
522.89	397.89
523.07	430.66
523.24	454.06
523.41	425.98
523.58	404.91
523.75	358.10
523.92	449.38
524.10	404.91
524.27	374.49
524.44	365.12
524.61	454.06
524.78	390.87
524.96	444.70
525.13	475.13
525.30	440.02
525.47	418.96
525.64	465.77
525.81	435.34
525.98	381.51
526.16	461.09
526.33	379.17
526.50	468.11
526.67	397.89
526.84	416.62
527.01	435.34
527.18	428.32
527.36	423.64
527.53	425.98
527.70	451.72
527.87	386.19
528.04	437.68
528.21	449.38
528.38	493.85
528.55	442.36
528.72	461.09
528.89	514.92
529.07	383.85
529.24	437.68
529.41	475.13
529.58	404.91
529.75	437.68
529.92	409.59
530.09	395.55
530.26	367.46
530.43	409.59
530.60	411.93
530.77	465.77
530.94	421.30
531.11	472.79
531.28	365.12
531.46	369.80
531.63	393.21
531.80	493.85
531.97	400.23
532.14	447.04
532.31	428.32
532.48	395.55
532.65	418.96
532.82	454.06
532.99	442.36
533.16	425.98
533.33	418.96
533.50	423.64
533.67	416.62
533.84	397.89
534.01	461.09
534.18	447.04
534.35	421.30
534.52	395.55
534.69	430.66
534.86	386.19
535.03	397.89
535.20	430.66
535.37	383.85
535.54	470.45
535.71	409.59
535.88	451.72
536.05	425.98
536.22	421.30
536.38	388.53
536.55	428.32
536.72	433.00
536.89	351.08
537.06	465.77
537.23	425.98
537.40	409.59
537.57	388.53
537.74	437.68
537.91	465.77
538.08	451.72
538.25	435.34
538.42	386.19
538.59	440.02
538.75	308.95
538.92	407.25
539.09	437.68
539.26	456.40
539.43	451.72
539.60	397.89
539.77	416.62
539.94	409.59
540.11	388.53
540.28	433.00
540.44	449.38
540.61	397.89
540.78	330.02
540.95	365.12
541.12	489.17
541.29	379.17
541.46	428.32
541.62	449.38
541.79	393.21
541.96	374.49
542.13	451.72
542.30	442.36
542.47	484.49
542.63	486.83
542.80	383.85
542.97	493.85
543.14	358.10
543.31	437.68
543.48	404.91
543.64	430.66
543.81	407.25
543.98	353.42
544.15	421.30
544.32	433.00
544.48	397.89
544.65	449.38
544.82	397.89
544.99	402.57
545.16	433.00
545.32	386.19
545.49	397.89
545.66	423.64
545.83	433.00
546.00	395.55
546.16	395.55
546.33	404.91
546.50	369.80
546.67	463.43
546.83	407.25
547.00	416.62
547.17	505.56
547.34	400.23
547.50	430.66
547.67	430.66
547.84	376.83
548.00	421.30
548.17	414.27
548.34	372.15
548.51	362.78
548.67	402.57
548.84	404.91
549.01	395.55
549.18	482.15
549.34	393.21
549.51	437.68
549.68	484.49
549.84	433.00
550.01	430.66
550.18	456.40
550.34	491.51
550.51	451.72
550.68	447.04
550.84	496.19
551.01	414.27
551.18	444.70
551.34	477.47
551.51	414.27
551.68	390.87
551.84	395.55
552.01	465.77
552.18	381.51
552.34	355.76
552.51	351.08
552.68	444.70
552.84	400.23
553.01	423.64
553.18	463.43
553.34	372.15
553.51	435.34
553.67	369.80
553.84	507.90
554.01	437.68
554.17	418.96
554.34	416.62
554.51	407.25
554.67	470.45
554.84	414.27
555.00	381.51
555.17	454.06
555.33	451.72
555.50	425.98
555.67	442.36
555.83	376.83
556.00	428.32
556.16	524.28
556.33	442.36
556.50	386.19
556.66	367.46
556.83	393.21
556.99	461.09
557.16	425.98
557.32	425.98
557.49	374.49
557.65	376.83
557.82	414.27
557.98	355.76
558.15	425.98
558.32	421.30
558.48	418.96
558.65	477.47
558.81	414.27
558.98	477.47
559.14	468.11
559.31	428.32
559.47	468.11
559.64	414.27
559.80	383.85
559.97	395.55
560.13	484.49
560.30	397.89
560.46	381.51
560.63	498.53
560.79	411.93
560.96	358.10
561.12	409.59
561.29	393.21
561.45	423.64
561.61	433.00
561.78	456.40
561.94	402.57
562.11	423.64
562.27	409.59
562.44	404.91
562.60	430.66
562.77	395.55
562.93	449.38
563.10	468.11
563.26	393.21
563.42	456.40
563.59	444.70
563.75	400.23
563.92	416.62
564.08	423.64
564.24	388.53
564.41	383.85
564.57	379.17
564.74	416.62
564.90	433.00
565.07	465.77
565.23	461.09
565.39	428.32
565.56	440.02
565.72	400.23
565.88	435.34
566.05	414.27
566.21	404.91
566.38	402.57
566.54	367.46
566.70	393.21
566.87	423.64
567.03	440.02
567.19	353.42
567.36	397.89
567.52	425.98
567.68	430.66
567.85	435.34
568.01	430.66
568.17	379.17
568.34	374.49
568.50	465.77
568.66	400.23
568.83	486.83
568.99	437.68
569.15	425.98
569.32	360.44
569.48	414.27
569.64	437.68
569.81	386.19
569.97	393.21
570.13	372.15
570.30	409.59
570.46	465.77
570.62	376.83
570.78	402.57
570.95	414.27
571.11	423.64
571.27	484.49
571.43	376.83
571.60	454.06
571.76	447.04
571.92	442.36
572.09	416.62
572.25	313.63
572.41	374.49
572.57	386.19
572.74	458.74
572.90	503.22
573.06	421.30
573.22	395.55
573.38	346.40
573.55	407.25
573.71	390.87
573.87	461.09
574.03	400.23
574.20	423.64
574.36	435.34
574.52	447.04
574.68	404.91
574.84	458.74
575.01	393.21
575.17	451.72
575.33	348.74
575.49	430.66
575.65	369.80
575.82	418.96
575.98	461.09
576.14	390.87
576.30	402.57
576.46	339.38
576.62	425.98
576.79	428.32
576.95	386.19
577.11	374.49
577.27	376.83
577.43	528.96
577.59	404.91
577.75	351.08
577.92	407.25
578.08	486.83
578.24	484.49
578.40	470.45
578.56	414.27
578.72	400.23
578.88	376.83
579.04	407.25
579.21	374.49
579.37	397.89
579.53	400.23
579.69	458.74
579.85	423.64
580.01	435.34
580.17	381.51
580.33	388.53
580.49	435.34
580.65	475.13
580.82	493.85
580.98	404.91
581.14	379.17
581.30	449.38
581.46	484.49
581.62	407.25
581.78	496.19
581.94	428.32
582.10	484.49
582.26	470.45
582.42	346.40
582.58	346.40
582.74	456.40
582.90	428.32
583.06	451.72
583.22	479.81
583.38	374.49
583.54	437.68
583.70	447.04
583.86	425.98
584.02	409.59
584.18	447.04
584.34	475.13
584.50	435.34
584.66	458.74
584.82	433.00
584.98	400.23
585.14	449.38
585.30	435.34
585.46	440.02
585.62	379.17
585.78	397.89
585.94	390.87
586.10	416.62
586.26	433.00
586.42	479.81
586.58	381.51
586.74	524.28
586.90	444.70
587.06	414.27
587.22	411.93
587.38	440.02
587.54	433.00
587.70	444.70
587.86	437.68
588.02	421.30
588.18	463.43
588.34	346.40
588.49	348.74
588.65	468.11
588.81	358.10
588.97	433.00
589.13	470.45
589.29	470.45
589.45	404.91
589.61	435.34
589.77	472.79
589.93	404.91
590.08	416.62
590.24	402.57
590.40	308.95
590.56	418.96
590.72	395.55
590.88	418.96
591.04	393.21
591.20	402.57
591.35	482.15
591.51	409.59
591.67	414.27
591.83	425.98
591.99	393.21
592.15	442.36
592.31	456.40
592.46	404.91
592.62	447.04
592.78	414.27
592.94	337.04
593.10	425.98
593.26	498.53
593.41	458.74
593.57	337.04
593.73	430.66
593.89	440.02
594.05	428.32
594.20	369.80
594.36	421.30
594.52	395.55
594.68	442.36
594.84	440.02
594.99	428.32
595.15	407.25
595.31	397.89
595.47	451.72
595.62	418.96
595.78	437.68
595.94	388.53
596.10	388.53
596.25	468.11
596.41	461.09
596.57	411.93
596.73	404.91
596.88	376.83
597.04	503.22
597.20	433.00
597.36	425.98
597.51	390.87
597.67	365.12
597.83	468.11
597.99	444.70
598.14	440.02
598.30	423.64
598.46	418.96
598.61	397.89
598.77	353.42
598.93	404.91
599.09	416.62
599.24	369.80
599.40	444.70
599.56	468.11
599.71	449.38
599.87	435.34
600.03	425.98
600.18	437.68
600.34	440.02
600.50	458.74
600.65	411.93
600.81	351.08
600.97	402.57
601.12	428.32
601.28	444.70
601.44	393.21
601.59	430.66
601.75	386.19
601.91	402.57
602.06	411.93
602.22	454.06
602.37	465.77
602.53	416.62
602.69	414.27
602.84	416.62
603.00	451.72
603.16	433.00
603.31	400.23
603.47	397.89
603.62	362.78
603.78	418.96
603.94	500.87
604.09	395.55
604.25	372.15
604.40	428.32
604.56	395.55
604.71	397.89
604.87	367.46
605.03	418.96
605.18	463.43
605.34	358.10
605.49	435.34
605.65	414.27
605.80	402.57
605.96	442.36
606.12	447.04
606.27	388.53
606.43	388.53
606.58	400.23
606.74	400.23
606.89	402.57
607.05	409.59
607.20	425.98
607.36	355.76
607.51	404.91
607.67	395.55
607.82	425.98
607.98	456.40
608.13	416.62
608.29	393.21
608.44	409.59
608.60	418.96
608.75	402.57
608.91	456.40
609.06	496.19
609.22	454.06
609.37	395.55
609.53	409.59
609.68	433.00
609.84	418.96
609.99	397.89
610.15	454.06
