SpectraSuite Data File
++++++++++++++++++++++++++++++++++++
Date: Fri Oct 25 12:10:36 EDT 2013
User: price-jones
Dark Spectrum Present: No
Reference Spectrum Present: No
Number of Sampled Component Spectra: 1
Spectrometers: USB2+H05261
Integration Time (usec): 100000 (USB2+H05261)
Spectra Averaged: 1 (USB2+H05261)
Boxcar Smoothing: 0 (USB2+H05261)
Correct for Electrical Dark: No (USB2+H05261)
Strobe/Lamp Enabled: No (USB2+H05261)
Correct for Detector Non-linearity: No (USB2+H05261)
Correct for Stray Light: No (USB2+H05261)
Number of Pixels in Processed Spectrum: 2048
>>>>>Begin Processed Spectral Data<<<<<
365.73	280.86
365.92	280.86
366.12	280.86
366.32	313.63
366.52	294.91
366.72	290.23
366.91	234.05
367.11	217.67
367.31	269.16
367.51	297.25
367.70	191.92
367.90	243.42
368.10	196.60
368.30	238.73
368.49	215.33
368.69	283.20
368.89	250.44
369.09	299.59
369.28	231.71
369.48	198.95
369.68	322.99
369.87	287.89
370.07	320.65
370.27	341.72
370.47	334.70
370.66	273.84
370.86	365.12
371.06	416.62
371.25	388.53
371.45	397.89
371.65	344.06
371.84	341.72
372.04	386.19
372.24	376.83
372.44	318.31
372.63	435.34
372.83	383.85
373.03	428.32
373.22	411.93
373.42	421.30
373.62	376.83
373.81	440.02
374.01	505.56
374.21	486.83
374.40	381.51
374.60	437.68
374.79	428.32
374.99	416.62
375.19	397.89
375.38	358.10
375.58	402.57
375.78	472.79
375.97	416.62
376.17	454.06
376.37	337.04
376.56	409.59
376.76	344.06
376.95	362.78
377.15	411.93
377.35	416.62
377.54	463.43
377.74	395.55
377.93	421.30
378.13	411.93
378.33	390.87
378.52	486.83
378.72	461.09
378.91	458.74
379.11	386.19
379.31	397.89
379.50	315.97
379.70	374.49
379.89	369.80
380.09	386.19
380.28	409.59
380.48	416.62
380.68	440.02
380.87	418.96
381.07	404.91
381.26	369.80
381.46	337.04
381.65	433.00
381.85	440.02
382.04	362.78
382.24	407.25
382.43	393.21
382.63	444.70
382.83	369.80
383.02	416.62
383.22	425.98
383.41	395.55
383.61	437.68
383.80	376.83
384.00	409.59
384.19	348.74
384.39	341.72
384.58	414.27
384.78	379.17
384.97	456.40
385.17	393.21
385.36	444.70
385.56	393.21
385.75	330.02
385.95	367.46
386.14	409.59
386.34	379.17
386.53	409.59
386.72	404.91
386.92	442.36
387.11	430.66
387.31	409.59
387.50	414.27
387.70	348.74
387.89	390.87
388.09	390.87
388.28	442.36
388.48	339.38
388.67	477.47
388.86	442.36
389.06	388.53
389.25	428.32
389.45	379.17
389.64	397.89
389.84	397.89
390.03	503.22
390.22	421.30
390.42	437.68
390.61	430.66
390.81	400.23
391.00	393.21
391.19	461.09
391.39	360.44
391.58	395.55
391.78	454.06
391.97	498.53
392.16	421.30
392.36	479.81
392.55	440.02
392.75	440.02
392.94	423.64
393.13	418.96
393.33	418.96
393.52	369.80
393.71	458.74
393.91	421.30
394.10	388.53
394.29	451.72
394.49	442.36
394.68	435.34
394.88	423.64
395.07	372.15
395.26	397.89
395.46	451.72
395.65	423.64
395.84	421.30
396.04	498.53
396.23	411.93
396.42	435.34
396.62	409.59
396.81	376.83
397.00	395.55
397.19	367.46
397.39	407.25
397.58	395.55
397.77	376.83
397.97	365.12
398.16	386.19
398.35	393.21
398.55	435.34
398.74	423.64
398.93	397.89
399.12	409.59
399.32	463.43
399.51	390.87
399.70	404.91
399.90	454.06
400.09	355.76
400.28	425.98
400.47	325.33
400.67	447.04
400.86	346.40
401.05	451.72
401.24	451.72
401.44	435.34
401.63	355.76
401.82	451.72
402.01	447.04
402.21	407.25
402.40	379.17
402.59	425.98
402.78	402.57
402.97	423.64
403.17	400.23
403.36	334.70
403.55	379.17
403.74	383.85
403.93	395.55
404.13	430.66
404.32	411.93
404.51	388.53
404.70	461.09
404.89	440.02
405.09	400.23
405.28	465.77
405.47	395.55
405.66	425.98
405.85	433.00
406.05	486.83
406.24	400.23
406.43	433.00
406.62	454.06
406.81	503.22
407.00	428.32
407.20	383.85
407.39	454.06
407.58	365.12
407.77	299.59
407.96	428.32
408.15	404.91
408.34	386.19
408.54	376.83
408.73	374.49
408.92	421.30
409.11	372.15
409.30	362.78
409.49	344.06
409.68	430.66
409.87	351.08
410.07	386.19
410.26	397.89
410.45	409.59
410.64	423.64
410.83	512.58
411.02	425.98
411.21	442.36
411.40	477.47
411.59	423.64
411.78	444.70
411.98	369.80
412.17	325.33
412.36	362.78
412.55	444.70
412.74	386.19
412.93	489.17
413.12	479.81
413.31	430.66
413.50	407.25
413.69	433.00
413.88	407.25
414.07	409.59
414.26	341.72
414.45	477.47
414.64	397.89
414.83	393.21
415.02	362.78
415.22	414.27
415.41	442.36
415.60	433.00
415.79	395.55
415.98	411.93
416.17	430.66
416.36	400.23
416.55	411.93
416.74	421.30
416.93	416.62
417.12	447.04
417.31	351.08
417.50	425.98
417.69	433.00
417.88	472.79
418.07	421.30
418.26	409.59
418.45	433.00
418.64	416.62
418.83	425.98
419.02	409.59
419.21	348.74
419.39	430.66
419.58	409.59
419.77	397.89
419.96	470.45
420.15	430.66
420.34	411.93
420.53	470.45
420.72	411.93
420.91	379.17
421.10	308.95
421.29	376.83
421.48	440.02
421.67	411.93
421.86	376.83
422.05	418.96
422.24	407.25
422.43	447.04
422.61	402.57
422.80	416.62
422.99	294.91
423.18	421.30
423.37	454.06
423.56	402.57
423.75	440.02
423.94	353.42
424.13	337.04
424.32	334.70
424.50	423.64
424.69	437.68
424.88	409.59
425.07	355.76
425.26	393.21
425.45	435.34
425.64	388.53
425.83	435.34
426.01	407.25
426.20	486.83
426.39	442.36
426.58	393.21
426.77	390.87
426.96	475.13
427.15	440.02
427.33	390.87
427.52	414.27
427.71	397.89
427.90	484.49
428.09	421.30
428.28	414.27
428.46	365.12
428.65	339.38
428.84	409.59
429.03	433.00
429.22	386.19
429.40	390.87
429.59	397.89
429.78	411.93
429.97	400.23
430.16	449.38
430.34	341.72
430.53	437.68
430.72	407.25
430.91	409.59
431.10	449.38
431.28	393.21
431.47	409.59
431.66	388.53
431.85	418.96
432.03	423.64
432.22	482.15
432.41	416.62
432.60	437.68
432.79	362.78
432.97	500.87
433.16	425.98
433.35	372.15
433.54	409.59
433.72	358.10
433.91	411.93
434.10	365.12
434.28	449.38
434.47	379.17
434.66	395.55
434.85	390.87
435.03	423.64
435.22	418.96
435.41	475.13
435.59	477.47
435.78	425.98
435.97	409.59
436.16	414.27
436.34	493.85
436.53	456.40
436.72	442.36
436.90	482.15
437.09	444.70
437.28	395.55
437.46	479.81
437.65	416.62
437.84	383.85
438.02	435.34
438.21	393.21
438.40	461.09
438.58	430.66
438.77	411.93
438.96	458.74
439.14	458.74
439.33	400.23
439.52	365.12
439.70	386.19
439.89	411.93
440.08	484.49
440.26	416.62
440.45	489.17
440.63	472.79
440.82	376.83
441.01	416.62
441.19	442.36
441.38	409.59
441.57	402.57
441.75	355.76
441.94	435.34
442.12	449.38
442.31	444.70
442.50	461.09
442.68	344.06
442.87	388.53
443.05	414.27
443.24	360.44
443.43	463.43
443.61	479.81
443.80	383.85
443.98	379.17
444.17	376.83
444.35	421.30
444.54	425.98
444.73	444.70
444.91	416.62
445.10	393.21
445.28	376.83
445.47	449.38
445.65	477.47
445.84	456.40
446.02	416.62
446.21	360.44
446.39	374.49
446.58	390.87
446.77	339.38
446.95	390.87
447.14	423.64
447.32	402.57
447.51	395.55
447.69	351.08
447.88	435.34
448.06	428.32
448.25	390.87
448.43	440.02
448.62	458.74
448.80	449.38
448.99	428.32
449.17	337.04
449.36	367.46
449.54	332.36
449.73	404.91
449.91	442.36
450.10	407.25
450.28	367.46
450.46	447.04
450.65	388.53
450.83	409.59
451.02	404.91
451.20	477.47
451.39	435.34
451.57	393.21
451.76	437.68
451.94	362.78
452.13	461.09
452.31	407.25
452.49	390.87
452.68	374.49
452.86	414.27
453.05	521.94
453.23	433.00
453.42	332.36
453.60	376.83
453.78	393.21
453.97	430.66
454.15	353.42
454.34	376.83
454.52	404.91
454.70	458.74
454.89	428.32
455.07	318.31
455.26	353.42
455.44	461.09
455.62	442.36
455.81	472.79
455.99	376.83
456.17	411.93
456.36	437.68
456.54	409.59
456.73	407.25
456.91	374.49
457.09	390.87
457.28	442.36
457.46	395.55
457.64	444.70
457.83	325.33
458.01	374.49
458.19	379.17
458.38	395.55
458.56	362.78
458.74	437.68
458.93	383.85
459.11	367.46
459.29	416.62
459.48	376.83
459.66	425.98
459.84	442.36
460.03	386.19
460.21	409.59
460.39	428.32
460.57	545.34
460.76	409.59
460.94	372.15
461.12	491.51
461.31	416.62
461.49	454.06
461.67	433.00
461.85	397.89
462.04	390.87
462.22	807.48
462.40	489.17
462.59	400.23
462.77	440.02
462.95	390.87
463.13	416.62
463.32	414.27
463.50	418.96
463.68	437.68
463.86	423.64
464.05	428.32
464.23	402.57
464.41	496.19
464.59	414.27
464.78	414.27
464.96	395.55
465.14	416.62
465.32	374.49
465.50	444.70
465.69	449.38
465.87	341.72
466.05	449.38
466.23	337.04
466.41	409.59
466.60	376.83
466.78	407.25
466.96	470.45
467.14	365.12
467.32	447.04
467.51	416.62
467.69	430.66
467.87	444.70
468.05	503.22
468.23	470.45
468.41	414.27
468.60	372.15
468.78	390.87
468.96	449.38
469.14	430.66
469.32	379.17
469.50	320.65
469.69	479.81
469.87	444.70
470.05	388.53
470.23	435.34
470.41	334.70
470.59	381.51
470.77	435.34
470.95	463.43
471.14	486.83
471.32	458.74
471.50	498.53
471.68	416.62
471.86	486.83
472.04	388.53
472.22	360.44
472.40	411.93
472.58	388.53
472.77	320.65
472.95	407.25
473.13	388.53
473.31	557.05
473.49	386.19
473.67	433.00
473.85	428.32
474.03	437.68
474.21	393.21
474.39	425.98
474.57	411.93
474.75	409.59
474.93	468.11
475.12	337.04
475.30	395.55
475.48	402.57
475.66	411.93
475.84	468.11
476.02	416.62
476.20	435.34
476.38	430.66
476.56	512.58
476.74	388.53
476.92	409.59
477.10	407.25
477.28	404.91
477.46	444.70
477.64	397.89
477.82	428.32
478.00	395.55
478.18	449.38
478.36	374.49
478.54	407.25
478.72	425.98
478.90	400.23
479.08	411.93
479.26	456.40
479.44	388.53
479.62	423.64
479.80	390.87
479.98	407.25
480.16	409.59
480.34	435.34
480.52	407.25
480.70	454.06
480.88	411.93
481.06	407.25
481.24	414.27
481.41	372.15
481.59	395.55
481.77	393.21
481.95	416.62
482.13	524.28
482.31	411.93
482.49	376.83
482.67	383.85
482.85	498.53
483.03	414.27
483.21	402.57
483.39	416.62
483.57	442.36
483.74	465.77
483.92	458.74
484.10	428.32
484.28	421.30
484.46	437.68
484.64	388.53
484.82	418.96
485.00	362.78
485.18	435.34
485.35	407.25
485.53	379.17
485.71	489.17
485.89	362.78
486.07	442.36
486.25	465.77
486.43	393.21
486.61	400.23
486.78	353.42
486.96	433.00
487.14	348.74
487.32	482.15
487.50	454.06
487.68	510.24
487.85	409.59
488.03	440.02
488.21	414.27
488.39	407.25
488.57	409.59
488.75	374.49
488.92	503.22
489.10	458.74
489.28	386.19
489.46	353.42
489.64	393.21
489.81	433.00
489.99	425.98
490.17	454.06
490.35	479.81
490.53	428.32
490.70	400.23
490.88	425.98
491.06	372.15
491.24	393.21
491.41	491.51
491.59	461.09
491.77	458.74
491.95	383.85
492.13	337.04
492.30	397.89
492.48	425.98
492.66	416.62
492.84	423.64
493.01	365.12
493.19	411.93
493.37	402.57
493.54	367.46
493.72	393.21
493.90	437.68
494.08	472.79
494.25	433.00
494.43	402.57
494.61	362.78
494.79	313.63
494.96	320.65
495.14	355.76
495.32	416.62
495.49	400.23
495.67	421.30
495.85	353.42
496.02	393.21
496.20	440.02
496.38	458.74
496.55	444.70
496.73	379.17
496.91	430.66
497.09	430.66
497.26	414.27
497.44	376.83
497.62	404.91
497.79	430.66
497.97	395.55
498.14	430.66
498.32	400.23
498.50	468.11
498.67	400.23
498.85	402.57
499.03	376.83
499.20	470.45
499.38	351.08
499.56	421.30
499.73	393.21
499.91	404.91
500.08	433.00
500.26	402.57
500.44	440.02
500.61	402.57
500.79	365.12
500.97	388.53
501.14	479.81
501.32	440.02
501.49	461.09
501.67	411.93
501.84	418.96
502.02	388.53
502.20	479.81
502.37	407.25
502.55	388.53
502.72	383.85
502.90	407.25
503.07	479.81
503.25	421.30
503.43	379.17
503.60	411.93
503.78	397.89
503.95	442.36
504.13	372.15
504.30	444.70
504.48	444.70
504.65	491.51
504.83	407.25
505.01	428.32
505.18	423.64
505.36	411.93
505.53	414.27
505.71	383.85
505.88	479.81
506.06	437.68
506.23	390.87
506.41	407.25
506.58	355.76
506.76	411.93
506.93	362.78
507.11	383.85
507.28	355.76
507.46	330.02
507.63	397.89
507.81	404.91
507.98	383.85
508.16	449.38
508.33	435.34
508.50	416.62
508.68	428.32
508.85	409.59
509.03	475.13
509.20	304.27
509.38	355.76
509.55	486.83
509.73	423.64
509.90	409.59
510.08	376.83
510.25	409.59
510.42	404.91
510.60	367.46
510.77	423.64
510.95	451.72
511.12	404.91
511.30	449.38
511.47	437.68
511.64	444.70
511.82	449.38
511.99	376.83
512.17	383.85
512.34	393.21
512.51	411.93
512.69	388.53
512.86	510.24
513.04	425.98
513.21	379.17
513.38	379.17
513.56	332.36
513.73	433.00
513.90	337.04
514.08	348.74
514.25	498.53
514.43	500.87
514.60	409.59
514.77	393.21
514.95	496.19
515.12	395.55
515.29	367.46
515.47	381.51
515.64	447.04
515.81	372.15
515.99	395.55
516.16	320.65
516.33	353.42
516.51	402.57
516.68	374.49
516.85	376.83
517.03	440.02
517.20	395.55
517.37	423.64
517.54	505.56
517.72	386.19
517.89	365.12
518.06	397.89
518.24	416.62
518.41	421.30
518.58	463.43
518.75	461.09
518.93	451.72
519.10	430.66
519.27	423.64
519.45	411.93
519.62	463.43
519.79	411.93
519.96	379.17
520.14	407.25
520.31	433.00
520.48	416.62
520.65	393.21
520.83	421.30
521.00	433.00
521.17	369.80
521.34	379.17
521.52	390.87
521.69	435.34
521.86	428.32
522.03	433.00
522.20	411.93
522.38	411.93
522.55	395.55
522.72	346.40
522.89	428.32
523.07	510.24
523.24	404.91
523.41	425.98
523.58	332.36
523.75	397.89
523.92	418.96
524.10	486.83
524.27	365.12
524.44	400.23
524.61	489.17
524.78	416.62
524.96	433.00
525.13	442.36
525.30	454.06
525.47	414.27
525.64	402.57
525.81	423.64
525.98	404.91
526.16	388.53
526.33	407.25
526.50	456.40
526.67	423.64
526.84	409.59
527.01	379.17
527.18	433.00
527.36	428.32
527.53	369.80
527.70	465.77
527.87	379.17
528.04	440.02
528.21	442.36
528.38	444.70
528.55	447.04
528.72	372.15
528.89	475.13
529.07	414.27
529.24	433.00
529.41	386.19
529.58	393.21
529.75	437.68
529.92	458.74
530.09	386.19
530.26	451.72
530.43	388.53
530.60	458.74
530.77	411.93
530.94	449.38
531.11	425.98
531.28	381.51
531.46	418.96
531.63	458.74
531.80	425.98
531.97	425.98
532.14	376.83
532.31	500.87
532.48	475.13
532.65	442.36
532.82	362.78
532.99	433.00
533.16	390.87
533.33	451.72
533.50	428.32
533.67	390.87
533.84	447.04
534.01	484.49
534.18	348.74
534.35	449.38
534.52	383.85
534.69	461.09
534.86	416.62
535.03	362.78
535.20	437.68
535.37	521.94
535.54	348.74
535.71	421.30
535.88	463.43
536.05	374.49
536.22	493.85
536.38	468.11
536.55	301.93
536.72	383.85
536.89	365.12
537.06	325.33
537.23	402.57
537.40	409.59
537.57	346.40
537.74	528.96
537.91	425.98
538.08	372.15
538.25	493.85
538.42	472.79
538.59	393.21
538.75	433.00
538.92	440.02
539.09	362.78
539.26	449.38
539.43	458.74
539.60	463.43
539.77	416.62
539.94	390.87
540.11	374.49
540.28	433.00
540.44	463.43
540.61	479.81
540.78	397.89
540.95	365.12
541.12	461.09
541.29	339.38
541.46	386.19
541.62	404.91
541.79	411.93
541.96	430.66
542.13	409.59
542.30	355.76
542.47	402.57
542.63	414.27
542.80	442.36
542.97	393.21
543.14	358.10
543.31	428.32
543.48	374.49
543.64	407.25
543.81	447.04
543.98	418.96
544.15	421.30
544.32	437.68
544.48	456.40
544.65	407.25
544.82	397.89
544.99	376.83
545.16	479.81
545.32	444.70
545.49	351.08
545.66	383.85
545.83	449.38
546.00	425.98
546.16	447.04
546.33	423.64
546.50	444.70
546.67	465.77
546.83	482.15
547.00	472.79
547.17	458.74
547.34	428.32
547.50	402.57
547.67	414.27
547.84	353.42
548.00	344.06
548.17	435.34
548.34	400.23
548.51	386.19
548.67	463.43
548.84	346.40
549.01	461.09
549.18	435.34
549.34	409.59
549.51	404.91
549.68	423.64
549.84	404.91
550.01	454.06
550.18	526.62
550.34	430.66
550.51	390.87
550.68	449.38
550.84	400.23
551.01	351.08
551.18	472.79
551.34	376.83
551.51	454.06
551.68	374.49
551.84	430.66
552.01	367.46
552.18	344.06
552.34	374.49
552.51	344.06
552.68	400.23
552.84	454.06
553.01	386.19
553.18	451.72
553.34	381.51
553.51	470.45
553.67	423.64
553.84	437.68
554.01	468.11
554.17	465.77
554.34	416.62
554.51	400.23
554.67	454.06
554.84	418.96
555.00	416.62
555.17	423.64
555.33	423.64
555.50	435.34
555.67	381.51
555.83	468.11
556.00	402.57
556.16	578.11
556.33	486.83
556.50	421.30
556.66	327.68
556.83	433.00
556.99	383.85
557.16	484.49
557.32	381.51
557.49	388.53
557.65	489.17
557.82	423.64
557.98	358.10
558.15	423.64
558.32	423.64
558.48	416.62
558.65	447.04
558.81	442.36
558.98	449.38
559.14	404.91
559.31	425.98
559.47	447.04
559.64	404.91
559.80	404.91
559.97	374.49
560.13	411.93
560.30	428.32
560.46	397.89
560.63	362.78
560.79	407.25
560.96	421.30
561.12	381.51
561.29	461.09
561.45	440.02
561.61	400.23
561.78	526.62
561.94	390.87
562.11	393.21
562.27	477.47
562.44	372.15
562.60	414.27
562.77	435.34
562.93	500.87
563.10	458.74
563.26	463.43
563.42	423.64
563.59	423.64
563.75	437.68
563.92	425.98
564.08	449.38
564.24	458.74
564.41	428.32
564.57	449.38
564.74	395.55
564.90	463.43
565.07	365.12
565.23	388.53
565.39	456.40
565.56	449.38
565.72	435.34
565.88	435.34
566.05	397.89
566.21	468.11
566.38	435.34
566.54	524.28
566.70	425.98
566.87	411.93
567.03	475.13
567.19	421.30
567.36	402.57
567.52	386.19
567.68	318.31
567.85	416.62
568.01	383.85
568.17	341.72
568.34	437.68
568.50	538.32
568.66	402.57
568.83	449.38
568.99	428.32
569.15	447.04
569.32	433.00
569.48	437.68
569.64	355.76
569.81	538.32
569.97	425.98
570.13	435.34
570.30	400.23
570.46	486.83
570.62	463.43
570.78	367.46
570.95	355.76
571.11	524.28
571.27	491.51
571.43	425.98
571.60	430.66
571.76	449.38
571.92	386.19
572.09	454.06
572.25	395.55
572.41	477.47
572.57	425.98
572.74	414.27
572.90	486.83
573.06	402.57
573.22	430.66
573.38	423.64
573.55	365.12
573.71	498.53
573.87	435.34
574.03	341.72
574.20	423.64
574.36	461.09
574.52	409.59
574.68	414.27
574.84	463.43
575.01	454.06
575.17	409.59
575.33	393.21
575.49	407.25
575.65	491.51
575.82	479.81
575.98	456.40
576.14	376.83
576.30	355.76
576.46	369.80
576.62	472.79
576.79	404.91
576.95	430.66
577.11	440.02
577.27	472.79
577.43	437.68
577.59	472.79
577.75	437.68
577.92	458.74
578.08	360.44
578.24	428.32
578.40	472.79
578.56	440.02
578.72	444.70
578.88	477.47
579.04	381.51
579.21	404.91
579.37	421.30
579.53	475.13
579.69	421.30
579.85	353.42
580.01	444.70
580.17	407.25
580.33	386.19
580.49	437.68
580.65	444.70
580.82	414.27
580.98	442.36
581.14	461.09
581.30	409.59
581.46	430.66
581.62	358.10
581.78	416.62
581.94	372.15
582.10	451.72
582.26	397.89
582.42	393.21
582.58	395.55
582.74	437.68
582.90	397.89
583.06	507.90
583.22	397.89
583.38	437.68
583.54	346.40
583.70	451.72
583.86	449.38
584.02	381.51
584.18	482.15
584.34	433.00
584.50	374.49
584.66	447.04
584.82	383.85
584.98	411.93
585.14	440.02
585.30	472.79
585.46	400.23
585.62	437.68
585.78	442.36
585.94	381.51
586.10	411.93
586.26	395.55
586.42	425.98
586.58	418.96
586.74	447.04
586.90	418.96
587.06	376.83
587.22	456.40
587.38	397.89
587.54	451.72
587.70	470.45
587.86	454.06
588.02	430.66
588.18	393.21
588.34	414.27
588.49	393.21
588.65	376.83
588.81	437.68
588.97	353.42
589.13	400.23
589.29	486.83
589.45	372.15
589.61	475.13
589.77	383.85
589.93	491.51
590.08	409.59
590.24	395.55
590.40	353.42
590.56	397.89
590.72	325.33
590.88	437.68
591.04	437.68
591.20	379.17
591.35	433.00
591.51	390.87
591.67	395.55
591.83	397.89
591.99	468.11
592.15	425.98
592.31	425.98
592.46	449.38
592.62	409.59
592.78	449.38
592.94	393.21
593.10	360.44
593.26	386.19
593.41	362.78
593.57	472.79
593.73	369.80
593.89	418.96
594.05	451.72
594.20	351.08
594.36	484.49
594.52	372.15
594.68	395.55
594.84	477.47
594.99	425.98
595.15	491.51
595.31	425.98
595.47	440.02
595.62	365.12
595.78	440.02
595.94	390.87
596.10	369.80
596.25	402.57
596.41	397.89
596.57	402.57
596.73	411.93
596.88	440.02
597.04	367.46
597.20	421.30
597.36	411.93
597.51	362.78
597.67	451.72
597.83	397.89
597.99	472.79
598.14	397.89
598.30	496.19
598.46	388.53
598.61	414.27
598.77	416.62
598.93	428.32
599.09	395.55
599.24	440.02
599.40	409.59
599.56	411.93
599.71	365.12
599.87	379.17
600.03	344.06
600.18	414.27
600.34	472.79
600.50	463.43
600.65	477.47
600.81	449.38
600.97	423.64
601.12	414.27
601.28	369.80
601.44	393.21
601.59	447.04
601.75	472.79
601.91	454.06
602.06	390.87
602.22	447.04
602.37	444.70
602.53	475.13
602.69	489.17
602.84	430.66
603.00	461.09
603.16	451.72
603.31	388.53
603.47	404.91
603.62	456.40
603.78	425.98
603.94	517.26
604.09	407.25
604.25	418.96
604.40	489.17
604.56	402.57
604.71	414.27
604.87	435.34
605.03	383.85
605.18	393.21
605.34	505.56
605.49	456.40
605.65	379.17
605.80	365.12
605.96	430.66
606.12	442.36
606.27	454.06
606.43	447.04
606.58	449.38
606.74	442.36
606.89	414.27
607.05	475.13
607.20	397.89
607.36	367.46
607.51	383.85
607.67	388.53
607.82	358.10
607.98	451.72
608.13	435.34
608.29	409.59
608.44	416.62
608.60	421.30
608.75	433.00
608.91	465.77
609.06	381.51
609.22	440.02
609.37	454.06
609.53	381.51
609.68	428.32
609.84	376.83
609.99	379.17
610.15	430.66
