SpectraSuite Data File
++++++++++++++++++++++++++++++++++++
Date: Fri Oct 25 12:10:35 EDT 2013
User: price-jones
Dark Spectrum Present: No
Reference Spectrum Present: No
Number of Sampled Component Spectra: 1
Spectrometers: USB2+H05261
Integration Time (usec): 100000 (USB2+H05261)
Spectra Averaged: 1 (USB2+H05261)
Boxcar Smoothing: 0 (USB2+H05261)
Correct for Electrical Dark: No (USB2+H05261)
Strobe/Lamp Enabled: No (USB2+H05261)
Correct for Detector Non-linearity: No (USB2+H05261)
Correct for Stray Light: No (USB2+H05261)
Number of Pixels in Processed Spectrum: 2048
>>>>>Begin Processed Spectral Data<<<<<
365.73	334.70
365.92	334.70
366.12	334.70
366.32	266.82
366.52	259.80
366.72	194.26
366.91	217.67
367.11	208.31
367.31	255.12
367.51	238.73
367.70	257.46
367.90	255.12
368.10	180.22
368.30	259.80
368.49	229.37
368.69	287.89
368.89	278.52
369.09	220.01
369.28	332.36
369.48	248.10
369.68	271.50
369.87	344.06
370.07	301.93
370.27	341.72
370.47	360.44
370.66	348.74
370.86	334.70
371.06	332.36
371.25	379.17
371.45	397.89
371.65	353.42
371.84	402.57
372.04	365.12
372.24	388.53
372.44	360.44
372.63	442.36
372.83	451.72
373.03	395.55
373.22	442.36
373.42	404.91
373.62	367.46
373.81	425.98
374.01	428.32
374.21	454.06
374.40	440.02
374.60	477.47
374.79	355.76
374.99	411.93
375.19	407.25
375.38	409.59
375.58	351.08
375.78	383.85
375.97	393.21
376.17	421.30
376.37	425.98
376.56	411.93
376.76	409.59
376.95	390.87
377.15	400.23
377.35	447.04
377.54	433.00
377.74	454.06
377.93	397.89
378.13	444.70
378.33	386.19
378.52	376.83
378.72	507.90
378.91	503.22
379.11	355.76
379.31	369.80
379.50	421.30
379.70	416.62
379.89	393.21
380.09	362.78
380.28	442.36
380.48	386.19
380.68	369.80
380.87	386.19
381.07	423.64
381.26	404.91
381.46	400.23
381.65	365.12
381.85	395.55
382.04	423.64
382.24	332.36
382.43	369.80
382.63	400.23
382.83	381.51
383.02	411.93
383.22	454.06
383.41	423.64
383.61	414.27
383.80	479.81
384.00	376.83
384.19	369.80
384.39	355.76
384.58	423.64
384.78	447.04
384.97	447.04
385.17	360.44
385.36	411.93
385.56	411.93
385.75	386.19
385.95	409.59
386.14	482.15
386.34	444.70
386.53	400.23
386.72	428.32
386.92	397.89
387.11	379.17
387.31	463.43
387.50	355.76
387.70	390.87
387.89	386.19
388.09	400.23
388.28	402.57
388.48	418.96
388.67	442.36
388.86	440.02
389.06	402.57
389.25	489.17
389.45	444.70
389.64	472.79
389.84	454.06
390.03	369.80
390.22	372.15
390.42	435.34
390.61	411.93
390.81	395.55
391.00	416.62
391.19	346.40
391.39	372.15
391.58	447.04
391.78	390.87
391.97	332.36
392.16	339.38
392.36	498.53
392.55	416.62
392.75	365.12
392.94	339.38
393.13	440.02
393.33	365.12
393.52	360.44
393.71	454.06
393.91	407.25
394.10	367.46
394.29	383.85
394.49	390.87
394.68	430.66
394.88	468.11
395.07	425.98
395.26	386.19
395.46	395.55
395.65	437.68
395.84	493.85
396.04	472.79
396.23	351.08
396.42	486.83
396.62	428.32
396.81	372.15
397.00	320.65
397.19	355.76
397.39	346.40
397.58	444.70
397.77	402.57
397.97	451.72
398.16	437.68
398.35	437.68
398.55	372.15
398.74	451.72
398.93	524.28
399.12	390.87
399.32	458.74
399.51	416.62
399.70	414.27
399.90	418.96
400.09	393.21
400.28	425.98
400.47	456.40
400.67	442.36
400.86	407.25
401.05	367.46
401.24	397.89
401.44	360.44
401.63	472.79
401.82	381.51
402.01	320.65
402.21	423.64
402.40	374.49
402.59	344.06
402.78	393.21
402.97	456.40
403.17	465.77
403.36	435.34
403.55	418.96
403.74	440.02
403.93	360.44
404.13	411.93
404.32	428.32
404.51	437.68
404.70	468.11
404.89	341.72
405.09	437.68
405.28	437.68
405.47	425.98
405.66	421.30
405.85	440.02
406.05	442.36
406.24	325.33
406.43	414.27
406.62	430.66
406.81	493.85
407.00	402.57
407.20	428.32
407.39	440.02
407.58	433.00
407.77	353.42
407.96	421.30
408.15	444.70
408.34	360.44
408.54	346.40
408.73	458.74
408.92	395.55
409.11	411.93
409.30	463.43
409.49	395.55
409.68	421.30
409.87	444.70
410.07	437.68
410.26	421.30
410.45	381.51
410.64	376.83
410.83	337.04
411.02	362.78
411.21	393.21
411.40	486.83
411.59	421.30
411.78	341.72
411.98	425.98
412.17	409.59
412.36	367.46
412.55	348.74
412.74	407.25
412.93	482.15
413.12	463.43
413.31	355.76
413.50	355.76
413.69	379.17
413.88	414.27
414.07	362.78
414.26	461.09
414.45	409.59
414.64	416.62
414.83	388.53
415.02	454.06
415.22	400.23
415.41	421.30
415.60	351.08
415.79	362.78
415.98	428.32
416.17	388.53
416.36	332.36
416.55	409.59
416.74	416.62
416.93	381.51
417.12	430.66
417.31	421.30
417.50	404.91
417.69	463.43
417.88	397.89
418.07	358.10
418.26	416.62
418.45	369.80
418.64	425.98
418.83	425.98
419.02	447.04
419.21	447.04
419.39	456.40
419.58	407.25
419.77	437.68
419.96	433.00
420.15	477.47
420.34	440.02
420.53	428.32
420.72	456.40
420.91	404.91
421.10	442.36
421.29	411.93
421.48	451.72
421.67	411.93
421.86	372.15
422.05	402.57
422.24	381.51
422.43	477.47
422.61	386.19
422.80	365.12
422.99	479.81
423.18	465.77
423.37	400.23
423.56	376.83
423.75	369.80
423.94	381.51
424.13	437.68
424.32	486.83
424.50	414.27
424.69	449.38
424.88	477.47
425.07	437.68
425.26	433.00
425.45	362.78
425.64	379.17
425.83	418.96
426.01	435.34
426.20	374.49
426.39	407.25
426.58	308.95
426.77	449.38
426.96	369.80
427.15	418.96
427.33	404.91
427.52	421.30
427.71	442.36
427.90	430.66
428.09	379.17
428.28	383.85
428.46	402.57
428.65	418.96
428.84	374.49
429.03	484.49
429.22	402.57
429.40	388.53
429.59	388.53
429.78	407.25
429.97	430.66
430.16	430.66
430.34	444.70
430.53	379.17
430.72	341.72
430.91	505.56
431.10	482.15
431.28	416.62
431.47	362.78
431.66	383.85
431.85	428.32
432.03	393.21
432.22	428.32
432.41	451.72
432.60	440.02
432.79	402.57
432.97	416.62
433.16	416.62
433.35	341.72
433.54	409.59
433.72	388.53
433.91	381.51
434.10	315.97
434.28	376.83
434.47	447.04
434.66	440.02
434.85	344.06
435.03	383.85
435.22	449.38
435.41	418.96
435.59	381.51
435.78	437.68
435.97	461.09
436.16	400.23
436.34	433.00
436.53	313.63
436.72	402.57
436.90	449.38
437.09	451.72
437.28	379.17
437.46	430.66
437.65	484.49
437.84	386.19
438.02	383.85
438.21	423.64
438.40	365.12
438.58	365.12
438.77	451.72
438.96	339.38
439.14	386.19
439.33	409.59
439.52	407.25
439.70	393.21
439.89	355.76
440.08	444.70
440.26	383.85
440.45	447.04
440.63	458.74
440.82	479.81
441.01	470.45
441.19	411.93
441.38	372.15
441.57	447.04
441.75	414.27
441.94	360.44
442.12	332.36
442.31	421.30
442.50	360.44
442.68	449.38
442.87	451.72
443.05	449.38
443.24	449.38
443.43	374.49
443.61	416.62
443.80	358.10
443.98	330.02
444.17	437.68
444.35	400.23
444.54	425.98
444.73	411.93
444.91	423.64
445.10	374.49
445.28	290.23
445.47	404.91
445.65	383.85
445.84	379.17
446.02	388.53
446.21	381.51
446.39	409.59
446.58	517.26
446.77	414.27
446.95	411.93
447.14	348.74
447.32	444.70
447.51	411.93
447.69	404.91
447.88	416.62
448.06	440.02
448.25	454.06
448.43	444.70
448.62	358.10
448.80	376.83
448.99	397.89
449.17	334.70
449.36	362.78
449.54	400.23
449.73	381.51
449.91	456.40
450.10	447.04
450.28	447.04
450.46	442.36
450.65	435.34
450.83	433.00
451.02	404.91
451.20	416.62
451.39	383.85
451.57	421.30
451.76	411.93
451.94	461.09
452.13	383.85
452.31	414.27
452.49	409.59
452.68	447.04
452.86	454.06
453.05	449.38
453.23	440.02
453.42	360.44
453.60	386.19
453.78	409.59
453.97	404.91
454.15	388.53
454.34	425.98
454.52	423.64
454.70	414.27
454.89	472.79
455.07	355.76
455.26	411.93
455.44	418.96
455.62	346.40
455.81	421.30
455.99	374.49
456.17	409.59
456.36	404.91
456.54	437.68
456.73	411.93
456.91	400.23
457.09	416.62
457.28	449.38
457.46	353.42
457.64	482.15
457.83	430.66
458.01	423.64
458.19	409.59
458.38	395.55
458.56	484.49
458.74	430.66
458.93	444.70
459.11	456.40
459.29	496.19
459.48	421.30
459.66	479.81
459.84	442.36
460.03	475.13
460.21	444.70
460.39	489.17
460.57	395.55
460.76	341.72
460.94	376.83
461.12	395.55
461.31	388.53
461.49	383.85
461.67	381.51
461.85	390.87
462.04	442.36
462.22	741.95
462.40	381.51
462.59	496.19
462.77	451.72
462.95	409.59
463.13	414.27
463.32	381.51
463.50	430.66
463.68	369.80
463.86	428.32
464.05	451.72
464.23	435.34
464.41	433.00
464.59	465.77
464.78	425.98
464.96	386.19
465.14	407.25
465.32	428.32
465.50	421.30
465.69	461.09
465.87	425.98
466.05	407.25
466.23	442.36
466.41	482.15
466.60	440.02
466.78	379.17
466.96	393.21
467.14	463.43
467.32	461.09
467.51	463.43
467.69	451.72
467.87	447.04
468.05	395.55
468.23	423.64
468.41	388.53
468.60	367.46
468.78	489.17
468.96	496.19
469.14	430.66
469.32	374.49
469.50	411.93
469.69	418.96
469.87	444.70
470.05	440.02
470.23	386.19
470.41	433.00
470.59	404.91
470.77	416.62
470.95	390.87
471.14	435.34
471.32	374.49
471.50	433.00
471.68	369.80
471.86	372.15
472.04	369.80
472.22	425.98
472.40	421.30
472.58	390.87
472.77	444.70
472.95	369.80
473.13	442.36
473.31	428.32
473.49	430.66
473.67	369.80
473.85	433.00
474.03	449.38
474.21	414.27
474.39	437.68
474.57	442.36
474.75	458.74
474.93	428.32
475.12	351.08
475.30	423.64
475.48	388.53
475.66	402.57
475.84	355.76
476.02	435.34
476.20	440.02
476.38	456.40
476.56	451.72
476.74	360.44
476.92	458.74
477.10	463.43
477.28	379.17
477.46	416.62
477.64	458.74
477.82	461.09
478.00	454.06
478.18	470.45
478.36	360.44
478.54	322.99
478.72	339.38
478.90	437.68
479.08	458.74
479.26	409.59
479.44	346.40
479.62	381.51
479.80	360.44
479.98	407.25
480.16	421.30
480.34	395.55
480.52	402.57
480.70	470.45
480.88	383.85
481.06	374.49
481.24	367.46
481.41	400.23
481.59	362.78
481.77	369.80
481.95	353.42
482.13	416.62
482.31	435.34
482.49	400.23
482.67	407.25
482.85	395.55
483.03	421.30
483.21	400.23
483.39	395.55
483.57	484.49
483.74	477.47
483.92	425.98
484.10	440.02
484.28	430.66
484.46	425.98
484.64	407.25
484.82	463.43
485.00	411.93
485.18	433.00
485.35	409.59
485.53	395.55
485.71	433.00
485.89	334.70
486.07	327.68
486.25	458.74
486.43	449.38
486.61	543.00
486.78	395.55
486.96	407.25
487.14	400.23
487.32	482.15
487.50	414.27
487.68	418.96
487.85	414.27
488.03	393.21
488.21	372.15
488.39	449.38
488.57	348.74
488.75	493.85
488.92	538.32
489.10	409.59
489.28	425.98
489.46	421.30
489.64	402.57
489.81	430.66
489.99	505.56
490.17	386.19
490.35	468.11
490.53	421.30
490.70	414.27
490.88	425.98
491.06	416.62
491.24	470.45
491.41	433.00
491.59	470.45
491.77	421.30
491.95	407.25
492.13	386.19
492.30	409.59
492.48	395.55
492.66	355.76
492.84	332.36
493.01	360.44
493.19	395.55
493.37	433.00
493.54	449.38
493.72	393.21
493.90	418.96
494.08	402.57
494.25	491.51
494.43	433.00
494.61	477.47
494.79	318.31
494.96	372.15
495.14	430.66
495.32	440.02
495.49	479.81
495.67	421.30
495.85	428.32
496.02	404.91
496.20	454.06
496.38	379.17
496.55	381.51
496.73	449.38
496.91	407.25
497.09	447.04
497.26	395.55
497.44	442.36
497.62	386.19
497.79	339.38
497.97	430.66
498.14	374.49
498.32	416.62
498.50	442.36
498.67	433.00
498.85	390.87
499.03	362.78
499.20	402.57
499.38	437.68
499.56	411.93
499.73	418.96
499.91	372.15
500.08	351.08
500.26	402.57
500.44	393.21
500.61	421.30
500.79	447.04
500.97	463.43
501.14	372.15
501.32	428.32
501.49	430.66
501.67	442.36
501.84	383.85
502.02	393.21
502.20	397.89
502.37	379.17
502.55	327.68
502.72	362.78
502.90	383.85
503.07	456.40
503.25	393.21
503.43	433.00
503.60	390.87
503.78	449.38
503.95	365.12
504.13	423.64
504.30	407.25
504.48	418.96
504.65	454.06
504.83	383.85
505.01	461.09
505.18	430.66
505.36	348.74
505.53	393.21
505.71	362.78
505.88	463.43
506.06	479.81
506.23	388.53
506.41	463.43
506.58	407.25
506.76	416.62
506.93	425.98
507.11	348.74
507.28	454.06
507.46	407.25
507.63	374.49
507.81	416.62
507.98	411.93
508.16	465.77
508.33	440.02
508.50	486.83
508.68	428.32
508.85	402.57
509.03	430.66
509.20	409.59
509.38	400.23
509.55	411.93
509.73	386.19
509.90	423.64
510.08	414.27
510.25	449.38
510.42	400.23
510.60	374.49
510.77	362.78
510.95	479.81
511.12	402.57
511.30	400.23
511.47	402.57
511.64	486.83
511.82	423.64
511.99	358.10
512.17	418.96
512.34	435.34
512.51	423.64
512.69	428.32
512.86	421.30
513.04	475.13
513.21	472.79
513.38	320.65
513.56	404.91
513.73	444.70
513.90	402.57
514.08	421.30
514.25	407.25
514.43	449.38
514.60	409.59
514.77	379.17
514.95	482.15
515.12	372.15
515.29	435.34
515.47	451.72
515.64	458.74
515.81	337.04
515.99	524.28
516.16	423.64
516.33	404.91
516.51	444.70
516.68	421.30
516.85	402.57
517.03	407.25
517.20	353.42
517.37	393.21
517.54	444.70
517.72	463.43
517.89	463.43
518.06	454.06
518.24	444.70
518.41	491.51
518.58	449.38
518.75	433.00
518.93	416.62
519.10	362.78
519.27	383.85
519.45	411.93
519.62	435.34
519.79	430.66
519.96	339.38
520.14	365.12
520.31	430.66
520.48	484.49
520.65	451.72
520.83	390.87
521.00	451.72
521.17	440.02
521.34	395.55
521.52	449.38
521.69	416.62
521.86	435.34
522.03	390.87
522.20	393.21
522.38	484.49
522.55	395.55
522.72	397.89
522.89	433.00
523.07	550.03
523.24	440.02
523.41	444.70
523.58	386.19
523.75	423.64
523.92	404.91
524.10	395.55
524.27	388.53
524.44	440.02
524.61	468.11
524.78	468.11
524.96	433.00
525.13	411.93
525.30	433.00
525.47	444.70
525.64	386.19
525.81	390.87
525.98	421.30
526.16	344.06
526.33	407.25
526.50	442.36
526.67	416.62
526.84	444.70
527.01	477.47
527.18	454.06
527.36	383.85
527.53	411.93
527.70	407.25
527.87	372.15
528.04	414.27
528.21	353.42
528.38	447.04
528.55	423.64
528.72	458.74
528.89	454.06
529.07	386.19
529.24	404.91
529.41	449.38
529.58	358.10
529.75	369.80
529.92	468.11
530.09	358.10
530.26	437.68
530.43	463.43
530.60	430.66
530.77	383.85
530.94	465.77
531.11	428.32
531.28	362.78
531.46	397.89
531.63	428.32
531.80	440.02
531.97	393.21
532.14	423.64
532.31	500.87
532.48	477.47
532.65	486.83
532.82	393.21
532.99	435.34
533.16	404.91
533.33	400.23
533.50	353.42
533.67	402.57
533.84	449.38
534.01	449.38
534.18	409.59
534.35	353.42
534.52	372.15
534.69	400.23
534.86	360.44
535.03	442.36
535.20	482.15
535.37	482.15
535.54	442.36
535.71	402.57
535.88	521.94
536.05	433.00
536.22	395.55
536.38	409.59
536.55	435.34
536.72	409.59
536.89	397.89
537.06	409.59
537.23	421.30
537.40	407.25
537.57	397.89
537.74	463.43
537.91	437.68
538.08	308.95
538.25	421.30
538.42	358.10
538.59	470.45
538.75	425.98
538.92	402.57
539.09	449.38
539.26	456.40
539.43	433.00
539.60	404.91
539.77	482.15
539.94	409.59
540.11	362.78
540.28	430.66
540.44	430.66
540.61	393.21
540.78	437.68
540.95	402.57
541.12	409.59
541.29	458.74
541.46	407.25
541.62	470.45
541.79	435.34
541.96	414.27
542.13	411.93
542.30	454.06
542.47	395.55
542.63	423.64
542.80	355.76
542.97	442.36
543.14	428.32
543.31	447.04
543.48	442.36
543.64	341.72
543.81	414.27
543.98	451.72
544.15	421.30
544.32	428.32
544.48	435.34
544.65	346.40
544.82	407.25
544.99	400.23
545.16	428.32
545.32	367.46
545.49	449.38
545.66	346.40
545.83	374.49
546.00	348.74
546.16	444.70
546.33	425.98
546.50	440.02
546.67	414.27
546.83	449.38
547.00	393.21
547.17	379.17
547.34	404.91
547.50	388.53
547.67	379.17
547.84	381.51
548.00	414.27
548.17	437.68
548.34	393.21
548.51	416.62
548.67	407.25
548.84	440.02
549.01	407.25
549.18	433.00
549.34	458.74
549.51	482.15
549.68	421.30
549.84	428.32
550.01	313.63
550.18	528.96
550.34	447.04
550.51	414.27
550.68	435.34
550.84	430.66
551.01	447.04
551.18	458.74
551.34	465.77
551.51	493.85
551.68	423.64
551.84	447.04
552.01	414.27
552.18	447.04
552.34	390.87
552.51	456.40
552.68	503.22
552.84	374.49
553.01	461.09
553.18	395.55
553.34	409.59
553.51	411.93
553.67	388.53
553.84	475.13
554.01	456.40
554.17	435.34
554.34	379.17
554.51	374.49
554.67	442.36
554.84	484.49
555.00	407.25
555.17	468.11
555.33	451.72
555.50	376.83
555.67	440.02
555.83	433.00
556.00	421.30
556.16	566.41
556.33	503.22
556.50	334.70
556.66	416.62
556.83	463.43
556.99	461.09
557.16	468.11
557.32	447.04
557.49	433.00
557.65	386.19
557.82	416.62
557.98	489.17
558.15	397.89
558.32	510.24
558.48	409.59
558.65	433.00
558.81	505.56
558.98	507.90
559.14	358.10
559.31	456.40
559.47	444.70
559.64	440.02
559.80	393.21
559.97	416.62
560.13	493.85
560.30	376.83
560.46	454.06
560.63	383.85
560.79	414.27
560.96	470.45
561.12	437.68
561.29	379.17
561.45	465.77
561.61	416.62
561.78	489.17
561.94	423.64
562.11	327.68
562.27	404.91
562.44	351.08
562.60	374.49
562.77	388.53
562.93	498.53
563.10	430.66
563.26	404.91
563.42	454.06
563.59	482.15
563.75	400.23
563.92	430.66
564.08	397.89
564.24	374.49
564.41	430.66
564.57	461.09
564.74	390.87
564.90	468.11
565.07	472.79
565.23	379.17
565.39	374.49
565.56	414.27
565.72	379.17
565.88	421.30
566.05	388.53
566.21	456.40
566.38	433.00
566.54	484.49
566.70	442.36
566.87	397.89
567.03	390.87
567.19	449.38
567.36	386.19
567.52	390.87
567.68	461.09
567.85	362.78
568.01	365.12
568.17	383.85
568.34	454.06
568.50	421.30
568.66	423.64
568.83	491.51
568.99	437.68
569.15	430.66
569.32	393.21
569.48	461.09
569.64	479.81
569.81	440.02
569.97	393.21
570.13	447.04
570.30	414.27
570.46	358.10
570.62	430.66
570.78	390.87
570.95	423.64
571.11	334.70
571.27	404.91
571.43	348.74
571.60	433.00
571.76	355.76
571.92	451.72
572.09	395.55
572.25	421.30
572.41	500.87
572.57	376.83
572.74	400.23
572.90	418.96
573.06	369.80
573.22	461.09
573.38	479.81
573.55	337.04
573.71	465.77
573.87	416.62
574.03	430.66
574.20	418.96
574.36	411.93
574.52	449.38
574.68	362.78
574.84	414.27
575.01	418.96
575.17	423.64
575.33	351.08
575.49	447.04
575.65	447.04
575.82	433.00
575.98	421.30
576.14	404.91
576.30	355.76
576.46	411.93
576.62	468.11
576.79	496.19
576.95	376.83
577.11	332.36
577.27	367.46
577.43	404.91
577.59	428.32
577.75	458.74
577.92	407.25
578.08	402.57
578.24	407.25
578.40	400.23
578.56	425.98
578.72	418.96
578.88	425.98
579.04	402.57
579.21	479.81
579.37	330.02
579.53	400.23
579.69	435.34
579.85	472.79
580.01	393.21
580.17	388.53
580.33	409.59
580.49	390.87
580.65	430.66
580.82	461.09
580.98	400.23
581.14	418.96
581.30	449.38
581.46	407.25
581.62	491.51
581.78	402.57
581.94	468.11
582.10	393.21
582.26	369.80
582.42	353.42
582.58	500.87
582.74	428.32
582.90	362.78
583.06	458.74
583.22	388.53
583.38	416.62
583.54	477.47
583.70	418.96
583.86	386.19
584.02	393.21
584.18	477.47
584.34	449.38
584.50	407.25
584.66	447.04
584.82	409.59
584.98	479.81
585.14	456.40
585.30	428.32
585.46	496.19
585.62	379.17
585.78	393.21
585.94	400.23
586.10	393.21
586.26	402.57
586.42	463.43
586.58	421.30
586.74	379.17
586.90	479.81
587.06	486.83
587.22	407.25
587.38	440.02
587.54	430.66
587.70	456.40
587.86	461.09
588.02	414.27
588.18	435.34
588.34	454.06
588.49	322.99
588.65	390.87
588.81	341.72
588.97	353.42
589.13	484.49
589.29	430.66
589.45	447.04
589.61	355.76
589.77	447.04
589.93	397.89
590.08	369.80
590.24	423.64
590.40	376.83
590.56	444.70
590.72	456.40
590.88	475.13
591.04	472.79
591.20	360.44
591.35	440.02
591.51	395.55
591.67	402.57
591.83	402.57
591.99	456.40
592.15	470.45
592.31	486.83
592.46	418.96
592.62	468.11
592.78	372.15
592.94	376.83
593.10	322.99
593.26	346.40
593.41	402.57
593.57	365.12
593.73	409.59
593.89	381.51
594.05	397.89
594.20	348.74
594.36	472.79
594.52	451.72
594.68	388.53
594.84	475.13
594.99	454.06
595.15	344.06
595.31	414.27
595.47	482.15
595.62	423.64
595.78	477.47
595.94	393.21
596.10	449.38
596.25	454.06
596.41	496.19
596.57	416.62
596.73	383.85
596.88	430.66
597.04	390.87
597.20	421.30
597.36	435.34
597.51	379.17
597.67	400.23
597.83	454.06
597.99	444.70
598.14	407.25
598.30	414.27
598.46	411.93
598.61	353.42
598.77	418.96
598.93	402.57
599.09	461.09
599.24	414.27
599.40	437.68
599.56	463.43
599.71	451.72
599.87	383.85
600.03	437.68
600.18	362.78
600.34	411.93
600.50	355.76
600.65	362.78
600.81	444.70
600.97	365.12
601.12	390.87
601.28	315.97
601.44	365.12
601.59	386.19
601.75	365.12
601.91	423.64
602.06	379.17
602.22	477.47
602.37	351.08
602.53	411.93
602.69	440.02
602.84	367.46
603.00	395.55
603.16	397.89
603.31	418.96
603.47	376.83
603.62	440.02
603.78	416.62
603.94	355.76
604.09	461.09
604.25	458.74
604.40	437.68
604.56	454.06
604.71	418.96
604.87	358.10
605.03	425.98
605.18	346.40
605.34	491.51
605.49	348.74
605.65	358.10
605.80	421.30
605.96	369.80
606.12	468.11
606.27	407.25
606.43	337.04
606.58	444.70
606.74	444.70
606.89	477.47
607.05	465.77
607.20	418.96
607.36	397.89
607.51	435.34
607.67	388.53
607.82	491.51
607.98	463.43
608.13	435.34
608.29	423.64
608.44	465.77
608.60	437.68
608.75	461.09
608.91	393.21
609.06	395.55
609.22	423.64
609.37	390.87
609.53	430.66
609.68	454.06
609.84	351.08
609.99	409.59
610.15	383.85
