SpectraSuite Data File
++++++++++++++++++++++++++++++++++++
Date: Fri Oct 25 12:10:36 EDT 2013
User: price-jones
Dark Spectrum Present: No
Reference Spectrum Present: No
Number of Sampled Component Spectra: 1
Spectrometers: USB2+H05261
Integration Time (usec): 100000 (USB2+H05261)
Spectra Averaged: 1 (USB2+H05261)
Boxcar Smoothing: 0 (USB2+H05261)
Correct for Electrical Dark: No (USB2+H05261)
Strobe/Lamp Enabled: No (USB2+H05261)
Correct for Detector Non-linearity: No (USB2+H05261)
Correct for Stray Light: No (USB2+H05261)
Number of Pixels in Processed Spectrum: 2048
>>>>>Begin Processed Spectral Data<<<<<
365.73	369.80
365.92	369.80
366.12	369.80
366.32	250.44
366.52	220.01
366.72	257.46
366.91	222.35
367.11	250.44
367.31	257.46
367.51	236.39
367.70	212.99
367.90	241.08
368.10	212.99
368.30	173.20
368.49	283.20
368.69	297.25
368.89	205.97
369.09	318.31
369.28	287.89
369.48	271.50
369.68	231.71
369.87	327.68
370.07	283.20
370.27	322.99
370.47	238.73
370.66	306.61
370.86	374.49
371.06	341.72
371.25	381.51
371.45	409.59
371.65	423.64
371.84	308.95
372.04	400.23
372.24	369.80
372.44	379.17
372.63	379.17
372.83	430.66
373.03	423.64
373.22	454.06
373.42	369.80
373.62	388.53
373.81	372.15
374.01	421.30
374.21	517.26
374.40	400.23
374.60	465.77
374.79	440.02
374.99	442.36
375.19	402.57
375.38	465.77
375.58	442.36
375.78	458.74
375.97	435.34
376.17	491.51
376.37	388.53
376.56	435.34
376.76	404.91
376.95	402.57
377.15	404.91
377.35	383.85
377.54	393.21
377.74	341.72
377.93	348.74
378.13	433.00
378.33	416.62
378.52	411.93
378.72	447.04
378.91	407.25
379.11	386.19
379.31	423.64
379.50	386.19
379.70	433.00
379.89	461.09
380.09	341.72
380.28	365.12
380.48	390.87
380.68	409.59
380.87	393.21
381.07	444.70
381.26	365.12
381.46	353.42
381.65	386.19
381.85	383.85
382.04	428.32
382.24	407.25
382.43	393.21
382.63	416.62
382.83	397.89
383.02	362.78
383.22	486.83
383.41	456.40
383.61	369.80
383.80	414.27
384.00	388.53
384.19	440.02
384.39	400.23
384.58	358.10
384.78	479.81
384.97	409.59
385.17	355.76
385.36	421.30
385.56	402.57
385.75	372.15
385.95	379.17
386.14	320.65
386.34	411.93
386.53	372.15
386.72	423.64
386.92	458.74
387.11	449.38
387.31	407.25
387.50	369.80
387.70	374.49
387.89	421.30
388.09	353.42
388.28	435.34
388.48	421.30
388.67	365.12
388.86	447.04
389.06	332.36
389.25	440.02
389.45	358.10
389.64	388.53
389.84	330.02
390.03	365.12
390.22	407.25
390.42	365.12
390.61	379.17
390.81	395.55
391.00	416.62
391.19	456.40
391.39	416.62
391.58	416.62
391.78	442.36
391.97	442.36
392.16	411.93
392.36	461.09
392.55	418.96
392.75	435.34
392.94	433.00
393.13	395.55
393.33	421.30
393.52	411.93
393.71	383.85
393.91	409.59
394.10	365.12
394.29	423.64
394.49	397.89
394.68	449.38
394.88	404.91
395.07	482.15
395.26	383.85
395.46	393.21
395.65	416.62
395.84	339.38
396.04	517.26
396.23	482.15
396.42	367.46
396.62	414.27
396.81	383.85
397.00	430.66
397.19	337.04
397.39	400.23
397.58	411.93
397.77	388.53
397.97	479.81
398.16	355.76
398.35	404.91
398.55	421.30
398.74	337.04
398.93	430.66
399.12	344.06
399.32	449.38
399.51	416.62
399.70	402.57
399.90	465.77
400.09	390.87
400.28	423.64
400.47	442.36
400.67	442.36
400.86	449.38
401.05	395.55
401.24	416.62
401.44	418.96
401.63	430.66
401.82	402.57
402.01	440.02
402.21	409.59
402.40	358.10
402.59	388.53
402.78	346.40
402.97	407.25
403.17	388.53
403.36	362.78
403.55	334.70
403.74	421.30
403.93	337.04
404.13	465.77
404.32	400.23
404.51	355.76
404.70	400.23
404.89	416.62
405.09	496.19
405.28	393.21
405.47	386.19
405.66	437.68
405.85	393.21
406.05	430.66
406.24	411.93
406.43	444.70
406.62	437.68
406.81	379.17
407.00	388.53
407.20	418.96
407.39	372.15
407.58	400.23
407.77	425.98
407.96	449.38
408.15	409.59
408.34	437.68
408.54	360.44
408.73	409.59
408.92	409.59
409.11	381.51
409.30	379.17
409.49	351.08
409.68	390.87
409.87	479.81
410.07	341.72
410.26	393.21
410.45	397.89
410.64	437.68
410.83	400.23
411.02	372.15
411.21	477.47
411.40	486.83
411.59	402.57
411.78	351.08
411.98	360.44
412.17	414.27
412.36	451.72
412.55	416.62
412.74	362.78
412.93	360.44
413.12	435.34
413.31	416.62
413.50	440.02
413.69	374.49
413.88	430.66
414.07	402.57
414.26	400.23
414.45	435.34
414.64	411.93
414.83	442.36
415.02	365.12
415.22	421.30
415.41	479.81
415.60	379.17
415.79	388.53
415.98	444.70
416.17	383.85
416.36	458.74
416.55	381.51
416.74	397.89
416.93	416.62
417.12	353.42
417.31	402.57
417.50	397.89
417.69	433.00
417.88	418.96
418.07	414.27
418.26	430.66
418.45	416.62
418.64	451.72
418.83	355.76
419.02	390.87
419.21	414.27
419.39	402.57
419.58	390.87
419.77	353.42
419.96	393.21
420.15	463.43
420.34	449.38
420.53	358.10
420.72	416.62
420.91	433.00
421.10	407.25
421.29	451.72
421.48	454.06
421.67	383.85
421.86	402.57
422.05	435.34
422.24	444.70
422.43	444.70
422.61	404.91
422.80	400.23
422.99	376.83
423.18	334.70
423.37	463.43
423.56	374.49
423.75	435.34
423.94	468.11
424.13	440.02
424.32	430.66
424.50	451.72
424.69	376.83
424.88	477.47
425.07	400.23
425.26	395.55
425.45	397.89
425.64	451.72
425.83	458.74
426.01	400.23
426.20	425.98
426.39	433.00
426.58	407.25
426.77	425.98
426.96	397.89
427.15	437.68
427.33	407.25
427.52	451.72
427.71	430.66
427.90	430.66
428.09	374.49
428.28	425.98
428.46	400.23
428.65	477.47
428.84	383.85
429.03	468.11
429.22	404.91
429.40	355.76
429.59	435.34
429.78	430.66
429.97	376.83
430.16	365.12
430.34	418.96
430.53	423.64
430.72	379.17
430.91	425.98
431.10	454.06
431.28	430.66
431.47	402.57
431.66	472.79
431.85	395.55
432.03	433.00
432.22	489.17
432.41	428.32
432.60	425.98
432.79	397.89
432.97	402.57
433.16	322.99
433.35	367.46
433.54	414.27
433.72	435.34
433.91	435.34
434.10	376.83
434.28	440.02
434.47	416.62
434.66	411.93
434.85	449.38
435.03	418.96
435.22	395.55
435.41	444.70
435.59	482.15
435.78	383.85
435.97	472.79
436.16	418.96
436.34	451.72
436.53	414.27
436.72	418.96
436.90	400.23
437.09	397.89
437.28	397.89
437.46	416.62
437.65	454.06
437.84	397.89
438.02	386.19
438.21	423.64
438.40	451.72
438.58	447.04
438.77	418.96
438.96	407.25
439.14	395.55
439.33	435.34
439.52	390.87
439.70	376.83
439.89	472.79
440.08	416.62
440.26	372.15
440.45	404.91
440.63	437.68
440.82	440.02
441.01	414.27
441.19	416.62
441.38	418.96
441.57	451.72
441.75	454.06
441.94	435.34
442.12	395.55
442.31	400.23
442.50	400.23
442.68	351.08
442.87	369.80
443.05	407.25
443.24	416.62
443.43	447.04
443.61	437.68
443.80	332.36
443.98	472.79
444.17	421.30
444.35	360.44
444.54	421.30
444.73	416.62
444.91	402.57
445.10	393.21
445.28	404.91
445.47	414.27
445.65	376.83
445.84	407.25
446.02	374.49
446.21	390.87
446.39	379.17
446.58	341.72
446.77	414.27
446.95	372.15
447.14	407.25
447.32	381.51
447.51	435.34
447.69	433.00
447.88	383.85
448.06	397.89
448.25	416.62
448.43	395.55
448.62	358.10
448.80	428.32
448.99	388.53
449.17	449.38
449.36	386.19
449.54	414.27
449.73	449.38
449.91	454.06
450.10	425.98
450.28	489.17
450.46	400.23
450.65	393.21
450.83	437.68
451.02	414.27
451.20	418.96
451.39	472.79
451.57	440.02
451.76	449.38
451.94	388.53
452.13	411.93
452.31	404.91
452.49	428.32
452.68	390.87
452.86	421.30
453.05	456.40
453.23	430.66
453.42	433.00
453.60	372.15
453.78	437.68
453.97	421.30
454.15	362.78
454.34	437.68
454.52	421.30
454.70	486.83
454.89	435.34
455.07	402.57
455.26	451.72
455.44	440.02
455.62	386.19
455.81	369.80
455.99	475.13
456.17	428.32
456.36	440.02
456.54	407.25
456.73	402.57
456.91	400.23
457.09	369.80
457.28	465.77
457.46	433.00
457.64	428.32
457.83	400.23
458.01	414.27
458.19	367.46
458.38	348.74
458.56	425.98
458.74	414.27
458.93	416.62
459.11	433.00
459.29	379.17
459.48	411.93
459.66	416.62
459.84	369.80
460.03	416.62
460.21	521.94
460.39	337.04
460.57	454.06
460.76	442.36
460.94	423.64
461.12	414.27
461.31	407.25
461.49	437.68
461.67	390.87
461.85	437.68
462.04	400.23
462.22	823.87
462.40	442.36
462.59	472.79
462.77	369.80
462.95	447.04
463.13	421.30
463.32	472.79
463.50	428.32
463.68	381.51
463.86	484.49
464.05	395.55
464.23	397.89
464.41	461.09
464.59	447.04
464.78	430.66
464.96	425.98
465.14	447.04
465.32	404.91
465.50	421.30
465.69	479.81
465.87	395.55
466.05	454.06
466.23	388.53
466.41	428.32
466.60	379.17
466.78	449.38
466.96	409.59
467.14	484.49
467.32	386.19
467.51	341.72
467.69	374.49
467.87	484.49
468.05	372.15
468.23	514.92
468.41	418.96
468.60	379.17
468.78	430.66
468.96	423.64
469.14	341.72
469.32	442.36
469.50	475.13
469.69	477.47
469.87	472.79
470.05	468.11
470.23	437.68
470.41	379.17
470.59	461.09
470.77	444.70
470.95	435.34
471.14	433.00
471.32	318.31
471.50	388.53
471.68	421.30
471.86	430.66
472.04	322.99
472.22	437.68
472.40	402.57
472.58	472.79
472.77	390.87
472.95	395.55
473.13	435.34
473.31	376.83
473.49	397.89
473.67	400.23
473.85	479.81
474.03	507.90
474.21	341.72
474.39	468.11
474.57	442.36
474.75	383.85
474.93	353.42
475.12	407.25
475.30	435.34
475.48	402.57
475.66	400.23
475.84	332.36
476.02	414.27
476.20	437.68
476.38	444.70
476.56	440.02
476.74	461.09
476.92	437.68
477.10	404.91
477.28	421.30
477.46	416.62
477.64	430.66
477.82	409.59
478.00	379.17
478.18	423.64
478.36	458.74
478.54	447.04
478.72	395.55
478.90	388.53
479.08	458.74
479.26	388.53
479.44	421.30
479.62	339.38
479.80	374.49
479.98	369.80
480.16	362.78
480.34	353.42
480.52	376.83
480.70	409.59
480.88	444.70
481.06	346.40
481.24	322.99
481.41	402.57
481.59	449.38
481.77	393.21
481.95	395.55
482.13	458.74
482.31	404.91
482.49	393.21
482.67	449.38
482.85	365.12
483.03	379.17
483.21	444.70
483.39	388.53
483.57	381.51
483.74	430.66
483.92	397.89
484.10	411.93
484.28	411.93
484.46	416.62
484.64	430.66
484.82	442.36
485.00	416.62
485.18	479.81
485.35	383.85
485.53	393.21
485.71	505.56
485.89	388.53
486.07	404.91
486.25	411.93
486.43	440.02
486.61	468.11
486.78	414.27
486.96	379.17
487.14	468.11
487.32	437.68
487.50	433.00
487.68	465.77
487.85	383.85
488.03	437.68
488.21	435.34
488.39	433.00
488.57	416.62
488.75	339.38
488.92	468.11
489.10	442.36
489.28	425.98
489.46	404.91
489.64	449.38
489.81	454.06
489.99	484.49
490.17	423.64
490.35	428.32
490.53	428.32
490.70	407.25
490.88	437.68
491.06	374.49
491.24	482.15
491.41	538.32
491.59	400.23
491.77	388.53
491.95	376.83
492.13	376.83
492.30	374.49
492.48	407.25
492.66	348.74
492.84	409.59
493.01	468.11
493.19	414.27
493.37	489.17
493.54	465.77
493.72	376.83
493.90	358.10
494.08	390.87
494.25	465.77
494.43	493.85
494.61	447.04
494.79	383.85
494.96	355.76
495.14	360.44
495.32	374.49
495.49	402.57
495.67	327.68
495.85	386.19
496.02	402.57
496.20	425.98
496.38	397.89
496.55	521.94
496.73	411.93
496.91	470.45
497.09	386.19
497.26	416.62
497.44	402.57
497.62	355.76
497.79	433.00
497.97	407.25
498.14	358.10
498.32	414.27
498.50	423.64
498.67	440.02
498.85	461.09
499.03	472.79
499.20	376.83
499.38	372.15
499.56	400.23
499.73	430.66
499.91	428.32
500.08	440.02
500.26	454.06
500.44	449.38
500.61	400.23
500.79	423.64
500.97	423.64
501.14	479.81
501.32	437.68
501.49	418.96
501.67	341.72
501.84	430.66
502.02	395.55
502.20	444.70
502.37	381.51
502.55	409.59
502.72	355.76
502.90	458.74
503.07	344.06
503.25	397.89
503.43	390.87
503.60	407.25
503.78	381.51
503.95	376.83
504.13	404.91
504.30	374.49
504.48	444.70
504.65	500.87
504.83	418.96
505.01	407.25
505.18	397.89
505.36	397.89
505.53	458.74
505.71	367.46
505.88	437.68
506.06	390.87
506.23	360.44
506.41	358.10
506.58	393.21
506.76	425.98
506.93	437.68
507.11	463.43
507.28	418.96
507.46	418.96
507.63	374.49
507.81	395.55
507.98	409.59
508.16	362.78
508.33	404.91
508.50	454.06
508.68	435.34
508.85	407.25
509.03	353.42
509.20	402.57
509.38	367.46
509.55	395.55
509.73	393.21
509.90	339.38
510.08	416.62
510.25	493.85
510.42	400.23
510.60	386.19
510.77	472.79
510.95	416.62
511.12	470.45
511.30	409.59
511.47	421.30
511.64	435.34
511.82	334.70
511.99	440.02
512.17	339.38
512.34	444.70
512.51	444.70
512.69	479.81
512.86	433.00
513.04	444.70
513.21	454.06
513.38	393.21
513.56	341.72
513.73	393.21
513.90	327.68
514.08	360.44
514.25	390.87
514.43	451.72
514.60	435.34
514.77	437.68
514.95	421.30
515.12	381.51
515.29	468.11
515.47	454.06
515.64	449.38
515.81	404.91
515.99	489.17
516.16	388.53
516.33	393.21
516.51	425.98
516.68	407.25
516.85	437.68
517.03	383.85
517.20	482.15
517.37	418.96
517.54	416.62
517.72	430.66
517.89	365.12
518.06	383.85
518.24	423.64
518.41	423.64
518.58	458.74
518.75	423.64
518.93	430.66
519.10	348.74
519.27	390.87
519.45	360.44
519.62	383.85
519.79	390.87
519.96	360.44
520.14	353.42
520.31	355.76
520.48	386.19
520.65	362.78
520.83	402.57
521.00	451.72
521.17	435.34
521.34	421.30
521.52	442.36
521.69	407.25
521.86	421.30
522.03	416.62
522.20	447.04
522.38	407.25
522.55	437.68
522.72	440.02
522.89	430.66
523.07	449.38
523.24	454.06
523.41	461.09
523.58	430.66
523.75	437.68
523.92	454.06
524.10	435.34
524.27	379.17
524.44	388.53
524.61	376.83
524.78	322.99
524.96	404.91
525.13	400.23
525.30	404.91
525.47	472.79
525.64	362.78
525.81	362.78
525.98	418.96
526.16	353.42
526.33	404.91
526.50	379.17
526.67	430.66
526.84	374.49
527.01	379.17
527.18	388.53
527.36	433.00
527.53	402.57
527.70	430.66
527.87	465.77
528.04	449.38
528.21	444.70
528.38	451.72
528.55	388.53
528.72	449.38
528.89	468.11
529.07	425.98
529.24	388.53
529.41	428.32
529.58	451.72
529.75	360.44
529.92	435.34
530.09	451.72
530.26	402.57
530.43	425.98
530.60	397.89
530.77	404.91
530.94	390.87
531.11	416.62
531.28	381.51
531.46	458.74
531.63	372.15
531.80	346.40
531.97	482.15
532.14	421.30
532.31	433.00
532.48	404.91
532.65	470.45
532.82	407.25
532.99	327.68
533.16	414.27
533.33	393.21
533.50	425.98
533.67	425.98
533.84	416.62
534.01	458.74
534.18	386.19
534.35	383.85
534.52	390.87
534.69	421.30
534.86	397.89
535.03	411.93
535.20	414.27
535.37	435.34
535.54	454.06
535.71	395.55
535.88	479.81
536.05	442.36
536.22	421.30
536.38	404.91
536.55	409.59
536.72	475.13
536.89	348.74
537.06	372.15
537.23	393.21
537.40	421.30
537.57	400.23
537.74	414.27
537.91	465.77
538.08	416.62
538.25	491.51
538.42	397.89
538.59	468.11
538.75	346.40
538.92	437.68
539.09	442.36
539.26	388.53
539.43	491.51
539.60	404.91
539.77	449.38
539.94	393.21
540.11	383.85
540.28	421.30
540.44	470.45
540.61	393.21
540.78	416.62
540.95	423.64
541.12	477.47
541.29	451.72
541.46	440.02
541.62	416.62
541.79	458.74
541.96	442.36
542.13	400.23
542.30	470.45
542.47	409.59
542.63	411.93
542.80	442.36
542.97	425.98
543.14	376.83
543.31	395.55
543.48	409.59
543.64	418.96
543.81	376.83
543.98	409.59
544.15	386.19
544.32	339.38
544.48	484.49
544.65	470.45
544.82	388.53
544.99	423.64
545.16	442.36
545.32	425.98
545.49	397.89
545.66	395.55
545.83	407.25
546.00	425.98
546.16	411.93
546.33	372.15
546.50	393.21
546.67	440.02
546.83	388.53
547.00	372.15
547.17	416.62
547.34	388.53
547.50	407.25
547.67	456.40
547.84	346.40
548.00	397.89
548.17	407.25
548.34	482.15
548.51	449.38
548.67	411.93
548.84	395.55
549.01	454.06
549.18	475.13
549.34	411.93
549.51	468.11
549.68	416.62
549.84	418.96
550.01	447.04
550.18	418.96
550.34	491.51
550.51	486.83
550.68	498.53
550.84	470.45
551.01	458.74
551.18	372.15
551.34	318.31
551.51	393.21
551.68	430.66
551.84	425.98
552.01	397.89
552.18	397.89
552.34	372.15
552.51	416.62
552.68	362.78
552.84	383.85
553.01	437.68
553.18	416.62
553.34	454.06
553.51	381.51
553.67	435.34
553.84	461.09
554.01	402.57
554.17	454.06
554.34	430.66
554.51	388.53
554.67	308.95
554.84	425.98
555.00	402.57
555.17	416.62
555.33	383.85
555.50	407.25
555.67	367.46
555.83	433.00
556.00	400.23
556.16	561.73
556.33	430.66
556.50	355.76
556.66	402.57
556.83	437.68
556.99	440.02
557.16	395.55
557.32	346.40
557.49	491.51
557.65	463.43
557.82	423.64
557.98	358.10
558.15	407.25
558.32	367.46
558.48	383.85
558.65	409.59
558.81	402.57
558.98	393.21
559.14	479.81
559.31	388.53
559.47	430.66
559.64	386.19
559.80	447.04
559.97	430.66
560.13	423.64
560.30	425.98
560.46	404.91
560.63	365.12
560.79	407.25
560.96	379.17
561.12	421.30
561.29	362.78
561.45	447.04
561.61	444.70
561.78	442.36
561.94	383.85
562.11	365.12
562.27	465.77
562.44	456.40
562.60	425.98
562.77	421.30
562.93	489.17
563.10	395.55
563.26	386.19
563.42	454.06
563.59	423.64
563.75	482.15
563.92	433.00
564.08	386.19
564.24	437.68
564.41	418.96
564.57	360.44
564.74	332.36
564.90	411.93
565.07	425.98
565.23	496.19
565.39	425.98
565.56	447.04
565.72	381.51
565.88	454.06
566.05	388.53
566.21	402.57
566.38	395.55
566.54	404.91
566.70	376.83
566.87	409.59
567.03	465.77
567.19	442.36
567.36	468.11
567.52	404.91
567.68	397.89
567.85	451.72
568.01	449.38
568.17	409.59
568.34	416.62
568.50	458.74
568.66	383.85
568.83	463.43
568.99	418.96
569.15	433.00
569.32	407.25
569.48	388.53
569.64	421.30
569.81	430.66
569.97	496.19
570.13	362.78
570.30	393.21
570.46	475.13
570.62	400.23
570.78	390.87
570.95	425.98
571.11	449.38
571.27	454.06
571.43	433.00
571.60	437.68
571.76	346.40
571.92	327.68
572.09	379.17
572.25	404.91
572.41	411.93
572.57	362.78
572.74	458.74
572.90	402.57
573.06	444.70
573.22	470.45
573.38	507.90
573.55	381.51
573.71	416.62
573.87	430.66
574.03	437.68
574.20	369.80
574.36	414.27
574.52	372.15
574.68	416.62
574.84	470.45
575.01	449.38
575.17	397.89
575.33	463.43
575.49	428.32
575.65	374.49
575.82	447.04
575.98	374.49
576.14	379.17
576.30	381.51
576.46	423.64
576.62	463.43
576.79	425.98
576.95	482.15
577.11	407.25
577.27	418.96
577.43	449.38
577.59	416.62
577.75	423.64
577.92	388.53
578.08	400.23
578.24	477.47
578.40	409.59
578.56	456.40
578.72	400.23
578.88	465.77
579.04	348.74
579.21	414.27
579.37	379.17
579.53	409.59
579.69	404.91
579.85	383.85
580.01	397.89
580.17	433.00
580.33	435.34
580.49	418.96
580.65	383.85
580.82	386.19
580.98	379.17
581.14	386.19
581.30	440.02
581.46	360.44
581.62	456.40
581.78	451.72
581.94	425.98
582.10	367.46
582.26	440.02
582.42	355.76
582.58	437.68
582.74	367.46
582.90	369.80
583.06	503.22
583.22	365.12
583.38	416.62
583.54	430.66
583.70	393.21
583.86	442.36
584.02	402.57
584.18	414.27
584.34	512.58
584.50	393.21
584.66	400.23
584.82	461.09
584.98	451.72
585.14	388.53
585.30	425.98
585.46	470.45
585.62	404.91
585.78	395.55
585.94	404.91
586.10	397.89
586.26	397.89
586.42	416.62
586.58	421.30
586.74	360.44
586.90	400.23
587.06	454.06
587.22	491.51
587.38	411.93
587.54	463.43
587.70	397.89
587.86	421.30
588.02	402.57
588.18	437.68
588.34	421.30
588.49	414.27
588.65	386.19
588.81	437.68
588.97	397.89
589.13	388.53
589.29	402.57
589.45	388.53
589.61	402.57
589.77	437.68
589.93	414.27
590.08	418.96
590.24	416.62
590.40	369.80
590.56	372.15
590.72	430.66
590.88	428.32
591.04	369.80
591.20	421.30
591.35	386.19
591.51	433.00
591.67	404.91
591.83	421.30
591.99	402.57
592.15	411.93
592.31	444.70
592.46	388.53
592.62	421.30
592.78	351.08
592.94	365.12
593.10	400.23
593.26	355.76
593.41	404.91
593.57	482.15
593.73	383.85
593.89	451.72
594.05	414.27
594.20	440.02
594.36	470.45
594.52	372.15
594.68	386.19
594.84	423.64
594.99	454.06
595.15	430.66
595.31	416.62
595.47	440.02
595.62	344.06
595.78	430.66
595.94	393.21
596.10	407.25
596.25	367.46
596.41	456.40
596.57	409.59
596.73	407.25
596.88	454.06
597.04	449.38
597.20	435.34
597.36	475.13
597.51	381.51
597.67	442.36
597.83	404.91
597.99	353.42
598.14	423.64
598.30	449.38
598.46	468.11
598.61	449.38
598.77	379.17
598.93	344.06
599.09	428.32
599.24	411.93
599.40	407.25
599.56	404.91
599.71	346.40
599.87	388.53
600.03	475.13
600.18	456.40
600.34	437.68
600.50	421.30
600.65	430.66
600.81	514.92
600.97	491.51
601.12	386.19
601.28	397.89
601.44	470.45
601.59	393.21
601.75	400.23
601.91	416.62
602.06	421.30
602.22	486.83
602.37	416.62
602.53	400.23
602.69	435.34
602.84	369.80
603.00	383.85
603.16	428.32
603.31	393.21
603.47	468.11
603.62	458.74
603.78	421.30
603.94	433.00
604.09	442.36
604.25	404.91
604.40	472.79
604.56	433.00
604.71	360.44
604.87	430.66
605.03	425.98
605.18	402.57
605.34	409.59
605.49	381.51
605.65	440.02
605.80	416.62
605.96	425.98
606.12	418.96
606.27	418.96
606.43	435.34
606.58	414.27
606.74	393.21
606.89	386.19
607.05	355.76
607.20	433.00
607.36	470.45
607.51	451.72
607.67	477.47
607.82	407.25
607.98	440.02
608.13	393.21
608.29	404.91
608.44	444.70
608.60	376.83
608.75	383.85
608.91	449.38
609.06	461.09
609.22	400.23
609.37	444.70
609.53	428.32
609.68	407.25
609.84	407.25
609.99	456.40
610.15	447.04
