SpectraSuite Data File
++++++++++++++++++++++++++++++++++++
Date: Fri Oct 25 12:10:26 EDT 2013
User: price-jones
Dark Spectrum Present: No
Reference Spectrum Present: No
Number of Sampled Component Spectra: 1
Spectrometers: USB2+H05261
Integration Time (usec): 100000 (USB2+H05261)
Spectra Averaged: 1 (USB2+H05261)
Boxcar Smoothing: 0 (USB2+H05261)
Correct for Electrical Dark: No (USB2+H05261)
Strobe/Lamp Enabled: No (USB2+H05261)
Correct for Detector Non-linearity: No (USB2+H05261)
Correct for Stray Light: No (USB2+H05261)
Number of Pixels in Processed Spectrum: 2048
>>>>>Begin Processed Spectral Data<<<<<
365.73	299.59
365.92	299.59
366.12	299.59
366.32	271.50
366.52	238.73
366.72	217.67
366.91	224.69
367.11	241.08
367.31	269.16
367.51	257.46
367.70	191.92
367.90	222.35
368.10	252.78
368.30	236.39
368.49	276.18
368.69	318.31
368.89	243.42
369.09	191.92
369.28	271.50
369.48	318.31
369.68	332.36
369.87	339.38
370.07	313.63
370.27	402.57
370.47	318.31
370.66	294.91
370.86	388.53
371.06	332.36
371.25	461.09
371.45	325.33
371.65	348.74
371.84	344.06
372.04	423.64
372.24	465.77
372.44	367.46
372.63	458.74
372.83	465.77
373.03	393.21
373.22	402.57
373.42	386.19
373.62	465.77
373.81	414.27
374.01	468.11
374.21	425.98
374.40	449.38
374.60	449.38
374.79	414.27
374.99	475.13
375.19	379.17
375.38	379.17
375.58	456.40
375.78	404.91
375.97	463.43
376.17	433.00
376.37	414.27
376.56	411.93
376.76	411.93
376.95	451.72
377.15	362.78
377.35	358.10
377.54	395.55
377.74	402.57
377.93	416.62
378.13	388.53
378.33	416.62
378.52	430.66
378.72	479.81
378.91	383.85
379.11	402.57
379.31	409.59
379.50	395.55
379.70	397.89
379.89	407.25
380.09	402.57
380.28	435.34
380.48	397.89
380.68	418.96
380.87	344.06
381.07	367.46
381.26	479.81
381.46	428.32
381.65	456.40
381.85	355.76
382.04	423.64
382.24	421.30
382.43	437.68
382.63	374.49
382.83	423.64
383.02	369.80
383.22	402.57
383.41	374.49
383.61	477.47
383.80	416.62
384.00	414.27
384.19	454.06
384.39	428.32
384.58	367.46
384.78	425.98
384.97	409.59
385.17	374.49
385.36	381.51
385.56	372.15
385.75	341.72
385.95	402.57
386.14	451.72
386.34	414.27
386.53	407.25
386.72	421.30
386.92	437.68
387.11	395.55
387.31	381.51
387.50	372.15
387.70	451.72
387.89	477.47
388.09	444.70
388.28	409.59
388.48	407.25
388.67	442.36
388.86	344.06
389.06	322.99
389.25	351.08
389.45	362.78
389.64	423.64
389.84	407.25
390.03	360.44
390.22	437.68
390.42	362.78
390.61	442.36
390.81	390.87
391.00	383.85
391.19	402.57
391.39	477.47
391.58	393.21
391.78	418.96
391.97	381.51
392.16	393.21
392.36	486.83
392.55	444.70
392.75	379.17
392.94	390.87
393.13	421.30
393.33	376.83
393.52	425.98
393.71	484.49
393.91	437.68
394.10	332.36
394.29	454.06
394.49	428.32
394.68	351.08
394.88	414.27
395.07	409.59
395.26	358.10
395.46	376.83
395.65	351.08
395.84	400.23
396.04	463.43
396.23	397.89
396.42	421.30
396.62	472.79
396.81	416.62
397.00	372.15
397.19	360.44
397.39	397.89
397.58	421.30
397.77	393.21
397.97	411.93
398.16	409.59
398.35	400.23
398.55	433.00
398.74	362.78
398.93	388.53
399.12	428.32
399.32	388.53
399.51	374.49
399.70	334.70
399.90	374.49
400.09	475.13
400.28	418.96
400.47	362.78
400.67	365.12
400.86	374.49
401.05	414.27
401.24	414.27
401.44	433.00
401.63	402.57
401.82	451.72
402.01	315.97
402.21	435.34
402.40	458.74
402.59	442.36
402.78	404.91
402.97	339.38
403.17	376.83
403.36	407.25
403.55	416.62
403.74	383.85
403.93	430.66
404.13	437.68
404.32	454.06
404.51	444.70
404.70	414.27
404.89	433.00
405.09	404.91
405.28	444.70
405.47	440.02
405.66	430.66
405.85	367.46
406.05	435.34
406.24	376.83
406.43	388.53
406.62	369.80
406.81	470.45
407.00	454.06
407.20	299.59
407.39	449.38
407.58	355.76
407.77	451.72
407.96	437.68
408.15	421.30
408.34	463.43
408.54	491.51
408.73	369.80
408.92	362.78
409.11	409.59
409.30	479.81
409.49	409.59
409.68	433.00
409.87	503.22
410.07	414.27
410.26	367.46
410.45	416.62
410.64	435.34
410.83	437.68
411.02	339.38
411.21	372.15
411.40	395.55
411.59	404.91
411.78	421.30
411.98	421.30
412.17	400.23
412.36	454.06
412.55	381.51
412.74	468.11
412.93	430.66
413.12	397.89
413.31	409.59
413.50	423.64
413.69	400.23
413.88	416.62
414.07	440.02
414.26	376.83
414.45	376.83
414.64	395.55
414.83	390.87
415.02	341.72
415.22	447.04
415.41	348.74
415.60	395.55
415.79	402.57
415.98	507.90
416.17	484.49
416.36	454.06
416.55	440.02
416.74	428.32
416.93	451.72
417.12	400.23
417.31	388.53
417.50	395.55
417.69	444.70
417.88	362.78
418.07	444.70
418.26	440.02
418.45	433.00
418.64	411.93
418.83	386.19
419.02	381.51
419.21	386.19
419.39	409.59
419.58	374.49
419.77	393.21
419.96	360.44
420.15	400.23
420.34	449.38
420.53	411.93
420.72	397.89
420.91	428.32
421.10	458.74
421.29	374.49
421.48	355.76
421.67	433.00
421.86	458.74
422.05	360.44
422.24	416.62
422.43	348.74
422.61	402.57
422.80	409.59
422.99	421.30
423.18	390.87
423.37	346.40
423.56	442.36
423.75	400.23
423.94	418.96
424.13	463.43
424.32	334.70
424.50	423.64
424.69	388.53
424.88	414.27
425.07	416.62
425.26	421.30
425.45	395.55
425.64	407.25
425.83	409.59
426.01	437.68
426.20	423.64
426.39	425.98
426.58	388.53
426.77	411.93
426.96	425.98
427.15	381.51
427.33	437.68
427.52	360.44
427.71	433.00
427.90	500.87
428.09	433.00
428.28	414.27
428.46	440.02
428.65	472.79
428.84	433.00
429.03	440.02
429.22	390.87
429.40	437.68
429.59	346.40
429.78	486.83
429.97	402.57
430.16	407.25
430.34	367.46
430.53	407.25
430.72	454.06
430.91	463.43
431.10	421.30
431.28	428.32
431.47	458.74
431.66	395.55
431.85	404.91
432.03	383.85
432.22	463.43
432.41	395.55
432.60	449.38
432.79	367.46
432.97	381.51
433.16	458.74
433.35	491.51
433.54	393.21
433.72	416.62
433.91	407.25
434.10	433.00
434.28	395.55
434.47	362.78
434.66	461.09
434.85	414.27
435.03	425.98
435.22	458.74
435.41	414.27
435.59	351.08
435.78	430.66
435.97	362.78
436.16	421.30
436.34	433.00
436.53	421.30
436.72	430.66
436.90	435.34
437.09	390.87
437.28	435.34
437.46	465.77
437.65	482.15
437.84	386.19
438.02	437.68
438.21	475.13
438.40	475.13
438.58	351.08
438.77	430.66
438.96	292.57
439.14	409.59
439.33	390.87
439.52	355.76
439.70	344.06
439.89	489.17
440.08	433.00
440.26	416.62
440.45	388.53
440.63	409.59
440.82	369.80
441.01	409.59
441.19	416.62
441.38	383.85
441.57	337.04
441.75	493.85
441.94	416.62
442.12	355.76
442.31	435.34
442.50	447.04
442.68	428.32
442.87	369.80
443.05	447.04
443.24	365.12
443.43	404.91
443.61	437.68
443.80	390.87
443.98	416.62
444.17	435.34
444.35	449.38
444.54	381.51
444.73	468.11
444.91	393.21
445.10	360.44
445.28	381.51
445.47	528.96
445.65	435.34
445.84	327.68
446.02	362.78
446.21	393.21
446.39	435.34
446.58	400.23
446.77	348.74
446.95	390.87
447.14	383.85
447.32	386.19
447.51	416.62
447.69	409.59
447.88	372.15
448.06	425.98
448.25	372.15
448.43	430.66
448.62	407.25
448.80	390.87
448.99	428.32
449.17	386.19
449.36	334.70
449.54	409.59
449.73	411.93
449.91	430.66
450.10	428.32
450.28	475.13
450.46	414.27
450.65	486.83
450.83	435.34
451.02	418.96
451.20	393.21
451.39	379.17
451.57	484.49
451.76	414.27
451.94	393.21
452.13	388.53
452.31	388.53
452.49	456.40
452.68	386.19
452.86	348.74
453.05	407.25
453.23	463.43
453.42	428.32
453.60	442.36
453.78	454.06
453.97	393.21
454.15	353.42
454.34	367.46
454.52	330.02
454.70	475.13
454.89	470.45
455.07	393.21
455.26	456.40
455.44	477.47
455.62	418.96
455.81	456.40
455.99	425.98
456.17	404.91
456.36	393.21
456.54	444.70
456.73	411.93
456.91	393.21
457.09	418.96
457.28	416.62
457.46	381.51
457.64	430.66
457.83	435.34
458.01	423.64
458.19	440.02
458.38	435.34
458.56	395.55
458.74	365.12
458.93	451.72
459.11	411.93
459.29	463.43
459.48	435.34
459.66	402.57
459.84	360.44
460.03	543.00
460.21	421.30
460.39	372.15
460.57	444.70
460.76	440.02
460.94	365.12
461.12	500.87
461.31	435.34
461.49	472.79
461.67	404.91
461.85	409.59
462.04	430.66
462.22	788.76
462.40	418.96
462.59	451.72
462.77	451.72
462.95	465.77
463.13	435.34
463.32	418.96
463.50	535.98
463.68	416.62
463.86	386.19
464.05	365.12
464.23	437.68
464.41	435.34
464.59	400.23
464.78	456.40
464.96	428.32
465.14	339.38
465.32	388.53
465.50	442.36
465.69	435.34
465.87	400.23
466.05	430.66
466.23	414.27
466.41	351.08
466.60	395.55
466.78	320.65
466.96	423.64
467.14	458.74
467.32	465.77
467.51	465.77
467.69	404.91
467.87	400.23
468.05	449.38
468.23	458.74
468.41	475.13
468.60	437.68
468.78	386.19
468.96	454.06
469.14	381.51
469.32	360.44
469.50	351.08
469.69	390.87
469.87	355.76
470.05	402.57
470.23	397.89
470.41	390.87
470.59	362.78
470.77	477.47
470.95	428.32
471.14	388.53
471.32	416.62
471.50	372.15
471.68	386.19
471.86	458.74
472.04	351.08
472.22	348.74
472.40	395.55
472.58	411.93
472.77	381.51
472.95	379.17
473.13	451.72
473.31	430.66
473.49	376.83
473.67	365.12
473.85	475.13
474.03	447.04
474.21	447.04
474.39	437.68
474.57	383.85
474.75	442.36
474.93	393.21
475.12	416.62
475.30	360.44
475.48	430.66
475.66	409.59
475.84	447.04
476.02	489.17
476.20	465.77
476.38	388.53
476.56	463.43
476.74	383.85
476.92	379.17
477.10	442.36
477.28	447.04
477.46	374.49
477.64	383.85
477.82	407.25
478.00	444.70
478.18	433.00
478.36	395.55
478.54	404.91
478.72	376.83
478.90	447.04
479.08	430.66
479.26	365.12
479.44	477.47
479.62	454.06
479.80	409.59
479.98	397.89
480.16	372.15
480.34	454.06
480.52	414.27
480.70	416.62
480.88	414.27
481.06	470.45
481.24	376.83
481.41	425.98
481.59	411.93
481.77	454.06
481.95	383.85
482.13	477.47
482.31	409.59
482.49	400.23
482.67	440.02
482.85	444.70
483.03	442.36
483.21	463.43
483.39	437.68
483.57	433.00
483.74	428.32
483.92	400.23
484.10	381.51
484.28	433.00
484.46	468.11
484.64	313.63
484.82	367.46
485.00	358.10
485.18	395.55
485.35	388.53
485.53	454.06
485.71	444.70
485.89	393.21
486.07	351.08
486.25	449.38
486.43	447.04
486.61	381.51
486.78	355.76
486.96	449.38
487.14	444.70
487.32	418.96
487.50	421.30
487.68	397.89
487.85	393.21
488.03	395.55
488.21	435.34
488.39	397.89
488.57	449.38
488.75	425.98
488.92	456.40
489.10	330.02
489.28	409.59
489.46	454.06
489.64	348.74
489.81	425.98
489.99	397.89
490.17	414.27
490.35	451.72
490.53	397.89
490.70	397.89
490.88	454.06
491.06	400.23
491.24	486.83
491.41	418.96
491.59	440.02
491.77	409.59
491.95	463.43
492.13	416.62
492.30	355.76
492.48	423.64
492.66	425.98
492.84	416.62
493.01	388.53
493.19	367.46
493.37	449.38
493.54	414.27
493.72	428.32
493.90	414.27
494.08	376.83
494.25	449.38
494.43	411.93
494.61	468.11
494.79	348.74
494.96	395.55
495.14	437.68
495.32	393.21
495.49	388.53
495.67	400.23
495.85	407.25
496.02	339.38
496.20	454.06
496.38	409.59
496.55	428.32
496.73	470.45
496.91	369.80
497.09	482.15
497.26	407.25
497.44	440.02
497.62	428.32
497.79	458.74
497.97	374.49
498.14	430.66
498.32	393.21
498.50	486.83
498.67	428.32
498.85	414.27
499.03	369.80
499.20	421.30
499.38	355.76
499.56	449.38
499.73	484.49
499.91	454.06
500.08	470.45
500.26	421.30
500.44	454.06
500.61	351.08
500.79	440.02
500.97	397.89
501.14	404.91
501.32	414.27
501.49	454.06
501.67	479.81
501.84	447.04
502.02	397.89
502.20	447.04
502.37	461.09
502.55	409.59
502.72	472.79
502.90	435.34
503.07	397.89
503.25	388.53
503.43	353.42
503.60	442.36
503.78	437.68
503.95	468.11
504.13	334.70
504.30	376.83
504.48	449.38
504.65	418.96
504.83	463.43
505.01	442.36
505.18	390.87
505.36	428.32
505.53	381.51
505.71	484.49
505.88	411.93
506.06	367.46
506.23	407.25
506.41	390.87
506.58	374.49
506.76	409.59
506.93	428.32
507.11	442.36
507.28	421.30
507.46	451.72
507.63	400.23
507.81	486.83
507.98	454.06
508.16	437.68
508.33	475.13
508.50	451.72
508.68	496.19
508.85	365.12
509.03	393.21
509.20	414.27
509.38	447.04
509.55	395.55
509.73	451.72
509.90	411.93
510.08	470.45
510.25	468.11
510.42	433.00
510.60	430.66
510.77	355.76
510.95	409.59
511.12	358.10
511.30	409.59
511.47	388.53
511.64	498.53
511.82	390.87
511.99	379.17
512.17	388.53
512.34	433.00
512.51	374.49
512.69	397.89
512.86	402.57
513.04	423.64
513.21	409.59
513.38	327.68
513.56	376.83
513.73	353.42
513.90	407.25
514.08	358.10
514.25	496.19
514.43	437.68
514.60	320.65
514.77	414.27
514.95	498.53
515.12	337.04
515.29	442.36
515.47	477.47
515.64	383.85
515.81	362.78
515.99	491.51
516.16	430.66
516.33	430.66
516.51	421.30
516.68	484.49
516.85	348.74
517.03	458.74
517.20	411.93
517.37	362.78
517.54	386.19
517.72	423.64
517.89	383.85
518.06	428.32
518.24	456.40
518.41	430.66
518.58	425.98
518.75	472.79
518.93	416.62
519.10	425.98
519.27	461.09
519.45	435.34
519.62	390.87
519.79	351.08
519.96	341.72
520.14	404.91
520.31	425.98
520.48	440.02
520.65	388.53
520.83	416.62
521.00	425.98
521.17	418.96
521.34	397.89
521.52	400.23
521.69	390.87
521.86	418.96
522.03	461.09
522.20	435.34
522.38	468.11
522.55	404.91
522.72	404.91
522.89	442.36
523.07	421.30
523.24	374.49
523.41	390.87
523.58	416.62
523.75	407.25
523.92	379.17
524.10	437.68
524.27	428.32
524.44	411.93
524.61	470.45
524.78	365.12
524.96	470.45
525.13	393.21
525.30	442.36
525.47	402.57
525.64	414.27
525.81	379.17
525.98	360.44
526.16	407.25
526.33	437.68
526.50	465.77
526.67	440.02
526.84	381.51
527.01	449.38
527.18	465.77
527.36	418.96
527.53	411.93
527.70	440.02
527.87	355.76
528.04	510.24
528.21	421.30
528.38	442.36
528.55	402.57
528.72	395.55
528.89	470.45
529.07	428.32
529.24	423.64
529.41	491.51
529.58	430.66
529.75	365.12
529.92	468.11
530.09	451.72
530.26	376.83
530.43	390.87
530.60	409.59
530.77	454.06
530.94	416.62
531.11	414.27
531.28	411.93
531.46	355.76
531.63	433.00
531.80	402.57
531.97	440.02
532.14	409.59
532.31	433.00
532.48	437.68
532.65	423.64
532.82	383.85
532.99	397.89
533.16	423.64
533.33	418.96
533.50	416.62
533.67	435.34
533.84	444.70
534.01	461.09
534.18	475.13
534.35	477.47
534.52	428.32
534.69	447.04
534.86	402.57
535.03	461.09
535.20	428.32
535.37	367.46
535.54	400.23
535.71	400.23
535.88	479.81
536.05	442.36
536.22	435.34
536.38	414.27
536.55	411.93
536.72	447.04
536.89	451.72
537.06	430.66
537.23	395.55
537.40	449.38
537.57	341.72
537.74	444.70
537.91	447.04
538.08	472.79
538.25	376.83
538.42	456.40
538.59	404.91
538.75	465.77
538.92	514.92
539.09	421.30
539.26	411.93
539.43	461.09
539.60	423.64
539.77	442.36
539.94	386.19
540.11	425.98
540.28	456.40
540.44	428.32
540.61	379.17
540.78	407.25
540.95	367.46
541.12	468.11
541.29	447.04
541.46	454.06
541.62	454.06
541.79	397.89
541.96	395.55
542.13	390.87
542.30	484.49
542.47	437.68
542.63	423.64
542.80	400.23
542.97	437.68
543.14	388.53
543.31	444.70
543.48	400.23
543.64	461.09
543.81	402.57
543.98	397.89
544.15	393.21
544.32	395.55
544.48	395.55
544.65	468.11
544.82	390.87
544.99	404.91
545.16	407.25
545.32	379.17
545.49	407.25
545.66	472.79
545.83	421.30
546.00	374.49
546.16	463.43
546.33	381.51
546.50	437.68
546.67	437.68
546.83	444.70
547.00	395.55
547.17	447.04
547.34	442.36
547.50	437.68
547.67	367.46
547.84	355.76
548.00	503.22
548.17	440.02
548.34	374.49
548.51	433.00
548.67	390.87
548.84	430.66
549.01	400.23
549.18	493.85
549.34	433.00
549.51	425.98
549.68	400.23
549.84	379.17
550.01	414.27
550.18	437.68
550.34	444.70
550.51	463.43
550.68	514.92
550.84	423.64
551.01	369.80
551.18	472.79
551.34	449.38
551.51	472.79
551.68	416.62
551.84	400.23
552.01	376.83
552.18	383.85
552.34	482.15
552.51	435.34
552.68	479.81
552.84	421.30
553.01	437.68
553.18	498.53
553.34	355.76
553.51	355.76
553.67	458.74
553.84	440.02
554.01	477.47
554.17	479.81
554.34	402.57
554.51	383.85
554.67	463.43
554.84	423.64
555.00	421.30
555.17	437.68
555.33	477.47
555.50	365.12
555.67	470.45
555.83	423.64
556.00	435.34
556.16	543.00
556.33	402.57
556.50	421.30
556.66	475.13
556.83	468.11
556.99	353.42
557.16	435.34
557.32	393.21
557.49	404.91
557.65	465.77
557.82	416.62
557.98	444.70
558.15	411.93
558.32	418.96
558.48	358.10
558.65	456.40
558.81	341.72
558.98	376.83
559.14	355.76
559.31	465.77
559.47	383.85
559.64	360.44
559.80	400.23
559.97	414.27
560.13	374.49
560.30	393.21
560.46	428.32
560.63	425.98
560.79	428.32
560.96	383.85
561.12	395.55
561.29	475.13
561.45	388.53
561.61	430.66
561.78	486.83
561.94	411.93
562.11	414.27
562.27	425.98
562.44	428.32
562.60	414.27
562.77	428.32
562.93	461.09
563.10	386.19
563.26	433.00
563.42	423.64
563.59	491.51
563.75	372.15
563.92	365.12
564.08	461.09
564.24	409.59
564.41	461.09
564.57	390.87
564.74	397.89
564.90	444.70
565.07	388.53
565.23	428.32
565.39	400.23
565.56	456.40
565.72	423.64
565.88	512.58
566.05	433.00
566.21	409.59
566.38	449.38
566.54	407.25
566.70	397.89
566.87	365.12
567.03	411.93
567.19	397.89
567.36	440.02
567.52	362.78
567.68	334.70
567.85	409.59
568.01	348.74
568.17	383.85
568.34	444.70
568.50	374.49
568.66	348.74
568.83	468.11
568.99	447.04
569.15	416.62
569.32	463.43
569.48	402.57
569.64	484.49
569.81	383.85
569.97	395.55
570.13	482.15
570.30	416.62
570.46	472.79
570.62	433.00
570.78	437.68
570.95	451.72
571.11	470.45
571.27	390.87
571.43	463.43
571.60	418.96
571.76	458.74
571.92	430.66
572.09	421.30
572.25	451.72
572.41	383.85
572.57	451.72
572.74	444.70
572.90	484.49
573.06	348.74
573.22	440.02
573.38	440.02
573.55	479.81
573.71	430.66
573.87	409.59
574.03	360.44
574.20	425.98
574.36	421.30
574.52	311.29
574.68	393.21
574.84	360.44
575.01	430.66
575.17	397.89
575.33	393.21
575.49	458.74
575.65	472.79
575.82	456.40
575.98	482.15
576.14	416.62
576.30	367.46
576.46	411.93
576.62	404.91
576.79	423.64
576.95	409.59
577.11	447.04
577.27	395.55
577.43	461.09
577.59	423.64
577.75	449.38
577.92	428.32
578.08	442.36
578.24	383.85
578.40	383.85
578.56	416.62
578.72	435.34
578.88	402.57
579.04	430.66
579.21	390.87
579.37	402.57
579.53	411.93
579.69	465.77
579.85	372.15
580.01	393.21
580.17	435.34
580.33	397.89
580.49	425.98
580.65	386.19
580.82	411.93
580.98	353.42
581.14	414.27
581.30	395.55
581.46	388.53
581.62	491.51
581.78	409.59
581.94	351.08
582.10	428.32
582.26	433.00
582.42	442.36
582.58	442.36
582.74	479.81
582.90	430.66
583.06	442.36
583.22	430.66
583.38	416.62
583.54	454.06
583.70	414.27
583.86	388.53
584.02	475.13
584.18	440.02
584.34	440.02
584.50	339.38
584.66	379.17
584.82	362.78
584.98	418.96
585.14	407.25
585.30	486.83
585.46	374.49
585.62	374.49
585.78	358.10
585.94	411.93
586.10	379.17
586.26	414.27
586.42	360.44
586.58	470.45
586.74	458.74
586.90	393.21
587.06	461.09
587.22	407.25
587.38	440.02
587.54	358.10
587.70	418.96
587.86	451.72
588.02	423.64
588.18	428.32
588.34	418.96
588.49	400.23
588.65	423.64
588.81	430.66
588.97	372.15
589.13	402.57
589.29	395.55
589.45	409.59
589.61	407.25
589.77	402.57
589.93	355.76
590.08	444.70
590.24	437.68
590.40	458.74
590.56	458.74
590.72	409.59
590.88	423.64
591.04	404.91
591.20	362.78
591.35	393.21
591.51	428.32
591.67	404.91
591.83	472.79
591.99	458.74
592.15	519.60
592.31	433.00
592.46	442.36
592.62	461.09
592.78	346.40
592.94	433.00
593.10	367.46
593.26	421.30
593.41	435.34
593.57	397.89
593.73	411.93
593.89	395.55
594.05	374.49
594.20	416.62
594.36	496.19
594.52	435.34
594.68	435.34
594.84	468.11
594.99	484.49
595.15	400.23
595.31	428.32
595.47	442.36
595.62	404.91
595.78	472.79
595.94	418.96
596.10	463.43
596.25	425.98
596.41	400.23
596.57	433.00
596.73	351.08
596.88	402.57
597.04	430.66
597.20	348.74
597.36	491.51
597.51	409.59
597.67	479.81
597.83	416.62
597.99	430.66
598.14	416.62
598.30	381.51
598.46	390.87
598.61	404.91
598.77	416.62
598.93	465.77
599.09	369.80
599.24	449.38
599.40	468.11
599.56	444.70
599.71	379.17
599.87	355.76
600.03	376.83
600.18	386.19
600.34	430.66
600.50	418.96
600.65	362.78
600.81	407.25
600.97	463.43
601.12	339.38
601.28	423.64
601.44	437.68
601.59	435.34
601.75	407.25
601.91	400.23
602.06	365.12
602.22	493.85
602.37	440.02
602.53	428.32
602.69	484.49
602.84	430.66
603.00	383.85
603.16	355.76
603.31	337.04
603.47	386.19
603.62	376.83
603.78	369.80
603.94	435.34
604.09	418.96
604.25	425.98
604.40	421.30
604.56	430.66
604.71	374.49
604.87	447.04
605.03	414.27
605.18	374.49
605.34	418.96
605.49	400.23
605.65	456.40
605.80	430.66
605.96	362.78
606.12	411.93
606.27	491.51
606.43	489.17
606.58	428.32
606.74	414.27
606.89	404.91
607.05	407.25
607.20	465.77
607.36	454.06
607.51	402.57
607.67	353.42
607.82	463.43
607.98	348.74
608.13	355.76
608.29	463.43
608.44	416.62
608.60	358.10
608.75	369.80
608.91	386.19
609.06	484.49
609.22	512.58
609.37	425.98
609.53	442.36
609.68	463.43
609.84	397.89
609.99	428.32
610.15	400.23
