SpectraSuite Data File
++++++++++++++++++++++++++++++++++++
Date: Fri Oct 25 12:10:12 EDT 2013
User: price-jones
Dark Spectrum Present: No
Reference Spectrum Present: No
Number of Sampled Component Spectra: 1
Spectrometers: USB2+H05261
Integration Time (usec): 100000 (USB2+H05261)
Spectra Averaged: 1 (USB2+H05261)
Boxcar Smoothing: 0 (USB2+H05261)
Correct for Electrical Dark: No (USB2+H05261)
Strobe/Lamp Enabled: No (USB2+H05261)
Correct for Detector Non-linearity: No (USB2+H05261)
Correct for Stray Light: No (USB2+H05261)
Number of Pixels in Processed Spectrum: 2048
>>>>>Begin Processed Spectral Data<<<<<
365.73	348.74
365.92	348.74
366.12	348.74
366.32	259.80
366.52	287.89
366.72	271.50
366.91	250.44
367.11	227.03
367.31	245.76
367.51	238.73
367.70	222.35
367.90	215.33
368.10	201.29
368.30	194.26
368.49	182.56
368.69	224.69
368.89	341.72
369.09	222.35
369.28	290.23
369.48	210.65
369.68	257.46
369.87	287.89
370.07	318.31
370.27	358.10
370.47	383.85
370.66	245.76
370.86	278.52
371.06	390.87
371.25	437.68
371.45	397.89
371.65	407.25
371.84	407.25
372.04	395.55
372.24	411.93
372.44	404.91
372.63	334.70
372.83	411.93
373.03	348.74
373.22	376.83
373.42	411.93
373.62	388.53
373.81	397.89
374.01	440.02
374.21	468.11
374.40	423.64
374.60	449.38
374.79	409.59
374.99	470.45
375.19	447.04
375.38	365.12
375.58	411.93
375.78	402.57
375.97	430.66
376.17	433.00
376.37	411.93
376.56	447.04
376.76	393.21
376.95	397.89
377.15	463.43
377.35	393.21
377.54	369.80
377.74	416.62
377.93	458.74
378.13	418.96
378.33	428.32
378.52	388.53
378.72	411.93
378.91	421.30
379.11	369.80
379.31	390.87
379.50	339.38
379.70	414.27
379.89	449.38
380.09	383.85
380.28	374.49
380.48	416.62
380.68	414.27
380.87	418.96
381.07	463.43
381.26	381.51
381.46	351.08
381.65	369.80
381.85	360.44
382.04	395.55
382.24	400.23
382.43	360.44
382.63	489.17
382.83	465.77
383.02	376.83
383.22	404.91
383.41	381.51
383.61	372.15
383.80	449.38
384.00	379.17
384.19	447.04
384.39	416.62
384.58	374.49
384.78	372.15
384.97	411.93
385.17	421.30
385.36	306.61
385.56	416.62
385.75	320.65
385.95	479.81
386.14	409.59
386.34	376.83
386.53	383.85
386.72	346.40
386.92	444.70
387.11	411.93
387.31	407.25
387.50	397.89
387.70	397.89
387.89	407.25
388.09	440.02
388.28	383.85
388.48	362.78
388.67	437.68
388.86	355.76
389.06	433.00
389.25	425.98
389.45	437.68
389.64	397.89
389.84	376.83
390.03	402.57
390.22	383.85
390.42	442.36
390.61	383.85
390.81	362.78
391.00	428.32
391.19	411.93
391.39	407.25
391.58	418.96
391.78	334.70
391.97	461.09
392.16	440.02
392.36	447.04
392.55	386.19
392.75	444.70
392.94	418.96
393.13	444.70
393.33	404.91
393.52	465.77
393.71	430.66
393.91	400.23
394.10	472.79
394.29	402.57
394.49	444.70
394.68	437.68
394.88	421.30
395.07	369.80
395.26	393.21
395.46	311.29
395.65	430.66
395.84	442.36
396.04	489.17
396.23	442.36
396.42	433.00
396.62	416.62
396.81	418.96
397.00	442.36
397.19	418.96
397.39	397.89
397.58	379.17
397.77	283.20
397.97	425.98
398.16	372.15
398.35	409.59
398.55	400.23
398.74	393.21
398.93	381.51
399.12	444.70
399.32	416.62
399.51	369.80
399.70	383.85
399.90	416.62
400.09	381.51
400.28	409.59
400.47	355.76
400.67	365.12
400.86	381.51
401.05	379.17
401.24	470.45
401.44	491.51
401.63	409.59
401.82	383.85
402.01	463.43
402.21	393.21
402.40	397.89
402.59	463.43
402.78	362.78
402.97	449.38
403.17	407.25
403.36	430.66
403.55	379.17
403.74	414.27
403.93	381.51
404.13	346.40
404.32	395.55
404.51	411.93
404.70	407.25
404.89	425.98
405.09	393.21
405.28	407.25
405.47	444.70
405.66	397.89
405.85	430.66
406.05	383.85
406.24	447.04
406.43	386.19
406.62	383.85
406.81	367.46
407.00	472.79
407.20	428.32
407.39	376.83
407.58	404.91
407.77	365.12
407.96	489.17
408.15	367.46
408.34	393.21
408.54	463.43
408.73	423.64
408.92	372.15
409.11	461.09
409.30	425.98
409.49	411.93
409.68	416.62
409.87	430.66
410.07	311.29
410.26	397.89
410.45	402.57
410.64	386.19
410.83	379.17
411.02	409.59
411.21	407.25
411.40	411.93
411.59	449.38
411.78	397.89
411.98	409.59
412.17	379.17
412.36	433.00
412.55	477.47
412.74	465.77
412.93	404.91
413.12	430.66
413.31	449.38
413.50	402.57
413.69	341.72
413.88	484.49
414.07	404.91
414.26	379.17
414.45	395.55
414.64	407.25
414.83	404.91
415.02	486.83
415.22	479.81
415.41	421.30
415.60	437.68
415.79	400.23
415.98	463.43
416.17	414.27
416.36	395.55
416.55	407.25
416.74	482.15
416.93	449.38
417.12	430.66
417.31	425.98
417.50	318.31
417.69	414.27
417.88	407.25
418.07	372.15
418.26	376.83
418.45	355.76
418.64	437.68
418.83	444.70
419.02	428.32
419.21	372.15
419.39	355.76
419.58	411.93
419.77	358.10
419.96	402.57
420.15	388.53
420.34	418.96
420.53	442.36
420.72	372.15
420.91	430.66
421.10	447.04
421.29	442.36
421.48	407.25
421.67	425.98
421.86	430.66
422.05	451.72
422.24	470.45
422.43	437.68
422.61	393.21
422.80	428.32
422.99	383.85
423.18	397.89
423.37	458.74
423.56	451.72
423.75	425.98
423.94	390.87
424.13	486.83
424.32	369.80
424.50	402.57
424.69	449.38
424.88	475.13
425.07	390.87
425.26	435.34
425.45	416.62
425.64	435.34
425.83	423.64
426.01	404.91
426.20	411.93
426.39	388.53
426.58	461.09
426.77	418.96
426.96	351.08
427.15	433.00
427.33	395.55
427.52	367.46
427.71	320.65
427.90	418.96
428.09	440.02
428.28	372.15
428.46	400.23
428.65	402.57
428.84	416.62
429.03	442.36
429.22	390.87
429.40	388.53
429.59	449.38
429.78	433.00
429.97	395.55
430.16	454.06
430.34	430.66
430.53	402.57
430.72	358.10
430.91	362.78
431.10	524.28
431.28	379.17
431.47	383.85
431.66	463.43
431.85	388.53
432.03	400.23
432.22	454.06
432.41	440.02
432.60	404.91
432.79	390.87
432.97	428.32
433.16	409.59
433.35	390.87
433.54	418.96
433.72	414.27
433.91	447.04
434.10	449.38
434.28	435.34
434.47	388.53
434.66	451.72
434.85	440.02
435.03	360.44
435.22	444.70
435.41	435.34
435.59	461.09
435.78	390.87
435.97	383.85
436.16	454.06
436.34	400.23
436.53	376.83
436.72	369.80
436.90	444.70
437.09	418.96
437.28	397.89
437.46	299.59
437.65	358.10
437.84	395.55
438.02	416.62
438.21	393.21
438.40	409.59
438.58	390.87
438.77	369.80
438.96	376.83
439.14	418.96
439.33	442.36
439.52	402.57
439.70	463.43
439.89	505.56
440.08	435.34
440.26	402.57
440.45	388.53
440.63	376.83
440.82	388.53
441.01	390.87
441.19	390.87
441.38	390.87
441.57	341.72
441.75	489.17
441.94	454.06
442.12	404.91
442.31	428.32
442.50	421.30
442.68	418.96
442.87	451.72
443.05	447.04
443.24	421.30
443.43	423.64
443.61	409.59
443.80	437.68
443.98	423.64
444.17	404.91
444.35	468.11
444.54	442.36
444.73	369.80
444.91	470.45
445.10	444.70
445.28	418.96
445.47	407.25
445.65	397.89
445.84	376.83
446.02	397.89
446.21	414.27
446.39	430.66
446.58	404.91
446.77	390.87
446.95	374.49
447.14	400.23
447.32	456.40
447.51	374.49
447.69	379.17
447.88	376.83
448.06	346.40
448.25	435.34
448.43	285.55
448.62	339.38
448.80	414.27
448.99	404.91
449.17	425.98
449.36	386.19
449.54	433.00
449.73	376.83
449.91	437.68
450.10	386.19
450.28	404.91
450.46	475.13
450.65	458.74
450.83	456.40
451.02	388.53
451.20	430.66
451.39	367.46
451.57	433.00
451.76	322.99
451.94	433.00
452.13	374.49
452.31	402.57
452.49	372.15
452.68	367.46
452.86	437.68
453.05	498.53
453.23	440.02
453.42	383.85
453.60	411.93
453.78	386.19
453.97	369.80
454.15	372.15
454.34	379.17
454.52	367.46
454.70	440.02
454.89	421.30
455.07	372.15
455.26	290.23
455.44	493.85
455.62	428.32
455.81	355.76
455.99	423.64
456.17	421.30
456.36	423.64
456.54	379.17
456.73	372.15
456.91	337.04
457.09	404.91
457.28	423.64
457.46	388.53
457.64	388.53
457.83	442.36
458.01	449.38
458.19	463.43
458.38	454.06
458.56	435.34
458.74	463.43
458.93	393.21
459.11	425.98
459.29	456.40
459.48	521.94
459.66	421.30
459.84	388.53
460.03	458.74
460.21	503.22
460.39	496.19
460.57	472.79
460.76	482.15
460.94	386.19
461.12	395.55
461.31	430.66
461.49	430.66
461.67	395.55
461.85	484.49
462.04	411.93
462.22	770.04
462.40	418.96
462.59	414.27
462.77	421.30
462.95	411.93
463.13	437.68
463.32	393.21
463.50	360.44
463.68	411.93
463.86	418.96
464.05	397.89
464.23	465.77
464.41	416.62
464.59	428.32
464.78	337.04
464.96	418.96
465.14	451.72
465.32	376.83
465.50	491.51
465.69	484.49
465.87	435.34
466.05	430.66
466.23	397.89
466.41	414.27
466.60	425.98
466.78	337.04
466.96	388.53
467.14	414.27
467.32	411.93
467.51	451.72
467.69	465.77
467.87	425.98
468.05	433.00
468.23	458.74
468.41	449.38
468.60	433.00
468.78	365.12
468.96	409.59
469.14	437.68
469.32	381.51
469.50	383.85
469.69	550.03
469.87	503.22
470.05	458.74
470.23	386.19
470.41	360.44
470.59	428.32
470.77	454.06
470.95	374.49
471.14	400.23
471.32	421.30
471.50	433.00
471.68	360.44
471.86	386.19
472.04	449.38
472.22	397.89
472.40	381.51
472.58	362.78
472.77	367.46
472.95	425.98
473.13	430.66
473.31	418.96
473.49	409.59
473.67	433.00
473.85	461.09
474.03	353.42
474.21	379.17
474.39	428.32
474.57	470.45
474.75	409.59
474.93	367.46
475.12	397.89
475.30	397.89
475.48	414.27
475.66	381.51
475.84	381.51
476.02	404.91
476.20	351.08
476.38	383.85
476.56	430.66
476.74	376.83
476.92	379.17
477.10	451.72
477.28	372.15
477.46	409.59
477.64	458.74
477.82	451.72
478.00	416.62
478.18	400.23
478.36	416.62
478.54	421.30
478.72	402.57
478.90	500.87
479.08	428.32
479.26	425.98
479.44	386.19
479.62	383.85
479.80	463.43
479.98	381.51
480.16	369.80
480.34	444.70
480.52	400.23
480.70	433.00
480.88	390.87
481.06	425.98
481.24	372.15
481.41	421.30
481.59	402.57
481.77	339.38
481.95	367.46
482.13	435.34
482.31	376.83
482.49	395.55
482.67	421.30
482.85	440.02
483.03	435.34
483.21	397.89
483.39	381.51
483.57	433.00
483.74	402.57
483.92	451.72
484.10	374.49
484.28	430.66
484.46	491.51
484.64	400.23
484.82	409.59
485.00	376.83
485.18	470.45
485.35	407.25
485.53	440.02
485.71	402.57
485.89	355.76
486.07	447.04
486.25	440.02
486.43	395.55
486.61	388.53
486.78	423.64
486.96	360.44
487.14	451.72
487.32	454.06
487.50	517.26
487.68	416.62
487.85	376.83
488.03	414.27
488.21	365.12
488.39	409.59
488.57	472.79
488.75	442.36
488.92	465.77
489.10	421.30
489.28	444.70
489.46	365.12
489.64	404.91
489.81	440.02
489.99	444.70
490.17	390.87
490.35	458.74
490.53	454.06
490.70	444.70
490.88	395.55
491.06	435.34
491.24	376.83
491.41	379.17
491.59	402.57
491.77	351.08
491.95	386.19
492.13	423.64
492.30	407.25
492.48	355.76
492.66	393.21
492.84	440.02
493.01	411.93
493.19	388.53
493.37	496.19
493.54	507.90
493.72	461.09
493.90	400.23
494.08	393.21
494.25	379.17
494.43	428.32
494.61	362.78
494.79	381.51
494.96	409.59
495.14	381.51
495.32	409.59
495.49	425.98
495.67	428.32
495.85	435.34
496.02	372.15
496.20	407.25
496.38	402.57
496.55	475.13
496.73	390.87
496.91	428.32
497.09	381.51
497.26	442.36
497.44	444.70
497.62	428.32
497.79	465.77
497.97	383.85
498.14	404.91
498.32	376.83
498.50	344.06
498.67	440.02
498.85	442.36
499.03	390.87
499.20	454.06
499.38	369.80
499.56	440.02
499.73	444.70
499.91	428.32
500.08	411.93
500.26	388.53
500.44	435.34
500.61	386.19
500.79	353.42
500.97	386.19
501.14	393.21
501.32	404.91
501.49	456.40
501.67	395.55
501.84	397.89
502.02	397.89
502.20	493.85
502.37	428.32
502.55	435.34
502.72	428.32
502.90	463.43
503.07	395.55
503.25	491.51
503.43	395.55
503.60	414.27
503.78	369.80
503.95	418.96
504.13	435.34
504.30	395.55
504.48	423.64
504.65	470.45
504.83	435.34
505.01	411.93
505.18	447.04
505.36	395.55
505.53	447.04
505.71	465.77
505.88	379.17
506.06	451.72
506.23	367.46
506.41	425.98
506.58	402.57
506.76	458.74
506.93	397.89
507.11	465.77
507.28	407.25
507.46	411.93
507.63	423.64
507.81	414.27
507.98	400.23
508.16	348.74
508.33	369.80
508.50	362.78
508.68	409.59
508.85	430.66
509.03	369.80
509.20	430.66
509.38	421.30
509.55	414.27
509.73	437.68
509.90	447.04
510.08	365.12
510.25	444.70
510.42	411.93
510.60	374.49
510.77	433.00
510.95	472.79
511.12	390.87
511.30	388.53
511.47	425.98
511.64	442.36
511.82	367.46
511.99	440.02
512.17	418.96
512.34	423.64
512.51	402.57
512.69	421.30
512.86	440.02
513.04	304.27
513.21	451.72
513.38	472.79
513.56	425.98
513.73	479.81
513.90	393.21
514.08	416.62
514.25	447.04
514.43	395.55
514.60	451.72
514.77	461.09
514.95	355.76
515.12	444.70
515.29	362.78
515.47	404.91
515.64	411.93
515.81	425.98
515.99	449.38
516.16	386.19
516.33	528.96
516.51	428.32
516.68	423.64
516.85	423.64
517.03	365.12
517.20	454.06
517.37	498.53
517.54	433.00
517.72	435.34
517.89	339.38
518.06	379.17
518.24	442.36
518.41	465.77
518.58	430.66
518.75	381.51
518.93	505.56
519.10	411.93
519.27	444.70
519.45	472.79
519.62	468.11
519.79	365.12
519.96	437.68
520.14	362.78
520.31	430.66
520.48	435.34
520.65	346.40
520.83	423.64
521.00	442.36
521.17	414.27
521.34	388.53
521.52	376.83
521.69	381.51
521.86	283.20
522.03	500.87
522.20	409.59
522.38	355.76
522.55	416.62
522.72	379.17
522.89	416.62
523.07	486.83
523.24	348.74
523.41	397.89
523.58	367.46
523.75	425.98
523.92	454.06
524.10	444.70
524.27	388.53
524.44	404.91
524.61	456.40
524.78	416.62
524.96	395.55
525.13	416.62
525.30	404.91
525.47	444.70
525.64	470.45
525.81	358.10
525.98	393.21
526.16	409.59
526.33	423.64
526.50	411.93
526.67	313.63
526.84	348.74
527.01	421.30
527.18	365.12
527.36	383.85
527.53	337.04
527.70	395.55
527.87	430.66
528.04	475.13
528.21	437.68
528.38	376.83
528.55	435.34
528.72	493.85
528.89	402.57
529.07	470.45
529.24	458.74
529.41	411.93
529.58	416.62
529.75	400.23
529.92	444.70
530.09	451.72
530.26	428.32
530.43	416.62
530.60	423.64
530.77	397.89
530.94	404.91
531.11	383.85
531.28	397.89
531.46	482.15
531.63	381.51
531.80	454.06
531.97	395.55
532.14	353.42
532.31	433.00
532.48	519.60
532.65	423.64
532.82	358.10
532.99	388.53
533.16	418.96
533.33	451.72
533.50	407.25
533.67	353.42
533.84	468.11
534.01	353.42
534.18	465.77
534.35	388.53
534.52	449.38
534.69	433.00
534.86	402.57
535.03	358.10
535.20	374.49
535.37	400.23
535.54	369.80
535.71	456.40
535.88	484.49
536.05	390.87
536.22	475.13
536.38	379.17
536.55	519.60
536.72	402.57
536.89	404.91
537.06	449.38
537.23	435.34
537.40	423.64
537.57	358.10
537.74	458.74
537.91	449.38
538.08	465.77
538.25	423.64
538.42	440.02
538.59	423.64
538.75	376.83
538.92	390.87
539.09	393.21
539.26	393.21
539.43	386.19
539.60	414.27
539.77	395.55
539.94	435.34
540.11	395.55
540.28	451.72
540.44	428.32
540.61	409.59
540.78	358.10
540.95	449.38
541.12	425.98
541.29	493.85
541.46	330.02
541.62	428.32
541.79	383.85
541.96	397.89
542.13	379.17
542.30	430.66
542.47	433.00
542.63	433.00
542.80	339.38
542.97	456.40
543.14	402.57
543.31	433.00
543.48	475.13
543.64	456.40
543.81	397.89
543.98	449.38
544.15	456.40
544.32	390.87
544.48	428.32
544.65	379.17
544.82	369.80
544.99	472.79
545.16	442.36
545.32	444.70
545.49	435.34
545.66	416.62
545.83	451.72
546.00	428.32
546.16	423.64
546.33	433.00
546.50	484.49
546.67	423.64
546.83	421.30
547.00	400.23
547.17	337.04
547.34	402.57
547.50	454.06
547.67	411.93
547.84	428.32
548.00	463.43
548.17	454.06
548.34	353.42
548.51	465.77
548.67	447.04
548.84	388.53
549.01	400.23
549.18	402.57
549.34	418.96
549.51	416.62
549.68	404.91
549.84	393.21
550.01	442.36
550.18	402.57
550.34	557.05
550.51	411.93
550.68	514.92
550.84	440.02
551.01	444.70
551.18	327.68
551.34	444.70
551.51	442.36
551.68	433.00
551.84	388.53
552.01	351.08
552.18	423.64
552.34	479.81
552.51	379.17
552.68	461.09
552.84	409.59
553.01	362.78
553.18	395.55
553.34	390.87
553.51	372.15
553.67	372.15
553.84	360.44
554.01	416.62
554.17	470.45
554.34	425.98
554.51	369.80
554.67	430.66
554.84	475.13
555.00	400.23
555.17	353.42
555.33	395.55
555.50	407.25
555.67	475.13
555.83	435.34
556.00	500.87
556.16	449.38
556.33	493.85
556.50	360.44
556.66	437.68
556.83	358.10
556.99	376.83
557.16	465.77
557.32	397.89
557.49	393.21
557.65	447.04
557.82	463.43
557.98	393.21
558.15	409.59
558.32	428.32
558.48	397.89
558.65	475.13
558.81	454.06
558.98	372.15
559.14	344.06
559.31	344.06
559.47	346.40
559.64	442.36
559.80	491.51
559.97	468.11
560.13	435.34
560.30	372.15
560.46	416.62
560.63	416.62
560.79	376.83
560.96	456.40
561.12	428.32
561.29	468.11
561.45	451.72
561.61	344.06
561.78	447.04
561.94	444.70
562.11	470.45
562.27	374.49
562.44	409.59
562.60	411.93
562.77	388.53
562.93	512.58
563.10	512.58
563.26	383.85
563.42	472.79
563.59	430.66
563.75	390.87
563.92	477.47
564.08	425.98
564.24	442.36
564.41	409.59
564.57	433.00
564.74	400.23
564.90	383.85
565.07	402.57
565.23	400.23
565.39	479.81
565.56	421.30
565.72	447.04
565.88	395.55
566.05	414.27
566.21	430.66
566.38	416.62
566.54	383.85
566.70	339.38
566.87	388.53
567.03	411.93
567.19	365.12
567.36	416.62
567.52	447.04
567.68	425.98
567.85	428.32
568.01	472.79
568.17	355.76
568.34	388.53
568.50	456.40
568.66	435.34
568.83	449.38
568.99	402.57
569.15	477.47
569.32	400.23
569.48	397.89
569.64	416.62
569.81	433.00
569.97	341.72
570.13	435.34
570.30	367.46
570.46	383.85
570.62	374.49
570.78	440.02
570.95	318.31
571.11	512.58
571.27	397.89
571.43	367.46
571.60	428.32
571.76	447.04
571.92	386.19
572.09	297.25
572.25	440.02
572.41	337.04
572.57	381.51
572.74	430.66
572.90	475.13
573.06	414.27
573.22	411.93
573.38	388.53
573.55	334.70
573.71	376.83
573.87	416.62
574.03	444.70
574.20	423.64
574.36	451.72
574.52	393.21
574.68	468.11
574.84	447.04
575.01	407.25
575.17	411.93
575.33	447.04
575.49	479.81
575.65	463.43
575.82	437.68
575.98	348.74
576.14	449.38
576.30	395.55
576.46	376.83
576.62	430.66
576.79	334.70
576.95	418.96
577.11	397.89
577.27	367.46
577.43	444.70
577.59	479.81
577.75	418.96
577.92	484.49
578.08	414.27
578.24	498.53
578.40	400.23
578.56	397.89
578.72	435.34
578.88	468.11
579.04	390.87
579.21	430.66
579.37	421.30
579.53	400.23
579.69	491.51
579.85	397.89
580.01	421.30
580.17	397.89
580.33	505.56
580.49	425.98
580.65	428.32
580.82	433.00
580.98	369.80
581.14	437.68
581.30	479.81
581.46	472.79
581.62	367.46
581.78	423.64
581.94	409.59
582.10	440.02
582.26	472.79
582.42	423.64
582.58	386.19
582.74	428.32
582.90	339.38
583.06	493.85
583.22	472.79
583.38	313.63
583.54	402.57
583.70	435.34
583.86	400.23
584.02	402.57
584.18	449.38
584.34	425.98
584.50	440.02
584.66	437.68
584.82	353.42
584.98	444.70
585.14	416.62
585.30	411.93
585.46	454.06
585.62	421.30
585.78	433.00
585.94	449.38
586.10	425.98
586.26	442.36
586.42	458.74
586.58	395.55
586.74	428.32
586.90	470.45
587.06	423.64
587.22	402.57
587.38	346.40
587.54	407.25
587.70	425.98
587.86	416.62
588.02	458.74
588.18	404.91
588.34	395.55
588.49	416.62
588.65	444.70
588.81	423.64
588.97	386.19
589.13	428.32
589.29	411.93
589.45	496.19
589.61	390.87
589.77	437.68
589.93	325.33
590.08	475.13
590.24	372.15
590.40	444.70
590.56	414.27
590.72	402.57
590.88	425.98
591.04	390.87
591.20	437.68
591.35	449.38
591.51	430.66
591.67	344.06
591.83	416.62
591.99	451.72
592.15	456.40
592.31	463.43
592.46	435.34
592.62	365.12
592.78	416.62
592.94	468.11
593.10	383.85
593.26	353.42
593.41	442.36
593.57	416.62
593.73	482.15
593.89	433.00
594.05	423.64
594.20	397.89
594.36	433.00
594.52	388.53
594.68	440.02
594.84	397.89
594.99	402.57
595.15	393.21
595.31	395.55
595.47	472.79
595.62	465.77
595.78	404.91
595.94	390.87
596.10	376.83
596.25	402.57
596.41	376.83
596.57	477.47
596.73	355.76
596.88	461.09
597.04	458.74
597.20	334.70
597.36	407.25
597.51	388.53
597.67	348.74
597.83	437.68
597.99	383.85
598.14	372.15
598.30	465.77
598.46	416.62
598.61	411.93
598.77	463.43
598.93	423.64
599.09	379.17
599.24	421.30
599.40	339.38
599.56	416.62
599.71	423.64
599.87	395.55
600.03	449.38
600.18	465.77
600.34	463.43
600.50	358.10
600.65	404.91
600.81	477.47
600.97	423.64
601.12	383.85
601.28	379.17
601.44	433.00
601.59	477.47
601.75	433.00
601.91	402.57
602.06	414.27
602.22	428.32
602.37	409.59
602.53	353.42
602.69	374.49
602.84	379.17
603.00	365.12
603.16	468.11
603.31	493.85
603.47	416.62
603.62	454.06
603.78	404.91
603.94	414.27
604.09	456.40
604.25	465.77
604.40	381.51
604.56	376.83
604.71	348.74
604.87	407.25
605.03	428.32
605.18	355.76
605.34	383.85
605.49	376.83
605.65	360.44
605.80	479.81
605.96	407.25
606.12	437.68
606.27	397.89
606.43	400.23
606.58	463.43
606.74	360.44
606.89	475.13
607.05	433.00
607.20	358.10
607.36	379.17
607.51	411.93
607.67	362.78
607.82	388.53
607.98	381.51
608.13	390.87
608.29	390.87
608.44	465.77
608.60	409.59
608.75	489.17
608.91	475.13
609.06	386.19
609.22	470.45
609.37	381.51
609.53	411.93
609.68	400.23
609.84	369.80
609.99	421.30
610.15	442.36
