SpectraSuite Data File
++++++++++++++++++++++++++++++++++++
Date: Fri Oct 25 12:10:59 EDT 2013
User: price-jones
Dark Spectrum Present: No
Reference Spectrum Present: No
Number of Sampled Component Spectra: 1
Spectrometers: USB2+H05261
Integration Time (usec): 100000 (USB2+H05261)
Spectra Averaged: 1 (USB2+H05261)
Boxcar Smoothing: 0 (USB2+H05261)
Correct for Electrical Dark: No (USB2+H05261)
Strobe/Lamp Enabled: No (USB2+H05261)
Correct for Detector Non-linearity: No (USB2+H05261)
Correct for Stray Light: No (USB2+H05261)
Number of Pixels in Processed Spectrum: 2048
>>>>>Begin Processed Spectral Data<<<<<
365.73	332.36
365.92	332.36
366.12	332.36
366.32	257.46
366.52	294.91
366.72	262.14
366.91	248.10
367.11	210.65
367.31	250.44
367.51	191.92
367.70	266.82
367.90	238.73
368.10	250.44
368.30	306.61
368.49	217.67
368.69	234.05
368.89	299.59
369.09	266.82
369.28	287.89
369.48	217.67
369.68	266.82
369.87	285.55
370.07	315.97
370.27	435.34
370.47	313.63
370.66	234.05
370.86	313.63
371.06	369.80
371.25	418.96
371.45	374.49
371.65	421.30
371.84	397.89
372.04	344.06
372.24	423.64
372.44	327.68
372.63	381.51
372.83	404.91
373.03	355.76
373.22	397.89
373.42	388.53
373.62	430.66
373.81	379.17
374.01	458.74
374.21	451.72
374.40	383.85
374.60	468.11
374.79	351.08
374.99	444.70
375.19	444.70
375.38	393.21
375.58	358.10
375.78	454.06
375.97	414.27
376.17	458.74
376.37	461.09
376.56	444.70
376.76	372.15
376.95	444.70
377.15	428.32
377.35	397.89
377.54	430.66
377.74	458.74
377.93	470.45
378.13	421.30
378.33	451.72
378.52	379.17
378.72	484.49
378.91	444.70
379.11	416.62
379.31	425.98
379.50	454.06
379.70	390.87
379.89	388.53
380.09	383.85
380.28	456.40
380.48	390.87
380.68	402.57
380.87	393.21
381.07	386.19
381.26	362.78
381.46	388.53
381.65	430.66
381.85	472.79
382.04	400.23
382.24	376.83
382.43	348.74
382.63	440.02
382.83	421.30
383.02	402.57
383.22	379.17
383.41	435.34
383.61	418.96
383.80	414.27
384.00	383.85
384.19	425.98
384.39	383.85
384.58	428.32
384.78	388.53
384.97	430.66
385.17	425.98
385.36	440.02
385.56	430.66
385.75	447.04
385.95	430.66
386.14	433.00
386.34	461.09
386.53	463.43
386.72	388.53
386.92	491.51
387.11	482.15
387.31	358.10
387.50	397.89
387.70	369.80
387.89	458.74
388.09	402.57
388.28	463.43
388.48	440.02
388.67	400.23
388.86	423.64
389.06	411.93
389.25	423.64
389.45	388.53
389.64	346.40
389.84	425.98
390.03	472.79
390.22	472.79
390.42	425.98
390.61	358.10
390.81	367.46
391.00	372.15
391.19	454.06
391.39	418.96
391.58	449.38
391.78	376.83
391.97	388.53
392.16	374.49
392.36	386.19
392.55	386.19
392.75	344.06
392.94	344.06
393.13	451.72
393.33	304.27
393.52	404.91
393.71	433.00
393.91	430.66
394.10	360.44
394.29	393.21
394.49	416.62
394.68	442.36
394.88	348.74
395.07	449.38
395.26	351.08
395.46	402.57
395.65	472.79
395.84	397.89
396.04	475.13
396.23	428.32
396.42	407.25
396.62	407.25
396.81	400.23
397.00	437.68
397.19	421.30
397.39	395.55
397.58	402.57
397.77	369.80
397.97	454.06
398.16	374.49
398.35	423.64
398.55	360.44
398.74	451.72
398.93	402.57
399.12	416.62
399.32	376.83
399.51	404.91
399.70	390.87
399.90	484.49
400.09	430.66
400.28	339.38
400.47	407.25
400.67	423.64
400.86	381.51
401.05	383.85
401.24	430.66
401.44	418.96
401.63	433.00
401.82	423.64
402.01	381.51
402.21	435.34
402.40	407.25
402.59	433.00
402.78	421.30
402.97	362.78
403.17	362.78
403.36	428.32
403.55	416.62
403.74	407.25
403.93	327.68
404.13	428.32
404.32	390.87
404.51	404.91
404.70	482.15
404.89	409.59
405.09	503.22
405.28	472.79
405.47	346.40
405.66	449.38
405.85	447.04
406.05	404.91
406.24	388.53
406.43	414.27
406.62	388.53
406.81	381.51
407.00	362.78
407.20	374.49
407.39	470.45
407.58	381.51
407.77	386.19
407.96	430.66
408.15	409.59
408.34	416.62
408.54	404.91
408.73	374.49
408.92	418.96
409.11	444.70
409.30	482.15
409.49	479.81
409.68	365.12
409.87	447.04
410.07	325.33
410.26	393.21
410.45	280.86
410.64	386.19
410.83	418.96
411.02	372.15
411.21	430.66
411.40	402.57
411.59	327.68
411.78	362.78
411.98	407.25
412.17	404.91
412.36	425.98
412.55	423.64
412.74	461.09
412.93	421.30
413.12	433.00
413.31	411.93
413.50	442.36
413.69	362.78
413.88	430.66
414.07	425.98
414.26	428.32
414.45	404.91
414.64	402.57
414.83	404.91
415.02	444.70
415.22	388.53
415.41	374.49
415.60	428.32
415.79	454.06
415.98	402.57
416.17	414.27
416.36	425.98
416.55	395.55
416.74	358.10
416.93	423.64
417.12	369.80
417.31	444.70
417.50	430.66
417.69	447.04
417.88	390.87
418.07	348.74
418.26	411.93
418.45	334.70
418.64	463.43
418.83	402.57
419.02	379.17
419.21	451.72
419.39	421.30
419.58	421.30
419.77	367.46
419.96	414.27
420.15	433.00
420.34	454.06
420.53	433.00
420.72	449.38
420.91	388.53
421.10	437.68
421.29	355.76
421.48	486.83
421.67	461.09
421.86	395.55
422.05	428.32
422.24	449.38
422.43	374.49
422.61	376.83
422.80	379.17
422.99	435.34
423.18	409.59
423.37	435.34
423.56	397.89
423.75	456.40
423.94	404.91
424.13	397.89
424.32	379.17
424.50	395.55
424.69	355.76
424.88	433.00
425.07	367.46
425.26	369.80
425.45	369.80
425.64	395.55
425.83	465.77
426.01	379.17
426.20	430.66
426.39	367.46
426.58	400.23
426.77	447.04
426.96	414.27
427.15	444.70
427.33	400.23
427.52	372.15
427.71	428.32
427.90	348.74
428.09	418.96
428.28	409.59
428.46	383.85
428.65	404.91
428.84	442.36
429.03	470.45
429.22	367.46
429.40	334.70
429.59	376.83
429.78	425.98
429.97	514.92
430.16	395.55
430.34	353.42
430.53	393.21
430.72	456.40
430.91	390.87
431.10	435.34
431.28	397.89
431.47	397.89
431.66	433.00
431.85	479.81
432.03	491.51
432.22	425.98
432.41	428.32
432.60	430.66
432.79	358.10
432.97	393.21
433.16	402.57
433.35	423.64
433.54	440.02
433.72	470.45
433.91	454.06
434.10	428.32
434.28	425.98
434.47	388.53
434.66	496.19
434.85	416.62
435.03	430.66
435.22	397.89
435.41	337.04
435.59	423.64
435.78	402.57
435.97	353.42
436.16	369.80
436.34	440.02
436.53	376.83
436.72	388.53
436.90	379.17
437.09	418.96
437.28	470.45
437.46	353.42
437.65	484.49
437.84	475.13
438.02	414.27
438.21	414.27
438.40	414.27
438.58	409.59
438.77	407.25
438.96	407.25
439.14	468.11
439.33	407.25
439.52	447.04
439.70	411.93
439.89	409.59
440.08	367.46
440.26	365.12
440.45	421.30
440.63	418.96
440.82	360.44
441.01	407.25
441.19	409.59
441.38	402.57
441.57	344.06
441.75	407.25
441.94	362.78
442.12	376.83
442.31	449.38
442.50	369.80
442.68	353.42
442.87	423.64
443.05	327.68
443.24	379.17
443.43	411.93
443.61	538.32
443.80	414.27
443.98	407.25
444.17	315.97
444.35	442.36
444.54	411.93
444.73	367.46
444.91	458.74
445.10	369.80
445.28	425.98
445.47	367.46
445.65	353.42
445.84	355.76
446.02	383.85
446.21	372.15
446.39	477.47
446.58	365.12
446.77	414.27
446.95	383.85
447.14	416.62
447.32	430.66
447.51	379.17
447.69	430.66
447.88	451.72
448.06	500.87
448.25	393.21
448.43	423.64
448.62	362.78
448.80	416.62
448.99	388.53
449.17	376.83
449.36	386.19
449.54	402.57
449.73	425.98
449.91	397.89
450.10	365.12
450.28	479.81
450.46	468.11
450.65	444.70
450.83	395.55
451.02	449.38
451.20	369.80
451.39	400.23
451.57	400.23
451.76	489.17
451.94	477.47
452.13	402.57
452.31	479.81
452.49	407.25
452.68	435.34
452.86	346.40
453.05	505.56
453.23	379.17
453.42	423.64
453.60	418.96
453.78	425.98
453.97	421.30
454.15	341.72
454.34	351.08
454.52	404.91
454.70	442.36
454.89	447.04
455.07	489.17
455.26	397.89
455.44	465.77
455.62	470.45
455.81	414.27
455.99	404.91
456.17	402.57
456.36	433.00
456.54	372.15
456.73	353.42
456.91	400.23
457.09	447.04
457.28	470.45
457.46	456.40
457.64	440.02
457.83	437.68
458.01	390.87
458.19	479.81
458.38	383.85
458.56	430.66
458.74	423.64
458.93	458.74
459.11	433.00
459.29	367.46
459.48	379.17
459.66	400.23
459.84	390.87
460.03	454.06
460.21	458.74
460.39	479.81
460.57	353.42
460.76	430.66
460.94	456.40
461.12	402.57
461.31	484.49
461.49	454.06
461.67	421.30
461.85	442.36
462.04	437.68
462.22	519.60
462.40	463.43
462.59	451.72
462.77	339.38
462.95	454.06
463.13	362.78
463.32	430.66
463.50	341.72
463.68	423.64
463.86	535.98
464.05	430.66
464.23	425.98
464.41	400.23
464.59	433.00
464.78	374.49
464.96	374.49
465.14	379.17
465.32	437.68
465.50	379.17
465.69	423.64
465.87	411.93
466.05	393.21
466.23	421.30
466.41	414.27
466.60	428.32
466.78	407.25
466.96	428.32
467.14	423.64
467.32	348.74
467.51	458.74
467.69	425.98
467.87	493.85
468.05	372.15
468.23	418.96
468.41	461.09
468.60	411.93
468.78	411.93
468.96	423.64
469.14	428.32
469.32	414.27
469.50	454.06
469.69	449.38
469.87	386.19
470.05	367.46
470.23	383.85
470.41	414.27
470.59	339.38
470.77	353.42
470.95	430.66
471.14	454.06
471.32	351.08
471.50	404.91
471.68	386.19
471.86	344.06
472.04	423.64
472.22	510.24
472.40	414.27
472.58	397.89
472.77	341.72
472.95	411.93
473.13	461.09
473.31	458.74
473.49	320.65
473.67	433.00
473.85	416.62
474.03	407.25
474.21	376.83
474.39	428.32
474.57	521.94
474.75	393.21
474.93	402.57
475.12	425.98
475.30	404.91
475.48	447.04
475.66	402.57
475.84	430.66
476.02	440.02
476.20	383.85
476.38	416.62
476.56	444.70
476.74	395.55
476.92	367.46
477.10	425.98
477.28	411.93
477.46	463.43
477.64	458.74
477.82	449.38
478.00	418.96
478.18	372.15
478.36	395.55
478.54	400.23
478.72	367.46
478.90	433.00
479.08	442.36
479.26	416.62
479.44	344.06
479.62	409.59
479.80	393.21
479.98	414.27
480.16	444.70
480.34	388.53
480.52	383.85
480.70	454.06
480.88	397.89
481.06	400.23
481.24	379.17
481.41	386.19
481.59	402.57
481.77	477.47
481.95	400.23
482.13	409.59
482.31	381.51
482.49	372.15
482.67	360.44
482.85	397.89
483.03	374.49
483.21	435.34
483.39	397.89
483.57	435.34
483.74	449.38
483.92	421.30
484.10	489.17
484.28	428.32
484.46	447.04
484.64	433.00
484.82	433.00
485.00	327.68
485.18	407.25
485.35	472.79
485.53	404.91
485.71	416.62
485.89	421.30
486.07	414.27
486.25	404.91
486.43	430.66
486.61	407.25
486.78	409.59
486.96	423.64
487.14	442.36
487.32	397.89
487.50	395.55
487.68	402.57
487.85	416.62
488.03	390.87
488.21	423.64
488.39	386.19
488.57	381.51
488.75	461.09
488.92	470.45
489.10	411.93
489.28	433.00
489.46	411.93
489.64	440.02
489.81	433.00
489.99	372.15
490.17	379.17
490.35	498.53
490.53	395.55
490.70	360.44
490.88	430.66
491.06	444.70
491.24	465.77
491.41	418.96
491.59	458.74
491.77	421.30
491.95	395.55
492.13	404.91
492.30	435.34
492.48	421.30
492.66	351.08
492.84	416.62
493.01	395.55
493.19	416.62
493.37	411.93
493.54	440.02
493.72	407.25
493.90	425.98
494.08	402.57
494.25	435.34
494.43	318.31
494.61	440.02
494.79	381.51
494.96	386.19
495.14	409.59
495.32	388.53
495.49	360.44
495.67	358.10
495.85	404.91
496.02	418.96
496.20	433.00
496.38	435.34
496.55	409.59
496.73	430.66
496.91	409.59
497.09	409.59
497.26	479.81
497.44	393.21
497.62	475.13
497.79	386.19
497.97	416.62
498.14	440.02
498.32	451.72
498.50	362.78
498.67	320.65
498.85	505.56
499.03	433.00
499.20	423.64
499.38	355.76
499.56	404.91
499.73	428.32
499.91	479.81
500.08	397.89
500.26	416.62
500.44	397.89
500.61	367.46
500.79	407.25
500.97	482.15
501.14	447.04
501.32	456.40
501.49	463.43
501.67	313.63
501.84	482.15
502.02	421.30
502.20	461.09
502.37	416.62
502.55	353.42
502.72	402.57
502.90	383.85
503.07	351.08
503.25	425.98
503.43	397.89
503.60	386.19
503.78	374.49
503.95	442.36
504.13	435.34
504.30	416.62
504.48	381.51
504.65	414.27
504.83	454.06
505.01	428.32
505.18	430.66
505.36	409.59
505.53	402.57
505.71	407.25
505.88	414.27
506.06	468.11
506.23	430.66
506.41	369.80
506.58	414.27
506.76	437.68
506.93	470.45
507.11	440.02
507.28	465.77
507.46	447.04
507.63	407.25
507.81	407.25
507.98	454.06
508.16	430.66
508.33	407.25
508.50	386.19
508.68	393.21
508.85	411.93
509.03	388.53
509.20	416.62
509.38	407.25
509.55	449.38
509.73	404.91
509.90	454.06
510.08	369.80
510.25	388.53
510.42	365.12
510.60	341.72
510.77	400.23
510.95	400.23
511.12	449.38
511.30	425.98
511.47	421.30
511.64	472.79
511.82	397.89
511.99	447.04
512.17	360.44
512.34	400.23
512.51	421.30
512.69	381.51
512.86	447.04
513.04	327.68
513.21	430.66
513.38	423.64
513.56	437.68
513.73	475.13
513.90	423.64
514.08	428.32
514.25	376.83
514.43	348.74
514.60	414.27
514.77	418.96
514.95	390.87
515.12	360.44
515.29	458.74
515.47	423.64
515.64	393.21
515.81	355.76
515.99	442.36
516.16	393.21
516.33	498.53
516.51	421.30
516.68	369.80
516.85	447.04
517.03	440.02
517.20	430.66
517.37	397.89
517.54	430.66
517.72	454.06
517.89	339.38
518.06	465.77
518.24	514.92
518.41	414.27
518.58	383.85
518.75	355.76
518.93	475.13
519.10	407.25
519.27	365.12
519.45	393.21
519.62	430.66
519.79	423.64
519.96	414.27
520.14	416.62
520.31	463.43
520.48	395.55
520.65	386.19
520.83	440.02
521.00	365.12
521.17	449.38
521.34	444.70
521.52	458.74
521.69	376.83
521.86	381.51
522.03	423.64
522.20	404.91
522.38	447.04
522.55	444.70
522.72	374.49
522.89	376.83
523.07	489.17
523.24	461.09
523.41	383.85
523.58	407.25
523.75	395.55
523.92	435.34
524.10	468.11
524.27	440.02
524.44	388.53
524.61	444.70
524.78	428.32
524.96	442.36
525.13	479.81
525.30	465.77
525.47	458.74
525.64	423.64
525.81	379.17
525.98	475.13
526.16	402.57
526.33	374.49
526.50	414.27
526.67	437.68
526.84	451.72
527.01	454.06
527.18	447.04
527.36	402.57
527.53	397.89
527.70	390.87
527.87	418.96
528.04	437.68
528.21	360.44
528.38	414.27
528.55	528.96
528.72	519.60
528.89	447.04
529.07	404.91
529.24	430.66
529.41	444.70
529.58	486.83
529.75	463.43
529.92	463.43
530.09	447.04
530.26	437.68
530.43	442.36
530.60	421.30
530.77	423.64
530.94	365.12
531.11	400.23
531.28	425.98
531.46	404.91
531.63	379.17
531.80	428.32
531.97	468.11
532.14	414.27
532.31	416.62
532.48	348.74
532.65	430.66
532.82	374.49
532.99	407.25
533.16	395.55
533.33	465.77
533.50	388.53
533.67	409.59
533.84	393.21
534.01	428.32
534.18	402.57
534.35	475.13
534.52	360.44
534.69	411.93
534.86	503.22
535.03	379.17
535.20	393.21
535.37	505.56
535.54	381.51
535.71	386.19
535.88	404.91
536.05	341.72
536.22	418.96
536.38	404.91
536.55	390.87
536.72	463.43
536.89	425.98
537.06	346.40
537.23	416.62
537.40	418.96
537.57	404.91
537.74	454.06
537.91	451.72
538.08	369.80
538.25	386.19
538.42	440.02
538.59	444.70
538.75	456.40
538.92	433.00
539.09	454.06
539.26	465.77
539.43	437.68
539.60	465.77
539.77	451.72
539.94	456.40
540.11	409.59
540.28	430.66
540.44	416.62
540.61	423.64
540.78	395.55
540.95	451.72
541.12	421.30
541.29	416.62
541.46	414.27
541.62	414.27
541.79	407.25
541.96	440.02
542.13	315.97
542.30	482.15
542.47	407.25
542.63	411.93
542.80	411.93
542.97	463.43
543.14	416.62
543.31	463.43
543.48	402.57
543.64	409.59
543.81	430.66
543.98	353.42
544.15	339.38
544.32	461.09
544.48	454.06
544.65	477.47
544.82	451.72
544.99	400.23
545.16	470.45
545.32	454.06
545.49	463.43
545.66	402.57
545.83	362.78
546.00	423.64
546.16	430.66
546.33	496.19
546.50	437.68
546.67	411.93
546.83	409.59
547.00	393.21
547.17	430.66
547.34	435.34
547.50	437.68
547.67	433.00
547.84	402.57
548.00	449.38
548.17	519.60
548.34	386.19
548.51	456.40
548.67	447.04
548.84	367.46
549.01	477.47
549.18	440.02
549.34	414.27
549.51	423.64
549.68	379.17
549.84	418.96
550.01	351.08
550.18	468.11
550.34	442.36
550.51	360.44
550.68	416.62
550.84	400.23
551.01	435.34
551.18	440.02
551.34	425.98
551.51	430.66
551.68	442.36
551.84	381.51
552.01	437.68
552.18	451.72
552.34	503.22
552.51	437.68
552.68	428.32
552.84	367.46
553.01	442.36
553.18	372.15
553.34	449.38
553.51	465.77
553.67	418.96
553.84	503.22
554.01	418.96
554.17	440.02
554.34	365.12
554.51	421.30
554.67	395.55
554.84	334.70
555.00	423.64
555.17	482.15
555.33	463.43
555.50	365.12
555.67	372.15
555.83	395.55
556.00	358.10
556.16	543.00
556.33	458.74
556.50	355.76
556.66	437.68
556.83	402.57
556.99	344.06
557.16	454.06
557.32	402.57
557.49	409.59
557.65	393.21
557.82	383.85
557.98	407.25
558.15	395.55
558.32	409.59
558.48	369.80
558.65	379.17
558.81	388.53
558.98	442.36
559.14	482.15
559.31	411.93
559.47	416.62
559.64	409.59
559.80	390.87
559.97	411.93
560.13	447.04
560.30	374.49
560.46	421.30
560.63	416.62
560.79	379.17
560.96	449.38
561.12	374.49
561.29	428.32
561.45	461.09
561.61	397.89
561.78	470.45
561.94	479.81
562.11	435.34
562.27	444.70
562.44	425.98
562.60	346.40
562.77	407.25
562.93	503.22
563.10	388.53
563.26	404.91
563.42	400.23
563.59	437.68
563.75	437.68
563.92	346.40
564.08	358.10
564.24	479.81
564.41	409.59
564.57	486.83
564.74	344.06
564.90	409.59
565.07	465.77
565.23	430.66
565.39	346.40
565.56	423.64
565.72	430.66
565.88	369.80
566.05	411.93
566.21	393.21
566.38	397.89
566.54	461.09
566.70	425.98
566.87	411.93
567.03	379.17
567.19	456.40
567.36	411.93
567.52	400.23
567.68	435.34
567.85	475.13
568.01	411.93
568.17	430.66
568.34	393.21
568.50	456.40
568.66	433.00
568.83	479.81
568.99	397.89
569.15	444.70
569.32	379.17
569.48	428.32
569.64	388.53
569.81	404.91
569.97	400.23
570.13	458.74
570.30	458.74
570.46	435.34
570.62	386.19
570.78	397.89
570.95	379.17
571.11	477.47
571.27	444.70
571.43	400.23
571.60	365.12
571.76	383.85
571.92	435.34
572.09	414.27
572.25	369.80
572.41	442.36
572.57	411.93
572.74	414.27
572.90	465.77
573.06	444.70
573.22	411.93
573.38	484.49
573.55	470.45
573.71	500.87
573.87	451.72
574.03	372.15
574.20	447.04
574.36	404.91
574.52	418.96
574.68	400.23
574.84	395.55
575.01	393.21
575.17	430.66
575.33	458.74
575.49	416.62
575.65	451.72
575.82	416.62
575.98	386.19
576.14	372.15
576.30	430.66
576.46	355.76
576.62	402.57
576.79	393.21
576.95	411.93
577.11	409.59
577.27	423.64
577.43	409.59
577.59	435.34
577.75	397.89
577.92	472.79
578.08	400.23
578.24	411.93
578.40	461.09
578.56	447.04
578.72	433.00
578.88	461.09
579.04	393.21
579.21	444.70
579.37	407.25
579.53	390.87
579.69	468.11
579.85	423.64
580.01	470.45
580.17	472.79
580.33	465.77
580.49	358.10
580.65	463.43
580.82	468.11
580.98	393.21
581.14	430.66
581.30	519.60
581.46	458.74
581.62	451.72
581.78	435.34
581.94	397.89
582.10	435.34
582.26	360.44
582.42	388.53
582.58	437.68
582.74	449.38
582.90	402.57
583.06	440.02
583.22	390.87
583.38	416.62
583.54	374.49
583.70	482.15
583.86	369.80
584.02	430.66
584.18	437.68
584.34	435.34
584.50	418.96
584.66	393.21
584.82	430.66
584.98	425.98
585.14	365.12
585.30	475.13
585.46	414.27
585.62	337.04
585.78	346.40
585.94	411.93
586.10	470.45
586.26	381.51
586.42	404.91
586.58	397.89
586.74	442.36
586.90	470.45
587.06	440.02
587.22	463.43
587.38	428.32
587.54	447.04
587.70	430.66
587.86	451.72
588.02	451.72
588.18	397.89
588.34	482.15
588.49	559.39
588.65	390.87
588.81	369.80
588.97	400.23
589.13	440.02
589.29	418.96
589.45	388.53
589.61	444.70
589.77	482.15
589.93	451.72
590.08	425.98
590.24	444.70
590.40	376.83
590.56	409.59
590.72	381.51
590.88	369.80
591.04	402.57
591.20	376.83
591.35	433.00
591.51	440.02
591.67	421.30
591.83	425.98
591.99	449.38
592.15	486.83
592.31	416.62
592.46	482.15
592.62	383.85
592.78	355.76
592.94	402.57
593.10	372.15
593.26	388.53
593.41	376.83
593.57	418.96
593.73	512.58
593.89	472.79
594.05	376.83
594.20	402.57
594.36	447.04
594.52	428.32
594.68	376.83
594.84	447.04
594.99	489.17
595.15	423.64
595.31	465.77
595.47	451.72
595.62	416.62
595.78	491.51
595.94	437.68
596.10	447.04
596.25	423.64
596.41	416.62
596.57	374.49
596.73	475.13
596.88	386.19
597.04	379.17
597.20	374.49
597.36	372.15
597.51	477.47
597.67	463.43
597.83	465.77
597.99	369.80
598.14	447.04
598.30	458.74
598.46	414.27
598.61	465.77
598.77	430.66
598.93	458.74
599.09	421.30
599.24	475.13
599.40	397.89
599.56	458.74
599.71	393.21
599.87	379.17
600.03	435.34
600.18	416.62
600.34	433.00
600.50	358.10
600.65	395.55
600.81	465.77
600.97	472.79
601.12	397.89
601.28	393.21
601.44	465.77
601.59	358.10
601.75	404.91
601.91	400.23
602.06	388.53
602.22	423.64
602.37	381.51
602.53	390.87
602.69	510.24
602.84	479.81
603.00	334.70
603.16	390.87
603.31	435.34
603.47	451.72
603.62	463.43
603.78	437.68
603.94	428.32
604.09	482.15
604.25	493.85
604.40	402.57
604.56	430.66
604.71	397.89
604.87	416.62
605.03	386.19
605.18	456.40
605.34	407.25
605.49	423.64
605.65	421.30
605.80	421.30
605.96	433.00
606.12	444.70
606.27	407.25
606.43	468.11
606.58	418.96
606.74	498.53
606.89	414.27
607.05	383.85
607.20	447.04
607.36	461.09
607.51	421.30
607.67	440.02
607.82	402.57
607.98	416.62
608.13	442.36
608.29	346.40
608.44	461.09
608.60	430.66
608.75	421.30
608.91	463.43
609.06	390.87
609.22	447.04
609.37	390.87
609.53	428.32
609.68	346.40
609.84	407.25
609.99	362.78
610.15	367.46
