SpectraSuite Data File
++++++++++++++++++++++++++++++++++++
Date: Fri Oct 25 12:10:19 EDT 2013
User: price-jones
Dark Spectrum Present: No
Reference Spectrum Present: No
Number of Sampled Component Spectra: 1
Spectrometers: USB2+H05261
Integration Time (usec): 100000 (USB2+H05261)
Spectra Averaged: 1 (USB2+H05261)
Boxcar Smoothing: 0 (USB2+H05261)
Correct for Electrical Dark: No (USB2+H05261)
Strobe/Lamp Enabled: No (USB2+H05261)
Correct for Detector Non-linearity: No (USB2+H05261)
Correct for Stray Light: No (USB2+H05261)
Number of Pixels in Processed Spectrum: 2048
>>>>>Begin Processed Spectral Data<<<<<
365.73	362.78
365.92	362.78
366.12	362.78
366.32	241.08
366.52	283.20
366.72	257.46
366.91	229.37
367.11	231.71
367.31	217.67
367.51	189.58
367.70	271.50
367.90	255.12
368.10	236.39
368.30	276.18
368.49	203.63
368.69	315.97
368.89	245.76
369.09	259.80
369.28	276.18
369.48	203.63
369.68	236.39
369.87	285.55
370.07	266.82
370.27	362.78
370.47	301.93
370.66	308.95
370.86	337.04
371.06	344.06
371.25	358.10
371.45	423.64
371.65	390.87
371.84	362.78
372.04	404.91
372.24	325.33
372.44	360.44
372.63	409.59
372.83	388.53
373.03	437.68
373.22	395.55
373.42	411.93
373.62	414.27
373.81	341.72
374.01	376.83
374.21	465.77
374.40	388.53
374.60	400.23
374.79	362.78
374.99	411.93
375.19	463.43
375.38	386.19
375.58	456.40
375.78	390.87
375.97	437.68
376.17	449.38
376.37	421.30
376.56	407.25
376.76	367.46
376.95	390.87
377.15	409.59
377.35	411.93
377.54	489.17
377.74	344.06
377.93	454.06
378.13	379.17
378.33	430.66
378.52	456.40
378.72	465.77
378.91	404.91
379.11	393.21
379.31	348.74
379.50	393.21
379.70	390.87
379.89	421.30
380.09	428.32
380.28	414.27
380.48	367.46
380.68	449.38
380.87	411.93
381.07	381.51
381.26	411.93
381.46	404.91
381.65	411.93
381.85	388.53
382.04	400.23
382.24	372.15
382.43	404.91
382.63	362.78
382.83	416.62
383.02	416.62
383.22	397.89
383.41	388.53
383.61	503.22
383.80	418.96
384.00	362.78
384.19	360.44
384.39	386.19
384.58	440.02
384.78	369.80
384.97	379.17
385.17	423.64
385.36	397.89
385.56	388.53
385.75	421.30
385.95	388.53
386.14	425.98
386.34	330.02
386.53	355.76
386.72	397.89
386.92	489.17
387.11	374.49
387.31	379.17
387.50	381.51
387.70	360.44
387.89	428.32
388.09	411.93
388.28	411.93
388.48	404.91
388.67	444.70
388.86	306.61
389.06	451.72
389.25	479.81
389.45	428.32
389.64	390.87
389.84	475.13
390.03	433.00
390.22	379.17
390.42	456.40
390.61	393.21
390.81	388.53
391.00	407.25
391.19	425.98
391.39	397.89
391.58	358.10
391.78	362.78
391.97	367.46
392.16	362.78
392.36	400.23
392.55	418.96
392.75	386.19
392.94	440.02
393.13	379.17
393.33	402.57
393.52	372.15
393.71	418.96
393.91	386.19
394.10	395.55
394.29	339.38
394.49	414.27
394.68	365.12
394.88	468.11
395.07	404.91
395.26	407.25
395.46	386.19
395.65	421.30
395.84	435.34
396.04	435.34
396.23	479.81
396.42	299.59
396.62	393.21
396.81	397.89
397.00	358.10
397.19	428.32
397.39	430.66
397.58	402.57
397.77	458.74
397.97	444.70
398.16	346.40
398.35	346.40
398.55	379.17
398.74	339.38
398.93	404.91
399.12	358.10
399.32	421.30
399.51	397.89
399.70	491.51
399.90	447.04
400.09	369.80
400.28	414.27
400.47	395.55
400.67	428.32
400.86	369.80
401.05	437.68
401.24	440.02
401.44	451.72
401.63	402.57
401.82	379.17
402.01	367.46
402.21	344.06
402.40	470.45
402.59	458.74
402.78	351.08
402.97	402.57
403.17	381.51
403.36	428.32
403.55	393.21
403.74	351.08
403.93	440.02
404.13	475.13
404.32	447.04
404.51	437.68
404.70	360.44
404.89	332.36
405.09	456.40
405.28	456.40
405.47	425.98
405.66	435.34
405.85	355.76
406.05	369.80
406.24	379.17
406.43	351.08
406.62	404.91
406.81	454.06
407.00	521.94
407.20	423.64
407.39	365.12
407.58	463.43
407.77	386.19
407.96	456.40
408.15	327.68
408.34	393.21
408.54	442.36
408.73	367.46
408.92	383.85
409.11	425.98
409.30	498.53
409.49	407.25
409.68	355.76
409.87	430.66
410.07	444.70
410.26	346.40
410.45	379.17
410.64	346.40
410.83	442.36
411.02	472.79
411.21	418.96
411.40	468.11
411.59	395.55
411.78	465.77
411.98	372.15
412.17	451.72
412.36	435.34
412.55	435.34
412.74	451.72
412.93	489.17
413.12	409.59
413.31	376.83
413.50	437.68
413.69	365.12
413.88	505.56
414.07	337.04
414.26	482.15
414.45	388.53
414.64	477.47
414.83	425.98
415.02	367.46
415.22	491.51
415.41	411.93
415.60	388.53
415.79	332.36
415.98	409.59
416.17	411.93
416.36	341.72
416.55	383.85
416.74	388.53
416.93	442.36
417.12	421.30
417.31	447.04
417.50	468.11
417.69	510.24
417.88	341.72
418.07	416.62
418.26	395.55
418.45	376.83
418.64	444.70
418.83	407.25
419.02	334.70
419.21	379.17
419.39	479.81
419.58	409.59
419.77	477.47
419.96	440.02
420.15	496.19
420.34	397.89
420.53	390.87
420.72	454.06
420.91	360.44
421.10	397.89
421.29	400.23
421.48	435.34
421.67	449.38
421.86	409.59
422.05	421.30
422.24	414.27
422.43	383.85
422.61	360.44
422.80	423.64
422.99	397.89
423.18	374.49
423.37	477.47
423.56	465.77
423.75	451.72
423.94	379.17
424.13	411.93
424.32	395.55
424.50	367.46
424.69	430.66
424.88	475.13
425.07	411.93
425.26	465.77
425.45	500.87
425.64	346.40
425.83	414.27
426.01	468.11
426.20	376.83
426.39	425.98
426.58	390.87
426.77	423.64
426.96	423.64
427.15	447.04
427.33	376.83
427.52	430.66
427.71	369.80
427.90	447.04
428.09	386.19
428.28	397.89
428.46	435.34
428.65	416.62
428.84	437.68
429.03	489.17
429.22	421.30
429.40	393.21
429.59	388.53
429.78	440.02
429.97	461.09
430.16	435.34
430.34	341.72
430.53	407.25
430.72	482.15
430.91	463.43
431.10	365.12
431.28	397.89
431.47	383.85
431.66	440.02
431.85	496.19
432.03	362.78
432.22	386.19
432.41	477.47
432.60	416.62
432.79	362.78
432.97	400.23
433.16	404.91
433.35	425.98
433.54	362.78
433.72	414.27
433.91	454.06
434.10	376.83
434.28	330.02
434.47	315.97
434.66	430.66
434.85	463.43
435.03	395.55
435.22	428.32
435.41	435.34
435.59	393.21
435.78	423.64
435.97	423.64
436.16	395.55
436.34	425.98
436.53	339.38
436.72	395.55
436.90	440.02
437.09	386.19
437.28	360.44
437.46	416.62
437.65	444.70
437.84	430.66
438.02	372.15
438.21	402.57
438.40	421.30
438.58	362.78
438.77	428.32
438.96	400.23
439.14	367.46
439.33	397.89
439.52	444.70
439.70	379.17
439.89	372.15
440.08	402.57
440.26	461.09
440.45	447.04
440.63	414.27
440.82	442.36
441.01	479.81
441.19	313.63
441.38	351.08
441.57	390.87
441.75	421.30
441.94	400.23
442.12	402.57
442.31	449.38
442.50	414.27
442.68	433.00
442.87	458.74
443.05	442.36
443.24	351.08
443.43	397.89
443.61	449.38
443.80	365.12
443.98	414.27
444.17	414.27
444.35	418.96
444.54	400.23
444.73	330.02
444.91	409.59
445.10	374.49
445.28	348.74
445.47	369.80
445.65	365.12
445.84	430.66
446.02	440.02
446.21	409.59
446.39	430.66
446.58	407.25
446.77	402.57
446.95	411.93
447.14	402.57
447.32	395.55
447.51	409.59
447.69	430.66
447.88	402.57
448.06	416.62
448.25	402.57
448.43	418.96
448.62	386.19
448.80	437.68
448.99	383.85
449.17	402.57
449.36	430.66
449.54	451.72
449.73	416.62
449.91	400.23
450.10	463.43
450.28	425.98
450.46	409.59
450.65	414.27
450.83	400.23
451.02	400.23
451.20	435.34
451.39	433.00
451.57	449.38
451.76	454.06
451.94	479.81
452.13	552.37
452.31	409.59
452.49	444.70
452.68	383.85
452.86	348.74
453.05	437.68
453.23	404.91
453.42	400.23
453.60	409.59
453.78	386.19
453.97	341.72
454.15	404.91
454.34	409.59
454.52	351.08
454.70	416.62
454.89	383.85
455.07	409.59
455.26	428.32
455.44	458.74
455.62	348.74
455.81	362.78
455.99	395.55
456.17	351.08
456.36	337.04
456.54	409.59
456.73	433.00
456.91	379.17
457.09	440.02
457.28	353.42
457.46	397.89
457.64	482.15
457.83	367.46
458.01	414.27
458.19	454.06
458.38	404.91
458.56	388.53
458.74	425.98
458.93	341.72
459.11	425.98
459.29	428.32
459.48	442.36
459.66	463.43
459.84	388.53
460.03	468.11
460.21	383.85
460.39	461.09
460.57	425.98
460.76	414.27
460.94	390.87
461.12	465.77
461.31	416.62
461.49	444.70
461.67	421.30
461.85	470.45
462.04	374.49
462.22	751.31
462.40	428.32
462.59	482.15
462.77	360.44
462.95	423.64
463.13	493.85
463.32	409.59
463.50	404.91
463.68	447.04
463.86	442.36
464.05	388.53
464.23	402.57
464.41	447.04
464.59	433.00
464.78	447.04
464.96	430.66
465.14	449.38
465.32	362.78
465.50	465.77
465.69	475.13
465.87	416.62
466.05	440.02
466.23	365.12
466.41	465.77
466.60	428.32
466.78	390.87
466.96	397.89
467.14	451.72
467.32	491.51
467.51	433.00
467.69	365.12
467.87	409.59
468.05	477.47
468.23	390.87
468.41	395.55
468.60	402.57
468.78	414.27
468.96	463.43
469.14	379.17
469.32	395.55
469.50	388.53
469.69	376.83
469.87	496.19
470.05	435.34
470.23	367.46
470.41	390.87
470.59	374.49
470.77	365.12
470.95	374.49
471.14	503.22
471.32	365.12
471.50	461.09
471.68	421.30
471.86	428.32
472.04	484.49
472.22	414.27
472.40	341.72
472.58	397.89
472.77	444.70
472.95	486.83
473.13	451.72
473.31	477.47
473.49	444.70
473.67	428.32
473.85	395.55
474.03	395.55
474.21	416.62
474.39	503.22
474.57	493.85
474.75	402.57
474.93	339.38
475.12	400.23
475.30	414.27
475.48	444.70
475.66	433.00
475.84	428.32
476.02	404.91
476.20	407.25
476.38	433.00
476.56	465.77
476.74	416.62
476.92	367.46
477.10	306.61
477.28	397.89
477.46	425.98
477.64	435.34
477.82	360.44
478.00	369.80
478.18	346.40
478.36	407.25
478.54	390.87
478.72	322.99
478.90	407.25
479.08	372.15
479.26	393.21
479.44	360.44
479.62	339.38
479.80	376.83
479.98	374.49
480.16	395.55
480.34	430.66
480.52	475.13
480.70	414.27
480.88	416.62
481.06	346.40
481.24	437.68
481.41	423.64
481.59	414.27
481.77	346.40
481.95	435.34
482.13	458.74
482.31	397.89
482.49	404.91
482.67	411.93
482.85	449.38
483.03	425.98
483.21	397.89
483.39	320.65
483.57	414.27
483.74	468.11
483.92	435.34
484.10	456.40
484.28	400.23
484.46	463.43
484.64	465.77
484.82	372.15
485.00	369.80
485.18	416.62
485.35	407.25
485.53	348.74
485.71	454.06
485.89	379.17
486.07	423.64
486.25	435.34
486.43	318.31
486.61	421.30
486.78	454.06
486.96	390.87
487.14	383.85
487.32	397.89
487.50	397.89
487.68	390.87
487.85	416.62
488.03	425.98
488.21	519.60
488.39	383.85
488.57	404.91
488.75	358.10
488.92	519.60
489.10	409.59
489.28	397.89
489.46	393.21
489.64	437.68
489.81	456.40
489.99	402.57
490.17	367.46
490.35	519.60
490.53	330.02
490.70	404.91
490.88	414.27
491.06	400.23
491.24	386.19
491.41	437.68
491.59	421.30
491.77	374.49
491.95	440.02
492.13	374.49
492.30	425.98
492.48	409.59
492.66	454.06
492.84	390.87
493.01	414.27
493.19	447.04
493.37	451.72
493.54	458.74
493.72	409.59
493.90	404.91
494.08	372.15
494.25	433.00
494.43	447.04
494.61	458.74
494.79	442.36
494.96	376.83
495.14	451.72
495.32	409.59
495.49	423.64
495.67	376.83
495.85	348.74
496.02	397.89
496.20	428.32
496.38	390.87
496.55	407.25
496.73	386.19
496.91	330.02
497.09	388.53
497.26	407.25
497.44	449.38
497.62	348.74
497.79	381.51
497.97	395.55
498.14	425.98
498.32	407.25
498.50	388.53
498.67	440.02
498.85	369.80
499.03	358.10
499.20	411.93
499.38	496.19
499.56	472.79
499.73	458.74
499.91	482.15
500.08	418.96
500.26	388.53
500.44	404.91
500.61	470.45
500.79	365.12
500.97	456.40
501.14	425.98
501.32	435.34
501.49	442.36
501.67	416.62
501.84	470.45
502.02	381.51
502.20	444.70
502.37	435.34
502.55	423.64
502.72	397.89
502.90	404.91
503.07	449.38
503.25	393.21
503.43	369.80
503.60	418.96
503.78	435.34
503.95	489.17
504.13	418.96
504.30	423.64
504.48	440.02
504.65	414.27
504.83	470.45
505.01	393.21
505.18	505.56
505.36	421.30
505.53	395.55
505.71	390.87
505.88	428.32
506.06	451.72
506.23	423.64
506.41	444.70
506.58	440.02
506.76	454.06
506.93	437.68
507.11	381.51
507.28	423.64
507.46	402.57
507.63	414.27
507.81	400.23
507.98	416.62
508.16	440.02
508.33	409.59
508.50	390.87
508.68	440.02
508.85	395.55
509.03	353.42
509.20	374.49
509.38	447.04
509.55	383.85
509.73	386.19
509.90	397.89
510.08	414.27
510.25	433.00
510.42	388.53
510.60	442.36
510.77	369.80
510.95	423.64
511.12	433.00
511.30	418.96
511.47	386.19
511.64	444.70
511.82	383.85
511.99	421.30
512.17	332.36
512.34	411.93
512.51	447.04
512.69	369.80
512.86	449.38
513.04	470.45
513.21	390.87
513.38	404.91
513.56	395.55
513.73	472.79
513.90	395.55
514.08	404.91
514.25	458.74
514.43	454.06
514.60	369.80
514.77	414.27
514.95	376.83
515.12	435.34
515.29	383.85
515.47	435.34
515.64	447.04
515.81	463.43
515.99	416.62
516.16	430.66
516.33	367.46
516.51	379.17
516.68	444.70
516.85	376.83
517.03	358.10
517.20	416.62
517.37	433.00
517.54	440.02
517.72	367.46
517.89	416.62
518.06	465.77
518.24	454.06
518.41	454.06
518.58	416.62
518.75	493.85
518.93	423.64
519.10	489.17
519.27	369.80
519.45	440.02
519.62	423.64
519.79	348.74
519.96	388.53
520.14	470.45
520.31	425.98
520.48	414.27
520.65	379.17
520.83	423.64
521.00	383.85
521.17	423.64
521.34	376.83
521.52	416.62
521.69	451.72
521.86	379.17
522.03	372.15
522.20	486.83
522.38	379.17
522.55	414.27
522.72	393.21
522.89	463.43
523.07	435.34
523.24	404.91
523.41	447.04
523.58	484.49
523.75	407.25
523.92	416.62
524.10	400.23
524.27	409.59
524.44	423.64
524.61	325.33
524.78	404.91
524.96	409.59
525.13	360.44
525.30	407.25
525.47	479.81
525.64	463.43
525.81	454.06
525.98	435.34
526.16	477.47
526.33	390.87
526.50	418.96
526.67	416.62
526.84	381.51
527.01	421.30
527.18	465.77
527.36	435.34
527.53	407.25
527.70	470.45
527.87	437.68
528.04	447.04
528.21	362.78
528.38	358.10
528.55	475.13
528.72	484.49
528.89	386.19
529.07	416.62
529.24	458.74
529.41	484.49
529.58	433.00
529.75	397.89
529.92	503.22
530.09	472.79
530.26	465.77
530.43	472.79
530.60	407.25
530.77	411.93
530.94	407.25
531.11	369.80
531.28	304.27
531.46	388.53
531.63	418.96
531.80	395.55
531.97	409.59
532.14	362.78
532.31	388.53
532.48	428.32
532.65	418.96
532.82	397.89
532.99	414.27
533.16	430.66
533.33	383.85
533.50	423.64
533.67	421.30
533.84	374.49
534.01	397.89
534.18	435.34
534.35	486.83
534.52	411.93
534.69	421.30
534.86	393.21
535.03	425.98
535.20	404.91
535.37	465.77
535.54	404.91
535.71	400.23
535.88	433.00
536.05	393.21
536.22	414.27
536.38	383.85
536.55	404.91
536.72	407.25
536.89	379.17
537.06	440.02
537.23	411.93
537.40	449.38
537.57	374.49
537.74	461.09
537.91	451.72
538.08	463.43
538.25	409.59
538.42	395.55
538.59	376.83
538.75	390.87
538.92	358.10
539.09	458.74
539.26	435.34
539.43	437.68
539.60	477.47
539.77	475.13
539.94	374.49
540.11	437.68
540.28	409.59
540.44	437.68
540.61	355.76
540.78	454.06
540.95	411.93
541.12	379.17
541.29	388.53
541.46	409.59
541.62	447.04
541.79	390.87
541.96	407.25
542.13	386.19
542.30	458.74
542.47	381.51
542.63	409.59
542.80	409.59
542.97	421.30
543.14	486.83
543.31	470.45
543.48	447.04
543.64	440.02
543.81	407.25
543.98	376.83
544.15	423.64
544.32	374.49
544.48	435.34
544.65	430.66
544.82	423.64
544.99	440.02
545.16	470.45
545.32	383.85
545.49	496.19
545.66	451.72
545.83	402.57
546.00	374.49
546.16	435.34
546.33	486.83
546.50	435.34
546.67	463.43
546.83	418.96
547.00	393.21
547.17	418.96
547.34	365.12
547.50	400.23
547.67	390.87
547.84	475.13
548.00	465.77
548.17	407.25
548.34	400.23
548.51	449.38
548.67	376.83
548.84	472.79
549.01	430.66
549.18	407.25
549.34	400.23
549.51	362.78
549.68	337.04
549.84	486.83
550.01	400.23
550.18	461.09
550.34	470.45
550.51	454.06
550.68	447.04
550.84	435.34
551.01	435.34
551.18	414.27
551.34	400.23
551.51	393.21
551.68	416.62
551.84	458.74
552.01	337.04
552.18	369.80
552.34	388.53
552.51	411.93
552.68	449.38
552.84	418.96
553.01	461.09
553.18	411.93
553.34	397.89
553.51	425.98
553.67	397.89
553.84	510.24
554.01	418.96
554.17	397.89
554.34	346.40
554.51	360.44
554.67	437.68
554.84	465.77
555.00	442.36
555.17	383.85
555.33	442.36
555.50	482.15
555.67	411.93
555.83	383.85
556.00	404.91
556.16	535.98
556.33	435.34
556.50	400.23
556.66	418.96
556.83	362.78
556.99	458.74
557.16	451.72
557.32	411.93
557.49	440.02
557.65	465.77
557.82	411.93
557.98	416.62
558.15	402.57
558.32	442.36
558.48	353.42
558.65	486.83
558.81	461.09
558.98	456.40
559.14	430.66
559.31	388.53
559.47	442.36
559.64	418.96
559.80	496.19
559.97	512.58
560.13	393.21
560.30	404.91
560.46	404.91
560.63	489.17
560.79	447.04
560.96	411.93
561.12	482.15
561.29	437.68
561.45	402.57
561.61	346.40
561.78	470.45
561.94	433.00
562.11	372.15
562.27	486.83
562.44	475.13
562.60	362.78
562.77	423.64
562.93	451.72
563.10	425.98
563.26	477.47
563.42	423.64
563.59	381.51
563.75	449.38
563.92	498.53
564.08	430.66
564.24	402.57
564.41	407.25
564.57	367.46
564.74	409.59
564.90	411.93
565.07	411.93
565.23	444.70
565.39	479.81
565.56	358.10
565.72	418.96
565.88	379.17
566.05	447.04
566.21	393.21
566.38	421.30
566.54	365.12
566.70	430.66
566.87	437.68
567.03	372.15
567.19	425.98
567.36	437.68
567.52	444.70
567.68	332.36
567.85	451.72
568.01	484.49
568.17	416.62
568.34	390.87
568.50	451.72
568.66	416.62
568.83	451.72
568.99	482.15
569.15	456.40
569.32	383.85
569.48	472.79
569.64	390.87
569.81	411.93
569.97	421.30
570.13	475.13
570.30	449.38
570.46	423.64
570.62	400.23
570.78	379.17
570.95	383.85
571.11	444.70
571.27	465.77
571.43	435.34
571.60	425.98
571.76	449.38
571.92	330.02
572.09	421.30
572.25	407.25
572.41	411.93
572.57	433.00
572.74	491.51
572.90	344.06
573.06	376.83
573.22	477.47
573.38	447.04
573.55	397.89
573.71	435.34
573.87	416.62
574.03	409.59
574.20	425.98
574.36	493.85
574.52	461.09
574.68	430.66
574.84	449.38
575.01	418.96
575.17	458.74
575.33	433.00
575.49	496.19
575.65	437.68
575.82	461.09
575.98	454.06
576.14	402.57
576.30	381.51
576.46	362.78
576.62	468.11
576.79	416.62
576.95	397.89
577.11	393.21
577.27	416.62
577.43	477.47
577.59	416.62
577.75	451.72
577.92	388.53
578.08	386.19
578.24	428.32
578.40	430.66
578.56	470.45
578.72	435.34
578.88	416.62
579.04	332.36
579.21	465.77
579.37	468.11
579.53	440.02
579.69	442.36
579.85	374.49
580.01	425.98
580.17	381.51
580.33	416.62
580.49	444.70
580.65	407.25
580.82	465.77
580.98	402.57
581.14	372.15
581.30	479.81
581.46	482.15
581.62	416.62
581.78	330.02
581.94	472.79
582.10	402.57
582.26	393.21
582.42	423.64
582.58	449.38
582.74	367.46
582.90	418.96
583.06	414.27
583.22	461.09
583.38	404.91
583.54	332.36
583.70	484.49
583.86	393.21
584.02	374.49
584.18	463.43
584.34	435.34
584.50	334.70
584.66	362.78
584.82	402.57
584.98	407.25
585.14	440.02
585.30	477.47
585.46	404.91
585.62	440.02
585.78	435.34
585.94	456.40
586.10	458.74
586.26	430.66
586.42	475.13
586.58	407.25
586.74	351.08
586.90	433.00
587.06	346.40
587.22	444.70
587.38	397.89
587.54	379.17
587.70	418.96
587.86	479.81
588.02	428.32
588.18	442.36
588.34	482.15
588.49	456.40
588.65	381.51
588.81	449.38
588.97	409.59
589.13	414.27
589.29	458.74
589.45	395.55
589.61	358.10
589.77	468.11
589.93	414.27
590.08	327.68
590.24	344.06
590.40	418.96
590.56	454.06
590.72	433.00
590.88	456.40
591.04	470.45
591.20	383.85
591.35	425.98
591.51	414.27
591.67	458.74
591.83	454.06
591.99	423.64
592.15	433.00
592.31	409.59
592.46	397.89
592.62	393.21
592.78	397.89
592.94	400.23
593.10	418.96
593.26	414.27
593.41	463.43
593.57	404.91
593.73	355.76
593.89	433.00
594.05	449.38
594.20	449.38
594.36	379.17
594.52	433.00
594.68	444.70
594.84	425.98
594.99	444.70
595.15	507.90
595.31	454.06
595.47	451.72
595.62	416.62
595.78	388.53
595.94	402.57
596.10	489.17
596.25	430.66
596.41	416.62
596.57	425.98
596.73	374.49
596.88	418.96
597.04	454.06
597.20	428.32
597.36	418.96
597.51	430.66
597.67	411.93
597.83	447.04
597.99	367.46
598.14	416.62
598.30	435.34
598.46	423.64
598.61	395.55
598.77	447.04
598.93	411.93
599.09	416.62
599.24	444.70
599.40	423.64
599.56	425.98
599.71	393.21
599.87	395.55
600.03	430.66
600.18	451.72
600.34	411.93
600.50	402.57
600.65	383.85
600.81	407.25
600.97	369.80
601.12	451.72
601.28	505.56
601.44	423.64
601.59	388.53
601.75	456.40
601.91	402.57
602.06	386.19
602.22	447.04
602.37	437.68
602.53	395.55
602.69	379.17
602.84	442.36
603.00	437.68
603.16	421.30
603.31	437.68
603.47	458.74
603.62	376.83
603.78	430.66
603.94	402.57
604.09	463.43
604.25	458.74
604.40	360.44
604.56	435.34
604.71	475.13
604.87	440.02
605.03	430.66
605.18	447.04
605.34	395.55
605.49	421.30
605.65	428.32
605.80	337.04
605.96	388.53
606.12	440.02
606.27	430.66
606.43	421.30
606.58	482.15
606.74	395.55
606.89	477.47
607.05	430.66
607.20	440.02
607.36	456.40
607.51	470.45
607.67	404.91
607.82	379.17
607.98	496.19
608.13	411.93
608.29	468.11
608.44	404.91
608.60	404.91
608.75	484.49
608.91	409.59
609.06	428.32
609.22	395.55
609.37	362.78
609.53	367.46
609.68	374.49
609.84	477.47
609.99	428.32
610.15	461.09
