SpectraSuite Data File
++++++++++++++++++++++++++++++++++++
Date: Fri Oct 25 12:11:36 EDT 2013
User: price-jones
Dark Spectrum Present: No
Reference Spectrum Present: No
Number of Sampled Component Spectra: 1
Spectrometers: USB2+H05261
Integration Time (usec): 100000 (USB2+H05261)
Spectra Averaged: 1 (USB2+H05261)
Boxcar Smoothing: 0 (USB2+H05261)
Correct for Electrical Dark: No (USB2+H05261)
Strobe/Lamp Enabled: No (USB2+H05261)
Correct for Detector Non-linearity: No (USB2+H05261)
Correct for Stray Light: No (USB2+H05261)
Number of Pixels in Processed Spectrum: 2048
>>>>>Begin Processed Spectral Data<<<<<
365.73	337.04
365.92	337.04
366.12	337.04
366.32	318.31
366.52	203.63
366.72	257.46
366.91	180.22
367.11	208.31
367.31	252.78
367.51	224.69
367.70	276.18
367.90	264.48
368.10	243.42
368.30	243.42
368.49	271.50
368.69	191.92
368.89	273.84
369.09	259.80
369.28	243.42
369.48	308.95
369.68	276.18
369.87	285.55
370.07	259.80
370.27	334.70
370.47	318.31
370.66	383.85
370.86	407.25
371.06	409.59
371.25	425.98
371.45	301.93
371.65	395.55
371.84	348.74
372.04	346.40
372.24	386.19
372.44	397.89
372.63	388.53
372.83	437.68
373.03	372.15
373.22	395.55
373.42	440.02
373.62	430.66
373.81	477.47
374.01	404.91
374.21	477.47
374.40	428.32
374.60	465.77
374.79	332.36
374.99	348.74
375.19	388.53
375.38	351.08
375.58	386.19
375.78	454.06
375.97	435.34
376.17	461.09
376.37	411.93
376.56	400.23
376.76	430.66
376.95	411.93
377.15	442.36
377.35	421.30
377.54	454.06
377.74	393.21
377.93	404.91
378.13	430.66
378.33	503.22
378.52	381.51
378.72	383.85
378.91	437.68
379.11	461.09
379.31	407.25
379.50	379.17
379.70	353.42
379.89	430.66
380.09	383.85
380.28	365.12
380.48	444.70
380.68	449.38
380.87	367.46
381.07	421.30
381.26	421.30
381.46	482.15
381.65	451.72
381.85	395.55
382.04	330.02
382.24	381.51
382.43	423.64
382.63	444.70
382.83	430.66
383.02	486.83
383.22	407.25
383.41	360.44
383.61	465.77
383.80	475.13
384.00	390.87
384.19	449.38
384.39	472.79
384.58	421.30
384.78	468.11
384.97	421.30
385.17	407.25
385.36	360.44
385.56	358.10
385.75	414.27
385.95	334.70
386.14	402.57
386.34	374.49
386.53	447.04
386.72	365.12
386.92	435.34
387.11	416.62
387.31	355.76
387.50	428.32
387.70	353.42
387.89	472.79
388.09	372.15
388.28	402.57
388.48	374.49
388.67	470.45
388.86	409.59
389.06	418.96
389.25	482.15
389.45	418.96
389.64	423.64
389.84	388.53
390.03	383.85
390.22	372.15
390.42	449.38
390.61	341.72
390.81	404.91
391.00	365.12
391.19	395.55
391.39	381.51
391.58	472.79
391.78	416.62
391.97	407.25
392.16	362.78
392.36	402.57
392.55	404.91
392.75	421.30
392.94	372.15
393.13	381.51
393.33	414.27
393.52	348.74
393.71	454.06
393.91	416.62
394.10	393.21
394.29	355.76
394.49	388.53
394.68	449.38
394.88	372.15
395.07	390.87
395.26	421.30
395.46	404.91
395.65	355.76
395.84	433.00
396.04	470.45
396.23	365.12
396.42	451.72
396.62	372.15
396.81	433.00
397.00	386.19
397.19	418.96
397.39	334.70
397.58	423.64
397.77	351.08
397.97	362.78
398.16	414.27
398.35	428.32
398.55	362.78
398.74	362.78
398.93	388.53
399.12	411.93
399.32	440.02
399.51	437.68
399.70	447.04
399.90	407.25
400.09	404.91
400.28	437.68
400.47	386.19
400.67	440.02
400.86	374.49
401.05	414.27
401.24	407.25
401.44	400.23
401.63	440.02
401.82	362.78
402.01	367.46
402.21	411.93
402.40	440.02
402.59	330.02
402.78	418.96
402.97	425.98
403.17	433.00
403.36	402.57
403.55	416.62
403.74	379.17
403.93	442.36
404.13	402.57
404.32	418.96
404.51	411.93
404.70	423.64
404.89	365.12
405.09	388.53
405.28	339.38
405.47	454.06
405.66	451.72
405.85	404.91
406.05	411.93
406.24	376.83
406.43	355.76
406.62	409.59
406.81	493.85
407.00	447.04
407.20	428.32
407.39	388.53
407.58	332.36
407.77	435.34
407.96	425.98
408.15	386.19
408.34	458.74
408.54	423.64
408.73	409.59
408.92	458.74
409.11	409.59
409.30	482.15
409.49	435.34
409.68	386.19
409.87	423.64
410.07	433.00
410.26	418.96
410.45	393.21
410.64	365.12
410.83	362.78
411.02	416.62
411.21	362.78
411.40	458.74
411.59	425.98
411.78	404.91
411.98	404.91
412.17	397.89
412.36	484.49
412.55	402.57
412.74	430.66
412.93	409.59
413.12	461.09
413.31	397.89
413.50	388.53
413.69	425.98
413.88	440.02
414.07	395.55
414.26	393.21
414.45	407.25
414.64	388.53
414.83	425.98
415.02	386.19
415.22	418.96
415.41	454.06
415.60	397.89
415.79	390.87
415.98	369.80
416.17	372.15
416.36	344.06
416.55	472.79
416.74	458.74
416.93	444.70
417.12	458.74
417.31	393.21
417.50	367.46
417.69	482.15
417.88	362.78
418.07	320.65
418.26	360.44
418.45	400.23
418.64	374.49
418.83	458.74
419.02	400.23
419.21	397.89
419.39	463.43
419.58	395.55
419.77	395.55
419.96	447.04
420.15	435.34
420.34	484.49
420.53	386.19
420.72	447.04
420.91	355.76
421.10	418.96
421.29	404.91
421.48	425.98
421.67	376.83
421.86	433.00
422.05	407.25
422.24	407.25
422.43	334.70
422.61	367.46
422.80	285.55
422.99	355.76
423.18	456.40
423.37	383.85
423.56	433.00
423.75	390.87
423.94	454.06
424.13	409.59
424.32	383.85
424.50	416.62
424.69	472.79
424.88	423.64
425.07	388.53
425.26	390.87
425.45	416.62
425.64	421.30
425.83	372.15
426.01	463.43
426.20	416.62
426.39	369.80
426.58	486.83
426.77	416.62
426.96	395.55
427.15	421.30
427.33	514.92
427.52	437.68
427.71	369.80
427.90	393.21
428.09	433.00
428.28	430.66
428.46	482.15
428.65	423.64
428.84	358.10
429.03	430.66
429.22	430.66
429.40	458.74
429.59	388.53
429.78	322.99
429.97	411.93
430.16	383.85
430.34	379.17
430.53	355.76
430.72	421.30
430.91	414.27
431.10	383.85
431.28	418.96
431.47	447.04
431.66	437.68
431.85	297.25
432.03	468.11
432.22	451.72
432.41	383.85
432.60	447.04
432.79	440.02
432.97	468.11
433.16	348.74
433.35	414.27
433.54	409.59
433.72	451.72
433.91	472.79
434.10	395.55
434.28	358.10
434.47	458.74
434.66	348.74
434.85	433.00
435.03	451.72
435.22	367.46
435.41	449.38
435.59	425.98
435.78	388.53
435.97	430.66
436.16	397.89
436.34	411.93
436.53	421.30
436.72	395.55
436.90	416.62
437.09	444.70
437.28	369.80
437.46	449.38
437.65	437.68
437.84	442.36
438.02	440.02
438.21	463.43
438.40	489.17
438.58	423.64
438.77	400.23
438.96	442.36
439.14	449.38
439.33	423.64
439.52	454.06
439.70	407.25
439.89	416.62
440.08	397.89
440.26	409.59
440.45	465.77
440.63	447.04
440.82	425.98
441.01	411.93
441.19	493.85
441.38	351.08
441.57	404.91
441.75	512.58
441.94	421.30
442.12	416.62
442.31	372.15
442.50	454.06
442.68	353.42
442.87	423.64
443.05	388.53
443.24	365.12
443.43	416.62
443.61	451.72
443.80	390.87
443.98	381.51
444.17	388.53
444.35	428.32
444.54	353.42
444.73	470.45
444.91	498.53
445.10	437.68
445.28	451.72
445.47	400.23
445.65	425.98
445.84	381.51
446.02	367.46
446.21	393.21
446.39	444.70
446.58	414.27
446.77	351.08
446.95	320.65
447.14	454.06
447.32	451.72
447.51	337.04
447.69	400.23
447.88	456.40
448.06	470.45
448.25	442.36
448.43	388.53
448.62	409.59
448.80	414.27
448.99	447.04
449.17	388.53
449.36	376.83
449.54	414.27
449.73	315.97
449.91	411.93
450.10	372.15
450.28	430.66
450.46	472.79
450.65	414.27
450.83	395.55
451.02	437.68
451.20	383.85
451.39	425.98
451.57	388.53
451.76	416.62
451.94	456.40
452.13	447.04
452.31	486.83
452.49	390.87
452.68	383.85
452.86	358.10
453.05	447.04
453.23	409.59
453.42	411.93
453.60	407.25
453.78	458.74
453.97	442.36
454.15	444.70
454.34	395.55
454.52	376.83
454.70	517.26
454.89	442.36
455.07	400.23
455.26	510.24
455.44	386.19
455.62	418.96
455.81	400.23
455.99	472.79
456.17	397.89
456.36	414.27
456.54	362.78
456.73	355.76
456.91	397.89
457.09	437.68
457.28	437.68
457.46	416.62
457.64	477.47
457.83	421.30
458.01	374.49
458.19	414.27
458.38	374.49
458.56	404.91
458.74	388.53
458.93	451.72
459.11	477.47
459.29	386.19
459.48	430.66
459.66	498.53
459.84	458.74
460.03	449.38
460.21	351.08
460.39	454.06
460.57	372.15
460.76	402.57
460.94	423.64
461.12	491.51
461.31	428.32
461.49	447.04
461.67	355.76
461.85	470.45
462.04	390.87
462.22	760.67
462.40	507.90
462.59	437.68
462.77	353.42
462.95	393.21
463.13	397.89
463.32	463.43
463.50	416.62
463.68	425.98
463.86	395.55
464.05	440.02
464.23	475.13
464.41	379.17
464.59	362.78
464.78	435.34
464.96	351.08
465.14	416.62
465.32	444.70
465.50	437.68
465.69	407.25
465.87	383.85
466.05	414.27
466.23	395.55
466.41	477.47
466.60	440.02
466.78	421.30
466.96	458.74
467.14	423.64
467.32	423.64
467.51	444.70
467.69	433.00
467.87	503.22
468.05	510.24
468.23	440.02
468.41	421.30
468.60	442.36
468.78	393.21
468.96	493.85
469.14	463.43
469.32	301.93
469.50	379.17
469.69	374.49
469.87	334.70
470.05	411.93
470.23	423.64
470.41	430.66
470.59	362.78
470.77	390.87
470.95	397.89
471.14	433.00
471.32	421.30
471.50	437.68
471.68	418.96
471.86	397.89
472.04	407.25
472.22	456.40
472.40	416.62
472.58	416.62
472.77	458.74
472.95	341.72
473.13	411.93
473.31	433.00
473.49	386.19
473.67	390.87
473.85	451.72
474.03	433.00
474.21	477.47
474.39	472.79
474.57	437.68
474.75	348.74
474.93	428.32
475.12	383.85
475.30	425.98
475.48	430.66
475.66	416.62
475.84	409.59
476.02	397.89
476.20	416.62
476.38	444.70
476.56	458.74
476.74	433.00
476.92	437.68
477.10	416.62
477.28	496.19
477.46	437.68
477.64	463.43
477.82	393.21
478.00	489.17
478.18	411.93
478.36	374.49
478.54	397.89
478.72	409.59
478.90	414.27
479.08	425.98
479.26	397.89
479.44	491.51
479.62	428.32
479.80	425.98
479.98	444.70
480.16	374.49
480.34	388.53
480.52	440.02
480.70	440.02
480.88	367.46
481.06	346.40
481.24	397.89
481.41	381.51
481.59	407.25
481.77	381.51
481.95	416.62
482.13	418.96
482.31	400.23
482.49	400.23
482.67	423.64
482.85	447.04
483.03	379.17
483.21	386.19
483.39	379.17
483.57	407.25
483.74	444.70
483.92	393.21
484.10	379.17
484.28	440.02
484.46	369.80
484.64	428.32
484.82	400.23
485.00	362.78
485.18	414.27
485.35	423.64
485.53	386.19
485.71	393.21
485.89	411.93
486.07	428.32
486.25	440.02
486.43	472.79
486.61	423.64
486.78	421.30
486.96	444.70
487.14	423.64
487.32	404.91
487.50	468.11
487.68	437.68
487.85	468.11
488.03	440.02
488.21	400.23
488.39	435.34
488.57	440.02
488.75	437.68
488.92	454.06
489.10	407.25
489.28	482.15
489.46	407.25
489.64	386.19
489.81	442.36
489.99	430.66
490.17	440.02
490.35	489.17
490.53	379.17
490.70	433.00
490.88	388.53
491.06	449.38
491.24	475.13
491.41	458.74
491.59	397.89
491.77	435.34
491.95	351.08
492.13	433.00
492.30	362.78
492.48	393.21
492.66	402.57
492.84	442.36
493.01	437.68
493.19	358.10
493.37	369.80
493.54	435.34
493.72	407.25
493.90	416.62
494.08	376.83
494.25	435.34
494.43	421.30
494.61	437.68
494.79	416.62
494.96	362.78
495.14	456.40
495.32	388.53
495.49	440.02
495.67	433.00
495.85	404.91
496.02	376.83
496.20	433.00
496.38	468.11
496.55	402.57
496.73	416.62
496.91	425.98
497.09	475.13
497.26	388.53
497.44	425.98
497.62	395.55
497.79	418.96
497.97	402.57
498.14	390.87
498.32	400.23
498.50	383.85
498.67	367.46
498.85	458.74
499.03	327.68
499.20	486.83
499.38	372.15
499.56	388.53
499.73	484.49
499.91	486.83
500.08	475.13
500.26	428.32
500.44	437.68
500.61	433.00
500.79	472.79
500.97	479.81
501.14	447.04
501.32	409.59
501.49	533.64
501.67	423.64
501.84	402.57
502.02	395.55
502.20	402.57
502.37	393.21
502.55	383.85
502.72	365.12
502.90	409.59
503.07	358.10
503.25	404.91
503.43	334.70
503.60	402.57
503.78	404.91
503.95	414.27
504.13	400.23
504.30	463.43
504.48	402.57
504.65	416.62
504.83	418.96
505.01	365.12
505.18	400.23
505.36	376.83
505.53	372.15
505.71	402.57
505.88	414.27
506.06	418.96
506.23	435.34
506.41	428.32
506.58	369.80
506.76	440.02
506.93	358.10
507.11	393.21
507.28	390.87
507.46	428.32
507.63	418.96
507.81	358.10
507.98	430.66
508.16	407.25
508.33	367.46
508.50	330.02
508.68	444.70
508.85	498.53
509.03	362.78
509.20	421.30
509.38	367.46
509.55	482.15
509.73	482.15
509.90	433.00
510.08	440.02
510.25	500.87
510.42	411.93
510.60	393.21
510.77	447.04
510.95	416.62
511.12	430.66
511.30	449.38
511.47	454.06
511.64	533.64
511.82	458.74
511.99	367.46
512.17	400.23
512.34	411.93
512.51	376.83
512.69	397.89
512.86	465.77
513.04	416.62
513.21	351.08
513.38	425.98
513.56	421.30
513.73	393.21
513.90	430.66
514.08	386.19
514.25	409.59
514.43	400.23
514.60	416.62
514.77	409.59
514.95	444.70
515.12	437.68
515.29	435.34
515.47	435.34
515.64	414.27
515.81	402.57
515.99	456.40
516.16	404.91
516.33	489.17
516.51	447.04
516.68	409.59
516.85	477.47
517.03	395.55
517.20	407.25
517.37	367.46
517.54	407.25
517.72	400.23
517.89	423.64
518.06	383.85
518.24	503.22
518.41	449.38
518.58	404.91
518.75	404.91
518.93	388.53
519.10	433.00
519.27	440.02
519.45	423.64
519.62	435.34
519.79	482.15
519.96	362.78
520.14	418.96
520.31	365.12
520.48	428.32
520.65	475.13
520.83	491.51
521.00	447.04
521.17	402.57
521.34	367.46
521.52	463.43
521.69	433.00
521.86	395.55
522.03	463.43
522.20	475.13
522.38	360.44
522.55	369.80
522.72	348.74
522.89	393.21
523.07	411.93
523.24	430.66
523.41	503.22
523.58	383.85
523.75	339.38
523.92	418.96
524.10	507.90
524.27	461.09
524.44	337.04
524.61	458.74
524.78	383.85
524.96	386.19
525.13	397.89
525.30	461.09
525.47	440.02
525.64	428.32
525.81	421.30
525.98	496.19
526.16	458.74
526.33	407.25
526.50	430.66
526.67	449.38
526.84	393.21
527.01	402.57
527.18	402.57
527.36	440.02
527.53	379.17
527.70	397.89
527.87	421.30
528.04	421.30
528.21	383.85
528.38	390.87
528.55	437.68
528.72	437.68
528.89	477.47
529.07	444.70
529.24	447.04
529.41	479.81
529.58	367.46
529.75	461.09
529.92	437.68
530.09	421.30
530.26	351.08
530.43	381.51
530.60	447.04
530.77	425.98
530.94	470.45
531.11	407.25
531.28	376.83
531.46	332.36
531.63	372.15
531.80	418.96
531.97	458.74
532.14	404.91
532.31	433.00
532.48	479.81
532.65	388.53
532.82	418.96
532.99	468.11
533.16	407.25
533.33	353.42
533.50	395.55
533.67	430.66
533.84	423.64
534.01	428.32
534.18	440.02
534.35	482.15
534.52	400.23
534.69	470.45
534.86	414.27
535.03	430.66
535.20	465.77
535.37	486.83
535.54	418.96
535.71	400.23
535.88	440.02
536.05	458.74
536.22	517.26
536.38	393.21
536.55	421.30
536.72	388.53
536.89	379.17
537.06	388.53
537.23	503.22
537.40	390.87
537.57	440.02
537.74	489.17
537.91	365.12
538.08	458.74
538.25	390.87
538.42	447.04
538.59	374.49
538.75	440.02
538.92	423.64
539.09	489.17
539.26	425.98
539.43	484.49
539.60	402.57
539.77	397.89
539.94	388.53
540.11	409.59
540.28	447.04
540.44	433.00
540.61	409.59
540.78	475.13
540.95	411.93
541.12	437.68
541.29	416.62
541.46	475.13
541.62	435.34
541.79	404.91
541.96	418.96
542.13	367.46
542.30	397.89
542.47	468.11
542.63	435.34
542.80	456.40
542.97	407.25
543.14	477.47
543.31	435.34
543.48	430.66
543.64	341.72
543.81	379.17
543.98	451.72
544.15	395.55
544.32	470.45
544.48	393.21
544.65	390.87
544.82	465.77
544.99	416.62
545.16	433.00
545.32	388.53
545.49	423.64
545.66	386.19
545.83	433.00
546.00	444.70
546.16	416.62
546.33	379.17
546.50	393.21
546.67	489.17
546.83	435.34
547.00	447.04
547.17	379.17
547.34	386.19
547.50	393.21
547.67	447.04
547.84	470.45
548.00	484.49
548.17	491.51
548.34	451.72
548.51	430.66
548.67	407.25
548.84	449.38
549.01	414.27
549.18	416.62
549.34	444.70
549.51	437.68
549.68	372.15
549.84	442.36
550.01	386.19
550.18	470.45
550.34	442.36
550.51	425.98
550.68	456.40
550.84	463.43
551.01	381.51
551.18	407.25
551.34	428.32
551.51	447.04
551.68	386.19
551.84	493.85
552.01	447.04
552.18	397.89
552.34	404.91
552.51	388.53
552.68	390.87
552.84	367.46
553.01	425.98
553.18	409.59
553.34	433.00
553.51	351.08
553.67	425.98
553.84	491.51
554.01	400.23
554.17	379.17
554.34	372.15
554.51	416.62
554.67	454.06
554.84	433.00
555.00	486.83
555.17	418.96
555.33	402.57
555.50	395.55
555.67	475.13
555.83	416.62
556.00	407.25
556.16	587.47
556.33	456.40
556.50	278.52
556.66	421.30
556.83	498.53
556.99	376.83
557.16	393.21
557.32	390.87
557.49	423.64
557.65	367.46
557.82	390.87
557.98	416.62
558.15	358.10
558.32	414.27
558.48	416.62
558.65	409.59
558.81	395.55
558.98	346.40
559.14	465.77
559.31	369.80
559.47	437.68
559.64	341.72
559.80	442.36
559.97	430.66
560.13	390.87
560.30	393.21
560.46	407.25
560.63	433.00
560.79	425.98
560.96	411.93
561.12	390.87
561.29	437.68
561.45	404.91
561.61	472.79
561.78	430.66
561.94	397.89
562.11	374.49
562.27	461.09
562.44	360.44
562.60	397.89
562.77	468.11
562.93	507.90
563.10	444.70
563.26	418.96
563.42	449.38
563.59	409.59
563.75	435.34
563.92	463.43
564.08	454.06
564.24	447.04
564.41	440.02
564.57	430.66
564.74	486.83
564.90	425.98
565.07	416.62
565.23	440.02
565.39	458.74
565.56	440.02
565.72	414.27
565.88	395.55
566.05	383.85
566.21	404.91
566.38	468.11
566.54	440.02
566.70	470.45
566.87	456.40
567.03	348.74
567.19	433.00
567.36	414.27
567.52	482.15
567.68	421.30
567.85	322.99
568.01	381.51
568.17	425.98
568.34	390.87
568.50	447.04
568.66	376.83
568.83	470.45
568.99	418.96
569.15	421.30
569.32	388.53
569.48	376.83
569.64	409.59
569.81	416.62
569.97	348.74
570.13	416.62
570.30	447.04
570.46	456.40
570.62	376.83
570.78	411.93
570.95	435.34
571.11	489.17
571.27	519.60
571.43	355.76
571.60	407.25
571.76	374.49
571.92	444.70
572.09	395.55
572.25	407.25
572.41	430.66
572.57	461.09
572.74	489.17
572.90	437.68
573.06	435.34
573.22	390.87
573.38	407.25
573.55	411.93
573.71	421.30
573.87	421.30
574.03	430.66
574.20	421.30
574.36	433.00
574.52	437.68
574.68	425.98
574.84	440.02
575.01	395.55
575.17	472.79
575.33	362.78
575.49	447.04
575.65	437.68
575.82	498.53
575.98	479.81
576.14	449.38
576.30	376.83
576.46	383.85
576.62	444.70
576.79	423.64
576.95	416.62
577.11	402.57
577.27	423.64
577.43	390.87
577.59	390.87
577.75	423.64
577.92	404.91
578.08	362.78
578.24	404.91
578.40	360.44
578.56	430.66
578.72	449.38
578.88	395.55
579.04	383.85
579.21	393.21
579.37	381.51
579.53	397.89
579.69	388.53
579.85	393.21
580.01	472.79
580.17	362.78
580.33	332.36
580.49	411.93
580.65	425.98
580.82	444.70
580.98	395.55
581.14	402.57
581.30	440.02
581.46	362.78
581.62	428.32
581.78	346.40
581.94	400.23
582.10	433.00
582.26	444.70
582.42	433.00
582.58	447.04
582.74	454.06
582.90	402.57
583.06	404.91
583.22	379.17
583.38	428.32
583.54	381.51
583.70	383.85
583.86	346.40
584.02	447.04
584.18	437.68
584.34	397.89
584.50	379.17
584.66	416.62
584.82	444.70
584.98	468.11
585.14	404.91
585.30	402.57
585.46	418.96
585.62	407.25
585.78	421.30
585.94	386.19
586.10	369.80
586.26	376.83
586.42	437.68
586.58	411.93
586.74	461.09
586.90	486.83
587.06	386.19
587.22	421.30
587.38	437.68
587.54	393.21
587.70	421.30
587.86	353.42
588.02	465.77
588.18	409.59
588.34	393.21
588.49	374.49
588.65	418.96
588.81	435.34
588.97	447.04
589.13	430.66
589.29	423.64
589.45	423.64
589.61	358.10
589.77	425.98
589.93	414.27
590.08	397.89
590.24	369.80
590.40	461.09
590.56	318.31
590.72	395.55
590.88	395.55
591.04	400.23
591.20	421.30
591.35	407.25
591.51	428.32
591.67	369.80
591.83	435.34
591.99	451.72
592.15	414.27
592.31	425.98
592.46	414.27
592.62	435.34
592.78	423.64
592.94	400.23
593.10	393.21
593.26	400.23
593.41	404.91
593.57	304.27
593.73	386.19
593.89	444.70
594.05	362.78
594.20	418.96
594.36	454.06
594.52	477.47
594.68	369.80
594.84	440.02
594.99	418.96
595.15	411.93
595.31	400.23
595.47	411.93
595.62	388.53
595.78	414.27
595.94	367.46
596.10	386.19
596.25	388.53
596.41	461.09
596.57	428.32
596.73	414.27
596.88	402.57
597.04	444.70
597.20	491.51
597.36	360.44
597.51	430.66
597.67	428.32
597.83	372.15
597.99	423.64
598.14	381.51
598.30	447.04
598.46	397.89
598.61	503.22
598.77	369.80
598.93	468.11
599.09	409.59
599.24	388.53
599.40	447.04
599.56	395.55
599.71	416.62
599.87	421.30
600.03	409.59
600.18	400.23
600.34	440.02
600.50	379.17
600.65	433.00
600.81	435.34
600.97	421.30
601.12	388.53
601.28	484.49
601.44	418.96
601.59	414.27
601.75	447.04
601.91	365.12
602.06	393.21
602.22	402.57
602.37	372.15
602.53	395.55
602.69	411.93
602.84	402.57
603.00	423.64
603.16	451.72
603.31	365.12
603.47	425.98
603.62	381.51
603.78	355.76
603.94	486.83
604.09	437.68
604.25	486.83
604.40	395.55
604.56	458.74
604.71	407.25
604.87	456.40
605.03	435.34
605.18	393.21
605.34	458.74
605.49	477.47
605.65	374.49
605.80	416.62
605.96	358.10
606.12	479.81
606.27	411.93
606.43	397.89
606.58	465.77
606.74	425.98
606.89	404.91
607.05	407.25
607.20	440.02
607.36	383.85
607.51	388.53
607.67	461.09
607.82	461.09
607.98	486.83
608.13	425.98
608.29	395.55
608.44	416.62
608.60	489.17
608.75	402.57
608.91	416.62
609.06	465.77
609.22	397.89
609.37	351.08
609.53	358.10
609.68	418.96
609.84	479.81
609.99	362.78
610.15	435.34
