SpectraSuite Data File
++++++++++++++++++++++++++++++++++++
Date: Fri Oct 25 12:10:27 EDT 2013
User: price-jones
Dark Spectrum Present: No
Reference Spectrum Present: No
Number of Sampled Component Spectra: 1
Spectrometers: USB2+H05261
Integration Time (usec): 100000 (USB2+H05261)
Spectra Averaged: 1 (USB2+H05261)
Boxcar Smoothing: 0 (USB2+H05261)
Correct for Electrical Dark: No (USB2+H05261)
Strobe/Lamp Enabled: No (USB2+H05261)
Correct for Detector Non-linearity: No (USB2+H05261)
Correct for Stray Light: No (USB2+H05261)
Number of Pixels in Processed Spectrum: 2048
>>>>>Begin Processed Spectral Data<<<<<
365.73	325.33
365.92	325.33
366.12	325.33
366.32	304.27
366.52	217.67
366.72	238.73
366.91	264.48
367.11	184.90
367.31	168.52
367.51	227.03
367.70	266.82
367.90	236.39
368.10	248.10
368.30	264.48
368.49	259.80
368.69	238.73
368.89	292.57
369.09	198.95
369.28	245.76
369.48	285.55
369.68	330.02
369.87	304.27
370.07	369.80
370.27	348.74
370.47	437.68
370.66	325.33
370.86	348.74
371.06	341.72
371.25	355.76
371.45	346.40
371.65	341.72
371.84	315.97
372.04	425.98
372.24	388.53
372.44	351.08
372.63	395.55
372.83	393.21
373.03	428.32
373.22	320.65
373.42	395.55
373.62	393.21
373.81	468.11
374.01	463.43
374.21	447.04
374.40	346.40
374.60	451.72
374.79	442.36
374.99	390.87
375.19	374.49
375.38	425.98
375.58	332.36
375.78	353.42
375.97	451.72
376.17	468.11
376.37	423.64
376.56	430.66
376.76	348.74
376.95	381.51
377.15	461.09
377.35	376.83
377.54	489.17
377.74	351.08
377.93	379.17
378.13	444.70
378.33	461.09
378.52	372.15
378.72	351.08
378.91	344.06
379.11	472.79
379.31	381.51
379.50	400.23
379.70	416.62
379.89	498.53
380.09	365.12
380.28	379.17
380.48	407.25
380.68	381.51
380.87	379.17
381.07	397.89
381.26	435.34
381.46	358.10
381.65	451.72
381.85	367.46
382.04	425.98
382.24	416.62
382.43	458.74
382.63	379.17
382.83	440.02
383.02	411.93
383.22	360.44
383.41	365.12
383.61	353.42
383.80	407.25
384.00	372.15
384.19	339.38
384.39	397.89
384.58	376.83
384.78	416.62
384.97	425.98
385.17	409.59
385.36	341.72
385.56	402.57
385.75	407.25
385.95	411.93
386.14	400.23
386.34	372.15
386.53	456.40
386.72	360.44
386.92	430.66
387.11	433.00
387.31	402.57
387.50	402.57
387.70	407.25
387.89	433.00
388.09	397.89
388.28	425.98
388.48	390.87
388.67	388.53
388.86	435.34
389.06	334.70
389.25	318.31
389.45	390.87
389.64	365.12
389.84	416.62
390.03	381.51
390.22	390.87
390.42	362.78
390.61	360.44
390.81	362.78
391.00	402.57
391.19	447.04
391.39	447.04
391.58	454.06
391.78	353.42
391.97	358.10
392.16	428.32
392.36	379.17
392.55	472.79
392.75	381.51
392.94	465.77
393.13	404.91
393.33	383.85
393.52	397.89
393.71	379.17
393.91	449.38
394.10	365.12
394.29	386.19
394.49	437.68
394.68	433.00
394.88	451.72
395.07	425.98
395.26	397.89
395.46	407.25
395.65	421.30
395.84	411.93
396.04	463.43
396.23	388.53
396.42	418.96
396.62	379.17
396.81	437.68
397.00	437.68
397.19	341.72
397.39	362.78
397.58	418.96
397.77	386.19
397.97	388.53
398.16	442.36
398.35	425.98
398.55	386.19
398.74	423.64
398.93	376.83
399.12	458.74
399.32	449.38
399.51	306.61
399.70	468.11
399.90	428.32
400.09	386.19
400.28	433.00
400.47	379.17
400.67	449.38
400.86	409.59
401.05	376.83
401.24	383.85
401.44	433.00
401.63	360.44
401.82	409.59
402.01	358.10
402.21	463.43
402.40	416.62
402.59	393.21
402.78	451.72
402.97	365.12
403.17	423.64
403.36	416.62
403.55	383.85
403.74	388.53
403.93	355.76
404.13	437.68
404.32	334.70
404.51	334.70
404.70	388.53
404.89	374.49
405.09	379.17
405.28	367.46
405.47	376.83
405.66	369.80
405.85	418.96
406.05	407.25
406.24	341.72
406.43	376.83
406.62	383.85
406.81	414.27
407.00	444.70
407.20	327.68
407.39	409.59
407.58	425.98
407.77	440.02
407.96	435.34
408.15	367.46
408.34	393.21
408.54	346.40
408.73	320.65
408.92	386.19
409.11	393.21
409.30	409.59
409.49	376.83
409.68	390.87
409.87	400.23
410.07	416.62
410.26	514.92
410.45	332.36
410.64	320.65
410.83	374.49
411.02	470.45
411.21	372.15
411.40	390.87
411.59	404.91
411.78	348.74
411.98	444.70
412.17	454.06
412.36	374.49
412.55	395.55
412.74	376.83
412.93	374.49
413.12	322.99
413.31	484.49
413.50	451.72
413.69	379.17
413.88	423.64
414.07	372.15
414.26	397.89
414.45	372.15
414.64	400.23
414.83	468.11
415.02	348.74
415.22	334.70
415.41	369.80
415.60	379.17
415.79	482.15
415.98	468.11
416.17	390.87
416.36	379.17
416.55	465.77
416.74	433.00
416.93	404.91
417.12	468.11
417.31	397.89
417.50	341.72
417.69	411.93
417.88	353.42
418.07	407.25
418.26	433.00
418.45	468.11
418.64	400.23
418.83	472.79
419.02	437.68
419.21	404.91
419.39	395.55
419.58	393.21
419.77	449.38
419.96	447.04
420.15	337.04
420.34	397.89
420.53	430.66
420.72	409.59
420.91	416.62
421.10	411.93
421.29	430.66
421.48	327.68
421.67	451.72
421.86	416.62
422.05	332.36
422.24	344.06
422.43	444.70
422.61	393.21
422.80	369.80
422.99	386.19
423.18	423.64
423.37	454.06
423.56	386.19
423.75	430.66
423.94	372.15
424.13	353.42
424.32	425.98
424.50	463.43
424.69	395.55
424.88	456.40
425.07	428.32
425.26	397.89
425.45	470.45
425.64	433.00
425.83	440.02
426.01	407.25
426.20	362.78
426.39	348.74
426.58	381.51
426.77	383.85
426.96	463.43
427.15	376.83
427.33	400.23
427.52	383.85
427.71	381.51
427.90	358.10
428.09	390.87
428.28	355.76
428.46	472.79
428.65	465.77
428.84	388.53
429.03	393.21
429.22	416.62
429.40	351.08
429.59	383.85
429.78	376.83
429.97	402.57
430.16	374.49
430.34	421.30
430.53	360.44
430.72	386.19
430.91	461.09
431.10	381.51
431.28	397.89
431.47	454.06
431.66	430.66
431.85	437.68
432.03	365.12
432.22	388.53
432.41	444.70
432.60	374.49
432.79	454.06
432.97	388.53
433.16	404.91
433.35	390.87
433.54	379.17
433.72	430.66
433.91	421.30
434.10	360.44
434.28	404.91
434.47	456.40
434.66	447.04
434.85	421.30
435.03	390.87
435.22	454.06
435.41	498.53
435.59	437.68
435.78	470.45
435.97	393.21
436.16	374.49
436.34	411.93
436.53	379.17
436.72	454.06
436.90	440.02
437.09	421.30
437.28	433.00
437.46	402.57
437.65	423.64
437.84	388.53
438.02	369.80
438.21	449.38
438.40	407.25
438.58	416.62
438.77	442.36
438.96	379.17
439.14	388.53
439.33	477.47
439.52	376.83
439.70	418.96
439.89	386.19
440.08	360.44
440.26	348.74
440.45	510.24
440.63	369.80
440.82	416.62
441.01	465.77
441.19	402.57
441.38	367.46
441.57	428.32
441.75	425.98
441.94	444.70
442.12	442.36
442.31	435.34
442.50	379.17
442.68	337.04
442.87	449.38
443.05	418.96
443.24	411.93
443.43	528.96
443.61	409.59
443.80	400.23
443.98	402.57
444.17	379.17
444.35	325.33
444.54	421.30
444.73	393.21
444.91	465.77
445.10	425.98
445.28	465.77
445.47	395.55
445.65	423.64
445.84	430.66
446.02	372.15
446.21	428.32
446.39	402.57
446.58	402.57
446.77	414.27
446.95	379.17
447.14	358.10
447.32	468.11
447.51	330.02
447.69	337.04
447.88	376.83
448.06	482.15
448.25	428.32
448.43	486.83
448.62	362.78
448.80	456.40
448.99	395.55
449.17	407.25
449.36	458.74
449.54	411.93
449.73	447.04
449.91	339.38
450.10	430.66
450.28	442.36
450.46	407.25
450.65	454.06
450.83	407.25
451.02	388.53
451.20	390.87
451.39	428.32
451.57	416.62
451.76	397.89
451.94	465.77
452.13	397.89
452.31	393.21
452.49	416.62
452.68	395.55
452.86	463.43
453.05	409.59
453.23	425.98
453.42	407.25
453.60	379.17
453.78	423.64
453.97	337.04
454.15	421.30
454.34	407.25
454.52	409.59
454.70	461.09
454.89	360.44
455.07	397.89
455.26	425.98
455.44	451.72
455.62	318.31
455.81	374.49
455.99	489.17
456.17	379.17
456.36	458.74
456.54	409.59
456.73	423.64
456.91	358.10
457.09	386.19
457.28	388.53
457.46	374.49
457.64	421.30
457.83	390.87
458.01	411.93
458.19	383.85
458.38	346.40
458.56	411.93
458.74	437.68
458.93	400.23
459.11	393.21
459.29	425.98
459.48	442.36
459.66	519.60
459.84	451.72
460.03	528.96
460.21	397.89
460.39	379.17
460.57	451.72
460.76	400.23
460.94	531.30
461.12	409.59
461.31	449.38
461.49	400.23
461.67	383.85
461.85	428.32
462.04	379.17
462.22	877.70
462.40	418.96
462.59	428.32
462.77	484.49
462.95	397.89
463.13	369.80
463.32	425.98
463.50	435.34
463.68	423.64
463.86	393.21
464.05	433.00
464.23	374.49
464.41	519.60
464.59	369.80
464.78	472.79
464.96	360.44
465.14	425.98
465.32	346.40
465.50	510.24
465.69	409.59
465.87	355.76
466.05	433.00
466.23	381.51
466.41	360.44
466.60	393.21
466.78	423.64
466.96	470.45
467.14	425.98
467.32	472.79
467.51	433.00
467.69	414.27
467.87	454.06
468.05	390.87
468.23	388.53
468.41	423.64
468.60	447.04
468.78	491.51
468.96	433.00
469.14	449.38
469.32	367.46
469.50	386.19
469.69	404.91
469.87	397.89
470.05	383.85
470.23	451.72
470.41	400.23
470.59	475.13
470.77	482.15
470.95	402.57
471.14	425.98
471.32	411.93
471.50	435.34
471.68	425.98
471.86	360.44
472.04	362.78
472.22	456.40
472.40	451.72
472.58	423.64
472.77	472.79
472.95	390.87
473.13	496.19
473.31	393.21
473.49	395.55
473.67	416.62
473.85	421.30
474.03	454.06
474.21	456.40
474.39	472.79
474.57	437.68
474.75	496.19
474.93	421.30
475.12	428.32
475.30	451.72
475.48	381.51
475.66	444.70
475.84	346.40
476.02	430.66
476.20	468.11
476.38	444.70
476.56	486.83
476.74	435.34
476.92	421.30
477.10	447.04
477.28	411.93
477.46	461.09
477.64	444.70
477.82	444.70
478.00	440.02
478.18	444.70
478.36	496.19
478.54	344.06
478.72	360.44
478.90	386.19
479.08	430.66
479.26	400.23
479.44	367.46
479.62	383.85
479.80	315.97
479.98	456.40
480.16	351.08
480.34	433.00
480.52	369.80
480.70	444.70
480.88	337.04
481.06	367.46
481.24	386.19
481.41	451.72
481.59	461.09
481.77	372.15
481.95	425.98
482.13	411.93
482.31	313.63
482.49	418.96
482.67	463.43
482.85	449.38
483.03	416.62
483.21	400.23
483.39	393.21
483.57	447.04
483.74	397.89
483.92	416.62
484.10	388.53
484.28	386.19
484.46	437.68
484.64	409.59
484.82	416.62
485.00	493.85
485.18	451.72
485.35	449.38
485.53	348.74
485.71	388.53
485.89	411.93
486.07	386.19
486.25	435.34
486.43	449.38
486.61	444.70
486.78	456.40
486.96	397.89
487.14	397.89
487.32	334.70
487.50	341.72
487.68	454.06
487.85	444.70
488.03	383.85
488.21	425.98
488.39	430.66
488.57	491.51
488.75	425.98
488.92	442.36
489.10	416.62
489.28	425.98
489.46	386.19
489.64	376.83
489.81	416.62
489.99	430.66
490.17	433.00
490.35	468.11
490.53	470.45
490.70	407.25
490.88	383.85
491.06	374.49
491.24	332.36
491.41	454.06
491.59	418.96
491.77	379.17
491.95	379.17
492.13	451.72
492.30	339.38
492.48	390.87
492.66	409.59
492.84	409.59
493.01	421.30
493.19	337.04
493.37	390.87
493.54	444.70
493.72	470.45
493.90	484.49
494.08	461.09
494.25	433.00
494.43	425.98
494.61	381.51
494.79	348.74
494.96	369.80
495.14	463.43
495.32	433.00
495.49	430.66
495.67	428.32
495.85	337.04
496.02	365.12
496.20	369.80
496.38	344.06
496.55	404.91
496.73	416.62
496.91	451.72
497.09	533.64
497.26	437.68
497.44	437.68
497.62	437.68
497.79	484.49
497.97	433.00
498.14	388.53
498.32	383.85
498.50	404.91
498.67	327.68
498.85	416.62
499.03	414.27
499.20	395.55
499.38	414.27
499.56	416.62
499.73	454.06
499.91	348.74
500.08	418.96
500.26	430.66
500.44	365.12
500.61	458.74
500.79	454.06
500.97	475.13
501.14	456.40
501.32	442.36
501.49	444.70
501.67	379.17
501.84	500.87
502.02	430.66
502.20	418.96
502.37	365.12
502.55	463.43
502.72	425.98
502.90	325.33
503.07	416.62
503.25	409.59
503.43	435.34
503.60	367.46
503.78	430.66
503.95	397.89
504.13	440.02
504.30	430.66
504.48	461.09
504.65	433.00
504.83	397.89
505.01	498.53
505.18	477.47
505.36	407.25
505.53	393.21
505.71	421.30
505.88	440.02
506.06	409.59
506.23	433.00
506.41	409.59
506.58	400.23
506.76	397.89
506.93	402.57
507.11	437.68
507.28	402.57
507.46	402.57
507.63	402.57
507.81	407.25
507.98	437.68
508.16	465.77
508.33	421.30
508.50	386.19
508.68	407.25
508.85	416.62
509.03	449.38
509.20	444.70
509.38	444.70
509.55	346.40
509.73	477.47
509.90	365.12
510.08	400.23
510.25	433.00
510.42	461.09
510.60	449.38
510.77	383.85
510.95	458.74
511.12	433.00
511.30	423.64
511.47	472.79
511.64	444.70
511.82	404.91
511.99	423.64
512.17	374.49
512.34	386.19
512.51	383.85
512.69	437.68
512.86	461.09
513.04	353.42
513.21	465.77
513.38	433.00
513.56	381.51
513.73	433.00
513.90	400.23
514.08	388.53
514.25	454.06
514.43	367.46
514.60	430.66
514.77	468.11
514.95	461.09
515.12	430.66
515.29	355.76
515.47	367.46
515.64	416.62
515.81	416.62
515.99	463.43
516.16	428.32
516.33	482.15
516.51	421.30
516.68	397.89
516.85	425.98
517.03	418.96
517.20	470.45
517.37	404.91
517.54	367.46
517.72	449.38
517.89	376.83
518.06	421.30
518.24	400.23
518.41	458.74
518.58	416.62
518.75	435.34
518.93	484.49
519.10	376.83
519.27	341.72
519.45	339.38
519.62	449.38
519.79	454.06
519.96	388.53
520.14	393.21
520.31	418.96
520.48	411.93
520.65	386.19
520.83	489.17
521.00	372.15
521.17	430.66
521.34	409.59
521.52	402.57
521.69	367.46
521.86	362.78
522.03	482.15
522.20	444.70
522.38	402.57
522.55	372.15
522.72	440.02
522.89	428.32
523.07	463.43
523.24	369.80
523.41	486.83
523.58	376.83
523.75	442.36
523.92	355.76
524.10	482.15
524.27	400.23
524.44	341.72
524.61	447.04
524.78	369.80
524.96	449.38
525.13	397.89
525.30	454.06
525.47	425.98
525.64	379.17
525.81	379.17
525.98	463.43
526.16	442.36
526.33	451.72
526.50	440.02
526.67	449.38
526.84	402.57
527.01	372.15
527.18	353.42
527.36	381.51
527.53	374.49
527.70	456.40
527.87	463.43
528.04	433.00
528.21	423.64
528.38	484.49
528.55	381.51
528.72	425.98
528.89	423.64
529.07	423.64
529.24	400.23
529.41	411.93
529.58	470.45
529.75	402.57
529.92	465.77
530.09	421.30
530.26	425.98
530.43	402.57
530.60	421.30
530.77	484.49
530.94	470.45
531.11	409.59
531.28	369.80
531.46	404.91
531.63	425.98
531.80	374.49
531.97	430.66
532.14	402.57
532.31	379.17
532.48	414.27
532.65	418.96
532.82	425.98
532.99	458.74
533.16	351.08
533.33	433.00
533.50	400.23
533.67	400.23
533.84	461.09
534.01	404.91
534.18	367.46
534.35	433.00
534.52	484.49
534.69	468.11
534.86	341.72
535.03	416.62
535.20	418.96
535.37	456.40
535.54	425.98
535.71	437.68
535.88	458.74
536.05	360.44
536.22	461.09
536.38	425.98
536.55	418.96
536.72	461.09
536.89	374.49
537.06	414.27
537.23	379.17
537.40	425.98
537.57	409.59
537.74	433.00
537.91	409.59
538.08	418.96
538.25	440.02
538.42	425.98
538.59	355.76
538.75	400.23
538.92	442.36
539.09	421.30
539.26	444.70
539.43	500.87
539.60	365.12
539.77	409.59
539.94	442.36
540.11	358.10
540.28	414.27
540.44	383.85
540.61	449.38
540.78	358.10
540.95	381.51
541.12	414.27
541.29	454.06
541.46	433.00
541.62	397.89
541.79	379.17
541.96	355.76
542.13	341.72
542.30	367.46
542.47	414.27
542.63	411.93
542.80	379.17
542.97	472.79
543.14	353.42
543.31	395.55
543.48	346.40
543.64	435.34
543.81	414.27
543.98	451.72
544.15	407.25
544.32	390.87
544.48	440.02
544.65	433.00
544.82	393.21
544.99	411.93
545.16	444.70
545.32	418.96
545.49	423.64
545.66	524.28
545.83	421.30
546.00	362.78
546.16	435.34
546.33	365.12
546.50	465.77
546.67	433.00
546.83	423.64
547.00	440.02
547.17	421.30
547.34	365.12
547.50	374.49
547.67	383.85
547.84	390.87
548.00	348.74
548.17	393.21
548.34	358.10
548.51	376.83
548.67	477.47
548.84	463.43
549.01	390.87
549.18	409.59
549.34	402.57
549.51	402.57
549.68	440.02
549.84	388.53
550.01	379.17
550.18	484.49
550.34	433.00
550.51	435.34
550.68	425.98
550.84	465.77
551.01	395.55
551.18	442.36
551.34	433.00
551.51	351.08
551.68	444.70
551.84	402.57
552.01	447.04
552.18	458.74
552.34	449.38
552.51	477.47
552.68	463.43
552.84	435.34
553.01	414.27
553.18	390.87
553.34	351.08
553.51	381.51
553.67	390.87
553.84	442.36
554.01	397.89
554.17	423.64
554.34	400.23
554.51	395.55
554.67	390.87
554.84	484.49
555.00	374.49
555.17	489.17
555.33	411.93
555.50	421.30
555.67	400.23
555.83	433.00
556.00	418.96
556.16	503.22
556.33	421.30
556.50	444.70
556.66	458.74
556.83	409.59
556.99	421.30
557.16	397.89
557.32	397.89
557.49	330.02
557.65	428.32
557.82	393.21
557.98	454.06
558.15	404.91
558.32	411.93
558.48	423.64
558.65	393.21
558.81	449.38
558.98	400.23
559.14	461.09
559.31	454.06
559.47	482.15
559.64	418.96
559.80	456.40
559.97	437.68
560.13	428.32
560.30	421.30
560.46	404.91
560.63	472.79
560.79	379.17
560.96	400.23
561.12	404.91
561.29	416.62
561.45	440.02
561.61	383.85
561.78	477.47
561.94	402.57
562.11	447.04
562.27	463.43
562.44	411.93
562.60	383.85
562.77	456.40
562.93	437.68
563.10	409.59
563.26	411.93
563.42	421.30
563.59	437.68
563.75	379.17
563.92	482.15
564.08	484.49
564.24	507.90
564.41	463.43
564.57	449.38
564.74	447.04
564.90	444.70
565.07	383.85
565.23	395.55
565.39	341.72
565.56	437.68
565.72	409.59
565.88	414.27
566.05	407.25
566.21	400.23
566.38	465.77
566.54	409.59
566.70	390.87
566.87	386.19
567.03	353.42
567.19	397.89
567.36	449.38
567.52	430.66
567.68	397.89
567.85	409.59
568.01	423.64
568.17	404.91
568.34	468.11
568.50	491.51
568.66	411.93
568.83	538.32
568.99	421.30
569.15	447.04
569.32	440.02
569.48	393.21
569.64	397.89
569.81	383.85
569.97	477.47
570.13	444.70
570.30	404.91
570.46	353.42
570.62	435.34
570.78	449.38
570.95	365.12
571.11	440.02
571.27	437.68
571.43	416.62
571.60	416.62
571.76	440.02
571.92	390.87
572.09	430.66
572.25	428.32
572.41	440.02
572.57	393.21
572.74	503.22
572.90	430.66
573.06	470.45
573.22	334.70
573.38	404.91
573.55	442.36
573.71	435.34
573.87	402.57
574.03	388.53
574.20	444.70
574.36	479.81
574.52	437.68
574.68	428.32
574.84	379.17
575.01	442.36
575.17	423.64
575.33	358.10
575.49	402.57
575.65	367.46
575.82	365.12
575.98	404.91
576.14	447.04
576.30	402.57
576.46	402.57
576.62	421.30
576.79	418.96
576.95	440.02
577.11	411.93
577.27	409.59
577.43	451.72
577.59	463.43
577.75	388.53
577.92	472.79
578.08	402.57
578.24	390.87
578.40	442.36
578.56	402.57
578.72	547.69
578.88	416.62
579.04	447.04
579.21	393.21
579.37	381.51
579.53	313.63
579.69	435.34
579.85	397.89
580.01	416.62
580.17	390.87
580.33	411.93
580.49	372.15
580.65	390.87
580.82	465.77
580.98	409.59
581.14	428.32
581.30	409.59
581.46	433.00
581.62	433.00
581.78	423.64
581.94	397.89
582.10	411.93
582.26	461.09
582.42	430.66
582.58	423.64
582.74	444.70
582.90	402.57
583.06	547.69
583.22	348.74
583.38	451.72
583.54	447.04
583.70	428.32
583.86	430.66
584.02	423.64
584.18	372.15
584.34	369.80
584.50	461.09
584.66	461.09
584.82	407.25
584.98	421.30
585.14	330.02
585.30	440.02
585.46	372.15
585.62	341.72
585.78	351.08
585.94	507.90
586.10	409.59
586.26	440.02
586.42	454.06
586.58	451.72
586.74	414.27
586.90	463.43
587.06	430.66
587.22	461.09
587.38	430.66
587.54	397.89
587.70	437.68
587.86	503.22
588.02	395.55
588.18	409.59
588.34	423.64
588.49	454.06
588.65	461.09
588.81	437.68
588.97	404.91
589.13	372.15
589.29	395.55
589.45	393.21
589.61	475.13
589.77	437.68
589.93	479.81
590.08	477.47
590.24	472.79
590.40	421.30
590.56	442.36
590.72	444.70
590.88	435.34
591.04	449.38
591.20	475.13
591.35	416.62
591.51	362.78
591.67	402.57
591.83	416.62
591.99	386.19
592.15	456.40
592.31	463.43
592.46	397.89
592.62	348.74
592.78	383.85
592.94	451.72
593.10	418.96
593.26	411.93
593.41	404.91
593.57	444.70
593.73	379.17
593.89	463.43
594.05	369.80
594.20	355.76
594.36	465.77
594.52	411.93
594.68	358.10
594.84	407.25
594.99	465.77
595.15	442.36
595.31	367.46
595.47	498.53
595.62	456.40
595.78	449.38
595.94	379.17
596.10	435.34
596.25	418.96
596.41	440.02
596.57	444.70
596.73	404.91
596.88	355.76
597.04	411.93
597.20	411.93
597.36	425.98
597.51	397.89
597.67	409.59
597.83	390.87
597.99	430.66
598.14	423.64
598.30	465.77
598.46	351.08
598.61	430.66
598.77	404.91
598.93	355.76
599.09	425.98
599.24	470.45
599.40	407.25
599.56	425.98
599.71	430.66
599.87	433.00
600.03	402.57
600.18	411.93
600.34	414.27
600.50	393.21
600.65	376.83
600.81	461.09
600.97	365.12
601.12	440.02
601.28	449.38
601.44	458.74
601.59	440.02
601.75	472.79
601.91	435.34
602.06	447.04
602.22	461.09
602.37	423.64
602.53	463.43
602.69	437.68
602.84	374.49
603.00	416.62
603.16	533.64
603.31	416.62
603.47	477.47
603.62	451.72
603.78	402.57
603.94	433.00
604.09	365.12
604.25	404.91
604.40	425.98
604.56	435.34
604.71	362.78
604.87	449.38
605.03	421.30
605.18	442.36
605.34	393.21
605.49	367.46
605.65	470.45
605.80	437.68
605.96	470.45
606.12	414.27
606.27	376.83
606.43	372.15
606.58	390.87
606.74	411.93
606.89	428.32
607.05	458.74
607.20	416.62
607.36	414.27
607.51	381.51
607.67	472.79
607.82	416.62
607.98	421.30
608.13	381.51
608.29	444.70
608.44	461.09
608.60	472.79
608.75	376.83
608.91	407.25
609.06	416.62
609.22	437.68
609.37	400.23
609.53	365.12
609.68	440.02
609.84	437.68
609.99	444.70
610.15	463.43
