SpectraSuite Data File
++++++++++++++++++++++++++++++++++++
Date: Fri Oct 25 12:11:26 EDT 2013
User: price-jones
Dark Spectrum Present: No
Reference Spectrum Present: No
Number of Sampled Component Spectra: 1
Spectrometers: USB2+H05261
Integration Time (usec): 100000 (USB2+H05261)
Spectra Averaged: 1 (USB2+H05261)
Boxcar Smoothing: 0 (USB2+H05261)
Correct for Electrical Dark: No (USB2+H05261)
Strobe/Lamp Enabled: No (USB2+H05261)
Correct for Detector Non-linearity: No (USB2+H05261)
Correct for Stray Light: No (USB2+H05261)
Number of Pixels in Processed Spectrum: 2048
>>>>>Begin Processed Spectral Data<<<<<
365.73	358.10
365.92	358.10
366.12	358.10
366.32	292.57
366.52	292.57
366.72	280.86
366.91	245.76
367.11	301.93
367.31	198.95
367.51	189.58
367.70	212.99
367.90	278.52
368.10	259.80
368.30	259.80
368.49	280.86
368.69	262.14
368.89	248.10
369.09	198.95
369.28	301.93
369.48	280.86
369.68	297.25
369.87	334.70
370.07	276.18
370.27	285.55
370.47	315.97
370.66	276.18
370.86	332.36
371.06	379.17
371.25	486.83
371.45	362.78
371.65	376.83
371.84	355.76
372.04	409.59
372.24	360.44
372.44	400.23
372.63	425.98
372.83	402.57
373.03	447.04
373.22	372.15
373.42	397.89
373.62	409.59
373.81	395.55
374.01	421.30
374.21	425.98
374.40	423.64
374.60	451.72
374.79	440.02
374.99	425.98
375.19	449.38
375.38	491.51
375.58	458.74
375.78	447.04
375.97	496.19
376.17	496.19
376.37	437.68
376.56	493.85
376.76	402.57
376.95	404.91
377.15	416.62
377.35	395.55
377.54	472.79
377.74	458.74
377.93	409.59
378.13	444.70
378.33	454.06
378.52	346.40
378.72	428.32
378.91	461.09
379.11	407.25
379.31	386.19
379.50	355.76
379.70	414.27
379.89	355.76
380.09	395.55
380.28	440.02
380.48	367.46
380.68	383.85
380.87	470.45
381.07	433.00
381.26	472.79
381.46	503.22
381.65	409.59
381.85	428.32
382.04	404.91
382.24	358.10
382.43	388.53
382.63	397.89
382.83	433.00
383.02	393.21
383.22	409.59
383.41	411.93
383.61	355.76
383.80	365.12
384.00	447.04
384.19	348.74
384.39	388.53
384.58	437.68
384.78	442.36
384.97	421.30
385.17	454.06
385.36	346.40
385.56	493.85
385.75	376.83
385.95	433.00
386.14	456.40
386.34	451.72
386.53	388.53
386.72	339.38
386.92	465.77
387.11	376.83
387.31	414.27
387.50	430.66
387.70	456.40
387.89	379.17
388.09	325.33
388.28	454.06
388.48	397.89
388.67	454.06
388.86	496.19
389.06	400.23
389.25	365.12
389.45	386.19
389.64	430.66
389.84	379.17
390.03	402.57
390.22	430.66
390.42	402.57
390.61	374.49
390.81	360.44
391.00	365.12
391.19	468.11
391.39	346.40
391.58	430.66
391.78	409.59
391.97	365.12
392.16	463.43
392.36	425.98
392.55	440.02
392.75	433.00
392.94	411.93
393.13	442.36
393.33	393.21
393.52	404.91
393.71	500.87
393.91	337.04
394.10	395.55
394.29	397.89
394.49	418.96
394.68	383.85
394.88	440.02
395.07	477.47
395.26	465.77
395.46	332.36
395.65	404.91
395.84	409.59
396.04	540.66
396.23	374.49
396.42	425.98
396.62	442.36
396.81	444.70
397.00	369.80
397.19	435.34
397.39	390.87
397.58	414.27
397.77	365.12
397.97	381.51
398.16	362.78
398.35	435.34
398.55	374.49
398.74	423.64
398.93	416.62
399.12	400.23
399.32	409.59
399.51	337.04
399.70	433.00
399.90	379.17
400.09	367.46
400.28	418.96
400.47	440.02
400.67	421.30
400.86	397.89
401.05	351.08
401.24	451.72
401.44	418.96
401.63	430.66
401.82	383.85
402.01	379.17
402.21	468.11
402.40	411.93
402.59	402.57
402.78	451.72
402.97	404.91
403.17	440.02
403.36	463.43
403.55	339.38
403.74	327.68
403.93	477.47
404.13	421.30
404.32	409.59
404.51	390.87
404.70	341.72
404.89	456.40
405.09	454.06
405.28	388.53
405.47	376.83
405.66	355.76
405.85	393.21
406.05	397.89
406.24	409.59
406.43	390.87
406.62	416.62
406.81	409.59
407.00	433.00
407.20	404.91
407.39	339.38
407.58	372.15
407.77	468.11
407.96	416.62
408.15	479.81
408.34	423.64
408.54	423.64
408.73	442.36
408.92	376.83
409.11	358.10
409.30	425.98
409.49	409.59
409.68	425.98
409.87	400.23
410.07	376.83
410.26	334.70
410.45	444.70
410.64	353.42
410.83	477.47
411.02	407.25
411.21	421.30
411.40	454.06
411.59	442.36
411.78	449.38
411.98	386.19
412.17	447.04
412.36	390.87
412.55	425.98
412.74	491.51
412.93	461.09
413.12	407.25
413.31	395.55
413.50	482.15
413.69	339.38
413.88	421.30
414.07	390.87
414.26	386.19
414.45	437.68
414.64	484.49
414.83	430.66
415.02	407.25
415.22	451.72
415.41	440.02
415.60	376.83
415.79	397.89
415.98	421.30
416.17	409.59
416.36	320.65
416.55	362.78
416.74	379.17
416.93	402.57
417.12	430.66
417.31	418.96
417.50	435.34
417.69	461.09
417.88	440.02
418.07	400.23
418.26	355.76
418.45	442.36
418.64	437.68
418.83	449.38
419.02	435.34
419.21	322.99
419.39	358.10
419.58	425.98
419.77	454.06
419.96	414.27
420.15	404.91
420.34	372.15
420.53	451.72
420.72	411.93
420.91	400.23
421.10	327.68
421.29	388.53
421.48	428.32
421.67	477.47
421.86	423.64
422.05	451.72
422.24	423.64
422.43	414.27
422.61	348.74
422.80	402.57
422.99	416.62
423.18	400.23
423.37	468.11
423.56	372.15
423.75	463.43
423.94	425.98
424.13	400.23
424.32	444.70
424.50	449.38
424.69	440.02
424.88	433.00
425.07	418.96
425.26	461.09
425.45	400.23
425.64	418.96
425.83	374.49
426.01	440.02
426.20	449.38
426.39	458.74
426.58	355.76
426.77	362.78
426.96	451.72
427.15	447.04
427.33	402.57
427.52	388.53
427.71	411.93
427.90	421.30
428.09	369.80
428.28	388.53
428.46	376.83
428.65	449.38
428.84	374.49
429.03	334.70
429.22	372.15
429.40	379.17
429.59	351.08
429.78	369.80
429.97	421.30
430.16	454.06
430.34	470.45
430.53	400.23
430.72	390.87
430.91	468.11
431.10	411.93
431.28	390.87
431.47	411.93
431.66	400.23
431.85	362.78
432.03	463.43
432.22	456.40
432.41	451.72
432.60	463.43
432.79	407.25
432.97	407.25
433.16	400.23
433.35	428.32
433.54	411.93
433.72	390.87
433.91	444.70
434.10	409.59
434.28	409.59
434.47	351.08
434.66	425.98
434.85	379.17
435.03	379.17
435.22	430.66
435.41	421.30
435.59	449.38
435.78	437.68
435.97	407.25
436.16	428.32
436.34	454.06
436.53	444.70
436.72	414.27
436.90	407.25
437.09	447.04
437.28	383.85
437.46	369.80
437.65	421.30
437.84	477.47
438.02	407.25
438.21	416.62
438.40	397.89
438.58	390.87
438.77	451.72
438.96	440.02
439.14	402.57
439.33	491.51
439.52	308.95
439.70	400.23
439.89	451.72
440.08	381.51
440.26	468.11
440.45	435.34
440.63	451.72
440.82	444.70
441.01	367.46
441.19	421.30
441.38	381.51
441.57	454.06
441.75	449.38
441.94	428.32
442.12	409.59
442.31	393.21
442.50	416.62
442.68	411.93
442.87	433.00
443.05	388.53
443.24	486.83
443.43	435.34
443.61	454.06
443.80	416.62
443.98	393.21
444.17	479.81
444.35	463.43
444.54	423.64
444.73	440.02
444.91	456.40
445.10	353.42
445.28	351.08
445.47	416.62
445.65	386.19
445.84	379.17
446.02	477.47
446.21	444.70
446.39	440.02
446.58	381.51
446.77	416.62
446.95	372.15
447.14	374.49
447.32	344.06
447.51	442.36
447.69	486.83
447.88	386.19
448.06	407.25
448.25	306.61
448.43	346.40
448.62	341.72
448.80	376.83
448.99	348.74
449.17	402.57
449.36	423.64
449.54	383.85
449.73	444.70
449.91	454.06
450.10	395.55
450.28	416.62
450.46	404.91
450.65	421.30
450.83	444.70
451.02	425.98
451.20	491.51
451.39	498.53
451.57	411.93
451.76	435.34
451.94	425.98
452.13	463.43
452.31	390.87
452.49	341.72
452.68	390.87
452.86	416.62
453.05	465.77
453.23	440.02
453.42	369.80
453.60	362.78
453.78	409.59
453.97	461.09
454.15	397.89
454.34	400.23
454.52	447.04
454.70	463.43
454.89	472.79
455.07	475.13
455.26	348.74
455.44	479.81
455.62	411.93
455.81	416.62
455.99	404.91
456.17	409.59
456.36	334.70
456.54	351.08
456.73	386.19
456.91	379.17
457.09	507.90
457.28	428.32
457.46	463.43
457.64	498.53
457.83	388.53
458.01	428.32
458.19	404.91
458.38	456.40
458.56	411.93
458.74	416.62
458.93	416.62
459.11	418.96
459.29	339.38
459.48	407.25
459.66	404.91
459.84	465.77
460.03	540.66
460.21	444.70
460.39	355.76
460.57	425.98
460.76	500.87
460.94	456.40
461.12	397.89
461.31	543.00
461.49	400.23
461.67	435.34
461.85	444.70
462.04	425.98
462.22	788.76
462.40	477.47
462.59	402.57
462.77	400.23
462.95	411.93
463.13	447.04
463.32	430.66
463.50	489.17
463.68	421.30
463.86	435.34
464.05	414.27
464.23	367.46
464.41	451.72
464.59	449.38
464.78	351.08
464.96	423.64
465.14	421.30
465.32	379.17
465.50	407.25
465.69	407.25
465.87	440.02
466.05	341.72
466.23	409.59
466.41	435.34
466.60	421.30
466.78	348.74
466.96	414.27
467.14	411.93
467.32	400.23
467.51	383.85
467.69	428.32
467.87	458.74
468.05	393.21
468.23	451.72
468.41	521.94
468.60	414.27
468.78	372.15
468.96	407.25
469.14	362.78
469.32	367.46
469.50	348.74
469.69	451.72
469.87	337.04
470.05	447.04
470.23	383.85
470.41	362.78
470.59	355.76
470.77	397.89
470.95	418.96
471.14	444.70
471.32	411.93
471.50	376.83
471.68	411.93
471.86	379.17
472.04	440.02
472.22	386.19
472.40	404.91
472.58	402.57
472.77	409.59
472.95	449.38
473.13	425.98
473.31	451.72
473.49	339.38
473.67	440.02
473.85	393.21
474.03	334.70
474.21	379.17
474.39	418.96
474.57	440.02
474.75	425.98
474.93	351.08
475.12	510.24
475.30	388.53
475.48	428.32
475.66	358.10
475.84	454.06
476.02	404.91
476.20	423.64
476.38	393.21
476.56	475.13
476.74	437.68
476.92	372.15
477.10	425.98
477.28	458.74
477.46	388.53
477.64	414.27
477.82	386.19
478.00	388.53
478.18	409.59
478.36	416.62
478.54	421.30
478.72	393.21
478.90	386.19
479.08	442.36
479.26	423.64
479.44	430.66
479.62	383.85
479.80	376.83
479.98	447.04
480.16	372.15
480.34	423.64
480.52	402.57
480.70	477.47
480.88	430.66
481.06	372.15
481.24	393.21
481.41	414.27
481.59	390.87
481.77	433.00
481.95	442.36
482.13	400.23
482.31	440.02
482.49	372.15
482.67	390.87
482.85	402.57
483.03	407.25
483.21	367.46
483.39	379.17
483.57	393.21
483.74	416.62
483.92	367.46
484.10	393.21
484.28	435.34
484.46	404.91
484.64	435.34
484.82	454.06
485.00	400.23
485.18	418.96
485.35	402.57
485.53	409.59
485.71	479.81
485.89	414.27
486.07	428.32
486.25	477.47
486.43	435.34
486.61	451.72
486.78	456.40
486.96	404.91
487.14	433.00
487.32	386.19
487.50	374.49
487.68	409.59
487.85	334.70
488.03	477.47
488.21	433.00
488.39	442.36
488.57	407.25
488.75	369.80
488.92	451.72
489.10	393.21
489.28	428.32
489.46	423.64
489.64	393.21
489.81	409.59
489.99	395.55
490.17	414.27
490.35	437.68
490.53	430.66
490.70	365.12
490.88	421.30
491.06	355.76
491.24	395.55
491.41	402.57
491.59	395.55
491.77	407.25
491.95	430.66
492.13	440.02
492.30	388.53
492.48	414.27
492.66	451.72
492.84	440.02
493.01	355.76
493.19	379.17
493.37	470.45
493.54	437.68
493.72	442.36
493.90	437.68
494.08	437.68
494.25	437.68
494.43	461.09
494.61	395.55
494.79	444.70
494.96	404.91
495.14	454.06
495.32	369.80
495.49	447.04
495.67	414.27
495.85	423.64
496.02	390.87
496.20	383.85
496.38	358.10
496.55	423.64
496.73	447.04
496.91	400.23
497.09	418.96
497.26	402.57
497.44	451.72
497.62	444.70
497.79	402.57
497.97	458.74
498.14	477.47
498.32	351.08
498.50	348.74
498.67	390.87
498.85	423.64
499.03	372.15
499.20	411.93
499.38	428.32
499.56	444.70
499.73	493.85
499.91	416.62
500.08	428.32
500.26	421.30
500.44	444.70
500.61	360.44
500.79	362.78
500.97	372.15
501.14	461.09
501.32	458.74
501.49	411.93
501.67	411.93
501.84	430.66
502.02	418.96
502.20	397.89
502.37	416.62
502.55	379.17
502.72	437.68
502.90	461.09
503.07	404.91
503.25	383.85
503.43	404.91
503.60	451.72
503.78	390.87
503.95	414.27
504.13	409.59
504.30	395.55
504.48	454.06
504.65	383.85
504.83	369.80
505.01	435.34
505.18	411.93
505.36	428.32
505.53	379.17
505.71	470.45
505.88	372.15
506.06	414.27
506.23	428.32
506.41	456.40
506.58	454.06
506.76	337.04
506.93	386.19
507.11	411.93
507.28	458.74
507.46	442.36
507.63	470.45
507.81	425.98
507.98	414.27
508.16	444.70
508.33	421.30
508.50	416.62
508.68	435.34
508.85	404.91
509.03	421.30
509.20	390.87
509.38	435.34
509.55	444.70
509.73	390.87
509.90	395.55
510.08	372.15
510.25	416.62
510.42	334.70
510.60	416.62
510.77	400.23
510.95	337.04
511.12	397.89
511.30	325.33
511.47	397.89
511.64	355.76
511.82	351.08
511.99	390.87
512.17	390.87
512.34	489.17
512.51	442.36
512.69	442.36
512.86	423.64
513.04	407.25
513.21	404.91
513.38	447.04
513.56	435.34
513.73	372.15
513.90	360.44
514.08	395.55
514.25	393.21
514.43	477.47
514.60	386.19
514.77	397.89
514.95	425.98
515.12	386.19
515.29	383.85
515.47	360.44
515.64	416.62
515.81	430.66
515.99	451.72
516.16	411.93
516.33	437.68
516.51	383.85
516.68	390.87
516.85	482.15
517.03	369.80
517.20	428.32
517.37	428.32
517.54	430.66
517.72	477.47
517.89	411.93
518.06	430.66
518.24	470.45
518.41	379.17
518.58	404.91
518.75	395.55
518.93	425.98
519.10	402.57
519.27	463.43
519.45	498.53
519.62	390.87
519.79	475.13
519.96	365.12
520.14	409.59
520.31	442.36
520.48	365.12
520.65	390.87
520.83	374.49
521.00	496.19
521.17	451.72
521.34	416.62
521.52	421.30
521.69	372.15
521.86	381.51
522.03	386.19
522.20	451.72
522.38	367.46
522.55	433.00
522.72	358.10
522.89	388.53
523.07	381.51
523.24	407.25
523.41	400.23
523.58	437.68
523.75	402.57
523.92	383.85
524.10	451.72
524.27	414.27
524.44	397.89
524.61	475.13
524.78	444.70
524.96	456.40
525.13	397.89
525.30	510.24
525.47	393.21
525.64	451.72
525.81	393.21
525.98	463.43
526.16	423.64
526.33	390.87
526.50	365.12
526.67	386.19
526.84	418.96
527.01	402.57
527.18	423.64
527.36	414.27
527.53	409.59
527.70	374.49
527.87	411.93
528.04	458.74
528.21	332.36
528.38	367.46
528.55	425.98
528.72	465.77
528.89	449.38
529.07	402.57
529.24	369.80
529.41	482.15
529.58	400.23
529.75	414.27
529.92	397.89
530.09	437.68
530.26	409.59
530.43	421.30
530.60	367.46
530.77	404.91
530.94	381.51
531.11	374.49
531.28	365.12
531.46	402.57
531.63	418.96
531.80	428.32
531.97	451.72
532.14	421.30
532.31	428.32
532.48	428.32
532.65	486.83
532.82	442.36
532.99	402.57
533.16	379.17
533.33	400.23
533.50	409.59
533.67	425.98
533.84	451.72
534.01	397.89
534.18	437.68
534.35	402.57
534.52	372.15
534.69	351.08
534.86	407.25
535.03	442.36
535.20	362.78
535.37	402.57
535.54	451.72
535.71	479.81
535.88	379.17
536.05	367.46
536.22	315.97
536.38	358.10
536.55	447.04
536.72	397.89
536.89	379.17
537.06	447.04
537.23	414.27
537.40	477.47
537.57	388.53
537.74	395.55
537.91	479.81
538.08	430.66
538.25	451.72
538.42	376.83
538.59	393.21
538.75	287.89
538.92	334.70
539.09	514.92
539.26	416.62
539.43	395.55
539.60	383.85
539.77	383.85
539.94	486.83
540.11	477.47
540.28	353.42
540.44	423.64
540.61	388.53
540.78	440.02
540.95	365.12
541.12	416.62
541.29	447.04
541.46	451.72
541.62	388.53
541.79	416.62
541.96	414.27
542.13	397.89
542.30	367.46
542.47	454.06
542.63	470.45
542.80	421.30
542.97	491.51
543.14	400.23
543.31	437.68
543.48	430.66
543.64	477.47
543.81	456.40
543.98	440.02
544.15	416.62
544.32	463.43
544.48	411.93
544.65	409.59
544.82	425.98
544.99	411.93
545.16	456.40
545.32	404.91
545.49	376.83
545.66	409.59
545.83	344.06
546.00	393.21
546.16	430.66
546.33	344.06
546.50	383.85
546.67	444.70
546.83	381.51
547.00	397.89
547.17	376.83
547.34	402.57
547.50	421.30
547.67	402.57
547.84	393.21
548.00	444.70
548.17	440.02
548.34	397.89
548.51	425.98
548.67	463.43
548.84	465.77
549.01	435.34
549.18	369.80
549.34	383.85
549.51	421.30
549.68	404.91
549.84	433.00
550.01	400.23
550.18	486.83
550.34	514.92
550.51	397.89
550.68	458.74
550.84	449.38
551.01	433.00
551.18	437.68
551.34	397.89
551.51	418.96
551.68	355.76
551.84	409.59
552.01	430.66
552.18	489.17
552.34	402.57
552.51	351.08
552.68	395.55
552.84	355.76
553.01	449.38
553.18	421.30
553.34	454.06
553.51	430.66
553.67	479.81
553.84	444.70
554.01	376.83
554.17	437.68
554.34	348.74
554.51	414.27
554.67	402.57
554.84	414.27
555.00	451.72
555.17	435.34
555.33	430.66
555.50	435.34
555.67	433.00
555.83	360.44
556.00	346.40
556.16	564.07
556.33	503.22
556.50	498.53
556.66	397.89
556.83	425.98
556.99	383.85
557.16	421.30
557.32	393.21
557.49	437.68
557.65	386.19
557.82	367.46
557.98	374.49
558.15	430.66
558.32	454.06
558.48	407.25
558.65	411.93
558.81	402.57
558.98	428.32
559.14	421.30
559.31	362.78
559.47	416.62
559.64	332.36
559.80	416.62
559.97	416.62
560.13	456.40
560.30	437.68
560.46	423.64
560.63	463.43
560.79	475.13
560.96	437.68
561.12	447.04
561.29	402.57
561.45	404.91
561.61	355.76
561.78	486.83
561.94	435.34
562.11	482.15
562.27	442.36
562.44	402.57
562.60	383.85
562.77	386.19
562.93	472.79
563.10	404.91
563.26	458.74
563.42	521.94
563.59	351.08
563.75	444.70
563.92	468.11
564.08	444.70
564.24	393.21
564.41	365.12
564.57	400.23
564.74	407.25
564.90	449.38
565.07	355.76
565.23	484.49
565.39	458.74
565.56	447.04
565.72	449.38
565.88	355.76
566.05	369.80
566.21	376.83
566.38	386.19
566.54	379.17
566.70	421.30
566.87	407.25
567.03	400.23
567.19	388.53
567.36	393.21
567.52	458.74
567.68	486.83
567.85	447.04
568.01	369.80
568.17	444.70
568.34	397.89
568.50	402.57
568.66	425.98
568.83	414.27
568.99	351.08
569.15	437.68
569.32	402.57
569.48	407.25
569.64	381.51
569.81	425.98
569.97	346.40
570.13	470.45
570.30	472.79
570.46	498.53
570.62	433.00
570.78	428.32
570.95	379.17
571.11	454.06
571.27	468.11
571.43	400.23
571.60	381.51
571.76	416.62
571.92	393.21
572.09	407.25
572.25	367.46
572.41	402.57
572.57	390.87
572.74	435.34
572.90	421.30
573.06	428.32
573.22	402.57
573.38	458.74
573.55	409.59
573.71	468.11
573.87	449.38
574.03	435.34
574.20	433.00
574.36	472.79
574.52	395.55
574.68	383.85
574.84	418.96
575.01	444.70
575.17	421.30
575.33	423.64
575.49	454.06
575.65	421.30
575.82	369.80
575.98	423.64
576.14	463.43
576.30	454.06
576.46	447.04
576.62	442.36
576.79	496.19
576.95	500.87
577.11	458.74
577.27	430.66
577.43	400.23
577.59	482.15
577.75	418.96
577.92	379.17
578.08	458.74
578.24	393.21
578.40	397.89
578.56	454.06
578.72	418.96
578.88	409.59
579.04	407.25
579.21	409.59
579.37	383.85
579.53	362.78
579.69	407.25
579.85	369.80
580.01	433.00
580.17	400.23
580.33	400.23
580.49	386.19
580.65	447.04
580.82	390.87
580.98	428.32
581.14	393.21
581.30	468.11
581.46	353.42
581.62	468.11
581.78	428.32
581.94	479.81
582.10	348.74
582.26	484.49
582.42	440.02
582.58	365.12
582.74	351.08
582.90	397.89
583.06	393.21
583.22	400.23
583.38	451.72
583.54	381.51
583.70	437.68
583.86	458.74
584.02	409.59
584.18	484.49
584.34	393.21
584.50	383.85
584.66	381.51
584.82	379.17
584.98	386.19
585.14	411.93
585.30	498.53
585.46	433.00
585.62	383.85
585.78	479.81
585.94	433.00
586.10	416.62
586.26	517.26
586.42	484.49
586.58	456.40
586.74	465.77
586.90	428.32
587.06	430.66
587.22	390.87
587.38	425.98
587.54	386.19
587.70	393.21
587.86	458.74
588.02	425.98
588.18	468.11
588.34	435.34
588.49	463.43
588.65	430.66
588.81	430.66
588.97	414.27
589.13	360.44
589.29	458.74
589.45	381.51
589.61	416.62
589.77	461.09
589.93	458.74
590.08	376.83
590.24	388.53
590.40	393.21
590.56	463.43
590.72	407.25
590.88	334.70
591.04	444.70
591.20	472.79
591.35	449.38
591.51	428.32
591.67	463.43
591.83	348.74
591.99	390.87
592.15	386.19
592.31	435.34
592.46	381.51
592.62	351.08
592.78	414.27
592.94	325.33
593.10	376.83
593.26	372.15
593.41	404.91
593.57	451.72
593.73	423.64
593.89	472.79
594.05	418.96
594.20	435.34
594.36	421.30
594.52	397.89
594.68	400.23
594.84	351.08
594.99	524.28
595.15	388.53
595.31	379.17
595.47	456.40
595.62	414.27
595.78	386.19
595.94	397.89
596.10	353.42
596.25	383.85
596.41	402.57
596.57	451.72
596.73	400.23
596.88	421.30
597.04	344.06
597.20	416.62
597.36	465.77
597.51	437.68
597.67	367.46
597.83	407.25
597.99	430.66
598.14	409.59
598.30	472.79
598.46	430.66
598.61	397.89
598.77	444.70
598.93	381.51
599.09	442.36
599.24	367.46
599.40	442.36
599.56	444.70
599.71	423.64
599.87	458.74
600.03	416.62
600.18	498.53
600.34	454.06
600.50	404.91
600.65	456.40
600.81	458.74
600.97	430.66
601.12	344.06
601.28	433.00
601.44	409.59
601.59	440.02
601.75	416.62
601.91	381.51
602.06	390.87
602.22	430.66
602.37	470.45
602.53	423.64
602.69	386.19
602.84	418.96
603.00	407.25
603.16	388.53
603.31	383.85
603.47	379.17
603.62	348.74
603.78	440.02
603.94	423.64
604.09	395.55
604.25	421.30
604.40	468.11
604.56	383.85
604.71	428.32
604.87	416.62
605.03	379.17
605.18	372.15
605.34	463.43
605.49	433.00
605.65	449.38
605.80	414.27
605.96	369.80
606.12	430.66
606.27	400.23
606.43	447.04
606.58	400.23
606.74	437.68
606.89	505.56
607.05	379.17
607.20	372.15
607.36	383.85
607.51	339.38
607.67	388.53
607.82	440.02
607.98	407.25
608.13	409.59
608.29	379.17
608.44	386.19
608.60	421.30
608.75	491.51
608.91	491.51
609.06	390.87
609.22	400.23
609.37	428.32
609.53	372.15
609.68	447.04
609.84	393.21
609.99	372.15
610.15	414.27
