SpectraSuite Data File
++++++++++++++++++++++++++++++++++++
Date: Fri Oct 25 12:10:39 EDT 2013
User: price-jones
Dark Spectrum Present: No
Reference Spectrum Present: No
Number of Sampled Component Spectra: 1
Spectrometers: USB2+H05261
Integration Time (usec): 100000 (USB2+H05261)
Spectra Averaged: 1 (USB2+H05261)
Boxcar Smoothing: 0 (USB2+H05261)
Correct for Electrical Dark: No (USB2+H05261)
Strobe/Lamp Enabled: No (USB2+H05261)
Correct for Detector Non-linearity: No (USB2+H05261)
Correct for Stray Light: No (USB2+H05261)
Number of Pixels in Processed Spectrum: 2048
>>>>>Begin Processed Spectral Data<<<<<
365.73	348.74
365.92	348.74
366.12	348.74
366.32	292.57
366.52	308.95
366.72	297.25
366.91	292.57
367.11	196.60
367.31	210.65
367.51	217.67
367.70	208.31
367.90	236.39
368.10	238.73
368.30	220.01
368.49	187.24
368.69	287.89
368.89	222.35
369.09	259.80
369.28	322.99
369.48	322.99
369.68	255.12
369.87	245.76
370.07	290.23
370.27	351.08
370.47	351.08
370.66	325.33
370.86	330.02
371.06	348.74
371.25	362.78
371.45	348.74
371.65	388.53
371.84	325.33
372.04	379.17
372.24	404.91
372.44	416.62
372.63	362.78
372.83	428.32
373.03	402.57
373.22	449.38
373.42	421.30
373.62	416.62
373.81	435.34
374.01	475.13
374.21	458.74
374.40	414.27
374.60	418.96
374.79	353.42
374.99	376.83
375.19	433.00
375.38	461.09
375.58	442.36
375.78	433.00
375.97	409.59
376.17	503.22
376.37	458.74
376.56	390.87
376.76	376.83
376.95	428.32
377.15	430.66
377.35	423.64
377.54	486.83
377.74	421.30
377.93	416.62
378.13	383.85
378.33	411.93
378.52	369.80
378.72	318.31
378.91	435.34
379.11	362.78
379.31	353.42
379.50	390.87
379.70	400.23
379.89	454.06
380.09	313.63
380.28	383.85
380.48	409.59
380.68	428.32
380.87	360.44
381.07	425.98
381.26	447.04
381.46	402.57
381.65	369.80
381.85	369.80
382.04	367.46
382.24	407.25
382.43	381.51
382.63	416.62
382.83	418.96
383.02	458.74
383.22	433.00
383.41	418.96
383.61	381.51
383.80	383.85
384.00	395.55
384.19	386.19
384.39	397.89
384.58	411.93
384.78	393.21
384.97	465.77
385.17	407.25
385.36	430.66
385.56	418.96
385.75	388.53
385.95	374.49
386.14	510.24
386.34	388.53
386.53	311.29
386.72	388.53
386.92	449.38
387.11	367.46
387.31	416.62
387.50	379.17
387.70	269.16
387.89	386.19
388.09	390.87
388.28	430.66
388.48	353.42
388.67	414.27
388.86	407.25
389.06	418.96
389.25	395.55
389.45	344.06
389.64	397.89
389.84	425.98
390.03	458.74
390.22	318.31
390.42	386.19
390.61	348.74
390.81	337.04
391.00	383.85
391.19	404.91
391.39	395.55
391.58	318.31
391.78	449.38
391.97	411.93
392.16	362.78
392.36	482.15
392.55	414.27
392.75	395.55
392.94	404.91
393.13	423.64
393.33	440.02
393.52	449.38
393.71	435.34
393.91	390.87
394.10	482.15
394.29	390.87
394.49	341.72
394.68	379.17
394.88	341.72
395.07	400.23
395.26	414.27
395.46	353.42
395.65	456.40
395.84	397.89
396.04	416.62
396.23	421.30
396.42	383.85
396.62	367.46
396.81	423.64
397.00	407.25
397.19	379.17
397.39	360.44
397.58	440.02
397.77	372.15
397.97	388.53
398.16	383.85
398.35	444.70
398.55	369.80
398.74	367.46
398.93	393.21
399.12	374.49
399.32	435.34
399.51	425.98
399.70	433.00
399.90	390.87
400.09	379.17
400.28	402.57
400.47	461.09
400.67	414.27
400.86	411.93
401.05	433.00
401.24	322.99
401.44	395.55
401.63	468.11
401.82	376.83
402.01	458.74
402.21	428.32
402.40	379.17
402.59	376.83
402.78	409.59
402.97	365.12
403.17	416.62
403.36	414.27
403.55	348.74
403.74	355.76
403.93	390.87
404.13	390.87
404.32	388.53
404.51	348.74
404.70	388.53
404.89	337.04
405.09	421.30
405.28	470.45
405.47	388.53
405.66	498.53
405.85	414.27
406.05	332.36
406.24	372.15
406.43	437.68
406.62	421.30
406.81	451.72
407.00	386.19
407.20	409.59
407.39	313.63
407.58	388.53
407.77	404.91
407.96	369.80
408.15	390.87
408.34	444.70
408.54	341.72
408.73	449.38
408.92	395.55
409.11	358.10
409.30	461.09
409.49	386.19
409.68	447.04
409.87	332.36
410.07	372.15
410.26	402.57
410.45	402.57
410.64	404.91
410.83	341.72
411.02	362.78
411.21	400.23
411.40	472.79
411.59	409.59
411.78	418.96
411.98	407.25
412.17	461.09
412.36	444.70
412.55	437.68
412.74	528.96
412.93	489.17
413.12	353.42
413.31	362.78
413.50	411.93
413.69	348.74
413.88	440.02
414.07	395.55
414.26	442.36
414.45	365.12
414.64	376.83
414.83	430.66
415.02	414.27
415.22	428.32
415.41	423.64
415.60	348.74
415.79	482.15
415.98	442.36
416.17	386.19
416.36	465.77
416.55	315.97
416.74	440.02
416.93	442.36
417.12	393.21
417.31	404.91
417.50	376.83
417.69	383.85
417.88	409.59
418.07	395.55
418.26	447.04
418.45	454.06
418.64	472.79
418.83	463.43
419.02	383.85
419.21	430.66
419.39	390.87
419.58	454.06
419.77	404.91
419.96	416.62
420.15	425.98
420.34	425.98
420.53	454.06
420.72	407.25
420.91	369.80
421.10	447.04
421.29	451.72
421.48	442.36
421.67	346.40
421.86	425.98
422.05	367.46
422.24	444.70
422.43	346.40
422.61	425.98
422.80	400.23
422.99	402.57
423.18	428.32
423.37	430.66
423.56	454.06
423.75	379.17
423.94	395.55
424.13	407.25
424.32	390.87
424.50	423.64
424.69	433.00
424.88	414.27
425.07	311.29
425.26	461.09
425.45	461.09
425.64	397.89
425.83	358.10
426.01	423.64
426.20	461.09
426.39	514.92
426.58	428.32
426.77	369.80
426.96	416.62
427.15	411.93
427.33	409.59
427.52	430.66
427.71	360.44
427.90	393.21
428.09	386.19
428.28	362.78
428.46	374.49
428.65	407.25
428.84	437.68
429.03	383.85
429.22	397.89
429.40	482.15
429.59	339.38
429.78	353.42
429.97	447.04
430.16	379.17
430.34	397.89
430.53	397.89
430.72	402.57
430.91	430.66
431.10	372.15
431.28	351.08
431.47	381.51
431.66	430.66
431.85	461.09
432.03	395.55
432.22	449.38
432.41	435.34
432.60	482.15
432.79	400.23
432.97	421.30
433.16	365.12
433.35	430.66
433.54	447.04
433.72	409.59
433.91	386.19
434.10	376.83
434.28	447.04
434.47	395.55
434.66	409.59
434.85	418.96
435.03	341.72
435.22	514.92
435.41	423.64
435.59	416.62
435.78	393.21
435.97	440.02
436.16	423.64
436.34	430.66
436.53	449.38
436.72	341.72
436.90	421.30
437.09	430.66
437.28	491.51
437.46	411.93
437.65	416.62
437.84	423.64
438.02	411.93
438.21	428.32
438.40	337.04
438.58	402.57
438.77	437.68
438.96	409.59
439.14	472.79
439.33	444.70
439.52	416.62
439.70	402.57
439.89	447.04
440.08	442.36
440.26	397.89
440.45	442.36
440.63	428.32
440.82	409.59
441.01	411.93
441.19	456.40
441.38	442.36
441.57	456.40
441.75	407.25
441.94	414.27
442.12	379.17
442.31	430.66
442.50	484.49
442.68	409.59
442.87	414.27
443.05	416.62
443.24	454.06
443.43	444.70
443.61	360.44
443.80	332.36
443.98	402.57
444.17	440.02
444.35	400.23
444.54	407.25
444.73	400.23
444.91	498.53
445.10	404.91
445.28	397.89
445.47	395.55
445.65	393.21
445.84	367.46
446.02	374.49
446.21	444.70
446.39	435.34
446.58	376.83
446.77	433.00
446.95	440.02
447.14	369.80
447.32	416.62
447.51	435.34
447.69	444.70
447.88	463.43
448.06	444.70
448.25	425.98
448.43	353.42
448.62	393.21
448.80	397.89
448.99	500.87
449.17	414.27
449.36	444.70
449.54	425.98
449.73	423.64
449.91	409.59
450.10	374.49
450.28	493.85
450.46	451.72
450.65	442.36
450.83	482.15
451.02	379.17
451.20	416.62
451.39	395.55
451.57	397.89
451.76	348.74
451.94	440.02
452.13	482.15
452.31	393.21
452.49	430.66
452.68	440.02
452.86	433.00
453.05	461.09
453.23	404.91
453.42	428.32
453.60	456.40
453.78	355.76
453.97	440.02
454.15	355.76
454.34	360.44
454.52	362.78
454.70	489.17
454.89	421.30
455.07	376.83
455.26	411.93
455.44	454.06
455.62	362.78
455.81	484.49
455.99	428.32
456.17	454.06
456.36	475.13
456.54	435.34
456.73	404.91
456.91	325.33
457.09	404.91
457.28	395.55
457.46	425.98
457.64	440.02
457.83	409.59
458.01	449.38
458.19	397.89
458.38	397.89
458.56	409.59
458.74	383.85
458.93	383.85
459.11	393.21
459.29	404.91
459.48	507.90
459.66	425.98
459.84	433.00
460.03	425.98
460.21	423.64
460.39	322.99
460.57	402.57
460.76	423.64
460.94	358.10
461.12	442.36
461.31	435.34
461.49	381.51
461.67	393.21
461.85	451.72
462.04	355.76
462.22	699.82
462.40	428.32
462.59	430.66
462.77	411.93
462.95	444.70
463.13	367.46
463.32	451.72
463.50	435.34
463.68	407.25
463.86	381.51
464.05	435.34
464.23	477.47
464.41	444.70
464.59	409.59
464.78	383.85
464.96	402.57
465.14	393.21
465.32	379.17
465.50	416.62
465.69	388.53
465.87	374.49
466.05	402.57
466.23	346.40
466.41	355.76
466.60	325.33
466.78	383.85
466.96	472.79
467.14	369.80
467.32	498.53
467.51	486.83
467.69	425.98
467.87	376.83
468.05	383.85
468.23	442.36
468.41	395.55
468.60	383.85
468.78	414.27
468.96	440.02
469.14	425.98
469.32	372.15
469.50	423.64
469.69	409.59
469.87	397.89
470.05	355.76
470.23	393.21
470.41	447.04
470.59	397.89
470.77	393.21
470.95	414.27
471.14	402.57
471.32	390.87
471.50	456.40
471.68	447.04
471.86	374.49
472.04	456.40
472.22	440.02
472.40	330.02
472.58	411.93
472.77	433.00
472.95	409.59
473.13	383.85
473.31	418.96
473.49	404.91
473.67	362.78
473.85	447.04
474.03	428.32
474.21	409.59
474.39	449.38
474.57	437.68
474.75	442.36
474.93	402.57
475.12	393.21
475.30	376.83
475.48	397.89
475.66	449.38
475.84	379.17
476.02	381.51
476.20	430.66
476.38	416.62
476.56	428.32
476.74	388.53
476.92	353.42
477.10	454.06
477.28	444.70
477.46	400.23
477.64	440.02
477.82	430.66
478.00	348.74
478.18	463.43
478.36	409.59
478.54	482.15
478.72	383.85
478.90	461.09
479.08	383.85
479.26	381.51
479.44	353.42
479.62	430.66
479.80	416.62
479.98	390.87
480.16	400.23
480.34	407.25
480.52	414.27
480.70	409.59
480.88	418.96
481.06	334.70
481.24	418.96
481.41	454.06
481.59	369.80
481.77	388.53
481.95	423.64
482.13	416.62
482.31	409.59
482.49	395.55
482.67	362.78
482.85	414.27
483.03	440.02
483.21	383.85
483.39	383.85
483.57	444.70
483.74	433.00
483.92	458.74
484.10	430.66
484.28	346.40
484.46	503.22
484.64	414.27
484.82	458.74
485.00	367.46
485.18	409.59
485.35	425.98
485.53	395.55
485.71	456.40
485.89	407.25
486.07	428.32
486.25	437.68
486.43	425.98
486.61	425.98
486.78	423.64
486.96	390.87
487.14	470.45
487.32	393.21
487.50	379.17
487.68	461.09
487.85	411.93
488.03	397.89
488.21	416.62
488.39	386.19
488.57	437.68
488.75	461.09
488.92	461.09
489.10	351.08
489.28	400.23
489.46	388.53
489.64	421.30
489.81	444.70
489.99	411.93
490.17	430.66
490.35	407.25
490.53	442.36
490.70	482.15
490.88	390.87
491.06	341.72
491.24	447.04
491.41	390.87
491.59	484.49
491.77	395.55
491.95	397.89
492.13	367.46
492.30	360.44
492.48	355.76
492.66	402.57
492.84	369.80
493.01	442.36
493.19	451.72
493.37	393.21
493.54	402.57
493.72	411.93
493.90	430.66
494.08	395.55
494.25	428.32
494.43	484.49
494.61	416.62
494.79	390.87
494.96	433.00
495.14	458.74
495.32	458.74
495.49	435.34
495.67	337.04
495.85	421.30
496.02	376.83
496.20	491.51
496.38	362.78
496.55	447.04
496.73	414.27
496.91	416.62
497.09	379.17
497.26	423.64
497.44	428.32
497.62	440.02
497.79	437.68
497.97	418.96
498.14	442.36
498.32	365.12
498.50	404.91
498.67	374.49
498.85	437.68
499.03	425.98
499.20	379.17
499.38	346.40
499.56	465.77
499.73	435.34
499.91	381.51
500.08	437.68
500.26	421.30
500.44	393.21
500.61	435.34
500.79	425.98
500.97	402.57
501.14	337.04
501.32	425.98
501.49	449.38
501.67	442.36
501.84	379.17
502.02	362.78
502.20	454.06
502.37	430.66
502.55	367.46
502.72	383.85
502.90	475.13
503.07	404.91
503.25	491.51
503.43	325.33
503.60	358.10
503.78	395.55
503.95	402.57
504.13	440.02
504.30	416.62
504.48	421.30
504.65	451.72
504.83	388.53
505.01	341.72
505.18	358.10
505.36	411.93
505.53	407.25
505.71	330.02
505.88	423.64
506.06	421.30
506.23	421.30
506.41	416.62
506.58	411.93
506.76	512.58
506.93	400.23
507.11	402.57
507.28	416.62
507.46	496.19
507.63	379.17
507.81	362.78
507.98	437.68
508.16	337.04
508.33	404.91
508.50	421.30
508.68	461.09
508.85	430.66
509.03	369.80
509.20	414.27
509.38	395.55
509.55	407.25
509.73	468.11
509.90	437.68
510.08	386.19
510.25	449.38
510.42	400.23
510.60	472.79
510.77	397.89
510.95	465.77
511.12	416.62
511.30	425.98
511.47	437.68
511.64	454.06
511.82	390.87
511.99	428.32
512.17	493.85
512.34	407.25
512.51	381.51
512.69	374.49
512.86	376.83
513.04	484.49
513.21	416.62
513.38	393.21
513.56	440.02
513.73	482.15
513.90	393.21
514.08	372.15
514.25	435.34
514.43	386.19
514.60	440.02
514.77	376.83
514.95	388.53
515.12	351.08
515.29	383.85
515.47	383.85
515.64	416.62
515.81	444.70
515.99	528.96
516.16	407.25
516.33	407.25
516.51	344.06
516.68	437.68
516.85	400.23
517.03	423.64
517.20	376.83
517.37	393.21
517.54	505.56
517.72	381.51
517.89	388.53
518.06	393.21
518.24	409.59
518.41	444.70
518.58	484.49
518.75	383.85
518.93	428.32
519.10	416.62
519.27	437.68
519.45	482.15
519.62	407.25
519.79	409.59
519.96	374.49
520.14	383.85
520.31	395.55
520.48	465.77
520.65	365.12
520.83	468.11
521.00	402.57
521.17	416.62
521.34	397.89
521.52	447.04
521.69	458.74
521.86	386.19
522.03	367.46
522.20	395.55
522.38	374.49
522.55	458.74
522.72	404.91
522.89	409.59
523.07	444.70
523.24	400.23
523.41	393.21
523.58	423.64
523.75	440.02
523.92	472.79
524.10	334.70
524.27	376.83
524.44	421.30
524.61	461.09
524.78	425.98
524.96	458.74
525.13	348.74
525.30	404.91
525.47	456.40
525.64	482.15
525.81	528.96
525.98	456.40
526.16	418.96
526.33	346.40
526.50	409.59
526.67	465.77
526.84	346.40
527.01	409.59
527.18	402.57
527.36	393.21
527.53	407.25
527.70	470.45
527.87	404.91
528.04	386.19
528.21	418.96
528.38	463.43
528.55	344.06
528.72	454.06
528.89	425.98
529.07	402.57
529.24	393.21
529.41	437.68
529.58	456.40
529.75	365.12
529.92	437.68
530.09	414.27
530.26	423.64
530.43	402.57
530.60	409.59
530.77	409.59
530.94	416.62
531.11	430.66
531.28	397.89
531.46	442.36
531.63	407.25
531.80	407.25
531.97	451.72
532.14	390.87
532.31	447.04
532.48	381.51
532.65	379.17
532.82	402.57
532.99	397.89
533.16	393.21
533.33	461.09
533.50	498.53
533.67	468.11
533.84	449.38
534.01	418.96
534.18	367.46
534.35	444.70
534.52	454.06
534.69	428.32
534.86	414.27
535.03	365.12
535.20	421.30
535.37	442.36
535.54	353.42
535.71	397.89
535.88	393.21
536.05	437.68
536.22	437.68
536.38	362.78
536.55	418.96
536.72	407.25
536.89	428.32
537.06	468.11
537.23	479.81
537.40	397.89
537.57	447.04
537.74	496.19
537.91	461.09
538.08	411.93
538.25	433.00
538.42	416.62
538.59	355.76
538.75	456.40
538.92	369.80
539.09	411.93
539.26	470.45
539.43	425.98
539.60	395.55
539.77	435.34
539.94	456.40
540.11	437.68
540.28	388.53
540.44	407.25
540.61	355.76
540.78	381.51
540.95	383.85
541.12	423.64
541.29	404.91
541.46	433.00
541.62	393.21
541.79	344.06
541.96	386.19
542.13	404.91
542.30	383.85
542.47	393.21
542.63	425.98
542.80	418.96
542.97	418.96
543.14	463.43
543.31	440.02
543.48	372.15
543.64	362.78
543.81	430.66
543.98	400.23
544.15	402.57
544.32	444.70
544.48	456.40
544.65	381.51
544.82	332.36
544.99	388.53
545.16	393.21
545.32	381.51
545.49	381.51
545.66	454.06
545.83	484.49
546.00	444.70
546.16	421.30
546.33	362.78
546.50	442.36
546.67	465.77
546.83	404.91
547.00	395.55
547.17	416.62
547.34	386.19
547.50	360.44
547.67	351.08
547.84	416.62
548.00	430.66
548.17	423.64
548.34	362.78
548.51	435.34
548.67	461.09
548.84	414.27
549.01	456.40
549.18	418.96
549.34	369.80
549.51	386.19
549.68	395.55
549.84	437.68
550.01	402.57
550.18	433.00
550.34	468.11
550.51	496.19
550.68	528.96
550.84	423.64
551.01	397.89
551.18	355.76
551.34	383.85
551.51	400.23
551.68	411.93
551.84	449.38
552.01	374.49
552.18	440.02
552.34	416.62
552.51	414.27
552.68	407.25
552.84	400.23
553.01	456.40
553.18	423.64
553.34	475.13
553.51	390.87
553.67	514.92
553.84	367.46
554.01	365.12
554.17	414.27
554.34	449.38
554.51	442.36
554.67	498.53
554.84	386.19
555.00	428.32
555.17	425.98
555.33	386.19
555.50	463.43
555.67	479.81
555.83	418.96
556.00	498.53
556.16	517.26
556.33	440.02
556.50	386.19
556.66	372.15
556.83	454.06
556.99	362.78
557.16	379.17
557.32	430.66
557.49	451.72
557.65	479.81
557.82	395.55
557.98	404.91
558.15	393.21
558.32	397.89
558.48	421.30
558.65	463.43
558.81	428.32
558.98	376.83
559.14	433.00
559.31	416.62
559.47	496.19
559.64	379.17
559.80	458.74
559.97	449.38
560.13	402.57
560.30	353.42
560.46	418.96
560.63	358.10
560.79	444.70
560.96	376.83
561.12	395.55
561.29	409.59
561.45	409.59
561.61	451.72
561.78	465.77
561.94	435.34
562.11	463.43
562.27	463.43
562.44	423.64
562.60	400.23
562.77	444.70
562.93	421.30
563.10	456.40
563.26	402.57
563.42	491.51
563.59	346.40
563.75	327.68
563.92	454.06
564.08	376.83
564.24	416.62
564.41	512.58
564.57	416.62
564.74	397.89
564.90	372.15
565.07	428.32
565.23	512.58
565.39	402.57
565.56	409.59
565.72	379.17
565.88	435.34
566.05	442.36
566.21	447.04
566.38	418.96
566.54	414.27
566.70	451.72
566.87	390.87
567.03	376.83
567.19	421.30
567.36	416.62
567.52	421.30
567.68	454.06
567.85	465.77
568.01	475.13
568.17	348.74
568.34	383.85
568.50	470.45
568.66	395.55
568.83	486.83
568.99	367.46
569.15	451.72
569.32	407.25
569.48	423.64
569.64	402.57
569.81	311.29
569.97	367.46
570.13	496.19
570.30	397.89
570.46	341.72
570.62	358.10
570.78	475.13
570.95	402.57
571.11	449.38
571.27	365.12
571.43	421.30
571.60	421.30
571.76	447.04
571.92	423.64
572.09	353.42
572.25	500.87
572.41	425.98
572.57	463.43
572.74	465.77
572.90	491.51
573.06	454.06
573.22	461.09
573.38	404.91
573.55	437.68
573.71	397.89
573.87	400.23
574.03	411.93
574.20	461.09
574.36	351.08
574.52	477.47
574.68	393.21
574.84	430.66
575.01	397.89
575.17	355.76
575.33	397.89
575.49	409.59
575.65	440.02
575.82	461.09
575.98	465.77
576.14	428.32
576.30	411.93
576.46	404.91
576.62	454.06
576.79	344.06
576.95	421.30
577.11	440.02
577.27	355.76
577.43	425.98
577.59	442.36
577.75	447.04
577.92	414.27
578.08	421.30
578.24	411.93
578.40	362.78
578.56	479.81
578.72	475.13
578.88	388.53
579.04	465.77
579.21	390.87
579.37	472.79
579.53	390.87
579.69	383.85
579.85	430.66
580.01	418.96
580.17	369.80
580.33	454.06
580.49	465.77
580.65	454.06
580.82	400.23
580.98	425.98
581.14	411.93
581.30	444.70
581.46	374.49
581.62	447.04
581.78	411.93
581.94	414.27
582.10	383.85
582.26	381.51
582.42	430.66
582.58	390.87
582.74	468.11
582.90	390.87
583.06	381.51
583.22	383.85
583.38	404.91
583.54	411.93
583.70	418.96
583.86	416.62
584.02	400.23
584.18	416.62
584.34	444.70
584.50	393.21
584.66	376.83
584.82	416.62
584.98	334.70
585.14	512.58
585.30	437.68
585.46	428.32
585.62	367.46
585.78	454.06
585.94	395.55
586.10	369.80
586.26	447.04
586.42	397.89
586.58	425.98
586.74	393.21
586.90	388.53
587.06	402.57
587.22	383.85
587.38	374.49
587.54	407.25
587.70	423.64
587.86	386.19
588.02	447.04
588.18	369.80
588.34	482.15
588.49	489.17
588.65	430.66
588.81	379.17
588.97	400.23
589.13	381.51
589.29	379.17
589.45	454.06
589.61	461.09
589.77	456.40
589.93	409.59
590.08	512.58
590.24	365.12
590.40	451.72
590.56	470.45
590.72	386.19
590.88	386.19
591.04	416.62
591.20	409.59
591.35	428.32
591.51	433.00
591.67	421.30
591.83	451.72
591.99	458.74
592.15	454.06
592.31	435.34
592.46	383.85
592.62	454.06
592.78	348.74
592.94	430.66
593.10	320.65
593.26	425.98
593.41	416.62
593.57	442.36
593.73	351.08
593.89	449.38
594.05	409.59
594.20	421.30
594.36	409.59
594.52	369.80
594.68	369.80
594.84	475.13
594.99	428.32
595.15	404.91
595.31	390.87
595.47	472.79
595.62	423.64
595.78	430.66
595.94	458.74
596.10	472.79
596.25	470.45
596.41	456.40
596.57	484.49
596.73	414.27
596.88	477.47
597.04	486.83
597.20	425.98
597.36	475.13
597.51	353.42
597.67	404.91
597.83	414.27
597.99	407.25
598.14	376.83
598.30	411.93
598.46	386.19
598.61	477.47
598.77	458.74
598.93	414.27
599.09	360.44
599.24	358.10
599.40	458.74
599.56	400.23
599.71	454.06
599.87	386.19
600.03	409.59
600.18	440.02
600.34	404.91
600.50	428.32
600.65	428.32
600.81	393.21
600.97	402.57
601.12	409.59
601.28	465.77
601.44	456.40
601.59	374.49
601.75	397.89
601.91	442.36
602.06	414.27
602.22	510.24
602.37	435.34
602.53	456.40
602.69	440.02
602.84	416.62
603.00	379.17
603.16	402.57
603.31	402.57
603.47	362.78
603.62	358.10
603.78	402.57
603.94	435.34
604.09	486.83
604.25	379.17
604.40	484.49
604.56	428.32
604.71	444.70
604.87	435.34
605.03	386.19
605.18	454.06
605.34	456.40
605.49	489.17
605.65	341.72
605.80	444.70
605.96	407.25
606.12	358.10
606.27	449.38
606.43	390.87
606.58	479.81
606.74	421.30
606.89	393.21
607.05	470.45
607.20	404.91
607.36	449.38
607.51	449.38
607.67	489.17
607.82	402.57
607.98	468.11
608.13	430.66
608.29	418.96
608.44	458.74
608.60	423.64
608.75	479.81
608.91	395.55
609.06	390.87
609.22	440.02
609.37	339.38
609.53	381.51
609.68	479.81
609.84	414.27
609.99	411.93
610.15	425.98
