SpectraSuite Data File
++++++++++++++++++++++++++++++++++++
Date: Fri Oct 25 12:10:24 EDT 2013
User: price-jones
Dark Spectrum Present: No
Reference Spectrum Present: No
Number of Sampled Component Spectra: 1
Spectrometers: USB2+H05261
Integration Time (usec): 100000 (USB2+H05261)
Spectra Averaged: 1 (USB2+H05261)
Boxcar Smoothing: 0 (USB2+H05261)
Correct for Electrical Dark: No (USB2+H05261)
Strobe/Lamp Enabled: No (USB2+H05261)
Correct for Detector Non-linearity: No (USB2+H05261)
Correct for Stray Light: No (USB2+H05261)
Number of Pixels in Processed Spectrum: 2048
>>>>>Begin Processed Spectral Data<<<<<
365.73	388.53
365.92	388.53
366.12	388.53
366.32	229.37
366.52	269.16
366.72	212.99
366.91	161.50
367.11	196.60
367.31	257.46
367.51	257.46
367.70	243.42
367.90	299.59
368.10	227.03
368.30	224.69
368.49	222.35
368.69	313.63
368.89	283.20
369.09	227.03
369.28	255.12
369.48	191.92
369.68	271.50
369.87	252.78
370.07	344.06
370.27	372.15
370.47	304.27
370.66	374.49
370.86	334.70
371.06	379.17
371.25	395.55
371.45	313.63
371.65	369.80
371.84	362.78
372.04	390.87
372.24	327.68
372.44	365.12
372.63	414.27
372.83	365.12
373.03	388.53
373.22	358.10
373.42	433.00
373.62	390.87
373.81	416.62
374.01	397.89
374.21	456.40
374.40	395.55
374.60	433.00
374.79	346.40
374.99	388.53
375.19	362.78
375.38	475.13
375.58	470.45
375.78	395.55
375.97	390.87
376.17	475.13
376.37	421.30
376.56	395.55
376.76	395.55
376.95	367.46
377.15	416.62
377.35	395.55
377.54	407.25
377.74	376.83
377.93	433.00
378.13	372.15
378.33	423.64
378.52	479.81
378.72	451.72
378.91	409.59
379.11	418.96
379.31	369.80
379.50	332.36
379.70	376.83
379.89	512.58
380.09	395.55
380.28	341.72
380.48	390.87
380.68	337.04
380.87	388.53
381.07	404.91
381.26	416.62
381.46	470.45
381.65	423.64
381.85	367.46
382.04	372.15
382.24	416.62
382.43	374.49
382.63	402.57
382.83	411.93
383.02	428.32
383.22	379.17
383.41	421.30
383.61	465.77
383.80	442.36
384.00	388.53
384.19	374.49
384.39	433.00
384.58	311.29
384.78	402.57
384.97	414.27
385.17	346.40
385.36	407.25
385.56	308.95
385.75	404.91
385.95	440.02
386.14	383.85
386.34	414.27
386.53	475.13
386.72	449.38
386.92	397.89
387.11	430.66
387.31	454.06
387.50	348.74
387.70	346.40
387.89	386.19
388.09	421.30
388.28	386.19
388.48	381.51
388.67	425.98
388.86	388.53
389.06	444.70
389.25	507.90
389.45	423.64
389.64	461.09
389.84	451.72
390.03	425.98
390.22	376.83
390.42	400.23
390.61	470.45
390.81	423.64
391.00	320.65
391.19	358.10
391.39	367.46
391.58	458.74
391.78	418.96
391.97	393.21
392.16	381.51
392.36	430.66
392.55	491.51
392.75	433.00
392.94	402.57
393.13	407.25
393.33	365.12
393.52	451.72
393.71	411.93
393.91	421.30
394.10	421.30
394.29	409.59
394.49	421.30
394.68	381.51
394.88	418.96
395.07	493.85
395.26	423.64
395.46	489.17
395.65	428.32
395.84	477.47
396.04	489.17
396.23	409.59
396.42	388.53
396.62	369.80
396.81	416.62
397.00	383.85
397.19	449.38
397.39	395.55
397.58	451.72
397.77	388.53
397.97	416.62
398.16	428.32
398.35	369.80
398.55	400.23
398.74	428.32
398.93	402.57
399.12	416.62
399.32	489.17
399.51	374.49
399.70	372.15
399.90	430.66
400.09	386.19
400.28	372.15
400.47	383.85
400.67	379.17
400.86	425.98
401.05	449.38
401.24	409.59
401.44	379.17
401.63	404.91
401.82	475.13
402.01	402.57
402.21	425.98
402.40	489.17
402.59	409.59
402.78	372.15
402.97	367.46
403.17	320.65
403.36	407.25
403.55	449.38
403.74	388.53
403.93	381.51
404.13	430.66
404.32	390.87
404.51	358.10
404.70	444.70
404.89	346.40
405.09	421.30
405.28	433.00
405.47	409.59
405.66	383.85
405.85	435.34
406.05	330.02
406.24	414.27
406.43	383.85
406.62	402.57
406.81	482.15
407.00	437.68
407.20	367.46
407.39	388.53
407.58	369.80
407.77	468.11
407.96	447.04
408.15	372.15
408.34	409.59
408.54	369.80
408.73	376.83
408.92	442.36
409.11	393.21
409.30	433.00
409.49	390.87
409.68	362.78
409.87	442.36
410.07	409.59
410.26	330.02
410.45	365.12
410.64	379.17
410.83	372.15
411.02	416.62
411.21	463.43
411.40	493.85
411.59	418.96
411.78	386.19
411.98	428.32
412.17	379.17
412.36	407.25
412.55	355.76
412.74	428.32
412.93	475.13
413.12	416.62
413.31	402.57
413.50	418.96
413.69	444.70
413.88	454.06
414.07	402.57
414.26	433.00
414.45	397.89
414.64	433.00
414.83	437.68
415.02	383.85
415.22	428.32
415.41	414.27
415.60	379.17
415.79	444.70
415.98	400.23
416.17	421.30
416.36	381.51
416.55	423.64
416.74	433.00
416.93	383.85
417.12	407.25
417.31	383.85
417.50	423.64
417.69	507.90
417.88	414.27
418.07	400.23
418.26	407.25
418.45	388.53
418.64	414.27
418.83	383.85
419.02	414.27
419.21	435.34
419.39	456.40
419.58	409.59
419.77	414.27
419.96	468.11
420.15	510.24
420.34	400.23
420.53	435.34
420.72	442.36
420.91	451.72
421.10	411.93
421.29	365.12
421.48	393.21
421.67	463.43
421.86	397.89
422.05	421.30
422.24	433.00
422.43	479.81
422.61	395.55
422.80	449.38
422.99	402.57
423.18	376.83
423.37	500.87
423.56	400.23
423.75	418.96
423.94	461.09
424.13	379.17
424.32	360.44
424.50	386.19
424.69	416.62
424.88	369.80
425.07	379.17
425.26	416.62
425.45	367.46
425.64	421.30
425.83	348.74
426.01	430.66
426.20	379.17
426.39	381.51
426.58	365.12
426.77	454.06
426.96	425.98
427.15	444.70
427.33	390.87
427.52	409.59
427.71	393.21
427.90	472.79
428.09	433.00
428.28	355.76
428.46	444.70
428.65	381.51
428.84	390.87
429.03	451.72
429.22	404.91
429.40	454.06
429.59	449.38
429.78	383.85
429.97	463.43
430.16	414.27
430.34	454.06
430.53	479.81
430.72	402.57
430.91	461.09
431.10	428.32
431.28	435.34
431.47	395.55
431.66	423.64
431.85	388.53
432.03	376.83
432.22	477.47
432.41	376.83
432.60	425.98
432.79	407.25
432.97	430.66
433.16	430.66
433.35	454.06
433.54	393.21
433.72	440.02
433.91	437.68
434.10	440.02
434.28	402.57
434.47	348.74
434.66	454.06
434.85	425.98
435.03	407.25
435.22	425.98
435.41	440.02
435.59	440.02
435.78	418.96
435.97	313.63
436.16	447.04
436.34	449.38
436.53	379.17
436.72	421.30
436.90	486.83
437.09	421.30
437.28	411.93
437.46	425.98
437.65	461.09
437.84	341.72
438.02	393.21
438.21	456.40
438.40	447.04
438.58	358.10
438.77	374.49
438.96	372.15
439.14	386.19
439.33	409.59
439.52	463.43
439.70	393.21
439.89	404.91
440.08	470.45
440.26	454.06
440.45	456.40
440.63	468.11
440.82	444.70
441.01	407.25
441.19	407.25
441.38	407.25
441.57	404.91
441.75	437.68
441.94	444.70
442.12	430.66
442.31	475.13
442.50	479.81
442.68	421.30
442.87	470.45
443.05	486.83
443.24	414.27
443.43	390.87
443.61	381.51
443.80	411.93
443.98	430.66
444.17	404.91
444.35	395.55
444.54	365.12
444.73	407.25
444.91	456.40
445.10	390.87
445.28	395.55
445.47	402.57
445.65	454.06
445.84	346.40
446.02	442.36
446.21	421.30
446.39	355.76
446.58	386.19
446.77	393.21
446.95	454.06
447.14	395.55
447.32	376.83
447.51	383.85
447.69	362.78
447.88	477.47
448.06	447.04
448.25	379.17
448.43	414.27
448.62	416.62
448.80	372.15
448.99	447.04
449.17	367.46
449.36	334.70
449.54	388.53
449.73	414.27
449.91	393.21
450.10	346.40
450.28	423.64
450.46	475.13
450.65	489.17
450.83	407.25
451.02	400.23
451.20	386.19
451.39	386.19
451.57	383.85
451.76	409.59
451.94	381.51
452.13	444.70
452.31	489.17
452.49	388.53
452.68	475.13
452.86	400.23
453.05	514.92
453.23	421.30
453.42	437.68
453.60	449.38
453.78	390.87
453.97	414.27
454.15	470.45
454.34	433.00
454.52	416.62
454.70	430.66
454.89	428.32
455.07	404.91
455.26	435.34
455.44	435.34
455.62	388.53
455.81	379.17
455.99	402.57
456.17	397.89
456.36	362.78
456.54	416.62
456.73	308.95
456.91	367.46
457.09	465.77
457.28	388.53
457.46	421.30
457.64	456.40
457.83	428.32
458.01	362.78
458.19	435.34
458.38	383.85
458.56	416.62
458.74	379.17
458.93	428.32
459.11	430.66
459.29	456.40
459.48	383.85
459.66	421.30
459.84	482.15
460.03	477.47
460.21	454.06
460.39	451.72
460.57	470.45
460.76	390.87
460.94	435.34
461.12	463.43
461.31	390.87
461.49	418.96
461.67	393.21
461.85	362.78
462.04	400.23
462.22	779.40
462.40	449.38
462.59	414.27
462.77	428.32
462.95	430.66
463.13	383.85
463.32	390.87
463.50	444.70
463.68	425.98
463.86	451.72
464.05	383.85
464.23	451.72
464.41	470.45
464.59	416.62
464.78	358.10
464.96	383.85
465.14	414.27
465.32	428.32
465.50	505.56
465.69	468.11
465.87	428.32
466.05	437.68
466.23	409.59
466.41	461.09
466.60	437.68
466.78	442.36
466.96	463.43
467.14	416.62
467.32	454.06
467.51	397.89
467.69	397.89
467.87	437.68
468.05	484.49
468.23	418.96
468.41	428.32
468.60	442.36
468.78	404.91
468.96	425.98
469.14	411.93
469.32	400.23
469.50	376.83
469.69	372.15
469.87	411.93
470.05	416.62
470.23	428.32
470.41	449.38
470.59	444.70
470.77	425.98
470.95	479.81
471.14	383.85
471.32	409.59
471.50	430.66
471.68	402.57
471.86	381.51
472.04	444.70
472.22	461.09
472.40	447.04
472.58	428.32
472.77	397.89
472.95	447.04
473.13	430.66
473.31	477.47
473.49	454.06
473.67	330.02
473.85	383.85
474.03	411.93
474.21	435.34
474.39	395.55
474.57	505.56
474.75	383.85
474.93	404.91
475.12	374.49
475.30	369.80
475.48	411.93
475.66	423.64
475.84	353.42
476.02	475.13
476.20	559.39
476.38	510.24
476.56	463.43
476.74	456.40
476.92	435.34
477.10	451.72
477.28	388.53
477.46	374.49
477.64	411.93
477.82	402.57
478.00	456.40
478.18	355.76
478.36	435.34
478.54	418.96
478.72	379.17
478.90	388.53
479.08	409.59
479.26	383.85
479.44	362.78
479.62	346.40
479.80	416.62
479.98	393.21
480.16	365.12
480.34	435.34
480.52	344.06
480.70	521.94
480.88	390.87
481.06	425.98
481.24	379.17
481.41	376.83
481.59	454.06
481.77	461.09
481.95	348.74
482.13	393.21
482.31	444.70
482.49	402.57
482.67	425.98
482.85	402.57
483.03	437.68
483.21	423.64
483.39	433.00
483.57	362.78
483.74	386.19
483.92	421.30
484.10	395.55
484.28	388.53
484.46	465.77
484.64	418.96
484.82	435.34
485.00	454.06
485.18	538.32
485.35	411.93
485.53	334.70
485.71	454.06
485.89	442.36
486.07	442.36
486.25	475.13
486.43	430.66
486.61	440.02
486.78	442.36
486.96	383.85
487.14	404.91
487.32	388.53
487.50	374.49
487.68	414.27
487.85	416.62
488.03	411.93
488.21	449.38
488.39	482.15
488.57	402.57
488.75	404.91
488.92	430.66
489.10	372.15
489.28	390.87
489.46	409.59
489.64	423.64
489.81	341.72
489.99	414.27
490.17	414.27
490.35	496.19
490.53	372.15
490.70	461.09
490.88	442.36
491.06	416.62
491.24	428.32
491.41	507.90
491.59	437.68
491.77	395.55
491.95	369.80
492.13	393.21
492.30	407.25
492.48	423.64
492.66	393.21
492.84	493.85
493.01	414.27
493.19	430.66
493.37	379.17
493.54	390.87
493.72	348.74
493.90	348.74
494.08	484.49
494.25	383.85
494.43	393.21
494.61	428.32
494.79	402.57
494.96	330.02
495.14	414.27
495.32	400.23
495.49	461.09
495.67	433.00
495.85	407.25
496.02	510.24
496.20	435.34
496.38	402.57
496.55	418.96
496.73	440.02
496.91	337.04
497.09	486.83
497.26	400.23
497.44	339.38
497.62	327.68
497.79	447.04
497.97	367.46
498.14	395.55
498.32	414.27
498.50	409.59
498.67	341.72
498.85	442.36
499.03	383.85
499.20	416.62
499.38	395.55
499.56	430.66
499.73	451.72
499.91	433.00
500.08	468.11
500.26	461.09
500.44	414.27
500.61	374.49
500.79	386.19
500.97	425.98
501.14	437.68
501.32	379.17
501.49	423.64
501.67	496.19
501.84	381.51
502.02	423.64
502.20	428.32
502.37	442.36
502.55	423.64
502.72	346.40
502.90	503.22
503.07	421.30
503.25	332.36
503.43	374.49
503.60	425.98
503.78	423.64
503.95	341.72
504.13	411.93
504.30	491.51
504.48	468.11
504.65	397.89
504.83	437.68
505.01	365.12
505.18	407.25
505.36	416.62
505.53	395.55
505.71	444.70
505.88	416.62
506.06	376.83
506.23	433.00
506.41	395.55
506.58	423.64
506.76	468.11
506.93	390.87
507.11	388.53
507.28	411.93
507.46	416.62
507.63	425.98
507.81	334.70
507.98	397.89
508.16	465.77
508.33	414.27
508.50	484.49
508.68	425.98
508.85	428.32
509.03	395.55
509.20	402.57
509.38	376.83
509.55	430.66
509.73	433.00
509.90	514.92
510.08	423.64
510.25	362.78
510.42	418.96
510.60	418.96
510.77	395.55
510.95	465.77
511.12	346.40
511.30	372.15
511.47	444.70
511.64	477.47
511.82	372.15
511.99	472.79
512.17	437.68
512.34	428.32
512.51	433.00
512.69	360.44
512.86	470.45
513.04	360.44
513.21	454.06
513.38	472.79
513.56	444.70
513.73	348.74
513.90	411.93
514.08	407.25
514.25	454.06
514.43	425.98
514.60	360.44
514.77	505.56
514.95	468.11
515.12	411.93
515.29	428.32
515.47	435.34
515.64	447.04
515.81	381.51
515.99	440.02
516.16	463.43
516.33	416.62
516.51	395.55
516.68	400.23
516.85	400.23
517.03	437.68
517.20	472.79
517.37	409.59
517.54	468.11
517.72	404.91
517.89	306.61
518.06	442.36
518.24	437.68
518.41	400.23
518.58	440.02
518.75	454.06
518.93	440.02
519.10	400.23
519.27	416.62
519.45	416.62
519.62	433.00
519.79	465.77
519.96	414.27
520.14	358.10
520.31	493.85
520.48	397.89
520.65	381.51
520.83	430.66
521.00	404.91
521.17	449.38
521.34	425.98
521.52	397.89
521.69	458.74
521.86	498.53
522.03	461.09
522.20	428.32
522.38	386.19
522.55	341.72
522.72	322.99
522.89	386.19
523.07	423.64
523.24	433.00
523.41	395.55
523.58	456.40
523.75	379.17
523.92	416.62
524.10	444.70
524.27	393.21
524.44	435.34
524.61	444.70
524.78	393.21
524.96	465.77
525.13	458.74
525.30	472.79
525.47	383.85
525.64	463.43
525.81	491.51
525.98	428.32
526.16	435.34
526.33	365.12
526.50	381.51
526.67	442.36
526.84	365.12
527.01	409.59
527.18	383.85
527.36	397.89
527.53	346.40
527.70	449.38
527.87	369.80
528.04	491.51
528.21	411.93
528.38	444.70
528.55	449.38
528.72	440.02
528.89	430.66
529.07	456.40
529.24	458.74
529.41	418.96
529.58	458.74
529.75	440.02
529.92	367.46
530.09	418.96
530.26	404.91
530.43	437.68
530.60	444.70
530.77	383.85
530.94	362.78
531.11	507.90
531.28	425.98
531.46	416.62
531.63	407.25
531.80	397.89
531.97	416.62
532.14	407.25
532.31	379.17
532.48	461.09
532.65	386.19
532.82	404.91
532.99	458.74
533.16	449.38
533.33	458.74
533.50	491.51
533.67	428.32
533.84	400.23
534.01	421.30
534.18	484.49
534.35	425.98
534.52	388.53
534.69	435.34
534.86	449.38
535.03	407.25
535.20	404.91
535.37	400.23
535.54	376.83
535.71	451.72
535.88	437.68
536.05	475.13
536.22	409.59
536.38	454.06
536.55	479.81
536.72	433.00
536.89	390.87
537.06	517.26
537.23	407.25
537.40	421.30
537.57	381.51
537.74	388.53
537.91	390.87
538.08	418.96
538.25	395.55
538.42	334.70
538.59	358.10
538.75	444.70
538.92	475.13
539.09	414.27
539.26	404.91
539.43	456.40
539.60	425.98
539.77	341.72
539.94	383.85
540.11	421.30
540.28	454.06
540.44	397.89
540.61	353.42
540.78	386.19
540.95	362.78
541.12	379.17
541.29	344.06
541.46	444.70
541.62	463.43
541.79	379.17
541.96	437.68
542.13	414.27
542.30	397.89
542.47	374.49
542.63	475.13
542.80	402.57
542.97	442.36
543.14	442.36
543.31	468.11
543.48	411.93
543.64	451.72
543.81	421.30
543.98	407.25
544.15	435.34
544.32	372.15
544.48	390.87
544.65	475.13
544.82	388.53
544.99	414.27
545.16	393.21
545.32	386.19
545.49	454.06
545.66	383.85
545.83	442.36
546.00	435.34
546.16	475.13
546.33	411.93
546.50	425.98
546.67	440.02
546.83	517.26
547.00	428.32
547.17	447.04
547.34	393.21
547.50	330.02
547.67	416.62
547.84	367.46
548.00	451.72
548.17	388.53
548.34	425.98
548.51	477.47
548.67	430.66
548.84	411.93
549.01	423.64
549.18	430.66
549.34	407.25
549.51	409.59
549.68	388.53
549.84	423.64
550.01	435.34
550.18	463.43
550.34	395.55
550.51	395.55
550.68	451.72
550.84	407.25
551.01	475.13
551.18	444.70
551.34	390.87
551.51	416.62
551.68	395.55
551.84	388.53
552.01	458.74
552.18	369.80
552.34	475.13
552.51	355.76
552.68	470.45
552.84	440.02
553.01	444.70
553.18	477.47
553.34	428.32
553.51	365.12
553.67	484.49
553.84	397.89
554.01	430.66
554.17	414.27
554.34	444.70
554.51	400.23
554.67	458.74
554.84	433.00
555.00	428.32
555.17	416.62
555.33	477.47
555.50	486.83
555.67	416.62
555.83	425.98
556.00	428.32
556.16	526.62
556.33	447.04
556.50	428.32
556.66	376.83
556.83	376.83
556.99	407.25
557.16	353.42
557.32	383.85
557.49	372.15
557.65	360.44
557.82	440.02
557.98	409.59
558.15	416.62
558.32	433.00
558.48	404.91
558.65	404.91
558.81	449.38
558.98	442.36
559.14	486.83
559.31	451.72
559.47	440.02
559.64	393.21
559.80	433.00
559.97	388.53
560.13	425.98
560.30	402.57
560.46	465.77
560.63	348.74
560.79	414.27
560.96	411.93
561.12	414.27
561.29	449.38
561.45	411.93
561.61	423.64
561.78	477.47
561.94	402.57
562.11	440.02
562.27	360.44
562.44	376.83
562.60	447.04
562.77	433.00
562.93	442.36
563.10	346.40
563.26	477.47
563.42	400.23
563.59	458.74
563.75	360.44
563.92	435.34
564.08	470.45
564.24	491.51
564.41	475.13
564.57	393.21
564.74	341.72
564.90	433.00
565.07	407.25
565.23	440.02
565.39	421.30
565.56	449.38
565.72	407.25
565.88	369.80
566.05	400.23
566.21	418.96
566.38	435.34
566.54	451.72
566.70	411.93
566.87	468.11
567.03	442.36
567.19	440.02
567.36	386.19
567.52	388.53
567.68	461.09
567.85	411.93
568.01	381.51
568.17	444.70
568.34	484.49
568.50	442.36
568.66	341.72
568.83	433.00
568.99	407.25
569.15	442.36
569.32	468.11
569.48	489.17
569.64	414.27
569.81	358.10
569.97	414.27
570.13	451.72
570.30	344.06
570.46	404.91
570.62	475.13
570.78	421.30
570.95	414.27
571.11	475.13
571.27	433.00
571.43	390.87
571.60	360.44
571.76	348.74
571.92	470.45
572.09	341.72
572.25	365.12
572.41	430.66
572.57	456.40
572.74	461.09
572.90	393.21
573.06	414.27
573.22	458.74
573.38	376.83
573.55	465.77
573.71	351.08
573.87	409.59
574.03	407.25
574.20	463.43
574.36	416.62
574.52	440.02
574.68	465.77
574.84	423.64
575.01	379.17
575.17	456.40
575.33	409.59
575.49	470.45
575.65	411.93
575.82	416.62
575.98	416.62
576.14	444.70
576.30	416.62
576.46	369.80
576.62	500.87
576.79	451.72
576.95	369.80
577.11	437.68
577.27	402.57
577.43	409.59
577.59	456.40
577.75	482.15
577.92	346.40
578.08	430.66
578.24	386.19
578.40	440.02
578.56	416.62
578.72	437.68
578.88	358.10
579.04	365.12
579.21	433.00
579.37	430.66
579.53	425.98
579.69	423.64
579.85	451.72
580.01	428.32
580.17	369.80
580.33	433.00
580.49	402.57
580.65	428.32
580.82	383.85
580.98	360.44
581.14	458.74
581.30	411.93
581.46	400.23
581.62	435.34
581.78	369.80
581.94	435.34
582.10	414.27
582.26	407.25
582.42	376.83
582.58	458.74
582.74	397.89
582.90	451.72
583.06	442.36
583.22	451.72
583.38	414.27
583.54	444.70
583.70	390.87
583.86	433.00
584.02	463.43
584.18	404.91
584.34	482.15
584.50	435.34
584.66	379.17
584.82	416.62
584.98	477.47
585.14	425.98
585.30	418.96
585.46	440.02
585.62	430.66
585.78	433.00
585.94	442.36
586.10	442.36
586.26	442.36
586.42	500.87
586.58	491.51
586.74	430.66
586.90	407.25
587.06	437.68
587.22	428.32
587.38	407.25
587.54	447.04
587.70	461.09
587.86	423.64
588.02	374.49
588.18	498.53
588.34	390.87
588.49	402.57
588.65	409.59
588.81	489.17
588.97	418.96
589.13	400.23
589.29	430.66
589.45	472.79
589.61	390.87
589.77	503.22
589.93	374.49
590.08	330.02
590.24	402.57
590.40	433.00
590.56	374.49
590.72	468.11
590.88	444.70
591.04	397.89
591.20	397.89
591.35	477.47
591.51	475.13
591.67	433.00
591.83	440.02
591.99	442.36
592.15	386.19
592.31	414.27
592.46	407.25
592.62	440.02
592.78	430.66
592.94	367.46
593.10	425.98
593.26	407.25
593.41	416.62
593.57	444.70
593.73	348.74
593.89	411.93
594.05	374.49
594.20	414.27
594.36	416.62
594.52	535.98
594.68	409.59
594.84	425.98
594.99	468.11
595.15	416.62
595.31	451.72
595.47	435.34
595.62	411.93
595.78	423.64
595.94	451.72
596.10	435.34
596.25	341.72
596.41	468.11
596.57	348.74
596.73	390.87
596.88	440.02
597.04	393.21
597.20	416.62
597.36	334.70
597.51	409.59
597.67	416.62
597.83	379.17
597.99	444.70
598.14	449.38
598.30	430.66
598.46	407.25
598.61	486.83
598.77	402.57
598.93	458.74
599.09	341.72
599.24	468.11
599.40	442.36
599.56	416.62
599.71	395.55
599.87	365.12
600.03	411.93
600.18	498.53
600.34	475.13
600.50	449.38
600.65	425.98
600.81	444.70
600.97	390.87
601.12	461.09
601.28	379.17
601.44	465.77
601.59	390.87
601.75	411.93
601.91	465.77
602.06	344.06
602.22	355.76
602.37	442.36
602.53	461.09
602.69	428.32
602.84	353.42
603.00	360.44
603.16	449.38
603.31	348.74
603.47	407.25
603.62	442.36
603.78	465.77
603.94	463.43
604.09	458.74
604.25	475.13
604.40	404.91
604.56	381.51
604.71	442.36
604.87	444.70
605.03	386.19
605.18	390.87
605.34	414.27
605.49	393.21
605.65	400.23
605.80	435.34
605.96	430.66
606.12	395.55
606.27	475.13
606.43	451.72
606.58	447.04
606.74	358.10
606.89	411.93
607.05	435.34
607.20	400.23
607.36	362.78
607.51	393.21
607.67	444.70
607.82	395.55
607.98	470.45
608.13	437.68
608.29	456.40
608.44	374.49
608.60	407.25
608.75	395.55
608.91	411.93
609.06	428.32
609.22	437.68
609.37	397.89
609.53	372.15
609.68	348.74
609.84	437.68
609.99	372.15
610.15	463.43
