SpectraSuite Data File
++++++++++++++++++++++++++++++++++++
Date: Fri Oct 25 12:10:30 EDT 2013
User: price-jones
Dark Spectrum Present: No
Reference Spectrum Present: No
Number of Sampled Component Spectra: 1
Spectrometers: USB2+H05261
Integration Time (usec): 100000 (USB2+H05261)
Spectra Averaged: 1 (USB2+H05261)
Boxcar Smoothing: 0 (USB2+H05261)
Correct for Electrical Dark: No (USB2+H05261)
Strobe/Lamp Enabled: No (USB2+H05261)
Correct for Detector Non-linearity: No (USB2+H05261)
Correct for Stray Light: No (USB2+H05261)
Number of Pixels in Processed Spectrum: 2048
>>>>>Begin Processed Spectral Data<<<<<
365.73	395.55
365.92	395.55
366.12	395.55
366.32	257.46
366.52	234.05
366.72	266.82
366.91	205.97
367.11	224.69
367.31	252.78
367.51	290.23
367.70	283.20
367.90	245.76
368.10	238.73
368.30	187.24
368.49	262.14
368.69	294.91
368.89	227.03
369.09	269.16
369.28	313.63
369.48	285.55
369.68	212.99
369.87	308.95
370.07	292.57
370.27	330.02
370.47	311.29
370.66	365.12
370.86	339.38
371.06	425.98
371.25	339.38
371.45	320.65
371.65	400.23
371.84	400.23
372.04	407.25
372.24	414.27
372.44	395.55
372.63	418.96
372.83	358.10
373.03	353.42
373.22	428.32
373.42	416.62
373.62	388.53
373.81	428.32
374.01	482.15
374.21	372.15
374.40	409.59
374.60	430.66
374.79	449.38
374.99	397.89
375.19	423.64
375.38	395.55
375.58	337.04
375.78	465.77
375.97	397.89
376.17	482.15
376.37	372.15
376.56	430.66
376.76	423.64
376.95	404.91
377.15	437.68
377.35	400.23
377.54	475.13
377.74	402.57
377.93	348.74
378.13	442.36
378.33	475.13
378.52	493.85
378.72	468.11
378.91	433.00
379.11	367.46
379.31	390.87
379.50	458.74
379.70	454.06
379.89	400.23
380.09	346.40
380.28	381.51
380.48	374.49
380.68	400.23
380.87	407.25
381.07	381.51
381.26	404.91
381.46	416.62
381.65	386.19
381.85	521.94
382.04	390.87
382.24	421.30
382.43	430.66
382.63	414.27
382.83	376.83
383.02	407.25
383.22	374.49
383.41	421.30
383.61	425.98
383.80	379.17
384.00	411.93
384.19	416.62
384.39	423.64
384.58	292.57
384.78	374.49
384.97	447.04
385.17	425.98
385.36	414.27
385.56	393.21
385.75	491.51
385.95	344.06
386.14	491.51
386.34	414.27
386.53	416.62
386.72	355.76
386.92	407.25
387.11	444.70
387.31	381.51
387.50	358.10
387.70	449.38
387.89	435.34
388.09	351.08
388.28	381.51
388.48	407.25
388.67	397.89
388.86	428.32
389.06	449.38
389.25	407.25
389.45	374.49
389.64	369.80
389.84	449.38
390.03	484.49
390.22	341.72
390.42	374.49
390.61	416.62
390.81	365.12
391.00	421.30
391.19	409.59
391.39	397.89
391.58	423.64
391.78	339.38
391.97	416.62
392.16	425.98
392.36	454.06
392.55	397.89
392.75	437.68
392.94	421.30
393.13	411.93
393.33	374.49
393.52	395.55
393.71	348.74
393.91	397.89
394.10	351.08
394.29	372.15
394.49	414.27
394.68	442.36
394.88	428.32
395.07	449.38
395.26	358.10
395.46	411.93
395.65	447.04
395.84	454.06
396.04	423.64
396.23	402.57
396.42	416.62
396.62	402.57
396.81	386.19
397.00	374.49
397.19	418.96
397.39	425.98
397.58	444.70
397.77	388.53
397.97	381.51
398.16	451.72
398.35	451.72
398.55	276.18
398.74	404.91
398.93	461.09
399.12	374.49
399.32	482.15
399.51	320.65
399.70	470.45
399.90	423.64
400.09	435.34
400.28	435.34
400.47	355.76
400.67	428.32
400.86	381.51
401.05	404.91
401.24	435.34
401.44	421.30
401.63	402.57
401.82	404.91
402.01	351.08
402.21	376.83
402.40	440.02
402.59	351.08
402.78	369.80
402.97	383.85
403.17	423.64
403.36	440.02
403.55	402.57
403.74	423.64
403.93	386.19
404.13	433.00
404.32	360.44
404.51	472.79
404.70	458.74
404.89	435.34
405.09	463.43
405.28	433.00
405.47	360.44
405.66	440.02
405.85	425.98
406.05	442.36
406.24	388.53
406.43	362.78
406.62	369.80
406.81	454.06
407.00	409.59
407.20	411.93
407.39	369.80
407.58	372.15
407.77	416.62
407.96	433.00
408.15	447.04
408.34	381.51
408.54	433.00
408.73	482.15
408.92	411.93
409.11	372.15
409.30	430.66
409.49	407.25
409.68	397.89
409.87	395.55
410.07	407.25
410.26	465.77
410.45	346.40
410.64	360.44
410.83	315.97
411.02	351.08
411.21	447.04
411.40	456.40
411.59	332.36
411.78	367.46
411.98	479.81
412.17	334.70
412.36	395.55
412.55	402.57
412.74	435.34
412.93	454.06
413.12	397.89
413.31	404.91
413.50	440.02
413.69	442.36
413.88	414.27
414.07	409.59
414.26	435.34
414.45	379.17
414.64	411.93
414.83	433.00
415.02	440.02
415.22	418.96
415.41	451.72
415.60	353.42
415.79	418.96
415.98	430.66
416.17	435.34
416.36	428.32
416.55	418.96
416.74	397.89
416.93	418.96
417.12	379.17
417.31	409.59
417.50	402.57
417.69	437.68
417.88	461.09
418.07	381.51
418.26	372.15
418.45	390.87
418.64	538.32
418.83	451.72
419.02	351.08
419.21	365.12
419.39	411.93
419.58	400.23
419.77	360.44
419.96	428.32
420.15	456.40
420.34	402.57
420.53	381.51
420.72	372.15
420.91	407.25
421.10	444.70
421.29	414.27
421.48	360.44
421.67	451.72
421.86	367.46
422.05	411.93
422.24	409.59
422.43	433.00
422.61	348.74
422.80	393.21
422.99	451.72
423.18	360.44
423.37	409.59
423.56	470.45
423.75	409.59
423.94	383.85
424.13	407.25
424.32	402.57
424.50	386.19
424.69	507.90
424.88	433.00
425.07	428.32
425.26	449.38
425.45	407.25
425.64	358.10
425.83	374.49
426.01	402.57
426.20	411.93
426.39	409.59
426.58	372.15
426.77	428.32
426.96	400.23
427.15	362.78
427.33	402.57
427.52	423.64
427.71	416.62
427.90	433.00
428.09	397.89
428.28	341.72
428.46	428.32
428.65	397.89
428.84	456.40
429.03	512.58
429.22	423.64
429.40	393.21
429.59	407.25
429.78	383.85
429.97	367.46
430.16	503.22
430.34	395.55
430.53	355.76
430.72	409.59
430.91	407.25
431.10	351.08
431.28	428.32
431.47	418.96
431.66	442.36
431.85	479.81
432.03	374.49
432.22	535.98
432.41	367.46
432.60	395.55
432.79	395.55
432.97	421.30
433.16	444.70
433.35	339.38
433.54	376.83
433.72	477.47
433.91	355.76
434.10	421.30
434.28	390.87
434.47	393.21
434.66	477.47
434.85	482.15
435.03	381.51
435.22	435.34
435.41	437.68
435.59	400.23
435.78	372.15
435.97	400.23
436.16	430.66
436.34	407.25
436.53	395.55
436.72	470.45
436.90	472.79
437.09	468.11
437.28	444.70
437.46	400.23
437.65	414.27
437.84	395.55
438.02	447.04
438.21	458.74
438.40	423.64
438.58	407.25
438.77	440.02
438.96	430.66
439.14	407.25
439.33	491.51
439.52	386.19
439.70	449.38
439.89	430.66
440.08	337.04
440.26	407.25
440.45	337.04
440.63	440.02
440.82	395.55
441.01	411.93
441.19	397.89
441.38	376.83
441.57	400.23
441.75	425.98
441.94	430.66
442.12	376.83
442.31	397.89
442.50	386.19
442.68	320.65
442.87	395.55
443.05	414.27
443.24	369.80
443.43	454.06
443.61	418.96
443.80	411.93
443.98	456.40
444.17	416.62
444.35	390.87
444.54	425.98
444.73	482.15
444.91	433.00
445.10	386.19
445.28	407.25
445.47	416.62
445.65	433.00
445.84	454.06
446.02	430.66
446.21	423.64
446.39	365.12
446.58	454.06
446.77	484.49
446.95	416.62
447.14	383.85
447.32	402.57
447.51	447.04
447.69	454.06
447.88	374.49
448.06	437.68
448.25	416.62
448.43	360.44
448.62	447.04
448.80	449.38
448.99	437.68
449.17	428.32
449.36	435.34
449.54	362.78
449.73	379.17
449.91	402.57
450.10	404.91
450.28	430.66
450.46	381.51
450.65	489.17
450.83	428.32
451.02	418.96
451.20	421.30
451.39	416.62
451.57	383.85
451.76	397.89
451.94	404.91
452.13	341.72
452.31	393.21
452.49	390.87
452.68	327.68
452.86	400.23
453.05	425.98
453.23	430.66
453.42	442.36
453.60	500.87
453.78	409.59
453.97	418.96
454.15	435.34
454.34	414.27
454.52	388.53
454.70	496.19
454.89	451.72
455.07	390.87
455.26	400.23
455.44	442.36
455.62	383.85
455.81	369.80
455.99	458.74
456.17	402.57
456.36	428.32
456.54	400.23
456.73	416.62
456.91	430.66
457.09	407.25
457.28	308.95
457.46	442.36
457.64	456.40
457.83	437.68
458.01	351.08
458.19	428.32
458.38	425.98
458.56	461.09
458.74	465.77
458.93	454.06
459.11	451.72
459.29	442.36
459.48	461.09
459.66	456.40
459.84	407.25
460.03	449.38
460.21	449.38
460.39	374.49
460.57	381.51
460.76	470.45
460.94	444.70
461.12	409.59
461.31	383.85
461.49	451.72
461.67	322.99
461.85	477.47
462.04	444.70
462.22	734.93
462.40	435.34
462.59	386.19
462.77	379.17
462.95	465.77
463.13	381.51
463.32	458.74
463.50	416.62
463.68	454.06
463.86	367.46
464.05	402.57
464.23	451.72
464.41	447.04
464.59	461.09
464.78	451.72
464.96	383.85
465.14	437.68
465.32	397.89
465.50	444.70
465.69	461.09
465.87	369.80
466.05	346.40
466.23	414.27
466.41	362.78
466.60	435.34
466.78	421.30
466.96	416.62
467.14	425.98
467.32	416.62
467.51	421.30
467.69	456.40
467.87	472.79
468.05	383.85
468.23	379.17
468.41	428.32
468.60	437.68
468.78	423.64
468.96	414.27
469.14	447.04
469.32	374.49
469.50	400.23
469.69	386.19
469.87	372.15
470.05	362.78
470.23	381.51
470.41	414.27
470.59	386.19
470.77	386.19
470.95	423.64
471.14	463.43
471.32	423.64
471.50	390.87
471.68	411.93
471.86	461.09
472.04	390.87
472.22	400.23
472.40	390.87
472.58	414.27
472.77	423.64
472.95	344.06
473.13	437.68
473.31	430.66
473.49	383.85
473.67	458.74
473.85	402.57
474.03	411.93
474.21	470.45
474.39	407.25
474.57	334.70
474.75	390.87
474.93	388.53
475.12	433.00
475.30	425.98
475.48	416.62
475.66	393.21
475.84	362.78
476.02	449.38
476.20	458.74
476.38	339.38
476.56	465.77
476.74	428.32
476.92	390.87
477.10	397.89
477.28	301.93
477.46	433.00
477.64	449.38
477.82	421.30
478.00	390.87
478.18	379.17
478.36	386.19
478.54	360.44
478.72	390.87
478.90	472.79
479.08	379.17
479.26	447.04
479.44	395.55
479.62	358.10
479.80	433.00
479.98	416.62
480.16	442.36
480.34	425.98
480.52	351.08
480.70	440.02
480.88	383.85
481.06	400.23
481.24	411.93
481.41	360.44
481.59	430.66
481.77	390.87
481.95	433.00
482.13	440.02
482.31	440.02
482.49	414.27
482.67	423.64
482.85	367.46
483.03	376.83
483.21	400.23
483.39	421.30
483.57	383.85
483.74	482.15
483.92	409.59
484.10	402.57
484.28	461.09
484.46	451.72
484.64	400.23
484.82	332.36
485.00	428.32
485.18	409.59
485.35	435.34
485.53	402.57
485.71	435.34
485.89	395.55
486.07	360.44
486.25	493.85
486.43	433.00
486.61	477.47
486.78	416.62
486.96	404.91
487.14	404.91
487.32	430.66
487.50	484.49
487.68	461.09
487.85	339.38
488.03	409.59
488.21	430.66
488.39	418.96
488.57	461.09
488.75	400.23
488.92	456.40
489.10	397.89
489.28	531.30
489.46	360.44
489.64	437.68
489.81	414.27
489.99	447.04
490.17	393.21
490.35	475.13
490.53	402.57
490.70	409.59
490.88	440.02
491.06	402.57
491.24	437.68
491.41	400.23
491.59	440.02
491.77	400.23
491.95	421.30
492.13	433.00
492.30	470.45
492.48	374.49
492.66	461.09
492.84	404.91
493.01	369.80
493.19	400.23
493.37	519.60
493.54	442.36
493.72	493.85
493.90	393.21
494.08	369.80
494.25	423.64
494.43	435.34
494.61	510.24
494.79	388.53
494.96	388.53
495.14	428.32
495.32	367.46
495.49	404.91
495.67	430.66
495.85	442.36
496.02	423.64
496.20	470.45
496.38	411.93
496.55	381.51
496.73	461.09
496.91	348.74
497.09	454.06
497.26	421.30
497.44	433.00
497.62	463.43
497.79	463.43
497.97	388.53
498.14	376.83
498.32	383.85
498.50	437.68
498.67	362.78
498.85	379.17
499.03	498.53
499.20	397.89
499.38	395.55
499.56	407.25
499.73	512.58
499.91	465.77
500.08	440.02
500.26	376.83
500.44	397.89
500.61	395.55
500.79	379.17
500.97	407.25
501.14	418.96
501.32	442.36
501.49	468.11
501.67	421.30
501.84	386.19
502.02	409.59
502.20	402.57
502.37	411.93
502.55	393.21
502.72	344.06
502.90	435.34
503.07	416.62
503.25	379.17
503.43	440.02
503.60	425.98
503.78	440.02
503.95	395.55
504.13	351.08
504.30	437.68
504.48	430.66
504.65	404.91
504.83	447.04
505.01	407.25
505.18	433.00
505.36	409.59
505.53	414.27
505.71	379.17
505.88	444.70
506.06	430.66
506.23	386.19
506.41	454.06
506.58	461.09
506.76	388.53
506.93	465.77
507.11	360.44
507.28	442.36
507.46	386.19
507.63	397.89
507.81	402.57
507.98	393.21
508.16	400.23
508.33	472.79
508.50	374.49
508.68	418.96
508.85	475.13
509.03	400.23
509.20	416.62
509.38	435.34
509.55	449.38
509.73	376.83
509.90	470.45
510.08	353.42
510.25	447.04
510.42	442.36
510.60	374.49
510.77	433.00
510.95	479.81
511.12	414.27
511.30	470.45
511.47	472.79
511.64	430.66
511.82	397.89
511.99	409.59
512.17	440.02
512.34	423.64
512.51	348.74
512.69	447.04
512.86	465.77
513.04	397.89
513.21	458.74
513.38	355.76
513.56	425.98
513.73	332.36
513.90	397.89
514.08	425.98
514.25	435.34
514.43	383.85
514.60	437.68
514.77	374.49
514.95	397.89
515.12	444.70
515.29	479.81
515.47	430.66
515.64	416.62
515.81	423.64
515.99	484.49
516.16	456.40
516.33	444.70
516.51	489.17
516.68	318.31
516.85	407.25
517.03	500.87
517.20	433.00
517.37	423.64
517.54	451.72
517.72	430.66
517.89	360.44
518.06	397.89
518.24	477.47
518.41	435.34
518.58	423.64
518.75	379.17
518.93	367.46
519.10	390.87
519.27	435.34
519.45	451.72
519.62	465.77
519.79	475.13
519.96	428.32
520.14	456.40
520.31	472.79
520.48	381.51
520.65	486.83
520.83	489.17
521.00	451.72
521.17	407.25
521.34	414.27
521.52	414.27
521.69	454.06
521.86	489.17
522.03	423.64
522.20	400.23
522.38	421.30
522.55	423.64
522.72	395.55
522.89	440.02
523.07	458.74
523.24	425.98
523.41	379.17
523.58	320.65
523.75	425.98
523.92	376.83
524.10	463.43
524.27	404.91
524.44	425.98
524.61	418.96
524.78	395.55
524.96	433.00
525.13	400.23
525.30	465.77
525.47	465.77
525.64	421.30
525.81	395.55
525.98	404.91
526.16	397.89
526.33	358.10
526.50	353.42
526.67	379.17
526.84	395.55
527.01	423.64
527.18	461.09
527.36	444.70
527.53	390.87
527.70	402.57
527.87	418.96
528.04	505.56
528.21	395.55
528.38	421.30
528.55	493.85
528.72	421.30
528.89	461.09
529.07	379.17
529.24	348.74
529.41	430.66
529.58	339.38
529.75	442.36
529.92	454.06
530.09	437.68
530.26	409.59
530.43	348.74
530.60	397.89
530.77	404.91
530.94	437.68
531.11	407.25
531.28	437.68
531.46	397.89
531.63	374.49
531.80	362.78
531.97	351.08
532.14	404.91
532.31	458.74
532.48	418.96
532.65	428.32
532.82	407.25
532.99	470.45
533.16	451.72
533.33	435.34
533.50	409.59
533.67	404.91
533.84	461.09
534.01	456.40
534.18	414.27
534.35	435.34
534.52	353.42
534.69	428.32
534.86	383.85
535.03	421.30
535.20	472.79
535.37	479.81
535.54	456.40
535.71	454.06
535.88	477.47
536.05	341.72
536.22	402.57
536.38	388.53
536.55	425.98
536.72	449.38
536.89	379.17
537.06	404.91
537.23	360.44
537.40	334.70
537.57	411.93
537.74	528.96
537.91	393.21
538.08	407.25
538.25	437.68
538.42	416.62
538.59	418.96
538.75	465.77
538.92	442.36
539.09	449.38
539.26	475.13
539.43	407.25
539.60	400.23
539.77	411.93
539.94	362.78
540.11	444.70
540.28	425.98
540.44	388.53
540.61	449.38
540.78	397.89
540.95	430.66
541.12	372.15
541.29	416.62
541.46	454.06
541.62	393.21
541.79	418.96
541.96	461.09
542.13	402.57
542.30	423.64
542.47	428.32
542.63	411.93
542.80	428.32
542.97	482.15
543.14	402.57
543.31	440.02
543.48	414.27
543.64	379.17
543.81	402.57
543.98	402.57
544.15	414.27
544.32	437.68
544.48	433.00
544.65	322.99
544.82	437.68
544.99	411.93
545.16	428.32
545.32	440.02
545.49	435.34
545.66	475.13
545.83	397.89
546.00	425.98
546.16	407.25
546.33	351.08
546.50	472.79
546.67	425.98
546.83	409.59
547.00	421.30
547.17	397.89
547.34	416.62
547.50	440.02
547.67	404.91
547.84	425.98
548.00	454.06
548.17	383.85
548.34	346.40
548.51	477.47
548.67	461.09
548.84	404.91
549.01	423.64
549.18	421.30
549.34	428.32
549.51	421.30
549.68	400.23
549.84	379.17
550.01	458.74
550.18	423.64
550.34	428.32
550.51	486.83
550.68	519.60
550.84	430.66
551.01	437.68
551.18	388.53
551.34	372.15
551.51	365.12
551.68	414.27
551.84	407.25
552.01	337.04
552.18	397.89
552.34	414.27
552.51	421.30
552.68	484.49
552.84	470.45
553.01	461.09
553.18	451.72
553.34	402.57
553.51	437.68
553.67	442.36
553.84	461.09
554.01	496.19
554.17	486.83
554.34	388.53
554.51	365.12
554.67	418.96
554.84	435.34
555.00	447.04
555.17	334.70
555.33	465.77
555.50	381.51
555.67	404.91
555.83	379.17
556.00	461.09
556.16	585.13
556.33	423.64
556.50	416.62
556.66	388.53
556.83	383.85
556.99	362.78
557.16	491.51
557.32	376.83
557.49	507.90
557.65	414.27
557.82	395.55
557.98	435.34
558.15	397.89
558.32	486.83
558.48	451.72
558.65	376.83
558.81	442.36
558.98	379.17
559.14	339.38
559.31	463.43
559.47	421.30
559.64	351.08
559.80	454.06
559.97	341.72
560.13	386.19
560.30	400.23
560.46	344.06
560.63	409.59
560.79	465.77
560.96	423.64
561.12	372.15
561.29	355.76
561.45	440.02
561.61	402.57
561.78	442.36
561.94	421.30
562.11	444.70
562.27	433.00
562.44	376.83
562.60	397.89
562.77	435.34
562.93	498.53
563.10	428.32
563.26	423.64
563.42	463.43
563.59	496.19
563.75	449.38
563.92	461.09
564.08	395.55
564.24	435.34
564.41	388.53
564.57	393.21
564.74	386.19
564.90	393.21
565.07	421.30
565.23	458.74
565.39	444.70
565.56	442.36
565.72	442.36
565.88	418.96
566.05	433.00
566.21	400.23
566.38	449.38
566.54	440.02
566.70	423.64
566.87	444.70
567.03	379.17
567.19	425.98
567.36	351.08
567.52	362.78
567.68	435.34
567.85	498.53
568.01	407.25
568.17	390.87
568.34	397.89
568.50	468.11
568.66	409.59
568.83	517.26
568.99	482.15
569.15	428.32
569.32	397.89
569.48	416.62
569.64	454.06
569.81	388.53
569.97	374.49
570.13	447.04
570.30	433.00
570.46	442.36
570.62	404.91
570.78	425.98
570.95	404.91
571.11	379.17
571.27	404.91
571.43	390.87
571.60	395.55
571.76	381.51
571.92	475.13
572.09	444.70
572.25	435.34
572.41	411.93
572.57	388.53
572.74	442.36
572.90	470.45
573.06	390.87
573.22	489.17
573.38	484.49
573.55	444.70
573.71	409.59
573.87	360.44
574.03	486.83
574.20	414.27
574.36	402.57
574.52	449.38
574.68	526.62
574.84	369.80
575.01	444.70
575.17	449.38
575.33	330.02
575.49	395.55
575.65	456.40
575.82	416.62
575.98	423.64
576.14	381.51
576.30	390.87
576.46	409.59
576.62	514.92
576.79	414.27
576.95	444.70
577.11	484.49
577.27	365.12
577.43	376.83
577.59	407.25
577.75	388.53
577.92	353.42
578.08	421.30
578.24	447.04
578.40	442.36
578.56	416.62
578.72	374.49
578.88	381.51
579.04	383.85
579.21	395.55
579.37	444.70
579.53	404.91
579.69	449.38
579.85	404.91
580.01	547.69
580.17	440.02
580.33	393.21
580.49	430.66
580.65	402.57
580.82	381.51
580.98	358.10
581.14	355.76
581.30	512.58
581.46	437.68
581.62	423.64
581.78	411.93
581.94	407.25
582.10	383.85
582.26	372.15
582.42	358.10
582.58	468.11
582.74	365.12
582.90	470.45
583.06	416.62
583.22	414.27
583.38	390.87
583.54	451.72
583.70	458.74
583.86	430.66
584.02	402.57
584.18	409.59
584.34	433.00
584.50	369.80
584.66	440.02
584.82	407.25
584.98	402.57
585.14	454.06
585.30	468.11
585.46	428.32
585.62	423.64
585.78	440.02
585.94	461.09
586.10	386.19
586.26	430.66
586.42	388.53
586.58	461.09
586.74	468.11
586.90	367.46
587.06	411.93
587.22	407.25
587.38	447.04
587.54	430.66
587.70	458.74
587.86	411.93
588.02	348.74
588.18	414.27
588.34	411.93
588.49	372.15
588.65	437.68
588.81	470.45
588.97	400.23
589.13	402.57
589.29	449.38
589.45	425.98
589.61	430.66
589.77	416.62
589.93	395.55
590.08	407.25
590.24	451.72
590.40	475.13
590.56	425.98
590.72	407.25
590.88	308.95
591.04	386.19
591.20	390.87
591.35	444.70
591.51	395.55
591.67	428.32
591.83	388.53
591.99	444.70
592.15	397.89
592.31	430.66
592.46	472.79
592.62	409.59
592.78	498.53
592.94	456.40
593.10	386.19
593.26	440.02
593.41	423.64
593.57	362.78
593.73	465.77
593.89	430.66
594.05	390.87
594.20	472.79
594.36	430.66
594.52	451.72
594.68	369.80
594.84	482.15
594.99	423.64
595.15	397.89
595.31	425.98
595.47	468.11
595.62	395.55
595.78	437.68
595.94	442.36
596.10	414.27
596.25	395.55
596.41	456.40
596.57	388.53
596.73	372.15
596.88	418.96
597.04	390.87
597.20	425.98
597.36	430.66
597.51	353.42
597.67	355.76
597.83	423.64
597.99	435.34
598.14	451.72
598.30	334.70
598.46	454.06
598.61	447.04
598.77	423.64
598.93	440.02
599.09	397.89
599.24	376.83
599.40	472.79
599.56	409.59
599.71	451.72
599.87	447.04
600.03	393.21
600.18	454.06
600.34	437.68
600.50	395.55
600.65	339.38
600.81	435.34
600.97	397.89
601.12	477.47
601.28	447.04
601.44	461.09
601.59	437.68
601.75	428.32
601.91	369.80
602.06	449.38
602.22	535.98
602.37	407.25
602.53	440.02
602.69	423.64
602.84	449.38
603.00	418.96
603.16	463.43
603.31	409.59
603.47	393.21
603.62	435.34
603.78	435.34
603.94	409.59
604.09	437.68
604.25	374.49
604.40	463.43
604.56	468.11
604.71	472.79
604.87	437.68
605.03	383.85
605.18	414.27
605.34	414.27
605.49	425.98
605.65	500.87
605.80	372.15
605.96	435.34
606.12	482.15
606.27	470.45
606.43	454.06
606.58	472.79
606.74	395.55
606.89	409.59
607.05	500.87
607.20	390.87
607.36	397.89
607.51	454.06
607.67	390.87
607.82	458.74
607.98	379.17
608.13	414.27
608.29	369.80
608.44	458.74
608.60	407.25
608.75	421.30
608.91	461.09
609.06	430.66
609.22	491.51
609.37	423.64
609.53	433.00
609.68	463.43
609.84	425.98
609.99	390.87
610.15	404.91
