SpectraSuite Data File
++++++++++++++++++++++++++++++++++++
Date: Fri Oct 25 12:10:31 EDT 2013
User: price-jones
Dark Spectrum Present: No
Reference Spectrum Present: No
Number of Sampled Component Spectra: 1
Spectrometers: USB2+H05261
Integration Time (usec): 100000 (USB2+H05261)
Spectra Averaged: 1 (USB2+H05261)
Boxcar Smoothing: 0 (USB2+H05261)
Correct for Electrical Dark: No (USB2+H05261)
Strobe/Lamp Enabled: No (USB2+H05261)
Correct for Detector Non-linearity: No (USB2+H05261)
Correct for Stray Light: No (USB2+H05261)
Number of Pixels in Processed Spectrum: 2048
>>>>>Begin Processed Spectral Data<<<<<
365.73	306.61
365.92	306.61
366.12	306.61
366.32	238.73
366.52	264.48
366.72	271.50
366.91	210.65
367.11	163.84
367.31	203.63
367.51	227.03
367.70	294.91
367.90	315.97
368.10	266.82
368.30	259.80
368.49	201.29
368.69	210.65
368.89	301.93
369.09	257.46
369.28	292.57
369.48	255.12
369.68	210.65
369.87	315.97
370.07	297.25
370.27	348.74
370.47	346.40
370.66	330.02
370.86	351.08
371.06	409.59
371.25	390.87
371.45	423.64
371.65	447.04
371.84	425.98
372.04	327.68
372.24	330.02
372.44	402.57
372.63	344.06
372.83	411.93
373.03	376.83
373.22	341.72
373.42	435.34
373.62	374.49
373.81	362.78
374.01	402.57
374.21	409.59
374.40	409.59
374.60	461.09
374.79	421.30
374.99	423.64
375.19	498.53
375.38	479.81
375.58	435.34
375.78	400.23
375.97	416.62
376.17	447.04
376.37	395.55
376.56	418.96
376.76	454.06
376.95	400.23
377.15	395.55
377.35	308.95
377.54	486.83
377.74	344.06
377.93	472.79
378.13	402.57
378.33	477.47
378.52	376.83
378.72	461.09
378.91	437.68
379.11	407.25
379.31	440.02
379.50	430.66
379.70	470.45
379.89	442.36
380.09	379.17
380.28	428.32
380.48	449.38
380.68	400.23
380.87	407.25
381.07	416.62
381.26	402.57
381.46	376.83
381.65	404.91
381.85	425.98
382.04	393.21
382.24	416.62
382.43	376.83
382.63	376.83
382.83	411.93
383.02	386.19
383.22	407.25
383.41	404.91
383.61	458.74
383.80	411.93
384.00	440.02
384.19	416.62
384.39	428.32
384.58	437.68
384.78	397.89
384.97	395.55
385.17	372.15
385.36	407.25
385.56	379.17
385.75	477.47
385.95	397.89
386.14	479.81
386.34	402.57
386.53	383.85
386.72	440.02
386.92	383.85
387.11	458.74
387.31	433.00
387.50	411.93
387.70	461.09
387.89	383.85
388.09	393.21
388.28	360.44
388.48	395.55
388.67	369.80
388.86	388.53
389.06	500.87
389.25	407.25
389.45	395.55
389.64	344.06
389.84	456.40
390.03	367.46
390.22	381.51
390.42	388.53
390.61	372.15
390.81	414.27
391.00	386.19
391.19	355.76
391.39	388.53
391.58	472.79
391.78	416.62
391.97	414.27
392.16	393.21
392.36	421.30
392.55	393.21
392.75	423.64
392.94	407.25
393.13	444.70
393.33	388.53
393.52	416.62
393.71	379.17
393.91	367.46
394.10	374.49
394.29	425.98
394.49	411.93
394.68	374.49
394.88	437.68
395.07	344.06
395.26	397.89
395.46	407.25
395.65	482.15
395.84	470.45
396.04	510.24
396.23	433.00
396.42	351.08
396.62	440.02
396.81	334.70
397.00	440.02
397.19	393.21
397.39	365.12
397.58	407.25
397.77	315.97
397.97	339.38
398.16	425.98
398.35	416.62
398.55	344.06
398.74	428.32
398.93	493.85
399.12	461.09
399.32	425.98
399.51	428.32
399.70	449.38
399.90	358.10
400.09	463.43
400.28	409.59
400.47	404.91
400.67	421.30
400.86	428.32
401.05	451.72
401.24	468.11
401.44	411.93
401.63	468.11
401.82	444.70
402.01	393.21
402.21	381.51
402.40	404.91
402.59	397.89
402.78	435.34
402.97	428.32
403.17	374.49
403.36	454.06
403.55	463.43
403.74	444.70
403.93	376.83
404.13	468.11
404.32	360.44
404.51	376.83
404.70	383.85
404.89	395.55
405.09	418.96
405.28	430.66
405.47	423.64
405.66	374.49
405.85	414.27
406.05	404.91
406.24	416.62
406.43	421.30
406.62	421.30
406.81	442.36
407.00	470.45
407.20	440.02
407.39	465.77
407.58	482.15
407.77	421.30
407.96	360.44
408.15	376.83
408.34	428.32
408.54	418.96
408.73	442.36
408.92	386.19
409.11	388.53
409.30	428.32
409.49	416.62
409.68	425.98
409.87	479.81
410.07	440.02
410.26	472.79
410.45	400.23
410.64	320.65
410.83	390.87
411.02	402.57
411.21	411.93
411.40	390.87
411.59	353.42
411.78	404.91
411.98	358.10
412.17	411.93
412.36	433.00
412.55	376.83
412.74	461.09
412.93	454.06
413.12	393.21
413.31	437.68
413.50	428.32
413.69	374.49
413.88	390.87
414.07	367.46
414.26	409.59
414.45	454.06
414.64	433.00
414.83	416.62
415.02	388.53
415.22	458.74
415.41	433.00
415.60	393.21
415.79	395.55
415.98	461.09
416.17	344.06
416.36	393.21
416.55	418.96
416.74	402.57
416.93	470.45
417.12	374.49
417.31	409.59
417.50	313.63
417.69	444.70
417.88	315.97
418.07	472.79
418.26	402.57
418.45	362.78
418.64	435.34
418.83	390.87
419.02	402.57
419.21	414.27
419.39	442.36
419.58	372.15
419.77	463.43
419.96	353.42
420.15	437.68
420.34	407.25
420.53	346.40
420.72	461.09
420.91	428.32
421.10	397.89
421.29	437.68
421.48	437.68
421.67	383.85
421.86	395.55
422.05	440.02
422.24	447.04
422.43	395.55
422.61	362.78
422.80	484.49
422.99	390.87
423.18	440.02
423.37	477.47
423.56	465.77
423.75	390.87
423.94	402.57
424.13	404.91
424.32	320.65
424.50	383.85
424.69	425.98
424.88	425.98
425.07	454.06
425.26	437.68
425.45	287.89
425.64	308.95
425.83	425.98
426.01	337.04
426.20	341.72
426.39	372.15
426.58	383.85
426.77	409.59
426.96	407.25
427.15	416.62
427.33	425.98
427.52	416.62
427.71	404.91
427.90	411.93
428.09	355.76
428.28	372.15
428.46	430.66
428.65	332.36
428.84	477.47
429.03	503.22
429.22	444.70
429.40	383.85
429.59	402.57
429.78	425.98
429.97	463.43
430.16	451.72
430.34	447.04
430.53	433.00
430.72	386.19
430.91	397.89
431.10	428.32
431.28	400.23
431.47	456.40
431.66	383.85
431.85	369.80
432.03	475.13
432.22	449.38
432.41	346.40
432.60	437.68
432.79	397.89
432.97	447.04
433.16	400.23
433.35	397.89
433.54	423.64
433.72	430.66
433.91	421.30
434.10	362.78
434.28	437.68
434.47	454.06
434.66	395.55
434.85	437.68
435.03	454.06
435.22	414.27
435.41	477.47
435.59	407.25
435.78	402.57
435.97	376.83
436.16	440.02
436.34	454.06
436.53	489.17
436.72	447.04
436.90	456.40
437.09	449.38
437.28	407.25
437.46	402.57
437.65	407.25
437.84	458.74
438.02	411.93
438.21	416.62
438.40	475.13
438.58	402.57
438.77	451.72
438.96	491.51
439.14	400.23
439.33	493.85
439.52	418.96
439.70	351.08
439.89	425.98
440.08	416.62
440.26	411.93
440.45	418.96
440.63	425.98
440.82	425.98
441.01	414.27
441.19	416.62
441.38	423.64
441.57	376.83
441.75	468.11
441.94	463.43
442.12	381.51
442.31	472.79
442.50	318.31
442.68	437.68
442.87	409.59
443.05	407.25
443.24	491.51
443.43	428.32
443.61	393.21
443.80	362.78
443.98	400.23
444.17	428.32
444.35	435.34
444.54	367.46
444.73	407.25
444.91	381.51
445.10	433.00
445.28	393.21
445.47	416.62
445.65	411.93
445.84	449.38
446.02	428.32
446.21	416.62
446.39	386.19
446.58	386.19
446.77	393.21
446.95	393.21
447.14	451.72
447.32	414.27
447.51	400.23
447.69	437.68
447.88	376.83
448.06	447.04
448.25	430.66
448.43	414.27
448.62	458.74
448.80	374.49
448.99	430.66
449.17	383.85
449.36	351.08
449.54	381.51
449.73	433.00
449.91	414.27
450.10	423.64
450.28	440.02
450.46	454.06
450.65	449.38
450.83	425.98
451.02	404.91
451.20	409.59
451.39	362.78
451.57	367.46
451.76	421.30
451.94	428.32
452.13	379.17
452.31	435.34
452.49	463.43
452.68	472.79
452.86	437.68
453.05	468.11
453.23	393.21
453.42	383.85
453.60	397.89
453.78	409.59
453.97	327.68
454.15	362.78
454.34	367.46
454.52	358.10
454.70	437.68
454.89	486.83
455.07	360.44
455.26	444.70
455.44	407.25
455.62	381.51
455.81	470.45
455.99	369.80
456.17	390.87
456.36	414.27
456.54	365.12
456.73	411.93
456.91	402.57
457.09	451.72
457.28	428.32
457.46	360.44
457.64	400.23
457.83	400.23
458.01	360.44
458.19	449.38
458.38	390.87
458.56	367.46
458.74	444.70
458.93	400.23
459.11	358.10
459.29	390.87
459.48	463.43
459.66	461.09
459.84	463.43
460.03	463.43
460.21	341.72
460.39	313.63
460.57	451.72
460.76	428.32
460.94	500.87
461.12	451.72
461.31	416.62
461.49	390.87
461.67	404.91
461.85	454.06
462.04	379.17
462.22	786.42
462.40	435.34
462.59	449.38
462.77	428.32
462.95	327.68
463.13	376.83
463.32	409.59
463.50	386.19
463.68	454.06
463.86	421.30
464.05	348.74
464.23	374.49
464.41	440.02
464.59	477.47
464.78	353.42
464.96	416.62
465.14	451.72
465.32	465.77
465.50	430.66
465.69	458.74
465.87	400.23
466.05	397.89
466.23	388.53
466.41	334.70
466.60	463.43
466.78	447.04
466.96	409.59
467.14	386.19
467.32	433.00
467.51	458.74
467.69	379.17
467.87	435.34
468.05	383.85
468.23	447.04
468.41	484.49
468.60	430.66
468.78	381.51
468.96	400.23
469.14	355.76
469.32	407.25
469.50	374.49
469.69	400.23
469.87	437.68
470.05	400.23
470.23	482.15
470.41	428.32
470.59	372.15
470.77	435.34
470.95	428.32
471.14	447.04
471.32	400.23
471.50	557.05
471.68	344.06
471.86	416.62
472.04	402.57
472.22	400.23
472.40	437.68
472.58	407.25
472.77	383.85
472.95	397.89
473.13	449.38
473.31	400.23
473.49	341.72
473.67	425.98
473.85	470.45
474.03	418.96
474.21	416.62
474.39	444.70
474.57	428.32
474.75	414.27
474.93	425.98
475.12	315.97
475.30	461.09
475.48	395.55
475.66	435.34
475.84	383.85
476.02	416.62
476.20	463.43
476.38	383.85
476.56	369.80
476.74	381.51
476.92	351.08
477.10	344.06
477.28	362.78
477.46	386.19
477.64	416.62
477.82	369.80
478.00	430.66
478.18	393.21
478.36	407.25
478.54	425.98
478.72	407.25
478.90	365.12
479.08	407.25
479.26	416.62
479.44	393.21
479.62	353.42
479.80	383.85
479.98	449.38
480.16	423.64
480.34	367.46
480.52	400.23
480.70	425.98
480.88	355.76
481.06	362.78
481.24	348.74
481.41	435.34
481.59	425.98
481.77	393.21
481.95	404.91
482.13	449.38
482.31	376.83
482.49	421.30
482.67	362.78
482.85	423.64
483.03	395.55
483.21	404.91
483.39	416.62
483.57	437.68
483.74	447.04
483.92	465.77
484.10	383.85
484.28	442.36
484.46	479.81
484.64	454.06
484.82	416.62
485.00	465.77
485.18	379.17
485.35	414.27
485.53	428.32
485.71	442.36
485.89	475.13
486.07	360.44
486.25	437.68
486.43	472.79
486.61	468.11
486.78	437.68
486.96	433.00
487.14	395.55
487.32	430.66
487.50	416.62
487.68	365.12
487.85	449.38
488.03	367.46
488.21	409.59
488.39	423.64
488.57	367.46
488.75	484.49
488.92	507.90
489.10	444.70
489.28	500.87
489.46	400.23
489.64	442.36
489.81	360.44
489.99	442.36
490.17	402.57
490.35	411.93
490.53	355.76
490.70	362.78
490.88	416.62
491.06	383.85
491.24	393.21
491.41	451.72
491.59	379.17
491.77	449.38
491.95	367.46
492.13	447.04
492.30	468.11
492.48	451.72
492.66	381.51
492.84	388.53
493.01	388.53
493.19	423.64
493.37	461.09
493.54	465.77
493.72	407.25
493.90	395.55
494.08	383.85
494.25	372.15
494.43	367.46
494.61	423.64
494.79	376.83
494.96	402.57
495.14	416.62
495.32	458.74
495.49	456.40
495.67	418.96
495.85	414.27
496.02	414.27
496.20	437.68
496.38	360.44
496.55	374.49
496.73	425.98
496.91	379.17
497.09	430.66
497.26	390.87
497.44	337.04
497.62	369.80
497.79	402.57
497.97	411.93
498.14	433.00
498.32	477.47
498.50	416.62
498.67	351.08
498.85	299.59
499.03	397.89
499.20	397.89
499.38	381.51
499.56	404.91
499.73	468.11
499.91	369.80
500.08	449.38
500.26	418.96
500.44	404.91
500.61	411.93
500.79	362.78
500.97	376.83
501.14	414.27
501.32	435.34
501.49	402.57
501.67	362.78
501.84	372.15
502.02	388.53
502.20	393.21
502.37	388.53
502.55	491.51
502.72	425.98
502.90	411.93
503.07	451.72
503.25	402.57
503.43	376.83
503.60	428.32
503.78	416.62
503.95	407.25
504.13	379.17
504.30	418.96
504.48	365.12
504.65	456.40
504.83	409.59
505.01	402.57
505.18	486.83
505.36	435.34
505.53	395.55
505.71	435.34
505.88	397.89
506.06	395.55
506.23	397.89
506.41	339.38
506.58	402.57
506.76	381.51
506.93	376.83
507.11	421.30
507.28	430.66
507.46	475.13
507.63	437.68
507.81	433.00
507.98	423.64
508.16	355.76
508.33	444.70
508.50	428.32
508.68	433.00
508.85	411.93
509.03	404.91
509.20	421.30
509.38	421.30
509.55	475.13
509.73	449.38
509.90	414.27
510.08	315.97
510.25	425.98
510.42	442.36
510.60	428.32
510.77	414.27
510.95	461.09
511.12	365.12
511.30	451.72
511.47	383.85
511.64	430.66
511.82	440.02
511.99	425.98
512.17	381.51
512.34	404.91
512.51	409.59
512.69	437.68
512.86	496.19
513.04	447.04
513.21	463.43
513.38	360.44
513.56	360.44
513.73	381.51
513.90	404.91
514.08	388.53
514.25	435.34
514.43	447.04
514.60	383.85
514.77	409.59
514.95	386.19
515.12	383.85
515.29	414.27
515.47	425.98
515.64	430.66
515.81	386.19
515.99	409.59
516.16	430.66
516.33	458.74
516.51	379.17
516.68	346.40
516.85	390.87
517.03	393.21
517.20	395.55
517.37	381.51
517.54	334.70
517.72	407.25
517.89	393.21
518.06	404.91
518.24	482.15
518.41	428.32
518.58	425.98
518.75	416.62
518.93	437.68
519.10	458.74
519.27	402.57
519.45	353.42
519.62	430.66
519.79	491.51
519.96	341.72
520.14	465.77
520.31	479.81
520.48	491.51
520.65	409.59
520.83	407.25
521.00	397.89
521.17	390.87
521.34	374.49
521.52	372.15
521.69	456.40
521.86	470.45
522.03	437.68
522.20	444.70
522.38	344.06
522.55	379.17
522.72	332.36
522.89	348.74
523.07	418.96
523.24	475.13
523.41	351.08
523.58	404.91
523.75	372.15
523.92	374.49
524.10	365.12
524.27	430.66
524.44	435.34
524.61	456.40
524.78	430.66
524.96	409.59
525.13	379.17
525.30	428.32
525.47	484.49
525.64	388.53
525.81	407.25
525.98	400.23
526.16	414.27
526.33	393.21
526.50	458.74
526.67	407.25
526.84	379.17
527.01	404.91
527.18	458.74
527.36	423.64
527.53	395.55
527.70	388.53
527.87	407.25
528.04	440.02
528.21	416.62
528.38	395.55
528.55	376.83
528.72	414.27
528.89	503.22
529.07	421.30
529.24	416.62
529.41	365.12
529.58	463.43
529.75	407.25
529.92	416.62
530.09	433.00
530.26	383.85
530.43	416.62
530.60	414.27
530.77	421.30
530.94	374.49
531.11	395.55
531.28	386.19
531.46	437.68
531.63	358.10
531.80	526.62
531.97	442.36
532.14	496.19
532.31	463.43
532.48	414.27
532.65	416.62
532.82	407.25
532.99	442.36
533.16	376.83
533.33	400.23
533.50	444.70
533.67	360.44
533.84	461.09
534.01	353.42
534.18	416.62
534.35	463.43
534.52	395.55
534.69	491.51
534.86	447.04
535.03	348.74
535.20	404.91
535.37	395.55
535.54	444.70
535.71	447.04
535.88	397.89
536.05	423.64
536.22	486.83
536.38	418.96
536.55	351.08
536.72	390.87
536.89	383.85
537.06	456.40
537.23	332.36
537.40	386.19
537.57	381.51
537.74	400.23
537.91	379.17
538.08	407.25
538.25	414.27
538.42	348.74
538.59	362.78
538.75	414.27
538.92	376.83
539.09	433.00
539.26	454.06
539.43	510.24
539.60	435.34
539.77	388.53
539.94	454.06
540.11	486.83
540.28	442.36
540.44	418.96
540.61	514.92
540.78	463.43
540.95	330.02
541.12	428.32
541.29	414.27
541.46	444.70
541.62	451.72
541.79	390.87
541.96	437.68
542.13	430.66
542.30	404.91
542.47	395.55
542.63	395.55
542.80	444.70
542.97	442.36
543.14	397.89
543.31	479.81
543.48	449.38
543.64	414.27
543.81	400.23
543.98	372.15
544.15	367.46
544.32	454.06
544.48	472.79
544.65	367.46
544.82	414.27
544.99	400.23
545.16	418.96
545.32	418.96
545.49	348.74
545.66	447.04
545.83	463.43
546.00	416.62
546.16	390.87
546.33	430.66
546.50	402.57
546.67	423.64
546.83	402.57
547.00	409.59
547.17	435.34
547.34	451.72
547.50	411.93
547.67	454.06
547.84	360.44
548.00	444.70
548.17	491.51
548.34	409.59
548.51	444.70
548.67	463.43
548.84	372.15
549.01	388.53
549.18	449.38
549.34	442.36
549.51	367.46
549.68	433.00
549.84	388.53
550.01	372.15
550.18	425.98
550.34	461.09
550.51	325.33
550.68	484.49
550.84	341.72
551.01	369.80
551.18	390.87
551.34	315.97
551.51	461.09
551.68	397.89
551.84	393.21
552.01	376.83
552.18	376.83
552.34	353.42
552.51	381.51
552.68	372.15
552.84	397.89
553.01	414.27
553.18	409.59
553.34	414.27
553.51	407.25
553.67	433.00
553.84	433.00
554.01	449.38
554.17	423.64
554.34	418.96
554.51	440.02
554.67	449.38
554.84	421.30
555.00	442.36
555.17	402.57
555.33	447.04
555.50	423.64
555.67	379.17
555.83	386.19
556.00	411.93
556.16	484.49
556.33	395.55
556.50	283.20
556.66	416.62
556.83	425.98
556.99	470.45
557.16	458.74
557.32	470.45
557.49	379.17
557.65	416.62
557.82	421.30
557.98	421.30
558.15	416.62
558.32	400.23
558.48	423.64
558.65	437.68
558.81	479.81
558.98	351.08
559.14	418.96
559.31	388.53
559.47	416.62
559.64	360.44
559.80	362.78
559.97	421.30
560.13	454.06
560.30	362.78
560.46	416.62
560.63	400.23
560.79	388.53
560.96	372.15
561.12	421.30
561.29	461.09
561.45	409.59
561.61	437.68
561.78	505.56
561.94	416.62
562.11	341.72
562.27	437.68
562.44	456.40
562.60	395.55
562.77	437.68
562.93	437.68
563.10	369.80
563.26	416.62
563.42	409.59
563.59	428.32
563.75	444.70
563.92	456.40
564.08	372.15
564.24	393.21
564.41	503.22
564.57	409.59
564.74	344.06
564.90	423.64
565.07	393.21
565.23	486.83
565.39	414.27
565.56	444.70
565.72	444.70
565.88	411.93
566.05	475.13
566.21	423.64
566.38	423.64
566.54	519.60
566.70	404.91
566.87	430.66
567.03	407.25
567.19	407.25
567.36	430.66
567.52	461.09
567.68	479.81
567.85	407.25
568.01	428.32
568.17	376.83
568.34	411.93
568.50	440.02
568.66	390.87
568.83	468.11
568.99	407.25
569.15	482.15
569.32	430.66
569.48	358.10
569.64	367.46
569.81	386.19
569.97	369.80
570.13	381.51
570.30	360.44
570.46	365.12
570.62	442.36
570.78	374.49
570.95	388.53
571.11	470.45
571.27	418.96
571.43	407.25
571.60	421.30
571.76	388.53
571.92	435.34
572.09	496.19
572.25	400.23
572.41	400.23
572.57	397.89
572.74	428.32
572.90	447.04
573.06	395.55
573.22	400.23
573.38	386.19
573.55	376.83
573.71	447.04
573.87	430.66
574.03	418.96
574.20	458.74
574.36	409.59
574.52	388.53
574.68	395.55
574.84	423.64
575.01	393.21
575.17	379.17
575.33	390.87
575.49	463.43
575.65	454.06
575.82	435.34
575.98	451.72
576.14	414.27
576.30	409.59
576.46	507.90
576.62	451.72
576.79	411.93
576.95	456.40
577.11	383.85
577.27	451.72
577.43	461.09
577.59	465.77
577.75	454.06
577.92	435.34
578.08	388.53
578.24	456.40
578.40	428.32
578.56	493.85
578.72	491.51
578.88	447.04
579.04	454.06
579.21	456.40
579.37	421.30
579.53	390.87
579.69	425.98
579.85	404.91
580.01	386.19
580.17	376.83
580.33	442.36
580.49	390.87
580.65	461.09
580.82	435.34
580.98	472.79
581.14	386.19
581.30	468.11
581.46	465.77
581.62	414.27
581.78	404.91
581.94	440.02
582.10	315.97
582.26	437.68
582.42	421.30
582.58	402.57
582.74	421.30
582.90	404.91
583.06	411.93
583.22	369.80
583.38	418.96
583.54	418.96
583.70	500.87
583.86	379.17
584.02	379.17
584.18	475.13
584.34	301.93
584.50	421.30
584.66	348.74
584.82	444.70
584.98	407.25
585.14	383.85
585.30	451.72
585.46	484.49
585.62	425.98
585.78	447.04
585.94	484.49
586.10	435.34
586.26	407.25
586.42	444.70
586.58	360.44
586.74	421.30
586.90	442.36
587.06	440.02
587.22	409.59
587.38	440.02
587.54	402.57
587.70	428.32
587.86	451.72
588.02	337.04
588.18	433.00
588.34	404.91
588.49	388.53
588.65	397.89
588.81	423.64
588.97	433.00
589.13	447.04
589.29	470.45
589.45	411.93
589.61	383.85
589.77	449.38
589.93	428.32
590.08	409.59
590.24	400.23
590.40	493.85
590.56	402.57
590.72	348.74
590.88	381.51
591.04	395.55
591.20	447.04
591.35	451.72
591.51	433.00
591.67	433.00
591.83	355.76
591.99	365.12
592.15	393.21
592.31	404.91
592.46	437.68
592.62	479.81
592.78	414.27
592.94	400.23
593.10	468.11
593.26	433.00
593.41	430.66
593.57	393.21
593.73	379.17
593.89	472.79
594.05	411.93
594.20	344.06
594.36	430.66
594.52	430.66
594.68	416.62
594.84	400.23
594.99	393.21
595.15	404.91
595.31	458.74
595.47	386.19
595.62	461.09
595.78	404.91
595.94	360.44
596.10	390.87
596.25	454.06
596.41	381.51
596.57	374.49
596.73	414.27
596.88	468.11
597.04	383.85
597.20	447.04
597.36	411.93
597.51	402.57
597.67	376.83
597.83	393.21
597.99	362.78
598.14	407.25
598.30	451.72
598.46	517.26
598.61	440.02
598.77	418.96
598.93	407.25
599.09	477.47
599.24	449.38
599.40	423.64
599.56	461.09
599.71	421.30
599.87	442.36
600.03	348.74
600.18	400.23
600.34	393.21
600.50	374.49
600.65	463.43
600.81	409.59
600.97	358.10
601.12	348.74
601.28	444.70
601.44	458.74
601.59	418.96
601.75	451.72
601.91	442.36
602.06	365.12
602.22	472.79
602.37	447.04
602.53	421.30
602.69	451.72
602.84	447.04
603.00	423.64
603.16	475.13
603.31	390.87
603.47	416.62
603.62	475.13
603.78	353.42
603.94	400.23
604.09	430.66
604.25	440.02
604.40	442.36
604.56	362.78
604.71	423.64
604.87	339.38
605.03	383.85
605.18	423.64
605.34	428.32
605.49	465.77
605.65	430.66
605.80	339.38
605.96	472.79
606.12	388.53
606.27	414.27
606.43	390.87
606.58	421.30
606.74	397.89
606.89	472.79
607.05	479.81
607.20	430.66
607.36	414.27
607.51	423.64
607.67	393.21
607.82	416.62
607.98	430.66
608.13	423.64
608.29	400.23
608.44	442.36
608.60	402.57
608.75	430.66
608.91	463.43
609.06	411.93
609.22	425.98
609.37	383.85
609.53	409.59
609.68	484.49
609.84	435.34
609.99	407.25
610.15	390.87
