SpectraSuite Data File
++++++++++++++++++++++++++++++++++++
Date: Fri Oct 25 12:10:43 EDT 2013
User: price-jones
Dark Spectrum Present: No
Reference Spectrum Present: No
Number of Sampled Component Spectra: 1
Spectrometers: USB2+H05261
Integration Time (usec): 100000 (USB2+H05261)
Spectra Averaged: 1 (USB2+H05261)
Boxcar Smoothing: 0 (USB2+H05261)
Correct for Electrical Dark: No (USB2+H05261)
Strobe/Lamp Enabled: No (USB2+H05261)
Correct for Detector Non-linearity: No (USB2+H05261)
Correct for Stray Light: No (USB2+H05261)
Number of Pixels in Processed Spectrum: 2048
>>>>>Begin Processed Spectral Data<<<<<
365.73	311.29
365.92	311.29
366.12	311.29
366.32	292.57
366.52	220.01
366.72	205.97
366.91	241.08
367.11	203.63
367.31	241.08
367.51	203.63
367.70	227.03
367.90	320.65
368.10	266.82
368.30	264.48
368.49	205.97
368.69	290.23
368.89	252.78
369.09	236.39
369.28	180.22
369.48	299.59
369.68	334.70
369.87	287.89
370.07	283.20
370.27	320.65
370.47	320.65
370.66	442.36
370.86	386.19
371.06	416.62
371.25	425.98
371.45	337.04
371.65	383.85
371.84	283.20
372.04	334.70
372.24	351.08
372.44	388.53
372.63	454.06
372.83	341.72
373.03	388.53
373.22	346.40
373.42	320.65
373.62	472.79
373.81	386.19
374.01	411.93
374.21	463.43
374.40	362.78
374.60	423.64
374.79	423.64
374.99	428.32
375.19	411.93
375.38	397.89
375.58	351.08
375.78	376.83
375.97	409.59
376.17	477.47
376.37	433.00
376.56	489.17
376.76	362.78
376.95	393.21
377.15	322.99
377.35	374.49
377.54	447.04
377.74	444.70
377.93	379.17
378.13	421.30
378.33	386.19
378.52	414.27
378.72	381.51
378.91	416.62
379.11	451.72
379.31	414.27
379.50	414.27
379.70	447.04
379.89	421.30
380.09	386.19
380.28	397.89
380.48	425.98
380.68	435.34
380.87	367.46
381.07	393.21
381.26	437.68
381.46	503.22
381.65	416.62
381.85	397.89
382.04	409.59
382.24	454.06
382.43	470.45
382.63	383.85
382.83	416.62
383.02	379.17
383.22	351.08
383.41	402.57
383.61	379.17
383.80	388.53
384.00	414.27
384.19	400.23
384.39	388.53
384.58	348.74
384.78	393.21
384.97	320.65
385.17	397.89
385.36	418.96
385.56	454.06
385.75	339.38
385.95	421.30
386.14	376.83
386.34	440.02
386.53	433.00
386.72	362.78
386.92	437.68
387.11	451.72
387.31	393.21
387.50	433.00
387.70	440.02
387.89	442.36
388.09	400.23
388.28	369.80
388.48	404.91
388.67	428.32
388.86	402.57
389.06	477.47
389.25	344.06
389.45	433.00
389.64	468.11
389.84	421.30
390.03	437.68
390.22	348.74
390.42	376.83
390.61	337.04
390.81	423.64
391.00	369.80
391.19	388.53
391.39	395.55
391.58	425.98
391.78	418.96
391.97	416.62
392.16	440.02
392.36	463.43
392.55	528.96
392.75	365.12
392.94	360.44
393.13	517.26
393.33	477.47
393.52	402.57
393.71	444.70
393.91	369.80
394.10	458.74
394.29	449.38
394.49	379.17
394.68	404.91
394.88	440.02
395.07	376.83
395.26	351.08
395.46	390.87
395.65	365.12
395.84	414.27
396.04	463.43
396.23	411.93
396.42	435.34
396.62	479.81
396.81	397.89
397.00	414.27
397.19	390.87
397.39	386.19
397.58	388.53
397.77	334.70
397.97	411.93
398.16	346.40
398.35	440.02
398.55	395.55
398.74	437.68
398.93	433.00
399.12	355.76
399.32	409.59
399.51	390.87
399.70	386.19
399.90	472.79
400.09	402.57
400.28	486.83
400.47	376.83
400.67	383.85
400.86	390.87
401.05	390.87
401.24	374.49
401.44	404.91
401.63	390.87
401.82	423.64
402.01	440.02
402.21	348.74
402.40	351.08
402.59	351.08
402.78	425.98
402.97	449.38
403.17	430.66
403.36	404.91
403.55	358.10
403.74	379.17
403.93	430.66
404.13	470.45
404.32	383.85
404.51	409.59
404.70	374.49
404.89	346.40
405.09	418.96
405.28	376.83
405.47	414.27
405.66	409.59
405.85	376.83
406.05	351.08
406.24	395.55
406.43	411.93
406.62	388.53
406.81	372.15
407.00	421.30
407.20	388.53
407.39	411.93
407.58	454.06
407.77	351.08
407.96	423.64
408.15	465.77
408.34	334.70
408.54	456.40
408.73	369.80
408.92	372.15
409.11	348.74
409.30	437.68
409.49	351.08
409.68	435.34
409.87	461.09
410.07	388.53
410.26	433.00
410.45	351.08
410.64	425.98
410.83	374.49
411.02	423.64
411.21	372.15
411.40	393.21
411.59	374.49
411.78	379.17
411.98	358.10
412.17	386.19
412.36	407.25
412.55	414.27
412.74	369.80
412.93	437.68
413.12	344.06
413.31	444.70
413.50	440.02
413.69	390.87
413.88	376.83
414.07	344.06
414.26	442.36
414.45	337.04
414.64	416.62
414.83	418.96
415.02	400.23
415.22	395.55
415.41	407.25
415.60	348.74
415.79	442.36
415.98	383.85
416.17	353.42
416.36	421.30
416.55	416.62
416.74	402.57
416.93	407.25
417.12	397.89
417.31	397.89
417.50	395.55
417.69	418.96
417.88	409.59
418.07	360.44
418.26	395.55
418.45	404.91
418.64	400.23
418.83	407.25
419.02	479.81
419.21	407.25
419.39	327.68
419.58	372.15
419.77	428.32
419.96	498.53
420.15	353.42
420.34	444.70
420.53	407.25
420.72	430.66
420.91	404.91
421.10	388.53
421.29	418.96
421.48	454.06
421.67	400.23
421.86	442.36
422.05	362.78
422.24	362.78
422.43	397.89
422.61	390.87
422.80	456.40
422.99	374.49
423.18	358.10
423.37	510.24
423.56	353.42
423.75	386.19
423.94	393.21
424.13	383.85
424.32	451.72
424.50	456.40
424.69	425.98
424.88	433.00
425.07	383.85
425.26	390.87
425.45	451.72
425.64	388.53
425.83	388.53
426.01	447.04
426.20	449.38
426.39	367.46
426.58	379.17
426.77	395.55
426.96	376.83
427.15	369.80
427.33	353.42
427.52	437.68
427.71	351.08
427.90	449.38
428.09	447.04
428.28	341.72
428.46	428.32
428.65	416.62
428.84	402.57
429.03	454.06
429.22	425.98
429.40	414.27
429.59	367.46
429.78	428.32
429.97	465.77
430.16	425.98
430.34	402.57
430.53	472.79
430.72	400.23
430.91	491.51
431.10	337.04
431.28	367.46
431.47	397.89
431.66	418.96
431.85	390.87
432.03	449.38
432.22	475.13
432.41	362.78
432.60	442.36
432.79	355.76
432.97	409.59
433.16	400.23
433.35	411.93
433.54	484.49
433.72	362.78
433.91	451.72
434.10	418.96
434.28	444.70
434.47	400.23
434.66	430.66
434.85	372.15
435.03	381.51
435.22	442.36
435.41	407.25
435.59	461.09
435.78	395.55
435.97	393.21
436.16	407.25
436.34	416.62
436.53	404.91
436.72	421.30
436.90	407.25
437.09	430.66
437.28	416.62
437.46	372.15
437.65	449.38
437.84	386.19
438.02	433.00
438.21	437.68
438.40	376.83
438.58	334.70
438.77	402.57
438.96	477.47
439.14	376.83
439.33	425.98
439.52	421.30
439.70	472.79
439.89	388.53
440.08	407.25
440.26	433.00
440.45	423.64
440.63	435.34
440.82	407.25
441.01	447.04
441.19	393.21
441.38	346.40
441.57	372.15
441.75	414.27
441.94	442.36
442.12	425.98
442.31	390.87
442.50	416.62
442.68	397.89
442.87	430.66
443.05	449.38
443.24	388.53
443.43	411.93
443.61	411.93
443.80	344.06
443.98	458.74
444.17	341.72
444.35	486.83
444.54	418.96
444.73	447.04
444.91	500.87
445.10	383.85
445.28	395.55
445.47	337.04
445.65	390.87
445.84	425.98
446.02	435.34
446.21	332.36
446.39	322.99
446.58	386.19
446.77	421.30
446.95	344.06
447.14	435.34
447.32	428.32
447.51	372.15
447.69	442.36
447.88	397.89
448.06	409.59
448.25	383.85
448.43	395.55
448.62	425.98
448.80	411.93
448.99	414.27
449.17	313.63
449.36	411.93
449.54	430.66
449.73	386.19
449.91	430.66
450.10	393.21
450.28	409.59
450.46	425.98
450.65	425.98
450.83	425.98
451.02	376.83
451.20	346.40
451.39	358.10
451.57	372.15
451.76	402.57
451.94	433.00
452.13	360.44
452.31	425.98
452.49	402.57
452.68	388.53
452.86	428.32
453.05	514.92
453.23	395.55
453.42	465.77
453.60	505.56
453.78	428.32
453.97	409.59
454.15	337.04
454.34	369.80
454.52	407.25
454.70	407.25
454.89	437.68
455.07	393.21
455.26	381.51
455.44	458.74
455.62	421.30
455.81	402.57
455.99	416.62
456.17	479.81
456.36	437.68
456.54	397.89
456.73	418.96
456.91	409.59
457.09	407.25
457.28	409.59
457.46	409.59
457.64	381.51
457.83	346.40
458.01	435.34
458.19	440.02
458.38	468.11
458.56	393.21
458.74	435.34
458.93	416.62
459.11	355.76
459.29	383.85
459.48	442.36
459.66	437.68
459.84	372.15
460.03	430.66
460.21	416.62
460.39	444.70
460.57	400.23
460.76	409.59
460.94	365.12
461.12	482.15
461.31	425.98
461.49	311.29
461.67	360.44
461.85	372.15
462.04	437.68
462.22	741.95
462.40	435.34
462.59	411.93
462.77	304.27
462.95	491.51
463.13	416.62
463.32	416.62
463.50	437.68
463.68	414.27
463.86	416.62
464.05	411.93
464.23	400.23
464.41	414.27
464.59	444.70
464.78	320.65
464.96	327.68
465.14	440.02
465.32	470.45
465.50	444.70
465.69	402.57
465.87	339.38
466.05	397.89
466.23	407.25
466.41	386.19
466.60	353.42
466.78	348.74
466.96	325.33
467.14	381.51
467.32	447.04
467.51	449.38
467.69	472.79
467.87	461.09
468.05	367.46
468.23	409.59
468.41	500.87
468.60	409.59
468.78	477.47
468.96	428.32
469.14	430.66
469.32	362.78
469.50	409.59
469.69	489.17
469.87	437.68
470.05	411.93
470.23	449.38
470.41	393.21
470.59	430.66
470.77	360.44
470.95	416.62
471.14	421.30
471.32	416.62
471.50	421.30
471.68	411.93
471.86	393.21
472.04	351.08
472.22	362.78
472.40	388.53
472.58	376.83
472.77	390.87
472.95	367.46
473.13	456.40
473.31	386.19
473.49	409.59
473.67	376.83
473.85	376.83
474.03	404.91
474.21	430.66
474.39	421.30
474.57	451.72
474.75	437.68
474.93	353.42
475.12	379.17
475.30	395.55
475.48	395.55
475.66	376.83
475.84	421.30
476.02	409.59
476.20	442.36
476.38	376.83
476.56	346.40
476.74	458.74
476.92	468.11
477.10	411.93
477.28	414.27
477.46	430.66
477.64	411.93
477.82	355.76
478.00	388.53
478.18	484.49
478.36	442.36
478.54	421.30
478.72	390.87
478.90	353.42
479.08	407.25
479.26	334.70
479.44	416.62
479.62	390.87
479.80	437.68
479.98	381.51
480.16	440.02
480.34	442.36
480.52	425.98
480.70	383.85
480.88	451.72
481.06	372.15
481.24	407.25
481.41	400.23
481.59	447.04
481.77	444.70
481.95	390.87
482.13	418.96
482.31	423.64
482.49	433.00
482.67	451.72
482.85	531.30
483.03	381.51
483.21	461.09
483.39	358.10
483.57	388.53
483.74	482.15
483.92	407.25
484.10	337.04
484.28	362.78
484.46	449.38
484.64	381.51
484.82	397.89
485.00	346.40
485.18	449.38
485.35	416.62
485.53	393.21
485.71	447.04
485.89	369.80
486.07	374.49
486.25	430.66
486.43	414.27
486.61	369.80
486.78	379.17
486.96	367.46
487.14	407.25
487.32	327.68
487.50	456.40
487.68	463.43
487.85	418.96
488.03	418.96
488.21	437.68
488.39	421.30
488.57	407.25
488.75	393.21
488.92	440.02
489.10	360.44
489.28	381.51
489.46	306.61
489.64	358.10
489.81	414.27
489.99	400.23
490.17	402.57
490.35	468.11
490.53	421.30
490.70	425.98
490.88	416.62
491.06	376.83
491.24	383.85
491.41	503.22
491.59	414.27
491.77	425.98
491.95	365.12
492.13	416.62
492.30	404.91
492.48	428.32
492.66	365.12
492.84	423.64
493.01	386.19
493.19	414.27
493.37	428.32
493.54	444.70
493.72	507.90
493.90	437.68
494.08	416.62
494.25	418.96
494.43	425.98
494.61	400.23
494.79	430.66
494.96	402.57
495.14	337.04
495.32	400.23
495.49	416.62
495.67	372.15
495.85	390.87
496.02	390.87
496.20	388.53
496.38	411.93
496.55	360.44
496.73	477.47
496.91	386.19
497.09	465.77
497.26	418.96
497.44	351.08
497.62	416.62
497.79	407.25
497.97	416.62
498.14	425.98
498.32	440.02
498.50	414.27
498.67	402.57
498.85	386.19
499.03	418.96
499.20	407.25
499.38	362.78
499.56	325.33
499.73	393.21
499.91	404.91
500.08	379.17
500.26	428.32
500.44	423.64
500.61	404.91
500.79	449.38
500.97	425.98
501.14	465.77
501.32	407.25
501.49	433.00
501.67	404.91
501.84	421.30
502.02	395.55
502.20	440.02
502.37	423.64
502.55	442.36
502.72	379.17
502.90	416.62
503.07	367.46
503.25	430.66
503.43	383.85
503.60	456.40
503.78	433.00
503.95	463.43
504.13	388.53
504.30	430.66
504.48	472.79
504.65	393.21
504.83	437.68
505.01	381.51
505.18	430.66
505.36	353.42
505.53	395.55
505.71	395.55
505.88	451.72
506.06	447.04
506.23	411.93
506.41	430.66
506.58	451.72
506.76	404.91
506.93	388.53
507.11	414.27
507.28	379.17
507.46	346.40
507.63	379.17
507.81	421.30
507.98	425.98
508.16	451.72
508.33	404.91
508.50	411.93
508.68	395.55
508.85	447.04
509.03	393.21
509.20	351.08
509.38	428.32
509.55	430.66
509.73	451.72
509.90	521.94
510.08	379.17
510.25	411.93
510.42	421.30
510.60	435.34
510.77	383.85
510.95	355.76
511.12	362.78
511.30	454.06
511.47	444.70
511.64	468.11
511.82	489.17
511.99	430.66
512.17	367.46
512.34	397.89
512.51	423.64
512.69	355.76
512.86	465.77
513.04	458.74
513.21	482.15
513.38	388.53
513.56	388.53
513.73	496.19
513.90	390.87
514.08	351.08
514.25	379.17
514.43	468.11
514.60	418.96
514.77	416.62
514.95	362.78
515.12	395.55
515.29	461.09
515.47	484.49
515.64	454.06
515.81	425.98
515.99	430.66
516.16	418.96
516.33	465.77
516.51	395.55
516.68	346.40
516.85	468.11
517.03	397.89
517.20	397.89
517.37	397.89
517.54	470.45
517.72	393.21
517.89	353.42
518.06	381.51
518.24	442.36
518.41	454.06
518.58	383.85
518.75	489.17
518.93	386.19
519.10	390.87
519.27	397.89
519.45	386.19
519.62	423.64
519.79	411.93
519.96	383.85
520.14	444.70
520.31	421.30
520.48	383.85
520.65	386.19
520.83	458.74
521.00	470.45
521.17	409.59
521.34	372.15
521.52	468.11
521.69	369.80
521.86	493.85
522.03	428.32
522.20	421.30
522.38	351.08
522.55	475.13
522.72	428.32
522.89	416.62
523.07	454.06
523.24	402.57
523.41	404.91
523.58	414.27
523.75	451.72
523.92	430.66
524.10	451.72
524.27	358.10
524.44	433.00
524.61	484.49
524.78	390.87
524.96	444.70
525.13	489.17
525.30	440.02
525.47	355.76
525.64	425.98
525.81	379.17
525.98	397.89
526.16	383.85
526.33	365.12
526.50	383.85
526.67	449.38
526.84	465.77
527.01	327.68
527.18	320.65
527.36	379.17
527.53	423.64
527.70	470.45
527.87	400.23
528.04	468.11
528.21	433.00
528.38	435.34
528.55	440.02
528.72	482.15
528.89	505.56
529.07	437.68
529.24	428.32
529.41	411.93
529.58	421.30
529.75	386.19
529.92	440.02
530.09	402.57
530.26	414.27
530.43	407.25
530.60	421.30
530.77	423.64
530.94	430.66
531.11	404.91
531.28	411.93
531.46	423.64
531.63	383.85
531.80	397.89
531.97	421.30
532.14	428.32
532.31	379.17
532.48	372.15
532.65	395.55
532.82	400.23
532.99	449.38
533.16	404.91
533.33	425.98
533.50	411.93
533.67	430.66
533.84	440.02
534.01	428.32
534.18	475.13
534.35	402.57
534.52	407.25
534.69	440.02
534.86	390.87
535.03	407.25
535.20	425.98
535.37	468.11
535.54	428.32
535.71	414.27
535.88	472.79
536.05	461.09
536.22	425.98
536.38	390.87
536.55	322.99
536.72	376.83
536.89	374.49
537.06	454.06
537.23	402.57
537.40	407.25
537.57	372.15
537.74	479.81
537.91	395.55
538.08	402.57
538.25	404.91
538.42	482.15
538.59	451.72
538.75	435.34
538.92	409.59
539.09	444.70
539.26	472.79
539.43	433.00
539.60	456.40
539.77	449.38
539.94	421.30
540.11	397.89
540.28	451.72
540.44	400.23
540.61	404.91
540.78	383.85
540.95	440.02
541.12	404.91
541.29	463.43
541.46	454.06
541.62	400.23
541.79	442.36
541.96	442.36
542.13	447.04
542.30	395.55
542.47	456.40
542.63	402.57
542.80	376.83
542.97	470.45
543.14	383.85
543.31	379.17
543.48	400.23
543.64	397.89
543.81	388.53
543.98	440.02
544.15	430.66
544.32	400.23
544.48	386.19
544.65	456.40
544.82	393.21
544.99	346.40
545.16	390.87
545.32	449.38
545.49	430.66
545.66	404.91
545.83	416.62
546.00	388.53
546.16	376.83
546.33	383.85
546.50	402.57
546.67	498.53
546.83	470.45
547.00	491.51
547.17	430.66
547.34	484.49
547.50	442.36
547.67	430.66
547.84	365.12
548.00	397.89
548.17	433.00
548.34	428.32
548.51	440.02
548.67	456.40
548.84	383.85
549.01	388.53
549.18	395.55
549.34	404.91
549.51	400.23
549.68	407.25
549.84	465.77
550.01	404.91
550.18	423.64
550.34	442.36
550.51	482.15
550.68	517.26
550.84	351.08
551.01	341.72
551.18	493.85
551.34	440.02
551.51	435.34
551.68	416.62
551.84	423.64
552.01	425.98
552.18	414.27
552.34	437.68
552.51	421.30
552.68	447.04
552.84	404.91
553.01	416.62
553.18	430.66
553.34	458.74
553.51	411.93
553.67	418.96
553.84	374.49
554.01	325.33
554.17	400.23
554.34	414.27
554.51	472.79
554.67	383.85
554.84	423.64
555.00	414.27
555.17	440.02
555.33	409.59
555.50	400.23
555.67	493.85
555.83	379.17
556.00	404.91
556.16	531.30
556.33	421.30
556.50	404.91
556.66	409.59
556.83	451.72
556.99	374.49
557.16	395.55
557.32	374.49
557.49	440.02
557.65	433.00
557.82	360.44
557.98	447.04
558.15	367.46
558.32	395.55
558.48	451.72
558.65	386.19
558.81	397.89
558.98	386.19
559.14	362.78
559.31	451.72
559.47	395.55
559.64	442.36
559.80	428.32
559.97	388.53
560.13	430.66
560.30	381.51
560.46	428.32
560.63	447.04
560.79	435.34
560.96	421.30
561.12	393.21
561.29	458.74
561.45	362.78
561.61	472.79
561.78	486.83
561.94	465.77
562.11	395.55
562.27	397.89
562.44	421.30
562.60	433.00
562.77	318.31
562.93	472.79
563.10	442.36
563.26	486.83
563.42	414.27
563.59	407.25
563.75	346.40
563.92	381.51
564.08	425.98
564.24	362.78
564.41	517.26
564.57	400.23
564.74	393.21
564.90	421.30
565.07	393.21
565.23	456.40
565.39	423.64
565.56	418.96
565.72	423.64
565.88	430.66
566.05	395.55
566.21	376.83
566.38	510.24
566.54	440.02
566.70	407.25
566.87	423.64
567.03	454.06
567.19	395.55
567.36	388.53
567.52	475.13
567.68	442.36
567.85	383.85
568.01	411.93
568.17	383.85
568.34	442.36
568.50	409.59
568.66	376.83
568.83	491.51
568.99	409.59
569.15	425.98
569.32	383.85
569.48	437.68
569.64	374.49
569.81	367.46
569.97	444.70
570.13	393.21
570.30	435.34
570.46	430.66
570.62	447.04
570.78	414.27
570.95	369.80
571.11	423.64
571.27	428.32
571.43	334.70
571.60	425.98
571.76	393.21
571.92	477.47
572.09	425.98
572.25	449.38
572.41	409.59
572.57	383.85
572.74	430.66
572.90	402.57
573.06	383.85
573.22	454.06
573.38	395.55
573.55	472.79
573.71	482.15
573.87	458.74
574.03	425.98
574.20	367.46
574.36	475.13
574.52	313.63
574.68	402.57
574.84	423.64
575.01	465.77
575.17	407.25
575.33	383.85
575.49	440.02
575.65	400.23
575.82	465.77
575.98	386.19
576.14	456.40
576.30	482.15
576.46	430.66
576.62	435.34
576.79	440.02
576.95	407.25
577.11	421.30
577.27	402.57
577.43	416.62
577.59	458.74
577.75	425.98
577.92	402.57
578.08	402.57
578.24	372.15
578.40	449.38
578.56	461.09
578.72	404.91
578.88	435.34
579.04	369.80
579.21	430.66
579.37	430.66
579.53	484.49
579.69	358.10
579.85	346.40
580.01	470.45
580.17	395.55
580.33	407.25
580.49	454.06
580.65	454.06
580.82	416.62
580.98	447.04
581.14	404.91
581.30	447.04
581.46	414.27
581.62	381.51
581.78	400.23
581.94	341.72
582.10	435.34
582.26	374.49
582.42	437.68
582.58	543.00
582.74	433.00
582.90	397.89
583.06	454.06
583.22	442.36
583.38	430.66
583.54	353.42
583.70	416.62
583.86	397.89
584.02	435.34
584.18	533.64
584.34	397.89
584.50	428.32
584.66	461.09
584.82	421.30
584.98	433.00
585.14	404.91
585.30	360.44
585.46	449.38
585.62	372.15
585.78	376.83
585.94	372.15
586.10	458.74
586.26	442.36
586.42	423.64
586.58	433.00
586.74	423.64
586.90	447.04
587.06	435.34
587.22	404.91
587.38	395.55
587.54	484.49
587.70	383.85
587.86	519.60
588.02	397.89
588.18	365.12
588.34	470.45
588.49	451.72
588.65	444.70
588.81	442.36
588.97	341.72
589.13	372.15
589.29	418.96
589.45	507.90
589.61	465.77
589.77	404.91
589.93	388.53
590.08	423.64
590.24	411.93
590.40	468.11
590.56	444.70
590.72	451.72
590.88	388.53
591.04	404.91
591.20	433.00
591.35	463.43
591.51	407.25
591.67	425.98
591.83	397.89
591.99	461.09
592.15	348.74
592.31	421.30
592.46	397.89
592.62	442.36
592.78	400.23
592.94	433.00
593.10	407.25
593.26	374.49
593.41	423.64
593.57	435.34
593.73	423.64
593.89	402.57
594.05	425.98
594.20	337.04
594.36	407.25
594.52	418.96
594.68	390.87
594.84	393.21
594.99	498.53
595.15	374.49
595.31	433.00
595.47	428.32
595.62	407.25
595.78	397.89
595.94	500.87
596.10	470.45
596.25	400.23
596.41	425.98
596.57	507.90
596.73	355.76
596.88	435.34
597.04	421.30
597.20	397.89
597.36	449.38
597.51	411.93
597.67	425.98
597.83	451.72
597.99	435.34
598.14	430.66
598.30	374.49
598.46	414.27
598.61	418.96
598.77	418.96
598.93	428.32
599.09	344.06
599.24	360.44
599.40	470.45
599.56	376.83
599.71	383.85
599.87	425.98
600.03	423.64
600.18	444.70
600.34	454.06
600.50	449.38
600.65	440.02
600.81	418.96
600.97	442.36
601.12	449.38
601.28	444.70
601.44	362.78
601.59	369.80
601.75	407.25
601.91	374.49
602.06	428.32
602.22	519.60
602.37	472.79
602.53	454.06
602.69	397.89
602.84	379.17
603.00	423.64
603.16	353.42
603.31	383.85
603.47	449.38
603.62	444.70
603.78	435.34
603.94	381.51
604.09	390.87
604.25	451.72
604.40	404.91
604.56	414.27
604.71	411.93
604.87	383.85
605.03	397.89
605.18	388.53
605.34	463.43
605.49	386.19
605.65	393.21
605.80	390.87
605.96	442.36
606.12	395.55
606.27	489.17
606.43	418.96
606.58	491.51
606.74	421.30
606.89	416.62
607.05	449.38
607.20	411.93
607.36	454.06
607.51	397.89
607.67	547.69
607.82	388.53
607.98	463.43
608.13	484.49
608.29	365.12
608.44	428.32
608.60	390.87
608.75	454.06
608.91	456.40
609.06	437.68
609.22	430.66
609.37	388.53
609.53	472.79
609.68	390.87
609.84	454.06
609.99	449.38
610.15	411.93
