SpectraSuite Data File
++++++++++++++++++++++++++++++++++++
Date: Fri Oct 25 12:10:34 EDT 2013
User: price-jones
Dark Spectrum Present: No
Reference Spectrum Present: No
Number of Sampled Component Spectra: 1
Spectrometers: USB2+H05261
Integration Time (usec): 100000 (USB2+H05261)
Spectra Averaged: 1 (USB2+H05261)
Boxcar Smoothing: 0 (USB2+H05261)
Correct for Electrical Dark: No (USB2+H05261)
Strobe/Lamp Enabled: No (USB2+H05261)
Correct for Detector Non-linearity: No (USB2+H05261)
Correct for Stray Light: No (USB2+H05261)
Number of Pixels in Processed Spectrum: 2048
>>>>>Begin Processed Spectral Data<<<<<
365.73	369.80
365.92	369.80
366.12	369.80
366.32	252.78
366.52	236.39
366.72	273.84
366.91	212.99
367.11	255.12
367.31	140.43
367.51	255.12
367.70	266.82
367.90	259.80
368.10	241.08
368.30	220.01
368.49	252.78
368.69	194.26
368.89	217.67
369.09	315.97
369.28	245.76
369.48	280.86
369.68	280.86
369.87	322.99
370.07	330.02
370.27	407.25
370.47	264.48
370.66	332.36
370.86	374.49
371.06	400.23
371.25	353.42
371.45	327.68
371.65	390.87
371.84	365.12
372.04	393.21
372.24	397.89
372.44	369.80
372.63	428.32
372.83	411.93
373.03	388.53
373.22	402.57
373.42	433.00
373.62	425.98
373.81	369.80
374.01	447.04
374.21	437.68
374.40	416.62
374.60	400.23
374.79	418.96
374.99	414.27
375.19	404.91
375.38	348.74
375.58	390.87
375.78	416.62
375.97	383.85
376.17	393.21
376.37	393.21
376.56	381.51
376.76	367.46
376.95	416.62
377.15	351.08
377.35	437.68
377.54	337.04
377.74	435.34
377.93	386.19
378.13	421.30
378.33	454.06
378.52	416.62
378.72	454.06
378.91	409.59
379.11	397.89
379.31	404.91
379.50	355.76
379.70	458.74
379.89	400.23
380.09	407.25
380.28	332.36
380.48	507.90
380.68	433.00
380.87	416.62
381.07	442.36
381.26	390.87
381.46	402.57
381.65	433.00
381.85	390.87
382.04	437.68
382.24	437.68
382.43	416.62
382.63	397.89
382.83	367.46
383.02	458.74
383.22	381.51
383.41	400.23
383.61	433.00
383.80	423.64
384.00	447.04
384.19	409.59
384.39	393.21
384.58	435.34
384.78	416.62
384.97	447.04
385.17	423.64
385.36	433.00
385.56	463.43
385.75	376.83
385.95	447.04
386.14	400.23
386.34	367.46
386.53	475.13
386.72	414.27
386.92	428.32
387.11	416.62
387.31	395.55
387.50	390.87
387.70	383.85
387.89	334.70
388.09	397.89
388.28	414.27
388.48	369.80
388.67	386.19
388.86	430.66
389.06	411.93
389.25	456.40
389.45	425.98
389.64	395.55
389.84	379.17
390.03	444.70
390.22	430.66
390.42	388.53
390.61	409.59
390.81	393.21
391.00	409.59
391.19	416.62
391.39	430.66
391.58	409.59
391.78	435.34
391.97	416.62
392.16	449.38
392.36	414.27
392.55	454.06
392.75	390.87
392.94	454.06
393.13	479.81
393.33	346.40
393.52	414.27
393.71	430.66
393.91	369.80
394.10	414.27
394.29	386.19
394.49	428.32
394.68	367.46
394.88	442.36
395.07	430.66
395.26	416.62
395.46	411.93
395.65	500.87
395.84	463.43
396.04	489.17
396.23	393.21
396.42	400.23
396.62	395.55
396.81	374.49
397.00	433.00
397.19	428.32
397.39	360.44
397.58	423.64
397.77	416.62
397.97	411.93
398.16	411.93
398.35	472.79
398.55	379.17
398.74	484.49
398.93	461.09
399.12	404.91
399.32	465.77
399.51	451.72
399.70	351.08
399.90	428.32
400.09	451.72
400.28	461.09
400.47	404.91
400.67	386.19
400.86	390.87
401.05	496.19
401.24	393.21
401.44	409.59
401.63	451.72
401.82	360.44
402.01	369.80
402.21	388.53
402.40	374.49
402.59	372.15
402.78	442.36
402.97	355.76
403.17	411.93
403.36	428.32
403.55	339.38
403.74	425.98
403.93	416.62
404.13	421.30
404.32	365.12
404.51	383.85
404.70	386.19
404.89	400.23
405.09	475.13
405.28	365.12
405.47	414.27
405.66	465.77
405.85	390.87
406.05	376.83
406.24	383.85
406.43	414.27
406.62	383.85
406.81	402.57
407.00	437.68
407.20	383.85
407.39	416.62
407.58	372.15
407.77	505.56
407.96	388.53
408.15	414.27
408.34	470.45
408.54	393.21
408.73	379.17
408.92	341.72
409.11	402.57
409.30	397.89
409.49	374.49
409.68	360.44
409.87	372.15
410.07	430.66
410.26	414.27
410.45	390.87
410.64	428.32
410.83	311.29
411.02	423.64
411.21	437.68
411.40	430.66
411.59	395.55
411.78	423.64
411.98	437.68
412.17	325.33
412.36	358.10
412.55	362.78
412.74	362.78
412.93	440.02
413.12	421.30
413.31	421.30
413.50	362.78
413.69	372.15
413.88	409.59
414.07	379.17
414.26	407.25
414.45	362.78
414.64	383.85
414.83	456.40
415.02	425.98
415.22	395.55
415.41	449.38
415.60	351.08
415.79	454.06
415.98	428.32
416.17	362.78
416.36	358.10
416.55	421.30
416.74	416.62
416.93	433.00
417.12	437.68
417.31	327.68
417.50	416.62
417.69	402.57
417.88	423.64
418.07	381.51
418.26	348.74
418.45	306.61
418.64	411.93
418.83	454.06
419.02	287.89
419.21	416.62
419.39	402.57
419.58	404.91
419.77	409.59
419.96	332.36
420.15	404.91
420.34	411.93
420.53	423.64
420.72	407.25
420.91	503.22
421.10	383.85
421.29	416.62
421.48	458.74
421.67	465.77
421.86	332.36
422.05	409.59
422.24	367.46
422.43	414.27
422.61	379.17
422.80	397.89
422.99	351.08
423.18	444.70
423.37	442.36
423.56	393.21
423.75	344.06
423.94	400.23
424.13	425.98
424.32	440.02
424.50	423.64
424.69	463.43
424.88	388.53
425.07	395.55
425.26	402.57
425.45	465.77
425.64	428.32
425.83	414.27
426.01	365.12
426.20	430.66
426.39	428.32
426.58	437.68
426.77	489.17
426.96	468.11
427.15	416.62
427.33	407.25
427.52	360.44
427.71	435.34
427.90	491.51
428.09	344.06
428.28	348.74
428.46	414.27
428.65	372.15
428.84	379.17
429.03	449.38
429.22	400.23
429.40	386.19
429.59	348.74
429.78	409.59
429.97	423.64
430.16	327.68
430.34	351.08
430.53	416.62
430.72	449.38
430.91	433.00
431.10	423.64
431.28	486.83
431.47	379.17
431.66	365.12
431.85	369.80
432.03	411.93
432.22	468.11
432.41	379.17
432.60	388.53
432.79	358.10
432.97	411.93
433.16	477.47
433.35	386.19
433.54	362.78
433.72	425.98
433.91	447.04
434.10	421.30
434.28	414.27
434.47	376.83
434.66	397.89
434.85	409.59
435.03	425.98
435.22	425.98
435.41	409.59
435.59	433.00
435.78	456.40
435.97	386.19
436.16	351.08
436.34	353.42
436.53	360.44
436.72	477.47
436.90	369.80
437.09	372.15
437.28	355.76
437.46	411.93
437.65	435.34
437.84	397.89
438.02	440.02
438.21	353.42
438.40	369.80
438.58	433.00
438.77	425.98
438.96	393.21
439.14	451.72
439.33	416.62
439.52	404.91
439.70	395.55
439.89	489.17
440.08	535.98
440.26	430.66
440.45	421.30
440.63	367.46
440.82	381.51
441.01	425.98
441.19	416.62
441.38	416.62
441.57	334.70
441.75	449.38
441.94	409.59
442.12	430.66
442.31	383.85
442.50	383.85
442.68	447.04
442.87	402.57
443.05	479.81
443.24	440.02
443.43	388.53
443.61	423.64
443.80	381.51
443.98	393.21
444.17	407.25
444.35	451.72
444.54	437.68
444.73	388.53
444.91	493.85
445.10	341.72
445.28	458.74
445.47	390.87
445.65	416.62
445.84	433.00
446.02	404.91
446.21	358.10
446.39	442.36
446.58	440.02
446.77	327.68
446.95	442.36
447.14	407.25
447.32	477.47
447.51	372.15
447.69	365.12
447.88	477.47
448.06	498.53
448.25	409.59
448.43	362.78
448.62	383.85
448.80	437.68
448.99	409.59
449.17	451.72
449.36	475.13
449.54	421.30
449.73	355.76
449.91	390.87
450.10	388.53
450.28	465.77
450.46	470.45
450.65	428.32
450.83	402.57
451.02	519.60
451.20	430.66
451.39	379.17
451.57	353.42
451.76	381.51
451.94	360.44
452.13	395.55
452.31	442.36
452.49	416.62
452.68	407.25
452.86	407.25
453.05	475.13
453.23	402.57
453.42	414.27
453.60	369.80
453.78	386.19
453.97	362.78
454.15	383.85
454.34	358.10
454.52	409.59
454.70	442.36
454.89	484.49
455.07	430.66
455.26	456.40
455.44	409.59
455.62	423.64
455.81	381.51
455.99	500.87
456.17	407.25
456.36	479.81
456.54	325.33
456.73	447.04
456.91	376.83
457.09	409.59
457.28	416.62
457.46	500.87
457.64	468.11
457.83	388.53
458.01	430.66
458.19	437.68
458.38	454.06
458.56	435.34
458.74	393.21
458.93	430.66
459.11	433.00
459.29	425.98
459.48	477.47
459.66	503.22
459.84	479.81
460.03	449.38
460.21	369.80
460.39	402.57
460.57	416.62
460.76	348.74
460.94	447.04
461.12	463.43
461.31	414.27
461.49	393.21
461.67	454.06
461.85	472.79
462.04	407.25
462.22	770.04
462.40	428.32
462.59	470.45
462.77	383.85
462.95	442.36
463.13	472.79
463.32	456.40
463.50	475.13
463.68	425.98
463.86	388.53
464.05	447.04
464.23	414.27
464.41	404.91
464.59	416.62
464.78	348.74
464.96	416.62
465.14	397.89
465.32	428.32
465.50	440.02
465.69	407.25
465.87	454.06
466.05	440.02
466.23	383.85
466.41	395.55
466.60	423.64
466.78	425.98
466.96	407.25
467.14	407.25
467.32	395.55
467.51	320.65
467.69	369.80
467.87	386.19
468.05	404.91
468.23	428.32
468.41	451.72
468.60	351.08
468.78	376.83
468.96	465.77
469.14	433.00
469.32	428.32
469.50	414.27
469.69	386.19
469.87	381.51
470.05	437.68
470.23	393.21
470.41	360.44
470.59	358.10
470.77	330.02
470.95	421.30
471.14	407.25
471.32	395.55
471.50	351.08
471.68	482.15
471.86	360.44
472.04	372.15
472.22	395.55
472.40	449.38
472.58	461.09
472.77	458.74
472.95	325.33
473.13	409.59
473.31	372.15
473.49	447.04
473.67	407.25
473.85	477.47
474.03	423.64
474.21	470.45
474.39	416.62
474.57	437.68
474.75	404.91
474.93	421.30
475.12	397.89
475.30	355.76
475.48	407.25
475.66	411.93
475.84	379.17
476.02	437.68
476.20	390.87
476.38	404.91
476.56	365.12
476.74	416.62
476.92	404.91
477.10	353.42
477.28	397.89
477.46	409.59
477.64	458.74
477.82	388.53
478.00	428.32
478.18	416.62
478.36	365.12
478.54	404.91
478.72	381.51
478.90	397.89
479.08	404.91
479.26	430.66
479.44	409.59
479.62	358.10
479.80	341.72
479.98	395.55
480.16	376.83
480.34	421.30
480.52	435.34
480.70	400.23
480.88	395.55
481.06	442.36
481.24	451.72
481.41	440.02
481.59	402.57
481.77	379.17
481.95	325.33
482.13	409.59
482.31	381.51
482.49	362.78
482.67	360.44
482.85	423.64
483.03	407.25
483.21	444.70
483.39	395.55
483.57	390.87
483.74	486.83
483.92	425.98
484.10	430.66
484.28	404.91
484.46	477.47
484.64	379.17
484.82	468.11
485.00	400.23
485.18	381.51
485.35	442.36
485.53	493.85
485.71	421.30
485.89	346.40
486.07	449.38
486.25	414.27
486.43	395.55
486.61	425.98
486.78	388.53
486.96	360.44
487.14	458.74
487.32	273.84
487.50	395.55
487.68	339.38
487.85	430.66
488.03	358.10
488.21	435.34
488.39	472.79
488.57	411.93
488.75	358.10
488.92	484.49
489.10	390.87
489.28	393.21
489.46	416.62
489.64	468.11
489.81	465.77
489.99	442.36
490.17	400.23
490.35	376.83
490.53	379.17
490.70	402.57
490.88	423.64
491.06	386.19
491.24	374.49
491.41	493.85
491.59	400.23
491.77	400.23
491.95	344.06
492.13	409.59
492.30	358.10
492.48	435.34
492.66	383.85
492.84	430.66
493.01	435.34
493.19	428.32
493.37	449.38
493.54	461.09
493.72	454.06
493.90	369.80
494.08	407.25
494.25	411.93
494.43	388.53
494.61	383.85
494.79	404.91
494.96	411.93
495.14	404.91
495.32	423.64
495.49	397.89
495.67	379.17
495.85	411.93
496.02	337.04
496.20	503.22
496.38	486.83
496.55	404.91
496.73	454.06
496.91	379.17
497.09	440.02
497.26	407.25
497.44	404.91
497.62	402.57
497.79	418.96
497.97	393.21
498.14	472.79
498.32	386.19
498.50	383.85
498.67	461.09
498.85	341.72
499.03	379.17
499.20	409.59
499.38	390.87
499.56	456.40
499.73	414.27
499.91	397.89
500.08	449.38
500.26	402.57
500.44	465.77
500.61	425.98
500.79	390.87
500.97	437.68
501.14	423.64
501.32	433.00
501.49	447.04
501.67	475.13
501.84	482.15
502.02	318.31
502.20	416.62
502.37	465.77
502.55	351.08
502.72	383.85
502.90	456.40
503.07	437.68
503.25	433.00
503.43	390.87
503.60	348.74
503.78	353.42
503.95	418.96
504.13	407.25
504.30	393.21
504.48	409.59
504.65	468.11
504.83	444.70
505.01	379.17
505.18	339.38
505.36	435.34
505.53	414.27
505.71	468.11
505.88	393.21
506.06	444.70
506.23	430.66
506.41	451.72
506.58	430.66
506.76	397.89
506.93	423.64
507.11	454.06
507.28	381.51
507.46	388.53
507.63	337.04
507.81	411.93
507.98	440.02
508.16	386.19
508.33	376.83
508.50	393.21
508.68	428.32
508.85	308.95
509.03	381.51
509.20	381.51
509.38	409.59
509.55	358.10
509.73	414.27
509.90	472.79
510.08	404.91
510.25	449.38
510.42	451.72
510.60	433.00
510.77	404.91
510.95	376.83
511.12	447.04
511.30	428.32
511.47	411.93
511.64	421.30
511.82	416.62
511.99	496.19
512.17	418.96
512.34	344.06
512.51	386.19
512.69	447.04
512.86	440.02
513.04	383.85
513.21	458.74
513.38	365.12
513.56	477.47
513.73	479.81
513.90	425.98
514.08	400.23
514.25	367.46
514.43	461.09
514.60	355.76
514.77	379.17
514.95	341.72
515.12	325.33
515.29	440.02
515.47	355.76
515.64	433.00
515.81	465.77
515.99	465.77
516.16	388.53
516.33	489.17
516.51	442.36
516.68	411.93
516.85	486.83
517.03	386.19
517.20	416.62
517.37	367.46
517.54	327.68
517.72	449.38
517.89	479.81
518.06	423.64
518.24	484.49
518.41	512.58
518.58	442.36
518.75	327.68
518.93	409.59
519.10	397.89
519.27	327.68
519.45	360.44
519.62	407.25
519.79	416.62
519.96	402.57
520.14	435.34
520.31	461.09
520.48	458.74
520.65	416.62
520.83	402.57
521.00	374.49
521.17	372.15
521.34	379.17
521.52	451.72
521.69	440.02
521.86	372.15
522.03	418.96
522.20	418.96
522.38	503.22
522.55	388.53
522.72	407.25
522.89	404.91
523.07	381.51
523.24	393.21
523.41	381.51
523.58	428.32
523.75	390.87
523.92	376.83
524.10	428.32
524.27	463.43
524.44	346.40
524.61	365.12
524.78	414.27
524.96	393.21
525.13	341.72
525.30	372.15
525.47	395.55
525.64	402.57
525.81	395.55
525.98	437.68
526.16	428.32
526.33	367.46
526.50	400.23
526.67	397.89
526.84	407.25
527.01	374.49
527.18	430.66
527.36	407.25
527.53	461.09
527.70	484.49
527.87	411.93
528.04	444.70
528.21	390.87
528.38	395.55
528.55	449.38
528.72	437.68
528.89	444.70
529.07	376.83
529.24	465.77
529.41	404.91
529.58	381.51
529.75	393.21
529.92	390.87
530.09	360.44
530.26	393.21
530.43	395.55
530.60	449.38
530.77	397.89
530.94	416.62
531.11	414.27
531.28	402.57
531.46	346.40
531.63	447.04
531.80	421.30
531.97	397.89
532.14	402.57
532.31	404.91
532.48	402.57
532.65	425.98
532.82	341.72
532.99	447.04
533.16	395.55
533.33	388.53
533.50	411.93
533.67	365.12
533.84	402.57
534.01	409.59
534.18	449.38
534.35	437.68
534.52	390.87
534.69	414.27
534.86	435.34
535.03	425.98
535.20	407.25
535.37	437.68
535.54	428.32
535.71	430.66
535.88	407.25
536.05	362.78
536.22	388.53
536.38	447.04
536.55	348.74
536.72	379.17
536.89	327.68
537.06	444.70
537.23	348.74
537.40	411.93
537.57	414.27
537.74	416.62
537.91	397.89
538.08	308.95
538.25	437.68
538.42	444.70
538.59	447.04
538.75	430.66
538.92	353.42
539.09	470.45
539.26	369.80
539.43	416.62
539.60	397.89
539.77	423.64
539.94	416.62
540.11	372.15
540.28	486.83
540.44	475.13
540.61	440.02
540.78	390.87
540.95	407.25
541.12	423.64
541.29	444.70
541.46	468.11
541.62	437.68
541.79	360.44
541.96	374.49
542.13	416.62
542.30	402.57
542.47	461.09
542.63	435.34
542.80	397.89
542.97	444.70
543.14	395.55
543.31	449.38
543.48	423.64
543.64	425.98
543.81	409.59
543.98	404.91
544.15	372.15
544.32	449.38
544.48	451.72
544.65	458.74
544.82	404.91
544.99	381.51
545.16	458.74
545.32	400.23
545.49	414.27
545.66	393.21
545.83	395.55
546.00	325.33
546.16	416.62
546.33	449.38
546.50	447.04
546.67	451.72
546.83	435.34
547.00	400.23
547.17	414.27
547.34	461.09
547.50	444.70
547.67	421.30
547.84	430.66
548.00	418.96
548.17	388.53
548.34	400.23
548.51	388.53
548.67	423.64
548.84	440.02
549.01	390.87
549.18	416.62
549.34	430.66
549.51	397.89
549.68	472.79
549.84	393.21
550.01	365.12
550.18	456.40
550.34	491.51
550.51	498.53
550.68	400.23
550.84	397.89
551.01	514.92
551.18	500.87
551.34	433.00
551.51	402.57
551.68	470.45
551.84	557.05
552.01	393.21
552.18	395.55
552.34	451.72
552.51	428.32
552.68	486.83
552.84	435.34
553.01	428.32
553.18	425.98
553.34	465.77
553.51	365.12
553.67	374.49
553.84	423.64
554.01	423.64
554.17	381.51
554.34	425.98
554.51	409.59
554.67	376.83
554.84	341.72
555.00	484.49
555.17	454.06
555.33	430.66
555.50	390.87
555.67	414.27
555.83	442.36
556.00	430.66
556.16	498.53
556.33	365.12
556.50	414.27
556.66	346.40
556.83	444.70
556.99	437.68
557.16	454.06
557.32	442.36
557.49	393.21
557.65	379.17
557.82	381.51
557.98	379.17
558.15	416.62
558.32	395.55
558.48	449.38
558.65	465.77
558.81	425.98
558.98	486.83
559.14	381.51
559.31	484.49
559.47	470.45
559.64	411.93
559.80	475.13
559.97	409.59
560.13	449.38
560.30	402.57
560.46	418.96
560.63	393.21
560.79	414.27
560.96	442.36
561.12	437.68
561.29	409.59
561.45	407.25
561.61	409.59
561.78	454.06
561.94	416.62
562.11	449.38
562.27	409.59
562.44	381.51
562.60	456.40
562.77	421.30
562.93	528.96
563.10	416.62
563.26	379.17
563.42	475.13
563.59	390.87
563.75	386.19
563.92	374.49
564.08	514.92
564.24	486.83
564.41	510.24
564.57	423.64
564.74	428.32
564.90	458.74
565.07	365.12
565.23	465.77
565.39	341.72
565.56	397.89
565.72	395.55
565.88	425.98
566.05	411.93
566.21	437.68
566.38	423.64
566.54	421.30
566.70	400.23
566.87	447.04
567.03	386.19
567.19	430.66
567.36	430.66
567.52	402.57
567.68	390.87
567.85	447.04
568.01	423.64
568.17	379.17
568.34	454.06
568.50	482.15
568.66	425.98
568.83	498.53
568.99	437.68
569.15	390.87
569.32	395.55
569.48	397.89
569.64	397.89
569.81	423.64
569.97	489.17
570.13	437.68
570.30	393.21
570.46	425.98
570.62	376.83
570.78	416.62
570.95	390.87
571.11	423.64
571.27	461.09
571.43	433.00
571.60	435.34
571.76	397.89
571.92	367.46
572.09	514.92
572.25	388.53
572.41	416.62
572.57	528.96
572.74	451.72
572.90	421.30
573.06	425.98
573.22	433.00
573.38	484.49
573.55	470.45
573.71	479.81
573.87	472.79
574.03	463.43
574.20	393.21
574.36	482.15
574.52	360.44
574.68	390.87
574.84	433.00
575.01	423.64
575.17	395.55
575.33	372.15
575.49	472.79
575.65	440.02
575.82	425.98
575.98	390.87
576.14	425.98
576.30	421.30
576.46	416.62
576.62	428.32
576.79	386.19
576.95	430.66
577.11	440.02
577.27	418.96
577.43	456.40
577.59	477.47
577.75	404.91
577.92	493.85
578.08	407.25
578.24	435.34
578.40	444.70
578.56	383.85
578.72	330.02
578.88	465.77
579.04	367.46
579.21	367.46
579.37	404.91
579.53	454.06
579.69	395.55
579.85	379.17
580.01	390.87
580.17	402.57
580.33	411.93
580.49	404.91
580.65	475.13
580.82	367.46
580.98	433.00
581.14	402.57
581.30	447.04
581.46	468.11
581.62	437.68
581.78	423.64
581.94	433.00
582.10	449.38
582.26	365.12
582.42	381.51
582.58	440.02
582.74	470.45
582.90	388.53
583.06	402.57
583.22	425.98
583.38	372.15
583.54	414.27
583.70	360.44
583.86	407.25
584.02	444.70
584.18	440.02
584.34	411.93
584.50	437.68
584.66	479.81
584.82	437.68
584.98	465.77
585.14	381.51
585.30	458.74
585.46	433.00
585.62	400.23
585.78	390.87
585.94	388.53
586.10	337.04
586.26	402.57
586.42	407.25
586.58	465.77
586.74	383.85
586.90	353.42
587.06	397.89
587.22	365.12
587.38	381.51
587.54	465.77
587.70	447.04
587.86	409.59
588.02	442.36
588.18	381.51
588.34	442.36
588.49	414.27
588.65	449.38
588.81	428.32
588.97	386.19
589.13	383.85
589.29	393.21
589.45	397.89
589.61	395.55
589.77	442.36
589.93	435.34
590.08	489.17
590.24	442.36
590.40	458.74
590.56	369.80
590.72	355.76
590.88	416.62
591.04	388.53
591.20	416.62
591.35	482.15
591.51	423.64
591.67	400.23
591.83	428.32
591.99	444.70
592.15	435.34
592.31	386.19
592.46	433.00
592.62	407.25
592.78	339.38
592.94	402.57
593.10	407.25
593.26	372.15
593.41	425.98
593.57	416.62
593.73	362.78
593.89	444.70
594.05	379.17
594.20	507.90
594.36	409.59
594.52	393.21
594.68	423.64
594.84	449.38
594.99	440.02
595.15	440.02
595.31	461.09
595.47	428.32
595.62	386.19
595.78	421.30
595.94	346.40
596.10	454.06
596.25	376.83
596.41	416.62
596.57	411.93
596.73	482.15
596.88	367.46
597.04	486.83
597.20	414.27
597.36	418.96
597.51	409.59
597.67	442.36
597.83	381.51
597.99	475.13
598.14	444.70
598.30	433.00
598.46	416.62
598.61	435.34
598.77	437.68
598.93	383.85
599.09	379.17
599.24	386.19
599.40	493.85
599.56	383.85
599.71	430.66
599.87	411.93
600.03	468.11
600.18	395.55
600.34	463.43
600.50	388.53
600.65	393.21
600.81	458.74
600.97	362.78
601.12	435.34
601.28	418.96
601.44	390.87
601.59	421.30
601.75	465.77
601.91	416.62
602.06	397.89
602.22	454.06
602.37	409.59
602.53	376.83
602.69	404.91
602.84	339.38
603.00	418.96
603.16	437.68
603.31	461.09
603.47	404.91
603.62	440.02
603.78	400.23
603.94	421.30
604.09	390.87
604.25	386.19
604.40	461.09
604.56	458.74
604.71	386.19
604.87	458.74
605.03	402.57
605.18	416.62
605.34	470.45
605.49	402.57
605.65	486.83
605.80	381.51
605.96	374.49
606.12	456.40
606.27	475.13
606.43	447.04
606.58	435.34
606.74	437.68
606.89	472.79
607.05	463.43
607.20	395.55
607.36	367.46
607.51	449.38
607.67	390.87
607.82	416.62
607.98	437.68
608.13	430.66
608.29	358.10
608.44	423.64
608.60	486.83
608.75	444.70
608.91	435.34
609.06	437.68
609.22	442.36
609.37	393.21
609.53	423.64
609.68	397.89
609.84	440.02
609.99	414.27
610.15	461.09
