SpectraSuite Data File
++++++++++++++++++++++++++++++++++++
Date: Fri Oct 25 12:11:29 EDT 2013
User: price-jones
Dark Spectrum Present: No
Reference Spectrum Present: No
Number of Sampled Component Spectra: 1
Spectrometers: USB2+H05261
Integration Time (usec): 100000 (USB2+H05261)
Spectra Averaged: 1 (USB2+H05261)
Boxcar Smoothing: 0 (USB2+H05261)
Correct for Electrical Dark: No (USB2+H05261)
Strobe/Lamp Enabled: No (USB2+H05261)
Correct for Detector Non-linearity: No (USB2+H05261)
Correct for Stray Light: No (USB2+H05261)
Number of Pixels in Processed Spectrum: 2048
>>>>>Begin Processed Spectral Data<<<<<
365.73	341.72
365.92	341.72
366.12	341.72
366.32	297.25
366.52	297.25
366.72	257.46
366.91	262.14
367.11	255.12
367.31	241.08
367.51	208.31
367.70	217.67
367.90	257.46
368.10	215.33
368.30	229.37
368.49	283.20
368.69	292.57
368.89	285.55
369.09	273.84
369.28	315.97
369.48	301.93
369.68	189.58
369.87	301.93
370.07	425.98
370.27	379.17
370.47	304.27
370.66	327.68
370.86	344.06
371.06	381.51
371.25	435.34
371.45	294.91
371.65	379.17
371.84	304.27
372.04	386.19
372.24	379.17
372.44	360.44
372.63	388.53
372.83	407.25
373.03	414.27
373.22	379.17
373.42	386.19
373.62	409.59
373.81	447.04
374.01	451.72
374.21	388.53
374.40	411.93
374.60	465.77
374.79	418.96
374.99	390.87
375.19	390.87
375.38	435.34
375.58	421.30
375.78	475.13
375.97	458.74
376.17	358.10
376.37	486.83
376.56	402.57
376.76	414.27
376.95	463.43
377.15	390.87
377.35	416.62
377.54	383.85
377.74	416.62
377.93	369.80
378.13	461.09
378.33	409.59
378.52	409.59
378.72	440.02
378.91	383.85
379.11	383.85
379.31	334.70
379.50	376.83
379.70	348.74
379.89	414.27
380.09	346.40
380.28	353.42
380.48	388.53
380.68	372.15
380.87	369.80
381.07	451.72
381.26	390.87
381.46	456.40
381.65	397.89
381.85	414.27
382.04	360.44
382.24	477.47
382.43	411.93
382.63	374.49
382.83	409.59
383.02	425.98
383.22	486.83
383.41	435.34
383.61	433.00
383.80	442.36
384.00	395.55
384.19	440.02
384.39	425.98
384.58	442.36
384.78	421.30
384.97	365.12
385.17	454.06
385.36	416.62
385.56	423.64
385.75	491.51
385.95	395.55
386.14	461.09
386.34	437.68
386.53	428.32
386.72	437.68
386.92	369.80
387.11	449.38
387.31	376.83
387.50	468.11
387.70	353.42
387.89	440.02
388.09	376.83
388.28	393.21
388.48	411.93
388.67	440.02
388.86	437.68
389.06	383.85
389.25	388.53
389.45	442.36
389.64	355.76
389.84	386.19
390.03	369.80
390.22	411.93
390.42	437.68
390.61	383.85
390.81	411.93
391.00	444.70
391.19	433.00
391.39	400.23
391.58	414.27
391.78	369.80
391.97	383.85
392.16	379.17
392.36	451.72
392.55	451.72
392.75	372.15
392.94	386.19
393.13	395.55
393.33	360.44
393.52	421.30
393.71	423.64
393.91	418.96
394.10	404.91
394.29	372.15
394.49	383.85
394.68	435.34
394.88	393.21
395.07	416.62
395.26	369.80
395.46	486.83
395.65	414.27
395.84	390.87
396.04	465.77
396.23	388.53
396.42	498.53
396.62	472.79
396.81	437.68
397.00	381.51
397.19	346.40
397.39	390.87
397.58	395.55
397.77	402.57
397.97	409.59
398.16	379.17
398.35	411.93
398.55	416.62
398.74	346.40
398.93	395.55
399.12	456.40
399.32	444.70
399.51	447.04
399.70	461.09
399.90	409.59
400.09	421.30
400.28	344.06
400.47	416.62
400.67	461.09
400.86	393.21
401.05	475.13
401.24	430.66
401.44	383.85
401.63	428.32
401.82	442.36
402.01	423.64
402.21	442.36
402.40	449.38
402.59	428.32
402.78	381.51
402.97	372.15
403.17	433.00
403.36	409.59
403.55	393.21
403.74	374.49
403.93	388.53
404.13	402.57
404.32	381.51
404.51	409.59
404.70	365.12
404.89	435.34
405.09	444.70
405.28	437.68
405.47	414.27
405.66	374.49
405.85	334.70
406.05	428.32
406.24	311.29
406.43	383.85
406.62	393.21
406.81	465.77
407.00	330.02
407.20	360.44
407.39	465.77
407.58	383.85
407.77	374.49
407.96	355.76
408.15	456.40
408.34	463.43
408.54	517.26
408.73	433.00
408.92	437.68
409.11	444.70
409.30	383.85
409.49	330.02
409.68	433.00
409.87	404.91
410.07	416.62
410.26	456.40
410.45	393.21
410.64	348.74
410.83	461.09
411.02	358.10
411.21	449.38
411.40	416.62
411.59	397.89
411.78	395.55
411.98	416.62
412.17	475.13
412.36	362.78
412.55	437.68
412.74	397.89
412.93	400.23
413.12	376.83
413.31	374.49
413.50	402.57
413.69	411.93
413.88	444.70
414.07	425.98
414.26	425.98
414.45	451.72
414.64	379.17
414.83	369.80
415.02	449.38
415.22	395.55
415.41	409.59
415.60	421.30
415.79	411.93
415.98	451.72
416.17	416.62
416.36	440.02
416.55	369.80
416.74	334.70
416.93	421.30
417.12	444.70
417.31	444.70
417.50	404.91
417.69	463.43
417.88	454.06
418.07	362.78
418.26	369.80
418.45	496.19
418.64	407.25
418.83	383.85
419.02	433.00
419.21	414.27
419.39	383.85
419.58	388.53
419.77	442.36
419.96	418.96
420.15	479.81
420.34	421.30
420.53	393.21
420.72	376.83
420.91	428.32
421.10	379.17
421.29	454.06
421.48	428.32
421.67	423.64
421.86	393.21
422.05	383.85
422.24	444.70
422.43	421.30
422.61	454.06
422.80	421.30
422.99	341.72
423.18	341.72
423.37	414.27
423.56	404.91
423.75	395.55
423.94	454.06
424.13	418.96
424.32	416.62
424.50	390.87
424.69	440.02
424.88	376.83
425.07	395.55
425.26	433.00
425.45	440.02
425.64	344.06
425.83	411.93
426.01	418.96
426.20	456.40
426.39	374.49
426.58	327.68
426.77	407.25
426.96	341.72
427.15	493.85
427.33	458.74
427.52	383.85
427.71	388.53
427.90	341.72
428.09	390.87
428.28	414.27
428.46	409.59
428.65	393.21
428.84	423.64
429.03	456.40
429.22	423.64
429.40	416.62
429.59	383.85
429.78	379.17
429.97	461.09
430.16	423.64
430.34	393.21
430.53	400.23
430.72	414.27
430.91	454.06
431.10	327.68
431.28	451.72
431.47	458.74
431.66	421.30
431.85	409.59
432.03	428.32
432.22	463.43
432.41	339.38
432.60	386.19
432.79	433.00
432.97	393.21
433.16	390.87
433.35	372.15
433.54	386.19
433.72	404.91
433.91	444.70
434.10	440.02
434.28	451.72
434.47	451.72
434.66	404.91
434.85	430.66
435.03	351.08
435.22	496.19
435.41	484.49
435.59	362.78
435.78	433.00
435.97	390.87
436.16	404.91
436.34	458.74
436.53	465.77
436.72	475.13
436.90	433.00
437.09	456.40
437.28	449.38
437.46	397.89
437.65	418.96
437.84	468.11
438.02	344.06
438.21	390.87
438.40	454.06
438.58	383.85
438.77	374.49
438.96	376.83
439.14	404.91
439.33	425.98
439.52	390.87
439.70	374.49
439.89	395.55
440.08	344.06
440.26	308.95
440.45	355.76
440.63	477.47
440.82	489.17
441.01	421.30
441.19	425.98
441.38	379.17
441.57	381.51
441.75	430.66
441.94	425.98
442.12	365.12
442.31	451.72
442.50	318.31
442.68	393.21
442.87	411.93
443.05	411.93
443.24	425.98
443.43	393.21
443.61	479.81
443.80	468.11
443.98	428.32
444.17	418.96
444.35	425.98
444.54	433.00
444.73	409.59
444.91	449.38
445.10	526.62
445.28	388.53
445.47	465.77
445.65	381.51
445.84	437.68
446.02	470.45
446.21	456.40
446.39	404.91
446.58	402.57
446.77	447.04
446.95	402.57
447.14	428.32
447.32	433.00
447.51	348.74
447.69	381.51
447.88	454.06
448.06	428.32
448.25	472.79
448.43	397.89
448.62	433.00
448.80	425.98
448.99	397.89
449.17	491.51
449.36	388.53
449.54	407.25
449.73	393.21
449.91	372.15
450.10	388.53
450.28	444.70
450.46	435.34
450.65	430.66
450.83	454.06
451.02	381.51
451.20	435.34
451.39	444.70
451.57	393.21
451.76	463.43
451.94	472.79
452.13	397.89
452.31	430.66
452.49	442.36
452.68	346.40
452.86	510.24
453.05	425.98
453.23	470.45
453.42	421.30
453.60	437.68
453.78	449.38
453.97	362.78
454.15	334.70
454.34	414.27
454.52	404.91
454.70	484.49
454.89	362.78
455.07	425.98
455.26	395.55
455.44	411.93
455.62	468.11
455.81	421.30
455.99	348.74
456.17	442.36
456.36	458.74
456.54	423.64
456.73	372.15
456.91	486.83
457.09	372.15
457.28	404.91
457.46	411.93
457.64	414.27
457.83	379.17
458.01	440.02
458.19	360.44
458.38	404.91
458.56	465.77
458.74	414.27
458.93	355.76
459.11	409.59
459.29	411.93
459.48	397.89
459.66	442.36
459.84	440.02
460.03	519.60
460.21	409.59
460.39	433.00
460.57	449.38
460.76	348.74
460.94	461.09
461.12	383.85
461.31	360.44
461.49	421.30
461.67	444.70
461.85	360.44
462.04	330.02
462.22	873.02
462.40	425.98
462.59	416.62
462.77	421.30
462.95	393.21
463.13	381.51
463.32	430.66
463.50	433.00
463.68	470.45
463.86	510.24
464.05	395.55
464.23	348.74
464.41	421.30
464.59	395.55
464.78	400.23
464.96	393.21
465.14	409.59
465.32	388.53
465.50	390.87
465.69	435.34
465.87	458.74
466.05	435.34
466.23	395.55
466.41	449.38
466.60	360.44
466.78	418.96
466.96	423.64
467.14	376.83
467.32	383.85
467.51	456.40
467.69	409.59
467.87	507.90
468.05	442.36
468.23	367.46
468.41	374.49
468.60	395.55
468.78	362.78
468.96	428.32
469.14	416.62
469.32	484.49
469.50	421.30
469.69	397.89
469.87	365.12
470.05	355.76
470.23	397.89
470.41	418.96
470.59	451.72
470.77	470.45
470.95	407.25
471.14	477.47
471.32	418.96
471.50	428.32
471.68	397.89
471.86	433.00
472.04	402.57
472.22	447.04
472.40	407.25
472.58	404.91
472.77	395.55
472.95	369.80
473.13	428.32
473.31	507.90
473.49	435.34
473.67	421.30
473.85	409.59
474.03	440.02
474.21	374.49
474.39	400.23
474.57	442.36
474.75	447.04
474.93	414.27
475.12	372.15
475.30	416.62
475.48	442.36
475.66	442.36
475.84	346.40
476.02	500.87
476.20	447.04
476.38	468.11
476.56	479.81
476.74	458.74
476.92	395.55
477.10	442.36
477.28	428.32
477.46	397.89
477.64	458.74
477.82	407.25
478.00	402.57
478.18	339.38
478.36	404.91
478.54	358.10
478.72	423.64
478.90	383.85
479.08	393.21
479.26	447.04
479.44	428.32
479.62	388.53
479.80	367.46
479.98	421.30
480.16	449.38
480.34	496.19
480.52	386.19
480.70	404.91
480.88	400.23
481.06	400.23
481.24	367.46
481.41	411.93
481.59	386.19
481.77	400.23
481.95	381.51
482.13	423.64
482.31	449.38
482.49	433.00
482.67	400.23
482.85	416.62
483.03	395.55
483.21	486.83
483.39	369.80
483.57	374.49
483.74	395.55
483.92	404.91
484.10	440.02
484.28	376.83
484.46	482.15
484.64	407.25
484.82	388.53
485.00	451.72
485.18	440.02
485.35	379.17
485.53	428.32
485.71	414.27
485.89	418.96
486.07	372.15
486.25	456.40
486.43	402.57
486.61	388.53
486.78	411.93
486.96	440.02
487.14	367.46
487.32	339.38
487.50	393.21
487.68	472.79
487.85	393.21
488.03	386.19
488.21	442.36
488.39	456.40
488.57	435.34
488.75	383.85
488.92	451.72
489.10	465.77
489.28	430.66
489.46	477.47
489.64	437.68
489.81	435.34
489.99	418.96
490.17	465.77
490.35	486.83
490.53	379.17
490.70	463.43
490.88	381.51
491.06	360.44
491.24	451.72
491.41	510.24
491.59	402.57
491.77	379.17
491.95	421.30
492.13	402.57
492.30	416.62
492.48	381.51
492.66	456.40
492.84	325.33
493.01	454.06
493.19	365.12
493.37	491.51
493.54	393.21
493.72	374.49
493.90	397.89
494.08	404.91
494.25	383.85
494.43	482.15
494.61	390.87
494.79	334.70
494.96	430.66
495.14	379.17
495.32	402.57
495.49	390.87
495.67	430.66
495.85	435.34
496.02	390.87
496.20	447.04
496.38	440.02
496.55	400.23
496.73	372.15
496.91	400.23
497.09	433.00
497.26	400.23
497.44	461.09
497.62	440.02
497.79	407.25
497.97	491.51
498.14	463.43
498.32	418.96
498.50	404.91
498.67	393.21
498.85	416.62
499.03	404.91
499.20	355.76
499.38	442.36
499.56	428.32
499.73	470.45
499.91	393.21
500.08	430.66
500.26	433.00
500.44	463.43
500.61	447.04
500.79	482.15
500.97	423.64
501.14	433.00
501.32	517.26
501.49	444.70
501.67	425.98
501.84	428.32
502.02	404.91
502.20	411.93
502.37	409.59
502.55	447.04
502.72	421.30
502.90	440.02
503.07	447.04
503.25	425.98
503.43	369.80
503.60	397.89
503.78	437.68
503.95	386.19
504.13	425.98
504.30	397.89
504.48	468.11
504.65	451.72
504.83	372.15
505.01	418.96
505.18	477.47
505.36	416.62
505.53	423.64
505.71	409.59
505.88	437.68
506.06	468.11
506.23	397.89
506.41	423.64
506.58	444.70
506.76	440.02
506.93	395.55
507.11	402.57
507.28	383.85
507.46	402.57
507.63	442.36
507.81	435.34
507.98	404.91
508.16	400.23
508.33	409.59
508.50	437.68
508.68	414.27
508.85	433.00
509.03	395.55
509.20	327.68
509.38	404.91
509.55	381.51
509.73	489.17
509.90	442.36
510.08	433.00
510.25	465.77
510.42	369.80
510.60	404.91
510.77	486.83
510.95	477.47
511.12	383.85
511.30	383.85
511.47	404.91
511.64	421.30
511.82	365.12
511.99	376.83
512.17	404.91
512.34	444.70
512.51	393.21
512.69	442.36
512.86	341.72
513.04	423.64
513.21	358.10
513.38	435.34
513.56	423.64
513.73	388.53
513.90	369.80
514.08	376.83
514.25	414.27
514.43	442.36
514.60	376.83
514.77	327.68
514.95	433.00
515.12	442.36
515.29	414.27
515.47	416.62
515.64	376.83
515.81	458.74
515.99	404.91
516.16	461.09
516.33	353.42
516.51	442.36
516.68	360.44
516.85	451.72
517.03	402.57
517.20	409.59
517.37	421.30
517.54	374.49
517.72	451.72
517.89	374.49
518.06	414.27
518.24	540.66
518.41	500.87
518.58	416.62
518.75	430.66
518.93	435.34
519.10	388.53
519.27	458.74
519.45	397.89
519.62	416.62
519.79	440.02
519.96	428.32
520.14	402.57
520.31	416.62
520.48	449.38
520.65	404.91
520.83	407.25
521.00	440.02
521.17	442.36
521.34	407.25
521.52	332.36
521.69	374.49
521.86	435.34
522.03	437.68
522.20	477.47
522.38	390.87
522.55	376.83
522.72	461.09
522.89	355.76
523.07	533.64
523.24	395.55
523.41	402.57
523.58	414.27
523.75	409.59
523.92	365.12
524.10	437.68
524.27	437.68
524.44	362.78
524.61	423.64
524.78	423.64
524.96	395.55
525.13	404.91
525.30	479.81
525.47	428.32
525.64	404.91
525.81	454.06
525.98	447.04
526.16	451.72
526.33	397.89
526.50	421.30
526.67	409.59
526.84	344.06
527.01	376.83
527.18	461.09
527.36	388.53
527.53	409.59
527.70	526.62
527.87	353.42
528.04	454.06
528.21	442.36
528.38	465.77
528.55	454.06
528.72	414.27
528.89	379.17
529.07	484.49
529.24	435.34
529.41	411.93
529.58	400.23
529.75	369.80
529.92	402.57
530.09	425.98
530.26	367.46
530.43	374.49
530.60	341.72
530.77	442.36
530.94	482.15
531.11	397.89
531.28	484.49
531.46	407.25
531.63	397.89
531.80	463.43
531.97	367.46
532.14	428.32
532.31	386.19
532.48	454.06
532.65	332.36
532.82	428.32
532.99	409.59
533.16	376.83
533.33	449.38
533.50	355.76
533.67	484.49
533.84	369.80
534.01	435.34
534.18	416.62
534.35	421.30
534.52	353.42
534.69	500.87
534.86	451.72
535.03	416.62
535.20	470.45
535.37	379.17
535.54	442.36
535.71	430.66
535.88	444.70
536.05	440.02
536.22	454.06
536.38	386.19
536.55	407.25
536.72	414.27
536.89	402.57
537.06	421.30
537.23	381.51
537.40	411.93
537.57	407.25
537.74	477.47
537.91	449.38
538.08	393.21
538.25	414.27
538.42	407.25
538.59	421.30
538.75	369.80
538.92	449.38
539.09	437.68
539.26	400.23
539.43	376.83
539.60	409.59
539.77	400.23
539.94	437.68
540.11	430.66
540.28	468.11
540.44	430.66
540.61	388.53
540.78	383.85
540.95	449.38
541.12	498.53
541.29	411.93
541.46	468.11
541.62	477.47
541.79	435.34
541.96	421.30
542.13	400.23
542.30	355.76
542.47	449.38
542.63	423.64
542.80	465.77
542.97	484.49
543.14	397.89
543.31	425.98
543.48	388.53
543.64	423.64
543.81	386.19
543.98	477.47
544.15	425.98
544.32	388.53
544.48	423.64
544.65	362.78
544.82	442.36
544.99	348.74
545.16	409.59
545.32	430.66
545.49	461.09
545.66	430.66
545.83	447.04
546.00	379.17
546.16	397.89
546.33	374.49
546.50	444.70
546.67	407.25
546.83	449.38
547.00	470.45
547.17	355.76
547.34	339.38
547.50	383.85
547.67	386.19
547.84	463.43
548.00	397.89
548.17	442.36
548.34	435.34
548.51	400.23
548.67	369.80
548.84	461.09
549.01	404.91
549.18	390.87
549.34	386.19
549.51	428.32
549.68	369.80
549.84	397.89
550.01	447.04
550.18	402.57
550.34	535.98
550.51	435.34
550.68	493.85
550.84	442.36
551.01	435.34
551.18	500.87
551.34	409.59
551.51	472.79
551.68	437.68
551.84	407.25
552.01	435.34
552.18	437.68
552.34	409.59
552.51	397.89
552.68	416.62
552.84	379.17
553.01	451.72
553.18	435.34
553.34	451.72
553.51	369.80
553.67	463.43
553.84	493.85
554.01	447.04
554.17	433.00
554.34	383.85
554.51	416.62
554.67	440.02
554.84	444.70
555.00	550.03
555.17	386.19
555.33	428.32
555.50	425.98
555.67	484.49
555.83	360.44
556.00	468.11
556.16	496.19
556.33	372.15
556.50	409.59
556.66	395.55
556.83	374.49
556.99	376.83
557.16	484.49
557.32	423.64
557.49	393.21
557.65	433.00
557.82	374.49
557.98	376.83
558.15	435.34
558.32	491.51
558.48	472.79
558.65	411.93
558.81	402.57
558.98	435.34
559.14	479.81
559.31	381.51
559.47	440.02
559.64	393.21
559.80	390.87
559.97	404.91
560.13	418.96
560.30	440.02
560.46	393.21
560.63	411.93
560.79	425.98
560.96	477.47
561.12	475.13
561.29	404.91
561.45	416.62
561.61	409.59
561.78	449.38
561.94	428.32
562.11	402.57
562.27	407.25
562.44	407.25
562.60	425.98
562.77	353.42
562.93	435.34
563.10	451.72
563.26	367.46
563.42	442.36
563.59	423.64
563.75	414.27
563.92	454.06
564.08	463.43
564.24	449.38
564.41	472.79
564.57	498.53
564.74	358.10
564.90	425.98
565.07	374.49
565.23	456.40
565.39	468.11
565.56	454.06
565.72	346.40
565.88	374.49
566.05	386.19
566.21	456.40
566.38	454.06
566.54	456.40
566.70	397.89
566.87	360.44
567.03	423.64
567.19	383.85
567.36	449.38
567.52	418.96
567.68	458.74
567.85	390.87
568.01	440.02
568.17	447.04
568.34	381.51
568.50	416.62
568.66	409.59
568.83	442.36
568.99	400.23
569.15	437.68
569.32	468.11
569.48	400.23
569.64	475.13
569.81	416.62
569.97	372.15
570.13	395.55
570.30	433.00
570.46	421.30
570.62	423.64
570.78	409.59
570.95	351.08
571.11	421.30
571.27	454.06
571.43	341.72
571.60	475.13
571.76	465.77
571.92	451.72
572.09	430.66
572.25	437.68
572.41	521.94
572.57	444.70
572.74	472.79
572.90	491.51
573.06	442.36
573.22	463.43
573.38	458.74
573.55	454.06
573.71	409.59
573.87	456.40
574.03	402.57
574.20	383.85
574.36	454.06
574.52	395.55
574.68	400.23
574.84	369.80
575.01	376.83
575.17	433.00
575.33	416.62
575.49	418.96
575.65	475.13
575.82	421.30
575.98	402.57
576.14	458.74
576.30	437.68
576.46	421.30
576.62	330.02
576.79	388.53
576.95	470.45
577.11	423.64
577.27	418.96
577.43	390.87
577.59	414.27
577.75	351.08
577.92	407.25
578.08	449.38
578.24	379.17
578.40	362.78
578.56	440.02
578.72	444.70
578.88	575.77
579.04	400.23
579.21	372.15
579.37	493.85
579.53	430.66
579.69	414.27
579.85	334.70
580.01	486.83
580.17	442.36
580.33	376.83
580.49	402.57
580.65	402.57
580.82	430.66
580.98	461.09
581.14	437.68
581.30	428.32
581.46	428.32
581.62	428.32
581.78	433.00
581.94	449.38
582.10	425.98
582.26	379.17
582.42	416.62
582.58	414.27
582.74	369.80
582.90	374.49
583.06	418.96
583.22	416.62
583.38	449.38
583.54	447.04
583.70	496.19
583.86	351.08
584.02	421.30
584.18	447.04
584.34	451.72
584.50	407.25
584.66	423.64
584.82	334.70
584.98	355.76
585.14	430.66
585.30	402.57
585.46	428.32
585.62	409.59
585.78	411.93
585.94	447.04
586.10	344.06
586.26	404.91
586.42	465.77
586.58	367.46
586.74	489.17
586.90	442.36
587.06	416.62
587.22	449.38
587.38	411.93
587.54	372.15
587.70	477.47
587.86	409.59
588.02	465.77
588.18	484.49
588.34	411.93
588.49	404.91
588.65	365.12
588.81	430.66
588.97	402.57
589.13	327.68
589.29	458.74
589.45	421.30
589.61	332.36
589.77	514.92
589.93	444.70
590.08	402.57
590.24	379.17
590.40	437.68
590.56	456.40
590.72	421.30
590.88	386.19
591.04	390.87
591.20	358.10
591.35	416.62
591.51	390.87
591.67	397.89
591.83	397.89
591.99	435.34
592.15	416.62
592.31	437.68
592.46	442.36
592.62	475.13
592.78	348.74
592.94	444.70
593.10	475.13
593.26	393.21
593.41	400.23
593.57	461.09
593.73	379.17
593.89	330.02
594.05	421.30
594.20	411.93
594.36	423.64
594.52	404.91
594.68	409.59
594.84	423.64
594.99	465.77
595.15	379.17
595.31	433.00
595.47	440.02
595.62	449.38
595.78	423.64
595.94	372.15
596.10	454.06
596.25	454.06
596.41	437.68
596.57	376.83
596.73	402.57
596.88	437.68
597.04	330.02
597.20	374.49
597.36	404.91
597.51	456.40
597.67	379.17
597.83	437.68
597.99	440.02
598.14	425.98
598.30	395.55
598.46	409.59
598.61	409.59
598.77	444.70
598.93	437.68
599.09	390.87
599.24	435.34
599.40	465.77
599.56	372.15
599.71	400.23
599.87	425.98
600.03	414.27
600.18	397.89
600.34	390.87
600.50	383.85
600.65	409.59
600.81	430.66
600.97	367.46
601.12	386.19
601.28	437.68
601.44	472.79
601.59	400.23
601.75	376.83
601.91	477.47
602.06	510.24
602.22	484.49
602.37	458.74
602.53	451.72
602.69	468.11
602.84	496.19
603.00	461.09
603.16	477.47
603.31	393.21
603.47	360.44
603.62	369.80
603.78	414.27
603.94	428.32
604.09	346.40
604.25	498.53
604.40	456.40
604.56	461.09
604.71	437.68
604.87	428.32
605.03	341.72
605.18	315.97
605.34	386.19
605.49	428.32
605.65	390.87
605.80	475.13
605.96	489.17
606.12	397.89
606.27	355.76
606.43	402.57
606.58	437.68
606.74	397.89
606.89	425.98
607.05	404.91
607.20	397.89
607.36	440.02
607.51	423.64
607.67	395.55
607.82	463.43
607.98	379.17
608.13	463.43
608.29	465.77
608.44	433.00
608.60	393.21
608.75	416.62
608.91	493.85
609.06	477.47
609.22	433.00
609.37	395.55
609.53	379.17
609.68	435.34
609.84	418.96
609.99	421.30
610.15	425.98
