SpectraSuite Data File
++++++++++++++++++++++++++++++++++++
Date: Fri Oct 25 12:10:51 EDT 2013
User: price-jones
Dark Spectrum Present: No
Reference Spectrum Present: No
Number of Sampled Component Spectra: 1
Spectrometers: USB2+H05261
Integration Time (usec): 100000 (USB2+H05261)
Spectra Averaged: 1 (USB2+H05261)
Boxcar Smoothing: 0 (USB2+H05261)
Correct for Electrical Dark: No (USB2+H05261)
Strobe/Lamp Enabled: No (USB2+H05261)
Correct for Detector Non-linearity: No (USB2+H05261)
Correct for Stray Light: No (USB2+H05261)
Number of Pixels in Processed Spectrum: 2048
>>>>>Begin Processed Spectral Data<<<<<
365.73	306.61
365.92	306.61
366.12	306.61
366.32	238.73
366.52	229.37
366.72	287.89
366.91	215.33
367.11	308.95
367.31	215.33
367.51	241.08
367.70	278.52
367.90	264.48
368.10	234.05
368.30	262.14
368.49	208.31
368.69	259.80
368.89	227.03
369.09	294.91
369.28	229.37
369.48	266.82
369.68	259.80
369.87	266.82
370.07	273.84
370.27	404.91
370.47	381.51
370.66	304.27
370.86	301.93
371.06	381.51
371.25	348.74
371.45	301.93
371.65	386.19
371.84	374.49
372.04	315.97
372.24	400.23
372.44	341.72
372.63	433.00
372.83	393.21
373.03	367.46
373.22	397.89
373.42	409.59
373.62	416.62
373.81	465.77
374.01	454.06
374.21	428.32
374.40	468.11
374.60	360.44
374.79	379.17
374.99	381.51
375.19	423.64
375.38	353.42
375.58	362.78
375.78	390.87
375.97	433.00
376.17	456.40
376.37	444.70
376.56	402.57
376.76	400.23
376.95	397.89
377.15	425.98
377.35	418.96
377.54	376.83
377.74	468.11
377.93	421.30
378.13	423.64
378.33	339.38
378.52	369.80
378.72	421.30
378.91	334.70
379.11	358.10
379.31	362.78
379.50	421.30
379.70	435.34
379.89	440.02
380.09	383.85
380.28	433.00
380.48	402.57
380.68	397.89
380.87	500.87
381.07	433.00
381.26	341.72
381.46	383.85
381.65	409.59
381.85	337.04
382.04	409.59
382.24	381.51
382.43	393.21
382.63	416.62
382.83	313.63
383.02	393.21
383.22	418.96
383.41	386.19
383.61	367.46
383.80	463.43
384.00	414.27
384.19	409.59
384.39	362.78
384.58	383.85
384.78	433.00
384.97	414.27
385.17	381.51
385.36	386.19
385.56	449.38
385.75	449.38
385.95	397.89
386.14	344.06
386.34	465.77
386.53	411.93
386.72	376.83
386.92	440.02
387.11	414.27
387.31	425.98
387.50	365.12
387.70	339.38
387.89	409.59
388.09	334.70
388.28	372.15
388.48	421.30
388.67	428.32
388.86	449.38
389.06	411.93
389.25	437.68
389.45	372.15
389.64	456.40
389.84	416.62
390.03	346.40
390.22	449.38
390.42	390.87
390.61	496.19
390.81	332.36
391.00	386.19
391.19	409.59
391.39	386.19
391.58	409.59
391.78	411.93
391.97	514.92
392.16	390.87
392.36	390.87
392.55	440.02
392.75	407.25
392.94	423.64
393.13	388.53
393.33	411.93
393.52	397.89
393.71	400.23
393.91	383.85
394.10	442.36
394.29	430.66
394.49	390.87
394.68	507.90
394.88	344.06
395.07	425.98
395.26	383.85
395.46	365.12
395.65	404.91
395.84	428.32
396.04	451.72
396.23	435.34
396.42	330.02
396.62	334.70
396.81	451.72
397.00	418.96
397.19	365.12
397.39	346.40
397.58	447.04
397.77	372.15
397.97	393.21
398.16	430.66
398.35	447.04
398.55	311.29
398.74	395.55
398.93	442.36
399.12	449.38
399.32	468.11
399.51	425.98
399.70	454.06
399.90	351.08
400.09	425.98
400.28	369.80
400.47	388.53
400.67	451.72
400.86	311.29
401.05	444.70
401.24	376.83
401.44	416.62
401.63	390.87
401.82	381.51
402.01	400.23
402.21	393.21
402.40	414.27
402.59	421.30
402.78	444.70
402.97	360.44
403.17	393.21
403.36	374.49
403.55	376.83
403.74	367.46
403.93	425.98
404.13	503.22
404.32	397.89
404.51	395.55
404.70	381.51
404.89	411.93
405.09	397.89
405.28	437.68
405.47	454.06
405.66	400.23
405.85	379.17
406.05	386.19
406.24	383.85
406.43	379.17
406.62	423.64
406.81	482.15
407.00	528.96
407.20	463.43
407.39	402.57
407.58	451.72
407.77	411.93
407.96	411.93
408.15	425.98
408.34	381.51
408.54	383.85
408.73	362.78
408.92	400.23
409.11	437.68
409.30	393.21
409.49	383.85
409.68	465.77
409.87	381.51
410.07	425.98
410.26	330.02
410.45	440.02
410.64	365.12
410.83	379.17
411.02	334.70
411.21	409.59
411.40	440.02
411.59	440.02
411.78	430.66
411.98	360.44
412.17	400.23
412.36	463.43
412.55	475.13
412.74	376.83
412.93	411.93
413.12	442.36
413.31	381.51
413.50	381.51
413.69	367.46
413.88	416.62
414.07	484.49
414.26	416.62
414.45	353.42
414.64	484.49
414.83	461.09
415.02	461.09
415.22	421.30
415.41	442.36
415.60	365.12
415.79	402.57
415.98	390.87
416.17	337.04
416.36	383.85
416.55	421.30
416.74	376.83
416.93	418.96
417.12	411.93
417.31	393.21
417.50	397.89
417.69	372.15
417.88	367.46
418.07	428.32
418.26	407.25
418.45	423.64
418.64	402.57
418.83	402.57
419.02	421.30
419.21	409.59
419.39	355.76
419.58	397.89
419.77	388.53
419.96	486.83
420.15	463.43
420.34	449.38
420.53	395.55
420.72	493.85
420.91	444.70
421.10	376.83
421.29	397.89
421.48	369.80
421.67	433.00
421.86	416.62
422.05	449.38
422.24	486.83
422.43	416.62
422.61	498.53
422.80	362.78
422.99	397.89
423.18	409.59
423.37	433.00
423.56	423.64
423.75	442.36
423.94	313.63
424.13	484.49
424.32	411.93
424.50	449.38
424.69	440.02
424.88	425.98
425.07	360.44
425.26	430.66
425.45	416.62
425.64	397.89
425.83	397.89
426.01	461.09
426.20	358.10
426.39	421.30
426.58	433.00
426.77	442.36
426.96	447.04
427.15	456.40
427.33	367.46
427.52	456.40
427.71	435.34
427.90	458.74
428.09	365.12
428.28	421.30
428.46	477.47
428.65	416.62
428.84	451.72
429.03	409.59
429.22	400.23
429.40	425.98
429.59	444.70
429.78	386.19
429.97	425.98
430.16	416.62
430.34	381.51
430.53	379.17
430.72	339.38
430.91	388.53
431.10	318.31
431.28	379.17
431.47	430.66
431.66	449.38
431.85	404.91
432.03	386.19
432.22	442.36
432.41	463.43
432.60	416.62
432.79	461.09
432.97	437.68
433.16	451.72
433.35	416.62
433.54	465.77
433.72	393.21
433.91	472.79
434.10	425.98
434.28	444.70
434.47	395.55
434.66	402.57
434.85	470.45
435.03	383.85
435.22	423.64
435.41	395.55
435.59	451.72
435.78	458.74
435.97	383.85
436.16	362.78
436.34	339.38
436.53	458.74
436.72	376.83
436.90	365.12
437.09	456.40
437.28	425.98
437.46	409.59
437.65	376.83
437.84	440.02
438.02	425.98
438.21	444.70
438.40	355.76
438.58	393.21
438.77	372.15
438.96	393.21
439.14	423.64
439.33	468.11
439.52	400.23
439.70	418.96
439.89	407.25
440.08	486.83
440.26	407.25
440.45	400.23
440.63	390.87
440.82	475.13
441.01	463.43
441.19	416.62
441.38	498.53
441.57	397.89
441.75	458.74
441.94	386.19
442.12	411.93
442.31	451.72
442.50	442.36
442.68	369.80
442.87	423.64
443.05	414.27
443.24	421.30
443.43	421.30
443.61	430.66
443.80	383.85
443.98	425.98
444.17	393.21
444.35	454.06
444.54	407.25
444.73	393.21
444.91	369.80
445.10	423.64
445.28	353.42
445.47	353.42
445.65	482.15
445.84	458.74
446.02	451.72
446.21	365.12
446.39	418.96
446.58	449.38
446.77	334.70
446.95	423.64
447.14	423.64
447.32	461.09
447.51	372.15
447.69	381.51
447.88	463.43
448.06	465.77
448.25	400.23
448.43	365.12
448.62	409.59
448.80	372.15
448.99	423.64
449.17	353.42
449.36	386.19
449.54	386.19
449.73	397.89
449.91	449.38
450.10	409.59
450.28	374.49
450.46	519.60
450.65	402.57
450.83	440.02
451.02	421.30
451.20	390.87
451.39	430.66
451.57	465.77
451.76	447.04
451.94	374.49
452.13	444.70
452.31	390.87
452.49	421.30
452.68	428.32
452.86	393.21
453.05	414.27
453.23	416.62
453.42	400.23
453.60	440.02
453.78	304.27
453.97	360.44
454.15	444.70
454.34	390.87
454.52	404.91
454.70	486.83
454.89	430.66
455.07	418.96
455.26	407.25
455.44	456.40
455.62	428.32
455.81	433.00
455.99	390.87
456.17	428.32
456.36	393.21
456.54	456.40
456.73	433.00
456.91	381.51
457.09	435.34
457.28	409.59
457.46	437.68
457.64	397.89
457.83	409.59
458.01	402.57
458.19	423.64
458.38	454.06
458.56	425.98
458.74	386.19
458.93	414.27
459.11	414.27
459.29	433.00
459.48	449.38
459.66	444.70
459.84	418.96
460.03	423.64
460.21	465.77
460.39	491.51
460.57	430.66
460.76	456.40
460.94	444.70
461.12	442.36
461.31	458.74
461.49	400.23
461.67	414.27
461.85	475.13
462.04	463.43
462.22	706.84
462.40	484.49
462.59	498.53
462.77	379.17
462.95	407.25
463.13	374.49
463.32	526.62
463.50	404.91
463.68	390.87
463.86	409.59
464.05	411.93
464.23	475.13
464.41	505.56
464.59	397.89
464.78	374.49
464.96	386.19
465.14	442.36
465.32	402.57
465.50	468.11
465.69	414.27
465.87	367.46
466.05	428.32
466.23	379.17
466.41	461.09
466.60	465.77
466.78	468.11
466.96	402.57
467.14	397.89
467.32	465.77
467.51	390.87
467.69	421.30
467.87	372.15
468.05	421.30
468.23	444.70
468.41	416.62
468.60	388.53
468.78	407.25
468.96	470.45
469.14	376.83
469.32	428.32
469.50	416.62
469.69	355.76
469.87	372.15
470.05	437.68
470.23	430.66
470.41	465.77
470.59	393.21
470.77	400.23
470.95	381.51
471.14	421.30
471.32	376.83
471.50	407.25
471.68	435.34
471.86	400.23
472.04	447.04
472.22	470.45
472.40	411.93
472.58	353.42
472.77	311.29
472.95	390.87
473.13	327.68
473.31	475.13
473.49	407.25
473.67	440.02
473.85	374.49
474.03	451.72
474.21	435.34
474.39	430.66
474.57	437.68
474.75	428.32
474.93	372.15
475.12	369.80
475.30	386.19
475.48	395.55
475.66	320.65
475.84	454.06
476.02	397.89
476.20	454.06
476.38	367.46
476.56	482.15
476.74	404.91
476.92	404.91
477.10	404.91
477.28	444.70
477.46	428.32
477.64	475.13
477.82	418.96
478.00	451.72
478.18	463.43
478.36	400.23
478.54	400.23
478.72	362.78
478.90	470.45
479.08	472.79
479.26	334.70
479.44	400.23
479.62	374.49
479.80	430.66
479.98	451.72
480.16	379.17
480.34	416.62
480.52	409.59
480.70	421.30
480.88	388.53
481.06	440.02
481.24	374.49
481.41	388.53
481.59	451.72
481.77	461.09
481.95	376.83
482.13	393.21
482.31	451.72
482.49	451.72
482.67	440.02
482.85	444.70
483.03	407.25
483.21	444.70
483.39	383.85
483.57	458.74
483.74	376.83
483.92	458.74
484.10	395.55
484.28	322.99
484.46	491.51
484.64	367.46
484.82	337.04
485.00	425.98
485.18	440.02
485.35	442.36
485.53	402.57
485.71	418.96
485.89	388.53
486.07	416.62
486.25	468.11
486.43	465.77
486.61	425.98
486.78	388.53
486.96	379.17
487.14	482.15
487.32	395.55
487.50	418.96
487.68	407.25
487.85	365.12
488.03	400.23
488.21	521.94
488.39	409.59
488.57	486.83
488.75	456.40
488.92	528.96
489.10	442.36
489.28	400.23
489.46	341.72
489.64	421.30
489.81	425.98
489.99	423.64
490.17	430.66
490.35	421.30
490.53	433.00
490.70	365.12
490.88	435.34
491.06	409.59
491.24	479.81
491.41	416.62
491.59	400.23
491.77	360.44
491.95	383.85
492.13	430.66
492.30	395.55
492.48	423.64
492.66	397.89
492.84	395.55
493.01	390.87
493.19	376.83
493.37	477.47
493.54	409.59
493.72	421.30
493.90	402.57
494.08	416.62
494.25	355.76
494.43	423.64
494.61	428.32
494.79	393.21
494.96	404.91
495.14	393.21
495.32	402.57
495.49	355.76
495.67	425.98
495.85	447.04
496.02	360.44
496.20	425.98
496.38	395.55
496.55	449.38
496.73	355.76
496.91	430.66
497.09	428.32
497.26	416.62
497.44	322.99
497.62	390.87
497.79	409.59
497.97	409.59
498.14	444.70
498.32	440.02
498.50	418.96
498.67	395.55
498.85	423.64
499.03	388.53
499.20	482.15
499.38	409.59
499.56	369.80
499.73	430.66
499.91	486.83
500.08	451.72
500.26	418.96
500.44	411.93
500.61	397.89
500.79	418.96
500.97	414.27
501.14	470.45
501.32	458.74
501.49	451.72
501.67	402.57
501.84	409.59
502.02	433.00
502.20	442.36
502.37	318.31
502.55	365.12
502.72	437.68
502.90	479.81
503.07	393.21
503.25	447.04
503.43	418.96
503.60	447.04
503.78	381.51
503.95	449.38
504.13	369.80
504.30	423.64
504.48	435.34
504.65	430.66
504.83	425.98
505.01	414.27
505.18	397.89
505.36	395.55
505.53	409.59
505.71	470.45
505.88	383.85
506.06	416.62
506.23	393.21
506.41	388.53
506.58	468.11
506.76	404.91
506.93	440.02
507.11	428.32
507.28	393.21
507.46	411.93
507.63	421.30
507.81	330.02
507.98	449.38
508.16	386.19
508.33	416.62
508.50	423.64
508.68	442.36
508.85	421.30
509.03	383.85
509.20	402.57
509.38	397.89
509.55	514.92
509.73	447.04
509.90	454.06
510.08	425.98
510.25	500.87
510.42	444.70
510.60	425.98
510.77	444.70
510.95	423.64
511.12	407.25
511.30	440.02
511.47	404.91
511.64	442.36
511.82	381.51
511.99	402.57
512.17	365.12
512.34	428.32
512.51	393.21
512.69	416.62
512.86	461.09
513.04	400.23
513.21	348.74
513.38	456.40
513.56	418.96
513.73	407.25
513.90	369.80
514.08	362.78
514.25	449.38
514.43	524.28
514.60	430.66
514.77	388.53
514.95	383.85
515.12	444.70
515.29	374.49
515.47	402.57
515.64	381.51
515.81	461.09
515.99	369.80
516.16	430.66
516.33	428.32
516.51	414.27
516.68	400.23
516.85	369.80
517.03	404.91
517.20	421.30
517.37	484.49
517.54	369.80
517.72	390.87
517.89	409.59
518.06	475.13
518.24	496.19
518.41	458.74
518.58	402.57
518.75	374.49
518.93	355.76
519.10	397.89
519.27	355.76
519.45	381.51
519.62	402.57
519.79	470.45
519.96	393.21
520.14	404.91
520.31	435.34
520.48	376.83
520.65	414.27
520.83	444.70
521.00	437.68
521.17	437.68
521.34	428.32
521.52	395.55
521.69	414.27
521.86	423.64
522.03	397.89
522.20	521.94
522.38	477.47
522.55	376.83
522.72	423.64
522.89	360.44
523.07	428.32
523.24	423.64
523.41	519.60
523.58	395.55
523.75	397.89
523.92	425.98
524.10	369.80
524.27	440.02
524.44	402.57
524.61	428.32
524.78	348.74
524.96	416.62
525.13	376.83
525.30	409.59
525.47	414.27
525.64	402.57
525.81	421.30
525.98	416.62
526.16	444.70
526.33	421.30
526.50	400.23
526.67	379.17
526.84	395.55
527.01	440.02
527.18	407.25
527.36	372.15
527.53	421.30
527.70	486.83
527.87	376.83
528.04	402.57
528.21	433.00
528.38	437.68
528.55	479.81
528.72	456.40
528.89	447.04
529.07	425.98
529.24	449.38
529.41	442.36
529.58	337.04
529.75	346.40
529.92	421.30
530.09	367.46
530.26	470.45
530.43	355.76
530.60	447.04
530.77	423.64
530.94	428.32
531.11	379.17
531.28	447.04
531.46	440.02
531.63	484.49
531.80	435.34
531.97	461.09
532.14	451.72
532.31	407.25
532.48	400.23
532.65	416.62
532.82	386.19
532.99	404.91
533.16	496.19
533.33	433.00
533.50	390.87
533.67	360.44
533.84	468.11
534.01	433.00
534.18	397.89
534.35	433.00
534.52	430.66
534.69	454.06
534.86	341.72
535.03	395.55
535.20	374.49
535.37	486.83
535.54	451.72
535.71	449.38
535.88	491.51
536.05	416.62
536.22	486.83
536.38	369.80
536.55	458.74
536.72	423.64
536.89	465.77
537.06	397.89
537.23	456.40
537.40	430.66
537.57	407.25
537.74	407.25
537.91	404.91
538.08	437.68
538.25	404.91
538.42	409.59
538.59	355.76
538.75	447.04
538.92	409.59
539.09	400.23
539.26	479.81
539.43	454.06
539.60	423.64
539.77	414.27
539.94	372.15
540.11	402.57
540.28	390.87
540.44	339.38
540.61	442.36
540.78	407.25
540.95	456.40
541.12	416.62
541.29	369.80
541.46	493.85
541.62	482.15
541.79	402.57
541.96	444.70
542.13	376.83
542.30	360.44
542.47	369.80
542.63	397.89
542.80	421.30
542.97	463.43
543.14	341.72
543.31	346.40
543.48	435.34
543.64	421.30
543.81	383.85
543.98	320.65
544.15	299.59
544.32	503.22
544.48	430.66
544.65	444.70
544.82	433.00
544.99	409.59
545.16	374.49
545.32	409.59
545.49	454.06
545.66	421.30
545.83	414.27
546.00	397.89
546.16	407.25
546.33	475.13
546.50	442.36
546.67	507.90
546.83	386.19
547.00	433.00
547.17	435.34
547.34	346.40
547.50	416.62
547.67	372.15
547.84	365.12
548.00	407.25
548.17	390.87
548.34	442.36
548.51	479.81
548.67	402.57
548.84	369.80
549.01	400.23
549.18	416.62
549.34	376.83
549.51	346.40
549.68	423.64
549.84	423.64
550.01	374.49
550.18	442.36
550.34	498.53
550.51	454.06
550.68	458.74
550.84	388.53
551.01	463.43
551.18	491.51
551.34	409.59
551.51	425.98
551.68	425.98
551.84	402.57
552.01	416.62
552.18	442.36
552.34	388.53
552.51	461.09
552.68	433.00
552.84	404.91
553.01	465.77
553.18	428.32
553.34	442.36
553.51	421.30
553.67	456.40
553.84	400.23
554.01	409.59
554.17	374.49
554.34	425.98
554.51	468.11
554.67	407.25
554.84	435.34
555.00	416.62
555.17	390.87
555.33	510.24
555.50	433.00
555.67	390.87
555.83	402.57
556.00	435.34
556.16	482.15
556.33	456.40
556.50	437.68
556.66	418.96
556.83	355.76
556.99	358.10
557.16	449.38
557.32	421.30
557.49	402.57
557.65	360.44
557.82	425.98
557.98	411.93
558.15	404.91
558.32	465.77
558.48	395.55
558.65	440.02
558.81	449.38
558.98	400.23
559.14	442.36
559.31	416.62
559.47	470.45
559.64	397.89
559.80	428.32
559.97	430.66
560.13	411.93
560.30	353.42
560.46	430.66
560.63	404.91
560.79	411.93
560.96	435.34
561.12	437.68
561.29	442.36
561.45	423.64
561.61	414.27
561.78	505.56
561.94	456.40
562.11	425.98
562.27	458.74
562.44	341.72
562.60	416.62
562.77	451.72
562.93	491.51
563.10	437.68
563.26	435.34
563.42	362.78
563.59	414.27
563.75	383.85
563.92	372.15
564.08	397.89
564.24	390.87
564.41	451.72
564.57	458.74
564.74	404.91
564.90	477.47
565.07	388.53
565.23	486.83
565.39	430.66
565.56	482.15
565.72	500.87
565.88	367.46
566.05	442.36
566.21	465.77
566.38	456.40
566.54	351.08
566.70	449.38
566.87	400.23
567.03	423.64
567.19	454.06
567.36	430.66
567.52	442.36
567.68	388.53
567.85	496.19
568.01	458.74
568.17	386.19
568.34	435.34
568.50	456.40
568.66	397.89
568.83	461.09
568.99	418.96
569.15	435.34
569.32	475.13
569.48	428.32
569.64	407.25
569.81	425.98
569.97	454.06
570.13	486.83
570.30	435.34
570.46	430.66
570.62	372.15
570.78	374.49
570.95	386.19
571.11	418.96
571.27	433.00
571.43	360.44
571.60	486.83
571.76	369.80
571.92	379.17
572.09	409.59
572.25	425.98
572.41	407.25
572.57	475.13
572.74	456.40
572.90	428.32
573.06	411.93
573.22	463.43
573.38	374.49
573.55	423.64
573.71	463.43
573.87	461.09
574.03	411.93
574.20	369.80
574.36	402.57
574.52	507.90
574.68	402.57
574.84	407.25
575.01	433.00
575.17	407.25
575.33	393.21
575.49	470.45
575.65	458.74
575.82	411.93
575.98	496.19
576.14	367.46
576.30	472.79
576.46	409.59
576.62	407.25
576.79	433.00
576.95	472.79
577.11	451.72
577.27	355.76
577.43	435.34
577.59	486.83
577.75	395.55
577.92	418.96
578.08	381.51
578.24	468.11
578.40	433.00
578.56	470.45
578.72	482.15
578.88	475.13
579.04	367.46
579.21	411.93
579.37	318.31
579.53	386.19
579.69	372.15
579.85	341.72
580.01	379.17
580.17	463.43
580.33	379.17
580.49	393.21
580.65	411.93
580.82	374.49
580.98	425.98
581.14	395.55
581.30	409.59
581.46	437.68
581.62	423.64
581.78	388.53
581.94	351.08
582.10	404.91
582.26	404.91
582.42	444.70
582.58	484.49
582.74	465.77
582.90	461.09
583.06	423.64
583.22	440.02
583.38	365.12
583.54	489.17
583.70	416.62
583.86	372.15
584.02	440.02
584.18	451.72
584.34	369.80
584.50	327.68
584.66	393.21
584.82	397.89
584.98	395.55
585.14	341.72
585.30	414.27
585.46	472.79
585.62	374.49
585.78	430.66
585.94	404.91
586.10	491.51
586.26	395.55
586.42	433.00
586.58	402.57
586.74	383.85
586.90	355.76
587.06	390.87
587.22	456.40
587.38	425.98
587.54	440.02
587.70	383.85
587.86	409.59
588.02	423.64
588.18	407.25
588.34	400.23
588.49	435.34
588.65	374.49
588.81	458.74
588.97	388.53
589.13	465.77
589.29	477.47
589.45	397.89
589.61	395.55
589.77	390.87
589.93	416.62
590.08	386.19
590.24	423.64
590.40	383.85
590.56	449.38
590.72	341.72
590.88	440.02
591.04	425.98
591.20	402.57
591.35	449.38
591.51	425.98
591.67	416.62
591.83	397.89
591.99	388.53
592.15	435.34
592.31	397.89
592.46	414.27
592.62	470.45
592.78	383.85
592.94	437.68
593.10	404.91
593.26	393.21
593.41	411.93
593.57	390.87
593.73	430.66
593.89	468.11
594.05	402.57
594.20	369.80
594.36	447.04
594.52	425.98
594.68	339.38
594.84	479.81
594.99	390.87
595.15	477.47
595.31	390.87
595.47	505.56
595.62	379.17
595.78	423.64
595.94	404.91
596.10	409.59
596.25	496.19
596.41	411.93
596.57	447.04
596.73	447.04
596.88	468.11
597.04	390.87
597.20	381.51
597.36	374.49
597.51	402.57
597.67	435.34
597.83	423.64
597.99	358.10
598.14	407.25
598.30	449.38
598.46	449.38
598.61	404.91
598.77	454.06
598.93	404.91
599.09	411.93
599.24	409.59
599.40	510.24
599.56	472.79
599.71	456.40
599.87	402.57
600.03	454.06
600.18	449.38
600.34	381.51
600.50	500.87
600.65	437.68
600.81	484.49
600.97	479.81
601.12	369.80
601.28	393.21
601.44	393.21
601.59	365.12
601.75	433.00
601.91	372.15
602.06	428.32
602.22	435.34
602.37	341.72
602.53	416.62
602.69	465.77
602.84	395.55
603.00	433.00
603.16	498.53
603.31	440.02
603.47	437.68
603.62	404.91
603.78	458.74
603.94	449.38
604.09	379.17
604.25	458.74
604.40	482.15
604.56	472.79
604.71	414.27
604.87	437.68
605.03	449.38
605.18	437.68
605.34	449.38
605.49	404.91
605.65	477.47
605.80	407.25
605.96	397.89
606.12	421.30
606.27	416.62
606.43	465.77
606.58	388.53
606.74	421.30
606.89	414.27
607.05	428.32
607.20	400.23
607.36	374.49
607.51	358.10
607.67	404.91
607.82	479.81
607.98	493.85
608.13	404.91
608.29	418.96
608.44	430.66
608.60	449.38
608.75	503.22
608.91	486.83
609.06	416.62
609.22	435.34
609.37	393.21
609.53	411.93
609.68	395.55
609.84	388.53
609.99	334.70
610.15	437.68
