SpectraSuite Data File
++++++++++++++++++++++++++++++++++++
Date: Fri Oct 25 12:11:05 EDT 2013
User: price-jones
Dark Spectrum Present: No
Reference Spectrum Present: No
Number of Sampled Component Spectra: 1
Spectrometers: USB2+H05261
Integration Time (usec): 100000 (USB2+H05261)
Spectra Averaged: 1 (USB2+H05261)
Boxcar Smoothing: 0 (USB2+H05261)
Correct for Electrical Dark: No (USB2+H05261)
Strobe/Lamp Enabled: No (USB2+H05261)
Correct for Detector Non-linearity: No (USB2+H05261)
Correct for Stray Light: No (USB2+H05261)
Number of Pixels in Processed Spectrum: 2048
>>>>>Begin Processed Spectral Data<<<<<
365.73	297.25
365.92	297.25
366.12	297.25
366.32	266.82
366.52	248.10
366.72	273.84
366.91	283.20
367.11	231.71
367.31	278.52
367.51	231.71
367.70	205.97
367.90	276.18
368.10	262.14
368.30	250.44
368.49	222.35
368.69	231.71
368.89	252.78
369.09	231.71
369.28	346.40
369.48	201.29
369.68	292.57
369.87	280.86
370.07	325.33
370.27	348.74
370.47	367.46
370.66	353.42
370.86	339.38
371.06	404.91
371.25	332.36
371.45	353.42
371.65	390.87
371.84	355.76
372.04	330.02
372.24	374.49
372.44	332.36
372.63	348.74
372.83	425.98
373.03	421.30
373.22	414.27
373.42	374.49
373.62	327.68
373.81	381.51
374.01	397.89
374.21	346.40
374.40	430.66
374.60	433.00
374.79	360.44
374.99	442.36
375.19	454.06
375.38	421.30
375.58	407.25
375.78	430.66
375.97	393.21
376.17	407.25
376.37	468.11
376.56	395.55
376.76	437.68
376.95	416.62
377.15	400.23
377.35	344.06
377.54	386.19
377.74	421.30
377.93	362.78
378.13	360.44
378.33	395.55
378.52	400.23
378.72	472.79
378.91	449.38
379.11	402.57
379.31	428.32
379.50	395.55
379.70	383.85
379.89	428.32
380.09	430.66
380.28	393.21
380.48	341.72
380.68	416.62
380.87	330.02
381.07	475.13
381.26	402.57
381.46	428.32
381.65	435.34
381.85	451.72
382.04	442.36
382.24	416.62
382.43	414.27
382.63	353.42
382.83	355.76
383.02	470.45
383.22	430.66
383.41	404.91
383.61	390.87
383.80	461.09
384.00	388.53
384.19	367.46
384.39	358.10
384.58	425.98
384.78	383.85
384.97	409.59
385.17	341.72
385.36	444.70
385.56	416.62
385.75	409.59
385.95	369.80
386.14	379.17
386.34	376.83
386.53	407.25
386.72	365.12
386.92	451.72
387.11	402.57
387.31	482.15
387.50	390.87
387.70	402.57
387.89	379.17
388.09	451.72
388.28	395.55
388.48	447.04
388.67	407.25
388.86	430.66
389.06	402.57
389.25	416.62
389.45	409.59
389.64	435.34
389.84	400.23
390.03	346.40
390.22	416.62
390.42	348.74
390.61	322.99
390.81	327.68
391.00	433.00
391.19	353.42
391.39	428.32
391.58	447.04
391.78	360.44
391.97	437.68
392.16	374.49
392.36	514.92
392.55	348.74
392.75	423.64
392.94	339.38
393.13	411.93
393.33	372.15
393.52	390.87
393.71	458.74
393.91	365.12
394.10	379.17
394.29	397.89
394.49	386.19
394.68	425.98
394.88	421.30
395.07	451.72
395.26	411.93
395.46	383.85
395.65	458.74
395.84	461.09
396.04	388.53
396.23	454.06
396.42	393.21
396.62	428.32
396.81	463.43
397.00	332.36
397.19	400.23
397.39	400.23
397.58	435.34
397.77	411.93
397.97	402.57
398.16	397.89
398.35	418.96
398.55	444.70
398.74	440.02
398.93	369.80
399.12	393.21
399.32	337.04
399.51	409.59
399.70	440.02
399.90	442.36
400.09	428.32
400.28	395.55
400.47	414.27
400.67	477.47
400.86	411.93
401.05	374.49
401.24	383.85
401.44	503.22
401.63	444.70
401.82	433.00
402.01	360.44
402.21	402.57
402.40	395.55
402.59	395.55
402.78	465.77
402.97	353.42
403.17	418.96
403.36	402.57
403.55	381.51
403.74	351.08
403.93	430.66
404.13	435.34
404.32	449.38
404.51	393.21
404.70	454.06
404.89	425.98
405.09	447.04
405.28	400.23
405.47	388.53
405.66	411.93
405.85	400.23
406.05	451.72
406.24	442.36
406.43	379.17
406.62	463.43
406.81	442.36
407.00	514.92
407.20	379.17
407.39	486.83
407.58	381.51
407.77	409.59
407.96	437.68
408.15	500.87
408.34	463.43
408.54	386.19
408.73	409.59
408.92	444.70
409.11	407.25
409.30	397.89
409.49	360.44
409.68	367.46
409.87	390.87
410.07	388.53
410.26	437.68
410.45	388.53
410.64	325.33
410.83	416.62
411.02	353.42
411.21	418.96
411.40	430.66
411.59	442.36
411.78	369.80
411.98	418.96
412.17	433.00
412.36	393.21
412.55	404.91
412.74	402.57
412.93	449.38
413.12	409.59
413.31	388.53
413.50	372.15
413.69	381.51
413.88	447.04
414.07	367.46
414.26	442.36
414.45	444.70
414.64	362.78
414.83	461.09
415.02	482.15
415.22	428.32
415.41	503.22
415.60	416.62
415.79	435.34
415.98	379.17
416.17	418.96
416.36	397.89
416.55	418.96
416.74	470.45
416.93	433.00
417.12	388.53
417.31	334.70
417.50	376.83
417.69	479.81
417.88	475.13
418.07	437.68
418.26	411.93
418.45	435.34
418.64	479.81
418.83	376.83
419.02	479.81
419.21	418.96
419.39	421.30
419.58	423.64
419.77	400.23
419.96	414.27
420.15	472.79
420.34	327.68
420.53	411.93
420.72	421.30
420.91	449.38
421.10	379.17
421.29	397.89
421.48	367.46
421.67	369.80
421.86	372.15
422.05	458.74
422.24	383.85
422.43	409.59
422.61	379.17
422.80	423.64
422.99	381.51
423.18	390.87
423.37	440.02
423.56	360.44
423.75	496.19
423.94	322.99
424.13	449.38
424.32	400.23
424.50	447.04
424.69	411.93
424.88	433.00
425.07	428.32
425.26	442.36
425.45	383.85
425.64	393.21
425.83	395.55
426.01	482.15
426.20	386.19
426.39	360.44
426.58	376.83
426.77	341.72
426.96	390.87
427.15	447.04
427.33	390.87
427.52	409.59
427.71	390.87
427.90	393.21
428.09	421.30
428.28	393.21
428.46	393.21
428.65	423.64
428.84	404.91
429.03	407.25
429.22	341.72
429.40	388.53
429.59	404.91
429.78	442.36
429.97	463.43
430.16	367.46
430.34	362.78
430.53	428.32
430.72	442.36
430.91	367.46
431.10	423.64
431.28	397.89
431.47	407.25
431.66	428.32
431.85	411.93
432.03	418.96
432.22	486.83
432.41	484.49
432.60	386.19
432.79	475.13
432.97	388.53
433.16	416.62
433.35	400.23
433.54	418.96
433.72	421.30
433.91	440.02
434.10	365.12
434.28	395.55
434.47	383.85
434.66	376.83
434.85	393.21
435.03	376.83
435.22	428.32
435.41	463.43
435.59	458.74
435.78	409.59
435.97	383.85
436.16	411.93
436.34	411.93
436.53	442.36
436.72	353.42
436.90	348.74
437.09	400.23
437.28	447.04
437.46	383.85
437.65	428.32
437.84	355.76
438.02	411.93
438.21	418.96
438.40	437.68
438.58	393.21
438.77	440.02
438.96	407.25
439.14	407.25
439.33	367.46
439.52	428.32
439.70	421.30
439.89	397.89
440.08	400.23
440.26	454.06
440.45	447.04
440.63	402.57
440.82	369.80
441.01	379.17
441.19	447.04
441.38	402.57
441.57	346.40
441.75	454.06
441.94	428.32
442.12	433.00
442.31	397.89
442.50	463.43
442.68	437.68
442.87	433.00
443.05	383.85
443.24	416.62
443.43	400.23
443.61	510.24
443.80	383.85
443.98	390.87
444.17	435.34
444.35	423.64
444.54	444.70
444.73	379.17
444.91	433.00
445.10	437.68
445.28	421.30
445.47	461.09
445.65	505.56
445.84	393.21
446.02	358.10
446.21	454.06
446.39	418.96
446.58	418.96
446.77	440.02
446.95	369.80
447.14	358.10
447.32	526.62
447.51	440.02
447.69	379.17
447.88	353.42
448.06	383.85
448.25	428.32
448.43	418.96
448.62	397.89
448.80	353.42
448.99	435.34
449.17	437.68
449.36	365.12
449.54	456.40
449.73	400.23
449.91	400.23
450.10	442.36
450.28	416.62
450.46	423.64
450.65	470.45
450.83	358.10
451.02	388.53
451.20	472.79
451.39	514.92
451.57	400.23
451.76	374.49
451.94	440.02
452.13	393.21
452.31	444.70
452.49	351.08
452.68	369.80
452.86	456.40
453.05	418.96
453.23	395.55
453.42	395.55
453.60	461.09
453.78	482.15
453.97	435.34
454.15	348.74
454.34	402.57
454.52	376.83
454.70	407.25
454.89	475.13
455.07	472.79
455.26	454.06
455.44	402.57
455.62	404.91
455.81	365.12
455.99	456.40
456.17	402.57
456.36	404.91
456.54	407.25
456.73	351.08
456.91	428.32
457.09	514.92
457.28	423.64
457.46	449.38
457.64	475.13
457.83	458.74
458.01	365.12
458.19	404.91
458.38	390.87
458.56	379.17
458.74	414.27
458.93	442.36
459.11	409.59
459.29	421.30
459.48	416.62
459.66	451.72
459.84	369.80
460.03	514.92
460.21	386.19
460.39	397.89
460.57	475.13
460.76	404.91
460.94	454.06
461.12	461.09
461.31	414.27
461.49	414.27
461.67	447.04
461.85	372.15
462.04	475.13
462.22	760.67
462.40	423.64
462.59	393.21
462.77	411.93
462.95	402.57
463.13	430.66
463.32	388.53
463.50	423.64
463.68	486.83
463.86	402.57
464.05	435.34
464.23	454.06
464.41	454.06
464.59	395.55
464.78	418.96
464.96	397.89
465.14	458.74
465.32	337.04
465.50	414.27
465.69	404.91
465.87	449.38
466.05	411.93
466.23	402.57
466.41	447.04
466.60	388.53
466.78	435.34
466.96	440.02
467.14	447.04
467.32	381.51
467.51	428.32
467.69	433.00
467.87	400.23
468.05	362.78
468.23	440.02
468.41	411.93
468.60	447.04
468.78	393.21
468.96	472.79
469.14	397.89
469.32	430.66
469.50	440.02
469.69	390.87
469.87	472.79
470.05	409.59
470.23	433.00
470.41	435.34
470.59	472.79
470.77	395.55
470.95	409.59
471.14	461.09
471.32	400.23
471.50	374.49
471.68	400.23
471.86	447.04
472.04	409.59
472.22	390.87
472.40	376.83
472.58	341.72
472.77	388.53
472.95	411.93
473.13	430.66
473.31	386.19
473.49	465.77
473.67	435.34
473.85	454.06
474.03	454.06
474.21	428.32
474.39	386.19
474.57	421.30
474.75	416.62
474.93	479.81
475.12	362.78
475.30	346.40
475.48	418.96
475.66	447.04
475.84	456.40
476.02	425.98
476.20	390.87
476.38	376.83
476.56	507.90
476.74	400.23
476.92	425.98
477.10	449.38
477.28	458.74
477.46	393.21
477.64	421.30
477.82	442.36
478.00	414.27
478.18	395.55
478.36	472.79
478.54	430.66
478.72	397.89
478.90	409.59
479.08	418.96
479.26	360.44
479.44	428.32
479.62	409.59
479.80	390.87
479.98	416.62
480.16	388.53
480.34	388.53
480.52	418.96
480.70	456.40
480.88	400.23
481.06	416.62
481.24	414.27
481.41	421.30
481.59	435.34
481.77	411.93
481.95	451.72
482.13	503.22
482.31	379.17
482.49	395.55
482.67	388.53
482.85	437.68
483.03	463.43
483.21	458.74
483.39	353.42
483.57	395.55
483.74	416.62
483.92	379.17
484.10	355.76
484.28	514.92
484.46	468.11
484.64	386.19
484.82	390.87
485.00	433.00
485.18	447.04
485.35	503.22
485.53	376.83
485.71	407.25
485.89	369.80
486.07	454.06
486.25	475.13
486.43	404.91
486.61	463.43
486.78	418.96
486.96	430.66
487.14	393.21
487.32	381.51
487.50	472.79
487.68	451.72
487.85	451.72
488.03	341.72
488.21	433.00
488.39	475.13
488.57	472.79
488.75	386.19
488.92	456.40
489.10	383.85
489.28	440.02
489.46	440.02
489.64	456.40
489.81	348.74
489.99	444.70
490.17	428.32
490.35	447.04
490.53	425.98
490.70	449.38
490.88	470.45
491.06	407.25
491.24	376.83
491.41	479.81
491.59	465.77
491.77	468.11
491.95	386.19
492.13	418.96
492.30	402.57
492.48	379.17
492.66	386.19
492.84	435.34
493.01	442.36
493.19	437.68
493.37	496.19
493.54	404.91
493.72	369.80
493.90	411.93
494.08	379.17
494.25	397.89
494.43	437.68
494.61	454.06
494.79	418.96
494.96	374.49
495.14	397.89
495.32	477.47
495.49	365.12
495.67	383.85
495.85	425.98
496.02	393.21
496.20	411.93
496.38	386.19
496.55	409.59
496.73	411.93
496.91	402.57
497.09	437.68
497.26	397.89
497.44	386.19
497.62	416.62
497.79	430.66
497.97	402.57
498.14	397.89
498.32	421.30
498.50	395.55
498.67	411.93
498.85	414.27
499.03	400.23
499.20	421.30
499.38	388.53
499.56	454.06
499.73	510.24
499.91	447.04
500.08	465.77
500.26	421.30
500.44	421.30
500.61	418.96
500.79	362.78
500.97	351.08
501.14	454.06
501.32	388.53
501.49	397.89
501.67	444.70
501.84	381.51
502.02	423.64
502.20	449.38
502.37	440.02
502.55	383.85
502.72	360.44
502.90	393.21
503.07	407.25
503.25	437.68
503.43	423.64
503.60	332.36
503.78	486.83
503.95	353.42
504.13	393.21
504.30	451.72
504.48	449.38
504.65	477.47
504.83	461.09
505.01	376.83
505.18	404.91
505.36	447.04
505.53	360.44
505.71	423.64
505.88	472.79
506.06	451.72
506.23	430.66
506.41	416.62
506.58	421.30
506.76	454.06
506.93	386.19
507.11	519.60
507.28	418.96
507.46	444.70
507.63	397.89
507.81	421.30
507.98	365.12
508.16	428.32
508.33	388.53
508.50	348.74
508.68	416.62
508.85	407.25
509.03	456.40
509.20	421.30
509.38	423.64
509.55	411.93
509.73	428.32
509.90	472.79
510.08	351.08
510.25	400.23
510.42	407.25
510.60	421.30
510.77	444.70
510.95	463.43
511.12	423.64
511.30	444.70
511.47	461.09
511.64	468.11
511.82	430.66
511.99	353.42
512.17	362.78
512.34	332.36
512.51	444.70
512.69	430.66
512.86	458.74
513.04	409.59
513.21	435.34
513.38	416.62
513.56	402.57
513.73	449.38
513.90	369.80
514.08	428.32
514.25	442.36
514.43	444.70
514.60	369.80
514.77	475.13
514.95	428.32
515.12	358.10
515.29	386.19
515.47	404.91
515.64	404.91
515.81	369.80
515.99	435.34
516.16	433.00
516.33	404.91
516.51	397.89
516.68	397.89
516.85	435.34
517.03	386.19
517.20	409.59
517.37	313.63
517.54	404.91
517.72	367.46
517.89	425.98
518.06	383.85
518.24	477.47
518.41	444.70
518.58	409.59
518.75	451.72
518.93	411.93
519.10	414.27
519.27	411.93
519.45	390.87
519.62	493.85
519.79	425.98
519.96	294.91
520.14	372.15
520.31	475.13
520.48	425.98
520.65	395.55
520.83	458.74
521.00	447.04
521.17	531.30
521.34	421.30
521.52	393.21
521.69	437.68
521.86	346.40
522.03	482.15
522.20	423.64
522.38	367.46
522.55	414.27
522.72	362.78
522.89	465.77
523.07	418.96
523.24	463.43
523.41	512.58
523.58	374.49
523.75	351.08
523.92	372.15
524.10	428.32
524.27	414.27
524.44	322.99
524.61	451.72
524.78	402.57
524.96	425.98
525.13	442.36
525.30	400.23
525.47	461.09
525.64	435.34
525.81	383.85
525.98	425.98
526.16	444.70
526.33	447.04
526.50	395.55
526.67	428.32
526.84	421.30
527.01	421.30
527.18	411.93
527.36	409.59
527.53	414.27
527.70	433.00
527.87	411.93
528.04	393.21
528.21	416.62
528.38	491.51
528.55	369.80
528.72	386.19
528.89	498.53
529.07	369.80
529.24	409.59
529.41	440.02
529.58	355.76
529.75	383.85
529.92	407.25
530.09	454.06
530.26	414.27
530.43	393.21
530.60	421.30
530.77	421.30
530.94	498.53
531.11	388.53
531.28	411.93
531.46	402.57
531.63	444.70
531.80	393.21
531.97	475.13
532.14	435.34
532.31	444.70
532.48	409.59
532.65	374.49
532.82	503.22
532.99	512.58
533.16	346.40
533.33	386.19
533.50	437.68
533.67	383.85
533.84	351.08
534.01	386.19
534.18	367.46
534.35	348.74
534.52	379.17
534.69	465.77
534.86	458.74
535.03	369.80
535.20	442.36
535.37	416.62
535.54	386.19
535.71	435.34
535.88	433.00
536.05	437.68
536.22	463.43
536.38	376.83
536.55	454.06
536.72	428.32
536.89	383.85
537.06	381.51
537.23	334.70
537.40	414.27
537.57	461.09
537.74	472.79
537.91	411.93
538.08	456.40
538.25	449.38
538.42	456.40
538.59	451.72
538.75	376.83
538.92	348.74
539.09	379.17
539.26	416.62
539.43	454.06
539.60	414.27
539.77	404.91
539.94	409.59
540.11	425.98
540.28	430.66
540.44	411.93
540.61	428.32
540.78	440.02
540.95	395.55
541.12	386.19
541.29	388.53
541.46	442.36
541.62	470.45
541.79	468.11
541.96	379.17
542.13	383.85
542.30	440.02
542.47	423.64
542.63	355.76
542.80	388.53
542.97	395.55
543.14	421.30
543.31	404.91
543.48	421.30
543.64	433.00
543.81	440.02
543.98	402.57
544.15	353.42
544.32	383.85
544.48	430.66
544.65	395.55
544.82	407.25
544.99	433.00
545.16	449.38
545.32	386.19
545.49	470.45
545.66	444.70
545.83	372.15
546.00	393.21
546.16	430.66
546.33	409.59
546.50	447.04
546.67	496.19
546.83	393.21
547.00	411.93
547.17	397.89
547.34	482.15
547.50	437.68
547.67	376.83
547.84	454.06
548.00	390.87
548.17	397.89
548.34	409.59
548.51	440.02
548.67	372.15
548.84	402.57
549.01	435.34
549.18	332.36
549.34	393.21
549.51	393.21
549.68	404.91
549.84	454.06
550.01	416.62
550.18	500.87
550.34	442.36
550.51	376.83
550.68	468.11
550.84	353.42
551.01	400.23
551.18	372.15
551.34	456.40
551.51	346.40
551.68	498.53
551.84	470.45
552.01	320.65
552.18	482.15
552.34	449.38
552.51	425.98
552.68	418.96
552.84	442.36
553.01	390.87
553.18	430.66
553.34	381.51
553.51	400.23
553.67	358.10
553.84	372.15
554.01	421.30
554.17	407.25
554.34	407.25
554.51	444.70
554.67	465.77
554.84	365.12
555.00	437.68
555.17	456.40
555.33	428.32
555.50	444.70
555.67	355.76
555.83	423.64
556.00	435.34
556.16	500.87
556.33	451.72
556.50	416.62
556.66	402.57
556.83	433.00
556.99	423.64
557.16	383.85
557.32	456.40
557.49	416.62
557.65	395.55
557.82	386.19
557.98	435.34
558.15	437.68
558.32	400.23
558.48	411.93
558.65	395.55
558.81	451.72
558.98	325.33
559.14	400.23
559.31	468.11
559.47	458.74
559.64	428.32
559.80	433.00
559.97	390.87
560.13	322.99
560.30	440.02
560.46	418.96
560.63	397.89
560.79	381.51
560.96	447.04
561.12	369.80
561.29	425.98
561.45	416.62
561.61	379.17
561.78	475.13
561.94	449.38
562.11	409.59
562.27	390.87
562.44	416.62
562.60	400.23
562.77	388.53
562.93	414.27
563.10	435.34
563.26	428.32
563.42	358.10
563.59	416.62
563.75	447.04
563.92	423.64
564.08	383.85
564.24	395.55
564.41	456.40
564.57	379.17
564.74	407.25
564.90	397.89
565.07	425.98
565.23	355.76
565.39	407.25
565.56	404.91
565.72	411.93
565.88	437.68
566.05	418.96
566.21	390.87
566.38	489.17
566.54	381.51
566.70	393.21
566.87	362.78
567.03	433.00
567.19	372.15
567.36	404.91
567.52	425.98
567.68	411.93
567.85	447.04
568.01	418.96
568.17	365.12
568.34	404.91
568.50	428.32
568.66	374.49
568.83	519.60
568.99	430.66
569.15	341.72
569.32	411.93
569.48	402.57
569.64	397.89
569.81	472.79
569.97	484.49
570.13	435.34
570.30	418.96
570.46	425.98
570.62	430.66
570.78	411.93
570.95	344.06
571.11	447.04
571.27	386.19
571.43	376.83
571.60	411.93
571.76	477.47
571.92	386.19
572.09	409.59
572.25	393.21
572.41	390.87
572.57	477.47
572.74	414.27
572.90	449.38
573.06	381.51
573.22	397.89
573.38	423.64
573.55	505.56
573.71	365.12
573.87	435.34
574.03	388.53
574.20	397.89
574.36	421.30
574.52	337.04
574.68	489.17
574.84	404.91
575.01	369.80
575.17	409.59
575.33	463.43
575.49	367.46
575.65	435.34
575.82	416.62
575.98	433.00
576.14	479.81
576.30	465.77
576.46	390.87
576.62	337.04
576.79	461.09
576.95	430.66
577.11	461.09
577.27	409.59
577.43	372.15
577.59	449.38
577.75	388.53
577.92	346.40
578.08	393.21
578.24	416.62
578.40	421.30
578.56	402.57
578.72	421.30
578.88	337.04
579.04	437.68
579.21	451.72
579.37	449.38
579.53	369.80
579.69	447.04
579.85	423.64
580.01	404.91
580.17	428.32
580.33	402.57
580.49	440.02
580.65	486.83
580.82	528.96
580.98	409.59
581.14	379.17
581.30	475.13
581.46	409.59
581.62	409.59
581.78	381.51
581.94	397.89
582.10	430.66
582.26	489.17
582.42	409.59
582.58	442.36
582.74	433.00
582.90	395.55
583.06	435.34
583.22	407.25
583.38	397.89
583.54	421.30
583.70	430.66
583.86	423.64
584.02	418.96
584.18	468.11
584.34	381.51
584.50	430.66
584.66	402.57
584.82	456.40
584.98	407.25
585.14	369.80
585.30	409.59
585.46	482.15
585.62	444.70
585.78	409.59
585.94	369.80
586.10	400.23
586.26	404.91
586.42	433.00
586.58	386.19
586.74	421.30
586.90	372.15
587.06	465.77
587.22	435.34
587.38	444.70
587.54	461.09
587.70	479.81
587.86	489.17
588.02	484.49
588.18	362.78
588.34	390.87
588.49	334.70
588.65	386.19
588.81	491.51
588.97	388.53
589.13	444.70
589.29	374.49
589.45	423.64
589.61	402.57
589.77	404.91
589.93	386.19
590.08	421.30
590.24	379.17
590.40	360.44
590.56	479.81
590.72	449.38
590.88	367.46
591.04	393.21
591.20	442.36
591.35	482.15
591.51	372.15
591.67	344.06
591.83	470.45
591.99	479.81
592.15	372.15
592.31	381.51
592.46	358.10
592.62	421.30
592.78	411.93
592.94	383.85
593.10	465.77
593.26	407.25
593.41	383.85
593.57	416.62
593.73	411.93
593.89	468.11
594.05	463.43
594.20	456.40
594.36	372.15
594.52	351.08
594.68	428.32
594.84	440.02
594.99	400.23
595.15	449.38
595.31	449.38
595.47	489.17
595.62	496.19
595.78	402.57
595.94	444.70
596.10	435.34
596.25	411.93
596.41	393.21
596.57	442.36
596.73	430.66
596.88	421.30
597.04	416.62
597.20	374.49
597.36	376.83
597.51	381.51
597.67	418.96
597.83	437.68
597.99	393.21
598.14	414.27
598.30	486.83
598.46	372.15
598.61	456.40
598.77	472.79
598.93	423.64
599.09	421.30
599.24	409.59
599.40	447.04
599.56	346.40
599.71	444.70
599.87	411.93
600.03	475.13
600.18	402.57
600.34	428.32
600.50	468.11
600.65	479.81
600.81	435.34
600.97	444.70
601.12	428.32
601.28	461.09
601.44	416.62
601.59	477.47
601.75	435.34
601.91	383.85
602.06	393.21
602.22	449.38
602.37	468.11
602.53	465.77
602.69	372.15
602.84	360.44
603.00	379.17
603.16	451.72
603.31	428.32
603.47	428.32
603.62	402.57
603.78	468.11
603.94	400.23
604.09	411.93
604.25	416.62
604.40	423.64
604.56	435.34
604.71	315.97
604.87	397.89
605.03	299.59
605.18	400.23
605.34	475.13
605.49	486.83
605.65	397.89
605.80	411.93
605.96	358.10
606.12	400.23
606.27	491.51
606.43	428.32
606.58	486.83
606.74	482.15
606.89	440.02
607.05	447.04
607.20	418.96
607.36	372.15
607.51	447.04
607.67	423.64
607.82	418.96
607.98	458.74
608.13	447.04
608.29	440.02
608.44	421.30
608.60	411.93
608.75	374.49
608.91	388.53
609.06	493.85
609.22	409.59
609.37	344.06
609.53	400.23
609.68	360.44
609.84	425.98
609.99	407.25
610.15	533.64
