SpectraSuite Data File
++++++++++++++++++++++++++++++++++++
Date: Fri Oct 25 12:10:14 EDT 2013
User: price-jones
Dark Spectrum Present: No
Reference Spectrum Present: No
Number of Sampled Component Spectra: 1
Spectrometers: USB2+H05261
Integration Time (usec): 100000 (USB2+H05261)
Spectra Averaged: 1 (USB2+H05261)
Boxcar Smoothing: 0 (USB2+H05261)
Correct for Electrical Dark: No (USB2+H05261)
Strobe/Lamp Enabled: No (USB2+H05261)
Correct for Detector Non-linearity: No (USB2+H05261)
Correct for Stray Light: No (USB2+H05261)
Number of Pixels in Processed Spectrum: 2048
>>>>>Begin Processed Spectral Data<<<<<
365.73	320.65
365.92	320.65
366.12	320.65
366.32	294.91
366.52	168.52
366.72	248.10
366.91	220.01
367.11	252.78
367.31	238.73
367.51	332.36
367.70	245.76
367.90	250.44
368.10	234.05
368.30	227.03
368.49	224.69
368.69	311.29
368.89	217.67
369.09	304.27
369.28	318.31
369.48	294.91
369.68	238.73
369.87	252.78
370.07	287.89
370.27	341.72
370.47	313.63
370.66	320.65
370.86	330.02
371.06	367.46
371.25	351.08
371.45	351.08
371.65	386.19
371.84	374.49
372.04	362.78
372.24	339.38
372.44	379.17
372.63	428.32
372.83	454.06
373.03	348.74
373.22	456.40
373.42	393.21
373.62	433.00
373.81	358.10
374.01	421.30
374.21	449.38
374.40	381.51
374.60	393.21
374.79	360.44
374.99	442.36
375.19	362.78
375.38	477.47
375.58	402.57
375.78	435.34
375.97	444.70
376.17	479.81
376.37	355.76
376.56	390.87
376.76	433.00
376.95	418.96
377.15	411.93
377.35	386.19
377.54	369.80
377.74	409.59
377.93	475.13
378.13	486.83
378.33	447.04
378.52	344.06
378.72	395.55
378.91	437.68
379.11	402.57
379.31	341.72
379.50	437.68
379.70	428.32
379.89	461.09
380.09	358.10
380.28	374.49
380.48	435.34
380.68	381.51
380.87	414.27
381.07	435.34
381.26	416.62
381.46	433.00
381.65	327.68
381.85	468.11
382.04	308.95
382.24	423.64
382.43	388.53
382.63	351.08
382.83	397.89
383.02	425.98
383.22	496.19
383.41	395.55
383.61	482.15
383.80	418.96
384.00	421.30
384.19	402.57
384.39	390.87
384.58	381.51
384.78	365.12
384.97	379.17
385.17	388.53
385.36	376.83
385.56	390.87
385.75	402.57
385.95	437.68
386.14	414.27
386.34	381.51
386.53	435.34
386.72	404.91
386.92	344.06
387.11	414.27
387.31	423.64
387.50	320.65
387.70	388.53
387.89	414.27
388.09	428.32
388.28	423.64
388.48	348.74
388.67	423.64
388.86	397.89
389.06	435.34
389.25	437.68
389.45	407.25
389.64	433.00
389.84	388.53
390.03	449.38
390.22	477.47
390.42	425.98
390.61	360.44
390.81	388.53
391.00	433.00
391.19	418.96
391.39	374.49
391.58	365.12
391.78	423.64
391.97	423.64
392.16	337.04
392.36	407.25
392.55	409.59
392.75	400.23
392.94	360.44
393.13	362.78
393.33	404.91
393.52	428.32
393.71	444.70
393.91	344.06
394.10	461.09
394.29	411.93
394.49	418.96
394.68	512.58
394.88	479.81
395.07	437.68
395.26	348.74
395.46	386.19
395.65	400.23
395.84	397.89
396.04	505.56
396.23	416.62
396.42	360.44
396.62	440.02
396.81	414.27
397.00	376.83
397.19	383.85
397.39	360.44
397.58	458.74
397.77	362.78
397.97	358.10
398.16	400.23
398.35	444.70
398.55	400.23
398.74	447.04
398.93	365.12
399.12	409.59
399.32	397.89
399.51	397.89
399.70	393.21
399.90	411.93
400.09	442.36
400.28	477.47
400.47	444.70
400.67	454.06
400.86	454.06
401.05	461.09
401.24	447.04
401.44	437.68
401.63	433.00
401.82	386.19
402.01	388.53
402.21	421.30
402.40	437.68
402.59	433.00
402.78	402.57
402.97	402.57
403.17	414.27
403.36	468.11
403.55	447.04
403.74	421.30
403.93	353.42
404.13	416.62
404.32	442.36
404.51	407.25
404.70	458.74
404.89	409.59
405.09	444.70
405.28	477.47
405.47	381.51
405.66	418.96
405.85	421.30
406.05	451.72
406.24	435.34
406.43	437.68
406.62	440.02
406.81	437.68
407.00	402.57
407.20	348.74
407.39	407.25
407.58	365.12
407.77	393.21
407.96	430.66
408.15	376.83
408.34	430.66
408.54	376.83
408.73	379.17
408.92	456.40
409.11	351.08
409.30	407.25
409.49	435.34
409.68	381.51
409.87	437.68
410.07	447.04
410.26	435.34
410.45	383.85
410.64	381.51
410.83	430.66
411.02	463.43
411.21	449.38
411.40	411.93
411.59	411.93
411.78	444.70
411.98	404.91
412.17	381.51
412.36	379.17
412.55	444.70
412.74	440.02
412.93	428.32
413.12	451.72
413.31	461.09
413.50	409.59
413.69	369.80
413.88	463.43
414.07	372.15
414.26	407.25
414.45	346.40
414.64	397.89
414.83	383.85
415.02	423.64
415.22	376.83
415.41	430.66
415.60	393.21
415.79	454.06
415.98	409.59
416.17	395.55
416.36	414.27
416.55	416.62
416.74	435.34
416.93	442.36
417.12	458.74
417.31	437.68
417.50	400.23
417.69	402.57
417.88	381.51
418.07	294.91
418.26	365.12
418.45	435.34
418.64	400.23
418.83	435.34
419.02	416.62
419.21	421.30
419.39	369.80
419.58	334.70
419.77	428.32
419.96	463.43
420.15	407.25
420.34	411.93
420.53	421.30
420.72	414.27
420.91	442.36
421.10	479.81
421.29	433.00
421.48	351.08
421.67	423.64
421.86	425.98
422.05	404.91
422.24	411.93
422.43	428.32
422.61	334.70
422.80	383.85
422.99	367.46
423.18	381.51
423.37	454.06
423.56	400.23
423.75	458.74
423.94	402.57
424.13	355.76
424.32	400.23
424.50	444.70
424.69	386.19
424.88	421.30
425.07	489.17
425.26	454.06
425.45	493.85
425.64	430.66
425.83	353.42
426.01	447.04
426.20	362.78
426.39	341.72
426.58	395.55
426.77	393.21
426.96	437.68
427.15	365.12
427.33	355.76
427.52	409.59
427.71	402.57
427.90	376.83
428.09	409.59
428.28	400.23
428.46	416.62
428.65	381.51
428.84	365.12
429.03	372.15
429.22	372.15
429.40	411.93
429.59	414.27
429.78	421.30
429.97	444.70
430.16	369.80
430.34	465.77
430.53	407.25
430.72	416.62
430.91	435.34
431.10	400.23
431.28	425.98
431.47	449.38
431.66	390.87
431.85	435.34
432.03	423.64
432.22	484.49
432.41	486.83
432.60	397.89
432.79	388.53
432.97	388.53
433.16	334.70
433.35	372.15
433.54	468.11
433.72	411.93
433.91	433.00
434.10	402.57
434.28	379.17
434.47	416.62
434.66	444.70
434.85	475.13
435.03	437.68
435.22	475.13
435.41	428.32
435.59	374.49
435.78	407.25
435.97	456.40
436.16	351.08
436.34	433.00
436.53	409.59
436.72	437.68
436.90	517.26
437.09	425.98
437.28	358.10
437.46	400.23
437.65	468.11
437.84	400.23
438.02	433.00
438.21	407.25
438.40	358.10
438.58	454.06
438.77	381.51
438.96	411.93
439.14	451.72
439.33	430.66
439.52	433.00
439.70	353.42
439.89	407.25
440.08	369.80
440.26	435.34
440.45	437.68
440.63	433.00
440.82	430.66
441.01	461.09
441.19	437.68
441.38	435.34
441.57	388.53
441.75	416.62
441.94	402.57
442.12	486.83
442.31	418.96
442.50	388.53
442.68	440.02
442.87	390.87
443.05	442.36
443.24	334.70
443.43	447.04
443.61	482.15
443.80	400.23
443.98	334.70
444.17	411.93
444.35	514.92
444.54	402.57
444.73	430.66
444.91	442.36
445.10	461.09
445.28	411.93
445.47	454.06
445.65	390.87
445.84	418.96
446.02	360.44
446.21	381.51
446.39	372.15
446.58	456.40
446.77	393.21
446.95	437.68
447.14	348.74
447.32	414.27
447.51	475.13
447.69	447.04
447.88	386.19
448.06	454.06
448.25	463.43
448.43	470.45
448.62	421.30
448.80	451.72
448.99	433.00
449.17	400.23
449.36	318.31
449.54	440.02
449.73	388.53
449.91	400.23
450.10	449.38
450.28	416.62
450.46	411.93
450.65	360.44
450.83	454.06
451.02	437.68
451.20	404.91
451.39	463.43
451.57	397.89
451.76	479.81
451.94	390.87
452.13	456.40
452.31	418.96
452.49	388.53
452.68	365.12
452.86	400.23
453.05	451.72
453.23	435.34
453.42	411.93
453.60	444.70
453.78	425.98
453.97	411.93
454.15	334.70
454.34	344.06
454.52	383.85
454.70	454.06
454.89	475.13
455.07	437.68
455.26	498.53
455.44	458.74
455.62	369.80
455.81	414.27
455.99	397.89
456.17	470.45
456.36	433.00
456.54	360.44
456.73	372.15
456.91	395.55
457.09	379.17
457.28	400.23
457.46	433.00
457.64	447.04
457.83	379.17
458.01	458.74
458.19	475.13
458.38	313.63
458.56	423.64
458.74	376.83
458.93	365.12
459.11	468.11
459.29	388.53
459.48	390.87
459.66	402.57
459.84	458.74
460.03	458.74
460.21	444.70
460.39	437.68
460.57	463.43
460.76	404.91
460.94	390.87
461.12	470.45
461.31	456.40
461.49	456.40
461.67	477.47
461.85	435.34
462.04	430.66
462.22	765.36
462.40	409.59
462.59	402.57
462.77	421.30
462.95	423.64
463.13	449.38
463.32	451.72
463.50	456.40
463.68	463.43
463.86	276.18
464.05	477.47
464.23	423.64
464.41	454.06
464.59	428.32
464.78	397.89
464.96	386.19
465.14	463.43
465.32	386.19
465.50	386.19
465.69	421.30
465.87	397.89
466.05	456.40
466.23	411.93
466.41	411.93
466.60	397.89
466.78	409.59
466.96	423.64
467.14	397.89
467.32	390.87
467.51	477.47
467.69	440.02
467.87	486.83
468.05	411.93
468.23	475.13
468.41	409.59
468.60	397.89
468.78	367.46
468.96	421.30
469.14	358.10
469.32	344.06
469.50	423.64
469.69	362.78
469.87	440.02
470.05	472.79
470.23	489.17
470.41	430.66
470.59	381.51
470.77	376.83
470.95	428.32
471.14	461.09
471.32	430.66
471.50	430.66
471.68	451.72
471.86	355.76
472.04	454.06
472.22	397.89
472.40	362.78
472.58	440.02
472.77	388.53
472.95	444.70
473.13	454.06
473.31	444.70
473.49	414.27
473.67	409.59
473.85	388.53
474.03	472.79
474.21	479.81
474.39	475.13
474.57	379.17
474.75	400.23
474.93	353.42
475.12	416.62
475.30	505.56
475.48	482.15
475.66	395.55
475.84	425.98
476.02	376.83
476.20	475.13
476.38	414.27
476.56	449.38
476.74	454.06
476.92	498.53
477.10	458.74
477.28	390.87
477.46	390.87
477.64	416.62
477.82	390.87
478.00	369.80
478.18	489.17
478.36	437.68
478.54	456.40
478.72	430.66
478.90	409.59
479.08	388.53
479.26	437.68
479.44	381.51
479.62	425.98
479.80	365.12
479.98	465.77
480.16	433.00
480.34	414.27
480.52	346.40
480.70	390.87
480.88	395.55
481.06	383.85
481.24	383.85
481.41	407.25
481.59	430.66
481.77	411.93
481.95	376.83
482.13	465.77
482.31	430.66
482.49	339.38
482.67	449.38
482.85	416.62
483.03	430.66
483.21	449.38
483.39	414.27
483.57	372.15
483.74	374.49
483.92	423.64
484.10	440.02
484.28	397.89
484.46	475.13
484.64	435.34
484.82	425.98
485.00	418.96
485.18	318.31
485.35	400.23
485.53	407.25
485.71	395.55
485.89	346.40
486.07	362.78
486.25	437.68
486.43	425.98
486.61	484.49
486.78	411.93
486.96	456.40
487.14	388.53
487.32	414.27
487.50	435.34
487.68	421.30
487.85	353.42
488.03	433.00
488.21	489.17
488.39	503.22
488.57	451.72
488.75	458.74
488.92	505.56
489.10	393.21
489.28	458.74
489.46	409.59
489.64	407.25
489.81	376.83
489.99	397.89
490.17	353.42
490.35	416.62
490.53	407.25
490.70	388.53
490.88	414.27
491.06	404.91
491.24	440.02
491.41	470.45
491.59	386.19
491.77	421.30
491.95	372.15
492.13	393.21
492.30	360.44
492.48	435.34
492.66	404.91
492.84	421.30
493.01	411.93
493.19	421.30
493.37	458.74
493.54	463.43
493.72	365.12
493.90	451.72
494.08	367.46
494.25	344.06
494.43	402.57
494.61	304.27
494.79	397.89
494.96	381.51
495.14	456.40
495.32	451.72
495.49	407.25
495.67	449.38
495.85	383.85
496.02	444.70
496.20	409.59
496.38	393.21
496.55	454.06
496.73	428.32
496.91	428.32
497.09	411.93
497.26	400.23
497.44	395.55
497.62	423.64
497.79	407.25
497.97	447.04
498.14	416.62
498.32	397.89
498.50	425.98
498.67	444.70
498.85	407.25
499.03	442.36
499.20	386.19
499.38	388.53
499.56	428.32
499.73	477.47
499.91	381.51
500.08	440.02
500.26	418.96
500.44	372.15
500.61	477.47
500.79	400.23
500.97	447.04
501.14	444.70
501.32	367.46
501.49	475.13
501.67	435.34
501.84	472.79
502.02	428.32
502.20	421.30
502.37	435.34
502.55	397.89
502.72	418.96
502.90	437.68
503.07	416.62
503.25	362.78
503.43	376.83
503.60	369.80
503.78	449.38
503.95	390.87
504.13	468.11
504.30	433.00
504.48	496.19
504.65	489.17
504.83	390.87
505.01	418.96
505.18	353.42
505.36	484.49
505.53	409.59
505.71	411.93
505.88	458.74
506.06	409.59
506.23	444.70
506.41	402.57
506.58	465.77
506.76	421.30
506.93	407.25
507.11	332.36
507.28	346.40
507.46	353.42
507.63	411.93
507.81	414.27
507.98	449.38
508.16	451.72
508.33	341.72
508.50	475.13
508.68	442.36
508.85	416.62
509.03	418.96
509.20	442.36
509.38	425.98
509.55	456.40
509.73	440.02
509.90	454.06
510.08	372.15
510.25	472.79
510.42	423.64
510.60	397.89
510.77	376.83
510.95	440.02
511.12	351.08
511.30	444.70
511.47	365.12
511.64	465.77
511.82	425.98
511.99	388.53
512.17	451.72
512.34	381.51
512.51	454.06
512.69	493.85
512.86	414.27
513.04	360.44
513.21	451.72
513.38	425.98
513.56	428.32
513.73	425.98
513.90	418.96
514.08	407.25
514.25	510.24
514.43	383.85
514.60	421.30
514.77	437.68
514.95	353.42
515.12	372.15
515.29	435.34
515.47	372.15
515.64	470.45
515.81	395.55
515.99	437.68
516.16	449.38
516.33	449.38
516.51	355.76
516.68	447.04
516.85	456.40
517.03	360.44
517.20	418.96
517.37	383.85
517.54	381.51
517.72	372.15
517.89	479.81
518.06	470.45
518.24	484.49
518.41	458.74
518.58	407.25
518.75	414.27
518.93	475.13
519.10	407.25
519.27	409.59
519.45	428.32
519.62	374.49
519.79	423.64
519.96	355.76
520.14	395.55
520.31	397.89
520.48	344.06
520.65	355.76
520.83	444.70
521.00	362.78
521.17	449.38
521.34	423.64
521.52	449.38
521.69	395.55
521.86	390.87
522.03	407.25
522.20	486.83
522.38	390.87
522.55	437.68
522.72	458.74
522.89	407.25
523.07	468.11
523.24	425.98
523.41	458.74
523.58	444.70
523.75	304.27
523.92	468.11
524.10	416.62
524.27	372.15
524.44	442.36
524.61	447.04
524.78	322.99
524.96	444.70
525.13	374.49
525.30	367.46
525.47	416.62
525.64	475.13
525.81	447.04
525.98	414.27
526.16	418.96
526.33	449.38
526.50	421.30
526.67	479.81
526.84	451.72
527.01	383.85
527.18	428.32
527.36	376.83
527.53	372.15
527.70	440.02
527.87	395.55
528.04	543.00
528.21	472.79
528.38	404.91
528.55	514.92
528.72	425.98
528.89	416.62
529.07	423.64
529.24	430.66
529.41	376.83
529.58	379.17
529.75	404.91
529.92	461.09
530.09	444.70
530.26	400.23
530.43	400.23
530.60	407.25
530.77	367.46
530.94	428.32
531.11	414.27
531.28	407.25
531.46	447.04
531.63	437.68
531.80	416.62
531.97	435.34
532.14	442.36
532.31	435.34
532.48	435.34
532.65	435.34
532.82	337.04
532.99	369.80
533.16	430.66
533.33	388.53
533.50	409.59
533.67	388.53
533.84	449.38
534.01	447.04
534.18	496.19
534.35	376.83
534.52	428.32
534.69	414.27
534.86	425.98
535.03	423.64
535.20	430.66
535.37	362.78
535.54	351.08
535.71	409.59
535.88	447.04
536.05	454.06
536.22	437.68
536.38	416.62
536.55	414.27
536.72	411.93
536.89	482.15
537.06	365.12
537.23	346.40
537.40	430.66
537.57	358.10
537.74	470.45
537.91	496.19
538.08	397.89
538.25	374.49
538.42	365.12
538.59	472.79
538.75	456.40
538.92	374.49
539.09	435.34
539.26	510.24
539.43	484.49
539.60	449.38
539.77	433.00
539.94	449.38
540.11	437.68
540.28	444.70
540.44	437.68
540.61	407.25
540.78	414.27
540.95	428.32
541.12	428.32
541.29	463.43
541.46	496.19
541.62	404.91
541.79	451.72
541.96	388.53
542.13	409.59
542.30	444.70
542.47	425.98
542.63	444.70
542.80	437.68
542.97	430.66
543.14	437.68
543.31	451.72
543.48	411.93
543.64	362.78
543.81	407.25
543.98	428.32
544.15	397.89
544.32	367.46
544.48	372.15
544.65	437.68
544.82	428.32
544.99	395.55
545.16	465.77
545.32	383.85
545.49	416.62
545.66	447.04
545.83	458.74
546.00	442.36
546.16	388.53
546.33	463.43
546.50	468.11
546.67	397.89
546.83	463.43
547.00	362.78
547.17	367.46
547.34	437.68
547.50	414.27
547.67	407.25
547.84	425.98
548.00	404.91
548.17	379.17
548.34	374.49
548.51	482.15
548.67	465.77
548.84	411.93
549.01	353.42
549.18	421.30
549.34	404.91
549.51	423.64
549.68	440.02
549.84	442.36
550.01	421.30
550.18	503.22
550.34	482.15
550.51	402.57
550.68	435.34
550.84	449.38
551.01	404.91
551.18	458.74
551.34	381.51
551.51	435.34
551.68	360.44
551.84	484.49
552.01	435.34
552.18	411.93
552.34	440.02
552.51	456.40
552.68	435.34
552.84	402.57
553.01	451.72
553.18	416.62
553.34	411.93
553.51	402.57
553.67	430.66
553.84	449.38
554.01	451.72
554.17	393.21
554.34	383.85
554.51	430.66
554.67	458.74
554.84	472.79
555.00	407.25
555.17	444.70
555.33	411.93
555.50	440.02
555.67	423.64
555.83	393.21
556.00	397.89
556.16	524.28
556.33	449.38
556.50	407.25
556.66	447.04
556.83	386.19
556.99	421.30
557.16	395.55
557.32	390.87
557.49	433.00
557.65	449.38
557.82	425.98
557.98	440.02
558.15	414.27
558.32	397.89
558.48	433.00
558.65	435.34
558.81	409.59
558.98	348.74
559.14	433.00
559.31	402.57
559.47	428.32
559.64	325.33
559.80	433.00
559.97	379.17
560.13	437.68
560.30	433.00
560.46	365.12
560.63	374.49
560.79	423.64
560.96	355.76
561.12	376.83
561.29	435.34
561.45	503.22
561.61	395.55
561.78	454.06
561.94	517.26
562.11	437.68
562.27	346.40
562.44	421.30
562.60	454.06
562.77	411.93
562.93	468.11
563.10	404.91
563.26	409.59
563.42	437.68
563.59	390.87
563.75	379.17
563.92	454.06
564.08	423.64
564.24	517.26
564.41	500.87
564.57	421.30
564.74	395.55
564.90	468.11
565.07	414.27
565.23	425.98
565.39	423.64
565.56	390.87
565.72	393.21
565.88	383.85
566.05	454.06
566.21	423.64
566.38	468.11
566.54	461.09
566.70	393.21
566.87	393.21
567.03	374.49
567.19	456.40
567.36	458.74
567.52	397.89
567.68	421.30
567.85	362.78
568.01	428.32
568.17	414.27
568.34	393.21
568.50	414.27
568.66	360.44
568.83	498.53
568.99	454.06
569.15	440.02
569.32	451.72
569.48	477.47
569.64	320.65
569.81	437.68
569.97	402.57
570.13	365.12
570.30	339.38
570.46	365.12
570.62	428.32
570.78	437.68
570.95	444.70
571.11	447.04
571.27	451.72
571.43	447.04
571.60	470.45
571.76	435.34
571.92	468.11
572.09	442.36
572.25	418.96
572.41	440.02
572.57	449.38
572.74	461.09
572.90	393.21
573.06	397.89
573.22	423.64
573.38	458.74
573.55	407.25
573.71	444.70
573.87	465.77
574.03	388.53
574.20	397.89
574.36	409.59
574.52	451.72
574.68	440.02
574.84	411.93
575.01	505.56
575.17	407.25
575.33	461.09
575.49	435.34
575.65	416.62
575.82	430.66
575.98	390.87
576.14	330.02
576.30	374.49
576.46	500.87
576.62	442.36
576.79	362.78
576.95	458.74
577.11	365.12
577.27	418.96
577.43	461.09
577.59	463.43
577.75	430.66
577.92	416.62
578.08	489.17
578.24	411.93
578.40	442.36
578.56	383.85
578.72	400.23
578.88	463.43
579.04	411.93
579.21	379.17
579.37	479.81
579.53	386.19
579.69	409.59
579.85	365.12
580.01	409.59
580.17	400.23
580.33	477.47
580.49	409.59
580.65	369.80
580.82	360.44
580.98	461.09
581.14	437.68
581.30	451.72
581.46	386.19
581.62	365.12
581.78	334.70
581.94	437.68
582.10	376.83
582.26	411.93
582.42	444.70
582.58	334.70
582.74	421.30
582.90	372.15
583.06	430.66
583.22	414.27
583.38	400.23
583.54	313.63
583.70	444.70
583.86	435.34
584.02	428.32
584.18	367.46
584.34	407.25
584.50	423.64
584.66	472.79
584.82	379.17
584.98	411.93
585.14	397.89
585.30	470.45
585.46	423.64
585.62	416.62
585.78	407.25
585.94	428.32
586.10	421.30
586.26	400.23
586.42	425.98
586.58	454.06
586.74	362.78
586.90	379.17
587.06	442.36
587.22	416.62
587.38	414.27
587.54	411.93
587.70	400.23
587.86	430.66
588.02	388.53
588.18	393.21
588.34	477.47
588.49	493.85
588.65	442.36
588.81	454.06
588.97	407.25
589.13	423.64
589.29	393.21
589.45	372.15
589.61	442.36
589.77	404.91
589.93	430.66
590.08	449.38
590.24	386.19
590.40	351.08
590.56	416.62
590.72	393.21
590.88	454.06
591.04	381.51
591.20	393.21
591.35	409.59
591.51	414.27
591.67	463.43
591.83	425.98
591.99	456.40
592.15	458.74
592.31	369.80
592.46	433.00
592.62	454.06
592.78	390.87
592.94	430.66
593.10	325.33
593.26	388.53
593.41	430.66
593.57	351.08
593.73	451.72
593.89	383.85
594.05	437.68
594.20	390.87
594.36	430.66
594.52	311.29
594.68	444.70
594.84	388.53
594.99	404.91
595.15	395.55
595.31	423.64
595.47	477.47
595.62	369.80
595.78	395.55
595.94	421.30
596.10	540.66
596.25	351.08
596.41	454.06
596.57	442.36
596.73	390.87
596.88	393.21
597.04	376.83
597.20	358.10
597.36	468.11
597.51	334.70
597.67	416.62
597.83	400.23
597.99	418.96
598.14	409.59
598.30	393.21
598.46	381.51
598.61	390.87
598.77	402.57
598.93	360.44
599.09	404.91
599.24	404.91
599.40	421.30
599.56	390.87
599.71	461.09
599.87	390.87
600.03	421.30
600.18	379.17
600.34	470.45
600.50	430.66
600.65	404.91
600.81	449.38
600.97	409.59
601.12	433.00
601.28	477.47
601.44	433.00
601.59	402.57
601.75	425.98
601.91	360.44
602.06	449.38
602.22	472.79
602.37	479.81
602.53	388.53
602.69	365.12
602.84	411.93
603.00	397.89
603.16	393.21
603.31	435.34
603.47	402.57
603.62	430.66
603.78	454.06
603.94	437.68
604.09	447.04
604.25	416.62
604.40	390.87
604.56	355.76
604.71	407.25
604.87	386.19
605.03	430.66
605.18	435.34
605.34	489.17
605.49	411.93
605.65	358.10
605.80	411.93
605.96	447.04
606.12	433.00
606.27	491.51
606.43	461.09
606.58	411.93
606.74	447.04
606.89	463.43
607.05	449.38
607.20	430.66
607.36	416.62
607.51	402.57
607.67	402.57
607.82	449.38
607.98	395.55
608.13	397.89
608.29	337.04
608.44	447.04
608.60	430.66
608.75	418.96
608.91	390.87
609.06	421.30
609.22	437.68
609.37	418.96
609.53	484.49
609.68	468.11
609.84	362.78
609.99	400.23
610.15	393.21
