SpectraSuite Data File
++++++++++++++++++++++++++++++++++++
Date: Fri Oct 25 12:10:11 EDT 2013
User: price-jones
Dark Spectrum Present: No
Reference Spectrum Present: No
Number of Sampled Component Spectra: 1
Spectrometers: USB2+H05261
Integration Time (usec): 100000 (USB2+H05261)
Spectra Averaged: 1 (USB2+H05261)
Boxcar Smoothing: 0 (USB2+H05261)
Correct for Electrical Dark: No (USB2+H05261)
Strobe/Lamp Enabled: No (USB2+H05261)
Correct for Detector Non-linearity: No (USB2+H05261)
Correct for Stray Light: No (USB2+H05261)
Number of Pixels in Processed Spectrum: 2048
>>>>>Begin Processed Spectral Data<<<<<
365.73	332.36
365.92	332.36
366.12	332.36
366.32	245.76
366.52	278.52
366.72	208.31
366.91	224.69
367.11	245.76
367.31	264.48
367.51	255.12
367.70	203.63
367.90	264.48
368.10	227.03
368.30	327.68
368.49	262.14
368.69	262.14
368.89	264.48
369.09	248.10
369.28	301.93
369.48	227.03
369.68	276.18
369.87	299.59
370.07	266.82
370.27	290.23
370.47	318.31
370.66	388.53
370.86	327.68
371.06	388.53
371.25	430.66
371.45	287.89
371.65	337.04
371.84	395.55
372.04	369.80
372.24	479.81
372.44	393.21
372.63	348.74
372.83	348.74
373.03	348.74
373.22	355.76
373.42	376.83
373.62	376.83
373.81	449.38
374.01	411.93
374.21	489.17
374.40	416.62
374.60	451.72
374.79	430.66
374.99	388.53
375.19	442.36
375.38	428.32
375.58	463.43
375.78	482.15
375.97	477.47
376.17	404.91
376.37	383.85
376.56	393.21
376.76	407.25
376.95	362.78
377.15	404.91
377.35	479.81
377.54	355.76
377.74	383.85
377.93	376.83
378.13	390.87
378.33	388.53
378.52	390.87
378.72	393.21
378.91	390.87
379.11	418.96
379.31	444.70
379.50	386.19
379.70	447.04
379.89	416.62
380.09	383.85
380.28	397.89
380.48	386.19
380.68	386.19
380.87	346.40
381.07	430.66
381.26	404.91
381.46	348.74
381.65	486.83
381.85	421.30
382.04	428.32
382.24	440.02
382.43	388.53
382.63	418.96
382.83	390.87
383.02	430.66
383.22	395.55
383.41	372.15
383.61	386.19
383.80	393.21
384.00	423.64
384.19	440.02
384.39	400.23
384.58	325.33
384.78	411.93
384.97	407.25
385.17	341.72
385.36	418.96
385.56	430.66
385.75	402.57
385.95	414.27
386.14	430.66
386.34	390.87
386.53	416.62
386.72	402.57
386.92	402.57
387.11	418.96
387.31	372.15
387.50	414.27
387.70	430.66
387.89	409.59
388.09	372.15
388.28	437.68
388.48	386.19
388.67	411.93
388.86	372.15
389.06	409.59
389.25	442.36
389.45	388.53
389.64	325.33
389.84	475.13
390.03	442.36
390.22	503.22
390.42	376.83
390.61	360.44
390.81	447.04
391.00	428.32
391.19	367.46
391.39	465.77
391.58	463.43
391.78	418.96
391.97	334.70
392.16	351.08
392.36	421.30
392.55	395.55
392.75	372.15
392.94	386.19
393.13	425.98
393.33	444.70
393.52	390.87
393.71	409.59
393.91	400.23
394.10	444.70
394.29	449.38
394.49	358.10
394.68	334.70
394.88	411.93
395.07	353.42
395.26	484.49
395.46	409.59
395.65	423.64
395.84	360.44
396.04	447.04
396.23	477.47
396.42	435.34
396.62	383.85
396.81	425.98
397.00	498.53
397.19	468.11
397.39	404.91
397.58	451.72
397.77	470.45
397.97	404.91
398.16	414.27
398.35	477.47
398.55	367.46
398.74	341.72
398.93	454.06
399.12	411.93
399.32	379.17
399.51	348.74
399.70	430.66
399.90	470.45
400.09	379.17
400.28	411.93
400.47	379.17
400.67	362.78
400.86	444.70
401.05	444.70
401.24	465.77
401.44	365.12
401.63	409.59
401.82	489.17
402.01	402.57
402.21	369.80
402.40	472.79
402.59	372.15
402.78	381.51
402.97	339.38
403.17	411.93
403.36	493.85
403.55	414.27
403.74	374.49
403.93	388.53
404.13	409.59
404.32	332.36
404.51	355.76
404.70	428.32
404.89	433.00
405.09	372.15
405.28	388.53
405.47	503.22
405.66	358.10
405.85	418.96
406.05	388.53
406.24	383.85
406.43	353.42
406.62	421.30
406.81	423.64
407.00	447.04
407.20	461.09
407.39	390.87
407.58	416.62
407.77	437.68
407.96	409.59
408.15	449.38
408.34	402.57
408.54	421.30
408.73	374.49
408.92	386.19
409.11	402.57
409.30	423.64
409.49	381.51
409.68	416.62
409.87	369.80
410.07	465.77
410.26	402.57
410.45	325.33
410.64	425.98
410.83	425.98
411.02	404.91
411.21	381.51
411.40	433.00
411.59	449.38
411.78	365.12
411.98	376.83
412.17	327.68
412.36	402.57
412.55	411.93
412.74	433.00
412.93	383.85
413.12	390.87
413.31	393.21
413.50	355.76
413.69	337.04
413.88	414.27
414.07	440.02
414.26	428.32
414.45	353.42
414.64	386.19
414.83	404.91
415.02	353.42
415.22	381.51
415.41	435.34
415.60	397.89
415.79	447.04
415.98	430.66
416.17	308.95
416.36	353.42
416.55	425.98
416.74	395.55
416.93	484.49
417.12	353.42
417.31	358.10
417.50	425.98
417.69	444.70
417.88	423.64
418.07	369.80
418.26	418.96
418.45	393.21
418.64	451.72
418.83	421.30
419.02	402.57
419.21	416.62
419.39	477.47
419.58	402.57
419.77	451.72
419.96	414.27
420.15	463.43
420.34	388.53
420.53	437.68
420.72	390.87
420.91	416.62
421.10	383.85
421.29	365.12
421.48	369.80
421.67	402.57
421.86	367.46
422.05	395.55
422.24	404.91
422.43	400.23
422.61	479.81
422.80	351.08
422.99	346.40
423.18	397.89
423.37	367.46
423.56	440.02
423.75	383.85
423.94	386.19
424.13	404.91
424.32	362.78
424.50	461.09
424.69	423.64
424.88	369.80
425.07	330.02
425.26	416.62
425.45	393.21
425.64	430.66
425.83	477.47
426.01	386.19
426.20	362.78
426.39	325.33
426.58	348.74
426.77	416.62
426.96	411.93
427.15	454.06
427.33	362.78
427.52	423.64
427.71	388.53
427.90	369.80
428.09	435.34
428.28	468.11
428.46	402.57
428.65	430.66
428.84	407.25
429.03	369.80
429.22	369.80
429.40	447.04
429.59	393.21
429.78	367.46
429.97	351.08
430.16	423.64
430.34	360.44
430.53	379.17
430.72	400.23
430.91	397.89
431.10	376.83
431.28	372.15
431.47	379.17
431.66	437.68
431.85	425.98
432.03	372.15
432.22	386.19
432.41	409.59
432.60	447.04
432.79	367.46
432.97	416.62
433.16	404.91
433.35	346.40
433.54	404.91
433.72	456.40
433.91	360.44
434.10	369.80
434.28	423.64
434.47	451.72
434.66	416.62
434.85	388.53
435.03	337.04
435.22	451.72
435.41	423.64
435.59	454.06
435.78	414.27
435.97	395.55
436.16	411.93
436.34	402.57
436.53	418.96
436.72	383.85
436.90	486.83
437.09	414.27
437.28	440.02
437.46	374.49
437.65	442.36
437.84	444.70
438.02	425.98
438.21	435.34
438.40	421.30
438.58	320.65
438.77	411.93
438.96	442.36
439.14	479.81
439.33	397.89
439.52	383.85
439.70	416.62
439.89	465.77
440.08	381.51
440.26	414.27
440.45	400.23
440.63	505.56
440.82	393.21
441.01	433.00
441.19	374.49
441.38	416.62
441.57	468.11
441.75	500.87
441.94	444.70
442.12	411.93
442.31	358.10
442.50	353.42
442.68	409.59
442.87	379.17
443.05	414.27
443.24	465.77
443.43	409.59
443.61	346.40
443.80	458.74
443.98	402.57
444.17	308.95
444.35	374.49
444.54	297.25
444.73	388.53
444.91	416.62
445.10	437.68
445.28	409.59
445.47	418.96
445.65	428.32
445.84	332.36
446.02	463.43
446.21	369.80
446.39	318.31
446.58	376.83
446.77	425.98
446.95	362.78
447.14	351.08
447.32	421.30
447.51	456.40
447.69	437.68
447.88	379.17
448.06	449.38
448.25	475.13
448.43	390.87
448.62	381.51
448.80	397.89
448.99	337.04
449.17	334.70
449.36	433.00
449.54	411.93
449.73	397.89
449.91	437.68
450.10	386.19
450.28	484.49
450.46	496.19
450.65	468.11
450.83	491.51
451.02	449.38
451.20	484.49
451.39	414.27
451.57	409.59
451.76	393.21
451.94	463.43
452.13	451.72
452.31	421.30
452.49	482.15
452.68	365.12
452.86	456.40
453.05	479.81
453.23	358.10
453.42	404.91
453.60	402.57
453.78	397.89
453.97	414.27
454.15	435.34
454.34	416.62
454.52	369.80
454.70	477.47
454.89	395.55
455.07	428.32
455.26	395.55
455.44	411.93
455.62	280.86
455.81	442.36
455.99	437.68
456.17	430.66
456.36	479.81
456.54	355.76
456.73	393.21
456.91	395.55
457.09	404.91
457.28	388.53
457.46	435.34
457.64	390.87
457.83	468.11
458.01	407.25
458.19	421.30
458.38	447.04
458.56	400.23
458.74	510.24
458.93	374.49
459.11	435.34
459.29	470.45
459.48	404.91
459.66	444.70
459.84	491.51
460.03	538.32
460.21	451.72
460.39	458.74
460.57	418.96
460.76	428.32
460.94	402.57
461.12	365.12
461.31	449.38
461.49	461.09
461.67	362.78
461.85	360.44
462.04	404.91
462.22	863.66
462.40	458.74
462.59	465.77
462.77	484.49
462.95	360.44
463.13	393.21
463.32	498.53
463.50	421.30
463.68	444.70
463.86	407.25
464.05	437.68
464.23	421.30
464.41	416.62
464.59	407.25
464.78	454.06
464.96	407.25
465.14	437.68
465.32	383.85
465.50	407.25
465.69	411.93
465.87	353.42
466.05	433.00
466.23	276.18
466.41	400.23
466.60	402.57
466.78	414.27
466.96	465.77
467.14	421.30
467.32	451.72
467.51	407.25
467.69	362.78
467.87	407.25
468.05	404.91
468.23	414.27
468.41	454.06
468.60	402.57
468.78	393.21
468.96	367.46
469.14	411.93
469.32	402.57
469.50	414.27
469.69	477.47
469.87	388.53
470.05	484.49
470.23	414.27
470.41	393.21
470.59	465.77
470.77	337.04
470.95	402.57
471.14	470.45
471.32	386.19
471.50	442.36
471.68	388.53
471.86	376.83
472.04	428.32
472.22	402.57
472.40	325.33
472.58	416.62
472.77	444.70
472.95	346.40
473.13	433.00
473.31	367.46
473.49	388.53
473.67	435.34
473.85	407.25
474.03	374.49
474.21	447.04
474.39	409.59
474.57	414.27
474.75	435.34
474.93	402.57
475.12	447.04
475.30	404.91
475.48	376.83
475.66	418.96
475.84	381.51
476.02	360.44
476.20	433.00
476.38	414.27
476.56	470.45
476.74	397.89
476.92	362.78
477.10	346.40
477.28	451.72
477.46	381.51
477.64	397.89
477.82	386.19
478.00	425.98
478.18	437.68
478.36	397.89
478.54	444.70
478.72	397.89
478.90	402.57
479.08	411.93
479.26	404.91
479.44	388.53
479.62	358.10
479.80	430.66
479.98	461.09
480.16	407.25
480.34	465.77
480.52	397.89
480.70	425.98
480.88	344.06
481.06	341.72
481.24	397.89
481.41	397.89
481.59	442.36
481.77	498.53
481.95	409.59
482.13	365.12
482.31	386.19
482.49	411.93
482.67	365.12
482.85	433.00
483.03	463.43
483.21	425.98
483.39	428.32
483.57	447.04
483.74	447.04
483.92	390.87
484.10	423.64
484.28	442.36
484.46	512.58
484.64	461.09
484.82	465.77
485.00	383.85
485.18	383.85
485.35	414.27
485.53	388.53
485.71	390.87
485.89	383.85
486.07	369.80
486.25	393.21
486.43	409.59
486.61	418.96
486.78	503.22
486.96	360.44
487.14	353.42
487.32	362.78
487.50	388.53
487.68	372.15
487.85	393.21
488.03	360.44
488.21	421.30
488.39	442.36
488.57	374.49
488.75	360.44
488.92	421.30
489.10	465.77
489.28	379.17
489.46	379.17
489.64	395.55
489.81	421.30
489.99	404.91
490.17	404.91
490.35	395.55
490.53	468.11
490.70	411.93
490.88	484.49
491.06	402.57
491.24	449.38
491.41	358.10
491.59	470.45
491.77	390.87
491.95	386.19
492.13	397.89
492.30	388.53
492.48	416.62
492.66	313.63
492.84	395.55
493.01	461.09
493.19	416.62
493.37	493.85
493.54	414.27
493.72	425.98
493.90	430.66
494.08	404.91
494.25	440.02
494.43	437.68
494.61	395.55
494.79	404.91
494.96	425.98
495.14	482.15
495.32	411.93
495.49	458.74
495.67	477.47
495.85	437.68
496.02	407.25
496.20	404.91
496.38	388.53
496.55	463.43
496.73	456.40
496.91	423.64
497.09	388.53
497.26	400.23
497.44	414.27
497.62	400.23
497.79	386.19
497.97	491.51
498.14	386.19
498.32	383.85
498.50	449.38
498.67	381.51
498.85	376.83
499.03	428.32
499.20	409.59
499.38	423.64
499.56	470.45
499.73	386.19
499.91	395.55
500.08	433.00
500.26	393.21
500.44	386.19
500.61	372.15
500.79	388.53
500.97	435.34
501.14	411.93
501.32	386.19
501.49	468.11
501.67	395.55
501.84	390.87
502.02	400.23
502.20	437.68
502.37	381.51
502.55	395.55
502.72	435.34
502.90	404.91
503.07	428.32
503.25	496.19
503.43	360.44
503.60	397.89
503.78	416.62
503.95	430.66
504.13	442.36
504.30	386.19
504.48	458.74
504.65	463.43
504.83	451.72
505.01	503.22
505.18	390.87
505.36	376.83
505.53	386.19
505.71	425.98
505.88	458.74
506.06	421.30
506.23	468.11
506.41	437.68
506.58	430.66
506.76	454.06
506.93	395.55
507.11	388.53
507.28	390.87
507.46	461.09
507.63	414.27
507.81	348.74
507.98	442.36
508.16	425.98
508.33	447.04
508.50	362.78
508.68	367.46
508.85	414.27
509.03	402.57
509.20	458.74
509.38	393.21
509.55	428.32
509.73	360.44
509.90	433.00
510.08	381.51
510.25	346.40
510.42	402.57
510.60	409.59
510.77	404.91
510.95	435.34
511.12	428.32
511.30	390.87
511.47	376.83
511.64	379.17
511.82	449.38
511.99	425.98
512.17	388.53
512.34	386.19
512.51	416.62
512.69	383.85
512.86	444.70
513.04	479.81
513.21	451.72
513.38	404.91
513.56	372.15
513.73	440.02
513.90	327.68
514.08	383.85
514.25	414.27
514.43	402.57
514.60	440.02
514.77	409.59
514.95	337.04
515.12	433.00
515.29	395.55
515.47	428.32
515.64	390.87
515.81	362.78
515.99	456.40
516.16	376.83
516.33	402.57
516.51	447.04
516.68	444.70
516.85	404.91
517.03	437.68
517.20	491.51
517.37	468.11
517.54	430.66
517.72	395.55
517.89	306.61
518.06	365.12
518.24	397.89
518.41	388.53
518.58	465.77
518.75	425.98
518.93	442.36
519.10	447.04
519.27	390.87
519.45	430.66
519.62	479.81
519.79	390.87
519.96	365.12
520.14	372.15
520.31	465.77
520.48	407.25
520.65	416.62
520.83	454.06
521.00	421.30
521.17	496.19
521.34	416.62
521.52	407.25
521.69	463.43
521.86	404.91
522.03	402.57
522.20	416.62
522.38	442.36
522.55	444.70
522.72	416.62
522.89	465.77
523.07	418.96
523.24	400.23
523.41	390.87
523.58	372.15
523.75	395.55
523.92	454.06
524.10	360.44
524.27	414.27
524.44	400.23
524.61	456.40
524.78	444.70
524.96	388.53
525.13	444.70
525.30	472.79
525.47	461.09
525.64	430.66
525.81	341.72
525.98	414.27
526.16	367.46
526.33	470.45
526.50	365.12
526.67	409.59
526.84	369.80
527.01	425.98
527.18	379.17
527.36	344.06
527.53	369.80
527.70	435.34
527.87	360.44
528.04	400.23
528.21	416.62
528.38	423.64
528.55	416.62
528.72	428.32
528.89	458.74
529.07	416.62
529.24	351.08
529.41	416.62
529.58	407.25
529.75	416.62
529.92	454.06
530.09	463.43
530.26	472.79
530.43	461.09
530.60	416.62
530.77	365.12
530.94	386.19
531.11	393.21
531.28	428.32
531.46	440.02
531.63	397.89
531.80	437.68
531.97	425.98
532.14	386.19
532.31	355.76
532.48	355.76
532.65	397.89
532.82	379.17
532.99	402.57
533.16	402.57
533.33	348.74
533.50	379.17
533.67	407.25
533.84	360.44
534.01	351.08
534.18	440.02
534.35	414.27
534.52	463.43
534.69	430.66
534.86	428.32
535.03	346.40
535.20	395.55
535.37	390.87
535.54	400.23
535.71	463.43
535.88	393.21
536.05	458.74
536.22	423.64
536.38	393.21
536.55	461.09
536.72	433.00
536.89	402.57
537.06	463.43
537.23	449.38
537.40	355.76
537.57	449.38
537.74	451.72
537.91	414.27
538.08	458.74
538.25	444.70
538.42	388.53
538.59	409.59
538.75	386.19
538.92	367.46
539.09	409.59
539.26	407.25
539.43	507.90
539.60	414.27
539.77	458.74
539.94	411.93
540.11	461.09
540.28	543.00
540.44	440.02
540.61	435.34
540.78	430.66
540.95	341.72
541.12	372.15
541.29	442.36
541.46	454.06
541.62	437.68
541.79	425.98
541.96	433.00
542.13	402.57
542.30	409.59
542.47	425.98
542.63	444.70
542.80	358.10
542.97	456.40
543.14	421.30
543.31	447.04
543.48	355.76
543.64	440.02
543.81	395.55
543.98	351.08
544.15	423.64
544.32	358.10
544.48	447.04
544.65	355.76
544.82	433.00
544.99	402.57
545.16	411.93
545.32	428.32
545.49	486.83
545.66	447.04
545.83	435.34
546.00	409.59
546.16	433.00
546.33	418.96
546.50	475.13
546.67	454.06
546.83	479.81
547.00	433.00
547.17	374.49
547.34	430.66
547.50	437.68
547.67	451.72
547.84	397.89
548.00	444.70
548.17	423.64
548.34	344.06
548.51	454.06
548.67	355.76
548.84	449.38
549.01	449.38
549.18	468.11
549.34	360.44
549.51	430.66
549.68	418.96
549.84	404.91
550.01	423.64
550.18	496.19
550.34	484.49
550.51	369.80
550.68	472.79
550.84	318.31
551.01	416.62
551.18	414.27
551.34	407.25
551.51	425.98
551.68	374.49
551.84	437.68
552.01	414.27
552.18	435.34
552.34	388.53
552.51	430.66
552.68	397.89
552.84	393.21
553.01	397.89
553.18	372.15
553.34	463.43
553.51	393.21
553.67	430.66
553.84	421.30
554.01	374.49
554.17	465.77
554.34	425.98
554.51	421.30
554.67	395.55
554.84	440.02
555.00	449.38
555.17	402.57
555.33	456.40
555.50	475.13
555.67	447.04
555.83	390.87
556.00	421.30
556.16	606.20
556.33	477.47
556.50	421.30
556.66	433.00
556.83	365.12
556.99	463.43
557.16	390.87
557.32	435.34
557.49	390.87
557.65	428.32
557.82	393.21
557.98	393.21
558.15	348.74
558.32	372.15
558.48	454.06
558.65	444.70
558.81	379.17
558.98	477.47
559.14	374.49
559.31	456.40
559.47	433.00
559.64	388.53
559.80	444.70
559.97	437.68
560.13	437.68
560.30	409.59
560.46	367.46
560.63	414.27
560.79	475.13
560.96	482.15
561.12	409.59
561.29	407.25
561.45	475.13
561.61	475.13
561.78	454.06
561.94	411.93
562.11	411.93
562.27	486.83
562.44	416.62
562.60	390.87
562.77	386.19
562.93	454.06
563.10	421.30
563.26	402.57
563.42	449.38
563.59	416.62
563.75	388.53
563.92	400.23
564.08	379.17
564.24	372.15
564.41	470.45
564.57	433.00
564.74	454.06
564.90	456.40
565.07	383.85
565.23	472.79
565.39	407.25
565.56	421.30
565.72	442.36
565.88	423.64
566.05	386.19
566.21	435.34
566.38	407.25
566.54	348.74
566.70	428.32
566.87	397.89
567.03	379.17
567.19	451.72
567.36	456.40
567.52	468.11
567.68	430.66
567.85	468.11
568.01	461.09
568.17	461.09
568.34	383.85
568.50	454.06
568.66	353.42
568.83	430.66
568.99	433.00
569.15	451.72
569.32	496.19
569.48	386.19
569.64	437.68
569.81	397.89
569.97	344.06
570.13	416.62
570.30	435.34
570.46	386.19
570.62	346.40
570.78	414.27
570.95	444.70
571.11	442.36
571.27	475.13
571.43	390.87
571.60	423.64
571.76	334.70
571.92	407.25
572.09	395.55
572.25	390.87
572.41	521.94
572.57	461.09
572.74	369.80
572.90	440.02
573.06	407.25
573.22	456.40
573.38	425.98
573.55	428.32
573.71	421.30
573.87	393.21
574.03	404.91
574.20	388.53
574.36	411.93
574.52	388.53
574.68	337.04
574.84	435.34
575.01	393.21
575.17	428.32
575.33	456.40
575.49	433.00
575.65	454.06
575.82	444.70
575.98	414.27
576.14	418.96
576.30	411.93
576.46	400.23
576.62	393.21
576.79	433.00
576.95	458.74
577.11	390.87
577.27	348.74
577.43	365.12
577.59	486.83
577.75	369.80
577.92	421.30
578.08	388.53
578.24	451.72
578.40	496.19
578.56	461.09
578.72	491.51
578.88	468.11
579.04	454.06
579.21	437.68
579.37	454.06
579.53	341.72
579.69	449.38
579.85	388.53
580.01	423.64
580.17	468.11
580.33	433.00
580.49	421.30
580.65	428.32
580.82	472.79
580.98	423.64
581.14	414.27
581.30	360.44
581.46	407.25
581.62	414.27
581.78	376.83
581.94	437.68
582.10	397.89
582.26	468.11
582.42	416.62
582.58	393.21
582.74	425.98
582.90	440.02
583.06	430.66
583.22	402.57
583.38	383.85
583.54	402.57
583.70	400.23
583.86	383.85
584.02	435.34
584.18	470.45
584.34	416.62
584.50	456.40
584.66	421.30
584.82	400.23
584.98	353.42
585.14	435.34
585.30	395.55
585.46	433.00
585.62	454.06
585.78	411.93
585.94	454.06
586.10	461.09
586.26	379.17
586.42	472.79
586.58	418.96
586.74	409.59
586.90	397.89
587.06	362.78
587.22	498.53
587.38	407.25
587.54	421.30
587.70	465.77
587.86	407.25
588.02	451.72
588.18	393.21
588.34	416.62
588.49	395.55
588.65	416.62
588.81	393.21
588.97	386.19
589.13	421.30
589.29	414.27
589.45	425.98
589.61	365.12
589.77	428.32
589.93	376.83
590.08	437.68
590.24	428.32
590.40	379.17
590.56	472.79
590.72	397.89
590.88	409.59
591.04	421.30
591.20	369.80
591.35	479.81
591.51	514.92
591.67	454.06
591.83	456.40
591.99	451.72
592.15	447.04
592.31	407.25
592.46	437.68
592.62	372.15
592.78	393.21
592.94	433.00
593.10	444.70
593.26	386.19
593.41	390.87
593.57	386.19
593.73	390.87
593.89	386.19
594.05	435.34
594.20	344.06
594.36	484.49
594.52	435.34
594.68	468.11
594.84	358.10
594.99	374.49
595.15	397.89
595.31	407.25
595.47	491.51
595.62	390.87
595.78	372.15
595.94	376.83
596.10	451.72
596.25	414.27
596.41	416.62
596.57	433.00
596.73	376.83
596.88	372.15
597.04	472.79
597.20	360.44
597.36	407.25
597.51	430.66
597.67	468.11
597.83	409.59
597.99	440.02
598.14	374.49
598.30	465.77
598.46	449.38
598.61	440.02
598.77	479.81
598.93	404.91
599.09	416.62
599.24	369.80
599.40	421.30
599.56	393.21
599.71	404.91
599.87	475.13
600.03	390.87
600.18	383.85
600.34	533.64
600.50	428.32
600.65	425.98
600.81	444.70
600.97	444.70
601.12	472.79
601.28	486.83
601.44	437.68
601.59	402.57
601.75	402.57
601.91	402.57
602.06	411.93
602.22	547.69
602.37	423.64
602.53	425.98
602.69	397.89
602.84	376.83
603.00	430.66
603.16	456.40
603.31	400.23
603.47	414.27
603.62	337.04
603.78	414.27
603.94	430.66
604.09	397.89
604.25	444.70
604.40	449.38
604.56	411.93
604.71	458.74
604.87	465.77
605.03	402.57
605.18	358.10
605.34	428.32
605.49	444.70
605.65	449.38
605.80	402.57
605.96	458.74
606.12	440.02
606.27	416.62
606.43	388.53
606.58	456.40
606.74	454.06
606.89	435.34
607.05	458.74
607.20	409.59
607.36	386.19
607.51	386.19
607.67	425.98
607.82	395.55
607.98	524.28
608.13	393.21
608.29	400.23
608.44	437.68
608.60	416.62
608.75	437.68
608.91	430.66
609.06	493.85
609.22	435.34
609.37	358.10
609.53	344.06
609.68	374.49
609.84	365.12
609.99	390.87
610.15	442.36
