SpectraSuite Data File
++++++++++++++++++++++++++++++++++++
Date: Fri Oct 25 12:10:47 EDT 2013
User: price-jones
Dark Spectrum Present: No
Reference Spectrum Present: No
Number of Sampled Component Spectra: 1
Spectrometers: USB2+H05261
Integration Time (usec): 100000 (USB2+H05261)
Spectra Averaged: 1 (USB2+H05261)
Boxcar Smoothing: 0 (USB2+H05261)
Correct for Electrical Dark: No (USB2+H05261)
Strobe/Lamp Enabled: No (USB2+H05261)
Correct for Detector Non-linearity: No (USB2+H05261)
Correct for Stray Light: No (USB2+H05261)
Number of Pixels in Processed Spectrum: 2048
>>>>>Begin Processed Spectral Data<<<<<
365.73	301.93
365.92	301.93
366.12	301.93
366.32	210.65
366.52	217.67
366.72	227.03
366.91	276.18
367.11	231.71
367.31	236.39
367.51	205.97
367.70	191.92
367.90	315.97
368.10	245.76
368.30	287.89
368.49	276.18
368.69	311.29
368.89	217.67
369.09	243.42
369.28	280.86
369.48	257.46
369.68	252.78
369.87	248.10
370.07	245.76
370.27	341.72
370.47	367.46
370.66	315.97
370.86	351.08
371.06	374.49
371.25	416.62
371.45	383.85
371.65	386.19
371.84	358.10
372.04	390.87
372.24	397.89
372.44	346.40
372.63	411.93
372.83	440.02
373.03	402.57
373.22	421.30
373.42	458.74
373.62	433.00
373.81	437.68
374.01	416.62
374.21	367.46
374.40	425.98
374.60	421.30
374.79	428.32
374.99	367.46
375.19	444.70
375.38	418.96
375.58	337.04
375.78	437.68
375.97	386.19
376.17	477.47
376.37	365.12
376.56	465.77
376.76	440.02
376.95	383.85
377.15	489.17
377.35	409.59
377.54	379.17
377.74	379.17
377.93	339.38
378.13	381.51
378.33	421.30
378.52	407.25
378.72	468.11
378.91	433.00
379.11	381.51
379.31	444.70
379.50	411.93
379.70	493.85
379.89	416.62
380.09	404.91
380.28	367.46
380.48	461.09
380.68	365.12
380.87	421.30
381.07	341.72
381.26	400.23
381.46	397.89
381.65	372.15
381.85	390.87
382.04	407.25
382.24	369.80
382.43	395.55
382.63	421.30
382.83	374.49
383.02	393.21
383.22	397.89
383.41	395.55
383.61	447.04
383.80	423.64
384.00	351.08
384.19	395.55
384.39	407.25
384.58	386.19
384.78	437.68
384.97	393.21
385.17	355.76
385.36	444.70
385.56	414.27
385.75	423.64
385.95	388.53
386.14	383.85
386.34	367.46
386.53	421.30
386.72	353.42
386.92	381.51
387.11	355.76
387.31	409.59
387.50	428.32
387.70	379.17
387.89	404.91
388.09	365.12
388.28	428.32
388.48	351.08
388.67	444.70
388.86	444.70
389.06	493.85
389.25	418.96
389.45	416.62
389.64	346.40
389.84	390.87
390.03	400.23
390.22	395.55
390.42	332.36
390.61	386.19
390.81	369.80
391.00	421.30
391.19	414.27
391.39	404.91
391.58	383.85
391.78	423.64
391.97	367.46
392.16	397.89
392.36	397.89
392.55	475.13
392.75	369.80
392.94	341.72
393.13	437.68
393.33	381.51
393.52	425.98
393.71	416.62
393.91	374.49
394.10	372.15
394.29	393.21
394.49	475.13
394.68	355.76
394.88	435.34
395.07	440.02
395.26	435.34
395.46	395.55
395.65	418.96
395.84	404.91
396.04	489.17
396.23	341.72
396.42	423.64
396.62	479.81
396.81	440.02
397.00	416.62
397.19	346.40
397.39	362.78
397.58	367.46
397.77	409.59
397.97	409.59
398.16	379.17
398.35	425.98
398.55	465.77
398.74	437.68
398.93	421.30
399.12	390.87
399.32	442.36
399.51	395.55
399.70	418.96
399.90	430.66
400.09	465.77
400.28	463.43
400.47	348.74
400.67	491.51
400.86	355.76
401.05	430.66
401.24	470.45
401.44	376.83
401.63	433.00
401.82	454.06
402.01	372.15
402.21	379.17
402.40	416.62
402.59	365.12
402.78	388.53
402.97	479.81
403.17	447.04
403.36	395.55
403.55	400.23
403.74	383.85
403.93	390.87
404.13	444.70
404.32	421.30
404.51	404.91
404.70	390.87
404.89	458.74
405.09	444.70
405.28	390.87
405.47	374.49
405.66	416.62
405.85	409.59
406.05	400.23
406.24	383.85
406.43	407.25
406.62	390.87
406.81	470.45
407.00	416.62
407.20	435.34
407.39	414.27
407.58	402.57
407.77	390.87
407.96	477.47
408.15	447.04
408.34	461.09
408.54	376.83
408.73	428.32
408.92	358.10
409.11	440.02
409.30	444.70
409.49	376.83
409.68	416.62
409.87	348.74
410.07	367.46
410.26	423.64
410.45	388.53
410.64	367.46
410.83	433.00
411.02	390.87
411.21	381.51
411.40	465.77
411.59	390.87
411.78	393.21
411.98	428.32
412.17	344.06
412.36	360.44
412.55	425.98
412.74	379.17
412.93	390.87
413.12	409.59
413.31	428.32
413.50	365.12
413.69	383.85
413.88	463.43
414.07	423.64
414.26	330.02
414.45	425.98
414.64	414.27
414.83	444.70
415.02	379.17
415.22	458.74
415.41	465.77
415.60	435.34
415.79	468.11
415.98	402.57
416.17	447.04
416.36	400.23
416.55	372.15
416.74	440.02
416.93	383.85
417.12	400.23
417.31	418.96
417.50	393.21
417.69	376.83
417.88	407.25
418.07	383.85
418.26	379.17
418.45	407.25
418.64	390.87
418.83	433.00
419.02	437.68
419.21	418.96
419.39	411.93
419.58	395.55
419.77	411.93
419.96	348.74
420.15	418.96
420.34	433.00
420.53	421.30
420.72	381.51
420.91	407.25
421.10	390.87
421.29	374.49
421.48	409.59
421.67	376.83
421.86	379.17
422.05	383.85
422.24	411.93
422.43	388.53
422.61	381.51
422.80	337.04
422.99	491.51
423.18	402.57
423.37	465.77
423.56	400.23
423.75	444.70
423.94	358.10
424.13	416.62
424.32	374.49
424.50	416.62
424.69	425.98
424.88	451.72
425.07	390.87
425.26	425.98
425.45	496.19
425.64	423.64
425.83	404.91
426.01	386.19
426.20	454.06
426.39	386.19
426.58	388.53
426.77	397.89
426.96	416.62
427.15	430.66
427.33	411.93
427.52	435.34
427.71	388.53
427.90	489.17
428.09	376.83
428.28	409.59
428.46	404.91
428.65	451.72
428.84	458.74
429.03	379.17
429.22	425.98
429.40	411.93
429.59	402.57
429.78	383.85
429.97	341.72
430.16	409.59
430.34	524.28
430.53	468.11
430.72	360.44
430.91	498.53
431.10	433.00
431.28	449.38
431.47	353.42
431.66	414.27
431.85	447.04
432.03	376.83
432.22	489.17
432.41	393.21
432.60	386.19
432.79	400.23
432.97	447.04
433.16	461.09
433.35	388.53
433.54	397.89
433.72	355.76
433.91	482.15
434.10	454.06
434.28	407.25
434.47	365.12
434.66	425.98
434.85	388.53
435.03	322.99
435.22	486.83
435.41	416.62
435.59	393.21
435.78	423.64
435.97	311.29
436.16	416.62
436.34	470.45
436.53	376.83
436.72	388.53
436.90	388.53
437.09	379.17
437.28	428.32
437.46	395.55
437.65	421.30
437.84	411.93
438.02	454.06
438.21	393.21
438.40	447.04
438.58	341.72
438.77	416.62
438.96	444.70
439.14	390.87
439.33	442.36
439.52	360.44
439.70	428.32
439.89	311.29
440.08	416.62
440.26	360.44
440.45	491.51
440.63	449.38
440.82	470.45
441.01	411.93
441.19	407.25
441.38	381.51
441.57	402.57
441.75	428.32
441.94	407.25
442.12	433.00
442.31	390.87
442.50	409.59
442.68	404.91
442.87	393.21
443.05	404.91
443.24	425.98
443.43	463.43
443.61	456.40
443.80	472.79
443.98	428.32
444.17	334.70
444.35	484.49
444.54	376.83
444.73	440.02
444.91	423.64
445.10	451.72
445.28	435.34
445.47	411.93
445.65	376.83
445.84	447.04
446.02	411.93
446.21	437.68
446.39	437.68
446.58	386.19
446.77	465.77
446.95	440.02
447.14	418.96
447.32	393.21
447.51	414.27
447.69	421.30
447.88	440.02
448.06	470.45
448.25	423.64
448.43	390.87
448.62	374.49
448.80	365.12
448.99	421.30
449.17	458.74
449.36	381.51
449.54	322.99
449.73	416.62
449.91	374.49
450.10	451.72
450.28	430.66
450.46	538.32
450.65	409.59
450.83	409.59
451.02	362.78
451.20	477.47
451.39	416.62
451.57	435.34
451.76	397.89
451.94	376.83
452.13	465.77
452.31	428.32
452.49	418.96
452.68	365.12
452.86	423.64
453.05	468.11
453.23	376.83
453.42	379.17
453.60	449.38
453.78	414.27
453.97	374.49
454.15	358.10
454.34	404.91
454.52	409.59
454.70	465.77
454.89	442.36
455.07	425.98
455.26	428.32
455.44	491.51
455.62	402.57
455.81	442.36
455.99	435.34
456.17	498.53
456.36	416.62
456.54	416.62
456.73	325.33
456.91	414.27
457.09	430.66
457.28	383.85
457.46	435.34
457.64	428.32
457.83	416.62
458.01	379.17
458.19	414.27
458.38	402.57
458.56	458.74
458.74	397.89
458.93	393.21
459.11	407.25
459.29	383.85
459.48	437.68
459.66	465.77
459.84	491.51
460.03	444.70
460.21	425.98
460.39	388.53
460.57	393.21
460.76	428.32
460.94	449.38
461.12	430.66
461.31	435.34
461.49	524.28
461.67	400.23
461.85	376.83
462.04	346.40
462.22	833.23
462.40	512.58
462.59	411.93
462.77	397.89
462.95	451.72
463.13	346.40
463.32	442.36
463.50	355.76
463.68	463.43
463.86	451.72
464.05	442.36
464.23	470.45
464.41	451.72
464.59	407.25
464.78	388.53
464.96	423.64
465.14	339.38
465.32	404.91
465.50	404.91
465.69	367.46
465.87	421.30
466.05	351.08
466.23	367.46
466.41	409.59
466.60	351.08
466.78	393.21
466.96	503.22
467.14	414.27
467.32	423.64
467.51	500.87
467.69	484.49
467.87	423.64
468.05	414.27
468.23	475.13
468.41	442.36
468.60	404.91
468.78	458.74
468.96	416.62
469.14	425.98
469.32	454.06
469.50	365.12
469.69	414.27
469.87	491.51
470.05	421.30
470.23	468.11
470.41	444.70
470.59	355.76
470.77	447.04
470.95	390.87
471.14	379.17
471.32	428.32
471.50	470.45
471.68	409.59
471.86	407.25
472.04	397.89
472.22	468.11
472.40	404.91
472.58	435.34
472.77	367.46
472.95	402.57
473.13	425.98
473.31	458.74
473.49	447.04
473.67	454.06
473.85	435.34
474.03	458.74
474.21	386.19
474.39	400.23
474.57	421.30
474.75	507.90
474.93	437.68
475.12	327.68
475.30	346.40
475.48	367.46
475.66	479.81
475.84	437.68
476.02	458.74
476.20	468.11
476.38	402.57
476.56	468.11
476.74	383.85
476.92	418.96
477.10	383.85
477.28	395.55
477.46	379.17
477.64	374.49
477.82	435.34
478.00	386.19
478.18	409.59
478.36	435.34
478.54	414.27
478.72	472.79
478.90	435.34
479.08	409.59
479.26	423.64
479.44	449.38
479.62	367.46
479.80	414.27
479.98	372.15
480.16	365.12
480.34	484.49
480.52	353.42
480.70	395.55
480.88	442.36
481.06	372.15
481.24	402.57
481.41	390.87
481.59	458.74
481.77	449.38
481.95	402.57
482.13	454.06
482.31	449.38
482.49	482.15
482.67	428.32
482.85	388.53
483.03	430.66
483.21	411.93
483.39	381.51
483.57	395.55
483.74	437.68
483.92	458.74
484.10	416.62
484.28	447.04
484.46	475.13
484.64	367.46
484.82	372.15
485.00	428.32
485.18	407.25
485.35	421.30
485.53	440.02
485.71	461.09
485.89	353.42
486.07	428.32
486.25	493.85
486.43	409.59
486.61	437.68
486.78	479.81
486.96	437.68
487.14	360.44
487.32	416.62
487.50	337.04
487.68	435.34
487.85	437.68
488.03	388.53
488.21	461.09
488.39	402.57
488.57	440.02
488.75	402.57
488.92	491.51
489.10	388.53
489.28	390.87
489.46	423.64
489.64	451.72
489.81	423.64
489.99	461.09
490.17	402.57
490.35	505.56
490.53	477.47
490.70	393.21
490.88	390.87
491.06	449.38
491.24	395.55
491.41	383.85
491.59	451.72
491.77	386.19
491.95	362.78
492.13	367.46
492.30	428.32
492.48	428.32
492.66	351.08
492.84	367.46
493.01	407.25
493.19	440.02
493.37	397.89
493.54	414.27
493.72	397.89
493.90	400.23
494.08	374.49
494.25	351.08
494.43	386.19
494.61	334.70
494.79	411.93
494.96	454.06
495.14	479.81
495.32	409.59
495.49	489.17
495.67	433.00
495.85	451.72
496.02	440.02
496.20	400.23
496.38	461.09
496.55	425.98
496.73	400.23
496.91	409.59
497.09	458.74
497.26	390.87
497.44	423.64
497.62	456.40
497.79	402.57
497.97	374.49
498.14	479.81
498.32	454.06
498.50	423.64
498.67	383.85
498.85	393.21
499.03	444.70
499.20	388.53
499.38	369.80
499.56	475.13
499.73	416.62
499.91	414.27
500.08	414.27
500.26	411.93
500.44	409.59
500.61	423.64
500.79	430.66
500.97	397.89
501.14	407.25
501.32	440.02
501.49	433.00
501.67	454.06
501.84	425.98
502.02	423.64
502.20	421.30
502.37	461.09
502.55	409.59
502.72	383.85
502.90	414.27
503.07	444.70
503.25	395.55
503.43	369.80
503.60	414.27
503.78	411.93
503.95	376.83
504.13	325.33
504.30	407.25
504.48	465.77
504.65	430.66
504.83	411.93
505.01	365.12
505.18	409.59
505.36	435.34
505.53	351.08
505.71	437.68
505.88	425.98
506.06	388.53
506.23	341.72
506.41	430.66
506.58	454.06
506.76	428.32
506.93	397.89
507.11	433.00
507.28	425.98
507.46	393.21
507.63	430.66
507.81	414.27
507.98	425.98
508.16	451.72
508.33	463.43
508.50	388.53
508.68	369.80
508.85	400.23
509.03	402.57
509.20	379.17
509.38	395.55
509.55	500.87
509.73	421.30
509.90	437.68
510.08	390.87
510.25	383.85
510.42	423.64
510.60	421.30
510.77	458.74
510.95	428.32
511.12	367.46
511.30	477.47
511.47	500.87
511.64	477.47
511.82	435.34
511.99	404.91
512.17	463.43
512.34	388.53
512.51	390.87
512.69	400.23
512.86	423.64
513.04	400.23
513.21	435.34
513.38	447.04
513.56	437.68
513.73	428.32
513.90	475.13
514.08	407.25
514.25	376.83
514.43	376.83
514.60	346.40
514.77	451.72
514.95	418.96
515.12	311.29
515.29	376.83
515.47	404.91
515.64	369.80
515.81	369.80
515.99	475.13
516.16	341.72
516.33	358.10
516.51	376.83
516.68	407.25
516.85	414.27
517.03	444.70
517.20	358.10
517.37	447.04
517.54	411.93
517.72	421.30
517.89	400.23
518.06	339.38
518.24	425.98
518.41	461.09
518.58	428.32
518.75	414.27
518.93	416.62
519.10	442.36
519.27	388.53
519.45	444.70
519.62	416.62
519.79	479.81
519.96	409.59
520.14	428.32
520.31	442.36
520.48	430.66
520.65	437.68
520.83	449.38
521.00	479.81
521.17	404.91
521.34	425.98
521.52	442.36
521.69	404.91
521.86	397.89
522.03	379.17
522.20	418.96
522.38	435.34
522.55	447.04
522.72	374.49
522.89	402.57
523.07	489.17
523.24	433.00
523.41	416.62
523.58	365.12
523.75	451.72
523.92	365.12
524.10	451.72
524.27	423.64
524.44	414.27
524.61	451.72
524.78	411.93
524.96	425.98
525.13	468.11
525.30	484.49
525.47	425.98
525.64	348.74
525.81	428.32
525.98	423.64
526.16	423.64
526.33	404.91
526.50	409.59
526.67	372.15
526.84	346.40
527.01	484.49
527.18	433.00
527.36	332.36
527.53	444.70
527.70	414.27
527.87	351.08
528.04	472.79
528.21	428.32
528.38	332.36
528.55	435.34
528.72	468.11
528.89	463.43
529.07	341.72
529.24	451.72
529.41	444.70
529.58	451.72
529.75	388.53
529.92	383.85
530.09	416.62
530.26	437.68
530.43	313.63
530.60	437.68
530.77	463.43
530.94	411.93
531.11	458.74
531.28	337.04
531.46	369.80
531.63	383.85
531.80	468.11
531.97	440.02
532.14	447.04
532.31	365.12
532.48	416.62
532.65	397.89
532.82	390.87
532.99	433.00
533.16	407.25
533.33	390.87
533.50	390.87
533.67	388.53
533.84	449.38
534.01	362.78
534.18	358.10
534.35	498.53
534.52	372.15
534.69	475.13
534.86	451.72
535.03	451.72
535.20	388.53
535.37	421.30
535.54	479.81
535.71	442.36
535.88	475.13
536.05	465.77
536.22	407.25
536.38	414.27
536.55	372.15
536.72	437.68
536.89	358.10
537.06	325.33
537.23	407.25
537.40	433.00
537.57	374.49
537.74	463.43
537.91	430.66
538.08	337.04
538.25	390.87
538.42	409.59
538.59	435.34
538.75	449.38
538.92	358.10
539.09	442.36
539.26	393.21
539.43	470.45
539.60	456.40
539.77	414.27
539.94	440.02
540.11	440.02
540.28	430.66
540.44	437.68
540.61	407.25
540.78	444.70
540.95	390.87
541.12	414.27
541.29	416.62
541.46	386.19
541.62	414.27
541.79	388.53
541.96	475.13
542.13	383.85
542.30	435.34
542.47	395.55
542.63	404.91
542.80	411.93
542.97	386.19
543.14	393.21
543.31	407.25
543.48	355.76
543.64	451.72
543.81	407.25
543.98	355.76
544.15	348.74
544.32	482.15
544.48	404.91
544.65	428.32
544.82	444.70
544.99	383.85
545.16	423.64
545.32	437.68
545.49	423.64
545.66	425.98
545.83	430.66
546.00	365.12
546.16	470.45
546.33	425.98
546.50	440.02
546.67	411.93
546.83	496.19
547.00	484.49
547.17	400.23
547.34	409.59
547.50	425.98
547.67	447.04
547.84	435.34
548.00	418.96
548.17	461.09
548.34	404.91
548.51	409.59
548.67	411.93
548.84	447.04
549.01	437.68
549.18	414.27
549.34	386.19
549.51	496.19
549.68	395.55
549.84	407.25
550.01	353.42
550.18	447.04
550.34	409.59
550.51	292.57
550.68	461.09
550.84	358.10
551.01	519.60
551.18	421.30
551.34	397.89
551.51	393.21
551.68	402.57
551.84	468.11
552.01	388.53
552.18	383.85
552.34	510.24
552.51	407.25
552.68	468.11
552.84	369.80
553.01	442.36
553.18	369.80
553.34	393.21
553.51	374.49
553.67	395.55
553.84	407.25
554.01	383.85
554.17	449.38
554.34	383.85
554.51	402.57
554.67	461.09
554.84	428.32
555.00	393.21
555.17	496.19
555.33	437.68
555.50	402.57
555.67	477.47
555.83	404.91
556.00	386.19
556.16	531.30
556.33	433.00
556.50	395.55
556.66	421.30
556.83	416.62
556.99	379.17
557.16	369.80
557.32	433.00
557.49	374.49
557.65	379.17
557.82	416.62
557.98	418.96
558.15	437.68
558.32	409.59
558.48	379.17
558.65	374.49
558.81	456.40
558.98	402.57
559.14	435.34
559.31	447.04
559.47	430.66
559.64	428.32
559.80	409.59
559.97	416.62
560.13	383.85
560.30	393.21
560.46	421.30
560.63	381.51
560.79	447.04
560.96	416.62
561.12	334.70
561.29	472.79
561.45	451.72
561.61	402.57
561.78	468.11
561.94	421.30
562.11	337.04
562.27	372.15
562.44	395.55
562.60	430.66
562.77	397.89
562.93	472.79
563.10	447.04
563.26	444.70
563.42	388.53
563.59	411.93
563.75	416.62
563.92	454.06
564.08	456.40
564.24	421.30
564.41	416.62
564.57	360.44
564.74	360.44
564.90	442.36
565.07	444.70
565.23	463.43
565.39	442.36
565.56	475.13
565.72	442.36
565.88	407.25
566.05	414.27
566.21	407.25
566.38	358.10
566.54	418.96
566.70	463.43
566.87	351.08
567.03	386.19
567.19	365.12
567.36	458.74
567.52	376.83
567.68	454.06
567.85	369.80
568.01	388.53
568.17	402.57
568.34	437.68
568.50	484.49
568.66	416.62
568.83	440.02
568.99	475.13
569.15	386.19
569.32	418.96
569.48	376.83
569.64	386.19
569.81	447.04
569.97	449.38
570.13	491.51
570.30	456.40
570.46	397.89
570.62	444.70
570.78	449.38
570.95	421.30
571.11	444.70
571.27	437.68
571.43	442.36
571.60	322.99
571.76	358.10
571.92	430.66
572.09	393.21
572.25	493.85
572.41	376.83
572.57	463.43
572.74	393.21
572.90	409.59
573.06	489.17
573.22	486.83
573.38	472.79
573.55	395.55
573.71	433.00
573.87	433.00
574.03	386.19
574.20	458.74
574.36	472.79
574.52	510.24
574.68	358.10
574.84	458.74
575.01	433.00
575.17	411.93
575.33	351.08
575.49	440.02
575.65	390.87
575.82	472.79
575.98	465.77
576.14	437.68
576.30	437.68
576.46	411.93
576.62	411.93
576.79	433.00
576.95	475.13
577.11	393.21
577.27	440.02
577.43	456.40
577.59	418.96
577.75	386.19
577.92	468.11
578.08	437.68
578.24	479.81
578.40	468.11
578.56	433.00
578.72	407.25
578.88	423.64
579.04	414.27
579.21	425.98
579.37	409.59
579.53	433.00
579.69	407.25
579.85	386.19
580.01	458.74
580.17	337.04
580.33	447.04
580.49	390.87
580.65	458.74
580.82	498.53
580.98	372.15
581.14	390.87
581.30	404.91
581.46	468.11
581.62	444.70
581.78	458.74
581.94	351.08
582.10	346.40
582.26	372.15
582.42	362.78
582.58	379.17
582.74	362.78
582.90	409.59
583.06	475.13
583.22	402.57
583.38	428.32
583.54	334.70
583.70	437.68
583.86	383.85
584.02	477.47
584.18	388.53
584.34	423.64
584.50	433.00
584.66	444.70
584.82	358.10
584.98	360.44
585.14	440.02
585.30	472.79
585.46	348.74
585.62	437.68
585.78	421.30
585.94	440.02
586.10	386.19
586.26	465.77
586.42	407.25
586.58	395.55
586.74	472.79
586.90	425.98
587.06	435.34
587.22	491.51
587.38	472.79
587.54	341.72
587.70	493.85
587.86	521.94
588.02	421.30
588.18	472.79
588.34	437.68
588.49	383.85
588.65	388.53
588.81	423.64
588.97	444.70
589.13	416.62
589.29	395.55
589.45	397.89
589.61	388.53
589.77	416.62
589.93	395.55
590.08	451.72
590.24	428.32
590.40	341.72
590.56	503.22
590.72	407.25
590.88	395.55
591.04	395.55
591.20	449.38
591.35	428.32
591.51	440.02
591.67	376.83
591.83	430.66
591.99	367.46
592.15	458.74
592.31	402.57
592.46	498.53
592.62	430.66
592.78	383.85
592.94	379.17
593.10	416.62
593.26	393.21
593.41	454.06
593.57	444.70
593.73	381.51
593.89	376.83
594.05	351.08
594.20	376.83
594.36	447.04
594.52	365.12
594.68	369.80
594.84	421.30
594.99	346.40
595.15	484.49
595.31	430.66
595.47	360.44
595.62	404.91
595.78	369.80
595.94	346.40
596.10	449.38
596.25	386.19
596.41	458.74
596.57	411.93
596.73	404.91
596.88	458.74
597.04	423.64
597.20	386.19
597.36	451.72
597.51	425.98
597.67	393.21
597.83	442.36
597.99	451.72
598.14	479.81
598.30	493.85
598.46	409.59
598.61	451.72
598.77	402.57
598.93	411.93
599.09	362.78
599.24	442.36
599.40	472.79
599.56	409.59
599.71	376.83
599.87	367.46
600.03	301.93
600.18	416.62
600.34	372.15
600.50	437.68
600.65	411.93
600.81	404.91
600.97	465.77
601.12	428.32
601.28	451.72
601.44	414.27
601.59	346.40
601.75	421.30
601.91	390.87
602.06	411.93
602.22	451.72
602.37	461.09
602.53	440.02
602.69	395.55
602.84	454.06
603.00	393.21
603.16	428.32
603.31	411.93
603.47	451.72
603.62	411.93
603.78	418.96
603.94	428.32
604.09	425.98
604.25	435.34
604.40	393.21
604.56	418.96
604.71	430.66
604.87	381.51
605.03	397.89
605.18	435.34
605.34	491.51
605.49	468.11
605.65	437.68
605.80	372.15
605.96	465.77
606.12	493.85
606.27	454.06
606.43	428.32
606.58	437.68
606.74	395.55
606.89	381.51
607.05	411.93
607.20	409.59
607.36	442.36
607.51	423.64
607.67	407.25
607.82	409.59
607.98	440.02
608.13	475.13
608.29	407.25
608.44	376.83
608.60	372.15
608.75	393.21
608.91	447.04
609.06	397.89
609.22	409.59
609.37	386.19
609.53	360.44
609.68	437.68
609.84	437.68
609.99	407.25
610.15	414.27
