SpectraSuite Data File
++++++++++++++++++++++++++++++++++++
Date: Fri Oct 25 12:11:32 EDT 2013
User: price-jones
Dark Spectrum Present: No
Reference Spectrum Present: No
Number of Sampled Component Spectra: 1
Spectrometers: USB2+H05261
Integration Time (usec): 100000 (USB2+H05261)
Spectra Averaged: 1 (USB2+H05261)
Boxcar Smoothing: 0 (USB2+H05261)
Correct for Electrical Dark: No (USB2+H05261)
Strobe/Lamp Enabled: No (USB2+H05261)
Correct for Detector Non-linearity: No (USB2+H05261)
Correct for Stray Light: No (USB2+H05261)
Number of Pixels in Processed Spectrum: 2048
>>>>>Begin Processed Spectral Data<<<<<
365.73	330.02
365.92	330.02
366.12	330.02
366.32	313.63
366.52	205.97
366.72	285.55
366.91	208.31
367.11	208.31
367.31	266.82
367.51	238.73
367.70	259.80
367.90	184.90
368.10	273.84
368.30	205.97
368.49	224.69
368.69	294.91
368.89	229.37
369.09	269.16
369.28	346.40
369.48	248.10
369.68	311.29
369.87	285.55
370.07	262.14
370.27	259.80
370.47	353.42
370.66	344.06
370.86	355.76
371.06	407.25
371.25	383.85
371.45	346.40
371.65	402.57
371.84	376.83
372.04	383.85
372.24	402.57
372.44	395.55
372.63	507.90
372.83	470.45
373.03	425.98
373.22	437.68
373.42	344.06
373.62	374.49
373.81	383.85
374.01	400.23
374.21	402.57
374.40	351.08
374.60	437.68
374.79	360.44
374.99	376.83
375.19	440.02
375.38	463.43
375.58	402.57
375.78	496.19
375.97	397.89
376.17	433.00
376.37	416.62
376.56	425.98
376.76	437.68
376.95	461.09
377.15	372.15
377.35	428.32
377.54	381.51
377.74	451.72
377.93	372.15
378.13	444.70
378.33	482.15
378.52	423.64
378.72	362.78
378.91	468.11
379.11	395.55
379.31	318.31
379.50	383.85
379.70	421.30
379.89	491.51
380.09	409.59
380.28	358.10
380.48	482.15
380.68	369.80
380.87	421.30
381.07	418.96
381.26	437.68
381.46	390.87
381.65	402.57
381.85	367.46
382.04	449.38
382.24	388.53
382.43	393.21
382.63	393.21
382.83	470.45
383.02	397.89
383.22	430.66
383.41	482.15
383.61	472.79
383.80	358.10
384.00	360.44
384.19	425.98
384.39	421.30
384.58	409.59
384.78	451.72
384.97	449.38
385.17	388.53
385.36	355.76
385.56	425.98
385.75	346.40
385.95	409.59
386.14	400.23
386.34	470.45
386.53	430.66
386.72	379.17
386.92	400.23
387.11	435.34
387.31	433.00
387.50	393.21
387.70	402.57
387.89	479.81
388.09	381.51
388.28	358.10
388.48	456.40
388.67	402.57
388.86	320.65
389.06	425.98
389.25	433.00
389.45	362.78
389.64	456.40
389.84	423.64
390.03	454.06
390.22	348.74
390.42	339.38
390.61	402.57
390.81	386.19
391.00	430.66
391.19	430.66
391.39	423.64
391.58	425.98
391.78	435.34
391.97	383.85
392.16	322.99
392.36	397.89
392.55	416.62
392.75	435.34
392.94	381.51
393.13	444.70
393.33	393.21
393.52	404.91
393.71	411.93
393.91	430.66
394.10	397.89
394.29	355.76
394.49	341.72
394.68	404.91
394.88	414.27
395.07	423.64
395.26	374.49
395.46	369.80
395.65	393.21
395.84	407.25
396.04	425.98
396.23	358.10
396.42	442.36
396.62	503.22
396.81	397.89
397.00	372.15
397.19	379.17
397.39	332.36
397.58	430.66
397.77	416.62
397.97	475.13
398.16	428.32
398.35	409.59
398.55	465.77
398.74	383.85
398.93	418.96
399.12	416.62
399.32	376.83
399.51	430.66
399.70	374.49
399.90	393.21
400.09	470.45
400.28	395.55
400.47	379.17
400.67	362.78
400.86	435.34
401.05	330.02
401.24	425.98
401.44	425.98
401.63	433.00
401.82	442.36
402.01	423.64
402.21	428.32
402.40	449.38
402.59	390.87
402.78	348.74
402.97	409.59
403.17	374.49
403.36	421.30
403.55	416.62
403.74	318.31
403.93	421.30
404.13	374.49
404.32	440.02
404.51	322.99
404.70	374.49
404.89	320.65
405.09	442.36
405.28	339.38
405.47	353.42
405.66	362.78
405.85	402.57
406.05	454.06
406.24	482.15
406.43	409.59
406.62	449.38
406.81	491.51
407.00	416.62
407.20	435.34
407.39	337.04
407.58	390.87
407.77	395.55
407.96	372.15
408.15	451.72
408.34	454.06
408.54	444.70
408.73	386.19
408.92	386.19
409.11	437.68
409.30	498.53
409.49	418.96
409.68	425.98
409.87	449.38
410.07	383.85
410.26	409.59
410.45	395.55
410.64	414.27
410.83	365.12
411.02	404.91
411.21	454.06
411.40	468.11
411.59	362.78
411.78	437.68
411.98	383.85
412.17	334.70
412.36	423.64
412.55	435.34
412.74	503.22
412.93	458.74
413.12	365.12
413.31	390.87
413.50	360.44
413.69	433.00
413.88	489.17
414.07	447.04
414.26	341.72
414.45	463.43
414.64	421.30
414.83	451.72
415.02	381.51
415.22	402.57
415.41	365.12
415.60	433.00
415.79	390.87
415.98	433.00
416.17	351.08
416.36	418.96
416.55	425.98
416.74	482.15
416.93	390.87
417.12	402.57
417.31	376.83
417.50	430.66
417.69	440.02
417.88	393.21
418.07	365.12
418.26	397.89
418.45	376.83
418.64	404.91
418.83	381.51
419.02	449.38
419.21	386.19
419.39	388.53
419.58	454.06
419.77	344.06
419.96	404.91
420.15	456.40
420.34	372.15
420.53	461.09
420.72	400.23
420.91	447.04
421.10	442.36
421.29	369.80
421.48	341.72
421.67	416.62
421.86	435.34
422.05	379.17
422.24	418.96
422.43	397.89
422.61	411.93
422.80	430.66
422.99	367.46
423.18	437.68
423.37	437.68
423.56	374.49
423.75	430.66
423.94	470.45
424.13	402.57
424.32	411.93
424.50	404.91
424.69	425.98
424.88	456.40
425.07	381.51
425.26	344.06
425.45	376.83
425.64	435.34
425.83	447.04
426.01	475.13
426.20	454.06
426.39	428.32
426.58	397.89
426.77	372.15
426.96	409.59
427.15	468.11
427.33	409.59
427.52	461.09
427.71	395.55
427.90	395.55
428.09	411.93
428.28	376.83
428.46	390.87
428.65	397.89
428.84	409.59
429.03	498.53
429.22	355.76
429.40	383.85
429.59	358.10
429.78	456.40
429.97	437.68
430.16	425.98
430.34	355.76
430.53	372.15
430.72	437.68
430.91	402.57
431.10	372.15
431.28	390.87
431.47	430.66
431.66	355.76
431.85	416.62
432.03	402.57
432.22	430.66
432.41	486.83
432.60	430.66
432.79	341.72
432.97	397.89
433.16	449.38
433.35	416.62
433.54	414.27
433.72	360.44
433.91	404.91
434.10	348.74
434.28	320.65
434.47	472.79
434.66	376.83
434.85	395.55
435.03	379.17
435.22	458.74
435.41	440.02
435.59	500.87
435.78	444.70
435.97	332.36
436.16	414.27
436.34	430.66
436.53	430.66
436.72	407.25
436.90	430.66
437.09	397.89
437.28	479.81
437.46	454.06
437.65	421.30
437.84	449.38
438.02	395.55
438.21	433.00
438.40	372.15
438.58	449.38
438.77	351.08
438.96	414.27
439.14	416.62
439.33	458.74
439.52	423.64
439.70	411.93
439.89	414.27
440.08	425.98
440.26	442.36
440.45	416.62
440.63	418.96
440.82	395.55
441.01	404.91
441.19	404.91
441.38	397.89
441.57	320.65
441.75	447.04
441.94	437.68
442.12	440.02
442.31	486.83
442.50	404.91
442.68	325.33
442.87	409.59
443.05	416.62
443.24	437.68
443.43	416.62
443.61	355.76
443.80	346.40
443.98	503.22
444.17	388.53
444.35	411.93
444.54	372.15
444.73	430.66
444.91	461.09
445.10	386.19
445.28	397.89
445.47	379.17
445.65	400.23
445.84	418.96
446.02	477.47
446.21	376.83
446.39	442.36
446.58	465.77
446.77	428.32
446.95	393.21
447.14	386.19
447.32	454.06
447.51	390.87
447.69	447.04
447.88	477.47
448.06	437.68
448.25	395.55
448.43	360.44
448.62	358.10
448.80	358.10
448.99	397.89
449.17	442.36
449.36	451.72
449.54	503.22
449.73	346.40
449.91	465.77
450.10	435.34
450.28	407.25
450.46	379.17
450.65	388.53
450.83	400.23
451.02	414.27
451.20	489.17
451.39	383.85
451.57	428.32
451.76	376.83
451.94	477.47
452.13	428.32
452.31	475.13
452.49	341.72
452.68	414.27
452.86	287.89
453.05	442.36
453.23	477.47
453.42	402.57
453.60	454.06
453.78	421.30
453.97	390.87
454.15	400.23
454.34	407.25
454.52	358.10
454.70	437.68
454.89	444.70
455.07	360.44
455.26	367.46
455.44	397.89
455.62	409.59
455.81	407.25
455.99	421.30
456.17	458.74
456.36	437.68
456.54	463.43
456.73	395.55
456.91	393.21
457.09	407.25
457.28	423.64
457.46	351.08
457.64	470.45
457.83	386.19
458.01	489.17
458.19	433.00
458.38	465.77
458.56	428.32
458.74	381.51
458.93	409.59
459.11	451.72
459.29	353.42
459.48	440.02
459.66	463.43
459.84	444.70
460.03	543.00
460.21	447.04
460.39	430.66
460.57	472.79
460.76	348.74
460.94	451.72
461.12	484.49
461.31	402.57
461.49	388.53
461.67	374.49
461.85	447.04
462.04	325.33
462.22	840.25
462.40	458.74
462.59	402.57
462.77	458.74
462.95	533.64
463.13	390.87
463.32	388.53
463.50	440.02
463.68	372.15
463.86	444.70
464.05	395.55
464.23	376.83
464.41	458.74
464.59	358.10
464.78	386.19
464.96	425.98
465.14	360.44
465.32	451.72
465.50	400.23
465.69	498.53
465.87	402.57
466.05	390.87
466.23	383.85
466.41	468.11
466.60	414.27
466.78	374.49
466.96	423.64
467.14	458.74
467.32	440.02
467.51	409.59
467.69	456.40
467.87	482.15
468.05	395.55
468.23	461.09
468.41	484.49
468.60	311.29
468.78	437.68
468.96	454.06
469.14	458.74
469.32	449.38
469.50	421.30
469.69	390.87
469.87	353.42
470.05	454.06
470.23	465.77
470.41	416.62
470.59	386.19
470.77	418.96
470.95	379.17
471.14	428.32
471.32	388.53
471.50	400.23
471.68	423.64
471.86	390.87
472.04	383.85
472.22	468.11
472.40	421.30
472.58	449.38
472.77	496.19
472.95	355.76
473.13	463.43
473.31	414.27
473.49	395.55
473.67	447.04
473.85	456.40
474.03	393.21
474.21	386.19
474.39	493.85
474.57	423.64
474.75	400.23
474.93	423.64
475.12	369.80
475.30	355.76
475.48	376.83
475.66	365.12
475.84	409.59
476.02	442.36
476.20	395.55
476.38	407.25
476.56	386.19
476.74	421.30
476.92	442.36
477.10	341.72
477.28	437.68
477.46	400.23
477.64	421.30
477.82	374.49
478.00	383.85
478.18	381.51
478.36	437.68
478.54	386.19
478.72	437.68
478.90	374.49
479.08	411.93
479.26	451.72
479.44	461.09
479.62	423.64
479.80	332.36
479.98	409.59
480.16	351.08
480.34	397.89
480.52	388.53
480.70	407.25
480.88	435.34
481.06	421.30
481.24	437.68
481.41	425.98
481.59	458.74
481.77	440.02
481.95	379.17
482.13	379.17
482.31	416.62
482.49	369.80
482.67	444.70
482.85	454.06
483.03	451.72
483.21	390.87
483.39	386.19
483.57	421.30
483.74	447.04
483.92	430.66
484.10	365.12
484.28	470.45
484.46	470.45
484.64	379.17
484.82	437.68
485.00	388.53
485.18	397.89
485.35	414.27
485.53	428.32
485.71	430.66
485.89	358.10
486.07	428.32
486.25	435.34
486.43	418.96
486.61	493.85
486.78	475.13
486.96	341.72
487.14	468.11
487.32	381.51
487.50	435.34
487.68	388.53
487.85	400.23
488.03	470.45
488.21	444.70
488.39	444.70
488.57	451.72
488.75	428.32
488.92	498.53
489.10	454.06
489.28	442.36
489.46	404.91
489.64	367.46
489.81	470.45
489.99	423.64
490.17	458.74
490.35	475.13
490.53	390.87
490.70	435.34
490.88	428.32
491.06	407.25
491.24	395.55
491.41	383.85
491.59	444.70
491.77	360.44
491.95	430.66
492.13	437.68
492.30	456.40
492.48	414.27
492.66	500.87
492.84	435.34
493.01	465.77
493.19	404.91
493.37	437.68
493.54	486.83
493.72	465.77
493.90	444.70
494.08	423.64
494.25	388.53
494.43	365.12
494.61	425.98
494.79	372.15
494.96	428.32
495.14	456.40
495.32	407.25
495.49	479.81
495.67	421.30
495.85	447.04
496.02	334.70
496.20	458.74
496.38	454.06
496.55	407.25
496.73	414.27
496.91	337.04
497.09	482.15
497.26	475.13
497.44	393.21
497.62	425.98
497.79	414.27
497.97	367.46
498.14	421.30
498.32	360.44
498.50	425.98
498.67	372.15
498.85	365.12
499.03	381.51
499.20	388.53
499.38	407.25
499.56	421.30
499.73	498.53
499.91	465.77
500.08	365.12
500.26	437.68
500.44	383.85
500.61	433.00
500.79	451.72
500.97	468.11
501.14	433.00
501.32	400.23
501.49	447.04
501.67	433.00
501.84	486.83
502.02	318.31
502.20	444.70
502.37	433.00
502.55	507.90
502.72	430.66
502.90	505.56
503.07	369.80
503.25	365.12
503.43	407.25
503.60	374.49
503.78	360.44
503.95	433.00
504.13	402.57
504.30	404.91
504.48	484.49
504.65	411.93
504.83	400.23
505.01	430.66
505.18	428.32
505.36	461.09
505.53	444.70
505.71	388.53
505.88	486.83
506.06	449.38
506.23	393.21
506.41	411.93
506.58	353.42
506.76	407.25
506.93	400.23
507.11	397.89
507.28	404.91
507.46	435.34
507.63	397.89
507.81	367.46
507.98	400.23
508.16	397.89
508.33	454.06
508.50	379.17
508.68	433.00
508.85	421.30
509.03	388.53
509.20	395.55
509.38	416.62
509.55	411.93
509.73	461.09
509.90	390.87
510.08	484.49
510.25	479.81
510.42	400.23
510.60	435.34
510.77	390.87
510.95	449.38
511.12	395.55
511.30	442.36
511.47	407.25
511.64	524.28
511.82	454.06
511.99	416.62
512.17	440.02
512.34	346.40
512.51	430.66
512.69	430.66
512.86	421.30
513.04	430.66
513.21	390.87
513.38	463.43
513.56	423.64
513.73	421.30
513.90	435.34
514.08	402.57
514.25	409.59
514.43	444.70
514.60	386.19
514.77	402.57
514.95	390.87
515.12	376.83
515.29	472.79
515.47	409.59
515.64	395.55
515.81	402.57
515.99	500.87
516.16	435.34
516.33	421.30
516.51	390.87
516.68	379.17
516.85	407.25
517.03	447.04
517.20	400.23
517.37	360.44
517.54	395.55
517.72	390.87
517.89	339.38
518.06	388.53
518.24	484.49
518.41	496.19
518.58	442.36
518.75	407.25
518.93	442.36
519.10	468.11
519.27	393.21
519.45	397.89
519.62	400.23
519.79	383.85
519.96	365.12
520.14	428.32
520.31	451.72
520.48	465.77
520.65	472.79
520.83	458.74
521.00	442.36
521.17	440.02
521.34	409.59
521.52	376.83
521.69	278.52
521.86	409.59
522.03	484.49
522.20	409.59
522.38	390.87
522.55	388.53
522.72	393.21
522.89	409.59
523.07	390.87
523.24	395.55
523.41	416.62
523.58	428.32
523.75	313.63
523.92	353.42
524.10	365.12
524.27	428.32
524.44	423.64
524.61	411.93
524.78	362.78
524.96	414.27
525.13	381.51
525.30	486.83
525.47	367.46
525.64	442.36
525.81	407.25
525.98	400.23
526.16	440.02
526.33	327.68
526.50	411.93
526.67	437.68
526.84	407.25
527.01	376.83
527.18	379.17
527.36	402.57
527.53	395.55
527.70	435.34
527.87	409.59
528.04	433.00
528.21	388.53
528.38	416.62
528.55	498.53
528.72	468.11
528.89	503.22
529.07	411.93
529.24	409.59
529.41	507.90
529.58	414.27
529.75	435.34
529.92	425.98
530.09	463.43
530.26	451.72
530.43	463.43
530.60	388.53
530.77	425.98
530.94	428.32
531.11	430.66
531.28	381.51
531.46	456.40
531.63	400.23
531.80	376.83
531.97	393.21
532.14	442.36
532.31	386.19
532.48	437.68
532.65	395.55
532.82	451.72
532.99	418.96
533.16	449.38
533.33	433.00
533.50	388.53
533.67	388.53
533.84	411.93
534.01	362.78
534.18	421.30
534.35	447.04
534.52	423.64
534.69	358.10
534.86	411.93
535.03	400.23
535.20	404.91
535.37	442.36
535.54	433.00
535.71	465.77
535.88	421.30
536.05	374.49
536.22	407.25
536.38	404.91
536.55	449.38
536.72	414.27
536.89	388.53
537.06	414.27
537.23	423.64
537.40	437.68
537.57	383.85
537.74	383.85
537.91	407.25
538.08	337.04
538.25	423.64
538.42	437.68
538.59	418.96
538.75	395.55
538.92	444.70
539.09	451.72
539.26	379.17
539.43	395.55
539.60	463.43
539.77	442.36
539.94	433.00
540.11	400.23
540.28	475.13
540.44	470.45
540.61	400.23
540.78	433.00
540.95	344.06
541.12	442.36
541.29	379.17
541.46	449.38
541.62	451.72
541.79	437.68
541.96	437.68
542.13	425.98
542.30	318.31
542.47	484.49
542.63	409.59
542.80	402.57
542.97	482.15
543.14	393.21
543.31	433.00
543.48	411.93
543.64	360.44
543.81	362.78
543.98	451.72
544.15	482.15
544.32	358.10
544.48	402.57
544.65	365.12
544.82	454.06
544.99	456.40
545.16	428.32
545.32	486.83
545.49	395.55
545.66	416.62
545.83	379.17
546.00	447.04
546.16	402.57
546.33	402.57
546.50	425.98
546.67	447.04
546.83	451.72
547.00	491.51
547.17	395.55
547.34	390.87
547.50	383.85
547.67	388.53
547.84	418.96
548.00	388.53
548.17	433.00
548.34	402.57
548.51	416.62
548.67	360.44
548.84	325.33
549.01	433.00
549.18	362.78
549.34	440.02
549.51	411.93
549.68	447.04
549.84	433.00
550.01	393.21
550.18	470.45
550.34	425.98
550.51	395.55
550.68	416.62
550.84	374.49
551.01	355.76
551.18	477.47
551.34	400.23
551.51	355.76
551.68	360.44
551.84	418.96
552.01	461.09
552.18	423.64
552.34	353.42
552.51	404.91
552.68	425.98
552.84	395.55
553.01	421.30
553.18	416.62
553.34	393.21
553.51	418.96
553.67	458.74
553.84	465.77
554.01	440.02
554.17	507.90
554.34	425.98
554.51	402.57
554.67	409.59
554.84	442.36
555.00	442.36
555.17	430.66
555.33	397.89
555.50	397.89
555.67	421.30
555.83	393.21
556.00	386.19
556.16	454.06
556.33	517.26
556.50	484.49
556.66	376.83
556.83	449.38
556.99	402.57
557.16	334.70
557.32	362.78
557.49	386.19
557.65	397.89
557.82	465.77
557.98	442.36
558.15	479.81
558.32	355.76
558.48	423.64
558.65	435.34
558.81	435.34
558.98	379.17
559.14	418.96
559.31	421.30
559.47	440.02
559.64	454.06
559.80	444.70
559.97	379.17
560.13	435.34
560.30	395.55
560.46	440.02
560.63	456.40
560.79	421.30
560.96	393.21
561.12	423.64
561.29	414.27
561.45	465.77
561.61	411.93
561.78	463.43
561.94	456.40
562.11	440.02
562.27	360.44
562.44	484.49
562.60	489.17
562.77	402.57
562.93	475.13
563.10	362.78
563.26	397.89
563.42	407.25
563.59	440.02
563.75	442.36
563.92	425.98
564.08	461.09
564.24	372.15
564.41	486.83
564.57	358.10
564.74	447.04
564.90	470.45
565.07	379.17
565.23	397.89
565.39	451.72
565.56	423.64
565.72	423.64
565.88	447.04
566.05	369.80
566.21	437.68
566.38	423.64
566.54	393.21
566.70	435.34
566.87	418.96
567.03	381.51
567.19	414.27
567.36	456.40
567.52	383.85
567.68	482.15
567.85	430.66
568.01	451.72
568.17	400.23
568.34	444.70
568.50	351.08
568.66	404.91
568.83	482.15
568.99	379.17
569.15	423.64
569.32	383.85
569.48	475.13
569.64	404.91
569.81	411.93
569.97	379.17
570.13	496.19
570.30	425.98
570.46	390.87
570.62	437.68
570.78	418.96
570.95	330.02
571.11	435.34
571.27	386.19
571.43	400.23
571.60	416.62
571.76	404.91
571.92	475.13
572.09	435.34
572.25	369.80
572.41	339.38
572.57	383.85
572.74	465.77
572.90	365.12
573.06	360.44
573.22	433.00
573.38	454.06
573.55	369.80
573.71	442.36
573.87	369.80
574.03	400.23
574.20	428.32
574.36	449.38
574.52	381.51
574.68	376.83
574.84	428.32
575.01	433.00
575.17	437.68
575.33	407.25
575.49	440.02
575.65	383.85
575.82	402.57
575.98	423.64
576.14	365.12
576.30	423.64
576.46	418.96
576.62	365.12
576.79	409.59
576.95	397.89
577.11	425.98
577.27	421.30
577.43	447.04
577.59	465.77
577.75	454.06
577.92	360.44
578.08	407.25
578.24	362.78
578.40	468.11
578.56	468.11
578.72	519.60
578.88	376.83
579.04	379.17
579.21	393.21
579.37	379.17
579.53	395.55
579.69	456.40
579.85	402.57
580.01	400.23
580.17	418.96
580.33	430.66
580.49	369.80
580.65	463.43
580.82	400.23
580.98	409.59
581.14	430.66
581.30	430.66
581.46	423.64
581.62	444.70
581.78	463.43
581.94	404.91
582.10	425.98
582.26	402.57
582.42	348.74
582.58	407.25
582.74	395.55
582.90	304.27
583.06	351.08
583.22	421.30
583.38	402.57
583.54	304.27
583.70	423.64
583.86	407.25
584.02	451.72
584.18	454.06
584.34	402.57
584.50	369.80
584.66	463.43
584.82	346.40
584.98	379.17
585.14	365.12
585.30	388.53
585.46	449.38
585.62	454.06
585.78	414.27
585.94	400.23
586.10	404.91
586.26	437.68
586.42	411.93
586.58	510.24
586.74	461.09
586.90	360.44
587.06	383.85
587.22	404.91
587.38	395.55
587.54	444.70
587.70	402.57
587.86	456.40
588.02	442.36
588.18	376.83
588.34	395.55
588.49	372.15
588.65	400.23
588.81	390.87
588.97	414.27
589.13	390.87
589.29	458.74
589.45	416.62
589.61	423.64
589.77	407.25
589.93	444.70
590.08	400.23
590.24	367.46
590.40	430.66
590.56	444.70
590.72	458.74
590.88	355.76
591.04	475.13
591.20	402.57
591.35	451.72
591.51	472.79
591.67	454.06
591.83	358.10
591.99	430.66
592.15	435.34
592.31	351.08
592.46	416.62
592.62	383.85
592.78	386.19
592.94	454.06
593.10	414.27
593.26	409.59
593.41	372.15
593.57	454.06
593.73	479.81
593.89	414.27
594.05	449.38
594.20	428.32
594.36	482.15
594.52	353.42
594.68	409.59
594.84	451.72
594.99	400.23
595.15	465.77
595.31	463.43
595.47	383.85
595.62	393.21
595.78	409.59
595.94	409.59
596.10	430.66
596.25	449.38
596.41	409.59
596.57	461.09
596.73	456.40
596.88	451.72
597.04	437.68
597.20	433.00
597.36	372.15
597.51	393.21
597.67	374.49
597.83	409.59
597.99	348.74
598.14	393.21
598.30	454.06
598.46	386.19
598.61	421.30
598.77	437.68
598.93	414.27
599.09	376.83
599.24	346.40
599.40	489.17
599.56	358.10
599.71	425.98
599.87	400.23
600.03	435.34
600.18	367.46
600.34	440.02
600.50	418.96
600.65	334.70
600.81	437.68
600.97	360.44
601.12	395.55
601.28	463.43
601.44	381.51
601.59	379.17
601.75	421.30
601.91	383.85
602.06	416.62
602.22	351.08
602.37	440.02
602.53	435.34
602.69	402.57
602.84	334.70
603.00	414.27
603.16	421.30
603.31	418.96
603.47	402.57
603.62	409.59
603.78	491.51
603.94	510.24
604.09	400.23
604.25	428.32
604.40	386.19
604.56	353.42
604.71	430.66
604.87	444.70
605.03	430.66
605.18	433.00
605.34	456.40
605.49	397.89
605.65	386.19
605.80	437.68
605.96	418.96
606.12	414.27
606.27	411.93
606.43	496.19
606.58	435.34
606.74	442.36
606.89	423.64
607.05	496.19
607.20	407.25
607.36	386.19
607.51	500.87
607.67	404.91
607.82	367.46
607.98	383.85
608.13	411.93
608.29	395.55
608.44	428.32
608.60	407.25
608.75	449.38
608.91	440.02
609.06	428.32
609.22	484.49
609.37	449.38
609.53	425.98
609.68	372.15
609.84	365.12
609.99	369.80
610.15	407.25
