SpectraSuite Data File
++++++++++++++++++++++++++++++++++++
Date: Fri Oct 25 12:10:05 EDT 2013
User: price-jones
Dark Spectrum Present: No
Reference Spectrum Present: No
Number of Sampled Component Spectra: 1
Spectrometers: USB2+H05261
Integration Time (usec): 100000 (USB2+H05261)
Spectra Averaged: 1 (USB2+H05261)
Boxcar Smoothing: 0 (USB2+H05261)
Correct for Electrical Dark: No (USB2+H05261)
Strobe/Lamp Enabled: No (USB2+H05261)
Correct for Detector Non-linearity: No (USB2+H05261)
Correct for Stray Light: No (USB2+H05261)
Number of Pixels in Processed Spectrum: 2048
>>>>>Begin Processed Spectral Data<<<<<
365.73	311.29
365.92	311.29
366.12	311.29
366.32	306.61
366.52	287.89
366.72	234.05
366.91	257.46
367.11	250.44
367.31	264.48
367.51	257.46
367.70	208.31
367.90	208.31
368.10	231.71
368.30	224.69
368.49	196.60
368.69	229.37
368.89	271.50
369.09	241.08
369.28	224.69
369.48	257.46
369.68	248.10
369.87	269.16
370.07	358.10
370.27	327.68
370.47	341.72
370.66	318.31
370.86	362.78
371.06	390.87
371.25	348.74
371.45	311.29
371.65	416.62
371.84	404.91
372.04	404.91
372.24	395.55
372.44	423.64
372.63	444.70
372.83	362.78
373.03	400.23
373.22	386.19
373.42	374.49
373.62	421.30
373.81	414.27
374.01	425.98
374.21	440.02
374.40	374.49
374.60	407.25
374.79	433.00
374.99	447.04
375.19	440.02
375.38	456.40
375.58	372.15
375.78	421.30
375.97	414.27
376.17	454.06
376.37	430.66
376.56	407.25
376.76	435.34
376.95	421.30
377.15	475.13
377.35	407.25
377.54	407.25
377.74	407.25
377.93	411.93
378.13	449.38
378.33	407.25
378.52	374.49
378.72	418.96
378.91	442.36
379.11	430.66
379.31	442.36
379.50	346.40
379.70	444.70
379.89	400.23
380.09	386.19
380.28	369.80
380.48	355.76
380.68	348.74
380.87	418.96
381.07	493.85
381.26	362.78
381.46	416.62
381.65	416.62
381.85	416.62
382.04	381.51
382.24	440.02
382.43	358.10
382.63	444.70
382.83	447.04
383.02	358.10
383.22	383.85
383.41	411.93
383.61	383.85
383.80	315.97
384.00	334.70
384.19	369.80
384.39	395.55
384.58	421.30
384.78	388.53
384.97	449.38
385.17	355.76
385.36	435.34
385.56	440.02
385.75	383.85
385.95	428.32
386.14	381.51
386.34	416.62
386.53	421.30
386.72	418.96
386.92	411.93
387.11	409.59
387.31	435.34
387.50	402.57
387.70	353.42
387.89	407.25
388.09	339.38
388.28	444.70
388.48	461.09
388.67	449.38
388.86	407.25
389.06	423.64
389.25	400.23
389.45	447.04
389.64	463.43
389.84	393.21
390.03	365.12
390.22	411.93
390.42	418.96
390.61	353.42
390.81	390.87
391.00	388.53
391.19	400.23
391.39	414.27
391.58	376.83
391.78	386.19
391.97	372.15
392.16	304.27
392.36	374.49
392.55	444.70
392.75	430.66
392.94	433.00
393.13	454.06
393.33	442.36
393.52	365.12
393.71	411.93
393.91	313.63
394.10	482.15
394.29	315.97
394.49	372.15
394.68	404.91
394.88	442.36
395.07	463.43
395.26	425.98
395.46	400.23
395.65	437.68
395.84	390.87
396.04	421.30
396.23	416.62
396.42	383.85
396.62	421.30
396.81	390.87
397.00	414.27
397.19	416.62
397.39	383.85
397.58	379.17
397.77	430.66
397.97	435.34
398.16	388.53
398.35	416.62
398.55	407.25
398.74	407.25
398.93	477.47
399.12	437.68
399.32	376.83
399.51	334.70
399.70	313.63
399.90	425.98
400.09	465.77
400.28	447.04
400.47	437.68
400.67	454.06
400.86	435.34
401.05	489.17
401.24	430.66
401.44	372.15
401.63	433.00
401.82	430.66
402.01	294.91
402.21	416.62
402.40	470.45
402.59	395.55
402.78	374.49
402.97	407.25
403.17	358.10
403.36	390.87
403.55	440.02
403.74	404.91
403.93	367.46
404.13	400.23
404.32	383.85
404.51	334.70
404.70	505.56
404.89	402.57
405.09	496.19
405.28	435.34
405.47	374.49
405.66	390.87
405.85	348.74
406.05	421.30
406.24	353.42
406.43	404.91
406.62	493.85
406.81	461.09
407.00	475.13
407.20	435.34
407.39	397.89
407.58	421.30
407.77	437.68
407.96	449.38
408.15	418.96
408.34	440.02
408.54	440.02
408.73	442.36
408.92	461.09
409.11	493.85
409.30	435.34
409.49	372.15
409.68	454.06
409.87	407.25
410.07	348.74
410.26	409.59
410.45	379.17
410.64	306.61
410.83	383.85
411.02	430.66
411.21	390.87
411.40	423.64
411.59	367.46
411.78	421.30
411.98	418.96
412.17	383.85
412.36	341.72
412.55	372.15
412.74	381.51
412.93	402.57
413.12	433.00
413.31	447.04
413.50	449.38
413.69	440.02
413.88	430.66
414.07	430.66
414.26	437.68
414.45	376.83
414.64	437.68
414.83	479.81
415.02	416.62
415.22	402.57
415.41	365.12
415.60	390.87
415.79	440.02
415.98	437.68
416.17	404.91
416.36	411.93
416.55	348.74
416.74	351.08
416.93	458.74
417.12	400.23
417.31	379.17
417.50	355.76
417.69	463.43
417.88	393.21
418.07	393.21
418.26	411.93
418.45	390.87
418.64	440.02
418.83	433.00
419.02	414.27
419.21	409.59
419.39	395.55
419.58	306.61
419.77	418.96
419.96	423.64
420.15	440.02
420.34	454.06
420.53	332.36
420.72	425.98
420.91	395.55
421.10	486.83
421.29	449.38
421.48	374.49
421.67	449.38
421.86	409.59
422.05	440.02
422.24	454.06
422.43	362.78
422.61	353.42
422.80	395.55
422.99	435.34
423.18	315.97
423.37	411.93
423.56	390.87
423.75	435.34
423.94	418.96
424.13	367.46
424.32	447.04
424.50	423.64
424.69	325.33
424.88	390.87
425.07	421.30
425.26	447.04
425.45	409.59
425.64	372.15
425.83	383.85
426.01	470.45
426.20	433.00
426.39	423.64
426.58	416.62
426.77	383.85
426.96	423.64
427.15	425.98
427.33	425.98
427.52	397.89
427.71	304.27
427.90	454.06
428.09	381.51
428.28	400.23
428.46	451.72
428.65	437.68
428.84	393.21
429.03	390.87
429.22	376.83
429.40	393.21
429.59	395.55
429.78	423.64
429.97	376.83
430.16	379.17
430.34	367.46
430.53	444.70
430.72	374.49
430.91	423.64
431.10	397.89
431.28	388.53
431.47	440.02
431.66	421.30
431.85	458.74
432.03	372.15
432.22	400.23
432.41	416.62
432.60	428.32
432.79	411.93
432.97	414.27
433.16	365.12
433.35	416.62
433.54	461.09
433.72	355.76
433.91	440.02
434.10	407.25
434.28	402.57
434.47	437.68
434.66	409.59
434.85	437.68
435.03	418.96
435.22	416.62
435.41	437.68
435.59	442.36
435.78	400.23
435.97	416.62
436.16	440.02
436.34	397.89
436.53	337.04
436.72	451.72
436.90	451.72
437.09	386.19
437.28	404.91
437.46	397.89
437.65	411.93
437.84	428.32
438.02	386.19
438.21	423.64
438.40	362.78
438.58	411.93
438.77	437.68
438.96	409.59
439.14	372.15
439.33	397.89
439.52	430.66
439.70	458.74
439.89	428.32
440.08	470.45
440.26	458.74
440.45	400.23
440.63	411.93
440.82	390.87
441.01	407.25
441.19	456.40
441.38	435.34
441.57	362.78
441.75	397.89
441.94	395.55
442.12	404.91
442.31	407.25
442.50	390.87
442.68	395.55
442.87	449.38
443.05	322.99
443.24	397.89
443.43	365.12
443.61	430.66
443.80	433.00
443.98	433.00
444.17	390.87
444.35	444.70
444.54	386.19
444.73	334.70
444.91	465.77
445.10	407.25
445.28	381.51
445.47	433.00
445.65	423.64
445.84	433.00
446.02	400.23
446.21	414.27
446.39	402.57
446.58	440.02
446.77	411.93
446.95	451.72
447.14	512.58
447.32	376.83
447.51	430.66
447.69	376.83
447.88	369.80
448.06	482.15
448.25	433.00
448.43	320.65
448.62	386.19
448.80	402.57
448.99	404.91
449.17	393.21
449.36	418.96
449.54	491.51
449.73	423.64
449.91	393.21
450.10	444.70
450.28	463.43
450.46	482.15
450.65	447.04
450.83	409.59
451.02	472.79
451.20	379.17
451.39	332.36
451.57	414.27
451.76	400.23
451.94	433.00
452.13	416.62
452.31	458.74
452.49	437.68
452.68	430.66
452.86	404.91
453.05	409.59
453.23	428.32
453.42	463.43
453.60	372.15
453.78	449.38
453.97	404.91
454.15	470.45
454.34	362.78
454.52	351.08
454.70	437.68
454.89	402.57
455.07	379.17
455.26	440.02
455.44	437.68
455.62	444.70
455.81	447.04
455.99	395.55
456.17	418.96
456.36	395.55
456.54	355.76
456.73	388.53
456.91	425.98
457.09	447.04
457.28	409.59
457.46	351.08
457.64	383.85
457.83	428.32
458.01	418.96
458.19	470.45
458.38	365.12
458.56	477.47
458.74	402.57
458.93	428.32
459.11	423.64
459.29	374.49
459.48	365.12
459.66	425.98
459.84	444.70
460.03	444.70
460.21	388.53
460.39	397.89
460.57	458.74
460.76	409.59
460.94	388.53
461.12	463.43
461.31	428.32
461.49	383.85
461.67	353.42
461.85	397.89
462.04	421.30
462.22	763.01
462.40	493.85
462.59	468.11
462.77	369.80
462.95	463.43
463.13	442.36
463.32	414.27
463.50	430.66
463.68	404.91
463.86	390.87
464.05	325.33
464.23	500.87
464.41	402.57
464.59	444.70
464.78	404.91
464.96	421.30
465.14	404.91
465.32	402.57
465.50	409.59
465.69	407.25
465.87	330.02
466.05	360.44
466.23	418.96
466.41	397.89
466.60	430.66
466.78	430.66
466.96	388.53
467.14	442.36
467.32	404.91
467.51	407.25
467.69	484.49
467.87	477.47
468.05	430.66
468.23	416.62
468.41	409.59
468.60	388.53
468.78	383.85
468.96	458.74
469.14	367.46
469.32	334.70
469.50	402.57
469.69	470.45
469.87	526.62
470.05	447.04
470.23	395.55
470.41	409.59
470.59	472.79
470.77	479.81
470.95	421.30
471.14	454.06
471.32	449.38
471.50	416.62
471.68	351.08
471.86	425.98
472.04	414.27
472.22	397.89
472.40	381.51
472.58	435.34
472.77	376.83
472.95	379.17
473.13	500.87
473.31	449.38
473.49	379.17
473.67	278.52
473.85	430.66
474.03	369.80
474.21	393.21
474.39	454.06
474.57	393.21
474.75	423.64
474.93	409.59
475.12	388.53
475.30	447.04
475.48	386.19
475.66	407.25
475.84	388.53
476.02	486.83
476.20	418.96
476.38	437.68
476.56	414.27
476.74	402.57
476.92	470.45
477.10	369.80
477.28	393.21
477.46	346.40
477.64	479.81
477.82	402.57
478.00	376.83
478.18	365.12
478.36	430.66
478.54	374.49
478.72	484.49
478.90	379.17
479.08	444.70
479.26	437.68
479.44	407.25
479.62	423.64
479.80	400.23
479.98	353.42
480.16	395.55
480.34	435.34
480.52	393.21
480.70	430.66
480.88	397.89
481.06	430.66
481.24	435.34
481.41	440.02
481.59	423.64
481.77	421.30
481.95	369.80
482.13	440.02
482.31	449.38
482.49	330.02
482.67	444.70
482.85	435.34
483.03	411.93
483.21	479.81
483.39	348.74
483.57	440.02
483.74	447.04
483.92	500.87
484.10	418.96
484.28	402.57
484.46	428.32
484.64	346.40
484.82	486.83
485.00	411.93
485.18	458.74
485.35	465.77
485.53	451.72
485.71	500.87
485.89	351.08
486.07	388.53
486.25	430.66
486.43	402.57
486.61	435.34
486.78	425.98
486.96	358.10
487.14	496.19
487.32	442.36
487.50	404.91
487.68	409.59
487.85	390.87
488.03	353.42
488.21	475.13
488.39	372.15
488.57	444.70
488.75	353.42
488.92	484.49
489.10	449.38
489.28	425.98
489.46	397.89
489.64	390.87
489.81	447.04
489.99	388.53
490.17	393.21
490.35	465.77
490.53	372.15
490.70	428.32
490.88	404.91
491.06	337.04
491.24	411.93
491.41	409.59
491.59	463.43
491.77	362.78
491.95	411.93
492.13	369.80
492.30	327.68
492.48	498.53
492.66	423.64
492.84	369.80
493.01	353.42
493.19	304.27
493.37	442.36
493.54	397.89
493.72	421.30
493.90	397.89
494.08	376.83
494.25	468.11
494.43	465.77
494.61	440.02
494.79	449.38
494.96	416.62
495.14	411.93
495.32	444.70
495.49	423.64
495.67	475.13
495.85	430.66
496.02	395.55
496.20	404.91
496.38	421.30
496.55	346.40
496.73	463.43
496.91	341.72
497.09	421.30
497.26	425.98
497.44	404.91
497.62	454.06
497.79	454.06
497.97	416.62
498.14	404.91
498.32	418.96
498.50	390.87
498.67	447.04
498.85	411.93
499.03	449.38
499.20	519.60
499.38	388.53
499.56	428.32
499.73	458.74
499.91	379.17
500.08	461.09
500.26	444.70
500.44	388.53
500.61	435.34
500.79	393.21
500.97	468.11
501.14	414.27
501.32	425.98
501.49	365.12
501.67	409.59
501.84	411.93
502.02	360.44
502.20	348.74
502.37	463.43
502.55	365.12
502.72	433.00
502.90	397.89
503.07	411.93
503.25	376.83
503.43	463.43
503.60	411.93
503.78	458.74
503.95	451.72
504.13	393.21
504.30	393.21
504.48	421.30
504.65	442.36
504.83	367.46
505.01	470.45
505.18	393.21
505.36	444.70
505.53	428.32
505.71	395.55
505.88	435.34
506.06	447.04
506.23	414.27
506.41	374.49
506.58	416.62
506.76	397.89
506.93	388.53
507.11	376.83
507.28	430.66
507.46	435.34
507.63	414.27
507.81	393.21
507.98	423.64
508.16	433.00
508.33	435.34
508.50	440.02
508.68	365.12
508.85	418.96
509.03	451.72
509.20	472.79
509.38	465.77
509.55	440.02
509.73	397.89
509.90	423.64
510.08	369.80
510.25	425.98
510.42	390.87
510.60	393.21
510.77	409.59
510.95	449.38
511.12	461.09
511.30	402.57
511.47	416.62
511.64	440.02
511.82	407.25
511.99	400.23
512.17	456.40
512.34	393.21
512.51	404.91
512.69	472.79
512.86	484.49
513.04	409.59
513.21	458.74
513.38	379.17
513.56	437.68
513.73	404.91
513.90	472.79
514.08	416.62
514.25	379.17
514.43	430.66
514.60	411.93
514.77	397.89
514.95	334.70
515.12	409.59
515.29	440.02
515.47	365.12
515.64	435.34
515.81	437.68
515.99	400.23
516.16	409.59
516.33	475.13
516.51	393.21
516.68	418.96
516.85	440.02
517.03	411.93
517.20	407.25
517.37	362.78
517.54	407.25
517.72	442.36
517.89	397.89
518.06	397.89
518.24	477.47
518.41	435.34
518.58	414.27
518.75	369.80
518.93	451.72
519.10	390.87
519.27	409.59
519.45	465.77
519.62	353.42
519.79	456.40
519.96	372.15
520.14	428.32
520.31	477.47
520.48	447.04
520.65	381.51
520.83	423.64
521.00	463.43
521.17	358.10
521.34	393.21
521.52	362.78
521.69	379.17
521.86	369.80
522.03	493.85
522.20	395.55
522.38	449.38
522.55	421.30
522.72	390.87
522.89	411.93
523.07	409.59
523.24	393.21
523.41	355.76
523.58	346.40
523.75	381.51
523.92	358.10
524.10	414.27
524.27	402.57
524.44	407.25
524.61	414.27
524.78	418.96
524.96	435.34
525.13	404.91
525.30	425.98
525.47	397.89
525.64	484.49
525.81	435.34
525.98	454.06
526.16	409.59
526.33	418.96
526.50	395.55
526.67	468.11
526.84	372.15
527.01	409.59
527.18	400.23
527.36	393.21
527.53	421.30
527.70	386.19
527.87	461.09
528.04	498.53
528.21	376.83
528.38	456.40
528.55	411.93
528.72	519.60
528.89	444.70
529.07	407.25
529.24	416.62
529.41	489.17
529.58	414.27
529.75	395.55
529.92	339.38
530.09	397.89
530.26	395.55
530.43	400.23
530.60	339.38
530.77	360.44
530.94	444.70
531.11	461.09
531.28	411.93
531.46	358.10
531.63	386.19
531.80	484.49
531.97	414.27
532.14	407.25
532.31	416.62
532.48	423.64
532.65	395.55
532.82	414.27
532.99	447.04
533.16	418.96
533.33	372.15
533.50	514.92
533.67	383.85
533.84	451.72
534.01	409.59
534.18	442.36
534.35	358.10
534.52	468.11
534.69	414.27
534.86	500.87
535.03	449.38
535.20	461.09
535.37	454.06
535.54	388.53
535.71	418.96
535.88	440.02
536.05	388.53
536.22	463.43
536.38	376.83
536.55	437.68
536.72	503.22
536.89	411.93
537.06	400.23
537.23	416.62
537.40	402.57
537.57	440.02
537.74	491.51
537.91	440.02
538.08	376.83
538.25	355.76
538.42	428.32
538.59	461.09
538.75	440.02
538.92	484.49
539.09	374.49
539.26	407.25
539.43	411.93
539.60	503.22
539.77	369.80
539.94	449.38
540.11	358.10
540.28	372.15
540.44	493.85
540.61	379.17
540.78	407.25
540.95	390.87
541.12	447.04
541.29	374.49
541.46	367.46
541.62	440.02
541.79	416.62
541.96	393.21
542.13	411.93
542.30	435.34
542.47	386.19
542.63	458.74
542.80	390.87
542.97	454.06
543.14	468.11
543.31	458.74
543.48	402.57
543.64	397.89
543.81	454.06
543.98	393.21
544.15	397.89
544.32	369.80
544.48	390.87
544.65	374.49
544.82	409.59
544.99	358.10
545.16	379.17
545.32	411.93
545.49	425.98
545.66	376.83
545.83	407.25
546.00	379.17
546.16	339.38
546.33	421.30
546.50	395.55
546.67	365.12
546.83	421.30
547.00	376.83
547.17	400.23
547.34	418.96
547.50	475.13
547.67	395.55
547.84	435.34
548.00	468.11
548.17	397.89
548.34	346.40
548.51	491.51
548.67	393.21
548.84	444.70
549.01	503.22
549.18	428.32
549.34	386.19
549.51	468.11
549.68	430.66
549.84	374.49
550.01	437.68
550.18	428.32
550.34	393.21
550.51	400.23
550.68	489.17
550.84	416.62
551.01	418.96
551.18	362.78
551.34	472.79
551.51	411.93
551.68	365.12
551.84	414.27
552.01	409.59
552.18	430.66
552.34	454.06
552.51	341.72
552.68	430.66
552.84	383.85
553.01	477.47
553.18	451.72
553.34	440.02
553.51	395.55
553.67	451.72
553.84	484.49
554.01	404.91
554.17	393.21
554.34	407.25
554.51	472.79
554.67	414.27
554.84	479.81
555.00	421.30
555.17	351.08
555.33	479.81
555.50	409.59
555.67	355.76
555.83	393.21
556.00	395.55
556.16	538.32
556.33	461.09
556.50	379.17
556.66	411.93
556.83	498.53
556.99	369.80
557.16	386.19
557.32	409.59
557.49	435.34
557.65	400.23
557.82	395.55
557.98	482.15
558.15	388.53
558.32	433.00
558.48	395.55
558.65	496.19
558.81	402.57
558.98	404.91
559.14	393.21
559.31	416.62
559.47	437.68
559.64	416.62
559.80	482.15
559.97	346.40
560.13	442.36
560.30	379.17
560.46	383.85
560.63	418.96
560.79	402.57
560.96	437.68
561.12	402.57
561.29	425.98
561.45	505.56
561.61	442.36
561.78	498.53
561.94	428.32
562.11	430.66
562.27	517.26
562.44	421.30
562.60	407.25
562.77	386.19
562.93	397.89
563.10	421.30
563.26	421.30
563.42	491.51
563.59	458.74
563.75	449.38
563.92	500.87
564.08	428.32
564.24	393.21
564.41	449.38
564.57	334.70
564.74	404.91
564.90	435.34
565.07	521.94
565.23	386.19
565.39	313.63
565.56	437.68
565.72	404.91
565.88	362.78
566.05	411.93
566.21	465.77
566.38	435.34
566.54	435.34
566.70	341.72
566.87	379.17
567.03	393.21
567.19	411.93
567.36	383.85
567.52	416.62
567.68	397.89
567.85	435.34
568.01	367.46
568.17	428.32
568.34	461.09
568.50	463.43
568.66	337.04
568.83	351.08
568.99	397.89
569.15	430.66
569.32	386.19
569.48	423.64
569.64	461.09
569.81	435.34
569.97	402.57
570.13	479.81
570.30	367.46
570.46	393.21
570.62	402.57
570.78	358.10
570.95	414.27
571.11	458.74
571.27	514.92
571.43	374.49
571.60	428.32
571.76	393.21
571.92	402.57
572.09	402.57
572.25	393.21
572.41	358.10
572.57	428.32
572.74	388.53
572.90	339.38
573.06	447.04
573.22	409.59
573.38	465.77
573.55	470.45
573.71	449.38
573.87	449.38
574.03	454.06
574.20	421.30
574.36	390.87
574.52	430.66
574.68	454.06
574.84	440.02
575.01	451.72
575.17	435.34
575.33	379.17
575.49	489.17
575.65	421.30
575.82	468.11
575.98	440.02
576.14	444.70
576.30	372.15
576.46	435.34
576.62	388.53
576.79	379.17
576.95	479.81
577.11	411.93
577.27	390.87
577.43	461.09
577.59	456.40
577.75	472.79
577.92	397.89
578.08	423.64
578.24	421.30
578.40	383.85
578.56	435.34
578.72	503.22
578.88	416.62
579.04	423.64
579.21	428.32
579.37	386.19
579.53	461.09
579.69	409.59
579.85	404.91
580.01	395.55
580.17	395.55
580.33	409.59
580.49	442.36
580.65	341.72
580.82	400.23
580.98	383.85
581.14	418.96
581.30	472.79
581.46	374.49
581.62	428.32
581.78	454.06
581.94	430.66
582.10	383.85
582.26	489.17
582.42	407.25
582.58	440.02
582.74	325.33
582.90	404.91
583.06	428.32
583.22	404.91
583.38	421.30
583.54	440.02
583.70	447.04
583.86	374.49
584.02	386.19
584.18	526.62
584.34	374.49
584.50	458.74
584.66	428.32
584.82	451.72
584.98	454.06
585.14	463.43
585.30	444.70
585.46	421.30
585.62	351.08
585.78	369.80
585.94	418.96
586.10	407.25
586.26	388.53
586.42	447.04
586.58	479.81
586.74	440.02
586.90	397.89
587.06	510.24
587.22	430.66
587.38	472.79
587.54	402.57
587.70	442.36
587.86	421.30
588.02	428.32
588.18	425.98
588.34	447.04
588.49	425.98
588.65	421.30
588.81	346.40
588.97	409.59
589.13	411.93
589.29	451.72
589.45	425.98
589.61	407.25
589.77	358.10
589.93	388.53
590.08	353.42
590.24	376.83
590.40	425.98
590.56	451.72
590.72	393.21
590.88	351.08
591.04	475.13
591.20	430.66
591.35	519.60
591.51	414.27
591.67	379.17
591.83	395.55
591.99	447.04
592.15	440.02
592.31	447.04
592.46	390.87
592.62	388.53
592.78	393.21
592.94	390.87
593.10	386.19
593.26	458.74
593.41	390.87
593.57	437.68
593.73	484.49
593.89	409.59
594.05	395.55
594.20	521.94
594.36	442.36
594.52	360.44
594.68	383.85
594.84	339.38
594.99	512.58
595.15	393.21
595.31	353.42
595.47	416.62
595.62	383.85
595.78	372.15
595.94	456.40
596.10	397.89
596.25	346.40
596.41	484.49
596.57	482.15
596.73	425.98
596.88	367.46
597.04	449.38
597.20	348.74
597.36	484.49
597.51	440.02
597.67	395.55
597.83	374.49
597.99	381.51
598.14	449.38
598.30	430.66
598.46	451.72
598.61	402.57
598.77	409.59
598.93	425.98
599.09	414.27
599.24	409.59
599.40	500.87
599.56	414.27
599.71	416.62
599.87	425.98
600.03	423.64
600.18	472.79
600.34	414.27
600.50	461.09
600.65	437.68
600.81	454.06
600.97	386.19
601.12	409.59
601.28	449.38
601.44	411.93
601.59	435.34
601.75	402.57
601.91	435.34
602.06	482.15
602.22	503.22
602.37	383.85
602.53	456.40
602.69	437.68
602.84	379.17
603.00	414.27
603.16	458.74
603.31	421.30
603.47	376.83
603.62	463.43
603.78	454.06
603.94	369.80
604.09	339.38
604.25	435.34
604.40	437.68
604.56	376.83
604.71	376.83
604.87	409.59
605.03	475.13
605.18	397.89
605.34	444.70
605.49	461.09
605.65	388.53
605.80	433.00
605.96	470.45
606.12	400.23
606.27	400.23
606.43	404.91
606.58	449.38
606.74	416.62
606.89	393.21
607.05	381.51
607.20	409.59
607.36	428.32
607.51	411.93
607.67	381.51
607.82	449.38
607.98	472.79
608.13	454.06
608.29	418.96
608.44	428.32
608.60	463.43
608.75	442.36
608.91	411.93
609.06	418.96
609.22	461.09
609.37	418.96
609.53	404.91
609.68	421.30
609.84	430.66
609.99	416.62
610.15	435.34
