SpectraSuite Data File
++++++++++++++++++++++++++++++++++++
Date: Fri Oct 25 12:11:20 EDT 2013
User: price-jones
Dark Spectrum Present: No
Reference Spectrum Present: No
Number of Sampled Component Spectra: 1
Spectrometers: USB2+H05261
Integration Time (usec): 100000 (USB2+H05261)
Spectra Averaged: 1 (USB2+H05261)
Boxcar Smoothing: 0 (USB2+H05261)
Correct for Electrical Dark: No (USB2+H05261)
Strobe/Lamp Enabled: No (USB2+H05261)
Correct for Detector Non-linearity: No (USB2+H05261)
Correct for Stray Light: No (USB2+H05261)
Number of Pixels in Processed Spectrum: 2048
>>>>>Begin Processed Spectral Data<<<<<
365.73	355.76
365.92	355.76
366.12	355.76
366.32	273.84
366.52	269.16
366.72	241.08
366.91	259.80
367.11	220.01
367.31	184.90
367.51	205.97
367.70	224.69
367.90	252.78
368.10	255.12
368.30	287.89
368.49	252.78
368.69	287.89
368.89	271.50
369.09	250.44
369.28	292.57
369.48	308.95
369.68	278.52
369.87	332.36
370.07	332.36
370.27	346.40
370.47	313.63
370.66	332.36
370.86	386.19
371.06	337.04
371.25	379.17
371.45	344.06
371.65	411.93
371.84	367.46
372.04	315.97
372.24	421.30
372.44	397.89
372.63	360.44
372.83	423.64
373.03	440.02
373.22	447.04
373.42	395.55
373.62	465.77
373.81	397.89
374.01	407.25
374.21	456.40
374.40	388.53
374.60	463.43
374.79	484.49
374.99	418.96
375.19	397.89
375.38	482.15
375.58	521.94
375.78	451.72
375.97	468.11
376.17	461.09
376.37	397.89
376.56	437.68
376.76	456.40
376.95	372.15
377.15	418.96
377.35	353.42
377.54	425.98
377.74	472.79
377.93	433.00
378.13	409.59
378.33	369.80
378.52	341.72
378.72	369.80
378.91	404.91
379.11	383.85
379.31	390.87
379.50	463.43
379.70	484.49
379.89	341.72
380.09	341.72
380.28	360.44
380.48	381.51
380.68	411.93
380.87	395.55
381.07	379.17
381.26	433.00
381.46	421.30
381.65	423.64
381.85	383.85
382.04	435.34
382.24	484.49
382.43	341.72
382.63	374.49
382.83	437.68
383.02	456.40
383.22	475.13
383.41	390.87
383.61	477.47
383.80	482.15
384.00	433.00
384.19	400.23
384.39	386.19
384.58	425.98
384.78	440.02
384.97	447.04
385.17	322.99
385.36	341.72
385.56	491.51
385.75	367.46
385.95	447.04
386.14	407.25
386.34	416.62
386.53	440.02
386.72	465.77
386.92	449.38
387.11	393.21
387.31	407.25
387.50	402.57
387.70	344.06
387.89	393.21
388.09	360.44
388.28	362.78
388.48	397.89
388.67	447.04
388.86	341.72
389.06	353.42
389.25	397.89
389.45	404.91
389.64	402.57
389.84	383.85
390.03	395.55
390.22	404.91
390.42	358.10
390.61	421.30
390.81	435.34
391.00	404.91
391.19	425.98
391.39	416.62
391.58	397.89
391.78	423.64
391.97	416.62
392.16	292.57
392.36	465.77
392.55	379.17
392.75	402.57
392.94	379.17
393.13	395.55
393.33	322.99
393.52	416.62
393.71	339.38
393.91	397.89
394.10	447.04
394.29	442.36
394.49	486.83
394.68	454.06
394.88	484.49
395.07	451.72
395.26	411.93
395.46	449.38
395.65	442.36
395.84	425.98
396.04	444.70
396.23	435.34
396.42	430.66
396.62	416.62
396.81	428.32
397.00	442.36
397.19	407.25
397.39	435.34
397.58	465.77
397.77	304.27
397.97	388.53
398.16	358.10
398.35	430.66
398.55	367.46
398.74	416.62
398.93	447.04
399.12	411.93
399.32	390.87
399.51	463.43
399.70	400.23
399.90	409.59
400.09	367.46
400.28	454.06
400.47	360.44
400.67	442.36
400.86	407.25
401.05	458.74
401.24	388.53
401.44	411.93
401.63	491.51
401.82	414.27
402.01	433.00
402.21	477.47
402.40	477.47
402.59	390.87
402.78	369.80
402.97	390.87
403.17	402.57
403.36	428.32
403.55	425.98
403.74	388.53
403.93	423.64
404.13	454.06
404.32	362.78
404.51	325.33
404.70	400.23
404.89	353.42
405.09	442.36
405.28	472.79
405.47	402.57
405.66	411.93
405.85	447.04
406.05	346.40
406.24	367.46
406.43	367.46
406.62	433.00
406.81	383.85
407.00	379.17
407.20	376.83
407.39	358.10
407.58	355.76
407.77	416.62
407.96	334.70
408.15	479.81
408.34	409.59
408.54	442.36
408.73	409.59
408.92	400.23
409.11	381.51
409.30	386.19
409.49	423.64
409.68	390.87
409.87	411.93
410.07	395.55
410.26	425.98
410.45	404.91
410.64	404.91
410.83	383.85
411.02	461.09
411.21	428.32
411.40	440.02
411.59	390.87
411.78	444.70
411.98	367.46
412.17	428.32
412.36	425.98
412.55	341.72
412.74	397.89
412.93	355.76
413.12	358.10
413.31	461.09
413.50	456.40
413.69	341.72
413.88	416.62
414.07	421.30
414.26	390.87
414.45	449.38
414.64	421.30
414.83	416.62
415.02	388.53
415.22	477.47
415.41	475.13
415.60	397.89
415.79	400.23
415.98	367.46
416.17	433.00
416.36	381.51
416.55	472.79
416.74	435.34
416.93	470.45
417.12	421.30
417.31	346.40
417.50	458.74
417.69	444.70
417.88	447.04
418.07	393.21
418.26	407.25
418.45	390.87
418.64	416.62
418.83	433.00
419.02	379.17
419.21	344.06
419.39	423.64
419.58	404.91
419.77	409.59
419.96	318.31
420.15	400.23
420.34	444.70
420.53	404.91
420.72	411.93
420.91	393.21
421.10	423.64
421.29	409.59
421.48	423.64
421.67	486.83
421.86	414.27
422.05	433.00
422.24	393.21
422.43	423.64
422.61	442.36
422.80	383.85
422.99	362.78
423.18	397.89
423.37	470.45
423.56	433.00
423.75	351.08
423.94	381.51
424.13	374.49
424.32	402.57
424.50	365.12
424.69	383.85
424.88	376.83
425.07	404.91
425.26	528.96
425.45	444.70
425.64	421.30
425.83	465.77
426.01	465.77
426.20	409.59
426.39	491.51
426.58	447.04
426.77	442.36
426.96	444.70
427.15	390.87
427.33	383.85
427.52	376.83
427.71	423.64
427.90	379.17
428.09	404.91
428.28	358.10
428.46	379.17
428.65	425.98
428.84	437.68
429.03	428.32
429.22	414.27
429.40	355.76
429.59	404.91
429.78	379.17
429.97	442.36
430.16	430.66
430.34	433.00
430.53	381.51
430.72	365.12
430.91	381.51
431.10	421.30
431.28	358.10
431.47	372.15
431.66	390.87
431.85	397.89
432.03	367.46
432.22	503.22
432.41	395.55
432.60	435.34
432.79	444.70
432.97	409.59
433.16	379.17
433.35	337.04
433.54	367.46
433.72	430.66
433.91	425.98
434.10	435.34
434.28	379.17
434.47	430.66
434.66	479.81
434.85	386.19
435.03	383.85
435.22	372.15
435.41	440.02
435.59	360.44
435.78	447.04
435.97	442.36
436.16	482.15
436.34	447.04
436.53	353.42
436.72	395.55
436.90	458.74
437.09	458.74
437.28	454.06
437.46	360.44
437.65	437.68
437.84	470.45
438.02	365.12
438.21	482.15
438.40	503.22
438.58	409.59
438.77	414.27
438.96	447.04
439.14	393.21
439.33	444.70
439.52	358.10
439.70	463.43
439.89	421.30
440.08	348.74
440.26	449.38
440.45	433.00
440.63	414.27
440.82	456.40
441.01	407.25
441.19	383.85
441.38	376.83
441.57	454.06
441.75	461.09
441.94	507.90
442.12	381.51
442.31	416.62
442.50	447.04
442.68	414.27
442.87	351.08
443.05	437.68
443.24	397.89
443.43	482.15
443.61	404.91
443.80	407.25
443.98	423.64
444.17	362.78
444.35	386.19
444.54	440.02
444.73	500.87
444.91	468.11
445.10	367.46
445.28	423.64
445.47	514.92
445.65	346.40
445.84	404.91
446.02	430.66
446.21	404.91
446.39	379.17
446.58	472.79
446.77	376.83
446.95	348.74
447.14	449.38
447.32	423.64
447.51	362.78
447.69	407.25
447.88	472.79
448.06	465.77
448.25	442.36
448.43	451.72
448.62	430.66
448.80	353.42
448.99	367.46
449.17	388.53
449.36	407.25
449.54	386.19
449.73	400.23
449.91	449.38
450.10	404.91
450.28	472.79
450.46	491.51
450.65	458.74
450.83	470.45
451.02	458.74
451.20	461.09
451.39	435.34
451.57	414.27
451.76	397.89
451.94	407.25
452.13	411.93
452.31	421.30
452.49	421.30
452.68	416.62
452.86	430.66
453.05	414.27
453.23	416.62
453.42	397.89
453.60	402.57
453.78	447.04
453.97	388.53
454.15	421.30
454.34	425.98
454.52	386.19
454.70	461.09
454.89	390.87
455.07	367.46
455.26	428.32
455.44	418.96
455.62	344.06
455.81	379.17
455.99	435.34
456.17	390.87
456.36	400.23
456.54	440.02
456.73	360.44
456.91	421.30
457.09	383.85
457.28	477.47
457.46	437.68
457.64	479.81
457.83	440.02
458.01	334.70
458.19	425.98
458.38	341.72
458.56	407.25
458.74	372.15
458.93	465.77
459.11	430.66
459.29	351.08
459.48	411.93
459.66	444.70
459.84	423.64
460.03	512.58
460.21	386.19
460.39	465.77
460.57	447.04
460.76	369.80
460.94	442.36
461.12	500.87
461.31	411.93
461.49	421.30
461.67	379.17
461.85	407.25
462.04	449.38
462.22	725.57
462.40	355.76
462.59	503.22
462.77	440.02
462.95	493.85
463.13	418.96
463.32	395.55
463.50	402.57
463.68	442.36
463.86	397.89
464.05	397.89
464.23	458.74
464.41	369.80
464.59	400.23
464.78	369.80
464.96	400.23
465.14	386.19
465.32	393.21
465.50	407.25
465.69	428.32
465.87	358.10
466.05	447.04
466.23	395.55
466.41	451.72
466.60	381.51
466.78	379.17
466.96	386.19
467.14	456.40
467.32	425.98
467.51	360.44
467.69	376.83
467.87	402.57
468.05	386.19
468.23	407.25
468.41	372.15
468.60	411.93
468.78	435.34
468.96	442.36
469.14	416.62
469.32	442.36
469.50	447.04
469.69	491.51
469.87	440.02
470.05	425.98
470.23	421.30
470.41	461.09
470.59	482.15
470.77	423.64
470.95	390.87
471.14	451.72
471.32	447.04
471.50	418.96
471.68	388.53
471.86	402.57
472.04	379.17
472.22	411.93
472.40	397.89
472.58	381.51
472.77	416.62
472.95	435.34
473.13	381.51
473.31	484.49
473.49	386.19
473.67	454.06
473.85	447.04
474.03	496.19
474.21	388.53
474.39	433.00
474.57	470.45
474.75	428.32
474.93	404.91
475.12	397.89
475.30	428.32
475.48	458.74
475.66	397.89
475.84	414.27
476.02	465.77
476.20	407.25
476.38	440.02
476.56	482.15
476.74	416.62
476.92	365.12
477.10	433.00
477.28	355.76
477.46	411.93
477.64	404.91
477.82	390.87
478.00	425.98
478.18	367.46
478.36	388.53
478.54	400.23
478.72	407.25
478.90	447.04
479.08	435.34
479.26	383.85
479.44	437.68
479.62	418.96
479.80	477.47
479.98	365.12
480.16	404.91
480.34	428.32
480.52	388.53
480.70	404.91
480.88	411.93
481.06	372.15
481.24	421.30
481.41	421.30
481.59	353.42
481.77	386.19
481.95	489.17
482.13	362.78
482.31	353.42
482.49	407.25
482.67	346.40
482.85	470.45
483.03	421.30
483.21	416.62
483.39	411.93
483.57	449.38
483.74	456.40
483.92	388.53
484.10	358.10
484.28	409.59
484.46	414.27
484.64	376.83
484.82	430.66
485.00	402.57
485.18	372.15
485.35	421.30
485.53	418.96
485.71	414.27
485.89	397.89
486.07	470.45
486.25	463.43
486.43	444.70
486.61	365.12
486.78	454.06
486.96	400.23
487.14	393.21
487.32	423.64
487.50	390.87
487.68	444.70
487.85	451.72
488.03	435.34
488.21	376.83
488.39	404.91
488.57	386.19
488.75	404.91
488.92	561.73
489.10	425.98
489.28	416.62
489.46	325.33
489.64	428.32
489.81	437.68
489.99	437.68
490.17	425.98
490.35	447.04
490.53	425.98
490.70	376.83
490.88	376.83
491.06	330.02
491.24	454.06
491.41	402.57
491.59	365.12
491.77	470.45
491.95	458.74
492.13	379.17
492.30	435.34
492.48	395.55
492.66	470.45
492.84	362.78
493.01	402.57
493.19	440.02
493.37	423.64
493.54	376.83
493.72	440.02
493.90	393.21
494.08	482.15
494.25	425.98
494.43	437.68
494.61	447.04
494.79	435.34
494.96	428.32
495.14	376.83
495.32	449.38
495.49	461.09
495.67	418.96
495.85	430.66
496.02	407.25
496.20	348.74
496.38	498.53
496.55	400.23
496.73	461.09
496.91	330.02
497.09	400.23
497.26	517.26
497.44	428.32
497.62	353.42
497.79	339.38
497.97	493.85
498.14	449.38
498.32	465.77
498.50	447.04
498.67	397.89
498.85	376.83
499.03	418.96
499.20	397.89
499.38	407.25
499.56	365.12
499.73	409.59
499.91	306.61
500.08	468.11
500.26	379.17
500.44	454.06
500.61	369.80
500.79	423.64
500.97	440.02
501.14	479.81
501.32	367.46
501.49	393.21
501.67	365.12
501.84	411.93
502.02	374.49
502.20	425.98
502.37	409.59
502.55	421.30
502.72	447.04
502.90	433.00
503.07	374.49
503.25	444.70
503.43	510.24
503.60	414.27
503.78	447.04
503.95	339.38
504.13	402.57
504.30	468.11
504.48	442.36
504.65	489.17
504.83	411.93
505.01	414.27
505.18	351.08
505.36	416.62
505.53	411.93
505.71	383.85
505.88	416.62
506.06	425.98
506.23	447.04
506.41	442.36
506.58	393.21
506.76	447.04
506.93	372.15
507.11	395.55
507.28	390.87
507.46	437.68
507.63	437.68
507.81	447.04
507.98	397.89
508.16	437.68
508.33	477.47
508.50	454.06
508.68	461.09
508.85	365.12
509.03	454.06
509.20	407.25
509.38	388.53
509.55	381.51
509.73	477.47
509.90	456.40
510.08	386.19
510.25	465.77
510.42	374.49
510.60	454.06
510.77	374.49
510.95	381.51
511.12	339.38
511.30	444.70
511.47	407.25
511.64	442.36
511.82	458.74
511.99	430.66
512.17	418.96
512.34	348.74
512.51	346.40
512.69	400.23
512.86	512.58
513.04	421.30
513.21	465.77
513.38	390.87
513.56	376.83
513.73	407.25
513.90	430.66
514.08	397.89
514.25	390.87
514.43	475.13
514.60	447.04
514.77	465.77
514.95	458.74
515.12	367.46
515.29	397.89
515.47	437.68
515.64	444.70
515.81	355.76
515.99	458.74
516.16	423.64
516.33	519.60
516.51	397.89
516.68	358.10
516.85	454.06
517.03	484.49
517.20	484.49
517.37	407.25
517.54	482.15
517.72	360.44
517.89	379.17
518.06	449.38
518.24	449.38
518.41	416.62
518.58	458.74
518.75	386.19
518.93	430.66
519.10	423.64
519.27	458.74
519.45	388.53
519.62	447.04
519.79	491.51
519.96	409.59
520.14	449.38
520.31	430.66
520.48	376.83
520.65	379.17
520.83	402.57
521.00	458.74
521.17	461.09
521.34	444.70
521.52	395.55
521.69	388.53
521.86	395.55
522.03	388.53
522.20	461.09
522.38	414.27
522.55	433.00
522.72	393.21
522.89	409.59
523.07	449.38
523.24	400.23
523.41	470.45
523.58	430.66
523.75	388.53
523.92	465.77
524.10	447.04
524.27	411.93
524.44	404.91
524.61	400.23
524.78	372.15
524.96	433.00
525.13	514.92
525.30	404.91
525.47	407.25
525.64	428.32
525.81	416.62
525.98	456.40
526.16	421.30
526.33	425.98
526.50	386.19
526.67	393.21
526.84	390.87
527.01	437.68
527.18	477.47
527.36	409.59
527.53	418.96
527.70	482.15
527.87	435.34
528.04	437.68
528.21	444.70
528.38	395.55
528.55	477.47
528.72	433.00
528.89	411.93
529.07	379.17
529.24	430.66
529.41	470.45
529.58	435.34
529.75	409.59
529.92	353.42
530.09	458.74
530.26	386.19
530.43	463.43
530.60	376.83
530.77	365.12
530.94	444.70
531.11	430.66
531.28	416.62
531.46	388.53
531.63	409.59
531.80	451.72
531.97	365.12
532.14	461.09
532.31	360.44
532.48	388.53
532.65	461.09
532.82	409.59
532.99	388.53
533.16	470.45
533.33	416.62
533.50	397.89
533.67	428.32
533.84	463.43
534.01	379.17
534.18	433.00
534.35	402.57
534.52	428.32
534.69	451.72
534.86	430.66
535.03	451.72
535.20	461.09
535.37	461.09
535.54	440.02
535.71	402.57
535.88	482.15
536.05	400.23
536.22	404.91
536.38	451.72
536.55	447.04
536.72	458.74
536.89	458.74
537.06	379.17
537.23	390.87
537.40	407.25
537.57	418.96
537.74	451.72
537.91	379.17
538.08	407.25
538.25	400.23
538.42	447.04
538.59	409.59
538.75	451.72
538.92	451.72
539.09	454.06
539.26	444.70
539.43	425.98
539.60	421.30
539.77	416.62
539.94	454.06
540.11	402.57
540.28	421.30
540.44	414.27
540.61	388.53
540.78	451.72
540.95	449.38
541.12	421.30
541.29	423.64
541.46	437.68
541.62	416.62
541.79	447.04
541.96	491.51
542.13	449.38
542.30	416.62
542.47	500.87
542.63	447.04
542.80	409.59
542.97	456.40
543.14	404.91
543.31	454.06
543.48	383.85
543.64	393.21
543.81	372.15
543.98	390.87
544.15	411.93
544.32	435.34
544.48	404.91
544.65	404.91
544.82	386.19
544.99	390.87
545.16	423.64
545.32	468.11
545.49	491.51
545.66	414.27
545.83	465.77
546.00	409.59
546.16	339.38
546.33	451.72
546.50	447.04
546.67	484.49
546.83	393.21
547.00	433.00
547.17	388.53
547.34	374.49
547.50	416.62
547.67	451.72
547.84	379.17
548.00	449.38
548.17	425.98
548.34	454.06
548.51	407.25
548.67	433.00
548.84	409.59
549.01	376.83
549.18	475.13
549.34	376.83
549.51	430.66
549.68	402.57
549.84	388.53
550.01	414.27
550.18	456.40
550.34	433.00
550.51	428.32
550.68	414.27
550.84	383.85
551.01	397.89
551.18	423.64
551.34	418.96
551.51	390.87
551.68	414.27
551.84	393.21
552.01	470.45
552.18	440.02
552.34	421.30
552.51	433.00
552.68	397.89
552.84	430.66
553.01	430.66
553.18	444.70
553.34	390.87
553.51	491.51
553.67	440.02
553.84	428.32
554.01	463.43
554.17	461.09
554.34	421.30
554.51	397.89
554.67	428.32
554.84	404.91
555.00	416.62
555.17	374.49
555.33	425.98
555.50	428.32
555.67	388.53
555.83	381.51
556.00	376.83
556.16	535.98
556.33	447.04
556.50	421.30
556.66	414.27
556.83	425.98
556.99	358.10
557.16	404.91
557.32	379.17
557.49	386.19
557.65	456.40
557.82	355.76
557.98	386.19
558.15	416.62
558.32	367.46
558.48	435.34
558.65	407.25
558.81	468.11
558.98	414.27
559.14	433.00
559.31	418.96
559.47	425.98
559.64	390.87
559.80	411.93
559.97	449.38
560.13	463.43
560.30	440.02
560.46	425.98
560.63	414.27
560.79	383.85
560.96	461.09
561.12	395.55
561.29	423.64
561.45	404.91
561.61	383.85
561.78	454.06
561.94	348.74
562.11	379.17
562.27	416.62
562.44	372.15
562.60	442.36
562.77	425.98
562.93	465.77
563.10	447.04
563.26	400.23
563.42	418.96
563.59	425.98
563.75	435.34
563.92	423.64
564.08	400.23
564.24	365.12
564.41	463.43
564.57	440.02
564.74	416.62
564.90	400.23
565.07	440.02
565.23	386.19
565.39	341.72
565.56	447.04
565.72	451.72
565.88	339.38
566.05	477.47
566.21	470.45
566.38	458.74
566.54	348.74
566.70	411.93
566.87	383.85
567.03	411.93
567.19	360.44
567.36	416.62
567.52	379.17
567.68	468.11
567.85	421.30
568.01	510.24
568.17	458.74
568.34	390.87
568.50	367.46
568.66	440.02
568.83	477.47
568.99	414.27
569.15	425.98
569.32	465.77
569.48	416.62
569.64	400.23
569.81	433.00
569.97	430.66
570.13	397.89
570.30	383.85
570.46	411.93
570.62	440.02
570.78	355.76
570.95	379.17
571.11	409.59
571.27	411.93
571.43	393.21
571.60	435.34
571.76	346.40
571.92	416.62
572.09	374.49
572.25	376.83
572.41	351.08
572.57	458.74
572.74	468.11
572.90	400.23
573.06	388.53
573.22	468.11
573.38	449.38
573.55	430.66
573.71	486.83
573.87	489.17
574.03	421.30
574.20	374.49
574.36	334.70
574.52	388.53
574.68	484.49
574.84	418.96
575.01	374.49
575.17	444.70
575.33	367.46
575.49	465.77
575.65	388.53
575.82	383.85
575.98	435.34
576.14	374.49
576.30	362.78
576.46	428.32
576.62	447.04
576.79	493.85
576.95	440.02
577.11	386.19
577.27	372.15
577.43	411.93
577.59	454.06
577.75	395.55
577.92	397.89
578.08	376.83
578.24	376.83
578.40	491.51
578.56	367.46
578.72	428.32
578.88	463.43
579.04	390.87
579.21	379.17
579.37	390.87
579.53	430.66
579.69	449.38
579.85	374.49
580.01	440.02
580.17	372.15
580.33	430.66
580.49	437.68
580.65	390.87
580.82	383.85
580.98	433.00
581.14	414.27
581.30	447.04
581.46	376.83
581.62	521.94
581.78	430.66
581.94	425.98
582.10	411.93
582.26	430.66
582.42	402.57
582.58	381.51
582.74	437.68
582.90	395.55
583.06	402.57
583.22	362.78
583.38	358.10
583.54	397.89
583.70	433.00
583.86	402.57
584.02	397.89
584.18	491.51
584.34	411.93
584.50	376.83
584.66	367.46
584.82	367.46
584.98	402.57
585.14	442.36
585.30	428.32
585.46	425.98
585.62	449.38
585.78	407.25
585.94	409.59
586.10	423.64
586.26	418.96
586.42	442.36
586.58	411.93
586.74	507.90
586.90	407.25
587.06	451.72
587.22	440.02
587.38	437.68
587.54	447.04
587.70	411.93
587.86	440.02
588.02	383.85
588.18	433.00
588.34	489.17
588.49	409.59
588.65	461.09
588.81	477.47
588.97	390.87
589.13	397.89
589.29	444.70
589.45	440.02
589.61	416.62
589.77	430.66
589.93	341.72
590.08	332.36
590.24	395.55
590.40	383.85
590.56	430.66
590.72	395.55
590.88	393.21
591.04	407.25
591.20	425.98
591.35	376.83
591.51	423.64
591.67	404.91
591.83	381.51
591.99	369.80
592.15	430.66
592.31	430.66
592.46	393.21
592.62	395.55
592.78	360.44
592.94	465.77
593.10	449.38
593.26	397.89
593.41	493.85
593.57	381.51
593.73	388.53
593.89	411.93
594.05	397.89
594.20	407.25
594.36	500.87
594.52	528.96
594.68	365.12
594.84	353.42
594.99	428.32
595.15	409.59
595.31	395.55
595.47	463.43
595.62	423.64
595.78	456.40
595.94	395.55
596.10	489.17
596.25	458.74
596.41	362.78
596.57	423.64
596.73	383.85
596.88	409.59
597.04	393.21
597.20	374.49
597.36	393.21
597.51	428.32
597.67	404.91
597.83	383.85
597.99	425.98
598.14	507.90
598.30	390.87
598.46	374.49
598.61	468.11
598.77	416.62
598.93	372.15
599.09	456.40
599.24	334.70
599.40	400.23
599.56	425.98
599.71	423.64
599.87	414.27
600.03	383.85
600.18	407.25
600.34	402.57
600.50	440.02
600.65	362.78
600.81	404.91
600.97	454.06
601.12	414.27
601.28	521.94
601.44	442.36
601.59	491.51
601.75	390.87
601.91	449.38
602.06	369.80
602.22	425.98
602.37	393.21
602.53	362.78
602.69	470.45
602.84	433.00
603.00	447.04
603.16	430.66
603.31	411.93
603.47	397.89
603.62	358.10
603.78	409.59
603.94	386.19
604.09	428.32
604.25	493.85
604.40	416.62
604.56	451.72
604.71	437.68
604.87	449.38
605.03	390.87
605.18	465.77
605.34	477.47
605.49	402.57
605.65	416.62
605.80	346.40
605.96	372.15
606.12	437.68
606.27	395.55
606.43	393.21
606.58	463.43
606.74	449.38
606.89	376.83
607.05	437.68
607.20	447.04
607.36	425.98
607.51	486.83
607.67	416.62
607.82	435.34
607.98	454.06
608.13	458.74
608.29	395.55
608.44	414.27
608.60	365.12
608.75	421.30
608.91	393.21
609.06	395.55
609.22	353.42
609.37	315.97
609.53	358.10
609.68	383.85
609.84	477.47
609.99	374.49
610.15	449.38
