SpectraSuite Data File
++++++++++++++++++++++++++++++++++++
Date: Fri Oct 25 12:11:03 EDT 2013
User: price-jones
Dark Spectrum Present: No
Reference Spectrum Present: No
Number of Sampled Component Spectra: 1
Spectrometers: USB2+H05261
Integration Time (usec): 100000 (USB2+H05261)
Spectra Averaged: 1 (USB2+H05261)
Boxcar Smoothing: 0 (USB2+H05261)
Correct for Electrical Dark: No (USB2+H05261)
Strobe/Lamp Enabled: No (USB2+H05261)
Correct for Detector Non-linearity: No (USB2+H05261)
Correct for Stray Light: No (USB2+H05261)
Number of Pixels in Processed Spectrum: 2048
>>>>>Begin Processed Spectral Data<<<<<
365.73	414.27
365.92	414.27
366.12	414.27
366.32	264.48
366.52	177.88
366.72	273.84
366.91	266.82
367.11	175.54
367.31	231.71
367.51	175.54
367.70	236.39
367.90	198.95
368.10	283.20
368.30	294.91
368.49	259.80
368.69	262.14
368.89	175.54
369.09	236.39
369.28	227.03
369.48	341.72
369.68	285.55
369.87	304.27
370.07	346.40
370.27	327.68
370.47	367.46
370.66	334.70
370.86	365.12
371.06	355.76
371.25	341.72
371.45	381.51
371.65	360.44
371.84	423.64
372.04	421.30
372.24	344.06
372.44	388.53
372.63	390.87
372.83	409.59
373.03	418.96
373.22	456.40
373.42	379.17
373.62	437.68
373.81	442.36
374.01	458.74
374.21	475.13
374.40	362.78
374.60	425.98
374.79	367.46
374.99	411.93
375.19	456.40
375.38	458.74
375.58	376.83
375.78	491.51
375.97	444.70
376.17	493.85
376.37	411.93
376.56	381.51
376.76	414.27
376.95	393.21
377.15	407.25
377.35	383.85
377.54	411.93
377.74	395.55
377.93	465.77
378.13	428.32
378.33	421.30
378.52	414.27
378.72	477.47
378.91	376.83
379.11	393.21
379.31	341.72
379.50	393.21
379.70	395.55
379.89	386.19
380.09	477.47
380.28	416.62
380.48	381.51
380.68	390.87
380.87	414.27
381.07	402.57
381.26	433.00
381.46	383.85
381.65	423.64
381.85	367.46
382.04	397.89
382.24	386.19
382.43	344.06
382.63	372.15
382.83	421.30
383.02	461.09
383.22	461.09
383.41	348.74
383.61	463.43
383.80	470.45
384.00	383.85
384.19	365.12
384.39	449.38
384.58	374.49
384.78	397.89
384.97	381.51
385.17	393.21
385.36	409.59
385.56	425.98
385.75	313.63
385.95	383.85
386.14	425.98
386.34	425.98
386.53	402.57
386.72	409.59
386.92	400.23
387.11	397.89
387.31	393.21
387.50	334.70
387.70	451.72
387.89	430.66
388.09	402.57
388.28	416.62
388.48	369.80
388.67	425.98
388.86	496.19
389.06	421.30
389.25	430.66
389.45	411.93
389.64	360.44
389.84	425.98
390.03	433.00
390.22	414.27
390.42	393.21
390.61	325.33
390.81	407.25
391.00	428.32
391.19	421.30
391.39	428.32
391.58	400.23
391.78	393.21
391.97	454.06
392.16	463.43
392.36	423.64
392.55	484.49
392.75	416.62
392.94	388.53
393.13	416.62
393.33	409.59
393.52	418.96
393.71	397.89
393.91	440.02
394.10	465.77
394.29	421.30
394.49	376.83
394.68	461.09
394.88	428.32
395.07	449.38
395.26	365.12
395.46	393.21
395.65	449.38
395.84	435.34
396.04	521.94
396.23	400.23
396.42	393.21
396.62	454.06
396.81	440.02
397.00	322.99
397.19	425.98
397.39	381.51
397.58	409.59
397.77	437.68
397.97	458.74
398.16	393.21
398.35	400.23
398.55	381.51
398.74	409.59
398.93	418.96
399.12	374.49
399.32	416.62
399.51	463.43
399.70	379.17
399.90	390.87
400.09	447.04
400.28	404.91
400.47	440.02
400.67	482.15
400.86	433.00
401.05	454.06
401.24	423.64
401.44	461.09
401.63	547.69
401.82	383.85
402.01	390.87
402.21	437.68
402.40	353.42
402.59	400.23
402.78	433.00
402.97	402.57
403.17	397.89
403.36	353.42
403.55	451.72
403.74	437.68
403.93	493.85
404.13	428.32
404.32	400.23
404.51	418.96
404.70	414.27
404.89	390.87
405.09	437.68
405.28	418.96
405.47	418.96
405.66	484.49
405.85	442.36
406.05	407.25
406.24	402.57
406.43	308.95
406.62	435.34
406.81	447.04
407.00	425.98
407.20	425.98
407.39	308.95
407.58	451.72
407.77	428.32
407.96	428.32
408.15	390.87
408.34	411.93
408.54	418.96
408.73	411.93
408.92	402.57
409.11	428.32
409.30	482.15
409.49	414.27
409.68	400.23
409.87	425.98
410.07	414.27
410.26	425.98
410.45	444.70
410.64	360.44
410.83	355.76
411.02	430.66
411.21	482.15
411.40	428.32
411.59	440.02
411.78	414.27
411.98	411.93
412.17	482.15
412.36	372.15
412.55	355.76
412.74	355.76
412.93	409.59
413.12	393.21
413.31	404.91
413.50	456.40
413.69	433.00
413.88	447.04
414.07	430.66
414.26	374.49
414.45	379.17
414.64	421.30
414.83	409.59
415.02	369.80
415.22	440.02
415.41	379.17
415.60	411.93
415.79	397.89
415.98	393.21
416.17	442.36
416.36	423.64
416.55	430.66
416.74	444.70
416.93	407.25
417.12	353.42
417.31	353.42
417.50	388.53
417.69	428.32
417.88	393.21
418.07	362.78
418.26	414.27
418.45	374.49
418.64	491.51
418.83	388.53
419.02	440.02
419.21	414.27
419.39	376.83
419.58	411.93
419.77	388.53
419.96	468.11
420.15	435.34
420.34	416.62
420.53	381.51
420.72	416.62
420.91	369.80
421.10	402.57
421.29	461.09
421.48	397.89
421.67	423.64
421.86	367.46
422.05	390.87
422.24	334.70
422.43	402.57
422.61	407.25
422.80	367.46
422.99	440.02
423.18	400.23
423.37	521.94
423.56	454.06
423.75	409.59
423.94	435.34
424.13	400.23
424.32	442.36
424.50	386.19
424.69	376.83
424.88	393.21
425.07	367.46
425.26	393.21
425.45	449.38
425.64	351.08
425.83	456.40
426.01	418.96
426.20	425.98
426.39	376.83
426.58	367.46
426.77	421.30
426.96	423.64
427.15	416.62
427.33	397.89
427.52	404.91
427.71	379.17
427.90	425.98
428.09	369.80
428.28	355.76
428.46	411.93
428.65	479.81
428.84	407.25
429.03	423.64
429.22	395.55
429.40	409.59
429.59	430.66
429.78	430.66
429.97	428.32
430.16	322.99
430.34	402.57
430.53	416.62
430.72	404.91
430.91	435.34
431.10	390.87
431.28	428.32
431.47	449.38
431.66	395.55
431.85	461.09
432.03	374.49
432.22	449.38
432.41	428.32
432.60	430.66
432.79	418.96
432.97	369.80
433.16	390.87
433.35	402.57
433.54	374.49
433.72	409.59
433.91	440.02
434.10	376.83
434.28	433.00
434.47	425.98
434.66	479.81
434.85	381.51
435.03	390.87
435.22	402.57
435.41	498.53
435.59	332.36
435.78	409.59
435.97	372.15
436.16	421.30
436.34	327.68
436.53	414.27
436.72	463.43
436.90	430.66
437.09	430.66
437.28	409.59
437.46	393.21
437.65	433.00
437.84	461.09
438.02	381.51
438.21	472.79
438.40	475.13
438.58	430.66
438.77	444.70
438.96	421.30
439.14	458.74
439.33	461.09
439.52	423.64
439.70	416.62
439.89	423.64
440.08	414.27
440.26	409.59
440.45	341.72
440.63	407.25
440.82	383.85
441.01	407.25
441.19	381.51
441.38	442.36
441.57	400.23
441.75	407.25
441.94	402.57
442.12	444.70
442.31	416.62
442.50	388.53
442.68	383.85
442.87	423.64
443.05	402.57
443.24	428.32
443.43	381.51
443.61	472.79
443.80	449.38
443.98	425.98
444.17	346.40
444.35	437.68
444.54	444.70
444.73	397.89
444.91	414.27
445.10	390.87
445.28	334.70
445.47	381.51
445.65	435.34
445.84	423.64
446.02	388.53
446.21	456.40
446.39	386.19
446.58	458.74
446.77	454.06
446.95	449.38
447.14	423.64
447.32	496.19
447.51	353.42
447.69	395.55
447.88	348.74
448.06	496.19
448.25	402.57
448.43	465.77
448.62	423.64
448.80	411.93
448.99	386.19
449.17	411.93
449.36	435.34
449.54	484.49
449.73	353.42
449.91	388.53
450.10	437.68
450.28	362.78
450.46	447.04
450.65	449.38
450.83	458.74
451.02	442.36
451.20	388.53
451.39	440.02
451.57	400.23
451.76	372.15
451.94	468.11
452.13	470.45
452.31	390.87
452.49	463.43
452.68	477.47
452.86	369.80
453.05	337.04
453.23	414.27
453.42	433.00
453.60	423.64
453.78	423.64
453.97	390.87
454.15	449.38
454.34	472.79
454.52	440.02
454.70	437.68
454.89	437.68
455.07	449.38
455.26	454.06
455.44	407.25
455.62	404.91
455.81	479.81
455.99	390.87
456.17	388.53
456.36	386.19
456.54	418.96
456.73	428.32
456.91	451.72
457.09	421.30
457.28	393.21
457.46	435.34
457.64	425.98
457.83	386.19
458.01	372.15
458.19	407.25
458.38	404.91
458.56	407.25
458.74	447.04
458.93	411.93
459.11	449.38
459.29	425.98
459.48	433.00
459.66	456.40
459.84	353.42
460.03	414.27
460.21	547.69
460.39	313.63
460.57	486.83
460.76	395.55
460.94	456.40
461.12	433.00
461.31	411.93
461.49	388.53
461.67	414.27
461.85	397.89
462.04	367.46
462.22	781.74
462.40	400.23
462.59	376.83
462.77	454.06
462.95	433.00
463.13	418.96
463.32	428.32
463.50	414.27
463.68	369.80
463.86	414.27
464.05	402.57
464.23	402.57
464.41	407.25
464.59	388.53
464.78	414.27
464.96	433.00
465.14	433.00
465.32	400.23
465.50	348.74
465.69	449.38
465.87	440.02
466.05	409.59
466.23	353.42
466.41	435.34
466.60	388.53
466.78	479.81
466.96	400.23
467.14	442.36
467.32	397.89
467.51	458.74
467.69	458.74
467.87	456.40
468.05	470.45
468.23	414.27
468.41	416.62
468.60	407.25
468.78	397.89
468.96	479.81
469.14	425.98
469.32	449.38
469.50	470.45
469.69	428.32
469.87	407.25
470.05	430.66
470.23	470.45
470.41	423.64
470.59	379.17
470.77	454.06
470.95	402.57
471.14	379.17
471.32	437.68
471.50	411.93
471.68	416.62
471.86	418.96
472.04	440.02
472.22	379.17
472.40	400.23
472.58	463.43
472.77	355.76
472.95	449.38
473.13	493.85
473.31	444.70
473.49	383.85
473.67	404.91
473.85	416.62
474.03	447.04
474.21	400.23
474.39	461.09
474.57	484.49
474.75	463.43
474.93	433.00
475.12	451.72
475.30	407.25
475.48	397.89
475.66	416.62
475.84	444.70
476.02	451.72
476.20	454.06
476.38	388.53
476.56	451.72
476.74	407.25
476.92	463.43
477.10	393.21
477.28	505.56
477.46	477.47
477.64	451.72
477.82	486.83
478.00	440.02
478.18	407.25
478.36	425.98
478.54	428.32
478.72	395.55
478.90	400.23
479.08	414.27
479.26	423.64
479.44	451.72
479.62	423.64
479.80	447.04
479.98	369.80
480.16	416.62
480.34	348.74
480.52	407.25
480.70	416.62
480.88	411.93
481.06	414.27
481.24	395.55
481.41	358.10
481.59	456.40
481.77	376.83
481.95	353.42
482.13	416.62
482.31	386.19
482.49	423.64
482.67	468.11
482.85	418.96
483.03	367.46
483.21	449.38
483.39	461.09
483.57	379.17
483.74	397.89
483.92	442.36
484.10	376.83
484.28	381.51
484.46	456.40
484.64	421.30
484.82	404.91
485.00	381.51
485.18	348.74
485.35	376.83
485.53	374.49
485.71	418.96
485.89	397.89
486.07	337.04
486.25	433.00
486.43	407.25
486.61	498.53
486.78	465.77
486.96	421.30
487.14	411.93
487.32	369.80
487.50	409.59
487.68	456.40
487.85	484.49
488.03	418.96
488.21	414.27
488.39	379.17
488.57	423.64
488.75	386.19
488.92	519.60
489.10	404.91
489.28	447.04
489.46	411.93
489.64	409.59
489.81	390.87
489.99	346.40
490.17	428.32
490.35	463.43
490.53	393.21
490.70	418.96
490.88	383.85
491.06	353.42
491.24	423.64
491.41	486.83
491.59	433.00
491.77	484.49
491.95	416.62
492.13	449.38
492.30	416.62
492.48	360.44
492.66	442.36
492.84	395.55
493.01	430.66
493.19	376.83
493.37	409.59
493.54	381.51
493.72	437.68
493.90	379.17
494.08	430.66
494.25	437.68
494.43	390.87
494.61	393.21
494.79	397.89
494.96	386.19
495.14	418.96
495.32	383.85
495.49	367.46
495.67	402.57
495.85	437.68
496.02	322.99
496.20	372.15
496.38	447.04
496.55	383.85
496.73	400.23
496.91	465.77
497.09	372.15
497.26	407.25
497.44	411.93
497.62	355.76
497.79	360.44
497.97	379.17
498.14	421.30
498.32	454.06
498.50	411.93
498.67	374.49
498.85	397.89
499.03	388.53
499.20	397.89
499.38	397.89
499.56	407.25
499.73	360.44
499.91	379.17
500.08	383.85
500.26	395.55
500.44	489.17
500.61	447.04
500.79	507.90
500.97	482.15
501.14	390.87
501.32	428.32
501.49	430.66
501.67	423.64
501.84	344.06
502.02	409.59
502.20	393.21
502.37	369.80
502.55	465.77
502.72	402.57
502.90	454.06
503.07	437.68
503.25	393.21
503.43	409.59
503.60	423.64
503.78	402.57
503.95	470.45
504.13	428.32
504.30	447.04
504.48	428.32
504.65	388.53
504.83	440.02
505.01	379.17
505.18	461.09
505.36	486.83
505.53	390.87
505.71	407.25
505.88	475.13
506.06	493.85
506.23	411.93
506.41	458.74
506.58	411.93
506.76	416.62
506.93	421.30
507.11	400.23
507.28	437.68
507.46	402.57
507.63	425.98
507.81	409.59
507.98	447.04
508.16	472.79
508.33	447.04
508.50	451.72
508.68	404.91
508.85	400.23
509.03	339.38
509.20	425.98
509.38	381.51
509.55	477.47
509.73	411.93
509.90	397.89
510.08	430.66
510.25	362.78
510.42	433.00
510.60	463.43
510.77	397.89
510.95	447.04
511.12	407.25
511.30	418.96
511.47	444.70
511.64	437.68
511.82	353.42
511.99	390.87
512.17	395.55
512.34	409.59
512.51	344.06
512.69	463.43
512.86	442.36
513.04	447.04
513.21	489.17
513.38	458.74
513.56	400.23
513.73	470.45
513.90	411.93
514.08	437.68
514.25	447.04
514.43	447.04
514.60	397.89
514.77	379.17
514.95	435.34
515.12	393.21
515.29	447.04
515.47	393.21
515.64	444.70
515.81	468.11
515.99	428.32
516.16	433.00
516.33	482.15
516.51	437.68
516.68	414.27
516.85	330.02
517.03	411.93
517.20	369.80
517.37	360.44
517.54	416.62
517.72	442.36
517.89	418.96
518.06	472.79
518.24	477.47
518.41	404.91
518.58	472.79
518.75	346.40
518.93	341.72
519.10	397.89
519.27	428.32
519.45	400.23
519.62	435.34
519.79	456.40
519.96	409.59
520.14	358.10
520.31	409.59
520.48	470.45
520.65	341.72
520.83	402.57
521.00	458.74
521.17	479.81
521.34	409.59
521.52	353.42
521.69	367.46
521.86	395.55
522.03	449.38
522.20	416.62
522.38	491.51
522.55	454.06
522.72	456.40
522.89	395.55
523.07	468.11
523.24	414.27
523.41	330.02
523.58	428.32
523.75	440.02
523.92	421.30
524.10	451.72
524.27	454.06
524.44	447.04
524.61	440.02
524.78	369.80
524.96	465.77
525.13	421.30
525.30	402.57
525.47	386.19
525.64	435.34
525.81	407.25
525.98	402.57
526.16	348.74
526.33	397.89
526.50	402.57
526.67	418.96
526.84	383.85
527.01	442.36
527.18	451.72
527.36	395.55
527.53	374.49
527.70	423.64
527.87	407.25
528.04	404.91
528.21	397.89
528.38	435.34
528.55	409.59
528.72	376.83
528.89	449.38
529.07	400.23
529.24	381.51
529.41	409.59
529.58	435.34
529.75	379.17
529.92	418.96
530.09	430.66
530.26	430.66
530.43	367.46
530.60	414.27
530.77	493.85
530.94	402.57
531.11	477.47
531.28	407.25
531.46	428.32
531.63	425.98
531.80	496.19
531.97	461.09
532.14	447.04
532.31	470.45
532.48	365.12
532.65	404.91
532.82	374.49
532.99	423.64
533.16	437.68
533.33	465.77
533.50	454.06
533.67	386.19
533.84	418.96
534.01	463.43
534.18	397.89
534.35	423.64
534.52	416.62
534.69	456.40
534.86	381.51
535.03	390.87
535.20	337.04
535.37	435.34
535.54	468.11
535.71	393.21
535.88	437.68
536.05	435.34
536.22	393.21
536.38	390.87
536.55	416.62
536.72	407.25
536.89	374.49
537.06	395.55
537.23	456.40
537.40	433.00
537.57	414.27
537.74	397.89
537.91	367.46
538.08	381.51
538.25	456.40
538.42	388.53
538.59	386.19
538.75	458.74
538.92	393.21
539.09	465.77
539.26	369.80
539.43	400.23
539.60	454.06
539.77	390.87
539.94	433.00
540.11	400.23
540.28	416.62
540.44	430.66
540.61	388.53
540.78	395.55
540.95	440.02
541.12	416.62
541.29	444.70
541.46	395.55
541.62	447.04
541.79	369.80
541.96	376.83
542.13	428.32
542.30	493.85
542.47	353.42
542.63	440.02
542.80	435.34
542.97	461.09
543.14	489.17
543.31	444.70
543.48	472.79
543.64	451.72
543.81	425.98
543.98	430.66
544.15	381.51
544.32	472.79
544.48	458.74
544.65	418.96
544.82	409.59
544.99	414.27
545.16	465.77
545.32	428.32
545.49	456.40
545.66	451.72
545.83	425.98
546.00	358.10
546.16	407.25
546.33	414.27
546.50	400.23
546.67	449.38
546.83	383.85
547.00	404.91
547.17	400.23
547.34	430.66
547.50	430.66
547.67	383.85
547.84	397.89
548.00	428.32
548.17	404.91
548.34	472.79
548.51	496.19
548.67	360.44
548.84	374.49
549.01	402.57
549.18	449.38
549.34	435.34
549.51	465.77
549.68	404.91
549.84	402.57
550.01	489.17
550.18	500.87
550.34	430.66
550.51	388.53
550.68	381.51
550.84	411.93
551.01	465.77
551.18	414.27
551.34	458.74
551.51	418.96
551.68	409.59
551.84	409.59
552.01	418.96
552.18	395.55
552.34	440.02
552.51	379.17
552.68	402.57
552.84	428.32
553.01	475.13
553.18	440.02
553.34	376.83
553.51	461.09
553.67	402.57
553.84	512.58
554.01	435.34
554.17	428.32
554.34	440.02
554.51	425.98
554.67	421.30
554.84	456.40
555.00	418.96
555.17	463.43
555.33	472.79
555.50	449.38
555.67	423.64
555.83	416.62
556.00	409.59
556.16	465.77
556.33	458.74
556.50	425.98
556.66	402.57
556.83	332.36
556.99	430.66
557.16	395.55
557.32	381.51
557.49	372.15
557.65	433.00
557.82	430.66
557.98	404.91
558.15	353.42
558.32	421.30
558.48	337.04
558.65	355.76
558.81	383.85
558.98	435.34
559.14	400.23
559.31	447.04
559.47	514.92
559.64	411.93
559.80	435.34
559.97	372.15
560.13	381.51
560.30	444.70
560.46	411.93
560.63	409.59
560.79	397.89
560.96	425.98
561.12	386.19
561.29	390.87
561.45	435.34
561.61	395.55
561.78	545.34
561.94	425.98
562.11	372.15
562.27	379.17
562.44	416.62
562.60	416.62
562.77	367.46
562.93	561.73
563.10	435.34
563.26	414.27
563.42	407.25
563.59	409.59
563.75	360.44
563.92	400.23
564.08	465.77
564.24	433.00
564.41	461.09
564.57	430.66
564.74	430.66
564.90	414.27
565.07	451.72
565.23	367.46
565.39	388.53
565.56	479.81
565.72	400.23
565.88	400.23
566.05	479.81
566.21	423.64
566.38	402.57
566.54	400.23
566.70	421.30
566.87	484.49
567.03	346.40
567.19	411.93
567.36	435.34
567.52	376.83
567.68	475.13
567.85	444.70
568.01	397.89
568.17	388.53
568.34	404.91
568.50	454.06
568.66	411.93
568.83	489.17
568.99	463.43
569.15	430.66
569.32	395.55
569.48	423.64
569.64	374.49
569.81	493.85
569.97	447.04
570.13	435.34
570.30	425.98
570.46	341.72
570.62	330.02
570.78	351.08
570.95	390.87
571.11	447.04
571.27	440.02
571.43	425.98
571.60	456.40
571.76	440.02
571.92	461.09
572.09	400.23
572.25	428.32
572.41	430.66
572.57	372.15
572.74	461.09
572.90	393.21
573.06	386.19
573.22	411.93
573.38	416.62
573.55	437.68
573.71	397.89
573.87	491.51
574.03	334.70
574.20	386.19
574.36	418.96
574.52	449.38
574.68	360.44
574.84	437.68
575.01	425.98
575.17	409.59
575.33	428.32
575.49	440.02
575.65	454.06
575.82	470.45
575.98	482.15
576.14	465.77
576.30	491.51
576.46	430.66
576.62	461.09
576.79	496.19
576.95	463.43
577.11	346.40
577.27	437.68
577.43	479.81
577.59	423.64
577.75	425.98
577.92	458.74
578.08	458.74
578.24	407.25
578.40	451.72
578.56	353.42
578.72	440.02
578.88	402.57
579.04	449.38
579.21	491.51
579.37	414.27
579.53	372.15
579.69	411.93
579.85	411.93
580.01	383.85
580.17	435.34
580.33	463.43
580.49	435.34
580.65	404.91
580.82	433.00
580.98	421.30
581.14	376.83
581.30	503.22
581.46	425.98
581.62	491.51
581.78	376.83
581.94	430.66
582.10	388.53
582.26	444.70
582.42	411.93
582.58	442.36
582.74	468.11
582.90	444.70
583.06	458.74
583.22	414.27
583.38	414.27
583.54	418.96
583.70	477.47
583.86	451.72
584.02	421.30
584.18	430.66
584.34	425.98
584.50	447.04
584.66	428.32
584.82	395.55
584.98	428.32
585.14	442.36
585.30	411.93
585.46	458.74
585.62	372.15
585.78	458.74
585.94	484.49
586.10	442.36
586.26	381.51
586.42	484.49
586.58	414.27
586.74	390.87
586.90	407.25
587.06	461.09
587.22	433.00
587.38	388.53
587.54	402.57
587.70	447.04
587.86	407.25
588.02	414.27
588.18	374.49
588.34	407.25
588.49	423.64
588.65	395.55
588.81	416.62
588.97	367.46
589.13	456.40
589.29	397.89
589.45	372.15
589.61	397.89
589.77	404.91
589.93	381.51
590.08	339.38
590.24	428.32
590.40	458.74
590.56	423.64
590.72	435.34
590.88	477.47
591.04	421.30
591.20	409.59
591.35	411.93
591.51	475.13
591.67	341.72
591.83	367.46
591.99	386.19
592.15	416.62
592.31	421.30
592.46	421.30
592.62	470.45
592.78	397.89
592.94	435.34
593.10	383.85
593.26	402.57
593.41	407.25
593.57	381.51
593.73	416.62
593.89	430.66
594.05	400.23
594.20	433.00
594.36	454.06
594.52	365.12
594.68	463.43
594.84	447.04
594.99	468.11
595.15	404.91
595.31	510.24
595.47	414.27
595.62	400.23
595.78	416.62
595.94	414.27
596.10	409.59
596.25	444.70
596.41	425.98
596.57	430.66
596.73	449.38
596.88	388.53
597.04	440.02
597.20	468.11
597.36	463.43
597.51	425.98
597.67	470.45
597.83	451.72
597.99	367.46
598.14	430.66
598.30	388.53
598.46	456.40
598.61	376.83
598.77	381.51
598.93	430.66
599.09	433.00
599.24	376.83
599.40	479.81
599.56	416.62
599.71	440.02
599.87	418.96
600.03	482.15
600.18	416.62
600.34	423.64
600.50	461.09
600.65	367.46
600.81	463.43
600.97	414.27
601.12	428.32
601.28	416.62
601.44	407.25
601.59	379.17
601.75	447.04
601.91	423.64
602.06	376.83
602.22	451.72
602.37	341.72
602.53	461.09
602.69	461.09
602.84	461.09
603.00	404.91
603.16	430.66
603.31	451.72
603.47	437.68
603.62	386.19
603.78	421.30
603.94	397.89
604.09	397.89
604.25	465.77
604.40	425.98
604.56	461.09
604.71	477.47
604.87	428.32
605.03	381.51
605.18	482.15
605.34	475.13
605.49	440.02
605.65	470.45
605.80	386.19
605.96	400.23
606.12	374.49
606.27	337.04
606.43	435.34
606.58	454.06
606.74	351.08
606.89	397.89
607.05	454.06
607.20	440.02
607.36	454.06
607.51	365.12
607.67	402.57
607.82	428.32
607.98	477.47
608.13	465.77
608.29	351.08
608.44	379.17
608.60	435.34
608.75	437.68
608.91	374.49
609.06	397.89
609.22	435.34
609.37	437.68
609.53	386.19
609.68	456.40
609.84	397.89
609.99	367.46
610.15	400.23
