SpectraSuite Data File
++++++++++++++++++++++++++++++++++++
Date: Fri Oct 25 12:11:21 EDT 2013
User: price-jones
Dark Spectrum Present: No
Reference Spectrum Present: No
Number of Sampled Component Spectra: 1
Spectrometers: USB2+H05261
Integration Time (usec): 100000 (USB2+H05261)
Spectra Averaged: 1 (USB2+H05261)
Boxcar Smoothing: 0 (USB2+H05261)
Correct for Electrical Dark: No (USB2+H05261)
Strobe/Lamp Enabled: No (USB2+H05261)
Correct for Detector Non-linearity: No (USB2+H05261)
Correct for Stray Light: No (USB2+H05261)
Number of Pixels in Processed Spectrum: 2048
>>>>>Begin Processed Spectral Data<<<<<
365.73	332.36
365.92	332.36
366.12	332.36
366.32	220.01
366.52	294.91
366.72	231.71
366.91	201.29
367.11	224.69
367.31	243.42
367.51	252.78
367.70	269.16
367.90	262.14
368.10	191.92
368.30	245.76
368.49	301.93
368.69	252.78
368.89	266.82
369.09	236.39
369.28	252.78
369.48	337.04
369.68	229.37
369.87	280.86
370.07	287.89
370.27	330.02
370.47	330.02
370.66	325.33
370.86	379.17
371.06	308.95
371.25	318.31
371.45	353.42
371.65	351.08
371.84	351.08
372.04	369.80
372.24	444.70
372.44	428.32
372.63	353.42
372.83	383.85
373.03	428.32
373.22	393.21
373.42	421.30
373.62	435.34
373.81	451.72
374.01	456.40
374.21	461.09
374.40	423.64
374.60	538.32
374.79	463.43
374.99	458.74
375.19	414.27
375.38	374.49
375.58	477.47
375.78	472.79
375.97	433.00
376.17	498.53
376.37	430.66
376.56	456.40
376.76	369.80
376.95	369.80
377.15	444.70
377.35	341.72
377.54	437.68
377.74	402.57
377.93	461.09
378.13	402.57
378.33	425.98
378.52	404.91
378.72	463.43
378.91	407.25
379.11	454.06
379.31	425.98
379.50	397.89
379.70	388.53
379.89	440.02
380.09	383.85
380.28	383.85
380.48	414.27
380.68	381.51
380.87	386.19
381.07	411.93
381.26	433.00
381.46	430.66
381.65	411.93
381.85	404.91
382.04	449.38
382.24	393.21
382.43	388.53
382.63	379.17
382.83	451.72
383.02	479.81
383.22	351.08
383.41	344.06
383.61	353.42
383.80	383.85
384.00	491.51
384.19	451.72
384.39	423.64
384.58	372.15
384.78	407.25
384.97	402.57
385.17	433.00
385.36	451.72
385.56	435.34
385.75	351.08
385.95	437.68
386.14	484.49
386.34	409.59
386.53	411.93
386.72	400.23
386.92	440.02
387.11	383.85
387.31	409.59
387.50	442.36
387.70	402.57
387.89	388.53
388.09	358.10
388.28	362.78
388.48	374.49
388.67	395.55
388.86	390.87
389.06	376.83
389.25	496.19
389.45	393.21
389.64	435.34
389.84	388.53
390.03	379.17
390.22	447.04
390.42	435.34
390.61	456.40
390.81	416.62
391.00	411.93
391.19	395.55
391.39	395.55
391.58	355.76
391.78	376.83
391.97	430.66
392.16	409.59
392.36	468.11
392.55	383.85
392.75	475.13
392.94	430.66
393.13	447.04
393.33	337.04
393.52	433.00
393.71	430.66
393.91	400.23
394.10	327.68
394.29	428.32
394.49	451.72
394.68	402.57
394.88	493.85
395.07	435.34
395.26	484.49
395.46	428.32
395.65	479.81
395.84	344.06
396.04	449.38
396.23	383.85
396.42	411.93
396.62	409.59
396.81	376.83
397.00	355.76
397.19	421.30
397.39	423.64
397.58	360.44
397.77	383.85
397.97	503.22
398.16	418.96
398.35	479.81
398.55	442.36
398.74	407.25
398.93	414.27
399.12	358.10
399.32	400.23
399.51	367.46
399.70	381.51
399.90	379.17
400.09	454.06
400.28	447.04
400.47	402.57
400.67	409.59
400.86	437.68
401.05	437.68
401.24	409.59
401.44	461.09
401.63	334.70
401.82	397.89
402.01	339.38
402.21	428.32
402.40	440.02
402.59	463.43
402.78	433.00
402.97	388.53
403.17	409.59
403.36	486.83
403.55	395.55
403.74	376.83
403.93	365.12
404.13	421.30
404.32	369.80
404.51	435.34
404.70	397.89
404.89	376.83
405.09	437.68
405.28	428.32
405.47	376.83
405.66	400.23
405.85	355.76
406.05	358.10
406.24	348.74
406.43	435.34
406.62	433.00
406.81	428.32
407.00	388.53
407.20	285.55
407.39	414.27
407.58	414.27
407.77	430.66
407.96	428.32
408.15	447.04
408.34	397.89
408.54	433.00
408.73	402.57
408.92	351.08
409.11	402.57
409.30	407.25
409.49	367.46
409.68	390.87
409.87	425.98
410.07	397.89
410.26	442.36
410.45	402.57
410.64	423.64
410.83	428.32
411.02	395.55
411.21	395.55
411.40	440.02
411.59	411.93
411.78	367.46
411.98	435.34
412.17	386.19
412.36	414.27
412.55	437.68
412.74	489.17
412.93	407.25
413.12	421.30
413.31	404.91
413.50	386.19
413.69	374.49
413.88	444.70
414.07	407.25
414.26	395.55
414.45	428.32
414.64	423.64
414.83	444.70
415.02	428.32
415.22	465.77
415.41	437.68
415.60	386.19
415.79	360.44
415.98	360.44
416.17	440.02
416.36	437.68
416.55	461.09
416.74	416.62
416.93	477.47
417.12	528.96
417.31	395.55
417.50	367.46
417.69	416.62
417.88	458.74
418.07	390.87
418.26	423.64
418.45	348.74
418.64	414.27
418.83	355.76
419.02	428.32
419.21	386.19
419.39	404.91
419.58	379.17
419.77	456.40
419.96	416.62
420.15	393.21
420.34	484.49
420.53	425.98
420.72	376.83
420.91	372.15
421.10	337.04
421.29	442.36
421.48	416.62
421.67	433.00
421.86	470.45
422.05	332.36
422.24	386.19
422.43	465.77
422.61	449.38
422.80	374.49
422.99	393.21
423.18	416.62
423.37	447.04
423.56	451.72
423.75	334.70
423.94	425.98
424.13	402.57
424.32	444.70
424.50	440.02
424.69	362.78
424.88	416.62
425.07	390.87
425.26	395.55
425.45	388.53
425.64	449.38
425.83	423.64
426.01	489.17
426.20	447.04
426.39	442.36
426.58	423.64
426.77	456.40
426.96	444.70
427.15	435.34
427.33	402.57
427.52	458.74
427.71	416.62
427.90	435.34
428.09	451.72
428.28	435.34
428.46	421.30
428.65	470.45
428.84	353.42
429.03	468.11
429.22	414.27
429.40	451.72
429.59	472.79
429.78	456.40
429.97	447.04
430.16	365.12
430.34	388.53
430.53	397.89
430.72	344.06
430.91	362.78
431.10	386.19
431.28	409.59
431.47	503.22
431.66	433.00
431.85	435.34
432.03	472.79
432.22	454.06
432.41	383.85
432.60	435.34
432.79	407.25
432.97	472.79
433.16	404.91
433.35	374.49
433.54	425.98
433.72	444.70
433.91	444.70
434.10	425.98
434.28	440.02
434.47	416.62
434.66	376.83
434.85	411.93
435.03	468.11
435.22	425.98
435.41	430.66
435.59	416.62
435.78	407.25
435.97	435.34
436.16	454.06
436.34	430.66
436.53	402.57
436.72	395.55
436.90	407.25
437.09	402.57
437.28	444.70
437.46	449.38
437.65	428.32
437.84	374.49
438.02	409.59
438.21	407.25
438.40	463.43
438.58	390.87
438.77	444.70
438.96	423.64
439.14	376.83
439.33	402.57
439.52	416.62
439.70	442.36
439.89	395.55
440.08	362.78
440.26	390.87
440.45	376.83
440.63	339.38
440.82	367.46
441.01	407.25
441.19	404.91
441.38	388.53
441.57	414.27
441.75	430.66
441.94	449.38
442.12	428.32
442.31	351.08
442.50	414.27
442.68	374.49
442.87	411.93
443.05	376.83
443.24	416.62
443.43	353.42
443.61	486.83
443.80	404.91
443.98	454.06
444.17	442.36
444.35	477.47
444.54	414.27
444.73	376.83
444.91	400.23
445.10	402.57
445.28	458.74
445.47	400.23
445.65	400.23
445.84	402.57
446.02	468.11
446.21	512.58
446.39	465.77
446.58	416.62
446.77	425.98
446.95	367.46
447.14	418.96
447.32	414.27
447.51	376.83
447.69	456.40
447.88	433.00
448.06	456.40
448.25	456.40
448.43	372.15
448.62	402.57
448.80	430.66
448.99	463.43
449.17	390.87
449.36	440.02
449.54	423.64
449.73	442.36
449.91	400.23
450.10	397.89
450.28	503.22
450.46	430.66
450.65	332.36
450.83	383.85
451.02	486.83
451.20	428.32
451.39	400.23
451.57	393.21
451.76	437.68
451.94	430.66
452.13	402.57
452.31	430.66
452.49	400.23
452.68	390.87
452.86	418.96
453.05	470.45
453.23	355.76
453.42	360.44
453.60	386.19
453.78	416.62
453.97	402.57
454.15	362.78
454.34	344.06
454.52	388.53
454.70	470.45
454.89	454.06
455.07	386.19
455.26	440.02
455.44	416.62
455.62	330.02
455.81	433.00
455.99	465.77
456.17	442.36
456.36	409.59
456.54	374.49
456.73	395.55
456.91	376.83
457.09	465.77
457.28	395.55
457.46	440.02
457.64	411.93
457.83	390.87
458.01	407.25
458.19	458.74
458.38	400.23
458.56	404.91
458.74	491.51
458.93	435.34
459.11	470.45
459.29	491.51
459.48	430.66
459.66	395.55
459.84	353.42
460.03	470.45
460.21	402.57
460.39	421.30
460.57	491.51
460.76	411.93
460.94	411.93
461.12	425.98
461.31	428.32
461.49	404.91
461.67	376.83
461.85	400.23
462.04	440.02
462.22	814.51
462.40	409.59
462.59	341.72
462.77	376.83
462.95	393.21
463.13	381.51
463.32	372.15
463.50	416.62
463.68	428.32
463.86	428.32
464.05	411.93
464.23	397.89
464.41	503.22
464.59	379.17
464.78	381.51
464.96	400.23
465.14	423.64
465.32	407.25
465.50	430.66
465.69	463.43
465.87	468.11
466.05	454.06
466.23	386.19
466.41	322.99
466.60	369.80
466.78	409.59
466.96	379.17
467.14	449.38
467.32	475.13
467.51	540.66
467.69	407.25
467.87	440.02
468.05	468.11
468.23	484.49
468.41	428.32
468.60	418.96
468.78	416.62
468.96	458.74
469.14	418.96
469.32	442.36
469.50	479.81
469.69	379.17
469.87	404.91
470.05	430.66
470.23	414.27
470.41	416.62
470.59	348.74
470.77	416.62
470.95	482.15
471.14	451.72
471.32	390.87
471.50	416.62
471.68	388.53
471.86	449.38
472.04	404.91
472.22	367.46
472.40	404.91
472.58	437.68
472.77	404.91
472.95	428.32
473.13	533.64
473.31	404.91
473.49	451.72
473.67	351.08
473.85	458.74
474.03	360.44
474.21	435.34
474.39	411.93
474.57	372.15
474.75	451.72
474.93	404.91
475.12	421.30
475.30	402.57
475.48	437.68
475.66	395.55
475.84	430.66
476.02	430.66
476.20	442.36
476.38	472.79
476.56	472.79
476.74	395.55
476.92	404.91
477.10	404.91
477.28	440.02
477.46	376.83
477.64	437.68
477.82	425.98
478.00	414.27
478.18	482.15
478.36	444.70
478.54	388.53
478.72	393.21
478.90	486.83
479.08	461.09
479.26	404.91
479.44	367.46
479.62	327.68
479.80	379.17
479.98	388.53
480.16	421.30
480.34	418.96
480.52	444.70
480.70	428.32
480.88	437.68
481.06	388.53
481.24	367.46
481.41	442.36
481.59	376.83
481.77	374.49
481.95	379.17
482.13	454.06
482.31	421.30
482.49	379.17
482.67	402.57
482.85	411.93
483.03	339.38
483.21	411.93
483.39	404.91
483.57	425.98
483.74	416.62
483.92	423.64
484.10	430.66
484.28	437.68
484.46	491.51
484.64	397.89
484.82	372.15
485.00	402.57
485.18	337.04
485.35	402.57
485.53	393.21
485.71	496.19
485.89	440.02
486.07	388.53
486.25	461.09
486.43	379.17
486.61	367.46
486.78	461.09
486.96	430.66
487.14	411.93
487.32	395.55
487.50	395.55
487.68	458.74
487.85	454.06
488.03	477.47
488.21	411.93
488.39	447.04
488.57	442.36
488.75	458.74
488.92	526.62
489.10	470.45
489.28	465.77
489.46	390.87
489.64	360.44
489.81	351.08
489.99	456.40
490.17	402.57
490.35	496.19
490.53	425.98
490.70	393.21
490.88	423.64
491.06	407.25
491.24	421.30
491.41	489.17
491.59	430.66
491.77	332.36
491.95	372.15
492.13	376.83
492.30	526.62
492.48	379.17
492.66	372.15
492.84	355.76
493.01	402.57
493.19	386.19
493.37	458.74
493.54	388.53
493.72	454.06
493.90	425.98
494.08	454.06
494.25	470.45
494.43	447.04
494.61	463.43
494.79	418.96
494.96	428.32
495.14	456.40
495.32	388.53
495.49	433.00
495.67	423.64
495.85	491.51
496.02	435.34
496.20	423.64
496.38	435.34
496.55	433.00
496.73	414.27
496.91	425.98
497.09	435.34
497.26	454.06
497.44	362.78
497.62	315.97
497.79	475.13
497.97	402.57
498.14	458.74
498.32	404.91
498.50	407.25
498.67	390.87
498.85	428.32
499.03	430.66
499.20	414.27
499.38	442.36
499.56	493.85
499.73	425.98
499.91	437.68
500.08	402.57
500.26	428.32
500.44	346.40
500.61	433.00
500.79	411.93
500.97	463.43
501.14	423.64
501.32	454.06
501.49	456.40
501.67	468.11
501.84	407.25
502.02	449.38
502.20	416.62
502.37	444.70
502.55	442.36
502.72	367.46
502.90	348.74
503.07	388.53
503.25	451.72
503.43	433.00
503.60	435.34
503.78	449.38
503.95	447.04
504.13	437.68
504.30	388.53
504.48	407.25
504.65	402.57
504.83	388.53
505.01	437.68
505.18	451.72
505.36	355.76
505.53	416.62
505.71	430.66
505.88	442.36
506.06	425.98
506.23	470.45
506.41	407.25
506.58	367.46
506.76	388.53
506.93	456.40
507.11	423.64
507.28	444.70
507.46	409.59
507.63	372.15
507.81	456.40
507.98	428.32
508.16	383.85
508.33	404.91
508.50	451.72
508.68	470.45
508.85	414.27
509.03	411.93
509.20	423.64
509.38	470.45
509.55	386.19
509.73	402.57
509.90	428.32
510.08	344.06
510.25	423.64
510.42	418.96
510.60	393.21
510.77	465.77
510.95	435.34
511.12	381.51
511.30	435.34
511.47	388.53
511.64	500.87
511.82	458.74
511.99	355.76
512.17	341.72
512.34	416.62
512.51	388.53
512.69	353.42
512.86	496.19
513.04	374.49
513.21	421.30
513.38	444.70
513.56	440.02
513.73	416.62
513.90	407.25
514.08	358.10
514.25	407.25
514.43	437.68
514.60	365.12
514.77	351.08
514.95	393.21
515.12	411.93
515.29	418.96
515.47	397.89
515.64	386.19
515.81	348.74
515.99	416.62
516.16	372.15
516.33	428.32
516.51	407.25
516.68	435.34
516.85	397.89
517.03	421.30
517.20	360.44
517.37	503.22
517.54	341.72
517.72	397.89
517.89	418.96
518.06	402.57
518.24	404.91
518.41	468.11
518.58	447.04
518.75	461.09
518.93	447.04
519.10	423.64
519.27	407.25
519.45	493.85
519.62	355.76
519.79	372.15
519.96	451.72
520.14	379.17
520.31	447.04
520.48	367.46
520.65	449.38
520.83	383.85
521.00	395.55
521.17	430.66
521.34	407.25
521.52	379.17
521.69	430.66
521.86	386.19
522.03	440.02
522.20	414.27
522.38	461.09
522.55	470.45
522.72	442.36
522.89	435.34
523.07	514.92
523.24	386.19
523.41	355.76
523.58	470.45
523.75	402.57
523.92	355.76
524.10	367.46
524.27	381.51
524.44	418.96
524.61	442.36
524.78	444.70
524.96	386.19
525.13	456.40
525.30	344.06
525.47	425.98
525.64	407.25
525.81	435.34
525.98	411.93
526.16	472.79
526.33	397.89
526.50	407.25
526.67	402.57
526.84	451.72
527.01	402.57
527.18	372.15
527.36	437.68
527.53	344.06
527.70	463.43
527.87	414.27
528.04	538.32
528.21	423.64
528.38	456.40
528.55	386.19
528.72	451.72
528.89	423.64
529.07	397.89
529.24	449.38
529.41	372.15
529.58	367.46
529.75	414.27
529.92	400.23
530.09	388.53
530.26	414.27
530.43	437.68
530.60	437.68
530.77	435.34
530.94	472.79
531.11	552.37
531.28	381.51
531.46	421.30
531.63	414.27
531.80	456.40
531.97	463.43
532.14	442.36
532.31	435.34
532.48	374.49
532.65	334.70
532.82	397.89
532.99	351.08
533.16	402.57
533.33	393.21
533.50	404.91
533.67	463.43
533.84	402.57
534.01	447.04
534.18	465.77
534.35	430.66
534.52	433.00
534.69	472.79
534.86	463.43
535.03	435.34
535.20	367.46
535.37	381.51
535.54	449.38
535.71	409.59
535.88	362.78
536.05	379.17
536.22	388.53
536.38	388.53
536.55	411.93
536.72	393.21
536.89	435.34
537.06	374.49
537.23	360.44
537.40	447.04
537.57	400.23
537.74	465.77
537.91	454.06
538.08	339.38
538.25	372.15
538.42	425.98
538.59	395.55
538.75	416.62
538.92	425.98
539.09	411.93
539.26	447.04
539.43	435.34
539.60	411.93
539.77	500.87
539.94	313.63
540.11	430.66
540.28	451.72
540.44	407.25
540.61	407.25
540.78	416.62
540.95	451.72
541.12	395.55
541.29	454.06
541.46	454.06
541.62	454.06
541.79	407.25
541.96	400.23
542.13	383.85
542.30	477.47
542.47	489.17
542.63	454.06
542.80	402.57
542.97	482.15
543.14	472.79
543.31	442.36
543.48	393.21
543.64	416.62
543.81	379.17
543.98	449.38
544.15	414.27
544.32	461.09
544.48	411.93
544.65	397.89
544.82	437.68
544.99	444.70
545.16	358.10
545.32	397.89
545.49	383.85
545.66	386.19
545.83	344.06
546.00	409.59
546.16	503.22
546.33	475.13
546.50	425.98
546.67	447.04
546.83	421.30
547.00	414.27
547.17	381.51
547.34	404.91
547.50	397.89
547.67	444.70
547.84	393.21
548.00	421.30
548.17	386.19
548.34	353.42
548.51	395.55
548.67	376.83
548.84	400.23
549.01	468.11
549.18	416.62
549.34	416.62
549.51	425.98
549.68	435.34
549.84	409.59
550.01	407.25
550.18	435.34
550.34	491.51
550.51	393.21
550.68	400.23
550.84	423.64
551.01	465.77
551.18	433.00
551.34	379.17
551.51	421.30
551.68	463.43
551.84	475.13
552.01	395.55
552.18	395.55
552.34	442.36
552.51	465.77
552.68	411.93
552.84	433.00
553.01	437.68
553.18	479.81
553.34	447.04
553.51	402.57
553.67	451.72
553.84	463.43
554.01	428.32
554.17	465.77
554.34	374.49
554.51	400.23
554.67	433.00
554.84	360.44
555.00	449.38
555.17	456.40
555.33	505.56
555.50	442.36
555.67	458.74
555.83	468.11
556.00	400.23
556.16	578.11
556.33	486.83
556.50	379.17
556.66	390.87
556.83	374.49
556.99	414.27
557.16	339.38
557.32	404.91
557.49	421.30
557.65	430.66
557.82	383.85
557.98	437.68
558.15	395.55
558.32	475.13
558.48	465.77
558.65	379.17
558.81	484.49
558.98	397.89
559.14	519.60
559.31	421.30
559.47	451.72
559.64	397.89
559.80	386.19
559.97	463.43
560.13	440.02
560.30	376.83
560.46	327.68
560.63	416.62
560.79	477.47
560.96	353.42
561.12	339.38
561.29	402.57
561.45	411.93
561.61	386.19
561.78	425.98
561.94	374.49
562.11	435.34
562.27	463.43
562.44	365.12
562.60	400.23
562.77	425.98
562.93	447.04
563.10	379.17
563.26	390.87
563.42	463.43
563.59	437.68
563.75	465.77
563.92	416.62
564.08	458.74
564.24	404.91
564.41	451.72
564.57	390.87
564.74	383.85
564.90	435.34
565.07	454.06
565.23	433.00
565.39	381.51
565.56	500.87
565.72	500.87
565.88	440.02
566.05	418.96
566.21	376.83
566.38	421.30
566.54	407.25
566.70	498.53
566.87	449.38
567.03	437.68
567.19	411.93
567.36	435.34
567.52	414.27
567.68	442.36
567.85	379.17
568.01	435.34
568.17	358.10
568.34	381.51
568.50	489.17
568.66	390.87
568.83	533.64
568.99	379.17
569.15	428.32
569.32	400.23
569.48	393.21
569.64	428.32
569.81	461.09
569.97	379.17
570.13	454.06
570.30	470.45
570.46	423.64
570.62	325.33
570.78	390.87
570.95	475.13
571.11	477.47
571.27	451.72
571.43	388.53
571.60	454.06
571.76	425.98
571.92	428.32
572.09	498.53
572.25	416.62
572.41	425.98
572.57	428.32
572.74	472.79
572.90	425.98
573.06	372.15
573.22	404.91
573.38	440.02
573.55	393.21
573.71	437.68
573.87	454.06
574.03	477.47
574.20	458.74
574.36	430.66
574.52	421.30
574.68	388.53
574.84	440.02
575.01	479.81
575.17	444.70
575.33	482.15
575.49	395.55
575.65	475.13
575.82	416.62
575.98	440.02
576.14	411.93
576.30	461.09
576.46	395.55
576.62	407.25
576.79	442.36
576.95	477.47
577.11	390.87
577.27	390.87
577.43	437.68
577.59	482.15
577.75	468.11
577.92	433.00
578.08	416.62
578.24	486.83
578.40	437.68
578.56	475.13
578.72	418.96
578.88	465.77
579.04	461.09
579.21	369.80
579.37	454.06
579.53	402.57
579.69	447.04
579.85	346.40
580.01	479.81
580.17	440.02
580.33	395.55
580.49	381.51
580.65	372.15
580.82	393.21
580.98	428.32
581.14	435.34
581.30	461.09
581.46	456.40
581.62	409.59
581.78	358.10
581.94	458.74
582.10	395.55
582.26	330.02
582.42	355.76
582.58	440.02
582.74	379.17
582.90	437.68
583.06	458.74
583.22	461.09
583.38	465.77
583.54	423.64
583.70	451.72
583.86	404.91
584.02	447.04
584.18	500.87
584.34	388.53
584.50	407.25
584.66	407.25
584.82	381.51
584.98	430.66
585.14	400.23
585.30	400.23
585.46	411.93
585.62	418.96
585.78	381.51
585.94	402.57
586.10	428.32
586.26	444.70
586.42	491.51
586.58	411.93
586.74	407.25
586.90	397.89
587.06	428.32
587.22	486.83
587.38	362.78
587.54	374.49
587.70	421.30
587.86	489.17
588.02	440.02
588.18	416.62
588.34	414.27
588.49	346.40
588.65	411.93
588.81	425.98
588.97	397.89
589.13	416.62
589.29	379.17
589.45	421.30
589.61	442.36
589.77	390.87
589.93	440.02
590.08	374.49
590.24	348.74
590.40	404.91
590.56	379.17
590.72	390.87
590.88	395.55
591.04	503.22
591.20	421.30
591.35	421.30
591.51	388.53
591.67	360.44
591.83	458.74
591.99	411.93
592.15	491.51
592.31	327.68
592.46	393.21
592.62	477.47
592.78	381.51
592.94	409.59
593.10	447.04
593.26	440.02
593.41	440.02
593.57	409.59
593.73	423.64
593.89	440.02
594.05	397.89
594.20	367.46
594.36	395.55
594.52	421.30
594.68	470.45
594.84	477.47
594.99	454.06
595.15	423.64
595.31	444.70
595.47	416.62
595.62	397.89
595.78	393.21
595.94	418.96
596.10	374.49
596.25	395.55
596.41	463.43
596.57	418.96
596.73	362.78
596.88	479.81
597.04	353.42
597.20	358.10
597.36	454.06
597.51	409.59
597.67	425.98
597.83	379.17
597.99	404.91
598.14	454.06
598.30	386.19
598.46	433.00
598.61	397.89
598.77	388.53
598.93	444.70
599.09	416.62
599.24	381.51
599.40	404.91
599.56	421.30
599.71	447.04
599.87	397.89
600.03	519.60
600.18	451.72
600.34	423.64
600.50	369.80
600.65	374.49
600.81	355.76
600.97	437.68
601.12	421.30
601.28	383.85
601.44	433.00
601.59	430.66
601.75	332.36
601.91	444.70
602.06	386.19
602.22	421.30
602.37	447.04
602.53	456.40
602.69	444.70
602.84	409.59
603.00	374.49
603.16	407.25
603.31	444.70
603.47	348.74
603.62	468.11
603.78	458.74
603.94	414.27
604.09	334.70
604.25	479.81
604.40	423.64
604.56	472.79
604.71	442.36
604.87	358.10
605.03	388.53
605.18	433.00
605.34	433.00
605.49	425.98
605.65	461.09
605.80	381.51
605.96	421.30
606.12	430.66
606.27	437.68
606.43	360.44
606.58	407.25
606.74	381.51
606.89	414.27
607.05	482.15
607.20	496.19
607.36	463.43
607.51	402.57
607.67	449.38
607.82	425.98
607.98	440.02
608.13	496.19
608.29	451.72
608.44	463.43
608.60	372.15
608.75	435.34
608.91	489.17
609.06	477.47
609.22	465.77
609.37	365.12
609.53	395.55
609.68	428.32
609.84	400.23
609.99	463.43
610.15	423.64
