SpectraSuite Data File
++++++++++++++++++++++++++++++++++++
Date: Fri Oct 25 12:11:28 EDT 2013
User: price-jones
Dark Spectrum Present: No
Reference Spectrum Present: No
Number of Sampled Component Spectra: 1
Spectrometers: USB2+H05261
Integration Time (usec): 100000 (USB2+H05261)
Spectra Averaged: 1 (USB2+H05261)
Boxcar Smoothing: 0 (USB2+H05261)
Correct for Electrical Dark: No (USB2+H05261)
Strobe/Lamp Enabled: No (USB2+H05261)
Correct for Detector Non-linearity: No (USB2+H05261)
Correct for Stray Light: No (USB2+H05261)
Number of Pixels in Processed Spectrum: 2048
>>>>>Begin Processed Spectral Data<<<<<
365.73	311.29
365.92	311.29
366.12	311.29
366.32	245.76
366.52	271.50
366.72	269.16
366.91	212.99
367.11	154.48
367.31	191.92
367.51	255.12
367.70	238.73
367.90	292.57
368.10	259.80
368.30	297.25
368.49	294.91
368.69	229.37
368.89	322.99
369.09	248.10
369.28	330.02
369.48	322.99
369.68	304.27
369.87	257.46
370.07	262.14
370.27	334.70
370.47	344.06
370.66	348.74
370.86	388.53
371.06	404.91
371.25	395.55
371.45	332.36
371.65	393.21
371.84	346.40
372.04	346.40
372.24	355.76
372.44	421.30
372.63	386.19
372.83	425.98
373.03	393.21
373.22	383.85
373.42	421.30
373.62	381.51
373.81	386.19
374.01	463.43
374.21	433.00
374.40	414.27
374.60	388.53
374.79	468.11
374.99	416.62
375.19	414.27
375.38	388.53
375.58	430.66
375.78	393.21
375.97	414.27
376.17	409.59
376.37	421.30
376.56	470.45
376.76	411.93
376.95	454.06
377.15	465.77
377.35	337.04
377.54	369.80
377.74	388.53
377.93	423.64
378.13	397.89
378.33	388.53
378.52	435.34
378.72	468.11
378.91	418.96
379.11	379.17
379.31	444.70
379.50	449.38
379.70	428.32
379.89	423.64
380.09	327.68
380.28	402.57
380.48	381.51
380.68	353.42
380.87	414.27
381.07	468.11
381.26	428.32
381.46	416.62
381.65	418.96
381.85	400.23
382.04	397.89
382.24	374.49
382.43	383.85
382.63	372.15
382.83	367.46
383.02	409.59
383.22	442.36
383.41	407.25
383.61	463.43
383.80	395.55
384.00	425.98
384.19	442.36
384.39	472.79
384.58	458.74
384.78	411.93
384.97	425.98
385.17	367.46
385.36	414.27
385.56	404.91
385.75	423.64
385.95	367.46
386.14	449.38
386.34	437.68
386.53	423.64
386.72	355.76
386.92	430.66
387.11	477.47
387.31	425.98
387.50	409.59
387.70	451.72
387.89	393.21
388.09	311.29
388.28	463.43
388.48	409.59
388.67	390.87
388.86	344.06
389.06	411.93
389.25	421.30
389.45	360.44
389.64	400.23
389.84	388.53
390.03	404.91
390.22	388.53
390.42	430.66
390.61	365.12
390.81	454.06
391.00	447.04
391.19	454.06
391.39	440.02
391.58	449.38
391.78	458.74
391.97	376.83
392.16	379.17
392.36	411.93
392.55	395.55
392.75	447.04
392.94	318.31
393.13	416.62
393.33	440.02
393.52	411.93
393.71	383.85
393.91	402.57
394.10	437.68
394.29	381.51
394.49	409.59
394.68	449.38
394.88	423.64
395.07	463.43
395.26	360.44
395.46	491.51
395.65	475.13
395.84	386.19
396.04	458.74
396.23	437.68
396.42	421.30
396.62	418.96
396.81	493.85
397.00	442.36
397.19	390.87
397.39	362.78
397.58	355.76
397.77	402.57
397.97	348.74
398.16	463.43
398.35	435.34
398.55	456.40
398.74	407.25
398.93	430.66
399.12	423.64
399.32	442.36
399.51	388.53
399.70	461.09
399.90	458.74
400.09	461.09
400.28	416.62
400.47	330.02
400.67	433.00
400.86	400.23
401.05	463.43
401.24	482.15
401.44	421.30
401.63	440.02
401.82	407.25
402.01	411.93
402.21	395.55
402.40	327.68
402.59	416.62
402.78	414.27
402.97	369.80
403.17	458.74
403.36	425.98
403.55	449.38
403.74	395.55
403.93	407.25
404.13	482.15
404.32	390.87
404.51	353.42
404.70	491.51
404.89	404.91
405.09	479.81
405.28	407.25
405.47	400.23
405.66	440.02
405.85	430.66
406.05	397.89
406.24	407.25
406.43	433.00
406.62	428.32
406.81	425.98
407.00	503.22
407.20	440.02
407.39	454.06
407.58	411.93
407.77	435.34
407.96	428.32
408.15	358.10
408.34	425.98
408.54	440.02
408.73	472.79
408.92	400.23
409.11	372.15
409.30	500.87
409.49	402.57
409.68	458.74
409.87	458.74
410.07	407.25
410.26	346.40
410.45	433.00
410.64	414.27
410.83	402.57
411.02	423.64
411.21	409.59
411.40	369.80
411.59	400.23
411.78	390.87
411.98	447.04
412.17	360.44
412.36	365.12
412.55	416.62
412.74	358.10
412.93	418.96
413.12	393.21
413.31	421.30
413.50	353.42
413.69	468.11
413.88	416.62
414.07	407.25
414.26	416.62
414.45	430.66
414.64	397.89
414.83	477.47
415.02	390.87
415.22	372.15
415.41	386.19
415.60	484.49
415.79	386.19
415.98	404.91
416.17	411.93
416.36	383.85
416.55	376.83
416.74	395.55
416.93	437.68
417.12	430.66
417.31	369.80
417.50	372.15
417.69	447.04
417.88	433.00
418.07	465.77
418.26	437.68
418.45	456.40
418.64	393.21
418.83	418.96
419.02	409.59
419.21	346.40
419.39	386.19
419.58	344.06
419.77	353.42
419.96	472.79
420.15	430.66
420.34	416.62
420.53	430.66
420.72	423.64
420.91	407.25
421.10	388.53
421.29	447.04
421.48	414.27
421.67	358.10
421.86	437.68
422.05	402.57
422.24	362.78
422.43	400.23
422.61	388.53
422.80	442.36
422.99	411.93
423.18	372.15
423.37	351.08
423.56	400.23
423.75	463.43
423.94	404.91
424.13	411.93
424.32	435.34
424.50	390.87
424.69	418.96
424.88	418.96
425.07	423.64
425.26	449.38
425.45	400.23
425.64	461.09
425.83	409.59
426.01	458.74
426.20	440.02
426.39	393.21
426.58	397.89
426.77	348.74
426.96	430.66
427.15	461.09
427.33	325.33
427.52	327.68
427.71	383.85
427.90	414.27
428.09	435.34
428.28	411.93
428.46	365.12
428.65	411.93
428.84	409.59
429.03	458.74
429.22	479.81
429.40	423.64
429.59	411.93
429.78	409.59
429.97	416.62
430.16	404.91
430.34	411.93
430.53	381.51
430.72	367.46
430.91	374.49
431.10	435.34
431.28	425.98
431.47	369.80
431.66	456.40
431.85	425.98
432.03	411.93
432.22	381.51
432.41	388.53
432.60	374.49
432.79	442.36
432.97	418.96
433.16	414.27
433.35	367.46
433.54	393.21
433.72	423.64
433.91	348.74
434.10	451.72
434.28	444.70
434.47	402.57
434.66	411.93
434.85	458.74
435.03	414.27
435.22	409.59
435.41	423.64
435.59	381.51
435.78	353.42
435.97	407.25
436.16	454.06
436.34	414.27
436.53	416.62
436.72	442.36
436.90	423.64
437.09	360.44
437.28	367.46
437.46	470.45
437.65	383.85
437.84	418.96
438.02	362.78
438.21	400.23
438.40	379.17
438.58	454.06
438.77	400.23
438.96	428.32
439.14	386.19
439.33	334.70
439.52	348.74
439.70	390.87
439.89	484.49
440.08	379.17
440.26	442.36
440.45	472.79
440.63	423.64
440.82	437.68
441.01	393.21
441.19	332.36
441.38	489.17
441.57	435.34
441.75	421.30
441.94	376.83
442.12	451.72
442.31	414.27
442.50	360.44
442.68	447.04
442.87	332.36
443.05	379.17
443.24	496.19
443.43	444.70
443.61	397.89
443.80	372.15
443.98	397.89
444.17	353.42
444.35	421.30
444.54	477.47
444.73	449.38
444.91	362.78
445.10	351.08
445.28	402.57
445.47	425.98
445.65	351.08
445.84	433.00
446.02	468.11
446.21	388.53
446.39	421.30
446.58	379.17
446.77	430.66
446.95	414.27
447.14	447.04
447.32	353.42
447.51	355.76
447.69	437.68
447.88	435.34
448.06	468.11
448.25	372.15
448.43	362.78
448.62	430.66
448.80	418.96
448.99	409.59
449.17	374.49
449.36	411.93
449.54	454.06
449.73	407.25
449.91	393.21
450.10	458.74
450.28	435.34
450.46	470.45
450.65	404.91
450.83	367.46
451.02	397.89
451.20	433.00
451.39	425.98
451.57	414.27
451.76	461.09
451.94	428.32
452.13	421.30
452.31	393.21
452.49	451.72
452.68	437.68
452.86	425.98
453.05	454.06
453.23	411.93
453.42	451.72
453.60	400.23
453.78	425.98
453.97	344.06
454.15	442.36
454.34	444.70
454.52	327.68
454.70	514.92
454.89	472.79
455.07	311.29
455.26	383.85
455.44	388.53
455.62	479.81
455.81	369.80
455.99	449.38
456.17	407.25
456.36	400.23
456.54	388.53
456.73	437.68
456.91	362.78
457.09	379.17
457.28	447.04
457.46	386.19
457.64	404.91
457.83	395.55
458.01	404.91
458.19	425.98
458.38	491.51
458.56	444.70
458.74	379.17
458.93	397.89
459.11	421.30
459.29	416.62
459.48	430.66
459.66	423.64
459.84	421.30
460.03	470.45
460.21	395.55
460.39	447.04
460.57	461.09
460.76	404.91
460.94	365.12
461.12	433.00
461.31	454.06
461.49	411.93
461.67	416.62
461.85	388.53
462.04	430.66
462.22	718.54
462.40	416.62
462.59	493.85
462.77	472.79
462.95	433.00
463.13	386.19
463.32	411.93
463.50	458.74
463.68	454.06
463.86	395.55
464.05	393.21
464.23	388.53
464.41	372.15
464.59	367.46
464.78	393.21
464.96	430.66
465.14	503.22
465.32	409.59
465.50	400.23
465.69	416.62
465.87	475.13
466.05	463.43
466.23	407.25
466.41	423.64
466.60	437.68
466.78	421.30
466.96	365.12
467.14	496.19
467.32	451.72
467.51	423.64
467.69	360.44
467.87	358.10
468.05	402.57
468.23	414.27
468.41	425.98
468.60	397.89
468.78	407.25
468.96	390.87
469.14	491.51
469.32	395.55
469.50	348.74
469.69	344.06
469.87	430.66
470.05	388.53
470.23	409.59
470.41	435.34
470.59	404.91
470.77	416.62
470.95	360.44
471.14	428.32
471.32	379.17
471.50	390.87
471.68	365.12
471.86	372.15
472.04	442.36
472.22	433.00
472.40	447.04
472.58	423.64
472.77	444.70
472.95	395.55
473.13	475.13
473.31	421.30
473.49	428.32
473.67	416.62
473.85	318.31
474.03	440.02
474.21	374.49
474.39	409.59
474.57	407.25
474.75	491.51
474.93	440.02
475.12	400.23
475.30	498.53
475.48	447.04
475.66	369.80
475.84	454.06
476.02	447.04
476.20	428.32
476.38	433.00
476.56	388.53
476.74	388.53
476.92	353.42
477.10	367.46
477.28	456.40
477.46	400.23
477.64	447.04
477.82	393.21
478.00	381.51
478.18	461.09
478.36	503.22
478.54	447.04
478.72	456.40
478.90	376.83
479.08	463.43
479.26	379.17
479.44	425.98
479.62	477.47
479.80	454.06
479.98	376.83
480.16	468.11
480.34	390.87
480.52	369.80
480.70	355.76
480.88	337.04
481.06	451.72
481.24	383.85
481.41	362.78
481.59	362.78
481.77	379.17
481.95	358.10
482.13	407.25
482.31	475.13
482.49	456.40
482.67	435.34
482.85	407.25
483.03	360.44
483.21	404.91
483.39	386.19
483.57	454.06
483.74	425.98
483.92	423.64
484.10	407.25
484.28	393.21
484.46	418.96
484.64	416.62
484.82	435.34
485.00	444.70
485.18	491.51
485.35	475.13
485.53	397.89
485.71	491.51
485.89	440.02
486.07	465.77
486.25	493.85
486.43	463.43
486.61	407.25
486.78	433.00
486.96	451.72
487.14	397.89
487.32	388.53
487.50	383.85
487.68	376.83
487.85	440.02
488.03	428.32
488.21	482.15
488.39	475.13
488.57	456.40
488.75	407.25
488.92	538.32
489.10	428.32
489.28	376.83
489.46	421.30
489.64	367.46
489.81	390.87
489.99	435.34
490.17	393.21
490.35	393.21
490.53	355.76
490.70	367.46
490.88	421.30
491.06	451.72
491.24	397.89
491.41	496.19
491.59	369.80
491.77	407.25
491.95	341.72
492.13	440.02
492.30	477.47
492.48	381.51
492.66	388.53
492.84	367.46
493.01	372.15
493.19	374.49
493.37	369.80
493.54	425.98
493.72	465.77
493.90	416.62
494.08	468.11
494.25	435.34
494.43	472.79
494.61	444.70
494.79	362.78
494.96	416.62
495.14	463.43
495.32	411.93
495.49	334.70
495.67	404.91
495.85	418.96
496.02	430.66
496.20	430.66
496.38	425.98
496.55	372.15
496.73	449.38
496.91	449.38
497.09	353.42
497.26	456.40
497.44	393.21
497.62	409.59
497.79	414.27
497.97	458.74
498.14	430.66
498.32	416.62
498.50	430.66
498.67	456.40
498.85	411.93
499.03	454.06
499.20	393.21
499.38	397.89
499.56	447.04
499.73	418.96
499.91	376.83
500.08	414.27
500.26	440.02
500.44	390.87
500.61	430.66
500.79	411.93
500.97	404.91
501.14	437.68
501.32	437.68
501.49	477.47
501.67	383.85
501.84	423.64
502.02	367.46
502.20	428.32
502.37	367.46
502.55	416.62
502.72	425.98
502.90	451.72
503.07	451.72
503.25	440.02
503.43	425.98
503.60	407.25
503.78	517.26
503.95	308.95
504.13	409.59
504.30	388.53
504.48	390.87
504.65	451.72
504.83	423.64
505.01	365.12
505.18	395.55
505.36	437.68
505.53	465.77
505.71	404.91
505.88	416.62
506.06	379.17
506.23	456.40
506.41	381.51
506.58	381.51
506.76	386.19
506.93	463.43
507.11	369.80
507.28	374.49
507.46	461.09
507.63	470.45
507.81	475.13
507.98	442.36
508.16	402.57
508.33	454.06
508.50	526.62
508.68	425.98
508.85	428.32
509.03	404.91
509.20	465.77
509.38	400.23
509.55	458.74
509.73	407.25
509.90	421.30
510.08	433.00
510.25	344.06
510.42	386.19
510.60	451.72
510.77	341.72
510.95	402.57
511.12	442.36
511.30	351.08
511.47	463.43
511.64	461.09
511.82	465.77
511.99	365.12
512.17	454.06
512.34	346.40
512.51	428.32
512.69	454.06
512.86	512.58
513.04	423.64
513.21	374.49
513.38	468.11
513.56	425.98
513.73	388.53
513.90	395.55
514.08	423.64
514.25	449.38
514.43	416.62
514.60	418.96
514.77	421.30
514.95	447.04
515.12	400.23
515.29	425.98
515.47	402.57
515.64	414.27
515.81	447.04
515.99	428.32
516.16	425.98
516.33	496.19
516.51	386.19
516.68	449.38
516.85	404.91
517.03	451.72
517.20	463.43
517.37	367.46
517.54	430.66
517.72	411.93
517.89	362.78
518.06	411.93
518.24	447.04
518.41	477.47
518.58	393.21
518.75	451.72
518.93	388.53
519.10	381.51
519.27	465.77
519.45	458.74
519.62	521.94
519.79	418.96
519.96	421.30
520.14	425.98
520.31	477.47
520.48	353.42
520.65	451.72
520.83	444.70
521.00	402.57
521.17	383.85
521.34	372.15
521.52	416.62
521.69	381.51
521.86	414.27
522.03	425.98
522.20	416.62
522.38	348.74
522.55	486.83
522.72	418.96
522.89	369.80
523.07	463.43
523.24	458.74
523.41	484.49
523.58	411.93
523.75	470.45
523.92	470.45
524.10	397.89
524.27	407.25
524.44	458.74
524.61	435.34
524.78	423.64
524.96	437.68
525.13	447.04
525.30	397.89
525.47	433.00
525.64	433.00
525.81	465.77
525.98	456.40
526.16	407.25
526.33	379.17
526.50	421.30
526.67	430.66
526.84	402.57
527.01	435.34
527.18	500.87
527.36	447.04
527.53	402.57
527.70	423.64
527.87	423.64
528.04	461.09
528.21	428.32
528.38	484.49
528.55	365.12
528.72	360.44
528.89	402.57
529.07	444.70
529.24	388.53
529.41	365.12
529.58	402.57
529.75	444.70
529.92	421.30
530.09	374.49
530.26	388.53
530.43	355.76
530.60	437.68
530.77	348.74
530.94	435.34
531.11	379.17
531.28	414.27
531.46	397.89
531.63	449.38
531.80	463.43
531.97	409.59
532.14	351.08
532.31	437.68
532.48	402.57
532.65	411.93
532.82	365.12
532.99	390.87
533.16	468.11
533.33	414.27
533.50	416.62
533.67	407.25
533.84	456.40
534.01	449.38
534.18	411.93
534.35	395.55
534.52	454.06
534.69	423.64
534.86	428.32
535.03	454.06
535.20	348.74
535.37	437.68
535.54	379.17
535.71	379.17
535.88	421.30
536.05	332.36
536.22	374.49
536.38	423.64
536.55	383.85
536.72	428.32
536.89	379.17
537.06	430.66
537.23	407.25
537.40	386.19
537.57	472.79
537.74	463.43
537.91	414.27
538.08	414.27
538.25	416.62
538.42	395.55
538.59	421.30
538.75	397.89
538.92	395.55
539.09	423.64
539.26	404.91
539.43	461.09
539.60	477.47
539.77	374.49
539.94	437.68
540.11	472.79
540.28	337.04
540.44	369.80
540.61	430.66
540.78	433.00
540.95	418.96
541.12	449.38
541.29	433.00
541.46	400.23
541.62	402.57
541.79	414.27
541.96	435.34
542.13	411.93
542.30	365.12
542.47	383.85
542.63	407.25
542.80	421.30
542.97	475.13
543.14	428.32
543.31	472.79
543.48	409.59
543.64	393.21
543.81	428.32
543.98	374.49
544.15	425.98
544.32	402.57
544.48	416.62
544.65	376.83
544.82	470.45
544.99	397.89
545.16	486.83
545.32	442.36
545.49	425.98
545.66	414.27
545.83	379.17
546.00	447.04
546.16	404.91
546.33	404.91
546.50	421.30
546.67	458.74
546.83	409.59
547.00	383.85
547.17	395.55
547.34	430.66
547.50	437.68
547.67	454.06
547.84	428.32
548.00	449.38
548.17	346.40
548.34	360.44
548.51	437.68
548.67	407.25
548.84	479.81
549.01	400.23
549.18	503.22
549.34	407.25
549.51	416.62
549.68	421.30
549.84	367.46
550.01	440.02
550.18	425.98
550.34	430.66
550.51	433.00
550.68	423.64
550.84	423.64
551.01	418.96
551.18	477.47
551.34	339.38
551.51	425.98
551.68	456.40
551.84	463.43
552.01	351.08
552.18	334.70
552.34	454.06
552.51	411.93
552.68	475.13
552.84	341.72
553.01	425.98
553.18	404.91
553.34	428.32
553.51	468.11
553.67	468.11
553.84	454.06
554.01	351.08
554.17	395.55
554.34	411.93
554.51	404.91
554.67	428.32
554.84	421.30
555.00	416.62
555.17	442.36
555.33	463.43
555.50	435.34
555.67	397.89
555.83	339.38
556.00	411.93
556.16	535.98
556.33	416.62
556.50	477.47
556.66	416.62
556.83	449.38
556.99	393.21
557.16	402.57
557.32	423.64
557.49	365.12
557.65	479.81
557.82	514.92
557.98	444.70
558.15	454.06
558.32	425.98
558.48	395.55
558.65	421.30
558.81	454.06
558.98	407.25
559.14	507.90
559.31	414.27
559.47	458.74
559.64	421.30
559.80	428.32
559.97	430.66
560.13	390.87
560.30	465.77
560.46	414.27
560.63	418.96
560.79	409.59
560.96	407.25
561.12	461.09
561.29	454.06
561.45	346.40
561.61	425.98
561.78	454.06
561.94	416.62
562.11	376.83
562.27	418.96
562.44	372.15
562.60	493.85
562.77	351.08
562.93	416.62
563.10	425.98
563.26	421.30
563.42	507.90
563.59	449.38
563.75	428.32
563.92	433.00
564.08	465.77
564.24	358.10
564.41	435.34
564.57	461.09
564.74	400.23
564.90	423.64
565.07	409.59
565.23	477.47
565.39	423.64
565.56	404.91
565.72	388.53
565.88	397.89
566.05	425.98
566.21	454.06
566.38	489.17
566.54	386.19
566.70	360.44
566.87	393.21
567.03	425.98
567.19	421.30
567.36	435.34
567.52	409.59
567.68	437.68
567.85	437.68
568.01	454.06
568.17	365.12
568.34	433.00
568.50	428.32
568.66	430.66
568.83	479.81
568.99	355.76
569.15	489.17
569.32	454.06
569.48	435.34
569.64	418.96
569.81	512.58
569.97	367.46
570.13	397.89
570.30	374.49
570.46	376.83
570.62	435.34
570.78	414.27
570.95	372.15
571.11	442.36
571.27	397.89
571.43	451.72
571.60	470.45
571.76	461.09
571.92	430.66
572.09	409.59
572.25	433.00
572.41	433.00
572.57	423.64
572.74	435.34
572.90	468.11
573.06	425.98
573.22	397.89
573.38	451.72
573.55	454.06
573.71	500.87
573.87	376.83
574.03	372.15
574.20	416.62
574.36	442.36
574.52	367.46
574.68	404.91
574.84	381.51
575.01	440.02
575.17	393.21
575.33	451.72
575.49	428.32
575.65	456.40
575.82	397.89
575.98	444.70
576.14	416.62
576.30	418.96
576.46	411.93
576.62	444.70
576.79	491.51
576.95	451.72
577.11	383.85
577.27	409.59
577.43	437.68
577.59	449.38
577.75	479.81
577.92	456.40
578.08	505.56
578.24	425.98
578.40	454.06
578.56	442.36
578.72	465.77
578.88	369.80
579.04	414.27
579.21	472.79
579.37	404.91
579.53	454.06
579.69	461.09
579.85	416.62
580.01	395.55
580.17	433.00
580.33	498.53
580.49	390.87
580.65	388.53
580.82	430.66
580.98	477.47
581.14	367.46
581.30	416.62
581.46	421.30
581.62	369.80
581.78	451.72
581.94	454.06
582.10	437.68
582.26	402.57
582.42	407.25
582.58	416.62
582.74	339.38
582.90	428.32
583.06	423.64
583.22	482.15
583.38	479.81
583.54	454.06
583.70	409.59
583.86	449.38
584.02	379.17
584.18	418.96
584.34	353.42
584.50	397.89
584.66	372.15
584.82	388.53
584.98	376.83
585.14	416.62
585.30	425.98
585.46	414.27
585.62	433.00
585.78	447.04
585.94	463.43
586.10	365.12
586.26	365.12
586.42	416.62
586.58	425.98
586.74	456.40
586.90	423.64
587.06	463.43
587.22	369.80
587.38	433.00
587.54	456.40
587.70	404.91
587.86	374.49
588.02	458.74
588.18	444.70
588.34	463.43
588.49	372.15
588.65	390.87
588.81	440.02
588.97	425.98
589.13	381.51
589.29	425.98
589.45	414.27
589.61	435.34
589.77	463.43
589.93	440.02
590.08	353.42
590.24	395.55
590.40	411.93
590.56	423.64
590.72	423.64
590.88	423.64
591.04	435.34
591.20	367.46
591.35	442.36
591.51	414.27
591.67	444.70
591.83	437.68
591.99	344.06
592.15	505.56
592.31	468.11
592.46	454.06
592.62	486.83
592.78	449.38
592.94	472.79
593.10	404.91
593.26	423.64
593.41	425.98
593.57	360.44
593.73	348.74
593.89	367.46
594.05	418.96
594.20	393.21
594.36	461.09
594.52	397.89
594.68	449.38
594.84	463.43
594.99	484.49
595.15	456.40
595.31	437.68
595.47	440.02
595.62	414.27
595.78	416.62
595.94	416.62
596.10	482.15
596.25	425.98
596.41	447.04
596.57	421.30
596.73	437.68
596.88	362.78
597.04	463.43
597.20	365.12
597.36	388.53
597.51	388.53
597.67	477.47
597.83	433.00
597.99	442.36
598.14	442.36
598.30	390.87
598.46	425.98
598.61	372.15
598.77	381.51
598.93	355.76
599.09	374.49
599.24	400.23
599.40	461.09
599.56	442.36
599.71	447.04
599.87	437.68
600.03	400.23
600.18	461.09
600.34	491.51
600.50	435.34
600.65	372.15
600.81	393.21
600.97	404.91
601.12	456.40
601.28	449.38
601.44	386.19
601.59	451.72
601.75	395.55
601.91	407.25
602.06	440.02
602.22	463.43
602.37	430.66
602.53	475.13
602.69	372.15
602.84	416.62
603.00	468.11
603.16	402.57
603.31	393.21
603.47	402.57
603.62	409.59
603.78	341.72
603.94	372.15
604.09	456.40
604.25	554.71
604.40	379.17
604.56	491.51
604.71	433.00
604.87	369.80
605.03	456.40
605.18	484.49
605.34	447.04
605.49	360.44
605.65	400.23
605.80	362.78
605.96	369.80
606.12	402.57
606.27	388.53
606.43	433.00
606.58	400.23
606.74	353.42
606.89	411.93
607.05	423.64
607.20	383.85
607.36	514.92
607.51	395.55
607.67	437.68
607.82	433.00
607.98	479.81
608.13	437.68
608.29	423.64
608.44	484.49
608.60	442.36
608.75	442.36
608.91	404.91
609.06	465.77
609.22	400.23
609.37	458.74
609.53	444.70
609.68	423.64
609.84	491.51
609.99	395.55
610.15	463.43
