SpectraSuite Data File
++++++++++++++++++++++++++++++++++++
Date: Fri Oct 25 12:10:10 EDT 2013
User: price-jones
Dark Spectrum Present: No
Reference Spectrum Present: No
Number of Sampled Component Spectra: 1
Spectrometers: USB2+H05261
Integration Time (usec): 100000 (USB2+H05261)
Spectra Averaged: 1 (USB2+H05261)
Boxcar Smoothing: 0 (USB2+H05261)
Correct for Electrical Dark: No (USB2+H05261)
Strobe/Lamp Enabled: No (USB2+H05261)
Correct for Detector Non-linearity: No (USB2+H05261)
Correct for Stray Light: No (USB2+H05261)
Number of Pixels in Processed Spectrum: 2048
>>>>>Begin Processed Spectral Data<<<<<
365.73	337.04
365.92	337.04
366.12	337.04
366.32	229.37
366.52	241.08
366.72	187.24
366.91	147.45
367.11	168.52
367.31	271.50
367.51	292.57
367.70	222.35
367.90	264.48
368.10	220.01
368.30	212.99
368.49	194.26
368.69	339.38
368.89	217.67
369.09	327.68
369.28	273.84
369.48	259.80
369.68	259.80
369.87	379.17
370.07	332.36
370.27	376.83
370.47	264.48
370.66	301.93
370.86	278.52
371.06	386.19
371.25	339.38
371.45	355.76
371.65	383.85
371.84	362.78
372.04	322.99
372.24	435.34
372.44	367.46
372.63	358.10
372.83	407.25
373.03	428.32
373.22	365.12
373.42	388.53
373.62	458.74
373.81	418.96
374.01	489.17
374.21	479.81
374.40	435.34
374.60	477.47
374.79	430.66
374.99	367.46
375.19	449.38
375.38	444.70
375.58	454.06
375.78	433.00
375.97	418.96
376.17	390.87
376.37	390.87
376.56	395.55
376.76	407.25
376.95	397.89
377.15	421.30
377.35	433.00
377.54	386.19
377.74	383.85
377.93	308.95
378.13	379.17
378.33	376.83
378.52	346.40
378.72	507.90
378.91	449.38
379.11	402.57
379.31	409.59
379.50	414.27
379.70	407.25
379.89	437.68
380.09	383.85
380.28	409.59
380.48	414.27
380.68	463.43
380.87	365.12
381.07	440.02
381.26	430.66
381.46	330.02
381.65	397.89
381.85	458.74
382.04	458.74
382.24	372.15
382.43	369.80
382.63	348.74
382.83	369.80
383.02	442.36
383.22	416.62
383.41	386.19
383.61	386.19
383.80	454.06
384.00	461.09
384.19	451.72
384.39	463.43
384.58	332.36
384.78	381.51
384.97	379.17
385.17	414.27
385.36	435.34
385.56	449.38
385.75	383.85
385.95	409.59
386.14	430.66
386.34	365.12
386.53	442.36
386.72	458.74
386.92	447.04
387.11	435.34
387.31	383.85
387.50	479.81
387.70	442.36
387.89	416.62
388.09	351.08
388.28	376.83
388.48	442.36
388.67	437.68
388.86	444.70
389.06	367.46
389.25	407.25
389.45	372.15
389.64	454.06
389.84	428.32
390.03	393.21
390.22	402.57
390.42	386.19
390.61	411.93
390.81	402.57
391.00	388.53
391.19	440.02
391.39	479.81
391.58	456.40
391.78	404.91
391.97	416.62
392.16	304.27
392.36	440.02
392.55	393.21
392.75	456.40
392.94	454.06
393.13	451.72
393.33	423.64
393.52	435.34
393.71	390.87
393.91	325.33
394.10	433.00
394.29	444.70
394.49	407.25
394.68	489.17
394.88	477.47
395.07	341.72
395.26	381.51
395.46	423.64
395.65	510.24
395.84	400.23
396.04	433.00
396.23	489.17
396.42	388.53
396.62	442.36
396.81	454.06
397.00	423.64
397.19	355.76
397.39	437.68
397.58	484.49
397.77	433.00
397.97	397.89
398.16	358.10
398.35	351.08
398.55	379.17
398.74	353.42
398.93	458.74
399.12	355.76
399.32	409.59
399.51	360.44
399.70	393.21
399.90	395.55
400.09	423.64
400.28	465.77
400.47	388.53
400.67	348.74
400.86	489.17
401.05	381.51
401.24	444.70
401.44	397.89
401.63	437.68
401.82	374.49
402.01	404.91
402.21	402.57
402.40	428.32
402.59	325.33
402.78	369.80
402.97	330.02
403.17	411.93
403.36	351.08
403.55	416.62
403.74	379.17
403.93	337.04
404.13	440.02
404.32	397.89
404.51	440.02
404.70	409.59
404.89	433.00
405.09	451.72
405.28	461.09
405.47	379.17
405.66	437.68
405.85	409.59
406.05	344.06
406.24	416.62
406.43	362.78
406.62	376.83
406.81	472.79
407.00	414.27
407.20	416.62
407.39	402.57
407.58	449.38
407.77	404.91
407.96	465.77
408.15	372.15
408.34	367.46
408.54	458.74
408.73	411.93
408.92	367.46
409.11	428.32
409.30	383.85
409.49	390.87
409.68	397.89
409.87	421.30
410.07	407.25
410.26	440.02
410.45	430.66
410.64	379.17
410.83	383.85
411.02	454.06
411.21	440.02
411.40	458.74
411.59	390.87
411.78	362.78
411.98	461.09
412.17	433.00
412.36	372.15
412.55	447.04
412.74	400.23
412.93	456.40
413.12	388.53
413.31	437.68
413.50	430.66
413.69	395.55
413.88	411.93
414.07	400.23
414.26	386.19
414.45	423.64
414.64	435.34
414.83	400.23
415.02	400.23
415.22	337.04
415.41	430.66
415.60	365.12
415.79	440.02
415.98	418.96
416.17	400.23
416.36	386.19
416.55	379.17
416.74	381.51
416.93	388.53
417.12	390.87
417.31	381.51
417.50	374.49
417.69	397.89
417.88	346.40
418.07	423.64
418.26	458.74
418.45	447.04
418.64	372.15
418.83	423.64
419.02	367.46
419.21	470.45
419.39	425.98
419.58	440.02
419.77	433.00
419.96	484.49
420.15	409.59
420.34	414.27
420.53	365.12
420.72	390.87
420.91	465.77
421.10	416.62
421.29	376.83
421.48	383.85
421.67	416.62
421.86	423.64
422.05	416.62
422.24	430.66
422.43	440.02
422.61	383.85
422.80	421.30
422.99	411.93
423.18	374.49
423.37	461.09
423.56	402.57
423.75	444.70
423.94	355.76
424.13	402.57
424.32	421.30
424.50	409.59
424.69	463.43
424.88	468.11
425.07	332.36
425.26	449.38
425.45	451.72
425.64	393.21
425.83	404.91
426.01	386.19
426.20	362.78
426.39	423.64
426.58	353.42
426.77	435.34
426.96	451.72
427.15	414.27
427.33	365.12
427.52	379.17
427.71	404.91
427.90	374.49
428.09	393.21
428.28	397.89
428.46	397.89
428.65	423.64
428.84	440.02
429.03	322.99
429.22	339.38
429.40	388.53
429.59	428.32
429.78	367.46
429.97	390.87
430.16	376.83
430.34	397.89
430.53	411.93
430.72	393.21
430.91	369.80
431.10	404.91
431.28	348.74
431.47	444.70
431.66	454.06
431.85	344.06
432.03	468.11
432.22	402.57
432.41	383.85
432.60	416.62
432.79	411.93
432.97	491.51
433.16	496.19
433.35	388.53
433.54	360.44
433.72	435.34
433.91	442.36
434.10	393.21
434.28	444.70
434.47	503.22
434.66	418.96
434.85	393.21
435.03	411.93
435.22	428.32
435.41	428.32
435.59	430.66
435.78	341.72
435.97	397.89
436.16	381.51
436.34	400.23
436.53	383.85
436.72	451.72
436.90	388.53
437.09	358.10
437.28	437.68
437.46	468.11
437.65	442.36
437.84	421.30
438.02	388.53
438.21	430.66
438.40	383.85
438.58	332.36
438.77	442.36
438.96	423.64
439.14	383.85
439.33	374.49
439.52	393.21
439.70	400.23
439.89	404.91
440.08	365.12
440.26	395.55
440.45	397.89
440.63	369.80
440.82	475.13
441.01	409.59
441.19	386.19
441.38	418.96
441.57	435.34
441.75	423.64
441.94	402.57
442.12	372.15
442.31	414.27
442.50	421.30
442.68	395.55
442.87	369.80
443.05	400.23
443.24	388.53
443.43	372.15
443.61	440.02
443.80	404.91
443.98	388.53
444.17	390.87
444.35	421.30
444.54	383.85
444.73	393.21
444.91	454.06
445.10	383.85
445.28	418.96
445.47	414.27
445.65	414.27
445.84	416.62
446.02	421.30
446.21	374.49
446.39	430.66
446.58	418.96
446.77	411.93
446.95	444.70
447.14	416.62
447.32	484.49
447.51	386.19
447.69	430.66
447.88	416.62
448.06	402.57
448.25	376.83
448.43	442.36
448.62	416.62
448.80	367.46
448.99	409.59
449.17	411.93
449.36	430.66
449.54	444.70
449.73	397.89
449.91	365.12
450.10	402.57
450.28	463.43
450.46	477.47
450.65	423.64
450.83	423.64
451.02	428.32
451.20	458.74
451.39	456.40
451.57	372.15
451.76	435.34
451.94	433.00
452.13	390.87
452.31	451.72
452.49	395.55
452.68	374.49
452.86	386.19
453.05	348.74
453.23	367.46
453.42	341.72
453.60	395.55
453.78	482.15
453.97	358.10
454.15	430.66
454.34	435.34
454.52	418.96
454.70	374.49
454.89	362.78
455.07	365.12
455.26	353.42
455.44	351.08
455.62	376.83
455.81	418.96
455.99	381.51
456.17	409.59
456.36	477.47
456.54	470.45
456.73	425.98
456.91	472.79
457.09	454.06
457.28	395.55
457.46	411.93
457.64	456.40
457.83	437.68
458.01	414.27
458.19	433.00
458.38	376.83
458.56	379.17
458.74	414.27
458.93	397.89
459.11	409.59
459.29	334.70
459.48	383.85
459.66	425.98
459.84	393.21
460.03	465.77
460.21	369.80
460.39	430.66
460.57	500.87
460.76	388.53
460.94	414.27
461.12	411.93
461.31	442.36
461.49	374.49
461.67	367.46
461.85	498.53
462.04	411.93
462.22	755.99
462.40	475.13
462.59	442.36
462.77	367.46
462.95	416.62
463.13	337.04
463.32	386.19
463.50	355.76
463.68	472.79
463.86	470.45
464.05	402.57
464.23	397.89
464.41	402.57
464.59	491.51
464.78	421.30
464.96	477.47
465.14	435.34
465.32	383.85
465.50	411.93
465.69	388.53
465.87	367.46
466.05	440.02
466.23	425.98
466.41	369.80
466.60	351.08
466.78	451.72
466.96	470.45
467.14	421.30
467.32	444.70
467.51	468.11
467.69	383.85
467.87	407.25
468.05	365.12
468.23	458.74
468.41	463.43
468.60	454.06
468.78	358.10
468.96	435.34
469.14	369.80
469.32	402.57
469.50	465.77
469.69	540.66
469.87	381.51
470.05	372.15
470.23	425.98
470.41	386.19
470.59	362.78
470.77	388.53
470.95	430.66
471.14	397.89
471.32	407.25
471.50	402.57
471.68	397.89
471.86	409.59
472.04	381.51
472.22	433.00
472.40	484.49
472.58	444.70
472.77	351.08
472.95	379.17
473.13	402.57
473.31	425.98
473.49	425.98
473.67	402.57
473.85	435.34
474.03	430.66
474.21	418.96
474.39	428.32
474.57	407.25
474.75	409.59
474.93	400.23
475.12	383.85
475.30	409.59
475.48	442.36
475.66	397.89
475.84	428.32
476.02	386.19
476.20	423.64
476.38	498.53
476.56	465.77
476.74	447.04
476.92	386.19
477.10	451.72
477.28	454.06
477.46	407.25
477.64	440.02
477.82	428.32
478.00	458.74
478.18	414.27
478.36	372.15
478.54	374.49
478.72	430.66
478.90	407.25
479.08	407.25
479.26	332.36
479.44	351.08
479.62	397.89
479.80	423.64
479.98	442.36
480.16	400.23
480.34	430.66
480.52	360.44
480.70	461.09
480.88	484.49
481.06	404.91
481.24	381.51
481.41	409.59
481.59	404.91
481.77	409.59
481.95	351.08
482.13	411.93
482.31	423.64
482.49	484.49
482.67	360.44
482.85	362.78
483.03	388.53
483.21	444.70
483.39	397.89
483.57	414.27
483.74	411.93
483.92	397.89
484.10	430.66
484.28	428.32
484.46	440.02
484.64	421.30
484.82	362.78
485.00	411.93
485.18	414.27
485.35	402.57
485.53	444.70
485.71	456.40
485.89	346.40
486.07	472.79
486.25	479.81
486.43	386.19
486.61	465.77
486.78	423.64
486.96	402.57
487.14	376.83
487.32	463.43
487.50	411.93
487.68	437.68
487.85	369.80
488.03	454.06
488.21	409.59
488.39	388.53
488.57	407.25
488.75	372.15
488.92	454.06
489.10	311.29
489.28	477.47
489.46	400.23
489.64	381.51
489.81	376.83
489.99	383.85
490.17	395.55
490.35	440.02
490.53	451.72
490.70	400.23
490.88	416.62
491.06	388.53
491.24	418.96
491.41	468.11
491.59	482.15
491.77	440.02
491.95	348.74
492.13	411.93
492.30	395.55
492.48	388.53
492.66	388.53
492.84	461.09
493.01	397.89
493.19	367.46
493.37	435.34
493.54	458.74
493.72	421.30
493.90	414.27
494.08	365.12
494.25	376.83
494.43	423.64
494.61	421.30
494.79	355.76
494.96	423.64
495.14	400.23
495.32	383.85
495.49	416.62
495.67	390.87
495.85	484.49
496.02	465.77
496.20	463.43
496.38	425.98
496.55	402.57
496.73	435.34
496.91	428.32
497.09	451.72
497.26	390.87
497.44	421.30
497.62	428.32
497.79	465.77
497.97	500.87
498.14	416.62
498.32	533.64
498.50	461.09
498.67	425.98
498.85	433.00
499.03	411.93
499.20	421.30
499.38	454.06
499.56	484.49
499.73	486.83
499.91	479.81
500.08	360.44
500.26	418.96
500.44	388.53
500.61	416.62
500.79	393.21
500.97	383.85
501.14	402.57
501.32	379.17
501.49	435.34
501.67	402.57
501.84	433.00
502.02	395.55
502.20	435.34
502.37	320.65
502.55	421.30
502.72	393.21
502.90	475.13
503.07	393.21
503.25	416.62
503.43	461.09
503.60	430.66
503.78	440.02
503.95	355.76
504.13	430.66
504.30	351.08
504.48	404.91
504.65	362.78
504.83	468.11
505.01	372.15
505.18	411.93
505.36	381.51
505.53	472.79
505.71	393.21
505.88	428.32
506.06	393.21
506.23	472.79
506.41	311.29
506.58	442.36
506.76	409.59
506.93	440.02
507.11	440.02
507.28	388.53
507.46	414.27
507.63	447.04
507.81	454.06
507.98	472.79
508.16	390.87
508.33	400.23
508.50	397.89
508.68	388.53
508.85	395.55
509.03	383.85
509.20	440.02
509.38	489.17
509.55	376.83
509.73	433.00
509.90	416.62
510.08	341.72
510.25	451.72
510.42	470.45
510.60	440.02
510.77	409.59
510.95	423.64
511.12	442.36
511.30	440.02
511.47	418.96
511.64	407.25
511.82	423.64
511.99	374.49
512.17	414.27
512.34	393.21
512.51	388.53
512.69	388.53
512.86	526.62
513.04	386.19
513.21	435.34
513.38	393.21
513.56	416.62
513.73	414.27
513.90	383.85
514.08	407.25
514.25	416.62
514.43	372.15
514.60	365.12
514.77	369.80
514.95	404.91
515.12	425.98
515.29	393.21
515.47	425.98
515.64	395.55
515.81	409.59
515.99	486.83
516.16	435.34
516.33	425.98
516.51	362.78
516.68	428.32
516.85	388.53
517.03	404.91
517.20	320.65
517.37	442.36
517.54	449.38
517.72	344.06
517.89	444.70
518.06	442.36
518.24	393.21
518.41	447.04
518.58	402.57
518.75	393.21
518.93	409.59
519.10	365.12
519.27	428.32
519.45	404.91
519.62	451.72
519.79	470.45
519.96	442.36
520.14	383.85
520.31	472.79
520.48	390.87
520.65	379.17
520.83	404.91
521.00	510.24
521.17	475.13
521.34	407.25
521.52	430.66
521.69	416.62
521.86	376.83
522.03	421.30
522.20	437.68
522.38	472.79
522.55	465.77
522.72	362.78
522.89	435.34
523.07	411.93
523.24	428.32
523.41	351.08
523.58	418.96
523.75	411.93
523.92	475.13
524.10	465.77
524.27	407.25
524.44	430.66
524.61	458.74
524.78	418.96
524.96	386.19
525.13	393.21
525.30	437.68
525.47	454.06
525.64	465.77
525.81	409.59
525.98	397.89
526.16	428.32
526.33	402.57
526.50	376.83
526.67	402.57
526.84	360.44
527.01	404.91
527.18	381.51
527.36	388.53
527.53	379.17
527.70	458.74
527.87	449.38
528.04	423.64
528.21	425.98
528.38	428.32
528.55	449.38
528.72	489.17
528.89	425.98
529.07	414.27
529.24	369.80
529.41	500.87
529.58	402.57
529.75	437.68
529.92	458.74
530.09	409.59
530.26	435.34
530.43	330.02
530.60	390.87
530.77	390.87
530.94	351.08
531.11	367.46
531.28	411.93
531.46	407.25
531.63	337.04
531.80	404.91
531.97	390.87
532.14	381.51
532.31	428.32
532.48	416.62
532.65	351.08
532.82	418.96
532.99	372.15
533.16	318.31
533.33	388.53
533.50	489.17
533.67	348.74
533.84	414.27
534.01	416.62
534.18	402.57
534.35	489.17
534.52	418.96
534.69	402.57
534.86	447.04
535.03	404.91
535.20	374.49
535.37	425.98
535.54	447.04
535.71	390.87
535.88	395.55
536.05	376.83
536.22	449.38
536.38	409.59
536.55	449.38
536.72	454.06
536.89	365.12
537.06	418.96
537.23	430.66
537.40	425.98
537.57	425.98
537.74	477.47
537.91	376.83
538.08	421.30
538.25	416.62
538.42	484.49
538.59	383.85
538.75	465.77
538.92	435.34
539.09	437.68
539.26	379.17
539.43	402.57
539.60	360.44
539.77	423.64
539.94	442.36
540.11	491.51
540.28	461.09
540.44	388.53
540.61	402.57
540.78	407.25
540.95	444.70
541.12	416.62
541.29	484.49
541.46	470.45
541.62	475.13
541.79	458.74
541.96	376.83
542.13	367.46
542.30	465.77
542.47	407.25
542.63	486.83
542.80	444.70
542.97	479.81
543.14	332.36
543.31	425.98
543.48	388.53
543.64	395.55
543.81	381.51
543.98	376.83
544.15	402.57
544.32	442.36
544.48	402.57
544.65	381.51
544.82	433.00
544.99	369.80
545.16	404.91
545.32	433.00
545.49	355.76
545.66	421.30
545.83	383.85
546.00	418.96
546.16	379.17
546.33	456.40
546.50	416.62
546.67	418.96
546.83	440.02
547.00	376.83
547.17	367.46
547.34	454.06
547.50	418.96
547.67	376.83
547.84	433.00
548.00	365.12
548.17	437.68
548.34	428.32
548.51	477.47
548.67	433.00
548.84	503.22
549.01	414.27
549.18	379.17
549.34	524.28
549.51	374.49
549.68	383.85
549.84	355.76
550.01	374.49
550.18	503.22
550.34	484.49
550.51	390.87
550.68	447.04
550.84	386.19
551.01	444.70
551.18	486.83
551.34	365.12
551.51	397.89
551.68	390.87
551.84	430.66
552.01	402.57
552.18	449.38
552.34	409.59
552.51	383.85
552.68	383.85
552.84	390.87
553.01	390.87
553.18	435.34
553.34	437.68
553.51	440.02
553.67	461.09
553.84	468.11
554.01	465.77
554.17	447.04
554.34	400.23
554.51	386.19
554.67	388.53
554.84	402.57
555.00	423.64
555.17	393.21
555.33	425.98
555.50	393.21
555.67	348.74
555.83	379.17
556.00	442.36
556.16	512.58
556.33	442.36
556.50	449.38
556.66	463.43
556.83	468.11
556.99	344.06
557.16	430.66
557.32	402.57
557.49	402.57
557.65	376.83
557.82	381.51
557.98	414.27
558.15	456.40
558.32	468.11
558.48	409.59
558.65	414.27
558.81	472.79
558.98	442.36
559.14	442.36
559.31	353.42
559.47	386.19
559.64	376.83
559.80	416.62
559.97	390.87
560.13	416.62
560.30	374.49
560.46	397.89
560.63	388.53
560.79	423.64
560.96	435.34
561.12	435.34
561.29	430.66
561.45	454.06
561.61	475.13
561.78	461.09
561.94	449.38
562.11	339.38
562.27	449.38
562.44	498.53
562.60	454.06
562.77	430.66
562.93	437.68
563.10	435.34
563.26	411.93
563.42	458.74
563.59	475.13
563.75	383.85
563.92	435.34
564.08	367.46
564.24	475.13
564.41	456.40
564.57	360.44
564.74	425.98
564.90	442.36
565.07	505.56
565.23	477.47
565.39	393.21
565.56	414.27
565.72	390.87
565.88	379.17
566.05	407.25
566.21	379.17
566.38	411.93
566.54	449.38
566.70	395.55
566.87	376.83
567.03	372.15
567.19	437.68
567.36	379.17
567.52	388.53
567.68	458.74
567.85	458.74
568.01	360.44
568.17	411.93
568.34	376.83
568.50	423.64
568.66	351.08
568.83	454.06
568.99	437.68
569.15	468.11
569.32	435.34
569.48	344.06
569.64	367.46
569.81	365.12
569.97	493.85
570.13	484.49
570.30	416.62
570.46	402.57
570.62	397.89
570.78	383.85
570.95	407.25
571.11	447.04
571.27	524.28
571.43	472.79
571.60	437.68
571.76	369.80
571.92	444.70
572.09	337.04
572.25	407.25
572.41	451.72
572.57	449.38
572.74	430.66
572.90	430.66
573.06	395.55
573.22	402.57
573.38	376.83
573.55	390.87
573.71	400.23
573.87	421.30
574.03	355.76
574.20	320.65
574.36	428.32
574.52	344.06
574.68	407.25
574.84	383.85
575.01	404.91
575.17	379.17
575.33	404.91
575.49	397.89
575.65	449.38
575.82	433.00
575.98	428.32
576.14	369.80
576.30	393.21
576.46	461.09
576.62	430.66
576.79	486.83
576.95	463.43
577.11	444.70
577.27	374.49
577.43	482.15
577.59	379.17
577.75	465.77
577.92	451.72
578.08	425.98
578.24	381.51
578.40	393.21
578.56	400.23
578.72	440.02
578.88	421.30
579.04	362.78
579.21	339.38
579.37	383.85
579.53	379.17
579.69	397.89
579.85	358.10
580.01	400.23
580.17	489.17
580.33	411.93
580.49	386.19
580.65	423.64
580.82	400.23
580.98	449.38
581.14	374.49
581.30	381.51
581.46	390.87
581.62	390.87
581.78	369.80
581.94	404.91
582.10	348.74
582.26	367.46
582.42	381.51
582.58	447.04
582.74	418.96
582.90	407.25
583.06	355.76
583.22	383.85
583.38	348.74
583.54	388.53
583.70	468.11
583.86	418.96
584.02	433.00
584.18	461.09
584.34	407.25
584.50	468.11
584.66	362.78
584.82	388.53
584.98	393.21
585.14	383.85
585.30	486.83
585.46	442.36
585.62	402.57
585.78	449.38
585.94	374.49
586.10	369.80
586.26	360.44
586.42	397.89
586.58	414.27
586.74	425.98
586.90	451.72
587.06	402.57
587.22	433.00
587.38	442.36
587.54	437.68
587.70	397.89
587.86	423.64
588.02	451.72
588.18	454.06
588.34	435.34
588.49	423.64
588.65	388.53
588.81	409.59
588.97	397.89
589.13	489.17
589.29	353.42
589.45	465.77
589.61	402.57
589.77	367.46
589.93	421.30
590.08	402.57
590.24	468.11
590.40	390.87
590.56	437.68
590.72	362.78
590.88	397.89
591.04	451.72
591.20	454.06
591.35	400.23
591.51	395.55
591.67	437.68
591.83	416.62
591.99	433.00
592.15	430.66
592.31	463.43
592.46	421.30
592.62	500.87
592.78	418.96
592.94	383.85
593.10	395.55
593.26	381.51
593.41	456.40
593.57	362.78
593.73	407.25
593.89	463.43
594.05	428.32
594.20	423.64
594.36	428.32
594.52	369.80
594.68	465.77
594.84	454.06
594.99	472.79
595.15	421.30
595.31	472.79
595.47	346.40
595.62	414.27
595.78	379.17
595.94	360.44
596.10	414.27
596.25	437.68
596.41	428.32
596.57	435.34
596.73	400.23
596.88	374.49
597.04	404.91
597.20	397.89
597.36	383.85
597.51	311.29
597.67	444.70
597.83	379.17
597.99	421.30
598.14	451.72
598.30	418.96
598.46	409.59
598.61	437.68
598.77	433.00
598.93	341.72
599.09	425.98
599.24	451.72
599.40	437.68
599.56	325.33
599.71	376.83
599.87	411.93
600.03	428.32
600.18	416.62
600.34	447.04
600.50	444.70
600.65	402.57
600.81	409.59
600.97	463.43
601.12	442.36
601.28	409.59
601.44	425.98
601.59	491.51
601.75	423.64
601.91	425.98
602.06	358.10
602.22	482.15
602.37	472.79
602.53	465.77
602.69	402.57
602.84	381.51
603.00	404.91
603.16	421.30
603.31	425.98
603.47	407.25
603.62	341.72
603.78	479.81
603.94	362.78
604.09	458.74
604.25	409.59
604.40	411.93
604.56	397.89
604.71	440.02
604.87	365.12
605.03	498.53
605.18	442.36
605.34	463.43
605.49	372.15
605.65	353.42
605.80	327.68
605.96	407.25
606.12	454.06
606.27	454.06
606.43	341.72
606.58	430.66
606.74	334.70
606.89	381.51
607.05	435.34
607.20	425.98
607.36	379.17
607.51	407.25
607.67	344.06
607.82	425.98
607.98	496.19
608.13	407.25
608.29	465.77
608.44	461.09
608.60	425.98
608.75	535.98
608.91	409.59
609.06	428.32
609.22	470.45
609.37	383.85
609.53	367.46
609.68	358.10
609.84	334.70
609.99	425.98
610.15	416.62
