SpectraSuite Data File
++++++++++++++++++++++++++++++++++++
Date: Fri Oct 25 12:10:22 EDT 2013
User: price-jones
Dark Spectrum Present: No
Reference Spectrum Present: No
Number of Sampled Component Spectra: 1
Spectrometers: USB2+H05261
Integration Time (usec): 100000 (USB2+H05261)
Spectra Averaged: 1 (USB2+H05261)
Boxcar Smoothing: 0 (USB2+H05261)
Correct for Electrical Dark: No (USB2+H05261)
Strobe/Lamp Enabled: No (USB2+H05261)
Correct for Detector Non-linearity: No (USB2+H05261)
Correct for Stray Light: No (USB2+H05261)
Number of Pixels in Processed Spectrum: 2048
>>>>>Begin Processed Spectral Data<<<<<
365.73	348.74
365.92	348.74
366.12	348.74
366.32	315.97
366.52	208.31
366.72	248.10
366.91	191.92
367.11	229.37
367.31	203.63
367.51	189.58
367.70	243.42
367.90	177.88
368.10	175.54
368.30	238.73
368.49	161.50
368.69	252.78
368.89	278.52
369.09	257.46
369.28	264.48
369.48	252.78
369.68	255.12
369.87	285.55
370.07	374.49
370.27	330.02
370.47	353.42
370.66	374.49
370.86	367.46
371.06	362.78
371.25	454.06
371.45	308.95
371.65	369.80
371.84	386.19
372.04	416.62
372.24	320.65
372.44	430.66
372.63	353.42
372.83	449.38
373.03	367.46
373.22	367.46
373.42	414.27
373.62	386.19
373.81	388.53
374.01	465.77
374.21	454.06
374.40	400.23
374.60	404.91
374.79	397.89
374.99	418.96
375.19	477.47
375.38	414.27
375.58	374.49
375.78	444.70
375.97	472.79
376.17	430.66
376.37	428.32
376.56	423.64
376.76	411.93
376.95	425.98
377.15	421.30
377.35	425.98
377.54	404.91
377.74	428.32
377.93	421.30
378.13	463.43
378.33	344.06
378.52	451.72
378.72	404.91
378.91	484.49
379.11	365.12
379.31	416.62
379.50	444.70
379.70	479.81
379.89	442.36
380.09	414.27
380.28	369.80
380.48	360.44
380.68	404.91
380.87	372.15
381.07	463.43
381.26	376.83
381.46	369.80
381.65	423.64
381.85	400.23
382.04	421.30
382.24	402.57
382.43	388.53
382.63	397.89
382.83	444.70
383.02	376.83
383.22	402.57
383.41	332.36
383.61	369.80
383.80	397.89
384.00	468.11
384.19	418.96
384.39	393.21
384.58	397.89
384.78	388.53
384.97	381.51
385.17	428.32
385.36	425.98
385.56	400.23
385.75	395.55
385.95	383.85
386.14	409.59
386.34	416.62
386.53	409.59
386.72	447.04
386.92	458.74
387.11	362.78
387.31	404.91
387.50	393.21
387.70	440.02
387.89	386.19
388.09	423.64
388.28	369.80
388.48	411.93
388.67	388.53
388.86	470.45
389.06	346.40
389.25	454.06
389.45	423.64
389.64	388.53
389.84	402.57
390.03	447.04
390.22	346.40
390.42	360.44
390.61	421.30
390.81	418.96
391.00	404.91
391.19	416.62
391.39	404.91
391.58	458.74
391.78	388.53
391.97	468.11
392.16	416.62
392.36	416.62
392.55	404.91
392.75	369.80
392.94	428.32
393.13	435.34
393.33	360.44
393.52	447.04
393.71	479.81
393.91	404.91
394.10	421.30
394.29	351.08
394.49	461.09
394.68	395.55
394.88	433.00
395.07	507.90
395.26	404.91
395.46	451.72
395.65	372.15
395.84	491.51
396.04	435.34
396.23	362.78
396.42	367.46
396.62	435.34
396.81	393.21
397.00	322.99
397.19	402.57
397.39	407.25
397.58	365.12
397.77	353.42
397.97	362.78
398.16	458.74
398.35	470.45
398.55	400.23
398.74	447.04
398.93	442.36
399.12	395.55
399.32	456.40
399.51	449.38
399.70	421.30
399.90	409.59
400.09	379.17
400.28	447.04
400.47	428.32
400.67	409.59
400.86	372.15
401.05	379.17
401.24	362.78
401.44	409.59
401.63	404.91
401.82	463.43
402.01	376.83
402.21	449.38
402.40	409.59
402.59	397.89
402.78	430.66
402.97	369.80
403.17	418.96
403.36	411.93
403.55	397.89
403.74	442.36
403.93	447.04
404.13	444.70
404.32	407.25
404.51	390.87
404.70	383.85
404.89	358.10
405.09	411.93
405.28	376.83
405.47	381.51
405.66	416.62
405.85	409.59
406.05	395.55
406.24	437.68
406.43	433.00
406.62	409.59
406.81	395.55
407.00	425.98
407.20	381.51
407.39	404.91
407.58	447.04
407.77	299.59
407.96	325.33
408.15	449.38
408.34	451.72
408.54	458.74
408.73	411.93
408.92	367.46
409.11	407.25
409.30	449.38
409.49	449.38
409.68	374.49
409.87	390.87
410.07	360.44
410.26	388.53
410.45	348.74
410.64	344.06
410.83	418.96
411.02	369.80
411.21	379.17
411.40	348.74
411.59	407.25
411.78	418.96
411.98	386.19
412.17	456.40
412.36	388.53
412.55	355.76
412.74	423.64
412.93	479.81
413.12	442.36
413.31	458.74
413.50	369.80
413.69	404.91
413.88	444.70
414.07	404.91
414.26	477.47
414.45	411.93
414.64	402.57
414.83	435.34
415.02	393.21
415.22	341.72
415.41	395.55
415.60	402.57
415.79	374.49
415.98	416.62
416.17	365.12
416.36	383.85
416.55	421.30
416.74	484.49
416.93	407.25
417.12	411.93
417.31	404.91
417.50	430.66
417.69	404.91
417.88	383.85
418.07	346.40
418.26	360.44
418.45	468.11
418.64	411.93
418.83	456.40
419.02	315.97
419.21	411.93
419.39	383.85
419.58	348.74
419.77	418.96
419.96	456.40
420.15	411.93
420.34	407.25
420.53	416.62
420.72	418.96
420.91	472.79
421.10	461.09
421.29	458.74
421.48	442.36
421.67	442.36
421.86	468.11
422.05	414.27
422.24	421.30
422.43	421.30
422.61	418.96
422.80	358.10
422.99	458.74
423.18	425.98
423.37	442.36
423.56	477.47
423.75	425.98
423.94	390.87
424.13	400.23
424.32	374.49
424.50	367.46
424.69	411.93
424.88	449.38
425.07	435.34
425.26	444.70
425.45	447.04
425.64	315.97
425.83	337.04
426.01	395.55
426.20	332.36
426.39	395.55
426.58	397.89
426.77	461.09
426.96	454.06
427.15	414.27
427.33	374.49
427.52	440.02
427.71	395.55
427.90	425.98
428.09	390.87
428.28	449.38
428.46	374.49
428.65	402.57
428.84	365.12
429.03	435.34
429.22	425.98
429.40	402.57
429.59	358.10
429.78	416.62
429.97	367.46
430.16	388.53
430.34	414.27
430.53	440.02
430.72	414.27
430.91	355.76
431.10	395.55
431.28	414.27
431.47	400.23
431.66	390.87
431.85	348.74
432.03	397.89
432.22	454.06
432.41	496.19
432.60	383.85
432.79	362.78
432.97	440.02
433.16	386.19
433.35	482.15
433.54	400.23
433.72	400.23
433.91	430.66
434.10	409.59
434.28	358.10
434.47	418.96
434.66	423.64
434.85	374.49
435.03	435.34
435.22	409.59
435.41	470.45
435.59	444.70
435.78	337.04
435.97	341.72
436.16	430.66
436.34	311.29
436.53	383.85
436.72	433.00
436.90	449.38
437.09	390.87
437.28	411.93
437.46	475.13
437.65	421.30
437.84	344.06
438.02	409.59
438.21	449.38
438.40	362.78
438.58	402.57
438.77	435.34
438.96	400.23
439.14	463.43
439.33	409.59
439.52	404.91
439.70	433.00
439.89	402.57
440.08	411.93
440.26	365.12
440.45	479.81
440.63	425.98
440.82	407.25
441.01	393.21
441.19	365.12
441.38	528.96
441.57	435.34
441.75	421.30
441.94	470.45
442.12	411.93
442.31	376.83
442.50	433.00
442.68	397.89
442.87	430.66
443.05	411.93
443.24	461.09
443.43	402.57
443.61	362.78
443.80	416.62
443.98	442.36
444.17	395.55
444.35	430.66
444.54	320.65
444.73	360.44
444.91	440.02
445.10	428.32
445.28	416.62
445.47	414.27
445.65	440.02
445.84	388.53
446.02	395.55
446.21	395.55
446.39	393.21
446.58	435.34
446.77	447.04
446.95	400.23
447.14	472.79
447.32	447.04
447.51	404.91
447.69	404.91
447.88	386.19
448.06	465.77
448.25	407.25
448.43	430.66
448.62	341.72
448.80	388.53
448.99	444.70
449.17	414.27
449.36	372.15
449.54	442.36
449.73	390.87
449.91	482.15
450.10	372.15
450.28	528.96
450.46	468.11
450.65	421.30
450.83	393.21
451.02	440.02
451.20	418.96
451.39	360.44
451.57	425.98
451.76	425.98
451.94	447.04
452.13	397.89
452.31	423.64
452.49	376.83
452.68	430.66
452.86	355.76
453.05	456.40
453.23	397.89
453.42	421.30
453.60	416.62
453.78	425.98
453.97	442.36
454.15	470.45
454.34	465.77
454.52	425.98
454.70	456.40
454.89	416.62
455.07	433.00
455.26	528.96
455.44	402.57
455.62	388.53
455.81	425.98
455.99	454.06
456.17	458.74
456.36	407.25
456.54	402.57
456.73	421.30
456.91	411.93
457.09	374.49
457.28	451.72
457.46	411.93
457.64	444.70
457.83	390.87
458.01	409.59
458.19	435.34
458.38	435.34
458.56	472.79
458.74	416.62
458.93	463.43
459.11	468.11
459.29	358.10
459.48	449.38
459.66	330.02
459.84	402.57
460.03	416.62
460.21	435.34
460.39	414.27
460.57	451.72
460.76	407.25
460.94	383.85
461.12	416.62
461.31	362.78
461.49	456.40
461.67	425.98
461.85	416.62
462.04	437.68
462.22	788.76
462.40	397.89
462.59	449.38
462.77	447.04
462.95	388.53
463.13	416.62
463.32	409.59
463.50	379.17
463.68	425.98
463.86	355.76
464.05	320.65
464.23	416.62
464.41	421.30
464.59	451.72
464.78	411.93
464.96	433.00
465.14	339.38
465.32	379.17
465.50	430.66
465.69	423.64
465.87	383.85
466.05	397.89
466.23	390.87
466.41	477.47
466.60	374.49
466.78	482.15
466.96	430.66
467.14	362.78
467.32	484.49
467.51	451.72
467.69	442.36
467.87	465.77
468.05	402.57
468.23	449.38
468.41	388.53
468.60	346.40
468.78	327.68
468.96	386.19
469.14	393.21
469.32	346.40
469.50	407.25
469.69	463.43
469.87	404.91
470.05	433.00
470.23	428.32
470.41	353.42
470.59	409.59
470.77	404.91
470.95	444.70
471.14	456.40
471.32	404.91
471.50	447.04
471.68	404.91
471.86	409.59
472.04	423.64
472.22	374.49
472.40	351.08
472.58	428.32
472.77	362.78
472.95	395.55
473.13	510.24
473.31	447.04
473.49	423.64
473.67	496.19
473.85	477.47
474.03	388.53
474.21	440.02
474.39	409.59
474.57	440.02
474.75	451.72
474.93	395.55
475.12	390.87
475.30	407.25
475.48	404.91
475.66	411.93
475.84	449.38
476.02	493.85
476.20	414.27
476.38	428.32
476.56	500.87
476.74	327.68
476.92	388.53
477.10	390.87
477.28	421.30
477.46	430.66
477.64	400.23
477.82	397.89
478.00	465.77
478.18	381.51
478.36	435.34
478.54	358.10
478.72	416.62
478.90	400.23
479.08	388.53
479.26	482.15
479.44	449.38
479.62	395.55
479.80	414.27
479.98	395.55
480.16	444.70
480.34	472.79
480.52	435.34
480.70	465.77
480.88	435.34
481.06	458.74
481.24	430.66
481.41	369.80
481.59	416.62
481.77	409.59
481.95	437.68
482.13	554.71
482.31	374.49
482.49	409.59
482.67	404.91
482.85	484.49
483.03	416.62
483.21	416.62
483.39	456.40
483.57	383.85
483.74	397.89
483.92	395.55
484.10	369.80
484.28	367.46
484.46	451.72
484.64	318.31
484.82	454.06
485.00	374.49
485.18	468.11
485.35	468.11
485.53	407.25
485.71	435.34
485.89	416.62
486.07	461.09
486.25	470.45
486.43	433.00
486.61	351.08
486.78	339.38
486.96	423.64
487.14	397.89
487.32	418.96
487.50	348.74
487.68	416.62
487.85	404.91
488.03	430.66
488.21	400.23
488.39	367.46
488.57	454.06
488.75	386.19
488.92	479.81
489.10	414.27
489.28	491.51
489.46	444.70
489.64	339.38
489.81	390.87
489.99	397.89
490.17	400.23
490.35	475.13
490.53	423.64
490.70	414.27
490.88	402.57
491.06	404.91
491.24	383.85
491.41	430.66
491.59	400.23
491.77	379.17
491.95	283.20
492.13	372.15
492.30	482.15
492.48	409.59
492.66	517.26
492.84	395.55
493.01	388.53
493.19	386.19
493.37	482.15
493.54	491.51
493.72	421.30
493.90	423.64
494.08	461.09
494.25	435.34
494.43	379.17
494.61	407.25
494.79	489.17
494.96	440.02
495.14	451.72
495.32	397.89
495.49	411.93
495.67	465.77
495.85	362.78
496.02	395.55
496.20	425.98
496.38	355.76
496.55	435.34
496.73	423.64
496.91	404.91
497.09	416.62
497.26	461.09
497.44	374.49
497.62	437.68
497.79	423.64
497.97	442.36
498.14	435.34
498.32	421.30
498.50	477.47
498.67	383.85
498.85	411.93
499.03	367.46
499.20	425.98
499.38	451.72
499.56	416.62
499.73	442.36
499.91	388.53
500.08	463.43
500.26	440.02
500.44	428.32
500.61	456.40
500.79	472.79
500.97	409.59
501.14	437.68
501.32	503.22
501.49	383.85
501.67	470.45
501.84	393.21
502.02	390.87
502.20	472.79
502.37	381.51
502.55	379.17
502.72	390.87
502.90	386.19
503.07	379.17
503.25	348.74
503.43	416.62
503.60	421.30
503.78	411.93
503.95	465.77
504.13	341.72
504.30	444.70
504.48	475.13
504.65	411.93
504.83	409.59
505.01	465.77
505.18	416.62
505.36	451.72
505.53	449.38
505.71	425.98
505.88	535.98
506.06	444.70
506.23	447.04
506.41	468.11
506.58	465.77
506.76	454.06
506.93	421.30
507.11	428.32
507.28	409.59
507.46	451.72
507.63	416.62
507.81	425.98
507.98	393.21
508.16	484.49
508.33	358.10
508.50	397.89
508.68	402.57
508.85	414.27
509.03	442.36
509.20	451.72
509.38	472.79
509.55	472.79
509.73	411.93
509.90	479.81
510.08	447.04
510.25	383.85
510.42	435.34
510.60	418.96
510.77	388.53
510.95	437.68
511.12	367.46
511.30	390.87
511.47	470.45
511.64	430.66
511.82	404.91
511.99	449.38
512.17	369.80
512.34	409.59
512.51	390.87
512.69	414.27
512.86	421.30
513.04	463.43
513.21	435.34
513.38	414.27
513.56	416.62
513.73	411.93
513.90	383.85
514.08	404.91
514.25	409.59
514.43	414.27
514.60	400.23
514.77	451.72
514.95	390.87
515.12	465.77
515.29	395.55
515.47	425.98
515.64	425.98
515.81	390.87
515.99	491.51
516.16	461.09
516.33	383.85
516.51	411.93
516.68	381.51
516.85	367.46
517.03	454.06
517.20	379.17
517.37	428.32
517.54	418.96
517.72	404.91
517.89	418.96
518.06	376.83
518.24	400.23
518.41	465.77
518.58	430.66
518.75	355.76
518.93	407.25
519.10	411.93
519.27	435.34
519.45	395.55
519.62	468.11
519.79	456.40
519.96	397.89
520.14	456.40
520.31	402.57
520.48	416.62
520.65	421.30
520.83	376.83
521.00	418.96
521.17	447.04
521.34	390.87
521.52	372.15
521.69	477.47
521.86	388.53
522.03	416.62
522.20	430.66
522.38	409.59
522.55	393.21
522.72	379.17
522.89	430.66
523.07	463.43
523.24	428.32
523.41	416.62
523.58	374.49
523.75	421.30
523.92	414.27
524.10	456.40
524.27	491.51
524.44	332.36
524.61	402.57
524.78	444.70
524.96	423.64
525.13	346.40
525.30	400.23
525.47	430.66
525.64	472.79
525.81	409.59
525.98	353.42
526.16	433.00
526.33	423.64
526.50	388.53
526.67	344.06
526.84	428.32
527.01	454.06
527.18	365.12
527.36	376.83
527.53	388.53
527.70	381.51
527.87	369.80
528.04	468.11
528.21	397.89
528.38	402.57
528.55	409.59
528.72	470.45
528.89	442.36
529.07	395.55
529.24	421.30
529.41	507.90
529.58	458.74
529.75	428.32
529.92	433.00
530.09	465.77
530.26	447.04
530.43	395.55
530.60	388.53
530.77	447.04
530.94	409.59
531.11	409.59
531.28	468.11
531.46	449.38
531.63	484.49
531.80	458.74
531.97	390.87
532.14	407.25
532.31	337.04
532.48	491.51
532.65	463.43
532.82	376.83
532.99	372.15
533.16	393.21
533.33	430.66
533.50	442.36
533.67	397.89
533.84	430.66
534.01	400.23
534.18	407.25
534.35	411.93
534.52	367.46
534.69	402.57
534.86	390.87
535.03	344.06
535.20	442.36
535.37	409.59
535.54	355.76
535.71	421.30
535.88	454.06
536.05	430.66
536.22	404.91
536.38	416.62
536.55	433.00
536.72	493.85
536.89	433.00
537.06	472.79
537.23	376.83
537.40	388.53
537.57	386.19
537.74	435.34
537.91	409.59
538.08	379.17
538.25	390.87
538.42	442.36
538.59	374.49
538.75	369.80
538.92	404.91
539.09	397.89
539.26	355.76
539.43	430.66
539.60	465.77
539.77	416.62
539.94	423.64
540.11	393.21
540.28	510.24
540.44	428.32
540.61	390.87
540.78	411.93
540.95	416.62
541.12	486.83
541.29	421.30
541.46	491.51
541.62	496.19
541.79	437.68
541.96	423.64
542.13	358.10
542.30	402.57
542.47	437.68
542.63	358.10
542.80	510.24
542.97	388.53
543.14	369.80
543.31	451.72
543.48	421.30
543.64	435.34
543.81	400.23
543.98	386.19
544.15	397.89
544.32	433.00
544.48	381.51
544.65	395.55
544.82	433.00
544.99	383.85
545.16	386.19
545.32	447.04
545.49	416.62
545.66	388.53
545.83	374.49
546.00	414.27
546.16	383.85
546.33	440.02
546.50	418.96
546.67	482.15
546.83	425.98
547.00	423.64
547.17	402.57
547.34	479.81
547.50	428.32
547.67	454.06
547.84	512.58
548.00	463.43
548.17	479.81
548.34	421.30
548.51	472.79
548.67	430.66
548.84	421.30
549.01	437.68
549.18	400.23
549.34	440.02
549.51	454.06
549.68	409.59
549.84	397.89
550.01	379.17
550.18	444.70
550.34	470.45
550.51	374.49
550.68	425.98
550.84	475.13
551.01	414.27
551.18	379.17
551.34	458.74
551.51	376.83
551.68	470.45
551.84	404.91
552.01	397.89
552.18	355.76
552.34	465.77
552.51	395.55
552.68	449.38
552.84	461.09
553.01	409.59
553.18	437.68
553.34	388.53
553.51	346.40
553.67	414.27
553.84	491.51
554.01	458.74
554.17	409.59
554.34	381.51
554.51	477.47
554.67	447.04
554.84	433.00
555.00	444.70
555.17	344.06
555.33	425.98
555.50	463.43
555.67	353.42
555.83	388.53
556.00	472.79
556.16	540.66
556.33	421.30
556.50	430.66
556.66	470.45
556.83	463.43
556.99	425.98
557.16	468.11
557.32	379.17
557.49	372.15
557.65	409.59
557.82	479.81
557.98	414.27
558.15	353.42
558.32	454.06
558.48	360.44
558.65	454.06
558.81	461.09
558.98	379.17
559.14	425.98
559.31	383.85
559.47	411.93
559.64	395.55
559.80	407.25
559.97	425.98
560.13	430.66
560.30	437.68
560.46	447.04
560.63	421.30
560.79	383.85
560.96	325.33
561.12	425.98
561.29	451.72
561.45	461.09
561.61	435.34
561.78	451.72
561.94	409.59
562.11	449.38
562.27	435.34
562.44	416.62
562.60	425.98
562.77	407.25
562.93	458.74
563.10	411.93
563.26	444.70
563.42	458.74
563.59	365.12
563.75	383.85
563.92	435.34
564.08	449.38
564.24	437.68
564.41	507.90
564.57	355.76
564.74	456.40
564.90	454.06
565.07	376.83
565.23	433.00
565.39	447.04
565.56	416.62
565.72	390.87
565.88	418.96
566.05	404.91
566.21	383.85
566.38	470.45
566.54	472.79
566.70	409.59
566.87	397.89
567.03	372.15
567.19	379.17
567.36	411.93
567.52	402.57
567.68	449.38
567.85	372.15
568.01	463.43
568.17	365.12
568.34	409.59
568.50	421.30
568.66	440.02
568.83	500.87
568.99	388.53
569.15	423.64
569.32	433.00
569.48	381.51
569.64	425.98
569.81	379.17
569.97	433.00
570.13	454.06
570.30	397.89
570.46	449.38
570.62	456.40
570.78	402.57
570.95	442.36
571.11	519.60
571.27	423.64
571.43	273.84
571.60	393.21
571.76	421.30
571.92	449.38
572.09	383.85
572.25	442.36
572.41	383.85
572.57	404.91
572.74	463.43
572.90	435.34
573.06	407.25
573.22	440.02
573.38	423.64
573.55	498.53
573.71	430.66
573.87	458.74
574.03	414.27
574.20	369.80
574.36	482.15
574.52	339.38
574.68	447.04
574.84	402.57
575.01	404.91
575.17	404.91
575.33	411.93
575.49	435.34
575.65	404.91
575.82	447.04
575.98	383.85
576.14	454.06
576.30	463.43
576.46	397.89
576.62	416.62
576.79	397.89
576.95	430.66
577.11	397.89
577.27	454.06
577.43	465.77
577.59	393.21
577.75	339.38
577.92	451.72
578.08	416.62
578.24	423.64
578.40	430.66
578.56	463.43
578.72	440.02
578.88	404.91
579.04	507.90
579.21	463.43
579.37	423.64
579.53	341.72
579.69	440.02
579.85	414.27
580.01	395.55
580.17	425.98
580.33	355.76
580.49	355.76
580.65	344.06
580.82	440.02
580.98	421.30
581.14	421.30
581.30	423.64
581.46	479.81
581.62	411.93
581.78	344.06
581.94	444.70
582.10	400.23
582.26	428.32
582.42	482.15
582.58	500.87
582.74	451.72
582.90	472.79
583.06	376.83
583.22	346.40
583.38	425.98
583.54	358.10
583.70	376.83
583.86	395.55
584.02	421.30
584.18	440.02
584.34	500.87
584.50	341.72
584.66	461.09
584.82	440.02
584.98	423.64
585.14	344.06
585.30	437.68
585.46	353.42
585.62	433.00
585.78	486.83
585.94	465.77
586.10	444.70
586.26	456.40
586.42	440.02
586.58	433.00
586.74	430.66
586.90	407.25
587.06	421.30
587.22	411.93
587.38	435.34
587.54	484.49
587.70	433.00
587.86	430.66
588.02	341.72
588.18	442.36
588.34	374.49
588.49	402.57
588.65	440.02
588.81	458.74
588.97	411.93
589.13	395.55
589.29	468.11
589.45	367.46
589.61	416.62
589.77	402.57
589.93	430.66
590.08	400.23
590.24	409.59
590.40	472.79
590.56	517.26
590.72	454.06
590.88	400.23
591.04	447.04
591.20	451.72
591.35	500.87
591.51	440.02
591.67	374.49
591.83	402.57
591.99	468.11
592.15	416.62
592.31	435.34
592.46	416.62
592.62	418.96
592.78	390.87
592.94	362.78
593.10	330.02
593.26	400.23
593.41	437.68
593.57	479.81
593.73	425.98
593.89	447.04
594.05	458.74
594.20	444.70
594.36	440.02
594.52	409.59
594.68	383.85
594.84	416.62
594.99	461.09
595.15	414.27
595.31	428.32
595.47	456.40
595.62	458.74
595.78	390.87
595.94	379.17
596.10	414.27
596.25	390.87
596.41	435.34
596.57	407.25
596.73	442.36
596.88	425.98
597.04	444.70
597.20	407.25
597.36	465.77
597.51	381.51
597.67	442.36
597.83	407.25
597.99	489.17
598.14	404.91
598.30	451.72
598.46	376.83
598.61	449.38
598.77	447.04
598.93	423.64
599.09	414.27
599.24	468.11
599.40	416.62
599.56	472.79
599.71	451.72
599.87	489.17
600.03	475.13
600.18	447.04
600.34	496.19
600.50	353.42
600.65	421.30
600.81	451.72
600.97	365.12
601.12	362.78
601.28	395.55
601.44	395.55
601.59	388.53
601.75	430.66
601.91	428.32
602.06	428.32
602.22	514.92
602.37	505.56
602.53	344.06
602.69	416.62
602.84	416.62
603.00	372.15
603.16	440.02
603.31	379.17
603.47	418.96
603.62	442.36
603.78	421.30
603.94	421.30
604.09	374.49
604.25	386.19
604.40	451.72
604.56	397.89
604.71	414.27
604.87	414.27
605.03	475.13
605.18	442.36
605.34	468.11
605.49	421.30
605.65	430.66
605.80	390.87
605.96	425.98
606.12	428.32
606.27	470.45
606.43	479.81
606.58	444.70
606.74	430.66
606.89	437.68
607.05	428.32
607.20	418.96
607.36	423.64
607.51	430.66
607.67	461.09
607.82	451.72
607.98	465.77
608.13	418.96
608.29	383.85
608.44	491.51
608.60	465.77
608.75	376.83
608.91	435.34
609.06	482.15
609.22	454.06
609.37	433.00
609.53	421.30
609.68	400.23
609.84	409.59
609.99	458.74
610.15	416.62
