SpectraSuite Data File
++++++++++++++++++++++++++++++++++++
Date: Fri Oct 25 12:11:19 EDT 2013
User: price-jones
Dark Spectrum Present: No
Reference Spectrum Present: No
Number of Sampled Component Spectra: 1
Spectrometers: USB2+H05261
Integration Time (usec): 100000 (USB2+H05261)
Spectra Averaged: 1 (USB2+H05261)
Boxcar Smoothing: 0 (USB2+H05261)
Correct for Electrical Dark: No (USB2+H05261)
Strobe/Lamp Enabled: No (USB2+H05261)
Correct for Detector Non-linearity: No (USB2+H05261)
Correct for Stray Light: No (USB2+H05261)
Number of Pixels in Processed Spectrum: 2048
>>>>>Begin Processed Spectral Data<<<<<
365.73	386.19
365.92	386.19
366.12	386.19
366.32	266.82
366.52	292.57
366.72	231.71
366.91	276.18
367.11	287.89
367.31	205.97
367.51	236.39
367.70	182.56
367.90	222.35
368.10	224.69
368.30	301.93
368.49	234.05
368.69	280.86
368.89	280.86
369.09	297.25
369.28	276.18
369.48	308.95
369.68	217.67
369.87	271.50
370.07	344.06
370.27	292.57
370.47	332.36
370.66	313.63
370.86	365.12
371.06	383.85
371.25	320.65
371.45	297.25
371.65	379.17
371.84	421.30
372.04	430.66
372.24	337.04
372.44	444.70
372.63	461.09
372.83	358.10
373.03	397.89
373.22	400.23
373.42	433.00
373.62	425.98
373.81	386.19
374.01	449.38
374.21	418.96
374.40	400.23
374.60	428.32
374.79	423.64
374.99	411.93
375.19	493.85
375.38	390.87
375.58	360.44
375.78	407.25
375.97	486.83
376.17	456.40
376.37	418.96
376.56	486.83
376.76	449.38
376.95	386.19
377.15	454.06
377.35	348.74
377.54	388.53
377.74	414.27
377.93	346.40
378.13	416.62
378.33	393.21
378.52	433.00
378.72	381.51
378.91	339.38
379.11	437.68
379.31	409.59
379.50	418.96
379.70	451.72
379.89	430.66
380.09	407.25
380.28	372.15
380.48	390.87
380.68	463.43
380.87	409.59
381.07	372.15
381.26	456.40
381.46	390.87
381.65	465.77
381.85	388.53
382.04	351.08
382.24	411.93
382.43	440.02
382.63	397.89
382.83	416.62
383.02	425.98
383.22	372.15
383.41	404.91
383.61	411.93
383.80	428.32
384.00	402.57
384.19	423.64
384.39	409.59
384.58	437.68
384.78	411.93
384.97	372.15
385.17	421.30
385.36	456.40
385.56	440.02
385.75	440.02
385.95	400.23
386.14	416.62
386.34	390.87
386.53	433.00
386.72	365.12
386.92	500.87
387.11	374.49
387.31	447.04
387.50	358.10
387.70	374.49
387.89	423.64
388.09	339.38
388.28	454.06
388.48	418.96
388.67	498.53
388.86	458.74
389.06	416.62
389.25	388.53
389.45	500.87
389.64	367.46
389.84	472.79
390.03	425.98
390.22	360.44
390.42	400.23
390.61	390.87
390.81	418.96
391.00	416.62
391.19	416.62
391.39	337.04
391.58	404.91
391.78	367.46
391.97	397.89
392.16	388.53
392.36	458.74
392.55	472.79
392.75	479.81
392.94	390.87
393.13	479.81
393.33	409.59
393.52	383.85
393.71	383.85
393.91	425.98
394.10	367.46
394.29	425.98
394.49	397.89
394.68	472.79
394.88	379.17
395.07	416.62
395.26	374.49
395.46	435.34
395.65	346.40
395.84	374.49
396.04	503.22
396.23	386.19
396.42	353.42
396.62	456.40
396.81	531.30
397.00	430.66
397.19	369.80
397.39	402.57
397.58	425.98
397.77	386.19
397.97	372.15
398.16	430.66
398.35	425.98
398.55	383.85
398.74	430.66
398.93	407.25
399.12	400.23
399.32	447.04
399.51	465.77
399.70	421.30
399.90	458.74
400.09	433.00
400.28	397.89
400.47	325.33
400.67	433.00
400.86	433.00
401.05	353.42
401.24	400.23
401.44	437.68
401.63	388.53
401.82	486.83
402.01	348.74
402.21	428.32
402.40	386.19
402.59	318.31
402.78	372.15
402.97	447.04
403.17	475.13
403.36	418.96
403.55	404.91
403.74	367.46
403.93	388.53
404.13	337.04
404.32	388.53
404.51	381.51
404.70	440.02
404.89	418.96
405.09	533.64
405.28	369.80
405.47	381.51
405.66	440.02
405.85	463.43
406.05	409.59
406.24	388.53
406.43	346.40
406.62	479.81
406.81	425.98
407.00	477.47
407.20	393.21
407.39	353.42
407.58	388.53
407.77	421.30
407.96	376.83
408.15	355.76
408.34	381.51
408.54	400.23
408.73	395.55
408.92	430.66
409.11	383.85
409.30	397.89
409.49	402.57
409.68	411.93
409.87	393.21
410.07	430.66
410.26	407.25
410.45	437.68
410.64	360.44
410.83	463.43
411.02	388.53
411.21	402.57
411.40	325.33
411.59	404.91
411.78	358.10
411.98	372.15
412.17	369.80
412.36	365.12
412.55	421.30
412.74	423.64
412.93	461.09
413.12	397.89
413.31	381.51
413.50	397.89
413.69	409.59
413.88	456.40
414.07	425.98
414.26	468.11
414.45	369.80
414.64	433.00
414.83	379.17
415.02	365.12
415.22	383.85
415.41	428.32
415.60	400.23
415.79	475.13
415.98	421.30
416.17	500.87
416.36	447.04
416.55	341.72
416.74	402.57
416.93	428.32
417.12	393.21
417.31	381.51
417.50	402.57
417.69	386.19
417.88	484.49
418.07	374.49
418.26	430.66
418.45	393.21
418.64	447.04
418.83	379.17
419.02	444.70
419.21	512.58
419.39	428.32
419.58	372.15
419.77	397.89
419.96	458.74
420.15	440.02
420.34	414.27
420.53	402.57
420.72	433.00
420.91	376.83
421.10	461.09
421.29	372.15
421.48	444.70
421.67	402.57
421.86	369.80
422.05	442.36
422.24	393.21
422.43	461.09
422.61	355.76
422.80	381.51
422.99	456.40
423.18	411.93
423.37	435.34
423.56	421.30
423.75	369.80
423.94	365.12
424.13	404.91
424.32	337.04
424.50	372.15
424.69	430.66
424.88	470.45
425.07	477.47
425.26	400.23
425.45	435.34
425.64	444.70
425.83	440.02
426.01	477.47
426.20	379.17
426.39	463.43
426.58	351.08
426.77	465.77
426.96	306.61
427.15	402.57
427.33	376.83
427.52	437.68
427.71	416.62
427.90	416.62
428.09	484.49
428.28	409.59
428.46	400.23
428.65	423.64
428.84	400.23
429.03	416.62
429.22	383.85
429.40	423.64
429.59	423.64
429.78	435.34
429.97	369.80
430.16	416.62
430.34	395.55
430.53	395.55
430.72	421.30
430.91	486.83
431.10	411.93
431.28	407.25
431.47	435.34
431.66	376.83
431.85	362.78
432.03	440.02
432.22	404.91
432.41	458.74
432.60	465.77
432.79	409.59
432.97	414.27
433.16	404.91
433.35	362.78
433.54	416.62
433.72	440.02
433.91	353.42
434.10	463.43
434.28	388.53
434.47	381.51
434.66	381.51
434.85	463.43
435.03	383.85
435.22	430.66
435.41	440.02
435.59	416.62
435.78	416.62
435.97	393.21
436.16	486.83
436.34	353.42
436.53	390.87
436.72	423.64
436.90	414.27
437.09	376.83
437.28	395.55
437.46	414.27
437.65	456.40
437.84	421.30
438.02	414.27
438.21	367.46
438.40	521.94
438.58	332.36
438.77	407.25
438.96	376.83
439.14	386.19
439.33	437.68
439.52	348.74
439.70	395.55
439.89	376.83
440.08	374.49
440.26	437.68
440.45	428.32
440.63	440.02
440.82	454.06
441.01	416.62
441.19	376.83
441.38	397.89
441.57	362.78
441.75	505.56
441.94	418.96
442.12	365.12
442.31	395.55
442.50	404.91
442.68	353.42
442.87	444.70
443.05	351.08
443.24	409.59
443.43	493.85
443.61	468.11
443.80	374.49
443.98	397.89
444.17	383.85
444.35	409.59
444.54	379.17
444.73	374.49
444.91	442.36
445.10	383.85
445.28	388.53
445.47	360.44
445.65	388.53
445.84	421.30
446.02	416.62
446.21	437.68
446.39	379.17
446.58	395.55
446.77	418.96
446.95	414.27
447.14	379.17
447.32	514.92
447.51	440.02
447.69	395.55
447.88	447.04
448.06	458.74
448.25	407.25
448.43	428.32
448.62	409.59
448.80	379.17
448.99	362.78
449.17	409.59
449.36	416.62
449.54	418.96
449.73	367.46
449.91	449.38
450.10	416.62
450.28	428.32
450.46	470.45
450.65	428.32
450.83	390.87
451.02	512.58
451.20	402.57
451.39	493.85
451.57	409.59
451.76	435.34
451.94	376.83
452.13	402.57
452.31	435.34
452.49	404.91
452.68	409.59
452.86	383.85
453.05	407.25
453.23	428.32
453.42	425.98
453.60	404.91
453.78	437.68
453.97	456.40
454.15	369.80
454.34	390.87
454.52	433.00
454.70	393.21
454.89	493.85
455.07	451.72
455.26	463.43
455.44	379.17
455.62	435.34
455.81	367.46
455.99	416.62
456.17	393.21
456.36	421.30
456.54	479.81
456.73	465.77
456.91	440.02
457.09	423.64
457.28	491.51
457.46	407.25
457.64	463.43
457.83	440.02
458.01	353.42
458.19	479.81
458.38	348.74
458.56	360.44
458.74	337.04
458.93	330.02
459.11	468.11
459.29	372.15
459.48	358.10
459.66	482.15
459.84	388.53
460.03	463.43
460.21	465.77
460.39	440.02
460.57	337.04
460.76	425.98
460.94	456.40
461.12	496.19
461.31	456.40
461.49	358.10
461.67	447.04
461.85	395.55
462.04	411.93
462.22	826.21
462.40	456.40
462.59	376.83
462.77	444.70
462.95	393.21
463.13	381.51
463.32	482.15
463.50	381.51
463.68	411.93
463.86	409.59
464.05	409.59
464.23	458.74
464.41	435.34
464.59	393.21
464.78	362.78
464.96	358.10
465.14	500.87
465.32	416.62
465.50	341.72
465.69	376.83
465.87	414.27
466.05	442.36
466.23	472.79
466.41	465.77
466.60	393.21
466.78	430.66
466.96	428.32
467.14	449.38
467.32	418.96
467.51	348.74
467.69	379.17
467.87	402.57
468.05	404.91
468.23	449.38
468.41	456.40
468.60	421.30
468.78	425.98
468.96	433.00
469.14	433.00
469.32	407.25
469.50	442.36
469.69	430.66
469.87	414.27
470.05	341.72
470.23	388.53
470.41	421.30
470.59	475.13
470.77	414.27
470.95	442.36
471.14	451.72
471.32	428.32
471.50	409.59
471.68	402.57
471.86	507.90
472.04	447.04
472.22	358.10
472.40	402.57
472.58	379.17
472.77	390.87
472.95	404.91
473.13	444.70
473.31	411.93
473.49	404.91
473.67	332.36
473.85	498.53
474.03	395.55
474.21	430.66
474.39	381.51
474.57	428.32
474.75	468.11
474.93	374.49
475.12	404.91
475.30	337.04
475.48	367.46
475.66	351.08
475.84	433.00
476.02	383.85
476.20	433.00
476.38	395.55
476.56	470.45
476.74	430.66
476.92	423.64
477.10	416.62
477.28	456.40
477.46	404.91
477.64	393.21
477.82	327.68
478.00	468.11
478.18	369.80
478.36	383.85
478.54	449.38
478.72	414.27
478.90	484.49
479.08	397.89
479.26	341.72
479.44	437.68
479.62	454.06
479.80	358.10
479.98	414.27
480.16	444.70
480.34	437.68
480.52	407.25
480.70	365.12
480.88	376.83
481.06	430.66
481.24	397.89
481.41	348.74
481.59	472.79
481.77	325.33
481.95	416.62
482.13	421.30
482.31	376.83
482.49	393.21
482.67	381.51
482.85	486.83
483.03	447.04
483.21	397.89
483.39	414.27
483.57	442.36
483.74	444.70
483.92	402.57
484.10	379.17
484.28	393.21
484.46	468.11
484.64	454.06
484.82	409.59
485.00	390.87
485.18	365.12
485.35	404.91
485.53	470.45
485.71	493.85
485.89	290.23
486.07	430.66
486.25	379.17
486.43	404.91
486.61	386.19
486.78	470.45
486.96	440.02
487.14	402.57
487.32	334.70
487.50	397.89
487.68	440.02
487.85	372.15
488.03	367.46
488.21	379.17
488.39	430.66
488.57	435.34
488.75	400.23
488.92	454.06
489.10	402.57
489.28	425.98
489.46	418.96
489.64	472.79
489.81	379.17
489.99	379.17
490.17	400.23
490.35	454.06
490.53	468.11
490.70	414.27
490.88	456.40
491.06	440.02
491.24	372.15
491.41	451.72
491.59	430.66
491.77	437.68
491.95	372.15
492.13	437.68
492.30	411.93
492.48	461.09
492.66	428.32
492.84	395.55
493.01	433.00
493.19	320.65
493.37	472.79
493.54	458.74
493.72	519.60
493.90	374.49
494.08	449.38
494.25	454.06
494.43	423.64
494.61	395.55
494.79	393.21
494.96	390.87
495.14	372.15
495.32	416.62
495.49	411.93
495.67	437.68
495.85	416.62
496.02	404.91
496.20	456.40
496.38	421.30
496.55	484.49
496.73	404.91
496.91	400.23
497.09	407.25
497.26	381.51
497.44	407.25
497.62	465.77
497.79	437.68
497.97	425.98
498.14	425.98
498.32	519.60
498.50	414.27
498.67	388.53
498.85	404.91
499.03	407.25
499.20	444.70
499.38	416.62
499.56	381.51
499.73	383.85
499.91	409.59
500.08	433.00
500.26	414.27
500.44	456.40
500.61	456.40
500.79	472.79
500.97	444.70
501.14	475.13
501.32	458.74
501.49	428.32
501.67	397.89
501.84	386.19
502.02	451.72
502.20	493.85
502.37	416.62
502.55	425.98
502.72	395.55
502.90	372.15
503.07	451.72
503.25	435.34
503.43	416.62
503.60	414.27
503.78	423.64
503.95	367.46
504.13	409.59
504.30	458.74
504.48	411.93
504.65	379.17
504.83	447.04
505.01	393.21
505.18	425.98
505.36	388.53
505.53	379.17
505.71	433.00
505.88	442.36
506.06	444.70
506.23	404.91
506.41	433.00
506.58	362.78
506.76	440.02
506.93	463.43
507.11	458.74
507.28	376.83
507.46	381.51
507.63	400.23
507.81	414.27
507.98	451.72
508.16	395.55
508.33	430.66
508.50	454.06
508.68	404.91
508.85	472.79
509.03	425.98
509.20	421.30
509.38	451.72
509.55	447.04
509.73	433.00
509.90	447.04
510.08	404.91
510.25	308.95
510.42	468.11
510.60	456.40
510.77	449.38
510.95	390.87
511.12	365.12
511.30	362.78
511.47	416.62
511.64	409.59
511.82	456.40
511.99	376.83
512.17	400.23
512.34	418.96
512.51	409.59
512.69	355.76
512.86	344.06
513.04	475.13
513.21	477.47
513.38	404.91
513.56	418.96
513.73	337.04
513.90	437.68
514.08	454.06
514.25	404.91
514.43	447.04
514.60	402.57
514.77	409.59
514.95	362.78
515.12	423.64
515.29	362.78
515.47	390.87
515.64	414.27
515.81	351.08
515.99	507.90
516.16	433.00
516.33	430.66
516.51	421.30
516.68	435.34
516.85	397.89
517.03	315.97
517.20	369.80
517.37	435.34
517.54	423.64
517.72	442.36
517.89	449.38
518.06	435.34
518.24	470.45
518.41	404.91
518.58	369.80
518.75	442.36
518.93	454.06
519.10	482.15
519.27	404.91
519.45	425.98
519.62	440.02
519.79	372.15
519.96	388.53
520.14	428.32
520.31	416.62
520.48	458.74
520.65	376.83
520.83	395.55
521.00	402.57
521.17	397.89
521.34	390.87
521.52	442.36
521.69	447.04
521.86	447.04
522.03	468.11
522.20	475.13
522.38	498.53
522.55	351.08
522.72	421.30
522.89	407.25
523.07	409.59
523.24	400.23
523.41	383.85
523.58	407.25
523.75	404.91
523.92	346.40
524.10	390.87
524.27	447.04
524.44	294.91
524.61	411.93
524.78	411.93
524.96	346.40
525.13	379.17
525.30	489.17
525.47	444.70
525.64	290.23
525.81	341.72
525.98	409.59
526.16	437.68
526.33	404.91
526.50	407.25
526.67	451.72
526.84	374.49
527.01	383.85
527.18	416.62
527.36	425.98
527.53	369.80
527.70	468.11
527.87	369.80
528.04	447.04
528.21	397.89
528.38	430.66
528.55	379.17
528.72	400.23
528.89	374.49
529.07	423.64
529.24	451.72
529.41	425.98
529.58	372.15
529.75	440.02
529.92	421.30
530.09	376.83
530.26	477.47
530.43	491.51
530.60	404.91
530.77	409.59
530.94	428.32
531.11	416.62
531.28	376.83
531.46	381.51
531.63	433.00
531.80	465.77
531.97	447.04
532.14	437.68
532.31	358.10
532.48	330.02
532.65	397.89
532.82	374.49
532.99	402.57
533.16	400.23
533.33	383.85
533.50	421.30
533.67	444.70
533.84	418.96
534.01	372.15
534.18	400.23
534.35	409.59
534.52	430.66
534.69	428.32
534.86	395.55
535.03	404.91
535.20	447.04
535.37	463.43
535.54	388.53
535.71	388.53
535.88	358.10
536.05	468.11
536.22	386.19
536.38	397.89
536.55	358.10
536.72	388.53
536.89	388.53
537.06	442.36
537.23	435.34
537.40	407.25
537.57	407.25
537.74	475.13
537.91	383.85
538.08	421.30
538.25	461.09
538.42	390.87
538.59	383.85
538.75	416.62
538.92	390.87
539.09	367.46
539.26	346.40
539.43	418.96
539.60	369.80
539.77	421.30
539.94	397.89
540.11	425.98
540.28	465.77
540.44	449.38
540.61	372.15
540.78	353.42
540.95	444.70
541.12	484.49
541.29	416.62
541.46	402.57
541.62	414.27
541.79	395.55
541.96	456.40
542.13	458.74
542.30	393.21
542.47	418.96
542.63	404.91
542.80	484.49
542.97	535.98
543.14	437.68
543.31	428.32
543.48	482.15
543.64	367.46
543.81	454.06
543.98	365.12
544.15	341.72
544.32	416.62
544.48	407.25
544.65	369.80
544.82	456.40
544.99	367.46
545.16	468.11
545.32	444.70
545.49	421.30
545.66	400.23
545.83	435.34
546.00	407.25
546.16	447.04
546.33	440.02
546.50	428.32
546.67	461.09
546.83	414.27
547.00	409.59
547.17	383.85
547.34	428.32
547.50	477.47
547.67	433.00
547.84	379.17
548.00	430.66
548.17	416.62
548.34	421.30
548.51	475.13
548.67	402.57
548.84	428.32
549.01	423.64
549.18	367.46
549.34	407.25
549.51	390.87
549.68	479.81
549.84	388.53
550.01	425.98
550.18	451.72
550.34	442.36
550.51	416.62
550.68	437.68
550.84	395.55
551.01	390.87
551.18	367.46
551.34	337.04
551.51	430.66
551.68	397.89
551.84	496.19
552.01	381.51
552.18	402.57
552.34	430.66
552.51	465.77
552.68	517.26
552.84	351.08
553.01	428.32
553.18	423.64
553.34	430.66
553.51	308.95
553.67	444.70
553.84	444.70
554.01	451.72
554.17	442.36
554.34	395.55
554.51	390.87
554.67	433.00
554.84	437.68
555.00	482.15
555.17	442.36
555.33	411.93
555.50	374.49
555.67	449.38
555.83	421.30
556.00	400.23
556.16	594.50
556.33	482.15
556.50	423.64
556.66	374.49
556.83	383.85
556.99	381.51
557.16	416.62
557.32	369.80
557.49	334.70
557.65	428.32
557.82	397.89
557.98	437.68
558.15	423.64
558.32	428.32
558.48	388.53
558.65	440.02
558.81	496.19
558.98	468.11
559.14	449.38
559.31	402.57
559.47	428.32
559.64	451.72
559.80	461.09
559.97	402.57
560.13	367.46
560.30	334.70
560.46	367.46
560.63	402.57
560.79	440.02
560.96	423.64
561.12	433.00
561.29	404.91
561.45	423.64
561.61	393.21
561.78	449.38
561.94	407.25
562.11	442.36
562.27	407.25
562.44	440.02
562.60	348.74
562.77	437.68
562.93	456.40
563.10	428.32
563.26	402.57
563.42	472.79
563.59	442.36
563.75	353.42
563.92	477.47
564.08	437.68
564.24	421.30
564.41	514.92
564.57	500.87
564.74	416.62
564.90	444.70
565.07	433.00
565.23	393.21
565.39	409.59
565.56	341.72
565.72	418.96
565.88	379.17
566.05	435.34
566.21	402.57
566.38	423.64
566.54	390.87
566.70	386.19
566.87	376.83
567.03	386.19
567.19	346.40
567.36	512.58
567.52	379.17
567.68	440.02
567.85	512.58
568.01	428.32
568.17	355.76
568.34	388.53
568.50	440.02
568.66	351.08
568.83	461.09
568.99	362.78
569.15	447.04
569.32	435.34
569.48	411.93
569.64	440.02
569.81	351.08
569.97	444.70
570.13	468.11
570.30	416.62
570.46	409.59
570.62	428.32
570.78	376.83
570.95	383.85
571.11	416.62
571.27	428.32
571.43	400.23
571.60	463.43
571.76	421.30
571.92	383.85
572.09	374.49
572.25	409.59
572.41	425.98
572.57	362.78
572.74	425.98
572.90	416.62
573.06	425.98
573.22	477.47
573.38	451.72
573.55	390.87
573.71	428.32
573.87	390.87
574.03	442.36
574.20	437.68
574.36	463.43
574.52	435.34
574.68	381.51
574.84	372.15
575.01	369.80
575.17	458.74
575.33	437.68
575.49	423.64
575.65	477.47
575.82	404.91
575.98	428.32
576.14	421.30
576.30	425.98
576.46	327.68
576.62	428.32
576.79	433.00
576.95	472.79
577.11	383.85
577.27	365.12
577.43	458.74
577.59	564.07
577.75	486.83
577.92	397.89
578.08	430.66
578.24	418.96
578.40	421.30
578.56	416.62
578.72	425.98
578.88	489.17
579.04	393.21
579.21	451.72
579.37	477.47
579.53	447.04
579.69	418.96
579.85	388.53
580.01	379.17
580.17	414.27
580.33	348.74
580.49	458.74
580.65	348.74
580.82	400.23
580.98	463.43
581.14	421.30
581.30	440.02
581.46	407.25
581.62	390.87
581.78	402.57
581.94	454.06
582.10	374.49
582.26	395.55
582.42	400.23
582.58	374.49
582.74	360.44
582.90	458.74
583.06	475.13
583.22	416.62
583.38	430.66
583.54	369.80
583.70	416.62
583.86	400.23
584.02	430.66
584.18	468.11
584.34	468.11
584.50	404.91
584.66	475.13
584.82	348.74
584.98	470.45
585.14	423.64
585.30	500.87
585.46	381.51
585.62	374.49
585.78	421.30
585.94	379.17
586.10	411.93
586.26	383.85
586.42	500.87
586.58	442.36
586.74	430.66
586.90	430.66
587.06	411.93
587.22	447.04
587.38	395.55
587.54	414.27
587.70	496.19
587.86	468.11
588.02	390.87
588.18	425.98
588.34	442.36
588.49	425.98
588.65	449.38
588.81	407.25
588.97	440.02
589.13	374.49
589.29	376.83
589.45	372.15
589.61	372.15
589.77	376.83
589.93	447.04
590.08	379.17
590.24	414.27
590.40	400.23
590.56	369.80
590.72	393.21
590.88	395.55
591.04	407.25
591.20	341.72
591.35	400.23
591.51	447.04
591.67	423.64
591.83	411.93
591.99	456.40
592.15	383.85
592.31	489.17
592.46	425.98
592.62	435.34
592.78	381.51
592.94	360.44
593.10	421.30
593.26	388.53
593.41	402.57
593.57	411.93
593.73	334.70
593.89	421.30
594.05	416.62
594.20	421.30
594.36	444.70
594.52	468.11
594.68	433.00
594.84	381.51
594.99	425.98
595.15	358.10
595.31	418.96
595.47	493.85
595.62	468.11
595.78	369.80
595.94	440.02
596.10	397.89
596.25	365.12
596.41	435.34
596.57	402.57
596.73	416.62
596.88	383.85
597.04	400.23
597.20	379.17
597.36	517.26
597.51	444.70
597.67	421.30
597.83	425.98
597.99	461.09
598.14	360.44
598.30	383.85
598.46	381.51
598.61	362.78
598.77	472.79
598.93	451.72
599.09	442.36
599.24	411.93
599.40	388.53
599.56	444.70
599.71	440.02
599.87	437.68
600.03	379.17
600.18	423.64
600.34	365.12
600.50	395.55
600.65	369.80
600.81	414.27
600.97	456.40
601.12	442.36
601.28	369.80
601.44	451.72
601.59	428.32
601.75	440.02
601.91	358.10
602.06	372.15
602.22	421.30
602.37	374.49
602.53	468.11
602.69	372.15
602.84	402.57
603.00	433.00
603.16	433.00
603.31	461.09
603.47	425.98
603.62	400.23
603.78	442.36
603.94	360.44
604.09	416.62
604.25	421.30
604.40	409.59
604.56	395.55
604.71	440.02
604.87	411.93
605.03	379.17
605.18	362.78
605.34	447.04
605.49	475.13
605.65	500.87
605.80	435.34
605.96	425.98
606.12	404.91
606.27	482.15
606.43	400.23
606.58	451.72
606.74	437.68
606.89	458.74
607.05	409.59
607.20	388.53
607.36	402.57
607.51	388.53
607.67	381.51
607.82	477.47
607.98	465.77
608.13	463.43
608.29	433.00
608.44	425.98
608.60	440.02
608.75	451.72
608.91	414.27
609.06	428.32
609.22	468.11
609.37	423.64
609.53	418.96
609.68	414.27
609.84	409.59
609.99	344.06
610.15	397.89
