SpectraSuite Data File
++++++++++++++++++++++++++++++++++++
Date: Fri Oct 25 12:11:37 EDT 2013
User: price-jones
Dark Spectrum Present: No
Reference Spectrum Present: No
Number of Sampled Component Spectra: 1
Spectrometers: USB2+H05261
Integration Time (usec): 100000 (USB2+H05261)
Spectra Averaged: 1 (USB2+H05261)
Boxcar Smoothing: 0 (USB2+H05261)
Correct for Electrical Dark: No (USB2+H05261)
Strobe/Lamp Enabled: No (USB2+H05261)
Correct for Detector Non-linearity: No (USB2+H05261)
Correct for Stray Light: No (USB2+H05261)
Number of Pixels in Processed Spectrum: 2048
>>>>>Begin Processed Spectral Data<<<<<
365.73	355.76
365.92	355.76
366.12	355.76
366.32	290.23
366.52	297.25
366.72	299.59
366.91	187.24
367.11	156.82
367.31	212.99
367.51	271.50
367.70	212.99
367.90	248.10
368.10	212.99
368.30	341.72
368.49	262.14
368.69	276.18
368.89	278.52
369.09	262.14
369.28	264.48
369.48	238.73
369.68	306.61
369.87	315.97
370.07	304.27
370.27	327.68
370.47	330.02
370.66	344.06
370.86	374.49
371.06	381.51
371.25	379.17
371.45	351.08
371.65	402.57
371.84	337.04
372.04	423.64
372.24	397.89
372.44	369.80
372.63	409.59
372.83	428.32
373.03	397.89
373.22	404.91
373.42	437.68
373.62	388.53
373.81	425.98
374.01	374.49
374.21	376.83
374.40	418.96
374.60	421.30
374.79	395.55
374.99	400.23
375.19	360.44
375.38	376.83
375.58	484.49
375.78	496.19
375.97	472.79
376.17	475.13
376.37	383.85
376.56	386.19
376.76	447.04
376.95	407.25
377.15	430.66
377.35	479.81
377.54	346.40
377.74	407.25
377.93	372.15
378.13	395.55
378.33	393.21
378.52	351.08
378.72	456.40
378.91	409.59
379.11	355.76
379.31	379.17
379.50	367.46
379.70	447.04
379.89	409.59
380.09	440.02
380.28	315.97
380.48	330.02
380.68	402.57
380.87	447.04
381.07	372.15
381.26	418.96
381.46	440.02
381.65	355.76
381.85	393.21
382.04	435.34
382.24	402.57
382.43	381.51
382.63	355.76
382.83	362.78
383.02	393.21
383.22	454.06
383.41	407.25
383.61	433.00
383.80	440.02
384.00	367.46
384.19	376.83
384.39	367.46
384.58	390.87
384.78	400.23
384.97	414.27
385.17	423.64
385.36	369.80
385.56	416.62
385.75	437.68
385.95	456.40
386.14	407.25
386.34	430.66
386.53	435.34
386.72	346.40
386.92	381.51
387.11	374.49
387.31	348.74
387.50	430.66
387.70	397.89
387.89	407.25
388.09	388.53
388.28	447.04
388.48	379.17
388.67	444.70
388.86	386.19
389.06	327.68
389.25	404.91
389.45	421.30
389.64	407.25
389.84	351.08
390.03	423.64
390.22	468.11
390.42	425.98
390.61	376.83
390.81	386.19
391.00	353.42
391.19	393.21
391.39	505.56
391.58	428.32
391.78	407.25
391.97	423.64
392.16	421.30
392.36	390.87
392.55	397.89
392.75	409.59
392.94	416.62
393.13	470.45
393.33	353.42
393.52	374.49
393.71	362.78
393.91	376.83
394.10	437.68
394.29	318.31
394.49	449.38
394.68	414.27
394.88	402.57
395.07	402.57
395.26	388.53
395.46	416.62
395.65	479.81
395.84	428.32
396.04	491.51
396.23	423.64
396.42	348.74
396.62	402.57
396.81	397.89
397.00	404.91
397.19	351.08
397.39	372.15
397.58	463.43
397.77	379.17
397.97	355.76
398.16	390.87
398.35	447.04
398.55	395.55
398.74	472.79
398.93	418.96
399.12	383.85
399.32	332.36
399.51	376.83
399.70	433.00
399.90	365.12
400.09	435.34
400.28	402.57
400.47	458.74
400.67	440.02
400.86	451.72
401.05	468.11
401.24	414.27
401.44	433.00
401.63	482.15
401.82	545.34
402.01	393.21
402.21	435.34
402.40	458.74
402.59	383.85
402.78	369.80
402.97	454.06
403.17	416.62
403.36	418.96
403.55	414.27
403.74	447.04
403.93	418.96
404.13	409.59
404.32	442.36
404.51	407.25
404.70	400.23
404.89	433.00
405.09	493.85
405.28	400.23
405.47	346.40
405.66	393.21
405.85	430.66
406.05	493.85
406.24	381.51
406.43	435.34
406.62	416.62
406.81	425.98
407.00	374.49
407.20	386.19
407.39	374.49
407.58	341.72
407.77	381.51
407.96	437.68
408.15	390.87
408.34	400.23
408.54	400.23
408.73	428.32
408.92	400.23
409.11	409.59
409.30	449.38
409.49	409.59
409.68	362.78
409.87	379.17
410.07	470.45
410.26	425.98
410.45	489.17
410.64	447.04
410.83	369.80
411.02	372.15
411.21	395.55
411.40	458.74
411.59	374.49
411.78	409.59
411.98	416.62
412.17	367.46
412.36	423.64
412.55	367.46
412.74	468.11
412.93	418.96
413.12	409.59
413.31	456.40
413.50	306.61
413.69	381.51
413.88	475.13
414.07	407.25
414.26	409.59
414.45	454.06
414.64	440.02
414.83	475.13
415.02	444.70
415.22	416.62
415.41	400.23
415.60	388.53
415.79	369.80
415.98	440.02
416.17	339.38
416.36	381.51
416.55	386.19
416.74	386.19
416.93	449.38
417.12	358.10
417.31	425.98
417.50	395.55
417.69	482.15
417.88	386.19
418.07	451.72
418.26	435.34
418.45	440.02
418.64	414.27
418.83	423.64
419.02	414.27
419.21	433.00
419.39	435.34
419.58	341.72
419.77	425.98
419.96	395.55
420.15	418.96
420.34	390.87
420.53	381.51
420.72	376.83
420.91	376.83
421.10	402.57
421.29	411.93
421.48	433.00
421.67	397.89
421.86	428.32
422.05	433.00
422.24	442.36
422.43	369.80
422.61	454.06
422.80	402.57
422.99	430.66
423.18	390.87
423.37	435.34
423.56	435.34
423.75	440.02
423.94	437.68
424.13	397.89
424.32	400.23
424.50	425.98
424.69	418.96
424.88	411.93
425.07	437.68
425.26	437.68
425.45	353.42
425.64	470.45
425.83	418.96
426.01	510.24
426.20	470.45
426.39	395.55
426.58	421.30
426.77	416.62
426.96	383.85
427.15	454.06
427.33	423.64
427.52	470.45
427.71	451.72
427.90	388.53
428.09	372.15
428.28	416.62
428.46	447.04
428.65	388.53
428.84	418.96
429.03	433.00
429.22	351.08
429.40	440.02
429.59	425.98
429.78	362.78
429.97	400.23
430.16	468.11
430.34	341.72
430.53	416.62
430.72	404.91
430.91	456.40
431.10	374.49
431.28	416.62
431.47	418.96
431.66	435.34
431.85	400.23
432.03	458.74
432.22	414.27
432.41	477.47
432.60	404.91
432.79	351.08
432.97	430.66
433.16	430.66
433.35	381.51
433.54	416.62
433.72	468.11
433.91	423.64
434.10	379.17
434.28	348.74
434.47	379.17
434.66	482.15
434.85	430.66
435.03	407.25
435.22	409.59
435.41	440.02
435.59	423.64
435.78	362.78
435.97	479.81
436.16	465.77
436.34	400.23
436.53	428.32
436.72	461.09
436.90	409.59
437.09	374.49
437.28	414.27
437.46	397.89
437.65	360.44
437.84	411.93
438.02	458.74
438.21	360.44
438.40	491.51
438.58	423.64
438.77	411.93
438.96	367.46
439.14	369.80
439.33	423.64
439.52	409.59
439.70	470.45
439.89	402.57
440.08	442.36
440.26	437.68
440.45	468.11
440.63	313.63
440.82	341.72
441.01	332.36
441.19	325.33
441.38	433.00
441.57	379.17
441.75	447.04
441.94	355.76
442.12	437.68
442.31	440.02
442.50	468.11
442.68	421.30
442.87	404.91
443.05	444.70
443.24	451.72
443.43	388.53
443.61	411.93
443.80	395.55
443.98	348.74
444.17	379.17
444.35	386.19
444.54	369.80
444.73	407.25
444.91	407.25
445.10	348.74
445.28	430.66
445.47	393.21
445.65	442.36
445.84	397.89
446.02	388.53
446.21	505.56
446.39	440.02
446.58	421.30
446.77	351.08
446.95	440.02
447.14	444.70
447.32	442.36
447.51	440.02
447.69	456.40
447.88	425.98
448.06	402.57
448.25	425.98
448.43	341.72
448.62	468.11
448.80	383.85
448.99	449.38
449.17	330.02
449.36	404.91
449.54	461.09
449.73	409.59
449.91	369.80
450.10	428.32
450.28	440.02
450.46	454.06
450.65	416.62
450.83	507.90
451.02	454.06
451.20	468.11
451.39	376.83
451.57	395.55
451.76	400.23
451.94	411.93
452.13	402.57
452.31	461.09
452.49	428.32
452.68	418.96
452.86	416.62
453.05	449.38
453.23	404.91
453.42	421.30
453.60	374.49
453.78	402.57
453.97	355.76
454.15	367.46
454.34	395.55
454.52	444.70
454.70	465.77
454.89	390.87
455.07	322.99
455.26	477.47
455.44	390.87
455.62	475.13
455.81	444.70
455.99	383.85
456.17	458.74
456.36	386.19
456.54	463.43
456.73	437.68
456.91	344.06
457.09	454.06
457.28	390.87
457.46	463.43
457.64	435.34
457.83	437.68
458.01	449.38
458.19	402.57
458.38	404.91
458.56	360.44
458.74	388.53
458.93	404.91
459.11	400.23
459.29	440.02
459.48	470.45
459.66	524.28
459.84	458.74
460.03	411.93
460.21	425.98
460.39	379.17
460.57	362.78
460.76	369.80
460.94	423.64
461.12	440.02
461.31	498.53
461.49	395.55
461.67	447.04
461.85	435.34
462.04	393.21
462.22	755.99
462.40	491.51
462.59	454.06
462.77	372.15
462.95	454.06
463.13	407.25
463.32	395.55
463.50	404.91
463.68	423.64
463.86	390.87
464.05	386.19
464.23	456.40
464.41	444.70
464.59	465.77
464.78	388.53
464.96	416.62
465.14	381.51
465.32	388.53
465.50	409.59
465.69	362.78
465.87	393.21
466.05	374.49
466.23	381.51
466.41	437.68
466.60	433.00
466.78	430.66
466.96	395.55
467.14	334.70
467.32	416.62
467.51	400.23
467.69	475.13
467.87	390.87
468.05	379.17
468.23	435.34
468.41	360.44
468.60	421.30
468.78	379.17
468.96	433.00
469.14	430.66
469.32	367.46
469.50	407.25
469.69	454.06
469.87	397.89
470.05	472.79
470.23	402.57
470.41	519.60
470.59	414.27
470.77	435.34
470.95	444.70
471.14	437.68
471.32	411.93
471.50	416.62
471.68	374.49
471.86	411.93
472.04	423.64
472.22	505.56
472.40	383.85
472.58	402.57
472.77	428.32
472.95	442.36
473.13	423.64
473.31	430.66
473.49	463.43
473.67	423.64
473.85	458.74
474.03	456.40
474.21	365.12
474.39	430.66
474.57	496.19
474.75	423.64
474.93	332.36
475.12	416.62
475.30	430.66
475.48	407.25
475.66	367.46
475.84	355.76
476.02	444.70
476.20	447.04
476.38	367.46
476.56	440.02
476.74	390.87
476.92	447.04
477.10	442.36
477.28	486.83
477.46	503.22
477.64	454.06
477.82	395.55
478.00	463.43
478.18	383.85
478.36	400.23
478.54	418.96
478.72	369.80
478.90	477.47
479.08	341.72
479.26	449.38
479.44	395.55
479.62	416.62
479.80	339.38
479.98	440.02
480.16	243.42
480.34	416.62
480.52	376.83
480.70	425.98
480.88	423.64
481.06	393.21
481.24	400.23
481.41	404.91
481.59	390.87
481.77	404.91
481.95	358.10
482.13	407.25
482.31	447.04
482.49	367.46
482.67	472.79
482.85	330.02
483.03	390.87
483.21	400.23
483.39	393.21
483.57	423.64
483.74	449.38
483.92	461.09
484.10	428.32
484.28	493.85
484.46	503.22
484.64	430.66
484.82	355.76
485.00	414.27
485.18	416.62
485.35	456.40
485.53	383.85
485.71	456.40
485.89	395.55
486.07	416.62
486.25	543.00
486.43	444.70
486.61	383.85
486.78	372.15
486.96	393.21
487.14	425.98
487.32	423.64
487.50	484.49
487.68	430.66
487.85	390.87
488.03	418.96
488.21	449.38
488.39	440.02
488.57	477.47
488.75	423.64
488.92	524.28
489.10	428.32
489.28	395.55
489.46	404.91
489.64	414.27
489.81	393.21
489.99	423.64
490.17	409.59
490.35	468.11
490.53	388.53
490.70	423.64
490.88	353.42
491.06	409.59
491.24	404.91
491.41	437.68
491.59	411.93
491.77	386.19
491.95	341.72
492.13	418.96
492.30	454.06
492.48	435.34
492.66	507.90
492.84	416.62
493.01	440.02
493.19	365.12
493.37	402.57
493.54	449.38
493.72	437.68
493.90	430.66
494.08	433.00
494.25	433.00
494.43	454.06
494.61	383.85
494.79	393.21
494.96	416.62
495.14	451.72
495.32	372.15
495.49	402.57
495.67	332.36
495.85	430.66
496.02	374.49
496.20	433.00
496.38	486.83
496.55	456.40
496.73	362.78
496.91	346.40
497.09	407.25
497.26	390.87
497.44	353.42
497.62	411.93
497.79	479.81
497.97	414.27
498.14	416.62
498.32	444.70
498.50	372.15
498.67	421.30
498.85	421.30
499.03	402.57
499.20	465.77
499.38	404.91
499.56	341.72
499.73	407.25
499.91	402.57
500.08	451.72
500.26	442.36
500.44	390.87
500.61	409.59
500.79	369.80
500.97	400.23
501.14	433.00
501.32	482.15
501.49	470.45
501.67	409.59
501.84	456.40
502.02	365.12
502.20	437.68
502.37	388.53
502.55	395.55
502.72	433.00
502.90	435.34
503.07	489.17
503.25	374.49
503.43	437.68
503.60	397.89
503.78	416.62
503.95	374.49
504.13	402.57
504.30	421.30
504.48	482.15
504.65	437.68
504.83	493.85
505.01	341.72
505.18	404.91
505.36	496.19
505.53	353.42
505.71	393.21
505.88	418.96
506.06	447.04
506.23	334.70
506.41	376.83
506.58	414.27
506.76	409.59
506.93	400.23
507.11	468.11
507.28	435.34
507.46	348.74
507.63	374.49
507.81	360.44
507.98	390.87
508.16	397.89
508.33	388.53
508.50	433.00
508.68	475.13
508.85	491.51
509.03	454.06
509.20	454.06
509.38	402.57
509.55	414.27
509.73	386.19
509.90	543.00
510.08	393.21
510.25	454.06
510.42	379.17
510.60	299.59
510.77	447.04
510.95	376.83
511.12	430.66
511.30	456.40
511.47	351.08
511.64	454.06
511.82	386.19
511.99	470.45
512.17	414.27
512.34	442.36
512.51	414.27
512.69	428.32
512.86	418.96
513.04	447.04
513.21	484.49
513.38	369.80
513.56	381.51
513.73	454.06
513.90	388.53
514.08	435.34
514.25	376.83
514.43	425.98
514.60	397.89
514.77	362.78
514.95	353.42
515.12	365.12
515.29	418.96
515.47	372.15
515.64	409.59
515.81	423.64
515.99	463.43
516.16	411.93
516.33	416.62
516.51	418.96
516.68	372.15
516.85	428.32
517.03	528.96
517.20	362.78
517.37	390.87
517.54	418.96
517.72	465.77
517.89	435.34
518.06	355.76
518.24	458.74
518.41	484.49
518.58	404.91
518.75	381.51
518.93	414.27
519.10	461.09
519.27	402.57
519.45	407.25
519.62	425.98
519.79	365.12
519.96	397.89
520.14	409.59
520.31	449.38
520.48	397.89
520.65	442.36
520.83	362.78
521.00	428.32
521.17	407.25
521.34	404.91
521.52	472.79
521.69	397.89
521.86	416.62
522.03	367.46
522.20	519.60
522.38	379.17
522.55	407.25
522.72	313.63
522.89	379.17
523.07	418.96
523.24	407.25
523.41	454.06
523.58	428.32
523.75	395.55
523.92	463.43
524.10	428.32
524.27	411.93
524.44	409.59
524.61	472.79
524.78	386.19
524.96	479.81
525.13	463.43
525.30	421.30
525.47	379.17
525.64	418.96
525.81	433.00
525.98	386.19
526.16	404.91
526.33	421.30
526.50	367.46
526.67	433.00
526.84	395.55
527.01	369.80
527.18	449.38
527.36	440.02
527.53	404.91
527.70	465.77
527.87	421.30
528.04	456.40
528.21	418.96
528.38	418.96
528.55	447.04
528.72	444.70
528.89	491.51
529.07	437.68
529.24	425.98
529.41	468.11
529.58	458.74
529.75	451.72
529.92	449.38
530.09	418.96
530.26	414.27
530.43	374.49
530.60	435.34
530.77	386.19
530.94	390.87
531.11	505.56
531.28	390.87
531.46	407.25
531.63	376.83
531.80	465.77
531.97	395.55
532.14	477.47
532.31	465.77
532.48	458.74
532.65	376.83
532.82	402.57
532.99	411.93
533.16	393.21
533.33	351.08
533.50	383.85
533.67	409.59
533.84	414.27
534.01	409.59
534.18	482.15
534.35	318.31
534.52	440.02
534.69	428.32
534.86	433.00
535.03	428.32
535.20	407.25
535.37	425.98
535.54	414.27
535.71	390.87
535.88	442.36
536.05	477.47
536.22	430.66
536.38	433.00
536.55	397.89
536.72	442.36
536.89	409.59
537.06	404.91
537.23	447.04
537.40	386.19
537.57	423.64
537.74	470.45
537.91	442.36
538.08	390.87
538.25	418.96
538.42	444.70
538.59	369.80
538.75	374.49
538.92	409.59
539.09	421.30
539.26	470.45
539.43	458.74
539.60	362.78
539.77	421.30
539.94	407.25
540.11	451.72
540.28	397.89
540.44	440.02
540.61	430.66
540.78	437.68
540.95	477.47
541.12	393.21
541.29	444.70
541.46	433.00
541.62	395.55
541.79	449.38
541.96	402.57
542.13	402.57
542.30	381.51
542.47	351.08
542.63	411.93
542.80	362.78
542.97	491.51
543.14	472.79
543.31	386.19
543.48	395.55
543.64	428.32
543.81	367.46
543.98	416.62
544.15	444.70
544.32	425.98
544.48	404.91
544.65	423.64
544.82	402.57
544.99	362.78
545.16	402.57
545.32	470.45
545.49	381.51
545.66	390.87
545.83	388.53
546.00	447.04
546.16	358.10
546.33	330.02
546.50	365.12
546.67	404.91
546.83	454.06
547.00	458.74
547.17	433.00
547.34	376.83
547.50	365.12
547.67	414.27
547.84	437.68
548.00	409.59
548.17	479.81
548.34	397.89
548.51	477.47
548.67	444.70
548.84	442.36
549.01	451.72
549.18	442.36
549.34	416.62
549.51	414.27
549.68	454.06
549.84	428.32
550.01	332.36
550.18	479.81
550.34	425.98
550.51	376.83
550.68	409.59
550.84	442.36
551.01	472.79
551.18	442.36
551.34	491.51
551.51	430.66
551.68	379.17
551.84	416.62
552.01	425.98
552.18	409.59
552.34	374.49
552.51	435.34
552.68	421.30
552.84	365.12
553.01	468.11
553.18	418.96
553.34	428.32
553.51	383.85
553.67	437.68
553.84	447.04
554.01	435.34
554.17	430.66
554.34	425.98
554.51	437.68
554.67	393.21
554.84	400.23
555.00	402.57
555.17	437.68
555.33	519.60
555.50	470.45
555.67	433.00
555.83	393.21
556.00	435.34
556.16	521.94
556.33	444.70
556.50	409.59
556.66	430.66
556.83	489.17
556.99	430.66
557.16	414.27
557.32	379.17
557.49	435.34
557.65	390.87
557.82	435.34
557.98	416.62
558.15	339.38
558.32	344.06
558.48	444.70
558.65	395.55
558.81	404.91
558.98	437.68
559.14	425.98
559.31	435.34
559.47	500.87
559.64	458.74
559.80	447.04
559.97	395.55
560.13	402.57
560.30	423.64
560.46	390.87
560.63	433.00
560.79	414.27
560.96	421.30
561.12	463.43
561.29	430.66
561.45	386.19
561.61	491.51
561.78	472.79
561.94	451.72
562.11	400.23
562.27	409.59
562.44	372.15
562.60	395.55
562.77	461.09
562.93	514.92
563.10	435.34
563.26	468.11
563.42	416.62
563.59	390.87
563.75	444.70
563.92	414.27
564.08	454.06
564.24	440.02
564.41	447.04
564.57	374.49
564.74	395.55
564.90	390.87
565.07	440.02
565.23	484.49
565.39	418.96
565.56	440.02
565.72	468.11
565.88	472.79
566.05	351.08
566.21	425.98
566.38	477.47
566.54	409.59
566.70	365.12
566.87	365.12
567.03	372.15
567.19	428.32
567.36	414.27
567.52	351.08
567.68	402.57
567.85	465.77
568.01	428.32
568.17	397.89
568.34	407.25
568.50	496.19
568.66	416.62
568.83	496.19
568.99	461.09
569.15	442.36
569.32	486.83
569.48	454.06
569.64	414.27
569.81	411.93
569.97	454.06
570.13	468.11
570.30	472.79
570.46	423.64
570.62	435.34
570.78	461.09
570.95	348.74
571.11	451.72
571.27	414.27
571.43	437.68
571.60	395.55
571.76	463.43
571.92	435.34
572.09	468.11
572.25	388.53
572.41	472.79
572.57	465.77
572.74	465.77
572.90	409.59
573.06	444.70
573.22	500.87
573.38	381.51
573.55	472.79
573.71	475.13
573.87	388.53
574.03	414.27
574.20	411.93
574.36	463.43
574.52	423.64
574.68	430.66
574.84	418.96
575.01	489.17
575.17	425.98
575.33	449.38
575.49	360.44
575.65	498.53
575.82	444.70
575.98	463.43
576.14	463.43
576.30	388.53
576.46	404.91
576.62	374.49
576.79	386.19
576.95	388.53
577.11	369.80
577.27	416.62
577.43	379.17
577.59	421.30
577.75	421.30
577.92	418.96
578.08	404.91
578.24	320.65
578.40	440.02
578.56	468.11
578.72	428.32
578.88	442.36
579.04	402.57
579.21	425.98
579.37	418.96
579.53	407.25
579.69	458.74
579.85	397.89
580.01	397.89
580.17	386.19
580.33	440.02
580.49	472.79
580.65	404.91
580.82	400.23
580.98	397.89
581.14	430.66
581.30	416.62
581.46	547.69
581.62	510.24
581.78	428.32
581.94	496.19
582.10	444.70
582.26	423.64
582.42	416.62
582.58	388.53
582.74	409.59
582.90	449.38
583.06	362.78
583.22	451.72
583.38	416.62
583.54	423.64
583.70	407.25
583.86	472.79
584.02	386.19
584.18	346.40
584.34	414.27
584.50	353.42
584.66	407.25
584.82	386.19
584.98	376.83
585.14	425.98
585.30	475.13
585.46	470.45
585.62	447.04
585.78	390.87
585.94	383.85
586.10	421.30
586.26	444.70
586.42	475.13
586.58	461.09
586.74	416.62
586.90	362.78
587.06	397.89
587.22	468.11
587.38	355.76
587.54	390.87
587.70	519.60
587.86	472.79
588.02	437.68
588.18	437.68
588.34	400.23
588.49	388.53
588.65	447.04
588.81	477.47
588.97	433.00
589.13	425.98
589.29	388.53
589.45	472.79
589.61	386.19
589.77	550.03
589.93	437.68
590.08	428.32
590.24	418.96
590.40	444.70
590.56	437.68
590.72	430.66
590.88	489.17
591.04	425.98
591.20	397.89
591.35	486.83
591.51	472.79
591.67	416.62
591.83	360.44
591.99	414.27
592.15	463.43
592.31	451.72
592.46	440.02
592.62	430.66
592.78	435.34
592.94	451.72
593.10	353.42
593.26	379.17
593.41	425.98
593.57	456.40
593.73	390.87
593.89	477.47
594.05	407.25
594.20	402.57
594.36	418.96
594.52	404.91
594.68	421.30
594.84	395.55
594.99	477.47
595.15	362.78
595.31	367.46
595.47	451.72
595.62	458.74
595.78	433.00
595.94	517.26
596.10	458.74
596.25	421.30
596.41	411.93
596.57	421.30
596.73	360.44
596.88	409.59
597.04	390.87
597.20	440.02
597.36	463.43
597.51	402.57
597.67	409.59
597.83	360.44
597.99	411.93
598.14	423.64
598.30	428.32
598.46	407.25
598.61	437.68
598.77	451.72
598.93	402.57
599.09	374.49
599.24	386.19
599.40	496.19
599.56	470.45
599.71	381.51
599.87	418.96
600.03	407.25
600.18	407.25
600.34	428.32
600.50	390.87
600.65	430.66
600.81	418.96
600.97	451.72
601.12	437.68
601.28	447.04
601.44	454.06
601.59	447.04
601.75	421.30
601.91	421.30
602.06	493.85
602.22	538.32
602.37	346.40
602.53	421.30
602.69	423.64
602.84	383.85
603.00	411.93
603.16	395.55
603.31	456.40
603.47	447.04
603.62	456.40
603.78	372.15
603.94	447.04
604.09	407.25
604.25	402.57
604.40	425.98
604.56	428.32
604.71	388.53
604.87	437.68
605.03	376.83
605.18	393.21
605.34	444.70
605.49	428.32
605.65	414.27
605.80	433.00
605.96	393.21
606.12	386.19
606.27	484.49
606.43	404.91
606.58	428.32
606.74	437.68
606.89	489.17
607.05	433.00
607.20	421.30
607.36	381.51
607.51	425.98
607.67	383.85
607.82	418.96
607.98	479.81
608.13	465.77
608.29	416.62
608.44	484.49
608.60	374.49
608.75	489.17
608.91	475.13
609.06	465.77
609.22	472.79
609.37	472.79
609.53	327.68
609.68	388.53
609.84	395.55
609.99	397.89
610.15	418.96
