SpectraSuite Data File
++++++++++++++++++++++++++++++++++++
Date: Fri Oct 25 12:11:08 EDT 2013
User: price-jones
Dark Spectrum Present: No
Reference Spectrum Present: No
Number of Sampled Component Spectra: 1
Spectrometers: USB2+H05261
Integration Time (usec): 100000 (USB2+H05261)
Spectra Averaged: 1 (USB2+H05261)
Boxcar Smoothing: 0 (USB2+H05261)
Correct for Electrical Dark: No (USB2+H05261)
Strobe/Lamp Enabled: No (USB2+H05261)
Correct for Detector Non-linearity: No (USB2+H05261)
Correct for Stray Light: No (USB2+H05261)
Number of Pixels in Processed Spectrum: 2048
>>>>>Begin Processed Spectral Data<<<<<
365.73	325.33
365.92	325.33
366.12	325.33
366.32	252.78
366.52	231.71
366.72	259.80
366.91	290.23
367.11	210.65
367.31	175.54
367.51	182.56
367.70	266.82
367.90	250.44
368.10	201.29
368.30	299.59
368.49	227.03
368.69	234.05
368.89	234.05
369.09	262.14
369.28	266.82
369.48	280.86
369.68	325.33
369.87	306.61
370.07	327.68
370.27	320.65
370.47	390.87
370.66	322.99
370.86	369.80
371.06	393.21
371.25	386.19
371.45	383.85
371.65	379.17
371.84	299.59
372.04	294.91
372.24	451.72
372.44	383.85
372.63	409.59
372.83	353.42
373.03	400.23
373.22	360.44
373.42	440.02
373.62	440.02
373.81	381.51
374.01	411.93
374.21	407.25
374.40	409.59
374.60	461.09
374.79	447.04
374.99	421.30
375.19	367.46
375.38	433.00
375.58	447.04
375.78	423.64
375.97	365.12
376.17	435.34
376.37	395.55
376.56	409.59
376.76	437.68
376.95	374.49
377.15	428.32
377.35	423.64
377.54	383.85
377.74	437.68
377.93	414.27
378.13	393.21
378.33	393.21
378.52	416.62
378.72	411.93
378.91	428.32
379.11	341.72
379.31	390.87
379.50	367.46
379.70	365.12
379.89	376.83
380.09	330.02
380.28	376.83
380.48	444.70
380.68	425.98
380.87	407.25
381.07	348.74
381.26	468.11
381.46	414.27
381.65	437.68
381.85	365.12
382.04	376.83
382.24	367.46
382.43	425.98
382.63	416.62
382.83	407.25
383.02	402.57
383.22	470.45
383.41	367.46
383.61	423.64
383.80	418.96
384.00	390.87
384.19	393.21
384.39	395.55
384.58	358.10
384.78	475.13
384.97	449.38
385.17	376.83
385.36	393.21
385.56	327.68
385.75	346.40
385.95	381.51
386.14	437.68
386.34	369.80
386.53	346.40
386.72	472.79
386.92	397.89
387.11	440.02
387.31	383.85
387.50	395.55
387.70	411.93
387.89	404.91
388.09	402.57
388.28	372.15
388.48	379.17
388.67	433.00
388.86	388.53
389.06	393.21
389.25	442.36
389.45	376.83
389.64	435.34
389.84	379.17
390.03	376.83
390.22	379.17
390.42	341.72
390.61	379.17
390.81	383.85
391.00	435.34
391.19	383.85
391.39	386.19
391.58	433.00
391.78	437.68
391.97	386.19
392.16	322.99
392.36	470.45
392.55	425.98
392.75	379.17
392.94	306.61
393.13	383.85
393.33	423.64
393.52	393.21
393.71	440.02
393.91	374.49
394.10	381.51
394.29	416.62
394.49	379.17
394.68	390.87
394.88	414.27
395.07	402.57
395.26	362.78
395.46	416.62
395.65	379.17
395.84	404.91
396.04	496.19
396.23	430.66
396.42	414.27
396.62	259.80
396.81	416.62
397.00	433.00
397.19	423.64
397.39	407.25
397.58	435.34
397.77	402.57
397.97	437.68
398.16	372.15
398.35	425.98
398.55	444.70
398.74	461.09
398.93	395.55
399.12	386.19
399.32	409.59
399.51	414.27
399.70	449.38
399.90	365.12
400.09	411.93
400.28	409.59
400.47	379.17
400.67	337.04
400.86	425.98
401.05	470.45
401.24	383.85
401.44	433.00
401.63	447.04
401.82	402.57
402.01	351.08
402.21	374.49
402.40	437.68
402.59	379.17
402.78	463.43
402.97	360.44
403.17	463.43
403.36	390.87
403.55	428.32
403.74	411.93
403.93	430.66
404.13	425.98
404.32	397.89
404.51	379.17
404.70	411.93
404.89	411.93
405.09	379.17
405.28	411.93
405.47	425.98
405.66	311.29
405.85	404.91
406.05	486.83
406.24	376.83
406.43	372.15
406.62	489.17
406.81	447.04
407.00	425.98
407.20	334.70
407.39	351.08
407.58	330.02
407.77	344.06
407.96	479.81
408.15	421.30
408.34	379.17
408.54	402.57
408.73	425.98
408.92	435.34
409.11	393.21
409.30	407.25
409.49	362.78
409.68	447.04
409.87	418.96
410.07	449.38
410.26	440.02
410.45	358.10
410.64	425.98
410.83	402.57
411.02	416.62
411.21	418.96
411.40	404.91
411.59	423.64
411.78	388.53
411.98	465.77
412.17	418.96
412.36	400.23
412.55	390.87
412.74	376.83
412.93	400.23
413.12	409.59
413.31	440.02
413.50	395.55
413.69	416.62
413.88	437.68
414.07	454.06
414.26	341.72
414.45	367.46
414.64	472.79
414.83	491.51
415.02	491.51
415.22	444.70
415.41	482.15
415.60	463.43
415.79	433.00
415.98	414.27
416.17	386.19
416.36	397.89
416.55	416.62
416.74	456.40
416.93	369.80
417.12	365.12
417.31	381.51
417.50	355.76
417.69	395.55
417.88	416.62
418.07	418.96
418.26	390.87
418.45	416.62
418.64	407.25
418.83	395.55
419.02	362.78
419.21	400.23
419.39	430.66
419.58	341.72
419.77	400.23
419.96	395.55
420.15	416.62
420.34	414.27
420.53	365.12
420.72	393.21
420.91	416.62
421.10	411.93
421.29	397.89
421.48	458.74
421.67	351.08
421.86	430.66
422.05	397.89
422.24	407.25
422.43	421.30
422.61	421.30
422.80	376.83
422.99	322.99
423.18	372.15
423.37	461.09
423.56	411.93
423.75	407.25
423.94	440.02
424.13	418.96
424.32	379.17
424.50	416.62
424.69	449.38
424.88	425.98
425.07	369.80
425.26	407.25
425.45	365.12
425.64	386.19
425.83	430.66
426.01	369.80
426.20	430.66
426.39	433.00
426.58	341.72
426.77	428.32
426.96	414.27
427.15	393.21
427.33	344.06
427.52	369.80
427.71	414.27
427.90	449.38
428.09	428.32
428.28	369.80
428.46	435.34
428.65	390.87
428.84	440.02
429.03	418.96
429.22	365.12
429.40	463.43
429.59	421.30
429.78	479.81
429.97	428.32
430.16	447.04
430.34	451.72
430.53	409.59
430.72	475.13
430.91	491.51
431.10	395.55
431.28	360.44
431.47	449.38
431.66	318.31
431.85	444.70
432.03	365.12
432.22	397.89
432.41	468.11
432.60	416.62
432.79	390.87
432.97	372.15
433.16	381.51
433.35	400.23
433.54	428.32
433.72	404.91
433.91	353.42
434.10	372.15
434.28	430.66
434.47	344.06
434.66	472.79
434.85	348.74
435.03	339.38
435.22	430.66
435.41	477.47
435.59	465.77
435.78	505.56
435.97	346.40
436.16	430.66
436.34	397.89
436.53	367.46
436.72	346.40
436.90	393.21
437.09	468.11
437.28	381.51
437.46	397.89
437.65	397.89
437.84	416.62
438.02	315.97
438.21	362.78
438.40	437.68
438.58	402.57
438.77	374.49
438.96	395.55
439.14	430.66
439.33	437.68
439.52	454.06
439.70	430.66
439.89	409.59
440.08	409.59
440.26	437.68
440.45	388.53
440.63	386.19
440.82	397.89
441.01	397.89
441.19	402.57
441.38	402.57
441.57	435.34
441.75	449.38
441.94	456.40
442.12	404.91
442.31	360.44
442.50	440.02
442.68	365.12
442.87	421.30
443.05	397.89
443.24	383.85
443.43	421.30
443.61	423.64
443.80	402.57
443.98	421.30
444.17	381.51
444.35	428.32
444.54	372.15
444.73	447.04
444.91	393.21
445.10	475.13
445.28	421.30
445.47	404.91
445.65	411.93
445.84	411.93
446.02	344.06
446.21	404.91
446.39	465.77
446.58	374.49
446.77	425.98
446.95	381.51
447.14	428.32
447.32	425.98
447.51	418.96
447.69	449.38
447.88	437.68
448.06	479.81
448.25	404.91
448.43	423.64
448.62	421.30
448.80	465.77
448.99	416.62
449.17	414.27
449.36	374.49
449.54	425.98
449.73	402.57
449.91	430.66
450.10	428.32
450.28	472.79
450.46	402.57
450.65	383.85
450.83	418.96
451.02	437.68
451.20	404.91
451.39	411.93
451.57	388.53
451.76	451.72
451.94	390.87
452.13	440.02
452.31	430.66
452.49	367.46
452.68	402.57
452.86	430.66
453.05	489.17
453.23	369.80
453.42	433.00
453.60	447.04
453.78	393.21
453.97	397.89
454.15	374.49
454.34	353.42
454.52	437.68
454.70	348.74
454.89	416.62
455.07	365.12
455.26	390.87
455.44	407.25
455.62	348.74
455.81	400.23
455.99	379.17
456.17	470.45
456.36	402.57
456.54	503.22
456.73	388.53
456.91	430.66
457.09	428.32
457.28	449.38
457.46	465.77
457.64	383.85
457.83	423.64
458.01	475.13
458.19	395.55
458.38	388.53
458.56	402.57
458.74	447.04
458.93	435.34
459.11	458.74
459.29	404.91
459.48	423.64
459.66	449.38
459.84	393.21
460.03	418.96
460.21	376.83
460.39	435.34
460.57	433.00
460.76	369.80
460.94	402.57
461.12	435.34
461.31	433.00
461.49	468.11
461.67	318.31
461.85	423.64
462.04	362.78
462.22	718.54
462.40	454.06
462.59	409.59
462.77	402.57
462.95	435.34
463.13	369.80
463.32	390.87
463.50	414.27
463.68	390.87
463.86	428.32
464.05	444.70
464.23	367.46
464.41	369.80
464.59	395.55
464.78	402.57
464.96	393.21
465.14	421.30
465.32	402.57
465.50	428.32
465.69	341.72
465.87	414.27
466.05	468.11
466.23	337.04
466.41	397.89
466.60	400.23
466.78	379.17
466.96	409.59
467.14	379.17
467.32	390.87
467.51	421.30
467.69	425.98
467.87	468.11
468.05	402.57
468.23	458.74
468.41	395.55
468.60	444.70
468.78	414.27
468.96	458.74
469.14	447.04
469.32	351.08
469.50	433.00
469.69	404.91
469.87	421.30
470.05	491.51
470.23	442.36
470.41	458.74
470.59	369.80
470.77	351.08
470.95	458.74
471.14	404.91
471.32	454.06
471.50	437.68
471.68	456.40
471.86	435.34
472.04	332.36
472.22	461.09
472.40	402.57
472.58	379.17
472.77	463.43
472.95	369.80
473.13	421.30
473.31	528.96
473.49	367.46
473.67	421.30
473.85	456.40
474.03	395.55
474.21	423.64
474.39	395.55
474.57	479.81
474.75	339.38
474.93	404.91
475.12	404.91
475.30	463.43
475.48	418.96
475.66	358.10
475.84	355.76
476.02	442.36
476.20	393.21
476.38	463.43
476.56	533.64
476.74	451.72
476.92	334.70
477.10	381.51
477.28	393.21
477.46	374.49
477.64	425.98
477.82	414.27
478.00	376.83
478.18	402.57
478.36	486.83
478.54	428.32
478.72	461.09
478.90	454.06
479.08	433.00
479.26	423.64
479.44	351.08
479.62	472.79
479.80	423.64
479.98	447.04
480.16	421.30
480.34	430.66
480.52	383.85
480.70	463.43
480.88	397.89
481.06	449.38
481.24	447.04
481.41	435.34
481.59	374.49
481.77	451.72
481.95	369.80
482.13	454.06
482.31	414.27
482.49	362.78
482.67	386.19
482.85	376.83
483.03	414.27
483.21	402.57
483.39	416.62
483.57	379.17
483.74	456.40
483.92	404.91
484.10	425.98
484.28	397.89
484.46	451.72
484.64	400.23
484.82	456.40
485.00	379.17
485.18	503.22
485.35	463.43
485.53	463.43
485.71	477.47
485.89	416.62
486.07	383.85
486.25	514.92
486.43	451.72
486.61	442.36
486.78	418.96
486.96	383.85
487.14	388.53
487.32	372.15
487.50	486.83
487.68	376.83
487.85	430.66
488.03	458.74
488.21	411.93
488.39	379.17
488.57	386.19
488.75	475.13
488.92	568.75
489.10	428.32
489.28	404.91
489.46	388.53
489.64	418.96
489.81	395.55
489.99	442.36
490.17	470.45
490.35	414.27
490.53	404.91
490.70	348.74
490.88	358.10
491.06	393.21
491.24	430.66
491.41	365.12
491.59	421.30
491.77	365.12
491.95	418.96
492.13	379.17
492.30	440.02
492.48	383.85
492.66	409.59
492.84	402.57
493.01	510.24
493.19	442.36
493.37	440.02
493.54	421.30
493.72	461.09
493.90	418.96
494.08	428.32
494.25	358.10
494.43	372.15
494.61	421.30
494.79	414.27
494.96	332.36
495.14	404.91
495.32	400.23
495.49	409.59
495.67	430.66
495.85	447.04
496.02	430.66
496.20	404.91
496.38	402.57
496.55	395.55
496.73	425.98
496.91	358.10
497.09	449.38
497.26	353.42
497.44	430.66
497.62	416.62
497.79	433.00
497.97	414.27
498.14	428.32
498.32	444.70
498.50	435.34
498.67	407.25
498.85	468.11
499.03	369.80
499.20	393.21
499.38	402.57
499.56	433.00
499.73	374.49
499.91	421.30
500.08	472.79
500.26	416.62
500.44	437.68
500.61	379.17
500.79	411.93
500.97	489.17
501.14	358.10
501.32	442.36
501.49	423.64
501.67	440.02
501.84	390.87
502.02	409.59
502.20	468.11
502.37	447.04
502.55	383.85
502.72	386.19
502.90	365.12
503.07	472.79
503.25	430.66
503.43	437.68
503.60	430.66
503.78	430.66
503.95	397.89
504.13	440.02
504.30	540.66
504.48	430.66
504.65	388.53
504.83	400.23
505.01	376.83
505.18	365.12
505.36	386.19
505.53	454.06
505.71	423.64
505.88	433.00
506.06	416.62
506.23	503.22
506.41	383.85
506.58	423.64
506.76	407.25
506.93	409.59
507.11	365.12
507.28	353.42
507.46	402.57
507.63	440.02
507.81	376.83
507.98	365.12
508.16	500.87
508.33	430.66
508.50	461.09
508.68	407.25
508.85	372.15
509.03	388.53
509.20	379.17
509.38	395.55
509.55	475.13
509.73	470.45
509.90	503.22
510.08	421.30
510.25	447.04
510.42	402.57
510.60	409.59
510.77	433.00
510.95	433.00
511.12	390.87
511.30	444.70
511.47	451.72
511.64	437.68
511.82	376.83
511.99	437.68
512.17	393.21
512.34	395.55
512.51	386.19
512.69	334.70
512.86	423.64
513.04	390.87
513.21	407.25
513.38	404.91
513.56	386.19
513.73	437.68
513.90	390.87
514.08	411.93
514.25	449.38
514.43	418.96
514.60	379.17
514.77	393.21
514.95	468.11
515.12	383.85
515.29	390.87
515.47	421.30
515.64	447.04
515.81	423.64
515.99	421.30
516.16	435.34
516.33	418.96
516.51	372.15
516.68	407.25
516.85	395.55
517.03	362.78
517.20	463.43
517.37	376.83
517.54	437.68
517.72	423.64
517.89	430.66
518.06	386.19
518.24	463.43
518.41	390.87
518.58	449.38
518.75	334.70
518.93	416.62
519.10	458.74
519.27	449.38
519.45	404.91
519.62	362.78
519.79	428.32
519.96	390.87
520.14	493.85
520.31	369.80
520.48	388.53
520.65	402.57
520.83	409.59
521.00	444.70
521.17	433.00
521.34	411.93
521.52	414.27
521.69	458.74
521.86	451.72
522.03	458.74
522.20	428.32
522.38	442.36
522.55	393.21
522.72	393.21
522.89	510.24
523.07	486.83
523.24	454.06
523.41	404.91
523.58	379.17
523.75	465.77
523.92	407.25
524.10	428.32
524.27	468.11
524.44	400.23
524.61	381.51
524.78	407.25
524.96	442.36
525.13	468.11
525.30	475.13
525.47	461.09
525.64	348.74
525.81	360.44
525.98	411.93
526.16	468.11
526.33	458.74
526.50	386.19
526.67	433.00
526.84	402.57
527.01	461.09
527.18	451.72
527.36	374.49
527.53	383.85
527.70	407.25
527.87	383.85
528.04	407.25
528.21	498.53
528.38	423.64
528.55	433.00
528.72	376.83
528.89	390.87
529.07	433.00
529.24	395.55
529.41	477.47
529.58	430.66
529.75	442.36
529.92	456.40
530.09	437.68
530.26	383.85
530.43	477.47
530.60	482.15
530.77	407.25
530.94	346.40
531.11	475.13
531.28	449.38
531.46	430.66
531.63	414.27
531.80	456.40
531.97	381.51
532.14	442.36
532.31	512.58
532.48	379.17
532.65	451.72
532.82	402.57
532.99	461.09
533.16	435.34
533.33	379.17
533.50	386.19
533.67	458.74
533.84	425.98
534.01	451.72
534.18	442.36
534.35	416.62
534.52	374.49
534.69	447.04
534.86	358.10
535.03	463.43
535.20	393.21
535.37	449.38
535.54	442.36
535.71	400.23
535.88	475.13
536.05	414.27
536.22	437.68
536.38	390.87
536.55	454.06
536.72	470.45
536.89	468.11
537.06	451.72
537.23	442.36
537.40	433.00
537.57	451.72
537.74	472.79
537.91	433.00
538.08	470.45
538.25	458.74
538.42	428.32
538.59	383.85
538.75	341.72
538.92	414.27
539.09	440.02
539.26	454.06
539.43	470.45
539.60	416.62
539.77	390.87
539.94	421.30
540.11	470.45
540.28	561.73
540.44	498.53
540.61	397.89
540.78	468.11
540.95	418.96
541.12	454.06
541.29	404.91
541.46	440.02
541.62	454.06
541.79	395.55
541.96	390.87
542.13	458.74
542.30	437.68
542.47	479.81
542.63	416.62
542.80	416.62
542.97	470.45
543.14	461.09
543.31	482.15
543.48	376.83
543.64	393.21
543.81	433.00
543.98	430.66
544.15	327.68
544.32	386.19
544.48	468.11
544.65	407.25
544.82	440.02
544.99	451.72
545.16	444.70
545.32	475.13
545.49	383.85
545.66	367.46
545.83	416.62
546.00	444.70
546.16	433.00
546.33	423.64
546.50	463.43
546.67	440.02
546.83	435.34
547.00	449.38
547.17	344.06
547.34	435.34
547.50	407.25
547.67	447.04
547.84	393.21
548.00	397.89
548.17	414.27
548.34	402.57
548.51	496.19
548.67	449.38
548.84	463.43
549.01	388.53
549.18	421.30
549.34	395.55
549.51	433.00
549.68	433.00
549.84	470.45
550.01	423.64
550.18	400.23
550.34	496.19
550.51	491.51
550.68	416.62
550.84	409.59
551.01	386.19
551.18	418.96
551.34	376.83
551.51	484.49
551.68	440.02
551.84	468.11
552.01	397.89
552.18	400.23
552.34	390.87
552.51	395.55
552.68	395.55
552.84	369.80
553.01	428.32
553.18	435.34
553.34	447.04
553.51	409.59
553.67	402.57
553.84	482.15
554.01	493.85
554.17	428.32
554.34	482.15
554.51	395.55
554.67	411.93
554.84	447.04
555.00	402.57
555.17	397.89
555.33	418.96
555.50	442.36
555.67	428.32
555.83	397.89
556.00	383.85
556.16	486.83
556.33	475.13
556.50	433.00
556.66	360.44
556.83	416.62
556.99	355.76
557.16	379.17
557.32	437.68
557.49	421.30
557.65	428.32
557.82	421.30
557.98	479.81
558.15	407.25
558.32	430.66
558.48	423.64
558.65	428.32
558.81	447.04
558.98	430.66
559.14	362.78
559.31	454.06
559.47	486.83
559.64	402.57
559.80	407.25
559.97	430.66
560.13	400.23
560.30	372.15
560.46	388.53
560.63	395.55
560.79	411.93
560.96	421.30
561.12	390.87
561.29	456.40
561.45	451.72
561.61	386.19
561.78	475.13
561.94	416.62
562.11	430.66
562.27	411.93
562.44	418.96
562.60	407.25
562.77	376.83
562.93	505.56
563.10	465.77
563.26	421.30
563.42	493.85
563.59	414.27
563.75	400.23
563.92	397.89
564.08	402.57
564.24	440.02
564.41	484.49
564.57	404.91
564.74	414.27
564.90	404.91
565.07	379.17
565.23	376.83
565.39	416.62
565.56	458.74
565.72	414.27
565.88	425.98
566.05	416.62
566.21	379.17
566.38	400.23
566.54	365.12
566.70	397.89
566.87	374.49
567.03	388.53
567.19	423.64
567.36	386.19
567.52	493.85
567.68	416.62
567.85	315.97
568.01	393.21
568.17	489.17
568.34	442.36
568.50	423.64
568.66	440.02
568.83	533.64
568.99	425.98
569.15	442.36
569.32	414.27
569.48	397.89
569.64	400.23
569.81	390.87
569.97	411.93
570.13	454.06
570.30	461.09
570.46	393.21
570.62	411.93
570.78	393.21
570.95	430.66
571.11	442.36
571.27	447.04
571.43	365.12
571.60	503.22
571.76	510.24
571.92	477.47
572.09	440.02
572.25	458.74
572.41	500.87
572.57	383.85
572.74	353.42
572.90	409.59
573.06	404.91
573.22	425.98
573.38	486.83
573.55	379.17
573.71	418.96
573.87	423.64
574.03	430.66
574.20	416.62
574.36	435.34
574.52	407.25
574.68	411.93
574.84	365.12
575.01	435.34
575.17	468.11
575.33	376.83
575.49	411.93
575.65	428.32
575.82	435.34
575.98	435.34
576.14	411.93
576.30	397.89
576.46	404.91
576.62	416.62
576.79	411.93
576.95	433.00
577.11	367.46
577.27	390.87
577.43	404.91
577.59	454.06
577.75	472.79
577.92	395.55
578.08	381.51
578.24	421.30
578.40	444.70
578.56	447.04
578.72	514.92
578.88	477.47
579.04	379.17
579.21	498.53
579.37	470.45
579.53	430.66
579.69	461.09
579.85	423.64
580.01	327.68
580.17	496.19
580.33	514.92
580.49	353.42
580.65	404.91
580.82	423.64
580.98	390.87
581.14	416.62
581.30	430.66
581.46	369.80
581.62	402.57
581.78	433.00
581.94	400.23
582.10	362.78
582.26	425.98
582.42	332.36
582.58	414.27
582.74	414.27
582.90	433.00
583.06	454.06
583.22	418.96
583.38	365.12
583.54	451.72
583.70	486.83
583.86	444.70
584.02	339.38
584.18	440.02
584.34	383.85
584.50	407.25
584.66	393.21
584.82	428.32
584.98	435.34
585.14	470.45
585.30	418.96
585.46	428.32
585.62	383.85
585.78	351.08
585.94	383.85
586.10	568.75
586.26	351.08
586.42	498.53
586.58	437.68
586.74	430.66
586.90	461.09
587.06	447.04
587.22	437.68
587.38	425.98
587.54	430.66
587.70	545.34
587.86	416.62
588.02	418.96
588.18	423.64
588.34	440.02
588.49	418.96
588.65	444.70
588.81	383.85
588.97	411.93
589.13	397.89
589.29	418.96
589.45	442.36
589.61	411.93
589.77	449.38
589.93	421.30
590.08	322.99
590.24	414.27
590.40	440.02
590.56	465.77
590.72	388.53
590.88	433.00
591.04	414.27
591.20	341.72
591.35	472.79
591.51	449.38
591.67	433.00
591.83	404.91
591.99	400.23
592.15	381.51
592.31	388.53
592.46	433.00
592.62	397.89
592.78	428.32
592.94	388.53
593.10	353.42
593.26	496.19
593.41	416.62
593.57	430.66
593.73	479.81
593.89	440.02
594.05	444.70
594.20	388.53
594.36	461.09
594.52	440.02
594.68	421.30
594.84	437.68
594.99	395.55
595.15	358.10
595.31	430.66
595.47	458.74
595.62	440.02
595.78	425.98
595.94	433.00
596.10	458.74
596.25	456.40
596.41	423.64
596.57	379.17
596.73	393.21
596.88	395.55
597.04	454.06
597.20	409.59
597.36	451.72
597.51	395.55
597.67	442.36
597.83	395.55
597.99	458.74
598.14	400.23
598.30	393.21
598.46	372.15
598.61	449.38
598.77	404.91
598.93	451.72
599.09	388.53
599.24	433.00
599.40	437.68
599.56	451.72
599.71	440.02
599.87	369.80
600.03	388.53
600.18	435.34
600.34	428.32
600.50	486.83
600.65	468.11
600.81	503.22
600.97	381.51
601.12	449.38
601.28	390.87
601.44	409.59
601.59	416.62
601.75	402.57
601.91	465.77
602.06	409.59
602.22	451.72
602.37	433.00
602.53	418.96
602.69	447.04
602.84	421.30
603.00	362.78
603.16	411.93
603.31	444.70
603.47	458.74
603.62	369.80
603.78	435.34
603.94	351.08
604.09	407.25
604.25	512.58
604.40	454.06
604.56	447.04
604.71	393.21
604.87	397.89
605.03	390.87
605.18	444.70
605.34	486.83
605.49	409.59
605.65	454.06
605.80	409.59
605.96	416.62
606.12	390.87
606.27	327.68
606.43	437.68
606.58	376.83
606.74	386.19
606.89	393.21
607.05	468.11
607.20	475.13
607.36	425.98
607.51	369.80
607.67	367.46
607.82	435.34
607.98	484.49
608.13	444.70
608.29	489.17
608.44	369.80
608.60	386.19
608.75	526.62
608.91	442.36
609.06	465.77
609.22	433.00
609.37	425.98
609.53	425.98
609.68	407.25
609.84	390.87
609.99	484.49
610.15	416.62
