SpectraSuite Data File
++++++++++++++++++++++++++++++++++++
Date: Fri Oct 25 12:11:21 EDT 2013
User: price-jones
Dark Spectrum Present: No
Reference Spectrum Present: No
Number of Sampled Component Spectra: 1
Spectrometers: USB2+H05261
Integration Time (usec): 100000 (USB2+H05261)
Spectra Averaged: 1 (USB2+H05261)
Boxcar Smoothing: 0 (USB2+H05261)
Correct for Electrical Dark: No (USB2+H05261)
Strobe/Lamp Enabled: No (USB2+H05261)
Correct for Detector Non-linearity: No (USB2+H05261)
Correct for Stray Light: No (USB2+H05261)
Number of Pixels in Processed Spectrum: 2048
>>>>>Begin Processed Spectral Data<<<<<
365.73	341.72
365.92	341.72
366.12	341.72
366.32	203.63
366.52	215.33
366.72	278.52
366.91	203.63
367.11	241.08
367.31	191.92
367.51	264.48
367.70	217.67
367.90	266.82
368.10	184.90
368.30	269.16
368.49	229.37
368.69	276.18
368.89	224.69
369.09	250.44
369.28	203.63
369.48	308.95
369.68	301.93
369.87	358.10
370.07	322.99
370.27	304.27
370.47	306.61
370.66	280.86
370.86	327.68
371.06	444.70
371.25	390.87
371.45	397.89
371.65	414.27
371.84	416.62
372.04	437.68
372.24	325.33
372.44	322.99
372.63	374.49
372.83	414.27
373.03	402.57
373.22	372.15
373.42	465.77
373.62	376.83
373.81	362.78
374.01	425.98
374.21	440.02
374.40	337.04
374.60	407.25
374.79	421.30
374.99	491.51
375.19	374.49
375.38	444.70
375.58	428.32
375.78	477.47
375.97	388.53
376.17	444.70
376.37	395.55
376.56	414.27
376.76	353.42
376.95	395.55
377.15	414.27
377.35	416.62
377.54	348.74
377.74	425.98
377.93	447.04
378.13	451.72
378.33	397.89
378.52	388.53
378.72	447.04
378.91	421.30
379.11	421.30
379.31	458.74
379.50	395.55
379.70	421.30
379.89	449.38
380.09	397.89
380.28	351.08
380.48	383.85
380.68	388.53
380.87	393.21
381.07	360.44
381.26	479.81
381.46	379.17
381.65	376.83
381.85	402.57
382.04	374.49
382.24	418.96
382.43	433.00
382.63	416.62
382.83	435.34
383.02	428.32
383.22	482.15
383.41	407.25
383.61	479.81
383.80	409.59
384.00	468.11
384.19	390.87
384.39	339.38
384.58	379.17
384.78	470.45
384.97	365.12
385.17	353.42
385.36	414.27
385.56	386.19
385.75	376.83
385.95	374.49
386.14	351.08
386.34	444.70
386.53	374.49
386.72	404.91
386.92	458.74
387.11	454.06
387.31	423.64
387.50	351.08
387.70	327.68
387.89	451.72
388.09	376.83
388.28	414.27
388.48	404.91
388.67	416.62
388.86	376.83
389.06	365.12
389.25	421.30
389.45	411.93
389.64	393.21
389.84	409.59
390.03	365.12
390.22	402.57
390.42	421.30
390.61	477.47
390.81	414.27
391.00	393.21
391.19	491.51
391.39	362.78
391.58	395.55
391.78	411.93
391.97	407.25
392.16	393.21
392.36	393.21
392.55	463.43
392.75	428.32
392.94	381.51
393.13	437.68
393.33	379.17
393.52	433.00
393.71	430.66
393.91	369.80
394.10	376.83
394.29	360.44
394.49	409.59
394.68	407.25
394.88	444.70
395.07	379.17
395.26	444.70
395.46	374.49
395.65	433.00
395.84	402.57
396.04	479.81
396.23	430.66
396.42	341.72
396.62	421.30
396.81	463.43
397.00	458.74
397.19	454.06
397.39	463.43
397.58	463.43
397.77	449.38
397.97	407.25
398.16	393.21
398.35	390.87
398.55	386.19
398.74	449.38
398.93	393.21
399.12	376.83
399.32	400.23
399.51	393.21
399.70	447.04
399.90	376.83
400.09	447.04
400.28	395.55
400.47	409.59
400.67	362.78
400.86	414.27
401.05	418.96
401.24	397.89
401.44	479.81
401.63	472.79
401.82	393.21
402.01	386.19
402.21	407.25
402.40	409.59
402.59	414.27
402.78	334.70
402.97	428.32
403.17	451.72
403.36	379.17
403.55	348.74
403.74	428.32
403.93	379.17
404.13	454.06
404.32	421.30
404.51	379.17
404.70	400.23
404.89	360.44
405.09	407.25
405.28	472.79
405.47	397.89
405.66	447.04
405.85	393.21
406.05	416.62
406.24	353.42
406.43	393.21
406.62	402.57
406.81	433.00
407.00	444.70
407.20	437.68
407.39	393.21
407.58	414.27
407.77	484.49
407.96	393.21
408.15	400.23
408.34	430.66
408.54	440.02
408.73	472.79
408.92	409.59
409.11	358.10
409.30	442.36
409.49	409.59
409.68	414.27
409.87	461.09
410.07	423.64
410.26	458.74
410.45	404.91
410.64	351.08
410.83	442.36
411.02	435.34
411.21	383.85
411.40	440.02
411.59	421.30
411.78	402.57
411.98	355.76
412.17	437.68
412.36	451.72
412.55	365.12
412.74	409.59
412.93	461.09
413.12	367.46
413.31	491.51
413.50	400.23
413.69	451.72
413.88	470.45
414.07	388.53
414.26	463.43
414.45	400.23
414.64	484.49
414.83	423.64
415.02	344.06
415.22	428.32
415.41	451.72
415.60	425.98
415.79	379.17
415.98	430.66
416.17	379.17
416.36	425.98
416.55	465.77
416.74	416.62
416.93	435.34
417.12	444.70
417.31	379.17
417.50	374.49
417.69	369.80
417.88	428.32
418.07	390.87
418.26	393.21
418.45	367.46
418.64	461.09
418.83	379.17
419.02	388.53
419.21	397.89
419.39	411.93
419.58	372.15
419.77	362.78
419.96	430.66
420.15	461.09
420.34	407.25
420.53	442.36
420.72	496.19
420.91	409.59
421.10	376.83
421.29	388.53
421.48	421.30
421.67	365.12
421.86	402.57
422.05	425.98
422.24	484.49
422.43	400.23
422.61	369.80
422.80	344.06
422.99	395.55
423.18	458.74
423.37	435.34
423.56	418.96
423.75	482.15
423.94	416.62
424.13	374.49
424.32	430.66
424.50	379.17
424.69	433.00
424.88	440.02
425.07	395.55
425.26	461.09
425.45	376.83
425.64	346.40
425.83	383.85
426.01	461.09
426.20	451.72
426.39	407.25
426.58	348.74
426.77	461.09
426.96	430.66
427.15	447.04
427.33	376.83
427.52	341.72
427.71	411.93
427.90	433.00
428.09	397.89
428.28	322.99
428.46	437.68
428.65	379.17
428.84	355.76
429.03	416.62
429.22	458.74
429.40	484.49
429.59	395.55
429.78	421.30
429.97	463.43
430.16	428.32
430.34	386.19
430.53	388.53
430.72	423.64
430.91	428.32
431.10	376.83
431.28	428.32
431.47	484.49
431.66	444.70
431.85	376.83
432.03	425.98
432.22	379.17
432.41	360.44
432.60	440.02
432.79	355.76
432.97	421.30
433.16	451.72
433.35	379.17
433.54	407.25
433.72	449.38
433.91	500.87
434.10	402.57
434.28	393.21
434.47	416.62
434.66	374.49
434.85	386.19
435.03	477.47
435.22	444.70
435.41	470.45
435.59	421.30
435.78	444.70
435.97	433.00
436.16	521.94
436.34	386.19
436.53	435.34
436.72	407.25
436.90	496.19
437.09	454.06
437.28	454.06
437.46	404.91
437.65	386.19
437.84	388.53
438.02	416.62
438.21	465.77
438.40	400.23
438.58	383.85
438.77	418.96
438.96	486.83
439.14	470.45
439.33	489.17
439.52	458.74
439.70	367.46
439.89	454.06
440.08	393.21
440.26	440.02
440.45	437.68
440.63	407.25
440.82	414.27
441.01	444.70
441.19	430.66
441.38	428.32
441.57	390.87
441.75	376.83
441.94	418.96
442.12	407.25
442.31	423.64
442.50	435.34
442.68	414.27
442.87	491.51
443.05	409.59
443.24	402.57
443.43	433.00
443.61	433.00
443.80	440.02
443.98	435.34
444.17	449.38
444.35	472.79
444.54	451.72
444.73	416.62
444.91	414.27
445.10	418.96
445.28	353.42
445.47	400.23
445.65	411.93
445.84	348.74
446.02	456.40
446.21	456.40
446.39	404.91
446.58	454.06
446.77	390.87
446.95	404.91
447.14	383.85
447.32	423.64
447.51	404.91
447.69	400.23
447.88	379.17
448.06	369.80
448.25	390.87
448.43	423.64
448.62	414.27
448.80	433.00
448.99	451.72
449.17	379.17
449.36	374.49
449.54	388.53
449.73	397.89
449.91	411.93
450.10	428.32
450.28	458.74
450.46	479.81
450.65	428.32
450.83	435.34
451.02	451.72
451.20	395.55
451.39	362.78
451.57	472.79
451.76	397.89
451.94	428.32
452.13	404.91
452.31	463.43
452.49	320.65
452.68	421.30
452.86	456.40
453.05	390.87
453.23	416.62
453.42	425.98
453.60	440.02
453.78	381.51
453.97	449.38
454.15	411.93
454.34	414.27
454.52	351.08
454.70	451.72
454.89	383.85
455.07	435.34
455.26	402.57
455.44	486.83
455.62	416.62
455.81	430.66
455.99	390.87
456.17	416.62
456.36	395.55
456.54	369.80
456.73	299.59
456.91	425.98
457.09	418.96
457.28	341.72
457.46	390.87
457.64	411.93
457.83	470.45
458.01	451.72
458.19	407.25
458.38	430.66
458.56	411.93
458.74	376.83
458.93	418.96
459.11	440.02
459.29	311.29
459.48	465.77
459.66	346.40
459.84	411.93
460.03	470.45
460.21	379.17
460.39	428.32
460.57	407.25
460.76	365.12
460.94	372.15
461.12	444.70
461.31	442.36
461.49	456.40
461.67	407.25
461.85	416.62
462.04	379.17
462.22	833.23
462.40	423.64
462.59	454.06
462.77	381.51
462.95	390.87
463.13	386.19
463.32	440.02
463.50	447.04
463.68	381.51
463.86	404.91
464.05	409.59
464.23	404.91
464.41	369.80
464.59	376.83
464.78	353.42
464.96	414.27
465.14	416.62
465.32	372.15
465.50	409.59
465.69	383.85
465.87	355.76
466.05	465.77
466.23	430.66
466.41	421.30
466.60	442.36
466.78	416.62
466.96	395.55
467.14	447.04
467.32	435.34
467.51	433.00
467.69	423.64
467.87	414.27
468.05	411.93
468.23	409.59
468.41	418.96
468.60	379.17
468.78	491.51
468.96	407.25
469.14	437.68
469.32	374.49
469.50	355.76
469.69	411.93
469.87	451.72
470.05	360.44
470.23	383.85
470.41	416.62
470.59	360.44
470.77	374.49
470.95	402.57
471.14	416.62
471.32	360.44
471.50	388.53
471.68	409.59
471.86	423.64
472.04	376.83
472.22	292.57
472.40	433.00
472.58	416.62
472.77	393.21
472.95	440.02
473.13	456.40
473.31	444.70
473.49	433.00
473.67	404.91
473.85	451.72
474.03	449.38
474.21	437.68
474.39	404.91
474.57	430.66
474.75	454.06
474.93	409.59
475.12	369.80
475.30	376.83
475.48	414.27
475.66	463.43
475.84	421.30
476.02	409.59
476.20	411.93
476.38	379.17
476.56	472.79
476.74	365.12
476.92	397.89
477.10	416.62
477.28	470.45
477.46	428.32
477.64	456.40
477.82	393.21
478.00	327.68
478.18	381.51
478.36	423.64
478.54	339.38
478.72	442.36
478.90	362.78
479.08	402.57
479.26	372.15
479.44	397.89
479.62	369.80
479.80	454.06
479.98	414.27
480.16	454.06
480.34	430.66
480.52	440.02
480.70	407.25
480.88	451.72
481.06	409.59
481.24	379.17
481.41	386.19
481.59	472.79
481.77	465.77
481.95	418.96
482.13	482.15
482.31	451.72
482.49	390.87
482.67	425.98
482.85	447.04
483.03	421.30
483.21	454.06
483.39	421.30
483.57	313.63
483.74	472.79
483.92	423.64
484.10	393.21
484.28	463.43
484.46	358.10
484.64	386.19
484.82	414.27
485.00	372.15
485.18	388.53
485.35	388.53
485.53	374.49
485.71	470.45
485.89	465.77
486.07	376.83
486.25	500.87
486.43	442.36
486.61	407.25
486.78	440.02
486.96	374.49
487.14	388.53
487.32	367.46
487.50	451.72
487.68	454.06
487.85	451.72
488.03	458.74
488.21	425.98
488.39	353.42
488.57	442.36
488.75	376.83
488.92	519.60
489.10	339.38
489.28	409.59
489.46	479.81
489.64	372.15
489.81	433.00
489.99	430.66
490.17	458.74
490.35	425.98
490.53	428.32
490.70	414.27
490.88	390.87
491.06	425.98
491.24	421.30
491.41	442.36
491.59	388.53
491.77	428.32
491.95	428.32
492.13	393.21
492.30	414.27
492.48	461.09
492.66	425.98
492.84	463.43
493.01	388.53
493.19	411.93
493.37	451.72
493.54	379.17
493.72	451.72
493.90	383.85
494.08	440.02
494.25	365.12
494.43	416.62
494.61	470.45
494.79	330.02
494.96	390.87
495.14	449.38
495.32	386.19
495.49	397.89
495.67	428.32
495.85	475.13
496.02	379.17
496.20	444.70
496.38	404.91
496.55	414.27
496.73	402.57
496.91	376.83
497.09	388.53
497.26	421.30
497.44	416.62
497.62	440.02
497.79	362.78
497.97	383.85
498.14	393.21
498.32	428.32
498.50	383.85
498.67	376.83
498.85	374.49
499.03	418.96
499.20	404.91
499.38	447.04
499.56	383.85
499.73	418.96
499.91	451.72
500.08	479.81
500.26	374.49
500.44	458.74
500.61	411.93
500.79	390.87
500.97	421.30
501.14	468.11
501.32	414.27
501.49	397.89
501.67	440.02
501.84	437.68
502.02	454.06
502.20	470.45
502.37	425.98
502.55	475.13
502.72	386.19
502.90	486.83
503.07	416.62
503.25	383.85
503.43	379.17
503.60	440.02
503.78	425.98
503.95	496.19
504.13	372.15
504.30	458.74
504.48	437.68
504.65	463.43
504.83	416.62
505.01	369.80
505.18	379.17
505.36	447.04
505.53	442.36
505.71	383.85
505.88	433.00
506.06	465.77
506.23	430.66
506.41	381.51
506.58	416.62
506.76	346.40
506.93	411.93
507.11	451.72
507.28	435.34
507.46	430.66
507.63	334.70
507.81	454.06
507.98	465.77
508.16	444.70
508.33	402.57
508.50	379.17
508.68	433.00
508.85	411.93
509.03	362.78
509.20	442.36
509.38	435.34
509.55	458.74
509.73	454.06
509.90	414.27
510.08	407.25
510.25	416.62
510.42	390.87
510.60	468.11
510.77	435.34
510.95	435.34
511.12	376.83
511.30	379.17
511.47	440.02
511.64	458.74
511.82	365.12
511.99	451.72
512.17	367.46
512.34	409.59
512.51	433.00
512.69	390.87
512.86	397.89
513.04	440.02
513.21	409.59
513.38	423.64
513.56	418.96
513.73	411.93
513.90	435.34
514.08	386.19
514.25	435.34
514.43	444.70
514.60	470.45
514.77	475.13
514.95	449.38
515.12	545.34
515.29	437.68
515.47	458.74
515.64	444.70
515.81	423.64
515.99	451.72
516.16	433.00
516.33	540.66
516.51	374.49
516.68	337.04
516.85	418.96
517.03	428.32
517.20	433.00
517.37	486.83
517.54	510.24
517.72	393.21
517.89	423.64
518.06	437.68
518.24	535.98
518.41	440.02
518.58	425.98
518.75	404.91
518.93	418.96
519.10	414.27
519.27	449.38
519.45	411.93
519.62	386.19
519.79	430.66
519.96	362.78
520.14	423.64
520.31	486.83
520.48	449.38
520.65	477.47
520.83	454.06
521.00	393.21
521.17	421.30
521.34	433.00
521.52	482.15
521.69	411.93
521.86	404.91
522.03	463.43
522.20	430.66
522.38	379.17
522.55	510.24
522.72	362.78
522.89	402.57
523.07	486.83
523.24	456.40
523.41	437.68
523.58	421.30
523.75	421.30
523.92	430.66
524.10	411.93
524.27	418.96
524.44	440.02
524.61	477.47
524.78	409.59
524.96	479.81
525.13	512.58
525.30	456.40
525.47	418.96
525.64	449.38
525.81	388.53
525.98	440.02
526.16	428.32
526.33	423.64
526.50	365.12
526.67	376.83
526.84	425.98
527.01	407.25
527.18	468.11
527.36	402.57
527.53	421.30
527.70	456.40
527.87	339.38
528.04	451.72
528.21	395.55
528.38	505.56
528.55	425.98
528.72	503.22
528.89	442.36
529.07	360.44
529.24	444.70
529.41	437.68
529.58	428.32
529.75	482.15
529.92	463.43
530.09	437.68
530.26	404.91
530.43	388.53
530.60	440.02
530.77	430.66
530.94	451.72
531.11	479.81
531.28	407.25
531.46	428.32
531.63	404.91
531.80	463.43
531.97	367.46
532.14	498.53
532.31	400.23
532.48	454.06
532.65	400.23
532.82	376.83
532.99	425.98
533.16	510.24
533.33	428.32
533.50	458.74
533.67	447.04
533.84	482.15
534.01	437.68
534.18	386.19
534.35	489.17
534.52	358.10
534.69	414.27
534.86	449.38
535.03	416.62
535.20	400.23
535.37	423.64
535.54	376.83
535.71	421.30
535.88	421.30
536.05	407.25
536.22	440.02
536.38	435.34
536.55	468.11
536.72	416.62
536.89	395.55
537.06	461.09
537.23	383.85
537.40	365.12
537.57	442.36
537.74	486.83
537.91	454.06
538.08	381.51
538.25	444.70
538.42	376.83
538.59	376.83
538.75	423.64
538.92	507.90
539.09	430.66
539.26	390.87
539.43	402.57
539.60	414.27
539.77	449.38
539.94	440.02
540.11	425.98
540.28	491.51
540.44	491.51
540.61	482.15
540.78	409.59
540.95	383.85
541.12	442.36
541.29	416.62
541.46	465.77
541.62	383.85
541.79	409.59
541.96	444.70
542.13	407.25
542.30	367.46
542.47	414.27
542.63	482.15
542.80	421.30
542.97	414.27
543.14	430.66
543.31	397.89
543.48	482.15
543.64	428.32
543.81	388.53
543.98	442.36
544.15	458.74
544.32	433.00
544.48	456.40
544.65	425.98
544.82	404.91
544.99	395.55
545.16	379.17
545.32	456.40
545.49	369.80
545.66	510.24
545.83	332.36
546.00	482.15
546.16	379.17
546.33	397.89
546.50	400.23
546.67	383.85
546.83	449.38
547.00	393.21
547.17	425.98
547.34	397.89
547.50	346.40
547.67	486.83
547.84	416.62
548.00	397.89
548.17	425.98
548.34	444.70
548.51	358.10
548.67	390.87
548.84	372.15
549.01	477.47
549.18	428.32
549.34	423.64
549.51	386.19
549.68	458.74
549.84	397.89
550.01	386.19
550.18	430.66
550.34	437.68
550.51	442.36
550.68	423.64
550.84	418.96
551.01	444.70
551.18	458.74
551.34	484.49
551.51	451.72
551.68	358.10
551.84	379.17
552.01	397.89
552.18	348.74
552.34	402.57
552.51	379.17
552.68	383.85
552.84	433.00
553.01	386.19
553.18	423.64
553.34	435.34
553.51	414.27
553.67	440.02
553.84	433.00
554.01	383.85
554.17	428.32
554.34	411.93
554.51	409.59
554.67	388.53
554.84	351.08
555.00	475.13
555.17	365.12
555.33	470.45
555.50	423.64
555.67	428.32
555.83	423.64
556.00	383.85
556.16	524.28
556.33	358.10
556.50	402.57
556.66	430.66
556.83	414.27
556.99	369.80
557.16	390.87
557.32	477.47
557.49	400.23
557.65	421.30
557.82	423.64
557.98	437.68
558.15	407.25
558.32	535.98
558.48	461.09
558.65	390.87
558.81	465.77
558.98	430.66
559.14	486.83
559.31	433.00
559.47	477.47
559.64	475.13
559.80	423.64
559.97	465.77
560.13	425.98
560.30	404.91
560.46	407.25
560.63	376.83
560.79	451.72
560.96	444.70
561.12	435.34
561.29	484.49
561.45	437.68
561.61	404.91
561.78	451.72
561.94	482.15
562.11	430.66
562.27	440.02
562.44	416.62
562.60	433.00
562.77	491.51
562.93	461.09
563.10	433.00
563.26	397.89
563.42	425.98
563.59	435.34
563.75	351.08
563.92	381.51
564.08	440.02
564.24	447.04
564.41	468.11
564.57	395.55
564.74	486.83
564.90	407.25
565.07	428.32
565.23	444.70
565.39	362.78
565.56	374.49
565.72	397.89
565.88	451.72
566.05	430.66
566.21	440.02
566.38	379.17
566.54	451.72
566.70	461.09
566.87	367.46
567.03	367.46
567.19	402.57
567.36	418.96
567.52	395.55
567.68	475.13
567.85	421.30
568.01	472.79
568.17	454.06
568.34	416.62
568.50	393.21
568.66	379.17
568.83	454.06
568.99	374.49
569.15	440.02
569.32	447.04
569.48	372.15
569.64	423.64
569.81	379.17
569.97	421.30
570.13	418.96
570.30	447.04
570.46	440.02
570.62	421.30
570.78	442.36
570.95	505.56
571.11	470.45
571.27	489.17
571.43	388.53
571.60	346.40
571.76	374.49
571.92	421.30
572.09	416.62
572.25	433.00
572.41	407.25
572.57	407.25
572.74	428.32
572.90	404.91
573.06	374.49
573.22	386.19
573.38	472.79
573.55	421.30
573.71	449.38
573.87	397.89
574.03	411.93
574.20	400.23
574.36	411.93
574.52	430.66
574.68	414.27
574.84	418.96
575.01	418.96
575.17	404.91
575.33	454.06
575.49	433.00
575.65	390.87
575.82	435.34
575.98	421.30
576.14	416.62
576.30	388.53
576.46	435.34
576.62	442.36
576.79	430.66
576.95	489.17
577.11	337.04
577.27	330.02
577.43	411.93
577.59	440.02
577.75	425.98
577.92	430.66
578.08	475.13
578.24	442.36
578.40	463.43
578.56	477.47
578.72	479.81
578.88	374.49
579.04	440.02
579.21	402.57
579.37	451.72
579.53	381.51
579.69	421.30
579.85	435.34
580.01	440.02
580.17	372.15
580.33	358.10
580.49	414.27
580.65	447.04
580.82	400.23
580.98	376.83
581.14	414.27
581.30	440.02
581.46	468.11
581.62	451.72
581.78	379.17
581.94	409.59
582.10	388.53
582.26	416.62
582.42	362.78
582.58	430.66
582.74	383.85
582.90	463.43
583.06	449.38
583.22	418.96
583.38	456.40
583.54	395.55
583.70	484.49
583.86	472.79
584.02	472.79
584.18	465.77
584.34	407.25
584.50	463.43
584.66	428.32
584.82	435.34
584.98	437.68
585.14	475.13
585.30	402.57
585.46	421.30
585.62	505.56
585.78	416.62
585.94	440.02
586.10	428.32
586.26	416.62
586.42	489.17
586.58	458.74
586.74	409.59
586.90	362.78
587.06	395.55
587.22	449.38
587.38	409.59
587.54	430.66
587.70	367.46
587.86	472.79
588.02	411.93
588.18	463.43
588.34	442.36
588.49	428.32
588.65	327.68
588.81	444.70
588.97	325.33
589.13	381.51
589.29	421.30
589.45	414.27
589.61	423.64
589.77	486.83
589.93	425.98
590.08	411.93
590.24	379.17
590.40	423.64
590.56	470.45
590.72	425.98
590.88	388.53
591.04	414.27
591.20	461.09
591.35	447.04
591.51	376.83
591.67	437.68
591.83	425.98
591.99	442.36
592.15	411.93
592.31	447.04
592.46	430.66
592.62	449.38
592.78	418.96
592.94	435.34
593.10	447.04
593.26	386.19
593.41	472.79
593.57	414.27
593.73	388.53
593.89	428.32
594.05	468.11
594.20	428.32
594.36	454.06
594.52	393.21
594.68	421.30
594.84	390.87
594.99	451.72
595.15	430.66
595.31	428.32
595.47	510.24
595.62	442.36
595.78	386.19
595.94	367.46
596.10	409.59
596.25	454.06
596.41	477.47
596.57	386.19
596.73	430.66
596.88	505.56
597.04	458.74
597.20	407.25
597.36	454.06
597.51	400.23
597.67	386.19
597.83	458.74
597.99	402.57
598.14	418.96
598.30	465.77
598.46	397.89
598.61	437.68
598.77	416.62
598.93	444.70
599.09	411.93
599.24	404.91
599.40	423.64
599.56	423.64
599.71	407.25
599.87	465.77
600.03	421.30
600.18	418.96
600.34	365.12
600.50	365.12
600.65	409.59
600.81	475.13
600.97	454.06
601.12	381.51
601.28	437.68
601.44	404.91
601.59	397.89
601.75	390.87
601.91	381.51
602.06	430.66
602.22	423.64
602.37	475.13
602.53	397.89
602.69	397.89
602.84	411.93
603.00	442.36
603.16	428.32
603.31	475.13
603.47	409.59
603.62	353.42
603.78	433.00
603.94	400.23
604.09	414.27
604.25	437.68
604.40	428.32
604.56	449.38
604.71	416.62
604.87	372.15
605.03	482.15
605.18	477.47
605.34	435.34
605.49	451.72
605.65	386.19
605.80	379.17
605.96	463.43
606.12	472.79
606.27	428.32
606.43	430.66
606.58	346.40
606.74	390.87
606.89	463.43
607.05	411.93
607.20	512.58
607.36	367.46
607.51	376.83
607.67	444.70
607.82	395.55
607.98	479.81
608.13	369.80
608.29	395.55
608.44	489.17
608.60	465.77
608.75	458.74
608.91	507.90
609.06	461.09
609.22	376.83
609.37	423.64
609.53	440.02
609.68	383.85
609.84	365.12
609.99	428.32
610.15	409.59
