SpectraSuite Data File
++++++++++++++++++++++++++++++++++++
Date: Fri Oct 25 12:10:20 EDT 2013
User: price-jones
Dark Spectrum Present: No
Reference Spectrum Present: No
Number of Sampled Component Spectra: 1
Spectrometers: USB2+H05261
Integration Time (usec): 100000 (USB2+H05261)
Spectra Averaged: 1 (USB2+H05261)
Boxcar Smoothing: 0 (USB2+H05261)
Correct for Electrical Dark: No (USB2+H05261)
Strobe/Lamp Enabled: No (USB2+H05261)
Correct for Detector Non-linearity: No (USB2+H05261)
Correct for Stray Light: No (USB2+H05261)
Number of Pixels in Processed Spectrum: 2048
>>>>>Begin Processed Spectral Data<<<<<
365.73	322.99
365.92	322.99
366.12	322.99
366.32	248.10
366.52	182.56
366.72	264.48
366.91	262.14
367.11	297.25
367.31	182.56
367.51	212.99
367.70	215.33
367.90	318.31
368.10	184.90
368.30	187.24
368.49	227.03
368.69	276.18
368.89	224.69
369.09	271.50
369.28	208.31
369.48	250.44
369.68	255.12
369.87	280.86
370.07	355.76
370.27	351.08
370.47	351.08
370.66	348.74
370.86	355.76
371.06	414.27
371.25	402.57
371.45	400.23
371.65	388.53
371.84	440.02
372.04	348.74
372.24	355.76
372.44	376.83
372.63	393.21
372.83	470.45
373.03	390.87
373.22	418.96
373.42	400.23
373.62	393.21
373.81	379.17
374.01	430.66
374.21	414.27
374.40	407.25
374.60	423.64
374.79	374.49
374.99	400.23
375.19	407.25
375.38	479.81
375.58	418.96
375.78	381.51
375.97	402.57
376.17	404.91
376.37	376.83
376.56	397.89
376.76	386.19
376.95	372.15
377.15	449.38
377.35	428.32
377.54	449.38
377.74	414.27
377.93	468.11
378.13	372.15
378.33	442.36
378.52	414.27
378.72	421.30
378.91	395.55
379.11	390.87
379.31	411.93
379.50	355.76
379.70	470.45
379.89	400.23
380.09	425.98
380.28	308.95
380.48	353.42
380.68	355.76
380.87	372.15
381.07	454.06
381.26	390.87
381.46	334.70
381.65	461.09
381.85	425.98
382.04	374.49
382.24	404.91
382.43	411.93
382.63	372.15
382.83	383.85
383.02	449.38
383.22	454.06
383.41	447.04
383.61	461.09
383.80	418.96
384.00	348.74
384.19	339.38
384.39	416.62
384.58	423.64
384.78	402.57
384.97	409.59
385.17	395.55
385.36	456.40
385.56	360.44
385.75	379.17
385.95	402.57
386.14	421.30
386.34	397.89
386.53	353.42
386.72	355.76
386.92	458.74
387.11	369.80
387.31	372.15
387.50	407.25
387.70	390.87
387.89	402.57
388.09	334.70
388.28	362.78
388.48	416.62
388.67	423.64
388.86	393.21
389.06	395.55
389.25	444.70
389.45	379.17
389.64	365.12
389.84	479.81
390.03	425.98
390.22	442.36
390.42	404.91
390.61	433.00
390.81	332.36
391.00	433.00
391.19	423.64
391.39	379.17
391.58	425.98
391.78	388.53
391.97	430.66
392.16	451.72
392.36	416.62
392.55	393.21
392.75	496.19
392.94	397.89
393.13	428.32
393.33	390.87
393.52	365.12
393.71	407.25
393.91	400.23
394.10	379.17
394.29	433.00
394.49	365.12
394.68	355.76
394.88	433.00
395.07	381.51
395.26	421.30
395.46	449.38
395.65	423.64
395.84	482.15
396.04	496.19
396.23	449.38
396.42	362.78
396.62	379.17
396.81	425.98
397.00	444.70
397.19	416.62
397.39	477.47
397.58	479.81
397.77	341.72
397.97	362.78
398.16	444.70
398.35	435.34
398.55	409.59
398.74	369.80
398.93	402.57
399.12	383.85
399.32	395.55
399.51	482.15
399.70	430.66
399.90	386.19
400.09	428.32
400.28	414.27
400.47	411.93
400.67	423.64
400.86	386.19
401.05	393.21
401.24	372.15
401.44	435.34
401.63	496.19
401.82	447.04
402.01	470.45
402.21	435.34
402.40	381.51
402.59	381.51
402.78	390.87
402.97	451.72
403.17	376.83
403.36	402.57
403.55	409.59
403.74	348.74
403.93	348.74
404.13	433.00
404.32	358.10
404.51	421.30
404.70	458.74
404.89	376.83
405.09	421.30
405.28	482.15
405.47	358.10
405.66	358.10
405.85	367.46
406.05	388.53
406.24	395.55
406.43	435.34
406.62	416.62
406.81	414.27
407.00	397.89
407.20	477.47
407.39	442.36
407.58	409.59
407.77	440.02
407.96	465.77
408.15	447.04
408.34	489.17
408.54	390.87
408.73	418.96
408.92	383.85
409.11	421.30
409.30	381.51
409.49	372.15
409.68	400.23
409.87	367.46
410.07	425.98
410.26	409.59
410.45	334.70
410.64	393.21
410.83	414.27
411.02	376.83
411.21	393.21
411.40	468.11
411.59	365.12
411.78	437.68
411.98	421.30
412.17	442.36
412.36	376.83
412.55	318.31
412.74	411.93
412.93	458.74
413.12	390.87
413.31	423.64
413.50	440.02
413.69	411.93
413.88	463.43
414.07	418.96
414.26	327.68
414.45	381.51
414.64	449.38
414.83	379.17
415.02	430.66
415.22	458.74
415.41	414.27
415.60	390.87
415.79	395.55
415.98	390.87
416.17	458.74
416.36	411.93
416.55	407.25
416.74	402.57
416.93	430.66
417.12	376.83
417.31	418.96
417.50	416.62
417.69	411.93
417.88	367.46
418.07	386.19
418.26	374.49
418.45	374.49
418.64	428.32
418.83	456.40
419.02	440.02
419.21	423.64
419.39	428.32
419.58	411.93
419.77	407.25
419.96	440.02
420.15	442.36
420.34	421.30
420.53	348.74
420.72	468.11
420.91	395.55
421.10	468.11
421.29	414.27
421.48	496.19
421.67	442.36
421.86	390.87
422.05	444.70
422.24	395.55
422.43	395.55
422.61	435.34
422.80	407.25
422.99	402.57
423.18	358.10
423.37	346.40
423.56	423.64
423.75	444.70
423.94	423.64
424.13	407.25
424.32	365.12
424.50	440.02
424.69	442.36
424.88	425.98
425.07	433.00
425.26	400.23
425.45	435.34
425.64	395.55
425.83	367.46
426.01	491.51
426.20	400.23
426.39	423.64
426.58	346.40
426.77	404.91
426.96	409.59
427.15	425.98
427.33	433.00
427.52	449.38
427.71	411.93
427.90	372.15
428.09	379.17
428.28	383.85
428.46	348.74
428.65	444.70
428.84	428.32
429.03	435.34
429.22	379.17
429.40	379.17
429.59	374.49
429.78	386.19
429.97	404.91
430.16	339.38
430.34	440.02
430.53	397.89
430.72	449.38
430.91	421.30
431.10	472.79
431.28	454.06
431.47	491.51
431.66	461.09
431.85	418.96
432.03	390.87
432.22	402.57
432.41	404.91
432.60	454.06
432.79	411.93
432.97	393.21
433.16	437.68
433.35	337.04
433.54	449.38
433.72	486.83
433.91	437.68
434.10	440.02
434.28	402.57
434.47	379.17
434.66	440.02
434.85	416.62
435.03	491.51
435.22	505.56
435.41	444.70
435.59	409.59
435.78	346.40
435.97	449.38
436.16	414.27
436.34	365.12
436.53	365.12
436.72	444.70
436.90	383.85
437.09	416.62
437.28	465.77
437.46	440.02
437.65	416.62
437.84	365.12
438.02	433.00
438.21	444.70
438.40	437.68
438.58	425.98
438.77	393.21
438.96	416.62
439.14	402.57
439.33	425.98
439.52	470.45
439.70	437.68
439.89	416.62
440.08	428.32
440.26	458.74
440.45	407.25
440.63	407.25
440.82	393.21
441.01	388.53
441.19	423.64
441.38	369.80
441.57	355.76
441.75	381.51
441.94	402.57
442.12	411.93
442.31	468.11
442.50	416.62
442.68	400.23
442.87	411.93
443.05	365.12
443.24	425.98
443.43	411.93
443.61	433.00
443.80	433.00
443.98	374.49
444.17	433.00
444.35	489.17
444.54	442.36
444.73	390.87
444.91	381.51
445.10	409.59
445.28	440.02
445.47	369.80
445.65	433.00
445.84	425.98
446.02	421.30
446.21	451.72
446.39	383.85
446.58	475.13
446.77	395.55
446.95	468.11
447.14	404.91
447.32	437.68
447.51	360.44
447.69	400.23
447.88	465.77
448.06	500.87
448.25	512.58
448.43	395.55
448.62	369.80
448.80	482.15
448.99	402.57
449.17	346.40
449.36	344.06
449.54	372.15
449.73	435.34
449.91	418.96
450.10	386.19
450.28	414.27
450.46	404.91
450.65	423.64
450.83	383.85
451.02	383.85
451.20	376.83
451.39	404.91
451.57	400.23
451.76	365.12
451.94	449.38
452.13	411.93
452.31	496.19
452.49	411.93
452.68	386.19
452.86	472.79
453.05	451.72
453.23	353.42
453.42	407.25
453.60	362.78
453.78	435.34
453.97	397.89
454.15	351.08
454.34	365.12
454.52	376.83
454.70	484.49
454.89	479.81
455.07	465.77
455.26	400.23
455.44	390.87
455.62	386.19
455.81	409.59
455.99	435.34
456.17	393.21
456.36	421.30
456.54	437.68
456.73	449.38
456.91	362.78
457.09	358.10
457.28	292.57
457.46	407.25
457.64	433.00
457.83	376.83
458.01	383.85
458.19	491.51
458.38	428.32
458.56	409.59
458.74	339.38
458.93	468.11
459.11	407.25
459.29	451.72
459.48	369.80
459.66	376.83
459.84	421.30
460.03	430.66
460.21	442.36
460.39	461.09
460.57	400.23
460.76	390.87
460.94	435.34
461.12	493.85
461.31	505.56
461.49	374.49
461.67	379.17
461.85	402.57
462.04	400.23
462.22	760.67
462.40	484.49
462.59	454.06
462.77	379.17
462.95	416.62
463.13	465.77
463.32	482.15
463.50	430.66
463.68	404.91
463.86	344.06
464.05	358.10
464.23	433.00
464.41	479.81
464.59	435.34
464.78	388.53
464.96	344.06
465.14	449.38
465.32	393.21
465.50	430.66
465.69	409.59
465.87	416.62
466.05	447.04
466.23	374.49
466.41	393.21
466.60	435.34
466.78	374.49
466.96	442.36
467.14	353.42
467.32	358.10
467.51	372.15
467.69	416.62
467.87	374.49
468.05	447.04
468.23	411.93
468.41	437.68
468.60	416.62
468.78	421.30
468.96	395.55
469.14	447.04
469.32	395.55
469.50	376.83
469.69	451.72
469.87	489.17
470.05	433.00
470.23	395.55
470.41	428.32
470.59	451.72
470.77	348.74
470.95	444.70
471.14	416.62
471.32	454.06
471.50	397.89
471.68	437.68
471.86	442.36
472.04	369.80
472.22	369.80
472.40	388.53
472.58	355.76
472.77	374.49
472.95	416.62
473.13	500.87
473.31	468.11
473.49	388.53
473.67	360.44
473.85	433.00
474.03	421.30
474.21	435.34
474.39	468.11
474.57	402.57
474.75	409.59
474.93	388.53
475.12	409.59
475.30	386.19
475.48	421.30
475.66	440.02
475.84	402.57
476.02	407.25
476.20	465.77
476.38	390.87
476.56	437.68
476.74	444.70
476.92	454.06
477.10	390.87
477.28	393.21
477.46	428.32
477.64	388.53
477.82	355.76
478.00	393.21
478.18	409.59
478.36	447.04
478.54	360.44
478.72	397.89
478.90	402.57
479.08	362.78
479.26	414.27
479.44	379.17
479.62	322.99
479.80	395.55
479.98	381.51
480.16	381.51
480.34	390.87
480.52	341.72
480.70	397.89
480.88	355.76
481.06	461.09
481.24	374.49
481.41	322.99
481.59	482.15
481.77	418.96
481.95	404.91
482.13	390.87
482.31	397.89
482.49	397.89
482.67	437.68
482.85	383.85
483.03	437.68
483.21	470.45
483.39	444.70
483.57	435.34
483.74	447.04
483.92	351.08
484.10	400.23
484.28	411.93
484.46	440.02
484.64	465.77
484.82	428.32
485.00	425.98
485.18	430.66
485.35	372.15
485.53	386.19
485.71	437.68
485.89	372.15
486.07	365.12
486.25	493.85
486.43	341.72
486.61	411.93
486.78	407.25
486.96	390.87
487.14	440.02
487.32	407.25
487.50	393.21
487.68	465.77
487.85	409.59
488.03	423.64
488.21	451.72
488.39	395.55
488.57	418.96
488.75	379.17
488.92	456.40
489.10	381.51
489.28	461.09
489.46	423.64
489.64	428.32
489.81	369.80
489.99	416.62
490.17	376.83
490.35	475.13
490.53	411.93
490.70	379.17
490.88	430.66
491.06	379.17
491.24	447.04
491.41	447.04
491.59	440.02
491.77	344.06
491.95	435.34
492.13	411.93
492.30	442.36
492.48	404.91
492.66	409.59
492.84	411.93
493.01	358.10
493.19	404.91
493.37	409.59
493.54	447.04
493.72	425.98
493.90	381.51
494.08	393.21
494.25	421.30
494.43	360.44
494.61	388.53
494.79	477.47
494.96	351.08
495.14	383.85
495.32	440.02
495.49	449.38
495.67	475.13
495.85	411.93
496.02	414.27
496.20	404.91
496.38	402.57
496.55	423.64
496.73	390.87
496.91	416.62
497.09	456.40
497.26	444.70
497.44	383.85
497.62	388.53
497.79	353.42
497.97	383.85
498.14	484.49
498.32	458.74
498.50	376.83
498.67	433.00
498.85	404.91
499.03	435.34
499.20	393.21
499.38	393.21
499.56	435.34
499.73	510.24
499.91	472.79
500.08	409.59
500.26	437.68
500.44	411.93
500.61	440.02
500.79	381.51
500.97	404.91
501.14	407.25
501.32	423.64
501.49	400.23
501.67	365.12
501.84	433.00
502.02	425.98
502.20	379.17
502.37	404.91
502.55	381.51
502.72	418.96
502.90	444.70
503.07	404.91
503.25	379.17
503.43	447.04
503.60	435.34
503.78	482.15
503.95	376.83
504.13	425.98
504.30	470.45
504.48	510.24
504.65	479.81
504.83	472.79
505.01	444.70
505.18	365.12
505.36	386.19
505.53	400.23
505.71	479.81
505.88	379.17
506.06	407.25
506.23	402.57
506.41	451.72
506.58	414.27
506.76	386.19
506.93	386.19
507.11	416.62
507.28	428.32
507.46	468.11
507.63	440.02
507.81	421.30
507.98	393.21
508.16	395.55
508.33	393.21
508.50	388.53
508.68	454.06
508.85	433.00
509.03	435.34
509.20	404.91
509.38	416.62
509.55	458.74
509.73	381.51
509.90	456.40
510.08	433.00
510.25	433.00
510.42	341.72
510.60	402.57
510.77	465.77
510.95	430.66
511.12	353.42
511.30	435.34
511.47	379.17
511.64	444.70
511.82	397.89
511.99	383.85
512.17	376.83
512.34	395.55
512.51	390.87
512.69	423.64
512.86	390.87
513.04	362.78
513.21	409.59
513.38	411.93
513.56	404.91
513.73	423.64
513.90	496.19
514.08	461.09
514.25	411.93
514.43	440.02
514.60	404.91
514.77	521.94
514.95	411.93
515.12	348.74
515.29	379.17
515.47	395.55
515.64	334.70
515.81	390.87
515.99	351.08
516.16	381.51
516.33	330.02
516.51	355.76
516.68	402.57
516.85	437.68
517.03	442.36
517.20	428.32
517.37	423.64
517.54	400.23
517.72	383.85
517.89	416.62
518.06	355.76
518.24	433.00
518.41	425.98
518.58	472.79
518.75	468.11
518.93	395.55
519.10	461.09
519.27	418.96
519.45	428.32
519.62	386.19
519.79	435.34
519.96	416.62
520.14	400.23
520.31	468.11
520.48	428.32
520.65	449.38
520.83	421.30
521.00	379.17
521.17	390.87
521.34	362.78
521.52	414.27
521.69	374.49
521.86	374.49
522.03	367.46
522.20	433.00
522.38	435.34
522.55	327.68
522.72	428.32
522.89	402.57
523.07	479.81
523.24	386.19
523.41	362.78
523.58	451.72
523.75	411.93
523.92	404.91
524.10	421.30
524.27	430.66
524.44	451.72
524.61	395.55
524.78	400.23
524.96	411.93
525.13	400.23
525.30	435.34
525.47	440.02
525.64	397.89
525.81	355.76
525.98	376.83
526.16	381.51
526.33	430.66
526.50	402.57
526.67	390.87
526.84	409.59
527.01	418.96
527.18	416.62
527.36	360.44
527.53	414.27
527.70	430.66
527.87	395.55
528.04	411.93
528.21	346.40
528.38	430.66
528.55	409.59
528.72	407.25
528.89	454.06
529.07	491.51
529.24	475.13
529.41	421.30
529.58	404.91
529.75	407.25
529.92	416.62
530.09	407.25
530.26	433.00
530.43	433.00
530.60	414.27
530.77	470.45
530.94	423.64
531.11	355.76
531.28	402.57
531.46	423.64
531.63	369.80
531.80	388.53
531.97	475.13
532.14	330.02
532.31	386.19
532.48	416.62
532.65	400.23
532.82	425.98
532.99	416.62
533.16	475.13
533.33	433.00
533.50	470.45
533.67	437.68
533.84	470.45
534.01	468.11
534.18	433.00
534.35	383.85
534.52	360.44
534.69	451.72
534.86	381.51
535.03	433.00
535.20	421.30
535.37	465.77
535.54	451.72
535.71	393.21
535.88	437.68
536.05	461.09
536.22	428.32
536.38	390.87
536.55	402.57
536.72	425.98
536.89	390.87
537.06	433.00
537.23	454.06
537.40	381.51
537.57	440.02
537.74	414.27
537.91	444.70
538.08	379.17
538.25	428.32
538.42	428.32
538.59	425.98
538.75	421.30
538.92	411.93
539.09	400.23
539.26	379.17
539.43	390.87
539.60	365.12
539.77	395.55
539.94	404.91
540.11	444.70
540.28	414.27
540.44	379.17
540.61	388.53
540.78	376.83
540.95	468.11
541.12	503.22
541.29	400.23
541.46	447.04
541.62	402.57
541.79	411.93
541.96	440.02
542.13	386.19
542.30	355.76
542.47	416.62
542.63	376.83
542.80	395.55
542.97	418.96
543.14	425.98
543.31	407.25
543.48	376.83
543.64	442.36
543.81	388.53
543.98	381.51
544.15	332.36
544.32	437.68
544.48	395.55
544.65	376.83
544.82	339.38
544.99	433.00
545.16	470.45
545.32	395.55
545.49	416.62
545.66	416.62
545.83	433.00
546.00	449.38
546.16	395.55
546.33	358.10
546.50	372.15
546.67	493.85
546.83	430.66
547.00	421.30
547.17	407.25
547.34	395.55
547.50	430.66
547.67	437.68
547.84	381.51
548.00	400.23
548.17	451.72
548.34	400.23
548.51	402.57
548.67	477.47
548.84	470.45
549.01	418.96
549.18	388.53
549.34	430.66
549.51	442.36
549.68	386.19
549.84	435.34
550.01	428.32
550.18	437.68
550.34	433.00
550.51	423.64
550.68	369.80
550.84	388.53
551.01	402.57
551.18	456.40
551.34	400.23
551.51	447.04
551.68	447.04
551.84	353.42
552.01	372.15
552.18	400.23
552.34	404.91
552.51	468.11
552.68	369.80
552.84	425.98
553.01	360.44
553.18	418.96
553.34	393.21
553.51	421.30
553.67	386.19
553.84	428.32
554.01	428.32
554.17	411.93
554.34	372.15
554.51	472.79
554.67	454.06
554.84	414.27
555.00	409.59
555.17	414.27
555.33	430.66
555.50	353.42
555.67	440.02
555.83	386.19
556.00	332.36
556.16	498.53
556.33	468.11
556.50	409.59
556.66	355.76
556.83	388.53
556.99	416.62
557.16	334.70
557.32	461.09
557.49	395.55
557.65	411.93
557.82	458.74
557.98	395.55
558.15	402.57
558.32	458.74
558.48	416.62
558.65	482.15
558.81	440.02
558.98	409.59
559.14	440.02
559.31	407.25
559.47	465.77
559.64	355.76
559.80	402.57
559.97	400.23
560.13	421.30
560.30	400.23
560.46	472.79
560.63	435.34
560.79	367.46
560.96	358.10
561.12	346.40
561.29	414.27
561.45	411.93
561.61	376.83
561.78	496.19
561.94	461.09
562.11	344.06
562.27	500.87
562.44	390.87
562.60	418.96
562.77	440.02
562.93	454.06
563.10	421.30
563.26	463.43
563.42	444.70
563.59	416.62
563.75	407.25
563.92	449.38
564.08	507.90
564.24	407.25
564.41	533.64
564.57	395.55
564.74	418.96
564.90	397.89
565.07	458.74
565.23	322.99
565.39	433.00
565.56	503.22
565.72	498.53
565.88	449.38
566.05	407.25
566.21	421.30
566.38	435.34
566.54	379.17
566.70	409.59
566.87	388.53
567.03	425.98
567.19	421.30
567.36	372.15
567.52	351.08
567.68	407.25
567.85	390.87
568.01	458.74
568.17	430.66
568.34	421.30
568.50	440.02
568.66	421.30
568.83	461.09
568.99	383.85
569.15	475.13
569.32	393.21
569.48	486.83
569.64	430.66
569.81	442.36
569.97	472.79
570.13	451.72
570.30	334.70
570.46	374.49
570.62	416.62
570.78	397.89
570.95	414.27
571.11	465.77
571.27	447.04
571.43	428.32
571.60	390.87
571.76	435.34
571.92	386.19
572.09	362.78
572.25	468.11
572.41	411.93
572.57	365.12
572.74	463.43
572.90	440.02
573.06	423.64
573.22	500.87
573.38	383.85
573.55	421.30
573.71	397.89
573.87	433.00
574.03	449.38
574.20	381.51
574.36	372.15
574.52	404.91
574.68	397.89
574.84	360.44
575.01	369.80
575.17	379.17
575.33	447.04
575.49	465.77
575.65	400.23
575.82	397.89
575.98	402.57
576.14	381.51
576.30	358.10
576.46	351.08
576.62	442.36
576.79	388.53
576.95	393.21
577.11	341.72
577.27	402.57
577.43	449.38
577.59	442.36
577.75	472.79
577.92	402.57
578.08	393.21
578.24	465.77
578.40	479.81
578.56	507.90
578.72	411.93
578.88	411.93
579.04	407.25
579.21	411.93
579.37	425.98
579.53	411.93
579.69	465.77
579.85	381.51
580.01	423.64
580.17	407.25
580.33	376.83
580.49	395.55
580.65	468.11
580.82	414.27
580.98	379.17
581.14	369.80
581.30	491.51
581.46	451.72
581.62	407.25
581.78	416.62
581.94	447.04
582.10	383.85
582.26	437.68
582.42	458.74
582.58	430.66
582.74	400.23
582.90	407.25
583.06	416.62
583.22	393.21
583.38	388.53
583.54	430.66
583.70	470.45
583.86	411.93
584.02	421.30
584.18	414.27
584.34	423.64
584.50	447.04
584.66	425.98
584.82	437.68
584.98	348.74
585.14	376.83
585.30	484.49
585.46	496.19
585.62	388.53
585.78	449.38
585.94	449.38
586.10	400.23
586.26	416.62
586.42	416.62
586.58	451.72
586.74	456.40
586.90	463.43
587.06	400.23
587.22	470.45
587.38	393.21
587.54	402.57
587.70	440.02
587.86	489.17
588.02	320.65
588.18	358.10
588.34	451.72
588.49	400.23
588.65	414.27
588.81	435.34
588.97	332.36
589.13	411.93
589.29	425.98
589.45	440.02
589.61	433.00
589.77	423.64
589.93	358.10
590.08	435.34
590.24	344.06
590.40	421.30
590.56	423.64
590.72	395.55
590.88	397.89
591.04	367.46
591.20	472.79
591.35	470.45
591.51	463.43
591.67	437.68
591.83	372.15
591.99	433.00
592.15	458.74
592.31	425.98
592.46	330.02
592.62	496.19
592.78	411.93
592.94	365.12
593.10	388.53
593.26	437.68
593.41	425.98
593.57	484.49
593.73	435.34
593.89	468.11
594.05	461.09
594.20	456.40
594.36	416.62
594.52	454.06
594.68	376.83
594.84	409.59
594.99	475.13
595.15	404.91
595.31	365.12
595.47	458.74
595.62	346.40
595.78	297.25
595.94	367.46
596.10	465.77
596.25	454.06
596.41	425.98
596.57	402.57
596.73	463.43
596.88	524.28
597.04	444.70
597.20	402.57
597.36	418.96
597.51	395.55
597.67	404.91
597.83	411.93
597.99	489.17
598.14	423.64
598.30	440.02
598.46	388.53
598.61	386.19
598.77	456.40
598.93	428.32
599.09	383.85
599.24	358.10
599.40	437.68
599.56	423.64
599.71	362.78
599.87	383.85
600.03	397.89
600.18	433.00
600.34	475.13
600.50	400.23
600.65	425.98
600.81	437.68
600.97	404.91
601.12	470.45
601.28	435.34
601.44	454.06
601.59	386.19
601.75	374.49
601.91	416.62
602.06	437.68
602.22	470.45
602.37	589.82
602.53	444.70
602.69	430.66
602.84	348.74
603.00	393.21
603.16	425.98
603.31	421.30
603.47	433.00
603.62	449.38
603.78	388.53
603.94	421.30
604.09	411.93
604.25	435.34
604.40	367.46
604.56	395.55
604.71	425.98
604.87	414.27
605.03	477.47
605.18	461.09
605.34	461.09
605.49	379.17
605.65	468.11
605.80	486.83
605.96	386.19
606.12	447.04
606.27	437.68
606.43	465.77
606.58	407.25
606.74	449.38
606.89	376.83
607.05	437.68
607.20	444.70
607.36	418.96
607.51	500.87
607.67	393.21
607.82	430.66
607.98	461.09
608.13	344.06
608.29	360.44
608.44	440.02
608.60	395.55
608.75	458.74
608.91	458.74
609.06	440.02
609.22	447.04
609.37	421.30
609.53	421.30
609.68	376.83
609.84	367.46
609.99	311.29
610.15	397.89
