SpectraSuite Data File
++++++++++++++++++++++++++++++++++++
Date: Fri Oct 25 12:11:26 EDT 2013
User: price-jones
Dark Spectrum Present: No
Reference Spectrum Present: No
Number of Sampled Component Spectra: 1
Spectrometers: USB2+H05261
Integration Time (usec): 100000 (USB2+H05261)
Spectra Averaged: 1 (USB2+H05261)
Boxcar Smoothing: 0 (USB2+H05261)
Correct for Electrical Dark: No (USB2+H05261)
Strobe/Lamp Enabled: No (USB2+H05261)
Correct for Detector Non-linearity: No (USB2+H05261)
Correct for Stray Light: No (USB2+H05261)
Number of Pixels in Processed Spectrum: 2048
>>>>>Begin Processed Spectral Data<<<<<
365.73	351.08
365.92	351.08
366.12	351.08
366.32	245.76
366.52	231.71
366.72	266.82
366.91	259.80
367.11	227.03
367.31	264.48
367.51	276.18
367.70	262.14
367.90	290.23
368.10	250.44
368.30	208.31
368.49	229.37
368.69	294.91
368.89	212.99
369.09	250.44
369.28	215.33
369.48	325.33
369.68	297.25
369.87	292.57
370.07	318.31
370.27	320.65
370.47	353.42
370.66	369.80
370.86	348.74
371.06	400.23
371.25	414.27
371.45	369.80
371.65	449.38
371.84	355.76
372.04	374.49
372.24	386.19
372.44	379.17
372.63	372.15
372.83	428.32
373.03	444.70
373.22	390.87
373.42	369.80
373.62	360.44
373.81	414.27
374.01	468.11
374.21	514.92
374.40	411.93
374.60	411.93
374.79	393.21
374.99	376.83
375.19	400.23
375.38	421.30
375.58	395.55
375.78	440.02
375.97	484.49
376.17	484.49
376.37	390.87
376.56	381.51
376.76	379.17
376.95	428.32
377.15	454.06
377.35	421.30
377.54	421.30
377.74	341.72
377.93	355.76
378.13	409.59
378.33	400.23
378.52	407.25
378.72	442.36
378.91	355.76
379.11	374.49
379.31	416.62
379.50	421.30
379.70	369.80
379.89	383.85
380.09	411.93
380.28	355.76
380.48	482.15
380.68	376.83
380.87	433.00
381.07	407.25
381.26	444.70
381.46	397.89
381.65	435.34
381.85	381.51
382.04	358.10
382.24	402.57
382.43	374.49
382.63	390.87
382.83	388.53
383.02	461.09
383.22	409.59
383.41	425.98
383.61	421.30
383.80	465.77
384.00	365.12
384.19	416.62
384.39	376.83
384.58	341.72
384.78	465.77
384.97	351.08
385.17	369.80
385.36	430.66
385.56	308.95
385.75	517.26
385.95	360.44
386.14	414.27
386.34	397.89
386.53	353.42
386.72	402.57
386.92	367.46
387.11	369.80
387.31	416.62
387.50	355.76
387.70	353.42
387.89	365.12
388.09	376.83
388.28	465.77
388.48	367.46
388.67	465.77
388.86	386.19
389.06	386.19
389.25	433.00
389.45	369.80
389.64	369.80
389.84	418.96
390.03	421.30
390.22	416.62
390.42	418.96
390.61	320.65
390.81	435.34
391.00	393.21
391.19	428.32
391.39	355.76
391.58	411.93
391.78	358.10
391.97	400.23
392.16	379.17
392.36	493.85
392.55	397.89
392.75	353.42
392.94	444.70
393.13	383.85
393.33	395.55
393.52	369.80
393.71	379.17
393.91	411.93
394.10	395.55
394.29	409.59
394.49	362.78
394.68	409.59
394.88	404.91
395.07	470.45
395.26	365.12
395.46	397.89
395.65	411.93
395.84	360.44
396.04	465.77
396.23	430.66
396.42	318.31
396.62	407.25
396.81	365.12
397.00	383.85
397.19	315.97
397.39	388.53
397.58	498.53
397.77	440.02
397.97	355.76
398.16	425.98
398.35	454.06
398.55	449.38
398.74	411.93
398.93	400.23
399.12	374.49
399.32	461.09
399.51	376.83
399.70	430.66
399.90	425.98
400.09	404.91
400.28	386.19
400.47	397.89
400.67	428.32
400.86	393.21
401.05	456.40
401.24	451.72
401.44	374.49
401.63	435.34
401.82	433.00
402.01	362.78
402.21	381.51
402.40	407.25
402.59	437.68
402.78	390.87
402.97	374.49
403.17	435.34
403.36	444.70
403.55	451.72
403.74	393.21
403.93	421.30
404.13	484.49
404.32	355.76
404.51	475.13
404.70	411.93
404.89	416.62
405.09	411.93
405.28	430.66
405.47	428.32
405.66	433.00
405.85	465.77
406.05	418.96
406.24	428.32
406.43	423.64
406.62	428.32
406.81	351.08
407.00	369.80
407.20	430.66
407.39	381.51
407.58	425.98
407.77	369.80
407.96	381.51
408.15	379.17
408.34	369.80
408.54	442.36
408.73	383.85
408.92	444.70
409.11	362.78
409.30	409.59
409.49	407.25
409.68	451.72
409.87	425.98
410.07	386.19
410.26	444.70
410.45	402.57
410.64	435.34
410.83	411.93
411.02	365.12
411.21	491.51
411.40	374.49
411.59	362.78
411.78	407.25
411.98	386.19
412.17	477.47
412.36	369.80
412.55	425.98
412.74	444.70
412.93	437.68
413.12	414.27
413.31	402.57
413.50	447.04
413.69	393.21
413.88	447.04
414.07	461.09
414.26	365.12
414.45	390.87
414.64	421.30
414.83	416.62
415.02	386.19
415.22	400.23
415.41	428.32
415.60	409.59
415.79	416.62
415.98	437.68
416.17	407.25
416.36	482.15
416.55	397.89
416.74	409.59
416.93	470.45
417.12	503.22
417.31	390.87
417.50	397.89
417.69	454.06
417.88	414.27
418.07	355.76
418.26	367.46
418.45	390.87
418.64	430.66
418.83	458.74
419.02	468.11
419.21	390.87
419.39	374.49
419.58	400.23
419.77	395.55
419.96	435.34
420.15	454.06
420.34	369.80
420.53	440.02
420.72	468.11
420.91	393.21
421.10	444.70
421.29	388.53
421.48	437.68
421.67	376.83
421.86	437.68
422.05	425.98
422.24	454.06
422.43	404.91
422.61	411.93
422.80	444.70
422.99	372.15
423.18	409.59
423.37	440.02
423.56	456.40
423.75	400.23
423.94	409.59
424.13	358.10
424.32	383.85
424.50	418.96
424.69	376.83
424.88	416.62
425.07	449.38
425.26	428.32
425.45	395.55
425.64	407.25
425.83	433.00
426.01	468.11
426.20	409.59
426.39	294.91
426.58	369.80
426.77	404.91
426.96	458.74
427.15	383.85
427.33	418.96
427.52	372.15
427.71	423.64
427.90	484.49
428.09	334.70
428.28	393.21
428.46	458.74
428.65	435.34
428.84	400.23
429.03	376.83
429.22	444.70
429.40	355.76
429.59	411.93
429.78	440.02
429.97	365.12
430.16	433.00
430.34	465.77
430.53	510.24
430.72	400.23
430.91	374.49
431.10	390.87
431.28	411.93
431.47	402.57
431.66	351.08
431.85	421.30
432.03	418.96
432.22	402.57
432.41	376.83
432.60	425.98
432.79	400.23
432.97	416.62
433.16	447.04
433.35	416.62
433.54	393.21
433.72	414.27
433.91	416.62
434.10	411.93
434.28	425.98
434.47	407.25
434.66	433.00
434.85	404.91
435.03	400.23
435.22	444.70
435.41	461.09
435.59	440.02
435.78	449.38
435.97	465.77
436.16	454.06
436.34	425.98
436.53	395.55
436.72	503.22
436.90	430.66
437.09	402.57
437.28	400.23
437.46	390.87
437.65	397.89
437.84	421.30
438.02	411.93
438.21	521.94
438.40	383.85
438.58	379.17
438.77	390.87
438.96	358.10
439.14	355.76
439.33	400.23
439.52	451.72
439.70	449.38
439.89	477.47
440.08	479.81
440.26	442.36
440.45	393.21
440.63	433.00
440.82	390.87
441.01	411.93
441.19	325.33
441.38	409.59
441.57	409.59
441.75	447.04
441.94	449.38
442.12	472.79
442.31	395.55
442.50	397.89
442.68	430.66
442.87	479.81
443.05	433.00
443.24	397.89
443.43	491.51
443.61	404.91
443.80	463.43
443.98	358.10
444.17	407.25
444.35	402.57
444.54	435.34
444.73	428.32
444.91	458.74
445.10	388.53
445.28	433.00
445.47	395.55
445.65	416.62
445.84	390.87
446.02	463.43
446.21	388.53
446.39	407.25
446.58	376.83
446.77	372.15
446.95	400.23
447.14	414.27
447.32	442.36
447.51	360.44
447.69	402.57
447.88	435.34
448.06	442.36
448.25	337.04
448.43	325.33
448.62	376.83
448.80	428.32
448.99	454.06
449.17	381.51
449.36	440.02
449.54	449.38
449.73	390.87
449.91	404.91
450.10	400.23
450.28	395.55
450.46	409.59
450.65	395.55
450.83	440.02
451.02	479.81
451.20	388.53
451.39	388.53
451.57	423.64
451.76	407.25
451.94	428.32
452.13	411.93
452.31	379.17
452.49	372.15
452.68	381.51
452.86	360.44
453.05	543.00
453.23	355.76
453.42	393.21
453.60	444.70
453.78	395.55
453.97	449.38
454.15	407.25
454.34	425.98
454.52	440.02
454.70	447.04
454.89	472.79
455.07	322.99
455.26	402.57
455.44	447.04
455.62	386.19
455.81	423.64
455.99	433.00
456.17	367.46
456.36	411.93
456.54	442.36
456.73	409.59
456.91	374.49
457.09	376.83
457.28	435.34
457.46	374.49
457.64	543.00
457.83	402.57
458.01	482.15
458.19	442.36
458.38	393.21
458.56	447.04
458.74	468.11
458.93	468.11
459.11	500.87
459.29	379.17
459.48	477.47
459.66	397.89
459.84	400.23
460.03	465.77
460.21	379.17
460.39	449.38
460.57	465.77
460.76	454.06
460.94	362.78
461.12	414.27
461.31	463.43
461.49	362.78
461.67	456.40
461.85	400.23
462.04	472.79
462.22	866.00
462.40	451.72
462.59	463.43
462.77	430.66
462.95	486.83
463.13	425.98
463.32	379.17
463.50	341.72
463.68	360.44
463.86	404.91
464.05	498.53
464.23	428.32
464.41	440.02
464.59	381.51
464.78	447.04
464.96	428.32
465.14	433.00
465.32	355.76
465.50	418.96
465.69	461.09
465.87	348.74
466.05	379.17
466.23	402.57
466.41	414.27
466.60	418.96
466.78	407.25
466.96	451.72
467.14	535.98
467.32	423.64
467.51	444.70
467.69	414.27
467.87	421.30
468.05	365.12
468.23	463.43
468.41	397.89
468.60	374.49
468.78	486.83
468.96	449.38
469.14	414.27
469.32	386.19
469.50	435.34
469.69	344.06
469.87	346.40
470.05	409.59
470.23	393.21
470.41	444.70
470.59	456.40
470.77	447.04
470.95	454.06
471.14	404.91
471.32	393.21
471.50	421.30
471.68	409.59
471.86	416.62
472.04	421.30
472.22	440.02
472.40	407.25
472.58	425.98
472.77	430.66
472.95	393.21
473.13	423.64
473.31	376.83
473.49	407.25
473.67	367.46
473.85	486.83
474.03	404.91
474.21	435.34
474.39	507.90
474.57	430.66
474.75	496.19
474.93	339.38
475.12	369.80
475.30	367.46
475.48	395.55
475.66	421.30
475.84	430.66
476.02	489.17
476.20	444.70
476.38	353.42
476.56	444.70
476.74	442.36
476.92	365.12
477.10	496.19
477.28	404.91
477.46	449.38
477.64	423.64
477.82	388.53
478.00	430.66
478.18	423.64
478.36	425.98
478.54	409.59
478.72	388.53
478.90	395.55
479.08	416.62
479.26	414.27
479.44	402.57
479.62	444.70
479.80	388.53
479.98	409.59
480.16	365.12
480.34	456.40
480.52	451.72
480.70	425.98
480.88	449.38
481.06	411.93
481.24	428.32
481.41	365.12
481.59	440.02
481.77	304.27
481.95	374.49
482.13	531.30
482.31	409.59
482.49	414.27
482.67	451.72
482.85	416.62
483.03	388.53
483.21	435.34
483.39	433.00
483.57	428.32
483.74	472.79
483.92	402.57
484.10	451.72
484.28	430.66
484.46	470.45
484.64	435.34
484.82	397.89
485.00	418.96
485.18	372.15
485.35	388.53
485.53	351.08
485.71	388.53
485.89	393.21
486.07	416.62
486.25	435.34
486.43	411.93
486.61	416.62
486.78	493.85
486.96	421.30
487.14	414.27
487.32	402.57
487.50	433.00
487.68	477.47
487.85	397.89
488.03	337.04
488.21	402.57
488.39	351.08
488.57	447.04
488.75	430.66
488.92	484.49
489.10	440.02
489.28	458.74
489.46	437.68
489.64	430.66
489.81	388.53
489.99	430.66
490.17	418.96
490.35	470.45
490.53	477.47
490.70	365.12
490.88	423.64
491.06	397.89
491.24	409.59
491.41	423.64
491.59	404.91
491.77	428.32
491.95	423.64
492.13	416.62
492.30	376.83
492.48	407.25
492.66	393.21
492.84	372.15
493.01	400.23
493.19	411.93
493.37	365.12
493.54	395.55
493.72	409.59
493.90	407.25
494.08	407.25
494.25	468.11
494.43	437.68
494.61	390.87
494.79	409.59
494.96	437.68
495.14	440.02
495.32	416.62
495.49	425.98
495.67	376.83
495.85	383.85
496.02	395.55
496.20	411.93
496.38	393.21
496.55	397.89
496.73	414.27
496.91	379.17
497.09	414.27
497.26	425.98
497.44	465.77
497.62	376.83
497.79	435.34
497.97	348.74
498.14	306.61
498.32	433.00
498.50	444.70
498.67	407.25
498.85	367.46
499.03	362.78
499.20	416.62
499.38	449.38
499.56	374.49
499.73	482.15
499.91	484.49
500.08	393.21
500.26	393.21
500.44	404.91
500.61	341.72
500.79	468.11
500.97	491.51
501.14	381.51
501.32	332.36
501.49	465.77
501.67	482.15
501.84	407.25
502.02	374.49
502.20	505.56
502.37	367.46
502.55	430.66
502.72	482.15
502.90	430.66
503.07	451.72
503.25	386.19
503.43	372.15
503.60	395.55
503.78	489.17
503.95	423.64
504.13	397.89
504.30	461.09
504.48	482.15
504.65	493.85
504.83	414.27
505.01	348.74
505.18	425.98
505.36	416.62
505.53	379.17
505.71	538.32
505.88	491.51
506.06	447.04
506.23	454.06
506.41	470.45
506.58	456.40
506.76	404.91
506.93	397.89
507.11	369.80
507.28	454.06
507.46	465.77
507.63	407.25
507.81	332.36
507.98	428.32
508.16	400.23
508.33	388.53
508.50	409.59
508.68	447.04
508.85	449.38
509.03	374.49
509.20	388.53
509.38	376.83
509.55	400.23
509.73	477.47
509.90	435.34
510.08	386.19
510.25	416.62
510.42	393.21
510.60	425.98
510.77	472.79
510.95	463.43
511.12	397.89
511.30	416.62
511.47	454.06
511.64	425.98
511.82	428.32
511.99	390.87
512.17	395.55
512.34	388.53
512.51	395.55
512.69	433.00
512.86	386.19
513.04	428.32
513.21	416.62
513.38	411.93
513.56	404.91
513.73	376.83
513.90	318.31
514.08	442.36
514.25	425.98
514.43	414.27
514.60	404.91
514.77	337.04
514.95	423.64
515.12	365.12
515.29	379.17
515.47	423.64
515.64	433.00
515.81	395.55
515.99	402.57
516.16	486.83
516.33	468.11
516.51	348.74
516.68	409.59
516.85	416.62
517.03	386.19
517.20	456.40
517.37	451.72
517.54	430.66
517.72	383.85
517.89	454.06
518.06	433.00
518.24	493.85
518.41	505.56
518.58	402.57
518.75	393.21
518.93	360.44
519.10	374.49
519.27	475.13
519.45	381.51
519.62	428.32
519.79	442.36
519.96	430.66
520.14	423.64
520.31	442.36
520.48	414.27
520.65	435.34
520.83	468.11
521.00	433.00
521.17	379.17
521.34	435.34
521.52	362.78
521.69	449.38
521.86	423.64
522.03	416.62
522.20	479.81
522.38	414.27
522.55	369.80
522.72	421.30
522.89	428.32
523.07	454.06
523.24	447.04
523.41	430.66
523.58	402.57
523.75	402.57
523.92	444.70
524.10	414.27
524.27	461.09
524.44	458.74
524.61	482.15
524.78	456.40
524.96	468.11
525.13	358.10
525.30	463.43
525.47	442.36
525.64	402.57
525.81	404.91
525.98	437.68
526.16	458.74
526.33	416.62
526.50	435.34
526.67	407.25
526.84	449.38
527.01	402.57
527.18	458.74
527.36	491.51
527.53	465.77
527.70	411.93
527.87	379.17
528.04	423.64
528.21	421.30
528.38	449.38
528.55	430.66
528.72	454.06
528.89	470.45
529.07	430.66
529.24	430.66
529.41	498.53
529.58	388.53
529.75	388.53
529.92	463.43
530.09	404.91
530.26	430.66
530.43	346.40
530.60	367.46
530.77	379.17
530.94	416.62
531.11	463.43
531.28	369.80
531.46	463.43
531.63	395.55
531.80	421.30
531.97	437.68
532.14	360.44
532.31	430.66
532.48	440.02
532.65	360.44
532.82	428.32
532.99	402.57
533.16	447.04
533.33	423.64
533.50	433.00
533.67	397.89
533.84	465.77
534.01	428.32
534.18	400.23
534.35	400.23
534.52	369.80
534.69	379.17
534.86	362.78
535.03	400.23
535.20	315.97
535.37	442.36
535.54	372.15
535.71	418.96
535.88	458.74
536.05	355.76
536.22	425.98
536.38	444.70
536.55	362.78
536.72	496.19
536.89	402.57
537.06	393.21
537.23	386.19
537.40	442.36
537.57	374.49
537.74	440.02
537.91	454.06
538.08	407.25
538.25	386.19
538.42	421.30
538.59	416.62
538.75	397.89
538.92	402.57
539.09	409.59
539.26	442.36
539.43	404.91
539.60	395.55
539.77	489.17
539.94	454.06
540.11	440.02
540.28	386.19
540.44	395.55
540.61	482.15
540.78	477.47
540.95	437.68
541.12	390.87
541.29	416.62
541.46	433.00
541.62	449.38
541.79	348.74
541.96	346.40
542.13	416.62
542.30	475.13
542.47	430.66
542.63	367.46
542.80	397.89
542.97	386.19
543.14	437.68
543.31	367.46
543.48	397.89
543.64	414.27
543.81	435.34
543.98	360.44
544.15	367.46
544.32	411.93
544.48	379.17
544.65	400.23
544.82	369.80
544.99	376.83
545.16	447.04
545.32	423.64
545.49	404.91
545.66	433.00
545.83	437.68
546.00	400.23
546.16	409.59
546.33	346.40
546.50	440.02
546.67	425.98
546.83	463.43
547.00	362.78
547.17	299.59
547.34	423.64
547.50	449.38
547.67	454.06
547.84	407.25
548.00	386.19
548.17	353.42
548.34	454.06
548.51	423.64
548.67	430.66
548.84	407.25
549.01	437.68
549.18	472.79
549.34	395.55
549.51	393.21
549.68	423.64
549.84	358.10
550.01	367.46
550.18	521.94
550.34	451.72
550.51	428.32
550.68	435.34
550.84	390.87
551.01	463.43
551.18	447.04
551.34	411.93
551.51	503.22
551.68	493.85
551.84	388.53
552.01	423.64
552.18	416.62
552.34	423.64
552.51	400.23
552.68	374.49
552.84	470.45
553.01	449.38
553.18	428.32
553.34	386.19
553.51	409.59
553.67	447.04
553.84	477.47
554.01	458.74
554.17	512.58
554.34	360.44
554.51	486.83
554.67	463.43
554.84	458.74
555.00	428.32
555.17	416.62
555.33	416.62
555.50	414.27
555.67	447.04
555.83	379.17
556.00	486.83
556.16	547.69
556.33	451.72
556.50	362.78
556.66	411.93
556.83	433.00
556.99	491.51
557.16	437.68
557.32	418.96
557.49	409.59
557.65	447.04
557.82	416.62
557.98	484.49
558.15	414.27
558.32	395.55
558.48	388.53
558.65	411.93
558.81	470.45
558.98	465.77
559.14	411.93
559.31	468.11
559.47	428.32
559.64	458.74
559.80	388.53
559.97	407.25
560.13	468.11
560.30	379.17
560.46	402.57
560.63	435.34
560.79	381.51
560.96	388.53
561.12	397.89
561.29	449.38
561.45	418.96
561.61	411.93
561.78	463.43
561.94	433.00
562.11	418.96
562.27	430.66
562.44	367.46
562.60	470.45
562.77	416.62
562.93	463.43
563.10	404.91
563.26	369.80
563.42	411.93
563.59	442.36
563.75	416.62
563.92	461.09
564.08	435.34
564.24	475.13
564.41	482.15
564.57	393.21
564.74	423.64
564.90	393.21
565.07	437.68
565.23	468.11
565.39	430.66
565.56	470.45
565.72	449.38
565.88	447.04
566.05	475.13
566.21	470.45
566.38	393.21
566.54	454.06
566.70	395.55
566.87	411.93
567.03	355.76
567.19	379.17
567.36	400.23
567.52	440.02
567.68	454.06
567.85	430.66
568.01	404.91
568.17	372.15
568.34	449.38
568.50	435.34
568.66	369.80
568.83	456.40
568.99	416.62
569.15	451.72
569.32	414.27
569.48	437.68
569.64	395.55
569.81	437.68
569.97	383.85
570.13	447.04
570.30	418.96
570.46	411.93
570.62	449.38
570.78	376.83
570.95	428.32
571.11	433.00
571.27	456.40
571.43	463.43
571.60	444.70
571.76	397.89
571.92	390.87
572.09	400.23
572.25	433.00
572.41	409.59
572.57	400.23
572.74	393.21
572.90	463.43
573.06	395.55
573.22	451.72
573.38	444.70
573.55	435.34
573.71	416.62
573.87	437.68
574.03	430.66
574.20	416.62
574.36	390.87
574.52	444.70
574.68	372.15
574.84	447.04
575.01	475.13
575.17	386.19
575.33	390.87
575.49	409.59
575.65	491.51
575.82	386.19
575.98	407.25
576.14	362.78
576.30	503.22
576.46	465.77
576.62	416.62
576.79	463.43
576.95	500.87
577.11	322.99
577.27	353.42
577.43	444.70
577.59	383.85
577.75	379.17
577.92	402.57
578.08	430.66
578.24	367.46
578.40	381.51
578.56	376.83
578.72	402.57
578.88	458.74
579.04	470.45
579.21	416.62
579.37	454.06
579.53	440.02
579.69	397.89
579.85	465.77
580.01	433.00
580.17	475.13
580.33	346.40
580.49	409.59
580.65	425.98
580.82	407.25
580.98	447.04
581.14	404.91
581.30	479.81
581.46	463.43
581.62	414.27
581.78	381.51
581.94	442.36
582.10	411.93
582.26	461.09
582.42	414.27
582.58	409.59
582.74	395.55
582.90	383.85
583.06	376.83
583.22	416.62
583.38	519.60
583.54	374.49
583.70	376.83
583.86	449.38
584.02	416.62
584.18	521.94
584.34	425.98
584.50	442.36
584.66	421.30
584.82	381.51
584.98	454.06
585.14	416.62
585.30	503.22
585.46	454.06
585.62	421.30
585.78	383.85
585.94	430.66
586.10	386.19
586.26	454.06
586.42	437.68
586.58	451.72
586.74	395.55
586.90	383.85
587.06	395.55
587.22	468.11
587.38	470.45
587.54	449.38
587.70	404.91
587.86	454.06
588.02	496.19
588.18	470.45
588.34	486.83
588.49	421.30
588.65	390.87
588.81	421.30
588.97	489.17
589.13	386.19
589.29	411.93
589.45	376.83
589.61	458.74
589.77	463.43
589.93	421.30
590.08	397.89
590.24	451.72
590.40	383.85
590.56	489.17
590.72	418.96
590.88	454.06
591.04	404.91
591.20	386.19
591.35	404.91
591.51	423.64
591.67	362.78
591.83	390.87
591.99	500.87
592.15	416.62
592.31	454.06
592.46	418.96
592.62	421.30
592.78	330.02
592.94	365.12
593.10	360.44
593.26	423.64
593.41	374.49
593.57	409.59
593.73	372.15
593.89	468.11
594.05	433.00
594.20	386.19
594.36	449.38
594.52	346.40
594.68	402.57
594.84	369.80
594.99	437.68
595.15	430.66
595.31	430.66
595.47	507.90
595.62	381.51
595.78	383.85
595.94	440.02
596.10	442.36
596.25	423.64
596.41	442.36
596.57	397.89
596.73	454.06
596.88	465.77
597.04	402.57
597.20	292.57
597.36	538.32
597.51	362.78
597.67	442.36
597.83	360.44
597.99	397.89
598.14	421.30
598.30	437.68
598.46	397.89
598.61	395.55
598.77	388.53
598.93	421.30
599.09	341.72
599.24	355.76
599.40	402.57
599.56	390.87
599.71	428.32
599.87	428.32
600.03	383.85
600.18	423.64
600.34	423.64
600.50	374.49
600.65	414.27
600.81	409.59
600.97	482.15
601.12	425.98
601.28	430.66
601.44	454.06
601.59	435.34
601.75	493.85
601.91	489.17
602.06	442.36
602.22	503.22
602.37	386.19
602.53	425.98
602.69	423.64
602.84	325.33
603.00	414.27
603.16	449.38
603.31	491.51
603.47	433.00
603.62	437.68
603.78	400.23
603.94	440.02
604.09	461.09
604.25	430.66
604.40	440.02
604.56	337.04
604.71	341.72
604.87	423.64
605.03	472.79
605.18	423.64
605.34	493.85
605.49	404.91
605.65	416.62
605.80	440.02
605.96	430.66
606.12	381.51
606.27	418.96
606.43	414.27
606.58	409.59
606.74	362.78
606.89	379.17
607.05	430.66
607.20	386.19
607.36	428.32
607.51	421.30
607.67	374.49
607.82	433.00
607.98	421.30
608.13	367.46
608.29	367.46
608.44	449.38
608.60	451.72
608.75	437.68
608.91	477.47
609.06	437.68
609.22	454.06
609.37	437.68
609.53	451.72
609.68	402.57
609.84	308.95
609.99	416.62
610.15	341.72
