SpectraSuite Data File
++++++++++++++++++++++++++++++++++++
Date: Fri Oct 25 12:11:31 EDT 2013
User: price-jones
Dark Spectrum Present: No
Reference Spectrum Present: No
Number of Sampled Component Spectra: 1
Spectrometers: USB2+H05261
Integration Time (usec): 100000 (USB2+H05261)
Spectra Averaged: 1 (USB2+H05261)
Boxcar Smoothing: 0 (USB2+H05261)
Correct for Electrical Dark: No (USB2+H05261)
Strobe/Lamp Enabled: No (USB2+H05261)
Correct for Detector Non-linearity: No (USB2+H05261)
Correct for Stray Light: No (USB2+H05261)
Number of Pixels in Processed Spectrum: 2048
>>>>>Begin Processed Spectral Data<<<<<
365.73	365.12
365.92	365.12
366.12	365.12
366.32	262.14
366.52	259.80
366.72	222.35
366.91	271.50
367.11	250.44
367.31	187.24
367.51	234.05
367.70	166.18
367.90	276.18
368.10	280.86
368.30	273.84
368.49	283.20
368.69	269.16
368.89	315.97
369.09	271.50
369.28	287.89
369.48	259.80
369.68	266.82
369.87	372.15
370.07	304.27
370.27	337.04
370.47	362.78
370.66	304.27
370.86	332.36
371.06	372.15
371.25	379.17
371.45	362.78
371.65	393.21
371.84	386.19
372.04	383.85
372.24	421.30
372.44	463.43
372.63	383.85
372.83	444.70
373.03	358.10
373.22	374.49
373.42	447.04
373.62	320.65
373.81	440.02
374.01	442.36
374.21	435.34
374.40	423.64
374.60	425.98
374.79	409.59
374.99	444.70
375.19	451.72
375.38	447.04
375.58	374.49
375.78	416.62
375.97	393.21
376.17	451.72
376.37	425.98
376.56	447.04
376.76	360.44
376.95	421.30
377.15	425.98
377.35	430.66
377.54	470.45
377.74	404.91
377.93	369.80
378.13	404.91
378.33	451.72
378.52	407.25
378.72	423.64
378.91	358.10
379.11	489.17
379.31	362.78
379.50	372.15
379.70	454.06
379.89	409.59
380.09	409.59
380.28	404.91
380.48	409.59
380.68	379.17
380.87	381.51
381.07	423.64
381.26	416.62
381.46	381.51
381.65	423.64
381.85	449.38
382.04	411.93
382.24	517.26
382.43	507.90
382.63	442.36
382.83	402.57
383.02	475.13
383.22	475.13
383.41	428.32
383.61	440.02
383.80	468.11
384.00	395.55
384.19	442.36
384.39	458.74
384.58	440.02
384.78	456.40
384.97	414.27
385.17	400.23
385.36	458.74
385.56	449.38
385.75	393.21
385.95	372.15
386.14	386.19
386.34	390.87
386.53	437.68
386.72	428.32
386.92	411.93
387.11	447.04
387.31	374.49
387.50	383.85
387.70	435.34
387.89	418.96
388.09	388.53
388.28	397.89
388.48	414.27
388.67	367.46
388.86	456.40
389.06	454.06
389.25	421.30
389.45	341.72
389.64	493.85
389.84	433.00
390.03	332.36
390.22	465.77
390.42	442.36
390.61	416.62
390.81	423.64
391.00	337.04
391.19	418.96
391.39	348.74
391.58	386.19
391.78	435.34
391.97	456.40
392.16	358.10
392.36	407.25
392.55	465.77
392.75	409.59
392.94	355.76
393.13	379.17
393.33	416.62
393.52	416.62
393.71	475.13
393.91	337.04
394.10	449.38
394.29	451.72
394.49	341.72
394.68	414.27
394.88	395.55
395.07	437.68
395.26	425.98
395.46	409.59
395.65	444.70
395.84	458.74
396.04	461.09
396.23	416.62
396.42	400.23
396.62	421.30
396.81	388.53
397.00	353.42
397.19	388.53
397.39	358.10
397.58	421.30
397.77	414.27
397.97	360.44
398.16	411.93
398.35	390.87
398.55	386.19
398.74	395.55
398.93	404.91
399.12	423.64
399.32	435.34
399.51	440.02
399.70	367.46
399.90	402.57
400.09	447.04
400.28	454.06
400.47	372.15
400.67	440.02
400.86	395.55
401.05	456.40
401.24	414.27
401.44	440.02
401.63	379.17
401.82	365.12
402.01	383.85
402.21	449.38
402.40	472.79
402.59	369.80
402.78	425.98
402.97	365.12
403.17	407.25
403.36	414.27
403.55	362.78
403.74	421.30
403.93	374.49
404.13	430.66
404.32	315.97
404.51	463.43
404.70	475.13
404.89	341.72
405.09	425.98
405.28	449.38
405.47	470.45
405.66	444.70
405.85	468.11
406.05	433.00
406.24	454.06
406.43	447.04
406.62	475.13
406.81	435.34
407.00	454.06
407.20	344.06
407.39	430.66
407.58	416.62
407.77	386.19
407.96	402.57
408.15	390.87
408.34	388.53
408.54	421.30
408.73	435.34
408.92	388.53
409.11	393.21
409.30	425.98
409.49	423.64
409.68	351.08
409.87	421.30
410.07	430.66
410.26	334.70
410.45	386.19
410.64	393.21
410.83	386.19
411.02	393.21
411.21	414.27
411.40	369.80
411.59	379.17
411.78	475.13
411.98	404.91
412.17	475.13
412.36	418.96
412.55	393.21
412.74	486.83
412.93	400.23
413.12	386.19
413.31	470.45
413.50	423.64
413.69	407.25
413.88	449.38
414.07	402.57
414.26	442.36
414.45	344.06
414.64	423.64
414.83	409.59
415.02	447.04
415.22	337.04
415.41	451.72
415.60	447.04
415.79	416.62
415.98	454.06
416.17	416.62
416.36	381.51
416.55	491.51
416.74	489.17
416.93	533.64
417.12	489.17
417.31	444.70
417.50	425.98
417.69	397.89
417.88	402.57
418.07	472.79
418.26	411.93
418.45	402.57
418.64	449.38
418.83	404.91
419.02	416.62
419.21	393.21
419.39	388.53
419.58	449.38
419.77	395.55
419.96	449.38
420.15	409.59
420.34	461.09
420.53	348.74
420.72	479.81
420.91	449.38
421.10	402.57
421.29	407.25
421.48	404.91
421.67	449.38
421.86	482.15
422.05	388.53
422.24	416.62
422.43	393.21
422.61	374.49
422.80	421.30
422.99	440.02
423.18	414.27
423.37	456.40
423.56	418.96
423.75	472.79
423.94	421.30
424.13	428.32
424.32	402.57
424.50	442.36
424.69	444.70
424.88	372.15
425.07	397.89
425.26	442.36
425.45	374.49
425.64	409.59
425.83	379.17
426.01	407.25
426.20	465.77
426.39	430.66
426.58	437.68
426.77	449.38
426.96	451.72
427.15	400.23
427.33	430.66
427.52	376.83
427.71	388.53
427.90	416.62
428.09	337.04
428.28	388.53
428.46	430.66
428.65	395.55
428.84	428.32
429.03	430.66
429.22	449.38
429.40	325.33
429.59	390.87
429.78	383.85
429.97	498.53
430.16	468.11
430.34	379.17
430.53	369.80
430.72	379.17
430.91	383.85
431.10	435.34
431.28	418.96
431.47	416.62
431.66	477.47
431.85	414.27
432.03	414.27
432.22	479.81
432.41	374.49
432.60	414.27
432.79	433.00
432.97	437.68
433.16	430.66
433.35	435.34
433.54	367.46
433.72	454.06
433.91	468.11
434.10	367.46
434.28	454.06
434.47	409.59
434.66	447.04
434.85	430.66
435.03	428.32
435.22	395.55
435.41	433.00
435.59	409.59
435.78	416.62
435.97	353.42
436.16	437.68
436.34	383.85
436.53	341.72
436.72	479.81
436.90	381.51
437.09	449.38
437.28	449.38
437.46	444.70
437.65	449.38
437.84	416.62
438.02	421.30
438.21	479.81
438.40	315.97
438.58	374.49
438.77	409.59
438.96	421.30
439.14	409.59
439.33	477.47
439.52	454.06
439.70	414.27
439.89	435.34
440.08	444.70
440.26	456.40
440.45	430.66
440.63	430.66
440.82	456.40
441.01	411.93
441.19	360.44
441.38	355.76
441.57	332.36
441.75	451.72
441.94	482.15
442.12	379.17
442.31	409.59
442.50	414.27
442.68	369.80
442.87	365.12
443.05	407.25
443.24	433.00
443.43	486.83
443.61	421.30
443.80	353.42
443.98	360.44
444.17	372.15
444.35	437.68
444.54	430.66
444.73	425.98
444.91	397.89
445.10	393.21
445.28	411.93
445.47	442.36
445.65	376.83
445.84	334.70
446.02	482.15
446.21	463.43
446.39	461.09
446.58	404.91
446.77	402.57
446.95	379.17
447.14	381.51
447.32	442.36
447.51	407.25
447.69	449.38
447.88	451.72
448.06	468.11
448.25	416.62
448.43	404.91
448.62	390.87
448.80	454.06
448.99	517.26
449.17	435.34
449.36	402.57
449.54	425.98
449.73	400.23
449.91	482.15
450.10	404.91
450.28	402.57
450.46	322.99
450.65	369.80
450.83	435.34
451.02	447.04
451.20	395.55
451.39	440.02
451.57	416.62
451.76	388.53
451.94	367.46
452.13	472.79
452.31	379.17
452.49	498.53
452.68	496.19
452.86	433.00
453.05	407.25
453.23	456.40
453.42	376.83
453.60	425.98
453.78	449.38
453.97	386.19
454.15	444.70
454.34	407.25
454.52	379.17
454.70	433.00
454.89	397.89
455.07	395.55
455.26	440.02
455.44	416.62
455.62	430.66
455.81	416.62
455.99	402.57
456.17	454.06
456.36	433.00
456.54	512.58
456.73	444.70
456.91	451.72
457.09	397.89
457.28	482.15
457.46	418.96
457.64	367.46
457.83	463.43
458.01	430.66
458.19	421.30
458.38	411.93
458.56	421.30
458.74	388.53
458.93	416.62
459.11	468.11
459.29	423.64
459.48	425.98
459.66	416.62
459.84	449.38
460.03	547.69
460.21	376.83
460.39	351.08
460.57	421.30
460.76	486.83
460.94	503.22
461.12	444.70
461.31	449.38
461.49	425.98
461.67	393.21
461.85	372.15
462.04	383.85
462.22	718.54
462.40	425.98
462.59	449.38
462.77	421.30
462.95	418.96
463.13	456.40
463.32	425.98
463.50	456.40
463.68	444.70
463.86	433.00
464.05	395.55
464.23	351.08
464.41	425.98
464.59	400.23
464.78	440.02
464.96	390.87
465.14	437.68
465.32	372.15
465.50	465.77
465.69	454.06
465.87	400.23
466.05	414.27
466.23	358.10
466.41	458.74
466.60	409.59
466.78	484.49
466.96	465.77
467.14	435.34
467.32	379.17
467.51	407.25
467.69	435.34
467.87	416.62
468.05	376.83
468.23	407.25
468.41	447.04
468.60	393.21
468.78	435.34
468.96	409.59
469.14	470.45
469.32	383.85
469.50	421.30
469.69	479.81
469.87	395.55
470.05	402.57
470.23	433.00
470.41	447.04
470.59	411.93
470.77	404.91
470.95	348.74
471.14	461.09
471.32	404.91
471.50	428.32
471.68	407.25
471.86	451.72
472.04	416.62
472.22	444.70
472.40	372.15
472.58	435.34
472.77	386.19
472.95	496.19
473.13	470.45
473.31	425.98
473.49	390.87
473.67	365.12
473.85	400.23
474.03	358.10
474.21	414.27
474.39	454.06
474.57	409.59
474.75	440.02
474.93	428.32
475.12	355.76
475.30	351.08
475.48	425.98
475.66	505.56
475.84	393.21
476.02	409.59
476.20	465.77
476.38	393.21
476.56	486.83
476.74	386.19
476.92	367.46
477.10	365.12
477.28	386.19
477.46	381.51
477.64	416.62
477.82	383.85
478.00	475.13
478.18	454.06
478.36	409.59
478.54	421.30
478.72	383.85
478.90	500.87
479.08	428.32
479.26	447.04
479.44	409.59
479.62	421.30
479.80	390.87
479.98	416.62
480.16	388.53
480.34	379.17
480.52	411.93
480.70	484.49
480.88	360.44
481.06	337.04
481.24	367.46
481.41	468.11
481.59	491.51
481.77	451.72
481.95	421.30
482.13	388.53
482.31	442.36
482.49	430.66
482.67	416.62
482.85	440.02
483.03	372.15
483.21	435.34
483.39	414.27
483.57	503.22
483.74	425.98
483.92	395.55
484.10	353.42
484.28	425.98
484.46	482.15
484.64	451.72
484.82	423.64
485.00	411.93
485.18	479.81
485.35	383.85
485.53	416.62
485.71	402.57
485.89	395.55
486.07	482.15
486.25	454.06
486.43	470.45
486.61	355.76
486.78	416.62
486.96	390.87
487.14	416.62
487.32	447.04
487.50	411.93
487.68	390.87
487.85	353.42
488.03	535.98
488.21	479.81
488.39	414.27
488.57	472.79
488.75	376.83
488.92	554.71
489.10	458.74
489.28	456.40
489.46	425.98
489.64	416.62
489.81	449.38
489.99	362.78
490.17	423.64
490.35	517.26
490.53	395.55
490.70	390.87
490.88	440.02
491.06	414.27
491.24	369.80
491.41	437.68
491.59	379.17
491.77	414.27
491.95	379.17
492.13	362.78
492.30	351.08
492.48	397.89
492.66	411.93
492.84	428.32
493.01	430.66
493.19	383.85
493.37	519.60
493.54	444.70
493.72	411.93
493.90	433.00
494.08	374.49
494.25	449.38
494.43	430.66
494.61	418.96
494.79	484.49
494.96	388.53
495.14	418.96
495.32	423.64
495.49	461.09
495.67	437.68
495.85	475.13
496.02	425.98
496.20	503.22
496.38	447.04
496.55	411.93
496.73	421.30
496.91	423.64
497.09	414.27
497.26	400.23
497.44	433.00
497.62	416.62
497.79	414.27
497.97	440.02
498.14	430.66
498.32	425.98
498.50	400.23
498.67	369.80
498.85	379.17
499.03	444.70
499.20	421.30
499.38	423.64
499.56	468.11
499.73	472.79
499.91	388.53
500.08	379.17
500.26	425.98
500.44	461.09
500.61	397.89
500.79	463.43
500.97	437.68
501.14	454.06
501.32	475.13
501.49	397.89
501.67	416.62
501.84	451.72
502.02	332.36
502.20	388.53
502.37	444.70
502.55	390.87
502.72	465.77
502.90	484.49
503.07	482.15
503.25	402.57
503.43	428.32
503.60	440.02
503.78	428.32
503.95	421.30
504.13	437.68
504.30	470.45
504.48	390.87
504.65	402.57
504.83	475.13
505.01	472.79
505.18	353.42
505.36	440.02
505.53	369.80
505.71	395.55
505.88	428.32
506.06	435.34
506.23	428.32
506.41	400.23
506.58	409.59
506.76	463.43
506.93	404.91
507.11	433.00
507.28	442.36
507.46	386.19
507.63	411.93
507.81	454.06
507.98	409.59
508.16	409.59
508.33	407.25
508.50	386.19
508.68	369.80
508.85	332.36
509.03	407.25
509.20	435.34
509.38	456.40
509.55	369.80
509.73	433.00
509.90	404.91
510.08	400.23
510.25	395.55
510.42	365.12
510.60	428.32
510.77	388.53
510.95	437.68
511.12	374.49
511.30	414.27
511.47	395.55
511.64	489.17
511.82	430.66
511.99	409.59
512.17	379.17
512.34	414.27
512.51	386.19
512.69	362.78
512.86	477.47
513.04	461.09
513.21	451.72
513.38	451.72
513.56	428.32
513.73	411.93
513.90	416.62
514.08	397.89
514.25	454.06
514.43	386.19
514.60	397.89
514.77	362.78
514.95	393.21
515.12	395.55
515.29	393.21
515.47	414.27
515.64	372.15
515.81	367.46
515.99	416.62
516.16	470.45
516.33	411.93
516.51	355.76
516.68	428.32
516.85	444.70
517.03	442.36
517.20	418.96
517.37	425.98
517.54	395.55
517.72	292.57
517.89	353.42
518.06	390.87
518.24	402.57
518.41	489.17
518.58	358.10
518.75	416.62
518.93	355.76
519.10	493.85
519.27	447.04
519.45	395.55
519.62	327.68
519.79	407.25
519.96	388.53
520.14	430.66
520.31	475.13
520.48	362.78
520.65	456.40
520.83	437.68
521.00	428.32
521.17	440.02
521.34	325.33
521.52	461.09
521.69	411.93
521.86	393.21
522.03	407.25
522.20	463.43
522.38	421.30
522.55	358.10
522.72	447.04
522.89	456.40
523.07	465.77
523.24	461.09
523.41	409.59
523.58	376.83
523.75	395.55
523.92	458.74
524.10	404.91
524.27	325.33
524.44	369.80
524.61	388.53
524.78	435.34
524.96	400.23
525.13	388.53
525.30	376.83
525.47	437.68
525.64	454.06
525.81	407.25
525.98	463.43
526.16	433.00
526.33	433.00
526.50	381.51
526.67	416.62
526.84	447.04
527.01	393.21
527.18	414.27
527.36	423.64
527.53	428.32
527.70	411.93
527.87	379.17
528.04	486.83
528.21	468.11
528.38	493.85
528.55	554.71
528.72	484.49
528.89	418.96
529.07	393.21
529.24	449.38
529.41	423.64
529.58	461.09
529.75	470.45
529.92	458.74
530.09	393.21
530.26	416.62
530.43	400.23
530.60	367.46
530.77	400.23
530.94	430.66
531.11	402.57
531.28	397.89
531.46	411.93
531.63	372.15
531.80	425.98
531.97	447.04
532.14	337.04
532.31	437.68
532.48	514.92
532.65	383.85
532.82	428.32
532.99	435.34
533.16	379.17
533.33	484.49
533.50	351.08
533.67	379.17
533.84	430.66
534.01	404.91
534.18	451.72
534.35	411.93
534.52	395.55
534.69	500.87
534.86	358.10
535.03	468.11
535.20	393.21
535.37	496.19
535.54	440.02
535.71	423.64
535.88	449.38
536.05	383.85
536.22	376.83
536.38	444.70
536.55	463.43
536.72	458.74
536.89	449.38
537.06	416.62
537.23	397.89
537.40	433.00
537.57	409.59
537.74	493.85
537.91	409.59
538.08	372.15
538.25	437.68
538.42	458.74
538.59	433.00
538.75	435.34
538.92	458.74
539.09	386.19
539.26	468.11
539.43	430.66
539.60	418.96
539.77	402.57
539.94	404.91
540.11	351.08
540.28	435.34
540.44	440.02
540.61	360.44
540.78	416.62
540.95	428.32
541.12	461.09
541.29	440.02
541.46	486.83
541.62	428.32
541.79	447.04
541.96	390.87
542.13	374.49
542.30	407.25
542.47	365.12
542.63	435.34
542.80	362.78
542.97	421.30
543.14	369.80
543.31	461.09
543.48	376.83
543.64	449.38
543.81	444.70
543.98	468.11
544.15	411.93
544.32	360.44
544.48	400.23
544.65	425.98
544.82	395.55
544.99	456.40
545.16	444.70
545.32	390.87
545.49	376.83
545.66	379.17
545.83	418.96
546.00	402.57
546.16	383.85
546.33	414.27
546.50	451.72
546.67	456.40
546.83	454.06
547.00	365.12
547.17	381.51
547.34	404.91
547.50	461.09
547.67	330.02
547.84	383.85
548.00	388.53
548.17	390.87
548.34	428.32
548.51	444.70
548.67	421.30
548.84	416.62
549.01	423.64
549.18	400.23
549.34	468.11
549.51	386.19
549.68	416.62
549.84	456.40
550.01	362.78
550.18	444.70
550.34	498.53
550.51	407.25
550.68	482.15
550.84	416.62
551.01	468.11
551.18	421.30
551.34	367.46
551.51	421.30
551.68	386.19
551.84	386.19
552.01	461.09
552.18	421.30
552.34	454.06
552.51	381.51
552.68	383.85
552.84	444.70
553.01	416.62
553.18	390.87
553.34	390.87
553.51	425.98
553.67	332.36
553.84	479.81
554.01	400.23
554.17	468.11
554.34	411.93
554.51	475.13
554.67	470.45
554.84	395.55
555.00	353.42
555.17	423.64
555.33	503.22
555.50	458.74
555.67	442.36
555.83	383.85
556.00	435.34
556.16	521.94
556.33	421.30
556.50	383.85
556.66	376.83
556.83	381.51
556.99	418.96
557.16	374.49
557.32	437.68
557.49	482.15
557.65	465.77
557.82	372.15
557.98	404.91
558.15	400.23
558.32	468.11
558.48	440.02
558.65	360.44
558.81	463.43
558.98	414.27
559.14	430.66
559.31	477.47
559.47	451.72
559.64	402.57
559.80	348.74
559.97	395.55
560.13	433.00
560.30	395.55
560.46	407.25
560.63	372.15
560.79	397.89
560.96	393.21
561.12	409.59
561.29	416.62
561.45	456.40
561.61	423.64
561.78	468.11
561.94	414.27
562.11	372.15
562.27	414.27
562.44	414.27
562.60	397.89
562.77	444.70
562.93	411.93
563.10	388.53
563.26	390.87
563.42	416.62
563.59	400.23
563.75	400.23
563.92	451.72
564.08	482.15
564.24	500.87
564.41	472.79
564.57	407.25
564.74	465.77
564.90	404.91
565.07	425.98
565.23	409.59
565.39	393.21
565.56	468.11
565.72	388.53
565.88	444.70
566.05	390.87
566.21	440.02
566.38	404.91
566.54	472.79
566.70	402.57
566.87	449.38
567.03	407.25
567.19	416.62
567.36	440.02
567.52	444.70
567.68	442.36
567.85	388.53
568.01	388.53
568.17	428.32
568.34	463.43
568.50	416.62
568.66	374.49
568.83	477.47
568.99	381.51
569.15	360.44
569.32	435.34
569.48	496.19
569.64	395.55
569.81	503.22
569.97	388.53
570.13	477.47
570.30	402.57
570.46	388.53
570.62	472.79
570.78	374.49
570.95	374.49
571.11	435.34
571.27	451.72
571.43	416.62
571.60	416.62
571.76	416.62
571.92	440.02
572.09	348.74
572.25	458.74
572.41	440.02
572.57	470.45
572.74	444.70
572.90	421.30
573.06	421.30
573.22	484.49
573.38	414.27
573.55	454.06
573.71	433.00
573.87	386.19
574.03	447.04
574.20	463.43
574.36	477.47
574.52	486.83
574.68	465.77
574.84	461.09
575.01	437.68
575.17	367.46
575.33	386.19
575.49	472.79
575.65	442.36
575.82	425.98
575.98	456.40
576.14	402.57
576.30	414.27
576.46	444.70
576.62	397.89
576.79	407.25
576.95	388.53
577.11	395.55
577.27	402.57
577.43	395.55
577.59	468.11
577.75	407.25
577.92	416.62
578.08	433.00
578.24	425.98
578.40	449.38
578.56	416.62
578.72	411.93
578.88	423.64
579.04	425.98
579.21	395.55
579.37	411.93
579.53	440.02
579.69	437.68
579.85	388.53
580.01	400.23
580.17	425.98
580.33	372.15
580.49	393.21
580.65	365.12
580.82	388.53
580.98	491.51
581.14	379.17
581.30	416.62
581.46	416.62
581.62	397.89
581.78	465.77
581.94	409.59
582.10	402.57
582.26	341.72
582.42	447.04
582.58	386.19
582.74	430.66
582.90	421.30
583.06	379.17
583.22	423.64
583.38	341.72
583.54	397.89
583.70	435.34
583.86	430.66
584.02	437.68
584.18	458.74
584.34	454.06
584.50	418.96
584.66	486.83
584.82	397.89
584.98	423.64
585.14	402.57
585.30	477.47
585.46	454.06
585.62	402.57
585.78	395.55
585.94	465.77
586.10	418.96
586.26	447.04
586.42	484.49
586.58	468.11
586.74	400.23
586.90	369.80
587.06	393.21
587.22	477.47
587.38	390.87
587.54	409.59
587.70	465.77
587.86	374.49
588.02	351.08
588.18	430.66
588.34	425.98
588.49	400.23
588.65	423.64
588.81	365.12
588.97	407.25
589.13	393.21
589.29	383.85
589.45	425.98
589.61	418.96
589.77	430.66
589.93	433.00
590.08	433.00
590.24	388.53
590.40	472.79
590.56	479.81
590.72	421.30
590.88	456.40
591.04	376.83
591.20	411.93
591.35	416.62
591.51	454.06
591.67	376.83
591.83	409.59
591.99	479.81
592.15	376.83
592.31	482.15
592.46	447.04
592.62	498.53
592.78	421.30
592.94	383.85
593.10	437.68
593.26	390.87
593.41	404.91
593.57	510.24
593.73	358.10
593.89	528.96
594.05	418.96
594.20	397.89
594.36	475.13
594.52	358.10
594.68	411.93
594.84	435.34
594.99	440.02
595.15	421.30
595.31	442.36
595.47	463.43
595.62	395.55
595.78	402.57
595.94	475.13
596.10	397.89
596.25	369.80
596.41	465.77
596.57	435.34
596.73	430.66
596.88	430.66
597.04	425.98
597.20	390.87
597.36	444.70
597.51	369.80
597.67	430.66
597.83	437.68
597.99	369.80
598.14	458.74
598.30	510.24
598.46	430.66
598.61	496.19
598.77	425.98
598.93	411.93
599.09	421.30
599.24	365.12
599.40	397.89
599.56	442.36
599.71	425.98
599.87	465.77
600.03	517.26
600.18	458.74
600.34	433.00
600.50	463.43
600.65	351.08
600.81	423.64
600.97	512.58
601.12	409.59
601.28	498.53
601.44	400.23
601.59	465.77
601.75	397.89
601.91	425.98
602.06	341.72
602.22	463.43
602.37	395.55
602.53	423.64
602.69	425.98
602.84	421.30
603.00	353.42
603.16	393.21
603.31	440.02
603.47	393.21
603.62	320.65
603.78	454.06
603.94	386.19
604.09	393.21
604.25	411.93
604.40	416.62
604.56	400.23
604.71	433.00
604.87	381.51
605.03	423.64
605.18	353.42
605.34	430.66
605.49	425.98
605.65	433.00
605.80	383.85
605.96	400.23
606.12	425.98
606.27	430.66
606.43	411.93
606.58	407.25
606.74	379.17
606.89	414.27
607.05	365.12
607.20	390.87
607.36	407.25
607.51	351.08
607.67	402.57
607.82	367.46
607.98	442.36
608.13	447.04
608.29	449.38
608.44	517.26
608.60	463.43
608.75	418.96
608.91	461.09
609.06	423.64
609.22	433.00
609.37	388.53
609.53	463.43
609.68	341.72
609.84	423.64
609.99	404.91
610.15	383.85
