SpectraSuite Data File
++++++++++++++++++++++++++++++++++++
Date: Fri Oct 25 12:11:09 EDT 2013
User: price-jones
Dark Spectrum Present: No
Reference Spectrum Present: No
Number of Sampled Component Spectra: 1
Spectrometers: USB2+H05261
Integration Time (usec): 100000 (USB2+H05261)
Spectra Averaged: 1 (USB2+H05261)
Boxcar Smoothing: 0 (USB2+H05261)
Correct for Electrical Dark: No (USB2+H05261)
Strobe/Lamp Enabled: No (USB2+H05261)
Correct for Detector Non-linearity: No (USB2+H05261)
Correct for Stray Light: No (USB2+H05261)
Number of Pixels in Processed Spectrum: 2048
>>>>>Begin Processed Spectral Data<<<<<
365.73	339.38
365.92	339.38
366.12	339.38
366.32	201.29
366.52	236.39
366.72	264.48
366.91	212.99
367.11	229.37
367.31	156.82
367.51	220.01
367.70	180.22
367.90	266.82
368.10	262.14
368.30	217.67
368.49	259.80
368.69	250.44
368.89	255.12
369.09	299.59
369.28	304.27
369.48	271.50
369.68	280.86
369.87	334.70
370.07	287.89
370.27	320.65
370.47	299.59
370.66	341.72
370.86	346.40
371.06	425.98
371.25	390.87
371.45	379.17
371.65	433.00
371.84	397.89
372.04	383.85
372.24	381.51
372.44	423.64
372.63	376.83
372.83	372.15
373.03	376.83
373.22	306.61
373.42	400.23
373.62	362.78
373.81	390.87
374.01	400.23
374.21	491.51
374.40	346.40
374.60	374.49
374.79	414.27
374.99	362.78
375.19	409.59
375.38	341.72
375.58	355.76
375.78	458.74
375.97	454.06
376.17	451.72
376.37	437.68
376.56	393.21
376.76	465.77
376.95	383.85
377.15	379.17
377.35	374.49
377.54	376.83
377.74	411.93
377.93	334.70
378.13	388.53
378.33	418.96
378.52	407.25
378.72	402.57
378.91	402.57
379.11	369.80
379.31	414.27
379.50	388.53
379.70	430.66
379.89	425.98
380.09	334.70
380.28	308.95
380.48	411.93
380.68	379.17
380.87	358.10
381.07	479.81
381.26	442.36
381.46	383.85
381.65	416.62
381.85	418.96
382.04	449.38
382.24	435.34
382.43	395.55
382.63	379.17
382.83	451.72
383.02	444.70
383.22	463.43
383.41	388.53
383.61	409.59
383.80	409.59
384.00	409.59
384.19	402.57
384.39	418.96
384.58	374.49
384.78	470.45
384.97	496.19
385.17	383.85
385.36	400.23
385.56	470.45
385.75	379.17
385.95	454.06
386.14	386.19
386.34	318.31
386.53	456.40
386.72	383.85
386.92	477.47
387.11	351.08
387.31	416.62
387.50	369.80
387.70	397.89
387.89	444.70
388.09	400.23
388.28	339.38
388.48	369.80
388.67	428.32
388.86	325.33
389.06	409.59
389.25	435.34
389.45	433.00
389.64	451.72
389.84	442.36
390.03	411.93
390.22	397.89
390.42	322.99
390.61	362.78
390.81	409.59
391.00	362.78
391.19	423.64
391.39	386.19
391.58	353.42
391.78	475.13
391.97	477.47
392.16	381.51
392.36	463.43
392.55	425.98
392.75	386.19
392.94	411.93
393.13	367.46
393.33	437.68
393.52	447.04
393.71	437.68
393.91	365.12
394.10	430.66
394.29	437.68
394.49	355.76
394.68	421.30
394.88	414.27
395.07	414.27
395.26	388.53
395.46	379.17
395.65	414.27
395.84	374.49
396.04	430.66
396.23	484.49
396.42	409.59
396.62	400.23
396.81	386.19
397.00	390.87
397.19	444.70
397.39	365.12
397.58	425.98
397.77	428.32
397.97	407.25
398.16	409.59
398.35	372.15
398.55	360.44
398.74	414.27
398.93	372.15
399.12	458.74
399.32	365.12
399.51	395.55
399.70	430.66
399.90	449.38
400.09	400.23
400.28	404.91
400.47	425.98
400.67	407.25
400.86	369.80
401.05	421.30
401.24	390.87
401.44	475.13
401.63	411.93
401.82	374.49
402.01	430.66
402.21	433.00
402.40	409.59
402.59	425.98
402.78	355.76
402.97	404.91
403.17	428.32
403.36	397.89
403.55	416.62
403.74	416.62
403.93	388.53
404.13	327.68
404.32	306.61
404.51	409.59
404.70	425.98
404.89	433.00
405.09	435.34
405.28	468.11
405.47	449.38
405.66	372.15
405.85	409.59
406.05	376.83
406.24	404.91
406.43	397.89
406.62	425.98
406.81	430.66
407.00	500.87
407.20	428.32
407.39	418.96
407.58	386.19
407.77	393.21
407.96	388.53
408.15	411.93
408.34	442.36
408.54	374.49
408.73	463.43
408.92	381.51
409.11	395.55
409.30	421.30
409.49	362.78
409.68	409.59
409.87	400.23
410.07	358.10
410.26	402.57
410.45	404.91
410.64	421.30
410.83	435.34
411.02	407.25
411.21	514.92
411.40	447.04
411.59	360.44
411.78	362.78
411.98	414.27
412.17	493.85
412.36	425.98
412.55	376.83
412.74	423.64
412.93	395.55
413.12	358.10
413.31	409.59
413.50	397.89
413.69	322.99
413.88	402.57
414.07	437.68
414.26	365.12
414.45	390.87
414.64	374.49
414.83	402.57
415.02	437.68
415.22	425.98
415.41	379.17
415.60	374.49
415.79	425.98
415.98	428.32
416.17	447.04
416.36	433.00
416.55	430.66
416.74	388.53
416.93	421.30
417.12	407.25
417.31	409.59
417.50	337.04
417.69	388.53
417.88	400.23
418.07	409.59
418.26	376.83
418.45	397.89
418.64	388.53
418.83	407.25
419.02	386.19
419.21	414.27
419.39	423.64
419.58	430.66
419.77	433.00
419.96	397.89
420.15	447.04
420.34	437.68
420.53	409.59
420.72	365.12
420.91	362.78
421.10	388.53
421.29	440.02
421.48	428.32
421.67	409.59
421.86	372.15
422.05	330.02
422.24	428.32
422.43	381.51
422.61	411.93
422.80	430.66
422.99	440.02
423.18	400.23
423.37	423.64
423.56	458.74
423.75	411.93
423.94	390.87
424.13	505.56
424.32	407.25
424.50	367.46
424.69	433.00
424.88	447.04
425.07	421.30
425.26	404.91
425.45	386.19
425.64	388.53
425.83	341.72
426.01	423.64
426.20	407.25
426.39	383.85
426.58	409.59
426.77	425.98
426.96	451.72
427.15	484.49
427.33	435.34
427.52	388.53
427.71	411.93
427.90	372.15
428.09	388.53
428.28	425.98
428.46	428.32
428.65	397.89
428.84	374.49
429.03	428.32
429.22	451.72
429.40	353.42
429.59	367.46
429.78	531.30
429.97	449.38
430.16	430.66
430.34	465.77
430.53	393.21
430.72	397.89
430.91	404.91
431.10	388.53
431.28	449.38
431.47	397.89
431.66	435.34
431.85	507.90
432.03	458.74
432.22	449.38
432.41	388.53
432.60	400.23
432.79	332.36
432.97	388.53
433.16	386.19
433.35	404.91
433.54	379.17
433.72	428.32
433.91	409.59
434.10	428.32
434.28	397.89
434.47	379.17
434.66	449.38
434.85	369.80
435.03	355.76
435.22	435.34
435.41	437.68
435.59	409.59
435.78	416.62
435.97	435.34
436.16	409.59
436.34	465.77
436.53	397.89
436.72	423.64
436.90	479.81
437.09	414.27
437.28	425.98
437.46	411.93
437.65	430.66
437.84	397.89
438.02	423.64
438.21	440.02
438.40	423.64
438.58	374.49
438.77	435.34
438.96	409.59
439.14	365.12
439.33	395.55
439.52	388.53
439.70	428.32
439.89	393.21
440.08	397.89
440.26	425.98
440.45	390.87
440.63	369.80
440.82	449.38
441.01	360.44
441.19	374.49
441.38	437.68
441.57	472.79
441.75	461.09
441.94	383.85
442.12	444.70
442.31	437.68
442.50	400.23
442.68	390.87
442.87	454.06
443.05	414.27
443.24	383.85
443.43	358.10
443.61	423.64
443.80	411.93
443.98	376.83
444.17	458.74
444.35	505.56
444.54	409.59
444.73	397.89
444.91	447.04
445.10	390.87
445.28	372.15
445.47	402.57
445.65	451.72
445.84	367.46
446.02	444.70
446.21	280.86
446.39	414.27
446.58	369.80
446.77	416.62
446.95	388.53
447.14	388.53
447.32	416.62
447.51	423.64
447.69	433.00
447.88	421.30
448.06	416.62
448.25	386.19
448.43	400.23
448.62	423.64
448.80	486.83
448.99	402.57
449.17	390.87
449.36	409.59
449.54	400.23
449.73	425.98
449.91	418.96
450.10	433.00
450.28	475.13
450.46	512.58
450.65	437.68
450.83	346.40
451.02	433.00
451.20	374.49
451.39	390.87
451.57	395.55
451.76	477.47
451.94	358.10
452.13	402.57
452.31	423.64
452.49	414.27
452.68	379.17
452.86	315.97
453.05	517.26
453.23	374.49
453.42	374.49
453.60	423.64
453.78	409.59
453.97	402.57
454.15	395.55
454.34	369.80
454.52	407.25
454.70	477.47
454.89	421.30
455.07	386.19
455.26	397.89
455.44	395.55
455.62	449.38
455.81	346.40
455.99	400.23
456.17	393.21
456.36	421.30
456.54	397.89
456.73	418.96
456.91	430.66
457.09	425.98
457.28	442.36
457.46	395.55
457.64	430.66
457.83	440.02
458.01	435.34
458.19	346.40
458.38	414.27
458.56	510.24
458.74	395.55
458.93	390.87
459.11	414.27
459.29	440.02
459.48	461.09
459.66	430.66
459.84	491.51
460.03	512.58
460.21	416.62
460.39	430.66
460.57	482.15
460.76	402.57
460.94	414.27
461.12	507.90
461.31	451.72
461.49	355.76
461.67	409.59
461.85	423.64
462.04	404.91
462.22	805.14
462.40	458.74
462.59	400.23
462.77	409.59
462.95	407.25
463.13	360.44
463.32	463.43
463.50	393.21
463.68	440.02
463.86	348.74
464.05	388.53
464.23	376.83
464.41	449.38
464.59	390.87
464.78	428.32
464.96	411.93
465.14	416.62
465.32	418.96
465.50	430.66
465.69	400.23
465.87	362.78
466.05	393.21
466.23	451.72
466.41	418.96
466.60	386.19
466.78	463.43
466.96	444.70
467.14	461.09
467.32	400.23
467.51	414.27
467.69	425.98
467.87	393.21
468.05	437.68
468.23	449.38
468.41	428.32
468.60	449.38
468.78	472.79
468.96	416.62
469.14	447.04
469.32	407.25
469.50	442.36
469.69	374.49
469.87	416.62
470.05	423.64
470.23	440.02
470.41	409.59
470.59	435.34
470.77	447.04
470.95	367.46
471.14	454.06
471.32	397.89
471.50	470.45
471.68	433.00
471.86	475.13
472.04	425.98
472.22	421.30
472.40	315.97
472.58	367.46
472.77	383.85
472.95	430.66
473.13	486.83
473.31	395.55
473.49	395.55
473.67	367.46
473.85	404.91
474.03	428.32
474.21	379.17
474.39	341.72
474.57	362.78
474.75	447.04
474.93	447.04
475.12	430.66
475.30	454.06
475.48	407.25
475.66	465.77
475.84	376.83
476.02	463.43
476.20	437.68
476.38	433.00
476.56	409.59
476.74	444.70
476.92	451.72
477.10	444.70
477.28	407.25
477.46	402.57
477.64	447.04
477.82	383.85
478.00	383.85
478.18	458.74
478.36	468.11
478.54	514.92
478.72	379.17
478.90	376.83
479.08	418.96
479.26	421.30
479.44	447.04
479.62	383.85
479.80	402.57
479.98	451.72
480.16	496.19
480.34	395.55
480.52	339.38
480.70	411.93
480.88	409.59
481.06	433.00
481.24	428.32
481.41	353.42
481.59	367.46
481.77	383.85
481.95	409.59
482.13	425.98
482.31	379.17
482.49	388.53
482.67	400.23
482.85	435.34
483.03	407.25
483.21	418.96
483.39	402.57
483.57	360.44
483.74	421.30
483.92	367.46
484.10	414.27
484.28	404.91
484.46	454.06
484.64	346.40
484.82	358.10
485.00	381.51
485.18	416.62
485.35	454.06
485.53	418.96
485.71	454.06
485.89	444.70
486.07	372.15
486.25	486.83
486.43	418.96
486.61	407.25
486.78	414.27
486.96	390.87
487.14	388.53
487.32	393.21
487.50	470.45
487.68	465.77
487.85	435.34
488.03	334.70
488.21	447.04
488.39	416.62
488.57	393.21
488.75	383.85
488.92	514.92
489.10	440.02
489.28	430.66
489.46	423.64
489.64	435.34
489.81	433.00
489.99	437.68
490.17	381.51
490.35	404.91
490.53	402.57
490.70	503.22
490.88	421.30
491.06	407.25
491.24	341.72
491.41	442.36
491.59	437.68
491.77	414.27
491.95	348.74
492.13	400.23
492.30	423.64
492.48	430.66
492.66	383.85
492.84	379.17
493.01	301.93
493.19	440.02
493.37	447.04
493.54	404.91
493.72	465.77
493.90	428.32
494.08	365.12
494.25	442.36
494.43	379.17
494.61	386.19
494.79	353.42
494.96	416.62
495.14	365.12
495.32	355.76
495.49	437.68
495.67	442.36
495.85	416.62
496.02	379.17
496.20	397.89
496.38	388.53
496.55	468.11
496.73	442.36
496.91	365.12
497.09	430.66
497.26	425.98
497.44	386.19
497.62	383.85
497.79	407.25
497.97	458.74
498.14	369.80
498.32	355.76
498.50	407.25
498.67	430.66
498.85	397.89
499.03	400.23
499.20	369.80
499.38	465.77
499.56	351.08
499.73	493.85
499.91	433.00
500.08	409.59
500.26	407.25
500.44	397.89
500.61	337.04
500.79	351.08
500.97	486.83
501.14	449.38
501.32	435.34
501.49	423.64
501.67	465.77
501.84	442.36
502.02	388.53
502.20	447.04
502.37	454.06
502.55	367.46
502.72	444.70
502.90	468.11
503.07	402.57
503.25	503.22
503.43	451.72
503.60	355.76
503.78	397.89
503.95	449.38
504.13	397.89
504.30	470.45
504.48	458.74
504.65	423.64
504.83	472.79
505.01	442.36
505.18	484.49
505.36	409.59
505.53	435.34
505.71	454.06
505.88	500.87
506.06	428.32
506.23	395.55
506.41	442.36
506.58	353.42
506.76	442.36
506.93	383.85
507.11	383.85
507.28	414.27
507.46	425.98
507.63	491.51
507.81	372.15
507.98	383.85
508.16	386.19
508.33	423.64
508.50	442.36
508.68	339.38
508.85	418.96
509.03	341.72
509.20	465.77
509.38	423.64
509.55	355.76
509.73	423.64
509.90	447.04
510.08	374.49
510.25	418.96
510.42	383.85
510.60	425.98
510.77	437.68
510.95	461.09
511.12	381.51
511.30	461.09
511.47	437.68
511.64	440.02
511.82	414.27
511.99	355.76
512.17	444.70
512.34	372.15
512.51	458.74
512.69	430.66
512.86	402.57
513.04	388.53
513.21	418.96
513.38	416.62
513.56	451.72
513.73	435.34
513.90	386.19
514.08	372.15
514.25	348.74
514.43	465.77
514.60	365.12
514.77	411.93
514.95	397.89
515.12	435.34
515.29	428.32
515.47	390.87
515.64	428.32
515.81	421.30
515.99	451.72
516.16	351.08
516.33	458.74
516.51	447.04
516.68	400.23
516.85	400.23
517.03	477.47
517.20	500.87
517.37	409.59
517.54	407.25
517.72	418.96
517.89	414.27
518.06	463.43
518.24	454.06
518.41	458.74
518.58	486.83
518.75	355.76
518.93	325.33
519.10	418.96
519.27	451.72
519.45	451.72
519.62	376.83
519.79	393.21
519.96	507.90
520.14	421.30
520.31	500.87
520.48	414.27
520.65	416.62
520.83	421.30
521.00	423.64
521.17	407.25
521.34	425.98
521.52	409.59
521.69	423.64
521.86	433.00
522.03	390.87
522.20	500.87
522.38	437.68
522.55	400.23
522.72	397.89
522.89	404.91
523.07	400.23
523.24	409.59
523.41	376.83
523.58	402.57
523.75	402.57
523.92	444.70
524.10	425.98
524.27	414.27
524.44	433.00
524.61	414.27
524.78	407.25
524.96	416.62
525.13	355.76
525.30	454.06
525.47	327.68
525.64	390.87
525.81	423.64
525.98	409.59
526.16	400.23
526.33	442.36
526.50	479.81
526.67	374.49
526.84	393.21
527.01	414.27
527.18	437.68
527.36	423.64
527.53	383.85
527.70	395.55
527.87	404.91
528.04	411.93
528.21	372.15
528.38	435.34
528.55	339.38
528.72	454.06
528.89	489.17
529.07	411.93
529.24	416.62
529.41	451.72
529.58	294.91
529.75	376.83
529.92	428.32
530.09	461.09
530.26	355.76
530.43	381.51
530.60	372.15
530.77	430.66
530.94	404.91
531.11	437.68
531.28	409.59
531.46	369.80
531.63	306.61
531.80	348.74
531.97	390.87
532.14	372.15
532.31	404.91
532.48	409.59
532.65	327.68
532.82	358.10
532.99	411.93
533.16	409.59
533.33	344.06
533.50	456.40
533.67	416.62
533.84	421.30
534.01	372.15
534.18	381.51
534.35	402.57
534.52	468.11
534.69	425.98
534.86	447.04
535.03	421.30
535.20	451.72
535.37	411.93
535.54	456.40
535.71	390.87
535.88	400.23
536.05	423.64
536.22	440.02
536.38	442.36
536.55	456.40
536.72	386.19
536.89	416.62
537.06	376.83
537.23	372.15
537.40	411.93
537.57	421.30
537.74	498.53
537.91	404.91
538.08	449.38
538.25	437.68
538.42	456.40
538.59	404.91
538.75	395.55
538.92	437.68
539.09	369.80
539.26	355.76
539.43	444.70
539.60	360.44
539.77	339.38
539.94	454.06
540.11	416.62
540.28	425.98
540.44	489.17
540.61	376.83
540.78	437.68
540.95	411.93
541.12	437.68
541.29	447.04
541.46	477.47
541.62	444.70
541.79	395.55
541.96	416.62
542.13	442.36
542.30	404.91
542.47	369.80
542.63	388.53
542.80	376.83
542.97	330.02
543.14	400.23
543.31	337.04
543.48	404.91
543.64	416.62
543.81	404.91
543.98	433.00
544.15	330.02
544.32	404.91
544.48	404.91
544.65	404.91
544.82	402.57
544.99	477.47
545.16	418.96
545.32	418.96
545.49	416.62
545.66	461.09
545.83	435.34
546.00	327.68
546.16	374.49
546.33	330.02
546.50	369.80
546.67	416.62
546.83	409.59
547.00	423.64
547.17	421.30
547.34	425.98
547.50	512.58
547.67	402.57
547.84	390.87
548.00	444.70
548.17	451.72
548.34	423.64
548.51	435.34
548.67	362.78
548.84	388.53
549.01	397.89
549.18	449.38
549.34	425.98
549.51	404.91
549.68	360.44
549.84	451.72
550.01	393.21
550.18	491.51
550.34	465.77
550.51	449.38
550.68	397.89
550.84	390.87
551.01	397.89
551.18	362.78
551.34	498.53
551.51	409.59
551.68	444.70
551.84	463.43
552.01	428.32
552.18	423.64
552.34	421.30
552.51	442.36
552.68	425.98
552.84	388.53
553.01	463.43
553.18	489.17
553.34	353.42
553.51	332.36
553.67	395.55
553.84	519.60
554.01	428.32
554.17	421.30
554.34	416.62
554.51	442.36
554.67	458.74
554.84	416.62
555.00	376.83
555.17	409.59
555.33	458.74
555.50	402.57
555.67	374.49
555.83	447.04
556.00	411.93
556.16	547.69
556.33	414.27
556.50	444.70
556.66	447.04
556.83	416.62
556.99	465.77
557.16	407.25
557.32	440.02
557.49	409.59
557.65	493.85
557.82	374.49
557.98	463.43
558.15	344.06
558.32	437.68
558.48	355.76
558.65	348.74
558.81	435.34
558.98	393.21
559.14	491.51
559.31	395.55
559.47	468.11
559.64	428.32
559.80	430.66
559.97	440.02
560.13	447.04
560.30	388.53
560.46	358.10
560.63	393.21
560.79	346.40
560.96	402.57
561.12	421.30
561.29	477.47
561.45	397.89
561.61	461.09
561.78	496.19
561.94	440.02
562.11	407.25
562.27	414.27
562.44	416.62
562.60	423.64
562.77	386.19
562.93	454.06
563.10	440.02
563.26	440.02
563.42	421.30
563.59	423.64
563.75	423.64
563.92	433.00
564.08	355.76
564.24	430.66
564.41	404.91
564.57	400.23
564.74	437.68
564.90	475.13
565.07	430.66
565.23	465.77
565.39	397.89
565.56	496.19
565.72	404.91
565.88	353.42
566.05	397.89
566.21	440.02
566.38	477.47
566.54	418.96
566.70	521.94
566.87	479.81
567.03	447.04
567.19	451.72
567.36	456.40
567.52	435.34
567.68	390.87
567.85	435.34
568.01	449.38
568.17	472.79
568.34	493.85
568.50	416.62
568.66	369.80
568.83	437.68
568.99	421.30
569.15	449.38
569.32	381.51
569.48	465.77
569.64	393.21
569.81	372.15
569.97	416.62
570.13	430.66
570.30	409.59
570.46	442.36
570.62	482.15
570.78	437.68
570.95	393.21
571.11	365.12
571.27	409.59
571.43	346.40
571.60	430.66
571.76	367.46
571.92	393.21
572.09	381.51
572.25	386.19
572.41	458.74
572.57	433.00
572.74	425.98
572.90	409.59
573.06	346.40
573.22	386.19
573.38	440.02
573.55	372.15
573.71	414.27
573.87	468.11
574.03	414.27
574.20	442.36
574.36	437.68
574.52	411.93
574.68	435.34
574.84	346.40
575.01	376.83
575.17	435.34
575.33	416.62
575.49	397.89
575.65	400.23
575.82	451.72
575.98	447.04
576.14	428.32
576.30	458.74
576.46	411.93
576.62	374.49
576.79	421.30
576.95	489.17
577.11	379.17
577.27	421.30
577.43	402.57
577.59	433.00
577.75	479.81
577.92	320.65
578.08	325.33
578.24	416.62
578.40	482.15
578.56	423.64
578.72	461.09
578.88	414.27
579.04	376.83
579.21	489.17
579.37	442.36
579.53	444.70
579.69	468.11
579.85	402.57
580.01	435.34
580.17	381.51
580.33	386.19
580.49	339.38
580.65	491.51
580.82	454.06
580.98	468.11
581.14	418.96
581.30	360.44
581.46	339.38
581.62	414.27
581.78	425.98
581.94	512.58
582.10	402.57
582.26	351.08
582.42	407.25
582.58	430.66
582.74	423.64
582.90	409.59
583.06	381.51
583.22	381.51
583.38	433.00
583.54	360.44
583.70	543.00
583.86	430.66
584.02	397.89
584.18	451.72
584.34	395.55
584.50	407.25
584.66	393.21
584.82	372.15
584.98	423.64
585.14	407.25
585.30	418.96
585.46	444.70
585.62	395.55
585.78	428.32
585.94	379.17
586.10	395.55
586.26	407.25
586.42	451.72
586.58	440.02
586.74	437.68
586.90	423.64
587.06	468.11
587.22	397.89
587.38	388.53
587.54	393.21
587.70	376.83
587.86	409.59
588.02	372.15
588.18	489.17
588.34	479.81
588.49	341.72
588.65	402.57
588.81	337.04
588.97	393.21
589.13	418.96
589.29	383.85
589.45	440.02
589.61	393.21
589.77	447.04
589.93	423.64
590.08	409.59
590.24	379.17
590.40	383.85
590.56	414.27
590.72	390.87
590.88	388.53
591.04	510.24
591.20	404.91
591.35	461.09
591.51	409.59
591.67	397.89
591.83	360.44
591.99	475.13
592.15	433.00
592.31	475.13
592.46	472.79
592.62	456.40
592.78	430.66
592.94	440.02
593.10	376.83
593.26	395.55
593.41	489.17
593.57	344.06
593.73	386.19
593.89	433.00
594.05	393.21
594.20	344.06
594.36	409.59
594.52	423.64
594.68	440.02
594.84	454.06
594.99	395.55
595.15	421.30
595.31	479.81
595.47	409.59
595.62	475.13
595.78	362.78
595.94	362.78
596.10	393.21
596.25	425.98
596.41	423.64
596.57	362.78
596.73	404.91
596.88	421.30
597.04	442.36
597.20	465.77
597.36	395.55
597.51	388.53
597.67	341.72
597.83	433.00
597.99	479.81
598.14	407.25
598.30	423.64
598.46	428.32
598.61	440.02
598.77	463.43
598.93	407.25
599.09	421.30
599.24	421.30
599.40	423.64
599.56	409.59
599.71	489.17
599.87	353.42
600.03	414.27
600.18	423.64
600.34	418.96
600.50	400.23
600.65	404.91
600.81	435.34
600.97	418.96
601.12	367.46
601.28	381.51
601.44	395.55
601.59	437.68
601.75	470.45
601.91	414.27
602.06	421.30
602.22	465.77
602.37	386.19
602.53	428.32
602.69	409.59
602.84	411.93
603.00	388.53
603.16	465.77
603.31	421.30
603.47	423.64
603.62	407.25
603.78	393.21
603.94	395.55
604.09	379.17
604.25	484.49
604.40	365.12
604.56	395.55
604.71	360.44
604.87	458.74
605.03	395.55
605.18	407.25
605.34	437.68
605.49	409.59
605.65	479.81
605.80	369.80
605.96	351.08
606.12	433.00
606.27	451.72
606.43	465.77
606.58	454.06
606.74	454.06
606.89	435.34
607.05	341.72
607.20	465.77
607.36	437.68
607.51	409.59
607.67	416.62
607.82	397.89
607.98	444.70
608.13	454.06
608.29	425.98
608.44	463.43
608.60	362.78
608.75	411.93
608.91	386.19
609.06	409.59
609.22	435.34
609.37	400.23
609.53	360.44
609.68	400.23
609.84	390.87
609.99	393.21
610.15	454.06
