SpectraSuite Data File
++++++++++++++++++++++++++++++++++++
Date: Fri Oct 25 12:10:10 EDT 2013
User: price-jones
Dark Spectrum Present: No
Reference Spectrum Present: No
Number of Sampled Component Spectra: 1
Spectrometers: USB2+H05261
Integration Time (usec): 100000 (USB2+H05261)
Spectra Averaged: 1 (USB2+H05261)
Boxcar Smoothing: 0 (USB2+H05261)
Correct for Electrical Dark: No (USB2+H05261)
Strobe/Lamp Enabled: No (USB2+H05261)
Correct for Detector Non-linearity: No (USB2+H05261)
Correct for Stray Light: No (USB2+H05261)
Number of Pixels in Processed Spectrum: 2048
>>>>>Begin Processed Spectral Data<<<<<
365.73	411.93
365.92	411.93
366.12	411.93
366.32	330.02
366.52	215.33
366.72	227.03
366.91	187.24
367.11	245.76
367.31	220.01
367.51	191.92
367.70	269.16
367.90	234.05
368.10	301.93
368.30	278.52
368.49	194.26
368.69	280.86
368.89	231.71
369.09	308.95
369.28	287.89
369.48	231.71
369.68	283.20
369.87	320.65
370.07	271.50
370.27	379.17
370.47	332.36
370.66	346.40
370.86	320.65
371.06	318.31
371.25	425.98
371.45	404.91
371.65	468.11
371.84	376.83
372.04	294.91
372.24	383.85
372.44	425.98
372.63	456.40
372.83	479.81
373.03	386.19
373.22	395.55
373.42	407.25
373.62	381.51
373.81	437.68
374.01	369.80
374.21	407.25
374.40	369.80
374.60	428.32
374.79	477.47
374.99	477.47
375.19	437.68
375.38	346.40
375.58	425.98
375.78	416.62
375.97	475.13
376.17	449.38
376.37	379.17
376.56	390.87
376.76	386.19
376.95	390.87
377.15	449.38
377.35	334.70
377.54	379.17
377.74	402.57
377.93	428.32
378.13	400.23
378.33	418.96
378.52	425.98
378.72	447.04
378.91	435.34
379.11	411.93
379.31	395.55
379.50	404.91
379.70	379.17
379.89	423.64
380.09	418.96
380.28	404.91
380.48	397.89
380.68	414.27
380.87	414.27
381.07	397.89
381.26	402.57
381.46	425.98
381.65	430.66
381.85	376.83
382.04	379.17
382.24	414.27
382.43	294.91
382.63	451.72
382.83	451.72
383.02	386.19
383.22	395.55
383.41	414.27
383.61	430.66
383.80	482.15
384.00	437.68
384.19	341.72
384.39	388.53
384.58	414.27
384.78	390.87
384.97	411.93
385.17	388.53
385.36	353.42
385.56	393.21
385.75	341.72
385.95	388.53
386.14	402.57
386.34	428.32
386.53	346.40
386.72	276.18
386.92	390.87
387.11	451.72
387.31	402.57
387.50	397.89
387.70	388.53
387.89	400.23
388.09	463.43
388.28	374.49
388.48	411.93
388.67	430.66
388.86	348.74
389.06	341.72
389.25	411.93
389.45	355.76
389.64	475.13
389.84	390.87
390.03	468.11
390.22	400.23
390.42	407.25
390.61	351.08
390.81	423.64
391.00	409.59
391.19	376.83
391.39	411.93
391.58	444.70
391.78	440.02
391.97	334.70
392.16	430.66
392.36	472.79
392.55	383.85
392.75	376.83
392.94	388.53
393.13	449.38
393.33	372.15
393.52	393.21
393.71	421.30
393.91	421.30
394.10	351.08
394.29	346.40
394.49	388.53
394.68	376.83
394.88	435.34
395.07	465.77
395.26	423.64
395.46	339.38
395.65	447.04
395.84	454.06
396.04	400.23
396.23	496.19
396.42	393.21
396.62	386.19
396.81	465.77
397.00	421.30
397.19	421.30
397.39	365.12
397.58	334.70
397.77	388.53
397.97	341.72
398.16	395.55
398.35	348.74
398.55	407.25
398.74	465.77
398.93	409.59
399.12	376.83
399.32	390.87
399.51	411.93
399.70	430.66
399.90	381.51
400.09	367.46
400.28	447.04
400.47	440.02
400.67	435.34
400.86	337.04
401.05	425.98
401.24	414.27
401.44	440.02
401.63	463.43
401.82	395.55
402.01	416.62
402.21	435.34
402.40	440.02
402.59	404.91
402.78	346.40
402.97	400.23
403.17	386.19
403.36	374.49
403.55	425.98
403.74	402.57
403.93	430.66
404.13	353.42
404.32	320.65
404.51	369.80
404.70	416.62
404.89	489.17
405.09	404.91
405.28	386.19
405.47	400.23
405.66	454.06
405.85	430.66
406.05	409.59
406.24	353.42
406.43	430.66
406.62	421.30
406.81	409.59
407.00	379.17
407.20	367.46
407.39	428.32
407.58	390.87
407.77	390.87
407.96	388.53
408.15	407.25
408.34	390.87
408.54	360.44
408.73	470.45
408.92	346.40
409.11	411.93
409.30	388.53
409.49	367.46
409.68	463.43
409.87	425.98
410.07	397.89
410.26	388.53
410.45	397.89
410.64	435.34
410.83	360.44
411.02	454.06
411.21	388.53
411.40	428.32
411.59	381.51
411.78	374.49
411.98	421.30
412.17	388.53
412.36	379.17
412.55	451.72
412.74	444.70
412.93	379.17
413.12	344.06
413.31	479.81
413.50	428.32
413.69	421.30
413.88	407.25
414.07	421.30
414.26	456.40
414.45	444.70
414.64	418.96
414.83	505.56
415.02	449.38
415.22	437.68
415.41	418.96
415.60	344.06
415.79	430.66
415.98	372.15
416.17	433.00
416.36	388.53
416.55	409.59
416.74	411.93
416.93	418.96
417.12	332.36
417.31	418.96
417.50	386.19
417.69	386.19
417.88	374.49
418.07	397.89
418.26	395.55
418.45	418.96
418.64	421.30
418.83	416.62
419.02	411.93
419.21	383.85
419.39	472.79
419.58	404.91
419.77	360.44
419.96	510.24
420.15	435.34
420.34	376.83
420.53	428.32
420.72	447.04
420.91	374.49
421.10	358.10
421.29	383.85
421.48	402.57
421.67	369.80
421.86	379.17
422.05	374.49
422.24	421.30
422.43	332.36
422.61	388.53
422.80	442.36
422.99	440.02
423.18	447.04
423.37	397.89
423.56	320.65
423.75	393.21
423.94	404.91
424.13	456.40
424.32	367.46
424.50	414.27
424.69	393.21
424.88	489.17
425.07	400.23
425.26	374.49
425.45	395.55
425.64	395.55
425.83	330.02
426.01	397.89
426.20	388.53
426.39	449.38
426.58	407.25
426.77	489.17
426.96	390.87
427.15	386.19
427.33	386.19
427.52	400.23
427.71	379.17
427.90	353.42
428.09	418.96
428.28	351.08
428.46	346.40
428.65	414.27
428.84	454.06
429.03	433.00
429.22	358.10
429.40	400.23
429.59	390.87
429.78	461.09
429.97	428.32
430.16	456.40
430.34	397.89
430.53	379.17
430.72	393.21
430.91	435.34
431.10	409.59
431.28	362.78
431.47	393.21
431.66	428.32
431.85	477.47
432.03	421.30
432.22	444.70
432.41	386.19
432.60	421.30
432.79	454.06
432.97	369.80
433.16	414.27
433.35	433.00
433.54	423.64
433.72	451.72
433.91	465.77
434.10	416.62
434.28	353.42
434.47	414.27
434.66	353.42
434.85	397.89
435.03	397.89
435.22	400.23
435.41	416.62
435.59	421.30
435.78	388.53
435.97	423.64
436.16	435.34
436.34	475.13
436.53	433.00
436.72	486.83
436.90	428.32
437.09	475.13
437.28	407.25
437.46	418.96
437.65	430.66
437.84	449.38
438.02	400.23
438.21	440.02
438.40	411.93
438.58	311.29
438.77	360.44
438.96	421.30
439.14	400.23
439.33	381.51
439.52	440.02
439.70	449.38
439.89	407.25
440.08	362.78
440.26	414.27
440.45	472.79
440.63	449.38
440.82	416.62
441.01	379.17
441.19	447.04
441.38	430.66
441.57	388.53
441.75	421.30
441.94	397.89
442.12	416.62
442.31	358.10
442.50	411.93
442.68	383.85
442.87	381.51
443.05	402.57
443.24	381.51
443.43	425.98
443.61	435.34
443.80	395.55
443.98	447.04
444.17	461.09
444.35	418.96
444.54	411.93
444.73	383.85
444.91	383.85
445.10	346.40
445.28	442.36
445.47	381.51
445.65	388.53
445.84	397.89
446.02	383.85
446.21	414.27
446.39	358.10
446.58	369.80
446.77	381.51
446.95	407.25
447.14	416.62
447.32	407.25
447.51	400.23
447.69	404.91
447.88	379.17
448.06	355.76
448.25	393.21
448.43	341.72
448.62	404.91
448.80	430.66
448.99	463.43
449.17	369.80
449.36	397.89
449.54	451.72
449.73	411.93
449.91	440.02
450.10	369.80
450.28	442.36
450.46	404.91
450.65	395.55
450.83	381.51
451.02	442.36
451.20	414.27
451.39	367.46
451.57	444.70
451.76	369.80
451.94	411.93
452.13	475.13
452.31	407.25
452.49	454.06
452.68	376.83
452.86	425.98
453.05	383.85
453.23	507.90
453.42	468.11
453.60	365.12
453.78	468.11
453.97	372.15
454.15	376.83
454.34	367.46
454.52	376.83
454.70	400.23
454.89	411.93
455.07	318.31
455.26	362.78
455.44	442.36
455.62	404.91
455.81	428.32
455.99	393.21
456.17	496.19
456.36	428.32
456.54	456.40
456.73	404.91
456.91	430.66
457.09	411.93
457.28	433.00
457.46	402.57
457.64	407.25
457.83	374.49
458.01	379.17
458.19	390.87
458.38	463.43
458.56	442.36
458.74	393.21
458.93	435.34
459.11	362.78
459.29	404.91
459.48	456.40
459.66	447.04
459.84	428.32
460.03	475.13
460.21	458.74
460.39	379.17
460.57	468.11
460.76	400.23
460.94	425.98
461.12	381.51
461.31	433.00
461.49	430.66
461.67	400.23
461.85	407.25
462.04	327.68
462.22	737.27
462.40	433.00
462.59	358.10
462.77	393.21
462.95	451.72
463.13	353.42
463.32	381.51
463.50	468.11
463.68	465.77
463.86	430.66
464.05	418.96
464.23	425.98
464.41	374.49
464.59	404.91
464.78	433.00
464.96	388.53
465.14	437.68
465.32	379.17
465.50	440.02
465.69	414.27
465.87	360.44
466.05	341.72
466.23	386.19
466.41	367.46
466.60	484.49
466.78	418.96
466.96	470.45
467.14	437.68
467.32	447.04
467.51	428.32
467.69	376.83
467.87	447.04
468.05	397.89
468.23	482.15
468.41	430.66
468.60	437.68
468.78	369.80
468.96	486.83
469.14	360.44
469.32	454.06
469.50	395.55
469.69	475.13
469.87	414.27
470.05	433.00
470.23	393.21
470.41	400.23
470.59	414.27
470.77	400.23
470.95	400.23
471.14	397.89
471.32	320.65
471.50	425.98
471.68	402.57
471.86	400.23
472.04	376.83
472.22	407.25
472.40	400.23
472.58	482.15
472.77	458.74
472.95	468.11
473.13	414.27
473.31	416.62
473.49	386.19
473.67	425.98
473.85	315.97
474.03	461.09
474.21	428.32
474.39	430.66
474.57	435.34
474.75	379.17
474.93	458.74
475.12	407.25
475.30	461.09
475.48	428.32
475.66	458.74
475.84	341.72
476.02	388.53
476.20	402.57
476.38	407.25
476.56	519.60
476.74	381.51
476.92	362.78
477.10	470.45
477.28	458.74
477.46	414.27
477.64	411.93
477.82	383.85
478.00	428.32
478.18	461.09
478.36	444.70
478.54	425.98
478.72	400.23
478.90	376.83
479.08	348.74
479.26	456.40
479.44	456.40
479.62	416.62
479.80	388.53
479.98	299.59
480.16	390.87
480.34	407.25
480.52	351.08
480.70	344.06
480.88	414.27
481.06	388.53
481.24	397.89
481.41	407.25
481.59	475.13
481.77	407.25
481.95	458.74
482.13	411.93
482.31	491.51
482.49	400.23
482.67	407.25
482.85	463.43
483.03	428.32
483.21	337.04
483.39	362.78
483.57	475.13
483.74	498.53
483.92	440.02
484.10	390.87
484.28	442.36
484.46	423.64
484.64	372.15
484.82	425.98
485.00	433.00
485.18	362.78
485.35	512.58
485.53	355.76
485.71	475.13
485.89	400.23
486.07	423.64
486.25	433.00
486.43	416.62
486.61	423.64
486.78	447.04
486.96	369.80
487.14	367.46
487.32	379.17
487.50	458.74
487.68	374.49
487.85	381.51
488.03	416.62
488.21	397.89
488.39	449.38
488.57	383.85
488.75	433.00
488.92	507.90
489.10	461.09
489.28	430.66
489.46	355.76
489.64	447.04
489.81	369.80
489.99	470.45
490.17	430.66
490.35	449.38
490.53	465.77
490.70	428.32
490.88	395.55
491.06	430.66
491.24	409.59
491.41	430.66
491.59	402.57
491.77	369.80
491.95	400.23
492.13	404.91
492.30	404.91
492.48	388.53
492.66	430.66
492.84	397.89
493.01	421.30
493.19	409.59
493.37	491.51
493.54	411.93
493.72	402.57
493.90	395.55
494.08	369.80
494.25	416.62
494.43	447.04
494.61	454.06
494.79	458.74
494.96	390.87
495.14	423.64
495.32	435.34
495.49	425.98
495.67	400.23
495.85	414.27
496.02	477.47
496.20	360.44
496.38	409.59
496.55	416.62
496.73	468.11
496.91	409.59
497.09	409.59
497.26	435.34
497.44	353.42
497.62	320.65
497.79	386.19
497.97	372.15
498.14	442.36
498.32	376.83
498.50	463.43
498.67	414.27
498.85	421.30
499.03	451.72
499.20	430.66
499.38	444.70
499.56	362.78
499.73	472.79
499.91	433.00
500.08	447.04
500.26	337.04
500.44	425.98
500.61	383.85
500.79	360.44
500.97	430.66
501.14	402.57
501.32	425.98
501.49	421.30
501.67	423.64
501.84	397.89
502.02	409.59
502.20	479.81
502.37	472.79
502.55	383.85
502.72	416.62
502.90	360.44
503.07	337.04
503.25	475.13
503.43	379.17
503.60	465.77
503.78	395.55
503.95	404.91
504.13	362.78
504.30	418.96
504.48	465.77
504.65	430.66
504.83	388.53
505.01	386.19
505.18	458.74
505.36	454.06
505.53	414.27
505.71	425.98
505.88	433.00
506.06	411.93
506.23	313.63
506.41	397.89
506.58	407.25
506.76	409.59
506.93	355.76
507.11	477.47
507.28	407.25
507.46	337.04
507.63	388.53
507.81	374.49
507.98	313.63
508.16	393.21
508.33	404.91
508.50	433.00
508.68	411.93
508.85	456.40
509.03	428.32
509.20	404.91
509.38	374.49
509.55	454.06
509.73	407.25
509.90	353.42
510.08	365.12
510.25	435.34
510.42	386.19
510.60	425.98
510.77	468.11
510.95	381.51
511.12	430.66
511.30	428.32
511.47	442.36
511.64	367.46
511.82	421.30
511.99	372.15
512.17	365.12
512.34	425.98
512.51	465.77
512.69	430.66
512.86	404.91
513.04	400.23
513.21	423.64
513.38	404.91
513.56	376.83
513.73	451.72
513.90	388.53
514.08	379.17
514.25	367.46
514.43	397.89
514.60	376.83
514.77	372.15
514.95	421.30
515.12	421.30
515.29	472.79
515.47	381.51
515.64	454.06
515.81	425.98
515.99	447.04
516.16	395.55
516.33	489.17
516.51	430.66
516.68	404.91
516.85	348.74
517.03	374.49
517.20	381.51
517.37	404.91
517.54	444.70
517.72	402.57
517.89	362.78
518.06	383.85
518.24	479.81
518.41	416.62
518.58	421.30
518.75	388.53
518.93	423.64
519.10	397.89
519.27	320.65
519.45	386.19
519.62	397.89
519.79	472.79
519.96	390.87
520.14	379.17
520.31	447.04
520.48	440.02
520.65	411.93
520.83	383.85
521.00	395.55
521.17	369.80
521.34	409.59
521.52	369.80
521.69	397.89
521.86	423.64
522.03	442.36
522.20	449.38
522.38	332.36
522.55	423.64
522.72	486.83
522.89	383.85
523.07	461.09
523.24	409.59
523.41	440.02
523.58	404.91
523.75	407.25
523.92	355.76
524.10	393.21
524.27	404.91
524.44	482.15
524.61	379.17
524.78	372.15
524.96	465.77
525.13	421.30
525.30	465.77
525.47	447.04
525.64	465.77
525.81	395.55
525.98	454.06
526.16	433.00
526.33	404.91
526.50	411.93
526.67	327.68
526.84	425.98
527.01	383.85
527.18	348.74
527.36	433.00
527.53	402.57
527.70	477.47
527.87	435.34
528.04	451.72
528.21	416.62
528.38	402.57
528.55	458.74
528.72	430.66
528.89	470.45
529.07	425.98
529.24	430.66
529.41	479.81
529.58	433.00
529.75	430.66
529.92	386.19
530.09	411.93
530.26	411.93
530.43	388.53
530.60	418.96
530.77	440.02
530.94	489.17
531.11	409.59
531.28	421.30
531.46	362.78
531.63	409.59
531.80	402.57
531.97	344.06
532.14	421.30
532.31	421.30
532.48	383.85
532.65	341.72
532.82	400.23
532.99	442.36
533.16	404.91
533.33	365.12
533.50	381.51
533.67	395.55
533.84	458.74
534.01	402.57
534.18	390.87
534.35	397.89
534.52	468.11
534.69	381.51
534.86	337.04
535.03	444.70
535.20	423.64
535.37	437.68
535.54	383.85
535.71	505.56
535.88	456.40
536.05	425.98
536.22	353.42
536.38	433.00
536.55	381.51
536.72	402.57
536.89	362.78
537.06	369.80
537.23	430.66
537.40	430.66
537.57	418.96
537.74	423.64
537.91	409.59
538.08	388.53
538.25	390.87
538.42	381.51
538.59	442.36
538.75	374.49
538.92	395.55
539.09	418.96
539.26	451.72
539.43	489.17
539.60	421.30
539.77	428.32
539.94	470.45
540.11	507.90
540.28	479.81
540.44	435.34
540.61	383.85
540.78	418.96
540.95	418.96
541.12	423.64
541.29	430.66
541.46	428.32
541.62	421.30
541.79	369.80
541.96	433.00
542.13	383.85
542.30	472.79
542.47	409.59
542.63	414.27
542.80	397.89
542.97	447.04
543.14	423.64
543.31	400.23
543.48	362.78
543.64	444.70
543.81	395.55
543.98	444.70
544.15	421.30
544.32	330.02
544.48	456.40
544.65	369.80
544.82	430.66
544.99	428.32
545.16	465.77
545.32	383.85
545.49	388.53
545.66	402.57
545.83	444.70
546.00	339.38
546.16	318.31
546.33	414.27
546.50	395.55
546.67	486.83
546.83	503.22
547.00	411.93
547.17	477.47
547.34	400.23
547.50	374.49
547.67	409.59
547.84	390.87
548.00	390.87
548.17	388.53
548.34	456.40
548.51	409.59
548.67	444.70
548.84	360.44
549.01	493.85
549.18	425.98
549.34	411.93
549.51	393.21
549.68	358.10
549.84	444.70
550.01	383.85
550.18	461.09
550.34	465.77
550.51	404.91
550.68	428.32
550.84	477.47
551.01	388.53
551.18	433.00
551.34	437.68
551.51	348.74
551.68	395.55
551.84	428.32
552.01	372.15
552.18	369.80
552.34	421.30
552.51	416.62
552.68	477.47
552.84	437.68
553.01	407.25
553.18	428.32
553.34	435.34
553.51	416.62
553.67	472.79
553.84	397.89
554.01	411.93
554.17	400.23
554.34	292.57
554.51	458.74
554.67	409.59
554.84	475.13
555.00	512.58
555.17	491.51
555.33	414.27
555.50	395.55
555.67	409.59
555.83	379.17
556.00	388.53
556.16	575.77
556.33	465.77
556.50	393.21
556.66	437.68
556.83	451.72
556.99	330.02
557.16	351.08
557.32	468.11
557.49	397.89
557.65	409.59
557.82	409.59
557.98	456.40
558.15	393.21
558.32	388.53
558.48	451.72
558.65	435.34
558.81	379.17
558.98	369.80
559.14	372.15
559.31	425.98
559.47	440.02
559.64	318.31
559.80	404.91
559.97	395.55
560.13	423.64
560.30	454.06
560.46	423.64
560.63	449.38
560.79	393.21
560.96	447.04
561.12	376.83
561.29	414.27
561.45	379.17
561.61	414.27
561.78	442.36
561.94	423.64
562.11	379.17
562.27	444.70
562.44	362.78
562.60	423.64
562.77	454.06
562.93	393.21
563.10	447.04
563.26	454.06
563.42	463.43
563.59	468.11
563.75	379.17
563.92	433.00
564.08	484.49
564.24	430.66
564.41	428.32
564.57	369.80
564.74	430.66
564.90	477.47
565.07	447.04
565.23	421.30
565.39	442.36
565.56	430.66
565.72	402.57
565.88	482.15
566.05	390.87
566.21	404.91
566.38	423.64
566.54	367.46
566.70	433.00
566.87	425.98
567.03	440.02
567.19	442.36
567.36	461.09
567.52	435.34
567.68	414.27
567.85	418.96
568.01	442.36
568.17	369.80
568.34	369.80
568.50	491.51
568.66	395.55
568.83	486.83
568.99	411.93
569.15	444.70
569.32	397.89
569.48	425.98
569.64	435.34
569.81	407.25
569.97	411.93
570.13	402.57
570.30	367.46
570.46	374.49
570.62	353.42
570.78	414.27
570.95	397.89
571.11	425.98
571.27	400.23
571.43	372.15
571.60	433.00
571.76	379.17
571.92	397.89
572.09	379.17
572.25	409.59
572.41	411.93
572.57	425.98
572.74	447.04
572.90	430.66
573.06	400.23
573.22	428.32
573.38	369.80
573.55	433.00
573.71	423.64
573.87	402.57
574.03	437.68
574.20	435.34
574.36	435.34
574.52	414.27
574.68	383.85
574.84	458.74
575.01	395.55
575.17	444.70
575.33	472.79
575.49	411.93
575.65	428.32
575.82	367.46
575.98	524.28
576.14	421.30
576.30	414.27
576.46	421.30
576.62	433.00
576.79	421.30
576.95	468.11
577.11	404.91
577.27	463.43
577.43	451.72
577.59	447.04
577.75	423.64
577.92	444.70
578.08	437.68
578.24	444.70
578.40	402.57
578.56	411.93
578.72	461.09
578.88	477.47
579.04	444.70
579.21	402.57
579.37	414.27
579.53	311.29
579.69	449.38
579.85	353.42
580.01	433.00
580.17	407.25
580.33	402.57
580.49	367.46
580.65	414.27
580.82	447.04
580.98	409.59
581.14	390.87
581.30	388.53
581.46	365.12
581.62	360.44
581.78	397.89
581.94	383.85
582.10	388.53
582.26	416.62
582.42	411.93
582.58	442.36
582.74	418.96
582.90	451.72
583.06	482.15
583.22	386.19
583.38	414.27
583.54	383.85
583.70	477.47
583.86	428.32
584.02	437.68
584.18	472.79
584.34	484.49
584.50	414.27
584.66	468.11
584.82	351.08
584.98	503.22
585.14	442.36
585.30	418.96
585.46	393.21
585.62	379.17
585.78	418.96
585.94	449.38
586.10	411.93
586.26	435.34
586.42	444.70
586.58	470.45
586.74	437.68
586.90	416.62
587.06	428.32
587.22	381.51
587.38	393.21
587.54	311.29
587.70	400.23
587.86	444.70
588.02	407.25
588.18	428.32
588.34	475.13
588.49	437.68
588.65	365.12
588.81	421.30
588.97	430.66
589.13	360.44
589.29	416.62
589.45	397.89
589.61	477.47
589.77	435.34
589.93	440.02
590.08	437.68
590.24	461.09
590.40	421.30
590.56	435.34
590.72	440.02
590.88	388.53
591.04	411.93
591.20	388.53
591.35	344.06
591.51	390.87
591.67	397.89
591.83	423.64
591.99	404.91
592.15	433.00
592.31	442.36
592.46	404.91
592.62	440.02
592.78	330.02
592.94	386.19
593.10	425.98
593.26	409.59
593.41	428.32
593.57	482.15
593.73	409.59
593.89	409.59
594.05	423.64
594.20	379.17
594.36	470.45
594.52	337.04
594.68	386.19
594.84	430.66
594.99	458.74
595.15	411.93
595.31	400.23
595.47	407.25
595.62	367.46
595.78	430.66
595.94	404.91
596.10	468.11
596.25	407.25
596.41	430.66
596.57	440.02
596.73	421.30
596.88	428.32
597.04	416.62
597.20	397.89
597.36	456.40
597.51	440.02
597.67	379.17
597.83	397.89
597.99	444.70
598.14	454.06
598.30	395.55
598.46	421.30
598.61	416.62
598.77	489.17
598.93	425.98
599.09	451.72
599.24	449.38
599.40	430.66
599.56	484.49
599.71	421.30
599.87	425.98
600.03	393.21
600.18	393.21
600.34	407.25
600.50	393.21
600.65	400.23
600.81	456.40
600.97	411.93
601.12	393.21
601.28	437.68
601.44	360.44
601.59	449.38
601.75	465.77
601.91	379.17
602.06	395.55
602.22	421.30
602.37	468.11
602.53	376.83
602.69	440.02
602.84	491.51
603.00	475.13
603.16	388.53
603.31	444.70
603.47	428.32
603.62	400.23
603.78	372.15
603.94	411.93
604.09	351.08
604.25	449.38
604.40	442.36
604.56	355.76
604.71	430.66
604.87	416.62
605.03	423.64
605.18	411.93
605.34	414.27
605.49	440.02
605.65	369.80
605.80	400.23
605.96	418.96
606.12	418.96
606.27	421.30
606.43	362.78
606.58	421.30
606.74	437.68
606.89	428.32
607.05	512.58
607.20	411.93
607.36	358.10
607.51	374.49
607.67	430.66
607.82	433.00
607.98	507.90
608.13	475.13
608.29	437.68
608.44	421.30
608.60	442.36
608.75	421.30
608.91	360.44
609.06	372.15
609.22	447.04
609.37	435.34
609.53	404.91
609.68	400.23
609.84	461.09
609.99	433.00
610.15	435.34
