SpectraSuite Data File
++++++++++++++++++++++++++++++++++++
Date: Fri Oct 25 12:10:10 EDT 2013
User: price-jones
Dark Spectrum Present: No
Reference Spectrum Present: No
Number of Sampled Component Spectra: 1
Spectrometers: USB2+H05261
Integration Time (usec): 100000 (USB2+H05261)
Spectra Averaged: 1 (USB2+H05261)
Boxcar Smoothing: 0 (USB2+H05261)
Correct for Electrical Dark: No (USB2+H05261)
Strobe/Lamp Enabled: No (USB2+H05261)
Correct for Detector Non-linearity: No (USB2+H05261)
Correct for Stray Light: No (USB2+H05261)
Number of Pixels in Processed Spectrum: 2048
>>>>>Begin Processed Spectral Data<<<<<
365.73	341.72
365.92	341.72
366.12	341.72
366.32	266.82
366.52	301.93
366.72	208.31
366.91	248.10
367.11	241.08
367.31	255.12
367.51	238.73
367.70	212.99
367.90	231.71
368.10	236.39
368.30	248.10
368.49	208.31
368.69	241.08
368.89	248.10
369.09	271.50
369.28	264.48
369.48	287.89
369.68	334.70
369.87	290.23
370.07	278.52
370.27	330.02
370.47	294.91
370.66	290.23
370.86	327.68
371.06	395.55
371.25	332.36
371.45	383.85
371.65	521.94
371.84	407.25
372.04	390.87
372.24	379.17
372.44	404.91
372.63	444.70
372.83	465.77
373.03	390.87
373.22	360.44
373.42	435.34
373.62	351.08
373.81	402.57
374.01	475.13
374.21	379.17
374.40	383.85
374.60	514.92
374.79	463.43
374.99	344.06
375.19	409.59
375.38	468.11
375.58	390.87
375.78	397.89
375.97	425.98
376.17	472.79
376.37	435.34
376.56	395.55
376.76	351.08
376.95	440.02
377.15	437.68
377.35	465.77
377.54	414.27
377.74	425.98
377.93	334.70
378.13	423.64
378.33	479.81
378.52	402.57
378.72	437.68
378.91	435.34
379.11	290.23
379.31	407.25
379.50	327.68
379.70	423.64
379.89	496.19
380.09	465.77
380.28	409.59
380.48	416.62
380.68	358.10
380.87	374.49
381.07	367.46
381.26	423.64
381.46	348.74
381.65	395.55
381.85	407.25
382.04	404.91
382.24	395.55
382.43	461.09
382.63	320.65
382.83	379.17
383.02	433.00
383.22	397.89
383.41	390.87
383.61	423.64
383.80	454.06
384.00	388.53
384.19	334.70
384.39	440.02
384.58	404.91
384.78	442.36
384.97	383.85
385.17	402.57
385.36	395.55
385.56	475.13
385.75	414.27
385.95	374.49
386.14	369.80
386.34	297.25
386.53	374.49
386.72	418.96
386.92	433.00
387.11	374.49
387.31	395.55
387.50	421.30
387.70	418.96
387.89	365.12
388.09	437.68
388.28	367.46
388.48	386.19
388.67	393.21
388.86	376.83
389.06	362.78
389.25	416.62
389.45	365.12
389.64	400.23
389.84	470.45
390.03	386.19
390.22	374.49
390.42	423.64
390.61	421.30
390.81	386.19
391.00	440.02
391.19	393.21
391.39	414.27
391.58	425.98
391.78	388.53
391.97	409.59
392.16	388.53
392.36	430.66
392.55	428.32
392.75	390.87
392.94	418.96
393.13	414.27
393.33	414.27
393.52	402.57
393.71	416.62
393.91	435.34
394.10	358.10
394.29	386.19
394.49	407.25
394.68	386.19
394.88	393.21
395.07	416.62
395.26	374.49
395.46	376.83
395.65	416.62
395.84	433.00
396.04	414.27
396.23	369.80
396.42	379.17
396.62	428.32
396.81	425.98
397.00	402.57
397.19	433.00
397.39	397.89
397.58	463.43
397.77	444.70
397.97	449.38
398.16	397.89
398.35	430.66
398.55	327.68
398.74	437.68
398.93	458.74
399.12	351.08
399.32	355.76
399.51	341.72
399.70	528.96
399.90	435.34
400.09	409.59
400.28	411.93
400.47	425.98
400.67	444.70
400.86	463.43
401.05	397.89
401.24	411.93
401.44	411.93
401.63	367.46
401.82	470.45
402.01	421.30
402.21	421.30
402.40	430.66
402.59	348.74
402.78	393.21
402.97	421.30
403.17	402.57
403.36	449.38
403.55	482.15
403.74	395.55
403.93	423.64
404.13	433.00
404.32	404.91
404.51	397.89
404.70	451.72
404.89	409.59
405.09	402.57
405.28	435.34
405.47	381.51
405.66	411.93
405.85	372.15
406.05	388.53
406.24	346.40
406.43	454.06
406.62	383.85
406.81	390.87
407.00	444.70
407.20	414.27
407.39	386.19
407.58	360.44
407.77	393.21
407.96	449.38
408.15	421.30
408.34	477.47
408.54	381.51
408.73	397.89
408.92	372.15
409.11	421.30
409.30	442.36
409.49	355.76
409.68	440.02
409.87	397.89
410.07	423.64
410.26	393.21
410.45	430.66
410.64	386.19
410.83	360.44
411.02	407.25
411.21	369.80
411.40	376.83
411.59	407.25
411.78	414.27
411.98	411.93
412.17	423.64
412.36	407.25
412.55	372.15
412.74	369.80
412.93	400.23
413.12	355.76
413.31	465.77
413.50	397.89
413.69	404.91
413.88	482.15
414.07	416.62
414.26	393.21
414.45	402.57
414.64	409.59
414.83	383.85
415.02	367.46
415.22	411.93
415.41	365.12
415.60	397.89
415.79	360.44
415.98	397.89
416.17	423.64
416.36	454.06
416.55	411.93
416.74	395.55
416.93	430.66
417.12	358.10
417.31	353.42
417.50	430.66
417.69	421.30
417.88	423.64
418.07	454.06
418.26	311.29
418.45	388.53
418.64	458.74
418.83	486.83
419.02	454.06
419.21	454.06
419.39	381.51
419.58	470.45
419.77	379.17
419.96	414.27
420.15	421.30
420.34	416.62
420.53	379.17
420.72	409.59
420.91	376.83
421.10	381.51
421.29	383.85
421.48	407.25
421.67	360.44
421.86	369.80
422.05	386.19
422.24	433.00
422.43	414.27
422.61	484.49
422.80	437.68
422.99	402.57
423.18	372.15
423.37	449.38
423.56	461.09
423.75	442.36
423.94	400.23
424.13	449.38
424.32	369.80
424.50	369.80
424.69	346.40
424.88	447.04
425.07	433.00
425.26	521.94
425.45	360.44
425.64	411.93
425.83	414.27
426.01	477.47
426.20	386.19
426.39	390.87
426.58	400.23
426.77	393.21
426.96	407.25
427.15	390.87
427.33	400.23
427.52	428.32
427.71	348.74
427.90	388.53
428.09	409.59
428.28	482.15
428.46	447.04
428.65	449.38
428.84	341.72
429.03	442.36
429.22	367.46
429.40	421.30
429.59	369.80
429.78	348.74
429.97	491.51
430.16	341.72
430.34	397.89
430.53	447.04
430.72	411.93
430.91	409.59
431.10	409.59
431.28	421.30
431.47	428.32
431.66	367.46
431.85	418.96
432.03	407.25
432.22	400.23
432.41	433.00
432.60	393.21
432.79	381.51
432.97	465.77
433.16	465.77
433.35	430.66
433.54	463.43
433.72	430.66
433.91	437.68
434.10	407.25
434.28	351.08
434.47	418.96
434.66	400.23
434.85	454.06
435.03	437.68
435.22	402.57
435.41	444.70
435.59	425.98
435.78	360.44
435.97	421.30
436.16	397.89
436.34	372.15
436.53	383.85
436.72	334.70
436.90	395.55
437.09	454.06
437.28	444.70
437.46	372.15
437.65	411.93
437.84	463.43
438.02	437.68
438.21	440.02
438.40	454.06
438.58	447.04
438.77	383.85
438.96	425.98
439.14	372.15
439.33	470.45
439.52	397.89
439.70	461.09
439.89	386.19
440.08	400.23
440.26	355.76
440.45	400.23
440.63	353.42
440.82	437.68
441.01	451.72
441.19	463.43
441.38	421.30
441.57	390.87
441.75	409.59
441.94	456.40
442.12	402.57
442.31	400.23
442.50	423.64
442.68	440.02
442.87	421.30
443.05	409.59
443.24	435.34
443.43	458.74
443.61	393.21
443.80	393.21
443.98	390.87
444.17	433.00
444.35	440.02
444.54	390.87
444.73	407.25
444.91	477.47
445.10	334.70
445.28	404.91
445.47	402.57
445.65	421.30
445.84	327.68
446.02	468.11
446.21	369.80
446.39	418.96
446.58	409.59
446.77	440.02
446.95	395.55
447.14	421.30
447.32	379.17
447.51	449.38
447.69	444.70
447.88	423.64
448.06	451.72
448.25	341.72
448.43	449.38
448.62	358.10
448.80	386.19
448.99	486.83
449.17	430.66
449.36	416.62
449.54	435.34
449.73	400.23
449.91	451.72
450.10	430.66
450.28	430.66
450.46	433.00
450.65	484.49
450.83	449.38
451.02	409.59
451.20	358.10
451.39	362.78
451.57	421.30
451.76	386.19
451.94	414.27
452.13	353.42
452.31	428.32
452.49	442.36
452.68	451.72
452.86	395.55
453.05	440.02
453.23	409.59
453.42	433.00
453.60	416.62
453.78	456.40
453.97	369.80
454.15	425.98
454.34	397.89
454.52	407.25
454.70	374.49
454.89	400.23
455.07	400.23
455.26	458.74
455.44	409.59
455.62	428.32
455.81	386.19
455.99	463.43
456.17	393.21
456.36	454.06
456.54	348.74
456.73	423.64
456.91	407.25
457.09	437.68
457.28	418.96
457.46	390.87
457.64	409.59
457.83	468.11
458.01	449.38
458.19	393.21
458.38	451.72
458.56	379.17
458.74	440.02
458.93	404.91
459.11	428.32
459.29	428.32
459.48	386.19
459.66	442.36
459.84	374.49
460.03	477.47
460.21	440.02
460.39	489.17
460.57	447.04
460.76	414.27
460.94	444.70
461.12	456.40
461.31	393.21
461.49	348.74
461.67	397.89
461.85	468.11
462.04	411.93
462.22	812.17
462.40	390.87
462.59	503.22
462.77	386.19
462.95	404.91
463.13	372.15
463.32	411.93
463.50	484.49
463.68	372.15
463.86	360.44
464.05	341.72
464.23	418.96
464.41	442.36
464.59	381.51
464.78	339.38
464.96	320.65
465.14	400.23
465.32	402.57
465.50	449.38
465.69	402.57
465.87	470.45
466.05	433.00
466.23	397.89
466.41	463.43
466.60	381.51
466.78	411.93
466.96	409.59
467.14	421.30
467.32	444.70
467.51	461.09
467.69	395.55
467.87	386.19
468.05	444.70
468.23	440.02
468.41	421.30
468.60	393.21
468.78	409.59
468.96	458.74
469.14	440.02
469.32	433.00
469.50	397.89
469.69	376.83
469.87	465.77
470.05	468.11
470.23	465.77
470.41	451.72
470.59	449.38
470.77	440.02
470.95	400.23
471.14	418.96
471.32	376.83
471.50	421.30
471.68	491.51
471.86	421.30
472.04	400.23
472.22	383.85
472.40	407.25
472.58	376.83
472.77	402.57
472.95	402.57
473.13	475.13
473.31	444.70
473.49	358.10
473.67	407.25
473.85	414.27
474.03	428.32
474.21	386.19
474.39	484.49
474.57	512.58
474.75	423.64
474.93	440.02
475.12	390.87
475.30	390.87
475.48	388.53
475.66	437.68
475.84	449.38
476.02	379.17
476.20	416.62
476.38	322.99
476.56	447.04
476.74	386.19
476.92	353.42
477.10	376.83
477.28	400.23
477.46	355.76
477.64	407.25
477.82	414.27
478.00	440.02
478.18	435.34
478.36	381.51
478.54	360.44
478.72	381.51
478.90	372.15
479.08	454.06
479.26	416.62
479.44	435.34
479.62	393.21
479.80	386.19
479.98	402.57
480.16	500.87
480.34	437.68
480.52	444.70
480.70	404.91
480.88	388.53
481.06	414.27
481.24	444.70
481.41	407.25
481.59	468.11
481.77	388.53
481.95	421.30
482.13	425.98
482.31	472.79
482.49	435.34
482.67	437.68
482.85	435.34
483.03	435.34
483.21	430.66
483.39	437.68
483.57	388.53
483.74	486.83
483.92	507.90
484.10	482.15
484.28	475.13
484.46	533.64
484.64	425.98
484.82	409.59
485.00	461.09
485.18	428.32
485.35	486.83
485.53	360.44
485.71	482.15
485.89	404.91
486.07	402.57
486.25	458.74
486.43	414.27
486.61	341.72
486.78	400.23
486.96	416.62
487.14	367.46
487.32	374.49
487.50	456.40
487.68	362.78
487.85	355.76
488.03	400.23
488.21	491.51
488.39	435.34
488.57	454.06
488.75	470.45
488.92	477.47
489.10	465.77
489.28	369.80
489.46	470.45
489.64	475.13
489.81	355.76
489.99	440.02
490.17	414.27
490.35	526.62
490.53	463.43
490.70	395.55
490.88	404.91
491.06	369.80
491.24	409.59
491.41	404.91
491.59	454.06
491.77	428.32
491.95	400.23
492.13	430.66
492.30	381.51
492.48	369.80
492.66	409.59
492.84	355.76
493.01	341.72
493.19	402.57
493.37	484.49
493.54	402.57
493.72	397.89
493.90	376.83
494.08	421.30
494.25	388.53
494.43	388.53
494.61	491.51
494.79	400.23
494.96	433.00
495.14	451.72
495.32	311.29
495.49	411.93
495.67	437.68
495.85	404.91
496.02	386.19
496.20	458.74
496.38	442.36
496.55	458.74
496.73	414.27
496.91	367.46
497.09	418.96
497.26	425.98
497.44	456.40
497.62	390.87
497.79	433.00
497.97	425.98
498.14	449.38
498.32	479.81
498.50	409.59
498.67	369.80
498.85	425.98
499.03	435.34
499.20	458.74
499.38	435.34
499.56	421.30
499.73	531.30
499.91	379.17
500.08	416.62
500.26	418.96
500.44	407.25
500.61	416.62
500.79	400.23
500.97	428.32
501.14	531.30
501.32	390.87
501.49	433.00
501.67	402.57
501.84	407.25
502.02	411.93
502.20	437.68
502.37	409.59
502.55	379.17
502.72	381.51
502.90	425.98
503.07	505.56
503.25	435.34
503.43	421.30
503.60	456.40
503.78	451.72
503.95	390.87
504.13	325.33
504.30	379.17
504.48	472.79
504.65	437.68
504.83	435.34
505.01	395.55
505.18	416.62
505.36	344.06
505.53	416.62
505.71	379.17
505.88	386.19
506.06	383.85
506.23	402.57
506.41	484.49
506.58	465.77
506.76	428.32
506.93	395.55
507.11	416.62
507.28	411.93
507.46	435.34
507.63	430.66
507.81	404.91
507.98	425.98
508.16	414.27
508.33	388.53
508.50	456.40
508.68	404.91
508.85	416.62
509.03	393.21
509.20	447.04
509.38	454.06
509.55	418.96
509.73	461.09
509.90	409.59
510.08	472.79
510.25	454.06
510.42	395.55
510.60	404.91
510.77	388.53
510.95	416.62
511.12	362.78
511.30	423.64
511.47	428.32
511.64	414.27
511.82	409.59
511.99	423.64
512.17	402.57
512.34	264.48
512.51	386.19
512.69	449.38
512.86	393.21
513.04	428.32
513.21	381.51
513.38	353.42
513.56	430.66
513.73	395.55
513.90	444.70
514.08	365.12
514.25	402.57
514.43	468.11
514.60	468.11
514.77	367.46
514.95	468.11
515.12	423.64
515.29	447.04
515.47	400.23
515.64	461.09
515.81	440.02
515.99	435.34
516.16	383.85
516.33	479.81
516.51	437.68
516.68	447.04
516.85	409.59
517.03	477.47
517.20	454.06
517.37	418.96
517.54	465.77
517.72	397.89
517.89	456.40
518.06	404.91
518.24	470.45
518.41	400.23
518.58	430.66
518.75	341.72
518.93	447.04
519.10	388.53
519.27	409.59
519.45	383.85
519.62	500.87
519.79	433.00
519.96	416.62
520.14	456.40
520.31	463.43
520.48	400.23
520.65	433.00
520.83	456.40
521.00	425.98
521.17	374.49
521.34	449.38
521.52	416.62
521.69	407.25
521.86	400.23
522.03	437.68
522.20	491.51
522.38	386.19
522.55	355.76
522.72	381.51
522.89	477.47
523.07	496.19
523.24	397.89
523.41	379.17
523.58	423.64
523.75	477.47
523.92	308.95
524.10	400.23
524.27	388.53
524.44	416.62
524.61	372.15
524.78	428.32
524.96	407.25
525.13	423.64
525.30	416.62
525.47	444.70
525.64	442.36
525.81	397.89
525.98	428.32
526.16	454.06
526.33	423.64
526.50	447.04
526.67	393.21
526.84	383.85
527.01	472.79
527.18	414.27
527.36	365.12
527.53	339.38
527.70	421.30
527.87	348.74
528.04	409.59
528.21	425.98
528.38	456.40
528.55	397.89
528.72	416.62
528.89	428.32
529.07	397.89
529.24	390.87
529.41	456.40
529.58	374.49
529.75	358.10
529.92	447.04
530.09	425.98
530.26	428.32
530.43	351.08
530.60	388.53
530.77	395.55
530.94	428.32
531.11	411.93
531.28	423.64
531.46	388.53
531.63	388.53
531.80	330.02
531.97	411.93
532.14	433.00
532.31	435.34
532.48	430.66
532.65	461.09
532.82	524.28
532.99	421.30
533.16	407.25
533.33	463.43
533.50	362.78
533.67	358.10
533.84	456.40
534.01	381.51
534.18	397.89
534.35	423.64
534.52	386.19
534.69	421.30
534.86	393.21
535.03	374.49
535.20	369.80
535.37	423.64
535.54	327.68
535.71	360.44
535.88	479.81
536.05	355.76
536.22	381.51
536.38	454.06
536.55	416.62
536.72	482.15
536.89	395.55
537.06	465.77
537.23	407.25
537.40	351.08
537.57	337.04
537.74	444.70
537.91	442.36
538.08	496.19
538.25	451.72
538.42	369.80
538.59	437.68
538.75	381.51
538.92	414.27
539.09	395.55
539.26	330.02
539.43	479.81
539.60	390.87
539.77	390.87
539.94	386.19
540.11	355.76
540.28	468.11
540.44	477.47
540.61	402.57
540.78	421.30
540.95	344.06
541.12	454.06
541.29	397.89
541.46	435.34
541.62	472.79
541.79	383.85
541.96	369.80
542.13	404.91
542.30	327.68
542.47	381.51
542.63	365.12
542.80	372.15
542.97	395.55
543.14	437.68
543.31	355.76
543.48	433.00
543.64	447.04
543.81	428.32
543.98	393.21
544.15	358.10
544.32	451.72
544.48	407.25
544.65	388.53
544.82	397.89
544.99	486.83
545.16	428.32
545.32	402.57
545.49	463.43
545.66	344.06
545.83	454.06
546.00	423.64
546.16	404.91
546.33	430.66
546.50	437.68
546.67	416.62
546.83	414.27
547.00	400.23
547.17	433.00
547.34	472.79
547.50	395.55
547.67	433.00
547.84	428.32
548.00	383.85
548.17	374.49
548.34	433.00
548.51	507.90
548.67	414.27
548.84	379.17
549.01	463.43
549.18	381.51
549.34	489.17
549.51	423.64
549.68	447.04
549.84	379.17
550.01	433.00
550.18	491.51
550.34	390.87
550.51	400.23
550.68	463.43
550.84	386.19
551.01	388.53
551.18	372.15
551.34	447.04
551.51	463.43
551.68	355.76
551.84	409.59
552.01	397.89
552.18	393.21
552.34	414.27
552.51	423.64
552.68	430.66
552.84	447.04
553.01	423.64
553.18	418.96
553.34	367.46
553.51	395.55
553.67	496.19
553.84	482.15
554.01	449.38
554.17	423.64
554.34	393.21
554.51	433.00
554.67	437.68
554.84	416.62
555.00	451.72
555.17	423.64
555.33	383.85
555.50	379.17
555.67	465.77
555.83	397.89
556.00	428.32
556.16	496.19
556.33	425.98
556.50	400.23
556.66	435.34
556.83	433.00
556.99	376.83
557.16	456.40
557.32	425.98
557.49	416.62
557.65	440.02
557.82	444.70
557.98	425.98
558.15	400.23
558.32	388.53
558.48	425.98
558.65	437.68
558.81	442.36
558.98	383.85
559.14	451.72
559.31	425.98
559.47	475.13
559.64	454.06
559.80	463.43
559.97	440.02
560.13	430.66
560.30	390.87
560.46	437.68
560.63	404.91
560.79	416.62
560.96	416.62
561.12	440.02
561.29	437.68
561.45	428.32
561.61	465.77
561.78	557.05
561.94	430.66
562.11	418.96
562.27	514.92
562.44	325.33
562.60	409.59
562.77	433.00
562.93	484.49
563.10	407.25
563.26	423.64
563.42	435.34
563.59	425.98
563.75	383.85
563.92	454.06
564.08	425.98
564.24	397.89
564.41	493.85
564.57	458.74
564.74	433.00
564.90	435.34
565.07	409.59
565.23	433.00
565.39	435.34
565.56	454.06
565.72	418.96
565.88	430.66
566.05	437.68
566.21	440.02
566.38	435.34
566.54	421.30
566.70	421.30
566.87	447.04
567.03	414.27
567.19	414.27
567.36	451.72
567.52	400.23
567.68	461.09
567.85	470.45
568.01	383.85
568.17	395.55
568.34	433.00
568.50	386.19
568.66	433.00
568.83	507.90
568.99	376.83
569.15	451.72
569.32	433.00
569.48	379.17
569.64	442.36
569.81	418.96
569.97	421.30
570.13	440.02
570.30	491.51
570.46	421.30
570.62	395.55
570.78	365.12
570.95	409.59
571.11	388.53
571.27	472.79
571.43	404.91
571.60	411.93
571.76	318.31
571.92	402.57
572.09	376.83
572.25	383.85
572.41	416.62
572.57	465.77
572.74	433.00
572.90	435.34
573.06	433.00
573.22	435.34
573.38	468.11
573.55	437.68
573.71	430.66
573.87	390.87
574.03	447.04
574.20	369.80
574.36	500.87
574.52	322.99
574.68	435.34
574.84	388.53
575.01	402.57
575.17	381.51
575.33	423.64
575.49	409.59
575.65	379.17
575.82	402.57
575.98	461.09
576.14	465.77
576.30	421.30
576.46	447.04
576.62	395.55
576.79	402.57
576.95	355.76
577.11	360.44
577.27	425.98
577.43	379.17
577.59	519.60
577.75	390.87
577.92	409.59
578.08	397.89
578.24	304.27
578.40	435.34
578.56	416.62
578.72	416.62
578.88	421.30
579.04	395.55
579.21	437.68
579.37	465.77
579.53	442.36
579.69	428.32
579.85	397.89
580.01	409.59
580.17	376.83
580.33	442.36
580.49	458.74
580.65	454.06
580.82	409.59
580.98	390.87
581.14	461.09
581.30	491.51
581.46	435.34
581.62	458.74
581.78	451.72
581.94	407.25
582.10	482.15
582.26	437.68
582.42	388.53
582.58	409.59
582.74	397.89
582.90	388.53
583.06	454.06
583.22	423.64
583.38	421.30
583.54	355.76
583.70	358.10
583.86	402.57
584.02	393.21
584.18	416.62
584.34	418.96
584.50	414.27
584.66	416.62
584.82	395.55
584.98	360.44
585.14	346.40
585.30	423.64
585.46	395.55
585.62	404.91
585.78	465.77
585.94	454.06
586.10	500.87
586.26	393.21
586.42	477.47
586.58	472.79
586.74	472.79
586.90	372.15
587.06	444.70
587.22	425.98
587.38	444.70
587.54	526.62
587.70	533.64
587.86	411.93
588.02	330.02
588.18	416.62
588.34	423.64
588.49	397.89
588.65	390.87
588.81	367.46
588.97	414.27
589.13	423.64
589.29	402.57
589.45	447.04
589.61	435.34
589.77	507.90
589.93	372.15
590.08	433.00
590.24	397.89
590.40	353.42
590.56	416.62
590.72	358.10
590.88	381.51
591.04	379.17
591.20	430.66
591.35	376.83
591.51	433.00
591.67	386.19
591.83	332.36
591.99	444.70
592.15	430.66
592.31	425.98
592.46	379.17
592.62	440.02
592.78	416.62
592.94	421.30
593.10	376.83
593.26	376.83
593.41	507.90
593.57	447.04
593.73	402.57
593.89	463.43
594.05	411.93
594.20	358.10
594.36	388.53
594.52	395.55
594.68	404.91
594.84	423.64
594.99	475.13
595.15	411.93
595.31	447.04
595.47	418.96
595.62	388.53
595.78	386.19
595.94	418.96
596.10	454.06
596.25	479.81
596.41	456.40
596.57	393.21
596.73	442.36
596.88	447.04
597.04	458.74
597.20	393.21
597.36	402.57
597.51	418.96
597.67	442.36
597.83	433.00
597.99	447.04
598.14	454.06
598.30	421.30
598.46	390.87
598.61	498.53
598.77	437.68
598.93	451.72
599.09	367.46
599.24	451.72
599.40	505.56
599.56	407.25
599.71	418.96
599.87	458.74
600.03	414.27
600.18	416.62
600.34	367.46
600.50	348.74
600.65	365.12
600.81	472.79
600.97	346.40
601.12	393.21
601.28	479.81
601.44	458.74
601.59	428.32
601.75	475.13
601.91	442.36
602.06	435.34
602.22	461.09
602.37	414.27
602.53	365.12
602.69	379.17
602.84	397.89
603.00	416.62
603.16	388.53
603.31	442.36
603.47	421.30
603.62	423.64
603.78	435.34
603.94	433.00
604.09	423.64
604.25	447.04
604.40	430.66
604.56	369.80
604.71	404.91
604.87	442.36
605.03	425.98
605.18	397.89
605.34	425.98
605.49	491.51
605.65	430.66
605.80	437.68
605.96	425.98
606.12	456.40
606.27	454.06
606.43	388.53
606.58	407.25
606.74	388.53
606.89	400.23
607.05	390.87
607.20	461.09
607.36	444.70
607.51	454.06
607.67	440.02
607.82	414.27
607.98	411.93
608.13	449.38
608.29	400.23
608.44	425.98
608.60	381.51
608.75	393.21
608.91	458.74
609.06	477.47
609.22	414.27
609.37	355.76
609.53	454.06
609.68	369.80
609.84	409.59
609.99	491.51
610.15	433.00
