SpectraSuite Data File
++++++++++++++++++++++++++++++++++++
Date: Fri Oct 25 12:10:22 EDT 2013
User: price-jones
Dark Spectrum Present: No
Reference Spectrum Present: No
Number of Sampled Component Spectra: 1
Spectrometers: USB2+H05261
Integration Time (usec): 100000 (USB2+H05261)
Spectra Averaged: 1 (USB2+H05261)
Boxcar Smoothing: 0 (USB2+H05261)
Correct for Electrical Dark: No (USB2+H05261)
Strobe/Lamp Enabled: No (USB2+H05261)
Correct for Detector Non-linearity: No (USB2+H05261)
Correct for Stray Light: No (USB2+H05261)
Number of Pixels in Processed Spectrum: 2048
>>>>>Begin Processed Spectral Data<<<<<
365.73	355.76
365.92	355.76
366.12	355.76
366.32	318.31
366.52	287.89
366.72	231.71
366.91	215.33
367.11	264.48
367.31	241.08
367.51	217.67
367.70	238.73
367.90	245.76
368.10	259.80
368.30	215.33
368.49	210.65
368.69	236.39
368.89	196.60
369.09	290.23
369.28	276.18
369.48	269.16
369.68	248.10
369.87	353.42
370.07	262.14
370.27	304.27
370.47	330.02
370.66	374.49
370.86	348.74
371.06	374.49
371.25	315.97
371.45	294.91
371.65	435.34
371.84	315.97
372.04	381.51
372.24	411.93
372.44	390.87
372.63	362.78
372.83	444.70
373.03	365.12
373.22	355.76
373.42	369.80
373.62	402.57
373.81	341.72
374.01	390.87
374.21	444.70
374.40	447.04
374.60	409.59
374.79	400.23
374.99	435.34
375.19	456.40
375.38	397.89
375.58	369.80
375.78	386.19
375.97	409.59
376.17	465.77
376.37	416.62
376.56	409.59
376.76	358.10
376.95	444.70
377.15	393.21
377.35	435.34
377.54	409.59
377.74	447.04
377.93	416.62
378.13	428.32
378.33	458.74
378.52	472.79
378.72	409.59
378.91	423.64
379.11	374.49
379.31	395.55
379.50	447.04
379.70	437.68
379.89	397.89
380.09	369.80
380.28	367.46
380.48	379.17
380.68	400.23
380.87	444.70
381.07	428.32
381.26	470.45
381.46	409.59
381.65	416.62
381.85	393.21
382.04	442.36
382.24	395.55
382.43	395.55
382.63	341.72
382.83	386.19
383.02	397.89
383.22	402.57
383.41	383.85
383.61	416.62
383.80	456.40
384.00	444.70
384.19	402.57
384.39	442.36
384.58	418.96
384.78	423.64
384.97	423.64
385.17	397.89
385.36	388.53
385.56	416.62
385.75	393.21
385.95	365.12
386.14	402.57
386.34	503.22
386.53	449.38
386.72	372.15
386.92	395.55
387.11	351.08
387.31	374.49
387.50	376.83
387.70	411.93
387.89	393.21
388.09	360.44
388.28	360.44
388.48	376.83
388.67	383.85
388.86	411.93
389.06	435.34
389.25	390.87
389.45	414.27
389.64	430.66
389.84	383.85
390.03	411.93
390.22	355.76
390.42	386.19
390.61	372.15
390.81	411.93
391.00	411.93
391.19	395.55
391.39	379.17
391.58	463.43
391.78	346.40
391.97	411.93
392.16	346.40
392.36	437.68
392.55	425.98
392.75	463.43
392.94	353.42
393.13	421.30
393.33	369.80
393.52	418.96
393.71	423.64
393.91	381.51
394.10	461.09
394.29	379.17
394.49	367.46
394.68	472.79
394.88	381.51
395.07	477.47
395.26	411.93
395.46	430.66
395.65	365.12
395.84	449.38
396.04	482.15
396.23	386.19
396.42	388.53
396.62	395.55
396.81	451.72
397.00	454.06
397.19	449.38
397.39	404.91
397.58	456.40
397.77	430.66
397.97	402.57
398.16	477.47
398.35	458.74
398.55	369.80
398.74	421.30
398.93	416.62
399.12	367.46
399.32	444.70
399.51	435.34
399.70	407.25
399.90	390.87
400.09	414.27
400.28	456.40
400.47	341.72
400.67	341.72
400.86	409.59
401.05	411.93
401.24	390.87
401.44	444.70
401.63	381.51
401.82	400.23
402.01	379.17
402.21	337.04
402.40	379.17
402.59	383.85
402.78	430.66
402.97	428.32
403.17	416.62
403.36	388.53
403.55	386.19
403.74	369.80
403.93	372.15
404.13	425.98
404.32	376.83
404.51	440.02
404.70	393.21
404.89	435.34
405.09	381.51
405.28	407.25
405.47	411.93
405.66	435.34
405.85	430.66
406.05	454.06
406.24	486.83
406.43	454.06
406.62	386.19
406.81	435.34
407.00	461.09
407.20	379.17
407.39	416.62
407.58	423.64
407.77	416.62
407.96	423.64
408.15	477.47
408.34	437.68
408.54	341.72
408.73	369.80
408.92	409.59
409.11	421.30
409.30	372.15
409.49	325.33
409.68	402.57
409.87	355.76
410.07	381.51
410.26	325.33
410.45	437.68
410.64	367.46
410.83	449.38
411.02	407.25
411.21	418.96
411.40	374.49
411.59	386.19
411.78	463.43
411.98	383.85
412.17	437.68
412.36	362.78
412.55	297.25
412.74	400.23
412.93	404.91
413.12	381.51
413.31	388.53
413.50	395.55
413.69	423.64
413.88	456.40
414.07	393.21
414.26	454.06
414.45	407.25
414.64	369.80
414.83	411.93
415.02	458.74
415.22	390.87
415.41	477.47
415.60	404.91
415.79	348.74
415.98	423.64
416.17	442.36
416.36	397.89
416.55	346.40
416.74	447.04
416.93	433.00
417.12	423.64
417.31	461.09
417.50	397.89
417.69	456.40
417.88	369.80
418.07	411.93
418.26	421.30
418.45	437.68
418.64	381.51
418.83	388.53
419.02	433.00
419.21	402.57
419.39	393.21
419.58	376.83
419.77	376.83
419.96	435.34
420.15	425.98
420.34	395.55
420.53	337.04
420.72	433.00
420.91	458.74
421.10	411.93
421.29	414.27
421.48	456.40
421.67	365.12
421.86	358.10
422.05	423.64
422.24	400.23
422.43	381.51
422.61	362.78
422.80	402.57
422.99	430.66
423.18	430.66
423.37	463.43
423.56	421.30
423.75	433.00
423.94	379.17
424.13	505.56
424.32	374.49
424.50	372.15
424.69	421.30
424.88	496.19
425.07	299.59
425.26	444.70
425.45	376.83
425.64	388.53
425.83	433.00
426.01	313.63
426.20	414.27
426.39	454.06
426.58	400.23
426.77	503.22
426.96	482.15
427.15	390.87
427.33	395.55
427.52	430.66
427.71	409.59
427.90	463.43
428.09	404.91
428.28	297.25
428.46	510.24
428.65	400.23
428.84	393.21
429.03	430.66
429.22	376.83
429.40	411.93
429.59	376.83
429.78	423.64
429.97	386.19
430.16	402.57
430.34	528.96
430.53	404.91
430.72	470.45
430.91	440.02
431.10	447.04
431.28	414.27
431.47	407.25
431.66	505.56
431.85	339.38
432.03	447.04
432.22	444.70
432.41	393.21
432.60	550.03
432.79	437.68
432.97	472.79
433.16	418.96
433.35	470.45
433.54	360.44
433.72	372.15
433.91	458.74
434.10	456.40
434.28	433.00
434.47	355.76
434.66	407.25
434.85	393.21
435.03	409.59
435.22	393.21
435.41	418.96
435.59	402.57
435.78	383.85
435.97	379.17
436.16	409.59
436.34	395.55
436.53	454.06
436.72	461.09
436.90	468.11
437.09	437.68
437.28	402.57
437.46	358.10
437.65	423.64
437.84	379.17
438.02	414.27
438.21	421.30
438.40	414.27
438.58	367.46
438.77	344.06
438.96	397.89
439.14	425.98
439.33	470.45
439.52	498.53
439.70	362.78
439.89	440.02
440.08	428.32
440.26	355.76
440.45	397.89
440.63	411.93
440.82	465.77
441.01	383.85
441.19	400.23
441.38	386.19
441.57	379.17
441.75	421.30
441.94	374.49
442.12	365.12
442.31	402.57
442.50	479.81
442.68	456.40
442.87	390.87
443.05	442.36
443.24	477.47
443.43	482.15
443.61	479.81
443.80	248.10
443.98	409.59
444.17	402.57
444.35	409.59
444.54	348.74
444.73	407.25
444.91	404.91
445.10	397.89
445.28	477.47
445.47	404.91
445.65	400.23
445.84	400.23
446.02	397.89
446.21	435.34
446.39	451.72
446.58	430.66
446.77	440.02
446.95	367.46
447.14	404.91
447.32	428.32
447.51	440.02
447.69	407.25
447.88	358.10
448.06	489.17
448.25	411.93
448.43	409.59
448.62	404.91
448.80	482.15
448.99	442.36
449.17	449.38
449.36	421.30
449.54	449.38
449.73	367.46
449.91	404.91
450.10	339.38
450.28	449.38
450.46	468.11
450.65	425.98
450.83	470.45
451.02	442.36
451.20	390.87
451.39	454.06
451.57	423.64
451.76	423.64
451.94	393.21
452.13	411.93
452.31	423.64
452.49	463.43
452.68	355.76
452.86	447.04
453.05	388.53
453.23	444.70
453.42	421.30
453.60	334.70
453.78	369.80
453.97	365.12
454.15	360.44
454.34	402.57
454.52	388.53
454.70	411.93
454.89	400.23
455.07	407.25
455.26	404.91
455.44	437.68
455.62	416.62
455.81	416.62
455.99	423.64
456.17	395.55
456.36	365.12
456.54	409.59
456.73	451.72
456.91	383.85
457.09	358.10
457.28	437.68
457.46	379.17
457.64	433.00
457.83	390.87
458.01	437.68
458.19	418.96
458.38	451.72
458.56	400.23
458.74	386.19
458.93	381.51
459.11	395.55
459.29	351.08
459.48	351.08
459.66	400.23
459.84	430.66
460.03	472.79
460.21	435.34
460.39	440.02
460.57	421.30
460.76	442.36
460.94	404.91
461.12	449.38
461.31	425.98
461.49	465.77
461.67	397.89
461.85	451.72
462.04	388.53
462.22	653.01
462.40	386.19
462.59	486.83
462.77	425.98
462.95	414.27
463.13	407.25
463.32	447.04
463.50	390.87
463.68	477.47
463.86	355.76
464.05	409.59
464.23	479.81
464.41	465.77
464.59	440.02
464.78	458.74
464.96	435.34
465.14	402.57
465.32	367.46
465.50	491.51
465.69	407.25
465.87	477.47
466.05	468.11
466.23	402.57
466.41	428.32
466.60	428.32
466.78	369.80
466.96	519.60
467.14	416.62
467.32	409.59
467.51	433.00
467.69	444.70
467.87	451.72
468.05	440.02
468.23	421.30
468.41	428.32
468.60	404.91
468.78	386.19
468.96	416.62
469.14	372.15
469.32	367.46
469.50	376.83
469.69	372.15
469.87	346.40
470.05	376.83
470.23	418.96
470.41	393.21
470.59	358.10
470.77	383.85
470.95	500.87
471.14	463.43
471.32	409.59
471.50	468.11
471.68	397.89
471.86	433.00
472.04	447.04
472.22	430.66
472.40	390.87
472.58	449.38
472.77	374.49
472.95	400.23
473.13	500.87
473.31	465.77
473.49	353.42
473.67	374.49
473.85	433.00
474.03	344.06
474.21	402.57
474.39	437.68
474.57	416.62
474.75	430.66
474.93	381.51
475.12	367.46
475.30	383.85
475.48	451.72
475.66	367.46
475.84	404.91
476.02	454.06
476.20	433.00
476.38	409.59
476.56	409.59
476.74	402.57
476.92	376.83
477.10	416.62
477.28	486.83
477.46	407.25
477.64	383.85
477.82	475.13
478.00	388.53
478.18	435.34
478.36	430.66
478.54	447.04
478.72	393.21
478.90	383.85
479.08	421.30
479.26	367.46
479.44	428.32
479.62	400.23
479.80	421.30
479.98	449.38
480.16	369.80
480.34	418.96
480.52	397.89
480.70	433.00
480.88	430.66
481.06	355.76
481.24	461.09
481.41	374.49
481.59	465.77
481.77	454.06
481.95	390.87
482.13	344.06
482.31	360.44
482.49	376.83
482.67	407.25
482.85	484.49
483.03	395.55
483.21	400.23
483.39	447.04
483.57	395.55
483.74	430.66
483.92	355.76
484.10	355.76
484.28	430.66
484.46	500.87
484.64	461.09
484.82	383.85
485.00	402.57
485.18	454.06
485.35	414.27
485.53	411.93
485.71	425.98
485.89	409.59
486.07	388.53
486.25	414.27
486.43	409.59
486.61	353.42
486.78	500.87
486.96	496.19
487.14	491.51
487.32	451.72
487.50	407.25
487.68	409.59
487.85	404.91
488.03	362.78
488.21	440.02
488.39	360.44
488.57	477.47
488.75	400.23
488.92	456.40
489.10	440.02
489.28	435.34
489.46	390.87
489.64	379.17
489.81	440.02
489.99	444.70
490.17	367.46
490.35	545.34
490.53	418.96
490.70	327.68
490.88	454.06
491.06	374.49
491.24	402.57
491.41	416.62
491.59	421.30
491.77	400.23
491.95	358.10
492.13	372.15
492.30	374.49
492.48	367.46
492.66	369.80
492.84	440.02
493.01	409.59
493.19	369.80
493.37	437.68
493.54	400.23
493.72	381.51
493.90	355.76
494.08	435.34
494.25	421.30
494.43	402.57
494.61	390.87
494.79	435.34
494.96	402.57
495.14	458.74
495.32	367.46
495.49	383.85
495.67	475.13
495.85	390.87
496.02	425.98
496.20	444.70
496.38	428.32
496.55	421.30
496.73	409.59
496.91	456.40
497.09	519.60
497.26	379.17
497.44	433.00
497.62	397.89
497.79	388.53
497.97	414.27
498.14	447.04
498.32	442.36
498.50	358.10
498.67	409.59
498.85	381.51
499.03	360.44
499.20	397.89
499.38	411.93
499.56	463.43
499.73	470.45
499.91	360.44
500.08	365.12
500.26	397.89
500.44	393.21
500.61	325.33
500.79	461.09
500.97	447.04
501.14	437.68
501.32	421.30
501.49	500.87
501.67	496.19
501.84	411.93
502.02	395.55
502.20	383.85
502.37	416.62
502.55	465.77
502.72	376.83
502.90	442.36
503.07	433.00
503.25	433.00
503.43	416.62
503.60	416.62
503.78	414.27
503.95	393.21
504.13	418.96
504.30	435.34
504.48	456.40
504.65	484.49
504.83	500.87
505.01	409.59
505.18	416.62
505.36	388.53
505.53	407.25
505.71	437.68
505.88	449.38
506.06	470.45
506.23	421.30
506.41	381.51
506.58	348.74
506.76	425.98
506.93	418.96
507.11	374.49
507.28	381.51
507.46	433.00
507.63	435.34
507.81	437.68
507.98	362.78
508.16	344.06
508.33	425.98
508.50	355.76
508.68	435.34
508.85	425.98
509.03	437.68
509.20	416.62
509.38	421.30
509.55	433.00
509.73	404.91
509.90	369.80
510.08	393.21
510.25	374.49
510.42	400.23
510.60	409.59
510.77	421.30
510.95	454.06
511.12	388.53
511.30	416.62
511.47	383.85
511.64	442.36
511.82	400.23
511.99	390.87
512.17	418.96
512.34	414.27
512.51	435.34
512.69	379.17
512.86	458.74
513.04	437.68
513.21	507.90
513.38	395.55
513.56	479.81
513.73	440.02
513.90	449.38
514.08	400.23
514.25	444.70
514.43	425.98
514.60	383.85
514.77	411.93
514.95	437.68
515.12	435.34
515.29	440.02
515.47	372.15
515.64	400.23
515.81	374.49
515.99	531.30
516.16	379.17
516.33	477.47
516.51	447.04
516.68	390.87
516.85	414.27
517.03	454.06
517.20	425.98
517.37	411.93
517.54	449.38
517.72	409.59
517.89	393.21
518.06	400.23
518.24	388.53
518.41	440.02
518.58	372.15
518.75	372.15
518.93	437.68
519.10	407.25
519.27	367.46
519.45	362.78
519.62	367.46
519.79	362.78
519.96	360.44
520.14	348.74
520.31	496.19
520.48	428.32
520.65	409.59
520.83	456.40
521.00	428.32
521.17	475.13
521.34	470.45
521.52	402.57
521.69	365.12
521.86	390.87
522.03	428.32
522.20	449.38
522.38	395.55
522.55	414.27
522.72	411.93
522.89	444.70
523.07	456.40
523.24	414.27
523.41	386.19
523.58	430.66
523.75	383.85
523.92	458.74
524.10	423.64
524.27	358.10
524.44	351.08
524.61	409.59
524.78	440.02
524.96	472.79
525.13	458.74
525.30	433.00
525.47	451.72
525.64	409.59
525.81	351.08
525.98	400.23
526.16	430.66
526.33	395.55
526.50	404.91
526.67	388.53
526.84	423.64
527.01	341.72
527.18	463.43
527.36	437.68
527.53	397.89
527.70	386.19
527.87	360.44
528.04	437.68
528.21	430.66
528.38	430.66
528.55	461.09
528.72	435.34
528.89	463.43
529.07	348.74
529.24	435.34
529.41	475.13
529.58	369.80
529.75	381.51
529.92	416.62
530.09	454.06
530.26	472.79
530.43	425.98
530.60	397.89
530.77	428.32
530.94	475.13
531.11	440.02
531.28	390.87
531.46	374.49
531.63	390.87
531.80	435.34
531.97	313.63
532.14	397.89
532.31	400.23
532.48	433.00
532.65	442.36
532.82	341.72
532.99	418.96
533.16	491.51
533.33	449.38
533.50	430.66
533.67	383.85
533.84	423.64
534.01	428.32
534.18	465.77
534.35	428.32
534.52	451.72
534.69	475.13
534.86	400.23
535.03	425.98
535.20	334.70
535.37	435.34
535.54	456.40
535.71	404.91
535.88	397.89
536.05	428.32
536.22	409.59
536.38	411.93
536.55	456.40
536.72	440.02
536.89	416.62
537.06	351.08
537.23	416.62
537.40	402.57
537.57	404.91
537.74	528.96
537.91	440.02
538.08	425.98
538.25	411.93
538.42	404.91
538.59	407.25
538.75	416.62
538.92	421.30
539.09	425.98
539.26	407.25
539.43	430.66
539.60	407.25
539.77	435.34
539.94	374.49
540.11	442.36
540.28	428.32
540.44	430.66
540.61	421.30
540.78	386.19
540.95	418.96
541.12	465.77
541.29	383.85
541.46	472.79
541.62	479.81
541.79	402.57
541.96	430.66
542.13	472.79
542.30	407.25
542.47	379.17
542.63	416.62
542.80	397.89
542.97	444.70
543.14	325.33
543.31	463.43
543.48	400.23
543.64	428.32
543.81	423.64
543.98	442.36
544.15	397.89
544.32	449.38
544.48	372.15
544.65	362.78
544.82	468.11
544.99	458.74
545.16	435.34
545.32	407.25
545.49	463.43
545.66	334.70
545.83	365.12
546.00	388.53
546.16	397.89
546.33	383.85
546.50	416.62
546.67	416.62
546.83	430.66
547.00	451.72
547.17	451.72
547.34	395.55
547.50	397.89
547.67	402.57
547.84	402.57
548.00	362.78
548.17	383.85
548.34	418.96
548.51	477.47
548.67	428.32
548.84	411.93
549.01	428.32
549.18	430.66
549.34	339.38
549.51	484.49
549.68	447.04
549.84	425.98
550.01	404.91
550.18	491.51
550.34	465.77
550.51	337.04
550.68	468.11
550.84	421.30
551.01	484.49
551.18	463.43
551.34	435.34
551.51	435.34
551.68	369.80
551.84	407.25
552.01	423.64
552.18	400.23
552.34	456.40
552.51	372.15
552.68	351.08
552.84	414.27
553.01	433.00
553.18	386.19
553.34	435.34
553.51	390.87
553.67	435.34
553.84	486.83
554.01	444.70
554.17	437.68
554.34	388.53
554.51	416.62
554.67	418.96
554.84	397.89
555.00	440.02
555.17	430.66
555.33	507.90
555.50	383.85
555.67	454.06
555.83	313.63
556.00	407.25
556.16	545.34
556.33	402.57
556.50	407.25
556.66	449.38
556.83	414.27
556.99	369.80
557.16	451.72
557.32	442.36
557.49	372.15
557.65	437.68
557.82	353.42
557.98	395.55
558.15	470.45
558.32	444.70
558.48	407.25
558.65	444.70
558.81	400.23
558.98	386.19
559.14	430.66
559.31	355.76
559.47	430.66
559.64	407.25
559.80	374.49
559.97	404.91
560.13	447.04
560.30	339.38
560.46	423.64
560.63	444.70
560.79	470.45
560.96	440.02
561.12	372.15
561.29	386.19
561.45	376.83
561.61	404.91
561.78	454.06
561.94	411.93
562.11	472.79
562.27	365.12
562.44	428.32
562.60	435.34
562.77	400.23
562.93	449.38
563.10	475.13
563.26	423.64
563.42	358.10
563.59	423.64
563.75	388.53
563.92	475.13
564.08	461.09
564.24	430.66
564.41	463.43
564.57	379.17
564.74	362.78
564.90	435.34
565.07	470.45
565.23	486.83
565.39	433.00
565.56	390.87
565.72	393.21
565.88	435.34
566.05	437.68
566.21	447.04
566.38	379.17
566.54	433.00
566.70	444.70
566.87	360.44
567.03	365.12
567.19	425.98
567.36	416.62
567.52	458.74
567.68	390.87
567.85	430.66
568.01	433.00
568.17	430.66
568.34	376.83
568.50	430.66
568.66	430.66
568.83	447.04
568.99	449.38
569.15	447.04
569.32	400.23
569.48	414.27
569.64	418.96
569.81	524.28
569.97	444.70
570.13	428.32
570.30	428.32
570.46	404.91
570.62	442.36
570.78	451.72
570.95	425.98
571.11	423.64
571.27	496.19
571.43	369.80
571.60	430.66
571.76	409.59
571.92	351.08
572.09	425.98
572.25	360.44
572.41	433.00
572.57	393.21
572.74	423.64
572.90	402.57
573.06	425.98
573.22	437.68
573.38	479.81
573.55	386.19
573.71	440.02
573.87	404.91
574.03	402.57
574.20	470.45
574.36	451.72
574.52	447.04
574.68	409.59
574.84	395.55
575.01	365.12
575.17	479.81
575.33	414.27
575.49	435.34
575.65	435.34
575.82	449.38
575.98	400.23
576.14	470.45
576.30	416.62
576.46	404.91
576.62	421.30
576.79	447.04
576.95	407.25
577.11	479.81
577.27	365.12
577.43	449.38
577.59	381.51
577.75	442.36
577.92	374.49
578.08	390.87
578.24	332.36
578.40	423.64
578.56	409.59
578.72	489.17
578.88	411.93
579.04	465.77
579.21	411.93
579.37	372.15
579.53	404.91
579.69	456.40
579.85	418.96
580.01	463.43
580.17	386.19
580.33	386.19
580.49	451.72
580.65	472.79
580.82	409.59
580.98	423.64
581.14	409.59
581.30	428.32
581.46	330.02
581.62	397.89
581.78	444.70
581.94	465.77
582.10	414.27
582.26	477.47
582.42	444.70
582.58	435.34
582.74	425.98
582.90	395.55
583.06	414.27
583.22	372.15
583.38	402.57
583.54	440.02
583.70	440.02
583.86	440.02
584.02	435.34
584.18	482.15
584.34	404.91
584.50	411.93
584.66	437.68
584.82	379.17
584.98	437.68
585.14	416.62
585.30	440.02
585.46	365.12
585.62	428.32
585.78	411.93
585.94	411.93
586.10	440.02
586.26	475.13
586.42	465.77
586.58	447.04
586.74	409.59
586.90	409.59
587.06	386.19
587.22	428.32
587.38	414.27
587.54	449.38
587.70	435.34
587.86	416.62
588.02	411.93
588.18	320.65
588.34	402.57
588.49	372.15
588.65	472.79
588.81	383.85
588.97	423.64
589.13	423.64
589.29	444.70
589.45	409.59
589.61	416.62
589.77	447.04
589.93	411.93
590.08	362.78
590.24	479.81
590.40	344.06
590.56	454.06
590.72	367.46
590.88	339.38
591.04	444.70
591.20	423.64
591.35	486.83
591.51	423.64
591.67	418.96
591.83	407.25
591.99	383.85
592.15	421.30
592.31	400.23
592.46	402.57
592.62	411.93
592.78	395.55
592.94	470.45
593.10	369.80
593.26	428.32
593.41	421.30
593.57	381.51
593.73	383.85
593.89	465.77
594.05	369.80
594.20	348.74
594.36	358.10
594.52	367.46
594.68	360.44
594.84	423.64
594.99	409.59
595.15	416.62
595.31	503.22
595.47	400.23
595.62	397.89
595.78	388.53
595.94	414.27
596.10	400.23
596.25	468.11
596.41	390.87
596.57	367.46
596.73	409.59
596.88	440.02
597.04	416.62
597.20	325.33
597.36	442.36
597.51	383.85
597.67	421.30
597.83	339.38
597.99	433.00
598.14	348.74
598.30	440.02
598.46	409.59
598.61	369.80
598.77	400.23
598.93	386.19
599.09	337.04
599.24	444.70
599.40	418.96
599.56	423.64
599.71	484.49
599.87	447.04
600.03	437.68
600.18	409.59
600.34	390.87
600.50	390.87
600.65	463.43
600.81	435.34
600.97	425.98
601.12	369.80
601.28	442.36
601.44	489.17
601.59	411.93
601.75	423.64
601.91	393.21
602.06	449.38
602.22	482.15
602.37	435.34
602.53	372.15
602.69	358.10
602.84	355.76
603.00	404.91
603.16	393.21
603.31	388.53
603.47	447.04
603.62	390.87
603.78	362.78
603.94	444.70
604.09	411.93
604.25	409.59
604.40	400.23
604.56	393.21
604.71	423.64
604.87	423.64
605.03	456.40
605.18	395.55
605.34	461.09
605.49	470.45
605.65	444.70
605.80	484.49
605.96	397.89
606.12	414.27
606.27	451.72
606.43	418.96
606.58	379.17
606.74	447.04
606.89	402.57
607.05	386.19
607.20	374.49
607.36	404.91
607.51	355.76
607.67	400.23
607.82	440.02
607.98	416.62
608.13	435.34
608.29	404.91
608.44	461.09
608.60	402.57
608.75	470.45
608.91	397.89
609.06	407.25
609.22	447.04
609.37	383.85
609.53	421.30
609.68	411.93
609.84	379.17
609.99	355.76
610.15	454.06
