SpectraSuite Data File
++++++++++++++++++++++++++++++++++++
Date: Fri Oct 25 12:11:41 EDT 2013
User: price-jones
Dark Spectrum Present: No
Reference Spectrum Present: No
Number of Sampled Component Spectra: 1
Spectrometers: USB2+H05261
Integration Time (usec): 100000 (USB2+H05261)
Spectra Averaged: 1 (USB2+H05261)
Boxcar Smoothing: 0 (USB2+H05261)
Correct for Electrical Dark: No (USB2+H05261)
Strobe/Lamp Enabled: No (USB2+H05261)
Correct for Detector Non-linearity: No (USB2+H05261)
Correct for Stray Light: No (USB2+H05261)
Number of Pixels in Processed Spectrum: 2048
>>>>>Begin Processed Spectral Data<<<<<
365.73	348.74
365.92	348.74
366.12	348.74
366.32	255.12
366.52	203.63
366.72	313.63
366.91	278.52
367.11	222.35
367.31	248.10
367.51	182.56
367.70	259.80
367.90	208.31
368.10	203.63
368.30	224.69
368.49	227.03
368.69	285.55
368.89	304.27
369.09	241.08
369.28	283.20
369.48	341.72
369.68	243.42
369.87	292.57
370.07	353.42
370.27	449.38
370.47	306.61
370.66	276.18
370.86	411.93
371.06	365.12
371.25	423.64
371.45	351.08
371.65	365.12
371.84	341.72
372.04	344.06
372.24	418.96
372.44	498.53
372.63	423.64
372.83	372.15
373.03	435.34
373.22	355.76
373.42	374.49
373.62	430.66
373.81	423.64
374.01	447.04
374.21	456.40
374.40	433.00
374.60	367.46
374.79	400.23
374.99	433.00
375.19	423.64
375.38	486.83
375.58	376.83
375.78	409.59
375.97	409.59
376.17	510.24
376.37	386.19
376.56	358.10
376.76	372.15
376.95	365.12
377.15	390.87
377.35	440.02
377.54	468.11
377.74	449.38
377.93	395.55
378.13	423.64
378.33	433.00
378.52	411.93
378.72	409.59
378.91	390.87
379.11	397.89
379.31	428.32
379.50	346.40
379.70	451.72
379.89	447.04
380.09	362.78
380.28	351.08
380.48	404.91
380.68	414.27
380.87	379.17
381.07	433.00
381.26	390.87
381.46	353.42
381.65	411.93
381.85	421.30
382.04	407.25
382.24	430.66
382.43	404.91
382.63	388.53
382.83	397.89
383.02	397.89
383.22	444.70
383.41	437.68
383.61	362.78
383.80	454.06
384.00	395.55
384.19	369.80
384.39	386.19
384.58	397.89
384.78	360.44
384.97	430.66
385.17	397.89
385.36	418.96
385.56	351.08
385.75	418.96
385.95	372.15
386.14	447.04
386.34	318.31
386.53	353.42
386.72	470.45
386.92	425.98
387.11	442.36
387.31	362.78
387.50	365.12
387.70	360.44
387.89	374.49
388.09	388.53
388.28	348.74
388.48	414.27
388.67	461.09
388.86	362.78
389.06	407.25
389.25	360.44
389.45	421.30
389.64	341.72
389.84	409.59
390.03	423.64
390.22	479.81
390.42	395.55
390.61	376.83
390.81	411.93
391.00	411.93
391.19	470.45
391.39	374.49
391.58	322.99
391.78	421.30
391.97	411.93
392.16	409.59
392.36	383.85
392.55	416.62
392.75	430.66
392.94	472.79
393.13	458.74
393.33	440.02
393.52	379.17
393.71	390.87
393.91	383.85
394.10	477.47
394.29	383.85
394.49	472.79
394.68	428.32
394.88	407.25
395.07	402.57
395.26	397.89
395.46	442.36
395.65	486.83
395.84	379.17
396.04	468.11
396.23	418.96
396.42	416.62
396.62	458.74
396.81	418.96
397.00	390.87
397.19	423.64
397.39	411.93
397.58	482.15
397.77	479.81
397.97	430.66
398.16	456.40
398.35	437.68
398.55	362.78
398.74	397.89
398.93	421.30
399.12	400.23
399.32	461.09
399.51	423.64
399.70	461.09
399.90	489.17
400.09	376.83
400.28	383.85
400.47	414.27
400.67	393.21
400.86	397.89
401.05	409.59
401.24	472.79
401.44	402.57
401.63	458.74
401.82	489.17
402.01	379.17
402.21	463.43
402.40	421.30
402.59	407.25
402.78	376.83
402.97	444.70
403.17	418.96
403.36	418.96
403.55	456.40
403.74	402.57
403.93	437.68
404.13	383.85
404.32	402.57
404.51	418.96
404.70	505.56
404.89	430.66
405.09	465.77
405.28	472.79
405.47	355.76
405.66	390.87
405.85	433.00
406.05	454.06
406.24	409.59
406.43	388.53
406.62	428.32
406.81	491.51
407.00	458.74
407.20	327.68
407.39	337.04
407.58	433.00
407.77	440.02
407.96	372.15
408.15	374.49
408.34	425.98
408.54	379.17
408.73	444.70
408.92	409.59
409.11	400.23
409.30	472.79
409.49	451.72
409.68	409.59
409.87	330.02
410.07	411.93
410.26	454.06
410.45	435.34
410.64	437.68
410.83	411.93
411.02	463.43
411.21	454.06
411.40	477.47
411.59	454.06
411.78	414.27
411.98	472.79
412.17	390.87
412.36	414.27
412.55	425.98
412.74	390.87
412.93	393.21
413.12	393.21
413.31	430.66
413.50	437.68
413.69	430.66
413.88	482.15
414.07	435.34
414.26	421.30
414.45	402.57
414.64	418.96
414.83	386.19
415.02	475.13
415.22	332.36
415.41	444.70
415.60	400.23
415.79	379.17
415.98	430.66
416.17	390.87
416.36	470.45
416.55	428.32
416.74	444.70
416.93	383.85
417.12	388.53
417.31	409.59
417.50	367.46
417.69	425.98
417.88	402.57
418.07	442.36
418.26	386.19
418.45	411.93
418.64	435.34
418.83	435.34
419.02	416.62
419.21	402.57
419.39	404.91
419.58	395.55
419.77	393.21
419.96	458.74
420.15	418.96
420.34	379.17
420.53	365.12
420.72	458.74
420.91	372.15
421.10	381.51
421.29	402.57
421.48	435.34
421.67	437.68
421.86	344.06
422.05	456.40
422.24	468.11
422.43	440.02
422.61	416.62
422.80	456.40
422.99	423.64
423.18	388.53
423.37	468.11
423.56	437.68
423.75	425.98
423.94	400.23
424.13	423.64
424.32	421.30
424.50	423.64
424.69	334.70
424.88	437.68
425.07	386.19
425.26	444.70
425.45	416.62
425.64	355.76
425.83	433.00
426.01	400.23
426.20	365.12
426.39	416.62
426.58	337.04
426.77	374.49
426.96	465.77
427.15	418.96
427.33	437.68
427.52	423.64
427.71	433.00
427.90	395.55
428.09	456.40
428.28	358.10
428.46	451.72
428.65	475.13
428.84	390.87
429.03	433.00
429.22	390.87
429.40	327.68
429.59	409.59
429.78	393.21
429.97	407.25
430.16	404.91
430.34	369.80
430.53	428.32
430.72	404.91
430.91	390.87
431.10	369.80
431.28	447.04
431.47	397.89
431.66	362.78
431.85	428.32
432.03	428.32
432.22	458.74
432.41	407.25
432.60	416.62
432.79	428.32
432.97	461.09
433.16	383.85
433.35	315.97
433.54	355.76
433.72	428.32
433.91	390.87
434.10	402.57
434.28	379.17
434.47	461.09
434.66	477.47
434.85	447.04
435.03	433.00
435.22	435.34
435.41	416.62
435.59	435.34
435.78	442.36
435.97	360.44
436.16	463.43
436.34	440.02
436.53	423.64
436.72	442.36
436.90	381.51
437.09	402.57
437.28	484.49
437.46	416.62
437.65	454.06
437.84	397.89
438.02	505.56
438.21	433.00
438.40	383.85
438.58	376.83
438.77	418.96
438.96	339.38
439.14	449.38
439.33	437.68
439.52	386.19
439.70	386.19
439.89	449.38
440.08	447.04
440.26	447.04
440.45	433.00
440.63	348.74
440.82	353.42
441.01	493.85
441.19	381.51
441.38	423.64
441.57	386.19
441.75	454.06
441.94	482.15
442.12	414.27
442.31	430.66
442.50	430.66
442.68	386.19
442.87	362.78
443.05	433.00
443.24	372.15
443.43	402.57
443.61	456.40
443.80	367.46
443.98	437.68
444.17	330.02
444.35	447.04
444.54	423.64
444.73	423.64
444.91	500.87
445.10	414.27
445.28	444.70
445.47	425.98
445.65	437.68
445.84	404.91
446.02	358.10
446.21	411.93
446.39	393.21
446.58	379.17
446.77	477.47
446.95	442.36
447.14	421.30
447.32	409.59
447.51	353.42
447.69	388.53
447.88	374.49
448.06	428.32
448.25	449.38
448.43	367.46
448.62	456.40
448.80	418.96
448.99	454.06
449.17	367.46
449.36	418.96
449.54	465.77
449.73	433.00
449.91	440.02
450.10	374.49
450.28	435.34
450.46	463.43
450.65	411.93
450.83	414.27
451.02	407.25
451.20	421.30
451.39	447.04
451.57	451.72
451.76	440.02
451.94	400.23
452.13	447.04
452.31	383.85
452.49	372.15
452.68	379.17
452.86	477.47
453.05	376.83
453.23	404.91
453.42	430.66
453.60	433.00
453.78	461.09
453.97	425.98
454.15	435.34
454.34	470.45
454.52	393.21
454.70	442.36
454.89	430.66
455.07	433.00
455.26	416.62
455.44	430.66
455.62	465.77
455.81	393.21
455.99	421.30
456.17	447.04
456.36	421.30
456.54	400.23
456.73	376.83
456.91	395.55
457.09	437.68
457.28	444.70
457.46	433.00
457.64	423.64
457.83	367.46
458.01	418.96
458.19	433.00
458.38	393.21
458.56	449.38
458.74	374.49
458.93	489.17
459.11	430.66
459.29	437.68
459.48	472.79
459.66	458.74
459.84	475.13
460.03	465.77
460.21	475.13
460.39	486.83
460.57	404.91
460.76	456.40
460.94	463.43
461.12	456.40
461.31	463.43
461.49	428.32
461.67	383.85
461.85	428.32
462.04	442.36
462.22	772.38
462.40	351.08
462.59	409.59
462.77	388.53
462.95	440.02
463.13	400.23
463.32	470.45
463.50	416.62
463.68	423.64
463.86	416.62
464.05	362.78
464.23	414.27
464.41	449.38
464.59	353.42
464.78	421.30
464.96	461.09
465.14	442.36
465.32	428.32
465.50	407.25
465.69	461.09
465.87	388.53
466.05	444.70
466.23	458.74
466.41	442.36
466.60	454.06
466.78	395.55
466.96	435.34
467.14	461.09
467.32	486.83
467.51	465.77
467.69	458.74
467.87	517.26
468.05	447.04
468.23	444.70
468.41	475.13
468.60	418.96
468.78	388.53
468.96	491.51
469.14	365.12
469.32	381.51
469.50	425.98
469.69	390.87
469.87	430.66
470.05	414.27
470.23	449.38
470.41	425.98
470.59	337.04
470.77	435.34
470.95	404.91
471.14	369.80
471.32	367.46
471.50	381.51
471.68	435.34
471.86	507.90
472.04	344.06
472.22	456.40
472.40	351.08
472.58	393.21
472.77	404.91
472.95	421.30
473.13	477.47
473.31	505.56
473.49	360.44
473.67	407.25
473.85	393.21
474.03	447.04
474.21	411.93
474.39	449.38
474.57	550.03
474.75	430.66
474.93	393.21
475.12	435.34
475.30	425.98
475.48	425.98
475.66	379.17
475.84	404.91
476.02	379.17
476.20	411.93
476.38	447.04
476.56	437.68
476.74	447.04
476.92	379.17
477.10	456.40
477.28	456.40
477.46	447.04
477.64	416.62
477.82	379.17
478.00	369.80
478.18	404.91
478.36	421.30
478.54	449.38
478.72	435.34
478.90	327.68
479.08	337.04
479.26	393.21
479.44	332.36
479.62	367.46
479.80	353.42
479.98	379.17
480.16	411.93
480.34	435.34
480.52	397.89
480.70	404.91
480.88	409.59
481.06	400.23
481.24	395.55
481.41	362.78
481.59	444.70
481.77	411.93
481.95	433.00
482.13	496.19
482.31	451.72
482.49	423.64
482.67	393.21
482.85	409.59
483.03	468.11
483.21	418.96
483.39	358.10
483.57	383.85
483.74	383.85
483.92	379.17
484.10	411.93
484.28	435.34
484.46	444.70
484.64	404.91
484.82	423.64
485.00	421.30
485.18	372.15
485.35	447.04
485.53	421.30
485.71	411.93
485.89	475.13
486.07	447.04
486.25	477.47
486.43	440.02
486.61	418.96
486.78	454.06
486.96	444.70
487.14	395.55
487.32	388.53
487.50	418.96
487.68	365.12
487.85	355.76
488.03	442.36
488.21	416.62
488.39	454.06
488.57	526.62
488.75	409.59
488.92	451.72
489.10	379.17
489.28	456.40
489.46	327.68
489.64	327.68
489.81	435.34
489.99	451.72
490.17	376.83
490.35	500.87
490.53	425.98
490.70	468.11
490.88	482.15
491.06	407.25
491.24	458.74
491.41	507.90
491.59	463.43
491.77	383.85
491.95	418.96
492.13	376.83
492.30	379.17
492.48	447.04
492.66	421.30
492.84	454.06
493.01	402.57
493.19	414.27
493.37	409.59
493.54	472.79
493.72	402.57
493.90	397.89
494.08	414.27
494.25	472.79
494.43	482.15
494.61	390.87
494.79	407.25
494.96	379.17
495.14	430.66
495.32	409.59
495.49	383.85
495.67	458.74
495.85	414.27
496.02	404.91
496.20	477.47
496.38	470.45
496.55	397.89
496.73	395.55
496.91	411.93
497.09	454.06
497.26	393.21
497.44	379.17
497.62	428.32
497.79	404.91
497.97	339.38
498.14	482.15
498.32	400.23
498.50	388.53
498.67	383.85
498.85	409.59
499.03	440.02
499.20	383.85
499.38	395.55
499.56	402.57
499.73	428.32
499.91	442.36
500.08	383.85
500.26	414.27
500.44	400.23
500.61	395.55
500.79	454.06
500.97	414.27
501.14	428.32
501.32	451.72
501.49	365.12
501.67	477.47
501.84	381.51
502.02	367.46
502.20	461.09
502.37	402.57
502.55	390.87
502.72	376.83
502.90	409.59
503.07	433.00
503.25	407.25
503.43	449.38
503.60	390.87
503.78	428.32
503.95	383.85
504.13	404.91
504.30	365.12
504.48	430.66
504.65	346.40
504.83	437.68
505.01	411.93
505.18	409.59
505.36	383.85
505.53	433.00
505.71	346.40
505.88	388.53
506.06	435.34
506.23	451.72
506.41	402.57
506.58	418.96
506.76	458.74
506.93	390.87
507.11	360.44
507.28	388.53
507.46	395.55
507.63	397.89
507.81	442.36
507.98	414.27
508.16	447.04
508.33	400.23
508.50	381.51
508.68	425.98
508.85	365.12
509.03	433.00
509.20	418.96
509.38	435.34
509.55	449.38
509.73	404.91
509.90	430.66
510.08	407.25
510.25	428.32
510.42	463.43
510.60	411.93
510.77	454.06
510.95	465.77
511.12	367.46
511.30	447.04
511.47	381.51
511.64	414.27
511.82	449.38
511.99	395.55
512.17	379.17
512.34	344.06
512.51	433.00
512.69	379.17
512.86	433.00
513.04	369.80
513.21	493.85
513.38	465.77
513.56	409.59
513.73	374.49
513.90	402.57
514.08	355.76
514.25	397.89
514.43	440.02
514.60	421.30
514.77	414.27
514.95	386.19
515.12	437.68
515.29	433.00
515.47	407.25
515.64	383.85
515.81	421.30
515.99	498.53
516.16	435.34
516.33	514.92
516.51	454.06
516.68	395.55
516.85	400.23
517.03	402.57
517.20	402.57
517.37	524.28
517.54	402.57
517.72	360.44
517.89	449.38
518.06	404.91
518.24	416.62
518.41	430.66
518.58	395.55
518.75	395.55
518.93	425.98
519.10	411.93
519.27	458.74
519.45	456.40
519.62	416.62
519.79	454.06
519.96	393.21
520.14	458.74
520.31	491.51
520.48	423.64
520.65	411.93
520.83	411.93
521.00	442.36
521.17	348.74
521.34	421.30
521.52	444.70
521.69	418.96
521.86	444.70
522.03	444.70
522.20	428.32
522.38	430.66
522.55	425.98
522.72	369.80
522.89	409.59
523.07	442.36
523.24	386.19
523.41	376.83
523.58	402.57
523.75	479.81
523.92	372.15
524.10	430.66
524.27	395.55
524.44	437.68
524.61	425.98
524.78	435.34
524.96	407.25
525.13	444.70
525.30	442.36
525.47	376.83
525.64	425.98
525.81	430.66
525.98	353.42
526.16	465.77
526.33	367.46
526.50	433.00
526.67	440.02
526.84	397.89
527.01	430.66
527.18	468.11
527.36	411.93
527.53	407.25
527.70	451.72
527.87	444.70
528.04	360.44
528.21	475.13
528.38	498.53
528.55	447.04
528.72	517.26
528.89	493.85
529.07	395.55
529.24	440.02
529.41	381.51
529.58	433.00
529.75	372.15
529.92	430.66
530.09	346.40
530.26	414.27
530.43	428.32
530.60	348.74
530.77	463.43
530.94	383.85
531.11	390.87
531.28	390.87
531.46	360.44
531.63	425.98
531.80	383.85
531.97	402.57
532.14	479.81
532.31	489.17
532.48	465.77
532.65	475.13
532.82	451.72
532.99	395.55
533.16	388.53
533.33	388.53
533.50	442.36
533.67	383.85
533.84	437.68
534.01	449.38
534.18	444.70
534.35	383.85
534.52	351.08
534.69	456.40
534.86	517.26
535.03	411.93
535.20	395.55
535.37	430.66
535.54	404.91
535.71	351.08
535.88	444.70
536.05	456.40
536.22	404.91
536.38	416.62
536.55	421.30
536.72	456.40
536.89	383.85
537.06	383.85
537.23	433.00
537.40	379.17
537.57	383.85
537.74	456.40
537.91	390.87
538.08	449.38
538.25	491.51
538.42	390.87
538.59	437.68
538.75	440.02
538.92	393.21
539.09	397.89
539.26	423.64
539.43	421.30
539.60	435.34
539.77	407.25
539.94	425.98
540.11	355.76
540.28	425.98
540.44	428.32
540.61	461.09
540.78	372.15
540.95	454.06
541.12	496.19
541.29	386.19
541.46	510.24
541.62	400.23
541.79	362.78
541.96	458.74
542.13	458.74
542.30	383.85
542.47	430.66
542.63	421.30
542.80	411.93
542.97	372.15
543.14	365.12
543.31	418.96
543.48	360.44
543.64	393.21
543.81	404.91
543.98	402.57
544.15	407.25
544.32	313.63
544.48	367.46
544.65	423.64
544.82	390.87
544.99	440.02
545.16	383.85
545.32	386.19
545.49	442.36
545.66	433.00
545.83	449.38
546.00	421.30
546.16	430.66
546.33	416.62
546.50	414.27
546.67	344.06
546.83	367.46
547.00	437.68
547.17	388.53
547.34	482.15
547.50	351.08
547.67	418.96
547.84	461.09
548.00	475.13
548.17	505.56
548.34	425.98
548.51	465.77
548.67	430.66
548.84	404.91
549.01	465.77
549.18	493.85
549.34	449.38
549.51	409.59
549.68	475.13
549.84	393.21
550.01	390.87
550.18	402.57
550.34	463.43
550.51	456.40
550.68	449.38
550.84	428.32
551.01	425.98
551.18	379.17
551.34	479.81
551.51	411.93
551.68	435.34
551.84	456.40
552.01	395.55
552.18	372.15
552.34	411.93
552.51	433.00
552.68	379.17
552.84	355.76
553.01	447.04
553.18	381.51
553.34	339.38
553.51	362.78
553.67	479.81
553.84	444.70
554.01	346.40
554.17	479.81
554.34	393.21
554.51	388.53
554.67	421.30
554.84	416.62
555.00	463.43
555.17	381.51
555.33	442.36
555.50	414.27
555.67	440.02
555.83	402.57
556.00	433.00
556.16	461.09
556.33	500.87
556.50	428.32
556.66	358.10
556.83	388.53
556.99	418.96
557.16	500.87
557.32	423.64
557.49	461.09
557.65	470.45
557.82	400.23
557.98	428.32
558.15	390.87
558.32	468.11
558.48	461.09
558.65	440.02
558.81	433.00
558.98	400.23
559.14	411.93
559.31	383.85
559.47	465.77
559.64	430.66
559.80	475.13
559.97	374.49
560.13	374.49
560.30	381.51
560.46	379.17
560.63	411.93
560.79	386.19
560.96	430.66
561.12	407.25
561.29	442.36
561.45	430.66
561.61	451.72
561.78	477.47
561.94	341.72
562.11	461.09
562.27	386.19
562.44	400.23
562.60	376.83
562.77	365.12
562.93	456.40
563.10	524.28
563.26	442.36
563.42	454.06
563.59	383.85
563.75	402.57
563.92	330.02
564.08	482.15
564.24	430.66
564.41	465.77
564.57	367.46
564.74	418.96
564.90	465.77
565.07	418.96
565.23	440.02
565.39	374.49
565.56	400.23
565.72	428.32
565.88	428.32
566.05	477.47
566.21	486.83
566.38	395.55
566.54	362.78
566.70	402.57
566.87	428.32
567.03	372.15
567.19	461.09
567.36	423.64
567.52	358.10
567.68	386.19
567.85	390.87
568.01	416.62
568.17	425.98
568.34	418.96
568.50	437.68
568.66	353.42
568.83	440.02
568.99	425.98
569.15	454.06
569.32	451.72
569.48	440.02
569.64	353.42
569.81	433.00
569.97	362.78
570.13	507.90
570.30	421.30
570.46	440.02
570.62	351.08
570.78	496.19
570.95	388.53
571.11	421.30
571.27	468.11
571.43	454.06
571.60	404.91
571.76	440.02
571.92	400.23
572.09	409.59
572.25	465.77
572.41	428.32
572.57	351.08
572.74	505.56
572.90	414.27
573.06	447.04
573.22	397.89
573.38	447.04
573.55	421.30
573.71	451.72
573.87	362.78
574.03	491.51
574.20	383.85
574.36	425.98
574.52	416.62
574.68	444.70
574.84	404.91
575.01	433.00
575.17	388.53
575.33	503.22
575.49	404.91
575.65	425.98
575.82	461.09
575.98	407.25
576.14	407.25
576.30	456.40
576.46	428.32
576.62	433.00
576.79	379.17
576.95	489.17
577.11	433.00
577.27	435.34
577.43	465.77
577.59	425.98
577.75	449.38
577.92	437.68
578.08	374.49
578.24	386.19
578.40	402.57
578.56	449.38
578.72	484.49
578.88	395.55
579.04	416.62
579.21	491.51
579.37	418.96
579.53	428.32
579.69	444.70
579.85	428.32
580.01	472.79
580.17	407.25
580.33	435.34
580.49	456.40
580.65	489.17
580.82	407.25
580.98	451.72
581.14	376.83
581.30	418.96
581.46	444.70
581.62	461.09
581.78	449.38
581.94	383.85
582.10	411.93
582.26	428.32
582.42	461.09
582.58	414.27
582.74	435.34
582.90	433.00
583.06	418.96
583.22	425.98
583.38	339.38
583.54	447.04
583.70	442.36
583.86	461.09
584.02	425.98
584.18	416.62
584.34	468.11
584.50	367.46
584.66	414.27
584.82	430.66
584.98	463.43
585.14	397.89
585.30	376.83
585.46	425.98
585.62	423.64
585.78	393.21
585.94	376.83
586.10	353.42
586.26	447.04
586.42	491.51
586.58	337.04
586.74	433.00
586.90	472.79
587.06	411.93
587.22	470.45
587.38	341.72
587.54	393.21
587.70	355.76
587.86	423.64
588.02	465.77
588.18	461.09
588.34	456.40
588.49	400.23
588.65	435.34
588.81	482.15
588.97	386.19
589.13	381.51
589.29	423.64
589.45	507.90
589.61	381.51
589.77	414.27
589.93	393.21
590.08	369.80
590.24	418.96
590.40	393.21
590.56	444.70
590.72	374.49
590.88	430.66
591.04	435.34
591.20	484.49
591.35	397.89
591.51	437.68
591.67	393.21
591.83	421.30
591.99	437.68
592.15	360.44
592.31	400.23
592.46	367.46
592.62	411.93
592.78	470.45
592.94	381.51
593.10	421.30
593.26	362.78
593.41	430.66
593.57	339.38
593.73	346.40
593.89	442.36
594.05	360.44
594.20	423.64
594.36	393.21
594.52	390.87
594.68	472.79
594.84	465.77
594.99	468.11
595.15	369.80
595.31	400.23
595.47	414.27
595.62	430.66
595.78	358.10
595.94	428.32
596.10	437.68
596.25	355.76
596.41	451.72
596.57	411.93
596.73	360.44
596.88	491.51
597.04	400.23
597.20	411.93
597.36	397.89
597.51	388.53
597.67	468.11
597.83	374.49
597.99	332.36
598.14	447.04
598.30	547.69
598.46	423.64
598.61	418.96
598.77	369.80
598.93	393.21
599.09	477.47
599.24	421.30
599.40	430.66
599.56	409.59
599.71	416.62
599.87	437.68
600.03	505.56
600.18	411.93
600.34	461.09
600.50	381.51
600.65	400.23
600.81	414.27
600.97	376.83
601.12	449.38
601.28	430.66
601.44	383.85
601.59	418.96
601.75	393.21
601.91	388.53
602.06	423.64
602.22	425.98
602.37	479.81
602.53	372.15
602.69	433.00
602.84	400.23
603.00	397.89
603.16	416.62
603.31	407.25
603.47	404.91
603.62	402.57
603.78	395.55
603.94	430.66
604.09	402.57
604.25	397.89
604.40	397.89
604.56	421.30
604.71	376.83
604.87	425.98
605.03	390.87
605.18	409.59
605.34	500.87
605.49	461.09
605.65	416.62
605.80	374.49
605.96	465.77
606.12	451.72
606.27	407.25
606.43	442.36
606.58	395.55
606.74	454.06
606.89	423.64
607.05	456.40
607.20	407.25
607.36	440.02
607.51	416.62
607.67	358.10
607.82	489.17
607.98	433.00
608.13	423.64
608.29	381.51
608.44	433.00
608.60	472.79
608.75	477.47
608.91	416.62
609.06	442.36
609.22	510.24
609.37	397.89
609.53	470.45
609.68	409.59
609.84	447.04
609.99	418.96
610.15	372.15
