SpectraSuite Data File
++++++++++++++++++++++++++++++++++++
Date: Fri Oct 25 12:11:42 EDT 2013
User: price-jones
Dark Spectrum Present: No
Reference Spectrum Present: No
Number of Sampled Component Spectra: 1
Spectrometers: USB2+H05261
Integration Time (usec): 100000 (USB2+H05261)
Spectra Averaged: 1 (USB2+H05261)
Boxcar Smoothing: 0 (USB2+H05261)
Correct for Electrical Dark: No (USB2+H05261)
Strobe/Lamp Enabled: No (USB2+H05261)
Correct for Detector Non-linearity: No (USB2+H05261)
Correct for Stray Light: No (USB2+H05261)
Number of Pixels in Processed Spectrum: 2048
>>>>>Begin Processed Spectral Data<<<<<
365.73	299.59
365.92	299.59
366.12	299.59
366.32	292.57
366.52	264.48
366.72	308.95
366.91	222.35
367.11	276.18
367.31	180.22
367.51	224.69
367.70	231.71
367.90	248.10
368.10	220.01
368.30	318.31
368.49	255.12
368.69	259.80
368.89	234.05
369.09	208.31
369.28	243.42
369.48	280.86
369.68	301.93
369.87	339.38
370.07	285.55
370.27	346.40
370.47	301.93
370.66	339.38
370.86	425.98
371.06	322.99
371.25	376.83
371.45	379.17
371.65	386.19
371.84	367.46
372.04	358.10
372.24	386.19
372.44	395.55
372.63	414.27
372.83	435.34
373.03	435.34
373.22	425.98
373.42	433.00
373.62	386.19
373.81	425.98
374.01	428.32
374.21	496.19
374.40	388.53
374.60	472.79
374.79	447.04
374.99	362.78
375.19	440.02
375.38	440.02
375.58	400.23
375.78	442.36
375.97	486.83
376.17	479.81
376.37	414.27
376.56	437.68
376.76	360.44
376.95	379.17
377.15	395.55
377.35	437.68
377.54	400.23
377.74	308.95
377.93	423.64
378.13	428.32
378.33	365.12
378.52	409.59
378.72	456.40
378.91	447.04
379.11	386.19
379.31	421.30
379.50	444.70
379.70	425.98
379.89	442.36
380.09	411.93
380.28	397.89
380.48	393.21
380.68	397.89
380.87	409.59
381.07	421.30
381.26	472.79
381.46	383.85
381.65	433.00
381.85	477.47
382.04	423.64
382.24	440.02
382.43	379.17
382.63	393.21
382.83	344.06
383.02	447.04
383.22	400.23
383.41	402.57
383.61	351.08
383.80	362.78
384.00	383.85
384.19	433.00
384.39	411.93
384.58	416.62
384.78	456.40
384.97	353.42
385.17	409.59
385.36	404.91
385.56	411.93
385.75	374.49
385.95	449.38
386.14	425.98
386.34	381.51
386.53	447.04
386.72	400.23
386.92	461.09
387.11	437.68
387.31	341.72
387.50	390.87
387.70	276.18
387.89	376.83
388.09	404.91
388.28	411.93
388.48	402.57
388.67	367.46
388.86	374.49
389.06	425.98
389.25	390.87
389.45	411.93
389.64	423.64
389.84	421.30
390.03	374.49
390.22	458.74
390.42	430.66
390.61	355.76
390.81	402.57
391.00	470.45
391.19	414.27
391.39	433.00
391.58	444.70
391.78	376.83
391.97	421.30
392.16	337.04
392.36	418.96
392.55	461.09
392.75	390.87
392.94	416.62
393.13	379.17
393.33	379.17
393.52	386.19
393.71	440.02
393.91	430.66
394.10	294.91
394.29	344.06
394.49	390.87
394.68	353.42
394.88	386.19
395.07	395.55
395.26	409.59
395.46	393.21
395.65	416.62
395.84	374.49
396.04	500.87
396.23	367.46
396.42	414.27
396.62	461.09
396.81	442.36
397.00	360.44
397.19	435.34
397.39	416.62
397.58	381.51
397.77	353.42
397.97	454.06
398.16	344.06
398.35	440.02
398.55	402.57
398.74	440.02
398.93	451.72
399.12	428.32
399.32	440.02
399.51	407.25
399.70	442.36
399.90	374.49
400.09	435.34
400.28	383.85
400.47	400.23
400.67	407.25
400.86	425.98
401.05	468.11
401.24	402.57
401.44	409.59
401.63	456.40
401.82	397.89
402.01	444.70
402.21	421.30
402.40	425.98
402.59	442.36
402.78	374.49
402.97	395.55
403.17	505.56
403.36	475.13
403.55	362.78
403.74	447.04
403.93	325.33
404.13	435.34
404.32	404.91
404.51	376.83
404.70	411.93
404.89	435.34
405.09	510.24
405.28	365.12
405.47	402.57
405.66	358.10
405.85	425.98
406.05	362.78
406.24	407.25
406.43	376.83
406.62	379.17
406.81	475.13
407.00	472.79
407.20	376.83
407.39	409.59
407.58	379.17
407.77	433.00
407.96	433.00
408.15	477.47
408.34	390.87
408.54	433.00
408.73	393.21
408.92	437.68
409.11	435.34
409.30	468.11
409.49	454.06
409.68	425.98
409.87	367.46
410.07	411.93
410.26	430.66
410.45	381.51
410.64	456.40
410.83	414.27
411.02	365.12
411.21	435.34
411.40	423.64
411.59	416.62
411.78	416.62
411.98	440.02
412.17	409.59
412.36	390.87
412.55	477.47
412.74	409.59
412.93	430.66
413.12	472.79
413.31	322.99
413.50	355.76
413.69	346.40
413.88	433.00
414.07	362.78
414.26	386.19
414.45	325.33
414.64	430.66
414.83	440.02
415.02	322.99
415.22	437.68
415.41	395.55
415.60	339.38
415.79	390.87
415.98	472.79
416.17	425.98
416.36	404.91
416.55	428.32
416.74	425.98
416.93	463.43
417.12	416.62
417.31	418.96
417.50	423.64
417.69	428.32
417.88	433.00
418.07	402.57
418.26	440.02
418.45	472.79
418.64	355.76
418.83	425.98
419.02	395.55
419.21	402.57
419.39	409.59
419.58	472.79
419.77	437.68
419.96	423.64
420.15	451.72
420.34	409.59
420.53	353.42
420.72	390.87
420.91	447.04
421.10	437.68
421.29	472.79
421.48	454.06
421.67	395.55
421.86	447.04
422.05	325.33
422.24	332.36
422.43	498.53
422.61	414.27
422.80	421.30
422.99	449.38
423.18	381.51
423.37	423.64
423.56	428.32
423.75	390.87
423.94	365.12
424.13	463.43
424.32	358.10
424.50	402.57
424.69	306.61
424.88	416.62
425.07	414.27
425.26	447.04
425.45	404.91
425.64	409.59
425.83	407.25
426.01	402.57
426.20	383.85
426.39	418.96
426.58	440.02
426.77	442.36
426.96	437.68
427.15	407.25
427.33	411.93
427.52	440.02
427.71	411.93
427.90	416.62
428.09	470.45
428.28	433.00
428.46	409.59
428.65	486.83
428.84	395.55
429.03	388.53
429.22	407.25
429.40	411.93
429.59	365.12
429.78	397.89
429.97	461.09
430.16	465.77
430.34	318.31
430.53	451.72
430.72	418.96
430.91	411.93
431.10	388.53
431.28	379.17
431.47	451.72
431.66	430.66
431.85	397.89
432.03	447.04
432.22	400.23
432.41	416.62
432.60	489.17
432.79	418.96
432.97	444.70
433.16	423.64
433.35	421.30
433.54	292.57
433.72	409.59
433.91	395.55
434.10	393.21
434.28	444.70
434.47	404.91
434.66	423.64
434.85	393.21
435.03	437.68
435.22	393.21
435.41	421.30
435.59	400.23
435.78	393.21
435.97	376.83
436.16	339.38
436.34	395.55
436.53	404.91
436.72	486.83
436.90	510.24
437.09	400.23
437.28	374.49
437.46	421.30
437.65	521.94
437.84	404.91
438.02	435.34
438.21	472.79
438.40	496.19
438.58	369.80
438.77	435.34
438.96	402.57
439.14	308.95
439.33	374.49
439.52	451.72
439.70	416.62
439.89	360.44
440.08	440.02
440.26	430.66
440.45	440.02
440.63	418.96
440.82	393.21
441.01	390.87
441.19	402.57
441.38	444.70
441.57	397.89
441.75	355.76
441.94	409.59
442.12	379.17
442.31	416.62
442.50	416.62
442.68	346.40
442.87	489.17
443.05	416.62
443.24	404.91
443.43	381.51
443.61	444.70
443.80	430.66
443.98	512.58
444.17	496.19
444.35	421.30
444.54	400.23
444.73	402.57
444.91	351.08
445.10	407.25
445.28	372.15
445.47	444.70
445.65	416.62
445.84	365.12
446.02	411.93
446.21	503.22
446.39	379.17
446.58	407.25
446.77	386.19
446.95	482.15
447.14	456.40
447.32	498.53
447.51	383.85
447.69	400.23
447.88	456.40
448.06	423.64
448.25	456.40
448.43	386.19
448.62	465.77
448.80	435.34
448.99	369.80
449.17	461.09
449.36	395.55
449.54	379.17
449.73	397.89
449.91	437.68
450.10	339.38
450.28	486.83
450.46	442.36
450.65	428.32
450.83	386.19
451.02	437.68
451.20	374.49
451.39	447.04
451.57	423.64
451.76	400.23
451.94	440.02
452.13	423.64
452.31	383.85
452.49	409.59
452.68	367.46
452.86	390.87
453.05	440.02
453.23	414.27
453.42	430.66
453.60	411.93
453.78	486.83
453.97	465.77
454.15	348.74
454.34	407.25
454.52	374.49
454.70	454.06
454.89	447.04
455.07	447.04
455.26	386.19
455.44	409.59
455.62	449.38
455.81	402.57
455.99	458.74
456.17	458.74
456.36	437.68
456.54	421.30
456.73	461.09
456.91	376.83
457.09	447.04
457.28	414.27
457.46	437.68
457.64	435.34
457.83	409.59
458.01	414.27
458.19	411.93
458.38	449.38
458.56	463.43
458.74	482.15
458.93	388.53
459.11	421.30
459.29	400.23
459.48	430.66
459.66	486.83
459.84	404.91
460.03	479.81
460.21	407.25
460.39	355.76
460.57	425.98
460.76	341.72
460.94	388.53
461.12	440.02
461.31	500.87
461.49	454.06
461.67	418.96
461.85	435.34
462.04	428.32
462.22	723.23
462.40	442.36
462.59	430.66
462.77	374.49
462.95	437.68
463.13	404.91
463.32	482.15
463.50	402.57
463.68	395.55
463.86	435.34
464.05	411.93
464.23	425.98
464.41	390.87
464.59	390.87
464.78	423.64
464.96	416.62
465.14	421.30
465.32	423.64
465.50	524.28
465.69	428.32
465.87	381.51
466.05	449.38
466.23	386.19
466.41	440.02
466.60	456.40
466.78	365.12
466.96	456.40
467.14	477.47
467.32	423.64
467.51	402.57
467.69	468.11
467.87	353.42
468.05	360.44
468.23	454.06
468.41	463.43
468.60	355.76
468.78	447.04
468.96	425.98
469.14	358.10
469.32	379.17
469.50	402.57
469.69	430.66
469.87	381.51
470.05	442.36
470.23	470.45
470.41	421.30
470.59	418.96
470.77	308.95
470.95	381.51
471.14	425.98
471.32	425.98
471.50	458.74
471.68	397.89
471.86	397.89
472.04	367.46
472.22	372.15
472.40	435.34
472.58	435.34
472.77	425.98
472.95	390.87
473.13	510.24
473.31	414.27
473.49	430.66
473.67	390.87
473.85	376.83
474.03	407.25
474.21	402.57
474.39	442.36
474.57	386.19
474.75	503.22
474.93	447.04
475.12	465.77
475.30	374.49
475.48	367.46
475.66	433.00
475.84	351.08
476.02	383.85
476.20	367.46
476.38	395.55
476.56	447.04
476.74	472.79
476.92	348.74
477.10	482.15
477.28	449.38
477.46	430.66
477.64	416.62
477.82	348.74
478.00	374.49
478.18	367.46
478.36	383.85
478.54	463.43
478.72	435.34
478.90	362.78
479.08	449.38
479.26	428.32
479.44	386.19
479.62	444.70
479.80	414.27
479.98	449.38
480.16	418.96
480.34	430.66
480.52	411.93
480.70	451.72
480.88	430.66
481.06	491.51
481.24	465.77
481.41	383.85
481.59	409.59
481.77	449.38
481.95	388.53
482.13	449.38
482.31	395.55
482.49	416.62
482.67	463.43
482.85	395.55
483.03	416.62
483.21	355.76
483.39	479.81
483.57	348.74
483.74	454.06
483.92	468.11
484.10	411.93
484.28	425.98
484.46	479.81
484.64	397.89
484.82	355.76
485.00	383.85
485.18	369.80
485.35	416.62
485.53	372.15
485.71	489.17
485.89	400.23
486.07	449.38
486.25	477.47
486.43	482.15
486.61	454.06
486.78	390.87
486.96	376.83
487.14	409.59
487.32	414.27
487.50	414.27
487.68	444.70
487.85	379.17
488.03	365.12
488.21	463.43
488.39	407.25
488.57	414.27
488.75	397.89
488.92	475.13
489.10	365.12
489.28	475.13
489.46	369.80
489.64	425.98
489.81	461.09
489.99	404.91
490.17	472.79
490.35	479.81
490.53	402.57
490.70	404.91
490.88	477.47
491.06	376.83
491.24	390.87
491.41	421.30
491.59	407.25
491.77	444.70
491.95	451.72
492.13	388.53
492.30	416.62
492.48	440.02
492.66	475.13
492.84	362.78
493.01	444.70
493.19	444.70
493.37	458.74
493.54	437.68
493.72	411.93
493.90	404.91
494.08	456.40
494.25	414.27
494.43	423.64
494.61	388.53
494.79	330.02
494.96	397.89
495.14	390.87
495.32	411.93
495.49	388.53
495.67	418.96
495.85	423.64
496.02	414.27
496.20	414.27
496.38	393.21
496.55	437.68
496.73	393.21
496.91	444.70
497.09	442.36
497.26	503.22
497.44	369.80
497.62	369.80
497.79	395.55
497.97	493.85
498.14	411.93
498.32	428.32
498.50	407.25
498.67	496.19
498.85	435.34
499.03	362.78
499.20	433.00
499.38	433.00
499.56	425.98
499.73	442.36
499.91	465.77
500.08	425.98
500.26	404.91
500.44	430.66
500.61	421.30
500.79	400.23
500.97	395.55
501.14	519.60
501.32	456.40
501.49	402.57
501.67	372.15
501.84	351.08
502.02	376.83
502.20	430.66
502.37	475.13
502.55	407.25
502.72	477.47
502.90	437.68
503.07	400.23
503.25	440.02
503.43	390.87
503.60	362.78
503.78	418.96
503.95	423.64
504.13	388.53
504.30	360.44
504.48	484.49
504.65	475.13
504.83	447.04
505.01	447.04
505.18	503.22
505.36	395.55
505.53	416.62
505.71	461.09
505.88	411.93
506.06	477.47
506.23	383.85
506.41	388.53
506.58	447.04
506.76	390.87
506.93	404.91
507.11	531.30
507.28	397.89
507.46	355.76
507.63	468.11
507.81	428.32
507.98	425.98
508.16	430.66
508.33	379.17
508.50	428.32
508.68	470.45
508.85	454.06
509.03	360.44
509.20	320.65
509.38	447.04
509.55	437.68
509.73	479.81
509.90	407.25
510.08	409.59
510.25	400.23
510.42	435.34
510.60	407.25
510.77	407.25
510.95	344.06
511.12	440.02
511.30	386.19
511.47	390.87
511.64	402.57
511.82	346.40
511.99	365.12
512.17	442.36
512.34	468.11
512.51	404.91
512.69	498.53
512.86	510.24
513.04	374.49
513.21	456.40
513.38	344.06
513.56	360.44
513.73	372.15
513.90	449.38
514.08	465.77
514.25	454.06
514.43	381.51
514.60	402.57
514.77	475.13
514.95	407.25
515.12	360.44
515.29	397.89
515.47	379.17
515.64	400.23
515.81	423.64
515.99	514.92
516.16	416.62
516.33	376.83
516.51	353.42
516.68	416.62
516.85	404.91
517.03	425.98
517.20	423.64
517.37	454.06
517.54	400.23
517.72	430.66
517.89	435.34
518.06	381.51
518.24	433.00
518.41	409.59
518.58	449.38
518.75	381.51
518.93	360.44
519.10	437.68
519.27	393.21
519.45	411.93
519.62	440.02
519.79	484.49
519.96	428.32
520.14	423.64
520.31	428.32
520.48	409.59
520.65	407.25
520.83	475.13
521.00	477.47
521.17	409.59
521.34	411.93
521.52	404.91
521.69	418.96
521.86	411.93
522.03	358.10
522.20	390.87
522.38	416.62
522.55	444.70
522.72	458.74
522.89	362.78
523.07	425.98
523.24	400.23
523.41	383.85
523.58	411.93
523.75	447.04
523.92	351.08
524.10	395.55
524.27	428.32
524.44	381.51
524.61	479.81
524.78	435.34
524.96	416.62
525.13	442.36
525.30	430.66
525.47	463.43
525.64	472.79
525.81	423.64
525.98	411.93
526.16	458.74
526.33	411.93
526.50	463.43
526.67	416.62
526.84	400.23
527.01	395.55
527.18	416.62
527.36	374.49
527.53	458.74
527.70	470.45
527.87	421.30
528.04	421.30
528.21	383.85
528.38	416.62
528.55	475.13
528.72	437.68
528.89	395.55
529.07	442.36
529.24	447.04
529.41	369.80
529.58	374.49
529.75	423.64
529.92	416.62
530.09	407.25
530.26	484.49
530.43	388.53
530.60	489.17
530.77	411.93
530.94	393.21
531.11	442.36
531.28	407.25
531.46	383.85
531.63	379.17
531.80	418.96
531.97	463.43
532.14	416.62
532.31	362.78
532.48	451.72
532.65	404.91
532.82	411.93
532.99	435.34
533.16	496.19
533.33	470.45
533.50	402.57
533.67	318.31
533.84	395.55
534.01	367.46
534.18	383.85
534.35	404.91
534.52	489.17
534.69	437.68
534.86	402.57
535.03	421.30
535.20	393.21
535.37	383.85
535.54	376.83
535.71	421.30
535.88	411.93
536.05	442.36
536.22	374.49
536.38	421.30
536.55	402.57
536.72	360.44
536.89	430.66
537.06	390.87
537.23	493.85
537.40	433.00
537.57	376.83
537.74	435.34
537.91	402.57
538.08	416.62
538.25	428.32
538.42	435.34
538.59	421.30
538.75	411.93
538.92	456.40
539.09	484.49
539.26	418.96
539.43	397.89
539.60	367.46
539.77	414.27
539.94	369.80
540.11	435.34
540.28	482.15
540.44	421.30
540.61	360.44
540.78	482.15
540.95	400.23
541.12	449.38
541.29	390.87
541.46	479.81
541.62	416.62
541.79	360.44
541.96	407.25
542.13	332.36
542.30	447.04
542.47	430.66
542.63	404.91
542.80	400.23
542.97	416.62
543.14	397.89
543.31	482.15
543.48	503.22
543.64	477.47
543.81	430.66
543.98	449.38
544.15	428.32
544.32	416.62
544.48	397.89
544.65	409.59
544.82	404.91
544.99	397.89
545.16	440.02
545.32	475.13
545.49	433.00
545.66	496.19
545.83	447.04
546.00	451.72
546.16	447.04
546.33	423.64
546.50	376.83
546.67	447.04
546.83	383.85
547.00	433.00
547.17	374.49
547.34	367.46
547.50	411.93
547.67	397.89
547.84	353.42
548.00	414.27
548.17	367.46
548.34	372.15
548.51	468.11
548.67	400.23
548.84	437.68
549.01	409.59
549.18	411.93
549.34	425.98
549.51	388.53
549.68	383.85
549.84	421.30
550.01	414.27
550.18	456.40
550.34	402.57
550.51	433.00
550.68	510.24
550.84	458.74
551.01	414.27
551.18	468.11
551.34	475.13
551.51	428.32
551.68	454.06
551.84	489.17
552.01	315.97
552.18	477.47
552.34	521.94
552.51	489.17
552.68	444.70
552.84	451.72
553.01	411.93
553.18	421.30
553.34	339.38
553.51	386.19
553.67	430.66
553.84	346.40
554.01	533.64
554.17	402.57
554.34	456.40
554.51	393.21
554.67	447.04
554.84	381.51
555.00	351.08
555.17	414.27
555.33	409.59
555.50	425.98
555.67	365.12
555.83	437.68
556.00	435.34
556.16	554.71
556.33	435.34
556.50	425.98
556.66	388.53
556.83	437.68
556.99	425.98
557.16	369.80
557.32	507.90
557.49	433.00
557.65	327.68
557.82	404.91
557.98	388.53
558.15	393.21
558.32	414.27
558.48	379.17
558.65	386.19
558.81	435.34
558.98	430.66
559.14	454.06
559.31	416.62
559.47	386.19
559.64	493.85
559.80	416.62
559.97	390.87
560.13	442.36
560.30	463.43
560.46	383.85
560.63	458.74
560.79	498.53
560.96	411.93
561.12	367.46
561.29	409.59
561.45	451.72
561.61	416.62
561.78	514.92
561.94	437.68
562.11	423.64
562.27	449.38
562.44	369.80
562.60	440.02
562.77	484.49
562.93	435.34
563.10	428.32
563.26	433.00
563.42	435.34
563.59	414.27
563.75	423.64
563.92	435.34
564.08	461.09
564.24	414.27
564.41	454.06
564.57	496.19
564.74	428.32
564.90	416.62
565.07	390.87
565.23	428.32
565.39	404.91
565.56	425.98
565.72	383.85
565.88	411.93
566.05	496.19
566.21	353.42
566.38	458.74
566.54	327.68
566.70	351.08
566.87	433.00
567.03	355.76
567.19	402.57
567.36	433.00
567.52	428.32
567.68	421.30
567.85	437.68
568.01	461.09
568.17	475.13
568.34	381.51
568.50	468.11
568.66	447.04
568.83	423.64
568.99	383.85
569.15	407.25
569.32	437.68
569.48	388.53
569.64	409.59
569.81	440.02
569.97	507.90
570.13	435.34
570.30	444.70
570.46	461.09
570.62	470.45
570.78	341.72
570.95	395.55
571.11	456.40
571.27	451.72
571.43	397.89
571.60	379.17
571.76	418.96
571.92	440.02
572.09	437.68
572.25	425.98
572.41	430.66
572.57	402.57
572.74	425.98
572.90	442.36
573.06	468.11
573.22	411.93
573.38	411.93
573.55	397.89
573.71	430.66
573.87	428.32
574.03	341.72
574.20	381.51
574.36	416.62
574.52	451.72
574.68	456.40
574.84	465.77
575.01	372.15
575.17	433.00
575.33	451.72
575.49	479.81
575.65	381.51
575.82	454.06
575.98	402.57
576.14	503.22
576.30	346.40
576.46	400.23
576.62	465.77
576.79	472.79
576.95	447.04
577.11	423.64
577.27	407.25
577.43	491.51
577.59	433.00
577.75	465.77
577.92	484.49
578.08	456.40
578.24	425.98
578.40	395.55
578.56	435.34
578.72	484.49
578.88	435.34
579.04	482.15
579.21	414.27
579.37	440.02
579.53	484.49
579.69	444.70
579.85	337.04
580.01	442.36
580.17	414.27
580.33	374.49
580.49	423.64
580.65	388.53
580.82	475.13
580.98	414.27
581.14	449.38
581.30	423.64
581.46	416.62
581.62	440.02
581.78	493.85
581.94	465.77
582.10	400.23
582.26	416.62
582.42	355.76
582.58	451.72
582.74	365.12
582.90	404.91
583.06	440.02
583.22	454.06
583.38	404.91
583.54	437.68
583.70	414.27
583.86	468.11
584.02	435.34
584.18	425.98
584.34	454.06
584.50	365.12
584.66	379.17
584.82	379.17
584.98	411.93
585.14	442.36
585.30	421.30
585.46	444.70
585.62	428.32
585.78	414.27
585.94	418.96
586.10	362.78
586.26	447.04
586.42	390.87
586.58	449.38
586.74	351.08
586.90	397.89
587.06	416.62
587.22	423.64
587.38	383.85
587.54	428.32
587.70	430.66
587.86	514.92
588.02	451.72
588.18	433.00
588.34	400.23
588.49	465.77
588.65	449.38
588.81	442.36
588.97	397.89
589.13	437.68
589.29	400.23
589.45	463.43
589.61	416.62
589.77	421.30
589.93	404.91
590.08	414.27
590.24	472.79
590.40	362.78
590.56	381.51
590.72	482.15
590.88	411.93
591.04	472.79
591.20	430.66
591.35	409.59
591.51	423.64
591.67	407.25
591.83	411.93
591.99	435.34
592.15	404.91
592.31	365.12
592.46	444.70
592.62	435.34
592.78	411.93
592.94	360.44
593.10	367.46
593.26	332.36
593.41	440.02
593.57	425.98
593.73	388.53
593.89	402.57
594.05	449.38
594.20	404.91
594.36	393.21
594.52	332.36
594.68	365.12
594.84	400.23
594.99	463.43
595.15	533.64
595.31	454.06
595.47	498.53
595.62	416.62
595.78	435.34
595.94	421.30
596.10	496.19
596.25	369.80
596.41	374.49
596.57	355.76
596.73	400.23
596.88	369.80
597.04	423.64
597.20	454.06
597.36	477.47
597.51	491.51
597.67	428.32
597.83	418.96
597.99	437.68
598.14	411.93
598.30	407.25
598.46	489.17
598.61	447.04
598.77	463.43
598.93	421.30
599.09	404.91
599.24	465.77
599.40	423.64
599.56	402.57
599.71	423.64
599.87	379.17
600.03	409.59
600.18	407.25
600.34	437.68
600.50	397.89
600.65	402.57
600.81	470.45
600.97	437.68
601.12	372.15
601.28	397.89
601.44	442.36
601.59	386.19
601.75	388.53
601.91	383.85
602.06	491.51
602.22	430.66
602.37	475.13
602.53	411.93
602.69	435.34
602.84	428.32
603.00	416.62
603.16	397.89
603.31	475.13
603.47	484.49
603.62	416.62
603.78	367.46
603.94	409.59
604.09	390.87
604.25	451.72
604.40	470.45
604.56	379.17
604.71	416.62
604.87	463.43
605.03	430.66
605.18	353.42
605.34	463.43
605.49	407.25
605.65	423.64
605.80	337.04
605.96	440.02
606.12	437.68
606.27	386.19
606.43	454.06
606.58	416.62
606.74	418.96
606.89	400.23
607.05	463.43
607.20	367.46
607.36	416.62
607.51	414.27
607.67	472.79
607.82	365.12
607.98	414.27
608.13	477.47
608.29	425.98
608.44	379.17
608.60	393.21
608.75	433.00
608.91	376.83
609.06	482.15
609.22	482.15
609.37	430.66
609.53	386.19
609.68	409.59
609.84	346.40
609.99	404.91
610.15	376.83
