SpectraSuite Data File
++++++++++++++++++++++++++++++++++++
Date: Fri Oct 25 12:10:59 EDT 2013
User: price-jones
Dark Spectrum Present: No
Reference Spectrum Present: No
Number of Sampled Component Spectra: 1
Spectrometers: USB2+H05261
Integration Time (usec): 100000 (USB2+H05261)
Spectra Averaged: 1 (USB2+H05261)
Boxcar Smoothing: 0 (USB2+H05261)
Correct for Electrical Dark: No (USB2+H05261)
Strobe/Lamp Enabled: No (USB2+H05261)
Correct for Detector Non-linearity: No (USB2+H05261)
Correct for Stray Light: No (USB2+H05261)
Number of Pixels in Processed Spectrum: 2048
>>>>>Begin Processed Spectral Data<<<<<
365.73	344.06
365.92	344.06
366.12	344.06
366.32	273.84
366.52	313.63
366.72	229.37
366.91	252.78
367.11	250.44
367.31	236.39
367.51	250.44
367.70	210.65
367.90	203.63
368.10	278.52
368.30	210.65
368.49	166.18
368.69	217.67
368.89	224.69
369.09	257.46
369.28	315.97
369.48	285.55
369.68	273.84
369.87	259.80
370.07	318.31
370.27	334.70
370.47	322.99
370.66	351.08
370.86	306.61
371.06	339.38
371.25	395.55
371.45	423.64
371.65	456.40
371.84	346.40
372.04	383.85
372.24	374.49
372.44	418.96
372.63	449.38
372.83	470.45
373.03	367.46
373.22	337.04
373.42	444.70
373.62	376.83
373.81	388.53
374.01	458.74
374.21	470.45
374.40	435.34
374.60	409.59
374.79	437.68
374.99	374.49
375.19	482.15
375.38	482.15
375.58	362.78
375.78	468.11
375.97	395.55
376.17	472.79
376.37	449.38
376.56	524.28
376.76	484.49
376.95	510.24
377.15	423.64
377.35	411.93
377.54	428.32
377.74	440.02
377.93	388.53
378.13	409.59
378.33	463.43
378.52	381.51
378.72	388.53
378.91	386.19
379.11	360.44
379.31	360.44
379.50	428.32
379.70	475.13
379.89	393.21
380.09	358.10
380.28	400.23
380.48	383.85
380.68	397.89
380.87	407.25
381.07	383.85
381.26	449.38
381.46	393.21
381.65	409.59
381.85	346.40
382.04	376.83
382.24	416.62
382.43	423.64
382.63	369.80
382.83	423.64
383.02	393.21
383.22	388.53
383.41	454.06
383.61	411.93
383.80	418.96
384.00	379.17
384.19	423.64
384.39	404.91
384.58	430.66
384.78	388.53
384.97	411.93
385.17	407.25
385.36	454.06
385.56	393.21
385.75	388.53
385.95	430.66
386.14	358.10
386.34	416.62
386.53	416.62
386.72	440.02
386.92	444.70
387.11	433.00
387.31	482.15
387.50	362.78
387.70	414.27
387.89	386.19
388.09	353.42
388.28	372.15
388.48	451.72
388.67	404.91
388.86	376.83
389.06	365.12
389.25	407.25
389.45	374.49
389.64	451.72
389.84	393.21
390.03	379.17
390.22	379.17
390.42	430.66
390.61	388.53
390.81	365.12
391.00	402.57
391.19	449.38
391.39	442.36
391.58	383.85
391.78	386.19
391.97	449.38
392.16	428.32
392.36	454.06
392.55	458.74
392.75	376.83
392.94	393.21
393.13	395.55
393.33	358.10
393.52	407.25
393.71	393.21
393.91	402.57
394.10	444.70
394.29	484.49
394.49	381.51
394.68	362.78
394.88	433.00
395.07	425.98
395.26	440.02
395.46	454.06
395.65	435.34
395.84	475.13
396.04	491.51
396.23	372.15
396.42	358.10
396.62	402.57
396.81	430.66
397.00	435.34
397.19	346.40
397.39	388.53
397.58	451.72
397.77	451.72
397.97	435.34
398.16	411.93
398.35	360.44
398.55	418.96
398.74	348.74
398.93	351.08
399.12	372.15
399.32	355.76
399.51	411.93
399.70	510.24
399.90	461.09
400.09	451.72
400.28	393.21
400.47	416.62
400.67	372.15
400.86	451.72
401.05	407.25
401.24	402.57
401.44	472.79
401.63	440.02
401.82	400.23
402.01	407.25
402.21	390.87
402.40	383.85
402.59	383.85
402.78	428.32
402.97	402.57
403.17	456.40
403.36	425.98
403.55	418.96
403.74	421.30
403.93	311.29
404.13	428.32
404.32	376.83
404.51	339.38
404.70	355.76
404.89	421.30
405.09	468.11
405.28	367.46
405.47	430.66
405.66	447.04
405.85	409.59
406.05	383.85
406.24	407.25
406.43	418.96
406.62	325.33
406.81	414.27
407.00	395.55
407.20	369.80
407.39	367.46
407.58	411.93
407.77	404.91
407.96	458.74
408.15	433.00
408.34	409.59
408.54	423.64
408.73	404.91
408.92	447.04
409.11	416.62
409.30	496.19
409.49	472.79
409.68	404.91
409.87	418.96
410.07	416.62
410.26	402.57
410.45	421.30
410.64	360.44
410.83	404.91
411.02	360.44
411.21	414.27
411.40	409.59
411.59	414.27
411.78	393.21
411.98	416.62
412.17	421.30
412.36	428.32
412.55	381.51
412.74	449.38
412.93	430.66
413.12	334.70
413.31	475.13
413.50	440.02
413.69	313.63
413.88	372.15
414.07	379.17
414.26	393.21
414.45	461.09
414.64	409.59
414.83	461.09
415.02	421.30
415.22	428.32
415.41	468.11
415.60	360.44
415.79	376.83
415.98	425.98
416.17	360.44
416.36	442.36
416.55	327.68
416.74	379.17
416.93	470.45
417.12	390.87
417.31	374.49
417.50	440.02
417.69	397.89
417.88	383.85
418.07	388.53
418.26	379.17
418.45	400.23
418.64	458.74
418.83	386.19
419.02	503.22
419.21	428.32
419.39	299.59
419.58	475.13
419.77	404.91
419.96	449.38
420.15	472.79
420.34	435.34
420.53	409.59
420.72	416.62
420.91	423.64
421.10	411.93
421.29	430.66
421.48	404.91
421.67	381.51
421.86	416.62
422.05	491.51
422.24	430.66
422.43	414.27
422.61	458.74
422.80	374.49
422.99	421.30
423.18	402.57
423.37	458.74
423.56	433.00
423.75	437.68
423.94	400.23
424.13	425.98
424.32	372.15
424.50	388.53
424.69	435.34
424.88	421.30
425.07	461.09
425.26	395.55
425.45	477.47
425.64	435.34
425.83	404.91
426.01	425.98
426.20	470.45
426.39	411.93
426.58	430.66
426.77	437.68
426.96	407.25
427.15	414.27
427.33	402.57
427.52	386.19
427.71	400.23
427.90	388.53
428.09	393.21
428.28	337.04
428.46	402.57
428.65	437.68
428.84	425.98
429.03	407.25
429.22	418.96
429.40	418.96
429.59	430.66
429.78	491.51
429.97	404.91
430.16	383.85
430.34	404.91
430.53	433.00
430.72	348.74
430.91	421.30
431.10	475.13
431.28	458.74
431.47	418.96
431.66	311.29
431.85	374.49
432.03	374.49
432.22	482.15
432.41	437.68
432.60	449.38
432.79	435.34
432.97	416.62
433.16	442.36
433.35	416.62
433.54	372.15
433.72	386.19
433.91	386.19
434.10	407.25
434.28	369.80
434.47	379.17
434.66	381.51
434.85	376.83
435.03	397.89
435.22	461.09
435.41	411.93
435.59	383.85
435.78	454.06
435.97	395.55
436.16	372.15
436.34	442.36
436.53	402.57
436.72	477.47
436.90	425.98
437.09	388.53
437.28	388.53
437.46	475.13
437.65	472.79
437.84	486.83
438.02	411.93
438.21	397.89
438.40	327.68
438.58	365.12
438.77	447.04
438.96	451.72
439.14	374.49
439.33	397.89
439.52	418.96
439.70	397.89
439.89	463.43
440.08	374.49
440.26	362.78
440.45	491.51
440.63	404.91
440.82	461.09
441.01	444.70
441.19	433.00
441.38	425.98
441.57	409.59
441.75	440.02
441.94	435.34
442.12	379.17
442.31	444.70
442.50	456.40
442.68	344.06
442.87	386.19
443.05	404.91
443.24	472.79
443.43	428.32
443.61	421.30
443.80	381.51
443.98	365.12
444.17	409.59
444.35	367.46
444.54	414.27
444.73	374.49
444.91	491.51
445.10	442.36
445.28	351.08
445.47	404.91
445.65	411.93
445.84	454.06
446.02	409.59
446.21	386.19
446.39	407.25
446.58	365.12
446.77	442.36
446.95	400.23
447.14	489.17
447.32	449.38
447.51	447.04
447.69	390.87
447.88	386.19
448.06	435.34
448.25	423.64
448.43	379.17
448.62	365.12
448.80	402.57
448.99	397.89
449.17	372.15
449.36	414.27
449.54	475.13
449.73	386.19
449.91	409.59
450.10	423.64
450.28	479.81
450.46	547.69
450.65	503.22
450.83	461.09
451.02	404.91
451.20	395.55
451.39	411.93
451.57	353.42
451.76	414.27
451.94	386.19
452.13	416.62
452.31	400.23
452.49	433.00
452.68	390.87
452.86	500.87
453.05	402.57
453.23	388.53
453.42	425.98
453.60	369.80
453.78	407.25
453.97	435.34
454.15	433.00
454.34	395.55
454.52	322.99
454.70	550.03
454.89	489.17
455.07	425.98
455.26	442.36
455.44	404.91
455.62	414.27
455.81	411.93
455.99	440.02
456.17	440.02
456.36	390.87
456.54	411.93
456.73	463.43
456.91	407.25
457.09	402.57
457.28	461.09
457.46	400.23
457.64	510.24
457.83	486.83
458.01	351.08
458.19	418.96
458.38	449.38
458.56	433.00
458.74	425.98
458.93	458.74
459.11	416.62
459.29	383.85
459.48	428.32
459.66	421.30
459.84	433.00
460.03	458.74
460.21	484.49
460.39	402.57
460.57	507.90
460.76	472.79
460.94	454.06
461.12	416.62
461.31	421.30
461.49	374.49
461.67	407.25
461.85	386.19
462.04	381.51
462.22	550.03
462.40	332.36
462.59	402.57
462.77	390.87
462.95	390.87
463.13	400.23
463.32	440.02
463.50	341.72
463.68	430.66
463.86	430.66
464.05	454.06
464.23	435.34
464.41	393.21
464.59	435.34
464.78	386.19
464.96	411.93
465.14	407.25
465.32	449.38
465.50	383.85
465.69	395.55
465.87	402.57
466.05	437.68
466.23	423.64
466.41	355.76
466.60	442.36
466.78	409.59
466.96	437.68
467.14	428.32
467.32	425.98
467.51	435.34
467.69	437.68
467.87	477.47
468.05	348.74
468.23	461.09
468.41	433.00
468.60	411.93
468.78	465.77
468.96	397.89
469.14	379.17
469.32	444.70
469.50	355.76
469.69	470.45
469.87	470.45
470.05	390.87
470.23	428.32
470.41	423.64
470.59	395.55
470.77	395.55
470.95	447.04
471.14	437.68
471.32	353.42
471.50	430.66
471.68	430.66
471.86	404.91
472.04	365.12
472.22	425.98
472.40	397.89
472.58	379.17
472.77	414.27
472.95	365.12
473.13	440.02
473.31	418.96
473.49	418.96
473.67	381.51
473.85	433.00
474.03	433.00
474.21	500.87
474.39	383.85
474.57	411.93
474.75	414.27
474.93	407.25
475.12	386.19
475.30	423.64
475.48	428.32
475.66	440.02
475.84	409.59
476.02	365.12
476.20	475.13
476.38	430.66
476.56	468.11
476.74	489.17
476.92	470.45
477.10	442.36
477.28	461.09
477.46	379.17
477.64	449.38
477.82	430.66
478.00	386.19
478.18	334.70
478.36	358.10
478.54	395.55
478.72	374.49
478.90	388.53
479.08	358.10
479.26	435.34
479.44	379.17
479.62	395.55
479.80	477.47
479.98	397.89
480.16	369.80
480.34	435.34
480.52	407.25
480.70	411.93
480.88	425.98
481.06	365.12
481.24	397.89
481.41	449.38
481.59	458.74
481.77	435.34
481.95	330.02
482.13	409.59
482.31	407.25
482.49	383.85
482.67	421.30
482.85	430.66
483.03	463.43
483.21	456.40
483.39	449.38
483.57	407.25
483.74	440.02
483.92	414.27
484.10	454.06
484.28	472.79
484.46	418.96
484.64	435.34
484.82	388.53
485.00	425.98
485.18	468.11
485.35	381.51
485.53	433.00
485.71	381.51
485.89	362.78
486.07	435.34
486.25	486.83
486.43	428.32
486.61	451.72
486.78	416.62
486.96	411.93
487.14	337.04
487.32	416.62
487.50	437.68
487.68	407.25
487.85	423.64
488.03	407.25
488.21	414.27
488.39	402.57
488.57	444.70
488.75	381.51
488.92	482.15
489.10	435.34
489.28	435.34
489.46	353.42
489.64	395.55
489.81	472.79
489.99	376.83
490.17	362.78
490.35	425.98
490.53	411.93
490.70	409.59
490.88	442.36
491.06	428.32
491.24	411.93
491.41	374.49
491.59	416.62
491.77	360.44
491.95	374.49
492.13	388.53
492.30	475.13
492.48	468.11
492.66	416.62
492.84	454.06
493.01	435.34
493.19	416.62
493.37	433.00
493.54	418.96
493.72	435.34
493.90	400.23
494.08	475.13
494.25	477.47
494.43	407.25
494.61	433.00
494.79	395.55
494.96	411.93
495.14	397.89
495.32	390.87
495.49	449.38
495.67	346.40
495.85	451.72
496.02	374.49
496.20	397.89
496.38	416.62
496.55	407.25
496.73	442.36
496.91	383.85
497.09	423.64
497.26	414.27
497.44	465.77
497.62	433.00
497.79	334.70
497.97	397.89
498.14	402.57
498.32	435.34
498.50	400.23
498.67	449.38
498.85	498.53
499.03	362.78
499.20	423.64
499.38	465.77
499.56	367.46
499.73	409.59
499.91	425.98
500.08	400.23
500.26	334.70
500.44	425.98
500.61	374.49
500.79	404.91
500.97	397.89
501.14	442.36
501.32	486.83
501.49	435.34
501.67	372.15
501.84	423.64
502.02	447.04
502.20	414.27
502.37	418.96
502.55	395.55
502.72	402.57
502.90	491.51
503.07	437.68
503.25	360.44
503.43	362.78
503.60	409.59
503.78	372.15
503.95	442.36
504.13	381.51
504.30	435.34
504.48	393.21
504.65	517.26
504.83	442.36
505.01	374.49
505.18	395.55
505.36	388.53
505.53	444.70
505.71	411.93
505.88	404.91
506.06	372.15
506.23	395.55
506.41	451.72
506.58	433.00
506.76	423.64
506.93	332.36
507.11	414.27
507.28	351.08
507.46	463.43
507.63	451.72
507.81	454.06
507.98	435.34
508.16	433.00
508.33	470.45
508.50	454.06
508.68	411.93
508.85	416.62
509.03	386.19
509.20	428.32
509.38	425.98
509.55	507.90
509.73	386.19
509.90	454.06
510.08	362.78
510.25	397.89
510.42	479.81
510.60	433.00
510.77	402.57
510.95	409.59
511.12	425.98
511.30	454.06
511.47	393.21
511.64	444.70
511.82	306.61
511.99	365.12
512.17	444.70
512.34	400.23
512.51	437.68
512.69	369.80
512.86	383.85
513.04	435.34
513.21	379.17
513.38	456.40
513.56	447.04
513.73	456.40
513.90	379.17
514.08	437.68
514.25	386.19
514.43	421.30
514.60	400.23
514.77	355.76
514.95	472.79
515.12	404.91
515.29	386.19
515.47	369.80
515.64	402.57
515.81	388.53
515.99	418.96
516.16	477.47
516.33	437.68
516.51	477.47
516.68	416.62
516.85	428.32
517.03	425.98
517.20	444.70
517.37	393.21
517.54	482.15
517.72	468.11
517.89	372.15
518.06	407.25
518.24	442.36
518.41	442.36
518.58	472.79
518.75	418.96
518.93	393.21
519.10	423.64
519.27	416.62
519.45	428.32
519.62	395.55
519.79	456.40
519.96	407.25
520.14	369.80
520.31	479.81
520.48	397.89
520.65	425.98
520.83	437.68
521.00	414.27
521.17	447.04
521.34	456.40
521.52	379.17
521.69	458.74
521.86	365.12
522.03	376.83
522.20	402.57
522.38	468.11
522.55	318.31
522.72	367.46
522.89	407.25
523.07	442.36
523.24	421.30
523.41	440.02
523.58	414.27
523.75	437.68
523.92	454.06
524.10	444.70
524.27	414.27
524.44	397.89
524.61	461.09
524.78	376.83
524.96	442.36
525.13	379.17
525.30	442.36
525.47	477.47
525.64	458.74
525.81	404.91
525.98	444.70
526.16	421.30
526.33	376.83
526.50	449.38
526.67	463.43
526.84	379.17
527.01	414.27
527.18	360.44
527.36	437.68
527.53	365.12
527.70	425.98
527.87	425.98
528.04	477.47
528.21	404.91
528.38	327.68
528.55	493.85
528.72	468.11
528.89	395.55
529.07	425.98
529.24	407.25
529.41	435.34
529.58	440.02
529.75	381.51
529.92	409.59
530.09	386.19
530.26	423.64
530.43	351.08
530.60	454.06
530.77	372.15
530.94	411.93
531.11	451.72
531.28	388.53
531.46	409.59
531.63	418.96
531.80	358.10
531.97	414.27
532.14	430.66
532.31	409.59
532.48	435.34
532.65	400.23
532.82	395.55
532.99	341.72
533.16	390.87
533.33	461.09
533.50	437.68
533.67	376.83
533.84	423.64
534.01	390.87
534.18	355.76
534.35	374.49
534.52	334.70
534.69	411.93
534.86	444.70
535.03	484.49
535.20	404.91
535.37	383.85
535.54	395.55
535.71	505.56
535.88	496.19
536.05	362.78
536.22	409.59
536.38	414.27
536.55	409.59
536.72	407.25
536.89	393.21
537.06	421.30
537.23	383.85
537.40	437.68
537.57	461.09
537.74	418.96
537.91	409.59
538.08	437.68
538.25	358.10
538.42	500.87
538.59	442.36
538.75	428.32
538.92	390.87
539.09	442.36
539.26	458.74
539.43	383.85
539.60	433.00
539.77	472.79
539.94	435.34
540.11	428.32
540.28	461.09
540.44	430.66
540.61	353.42
540.78	334.70
540.95	367.46
541.12	386.19
541.29	437.68
541.46	407.25
541.62	482.15
541.79	358.10
541.96	353.42
542.13	404.91
542.30	334.70
542.47	388.53
542.63	365.12
542.80	428.32
542.97	430.66
543.14	376.83
543.31	409.59
543.48	454.06
543.64	461.09
543.81	451.72
543.98	461.09
544.15	374.49
544.32	390.87
544.48	437.68
544.65	414.27
544.82	374.49
544.99	397.89
545.16	423.64
545.32	437.68
545.49	477.47
545.66	465.77
545.83	428.32
546.00	386.19
546.16	442.36
546.33	414.27
546.50	393.21
546.67	498.53
546.83	442.36
547.00	465.77
547.17	330.02
547.34	372.15
547.50	388.53
547.67	430.66
547.84	365.12
548.00	454.06
548.17	447.04
548.34	435.34
548.51	414.27
548.67	437.68
548.84	437.68
549.01	372.15
549.18	393.21
549.34	372.15
549.51	447.04
549.68	421.30
549.84	411.93
550.01	355.76
550.18	482.15
550.34	531.30
550.51	407.25
550.68	435.34
550.84	425.98
551.01	381.51
551.18	409.59
551.34	482.15
551.51	437.68
551.68	416.62
551.84	430.66
552.01	423.64
552.18	393.21
552.34	402.57
552.51	437.68
552.68	374.49
552.84	470.45
553.01	433.00
553.18	414.27
553.34	395.55
553.51	449.38
553.67	440.02
553.84	472.79
554.01	454.06
554.17	393.21
554.34	404.91
554.51	421.30
554.67	404.91
554.84	411.93
555.00	454.06
555.17	465.77
555.33	404.91
555.50	447.04
555.67	386.19
555.83	365.12
556.00	442.36
556.16	517.26
556.33	519.60
556.50	461.09
556.66	390.87
556.83	435.34
556.99	493.85
557.16	440.02
557.32	395.55
557.49	433.00
557.65	425.98
557.82	393.21
557.98	437.68
558.15	409.59
558.32	454.06
558.48	454.06
558.65	376.83
558.81	444.70
558.98	433.00
559.14	421.30
559.31	409.59
559.47	463.43
559.64	397.89
559.80	421.30
559.97	451.72
560.13	369.80
560.30	414.27
560.46	425.98
560.63	381.51
560.79	379.17
560.96	409.59
561.12	400.23
561.29	374.49
561.45	465.77
561.61	444.70
561.78	470.45
561.94	430.66
562.11	463.43
562.27	409.59
562.44	400.23
562.60	390.87
562.77	418.96
562.93	430.66
563.10	379.17
563.26	393.21
563.42	402.57
563.59	416.62
563.75	416.62
563.92	435.34
564.08	381.51
564.24	451.72
564.41	456.40
564.57	496.19
564.74	383.85
564.90	430.66
565.07	531.30
565.23	395.55
565.39	379.17
565.56	411.93
565.72	433.00
565.88	514.92
566.05	425.98
566.21	407.25
566.38	404.91
566.54	400.23
566.70	341.72
566.87	402.57
567.03	346.40
567.19	451.72
567.36	433.00
567.52	390.87
567.68	409.59
567.85	421.30
568.01	411.93
568.17	400.23
568.34	395.55
568.50	465.77
568.66	407.25
568.83	482.15
568.99	395.55
569.15	442.36
569.32	425.98
569.48	390.87
569.64	395.55
569.81	374.49
569.97	381.51
570.13	379.17
570.30	386.19
570.46	454.06
570.62	402.57
570.78	440.02
570.95	407.25
571.11	423.64
571.27	444.70
571.43	482.15
571.60	376.83
571.76	402.57
571.92	404.91
572.09	407.25
572.25	402.57
572.41	435.34
572.57	440.02
572.74	484.49
572.90	428.32
573.06	430.66
573.22	402.57
573.38	444.70
573.55	381.51
573.71	437.68
573.87	409.59
574.03	402.57
574.20	407.25
574.36	393.21
574.52	477.47
574.68	404.91
574.84	423.64
575.01	395.55
575.17	440.02
575.33	374.49
575.49	414.27
575.65	498.53
575.82	454.06
575.98	400.23
576.14	423.64
576.30	423.64
576.46	397.89
576.62	416.62
576.79	353.42
576.95	437.68
577.11	451.72
577.27	465.77
577.43	477.47
577.59	409.59
577.75	461.09
577.92	433.00
578.08	409.59
578.24	418.96
578.40	454.06
578.56	425.98
578.72	423.64
578.88	397.89
579.04	395.55
579.21	360.44
579.37	482.15
579.53	461.09
579.69	404.91
579.85	411.93
580.01	510.24
580.17	451.72
580.33	447.04
580.49	388.53
580.65	447.04
580.82	470.45
580.98	477.47
581.14	442.36
581.30	454.06
581.46	465.77
581.62	437.68
581.78	454.06
581.94	358.10
582.10	395.55
582.26	332.36
582.42	381.51
582.58	433.00
582.74	376.83
582.90	440.02
583.06	388.53
583.22	379.17
583.38	411.93
583.54	414.27
583.70	416.62
583.86	423.64
584.02	451.72
584.18	528.96
584.34	393.21
584.50	390.87
584.66	346.40
584.82	390.87
584.98	514.92
585.14	339.38
585.30	414.27
585.46	421.30
585.62	428.32
585.78	463.43
585.94	400.23
586.10	411.93
586.26	423.64
586.42	437.68
586.58	433.00
586.74	393.21
586.90	430.66
587.06	355.76
587.22	437.68
587.38	393.21
587.54	430.66
587.70	386.19
587.86	381.51
588.02	440.02
588.18	381.51
588.34	395.55
588.49	433.00
588.65	334.70
588.81	447.04
588.97	463.43
589.13	449.38
589.29	374.49
589.45	442.36
589.61	435.34
589.77	524.28
589.93	451.72
590.08	400.23
590.24	360.44
590.40	400.23
590.56	454.06
590.72	400.23
590.88	435.34
591.04	447.04
591.20	528.96
591.35	447.04
591.51	437.68
591.67	393.21
591.83	428.32
591.99	491.51
592.15	461.09
592.31	454.06
592.46	437.68
592.62	428.32
592.78	404.91
592.94	369.80
593.10	423.64
593.26	390.87
593.41	374.49
593.57	486.83
593.73	374.49
593.89	383.85
594.05	416.62
594.20	388.53
594.36	386.19
594.52	421.30
594.68	463.43
594.84	397.89
594.99	486.83
595.15	482.15
595.31	512.58
595.47	423.64
595.62	404.91
595.78	430.66
595.94	472.79
596.10	461.09
596.25	430.66
596.41	414.27
596.57	414.27
596.73	390.87
596.88	470.45
597.04	430.66
597.20	425.98
597.36	411.93
597.51	407.25
597.67	407.25
597.83	404.91
597.99	456.40
598.14	416.62
598.30	482.15
598.46	454.06
598.61	463.43
598.77	381.51
598.93	360.44
599.09	374.49
599.24	447.04
599.40	493.85
599.56	486.83
599.71	386.19
599.87	397.89
600.03	358.10
600.18	381.51
600.34	472.79
600.50	381.51
600.65	404.91
600.81	486.83
600.97	416.62
601.12	400.23
601.28	479.81
601.44	437.68
601.59	421.30
601.75	397.89
601.91	416.62
602.06	437.68
602.22	465.77
602.37	409.59
602.53	418.96
602.69	416.62
602.84	472.79
603.00	418.96
603.16	449.38
603.31	491.51
603.47	451.72
603.62	409.59
603.78	416.62
603.94	404.91
604.09	435.34
604.25	456.40
604.40	390.87
604.56	416.62
604.71	442.36
604.87	369.80
605.03	435.34
605.18	444.70
605.34	472.79
605.49	489.17
605.65	454.06
605.80	397.89
605.96	428.32
606.12	379.17
606.27	468.11
606.43	421.30
606.58	470.45
606.74	400.23
606.89	435.34
607.05	404.91
607.20	411.93
607.36	449.38
607.51	393.21
607.67	346.40
607.82	397.89
607.98	463.43
608.13	372.15
608.29	447.04
608.44	409.59
608.60	381.51
608.75	402.57
608.91	428.32
609.06	437.68
609.22	493.85
609.37	397.89
609.53	353.42
609.68	402.57
609.84	409.59
609.99	393.21
610.15	404.91
