SpectraSuite Data File
++++++++++++++++++++++++++++++++++++
Date: Fri Oct 25 12:11:16 EDT 2013
User: price-jones
Dark Spectrum Present: No
Reference Spectrum Present: No
Number of Sampled Component Spectra: 1
Spectrometers: USB2+H05261
Integration Time (usec): 100000 (USB2+H05261)
Spectra Averaged: 1 (USB2+H05261)
Boxcar Smoothing: 0 (USB2+H05261)
Correct for Electrical Dark: No (USB2+H05261)
Strobe/Lamp Enabled: No (USB2+H05261)
Correct for Detector Non-linearity: No (USB2+H05261)
Correct for Stray Light: No (USB2+H05261)
Number of Pixels in Processed Spectrum: 2048
>>>>>Begin Processed Spectral Data<<<<<
365.73	330.02
365.92	330.02
366.12	330.02
366.32	234.05
366.52	234.05
366.72	308.95
366.91	283.20
367.11	255.12
367.31	222.35
367.51	203.63
367.70	269.16
367.90	301.93
368.10	212.99
368.30	238.73
368.49	229.37
368.69	301.93
368.89	241.08
369.09	212.99
369.28	241.08
369.48	315.97
369.68	414.27
369.87	280.86
370.07	308.95
370.27	369.80
370.47	337.04
370.66	341.72
370.86	332.36
371.06	393.21
371.25	386.19
371.45	393.21
371.65	397.89
371.84	447.04
372.04	322.99
372.24	376.83
372.44	369.80
372.63	402.57
372.83	433.00
373.03	465.77
373.22	425.98
373.42	421.30
373.62	402.57
373.81	369.80
374.01	491.51
374.21	451.72
374.40	383.85
374.60	362.78
374.79	330.02
374.99	395.55
375.19	414.27
375.38	447.04
375.58	458.74
375.78	383.85
375.97	458.74
376.17	482.15
376.37	344.06
376.56	369.80
376.76	376.83
376.95	484.49
377.15	416.62
377.35	404.91
377.54	351.08
377.74	440.02
377.93	339.38
378.13	372.15
378.33	423.64
378.52	351.08
378.72	376.83
378.91	386.19
379.11	433.00
379.31	407.25
379.50	367.46
379.70	430.66
379.89	465.77
380.09	393.21
380.28	353.42
380.48	416.62
380.68	381.51
380.87	397.89
381.07	390.87
381.26	416.62
381.46	351.08
381.65	390.87
381.85	402.57
382.04	355.76
382.24	369.80
382.43	351.08
382.63	414.27
382.83	451.72
383.02	449.38
383.22	442.36
383.41	334.70
383.61	379.17
383.80	372.15
384.00	360.44
384.19	388.53
384.39	388.53
384.58	379.17
384.78	451.72
384.97	444.70
385.17	444.70
385.36	365.12
385.56	388.53
385.75	395.55
385.95	365.12
386.14	418.96
386.34	362.78
386.53	390.87
386.72	435.34
386.92	428.32
387.11	425.98
387.31	404.91
387.50	407.25
387.70	367.46
387.89	400.23
388.09	395.55
388.28	355.76
388.48	449.38
388.67	465.77
388.86	421.30
389.06	395.55
389.25	383.85
389.45	362.78
389.64	449.38
389.84	418.96
390.03	414.27
390.22	463.43
390.42	402.57
390.61	388.53
390.81	374.49
391.00	402.57
391.19	425.98
391.39	390.87
391.58	383.85
391.78	407.25
391.97	400.23
392.16	409.59
392.36	447.04
392.55	425.98
392.75	442.36
392.94	334.70
393.13	416.62
393.33	433.00
393.52	362.78
393.71	327.68
393.91	465.77
394.10	407.25
394.29	447.04
394.49	388.53
394.68	416.62
394.88	425.98
395.07	447.04
395.26	428.32
395.46	374.49
395.65	400.23
395.84	461.09
396.04	517.26
396.23	491.51
396.42	290.23
396.62	355.76
396.81	423.64
397.00	447.04
397.19	414.27
397.39	400.23
397.58	397.89
397.77	435.34
397.97	379.17
398.16	344.06
398.35	433.00
398.55	433.00
398.74	365.12
398.93	353.42
399.12	416.62
399.32	418.96
399.51	351.08
399.70	416.62
399.90	435.34
400.09	451.72
400.28	449.38
400.47	362.78
400.67	503.22
400.86	376.83
401.05	390.87
401.24	402.57
401.44	440.02
401.63	318.31
401.82	428.32
402.01	372.15
402.21	456.40
402.40	482.15
402.59	393.21
402.78	379.17
402.97	400.23
403.17	332.36
403.36	447.04
403.55	353.42
403.74	369.80
403.93	348.74
404.13	379.17
404.32	428.32
404.51	428.32
404.70	407.25
404.89	442.36
405.09	454.06
405.28	472.79
405.47	407.25
405.66	411.93
405.85	470.45
406.05	393.21
406.24	461.09
406.43	374.49
406.62	447.04
406.81	433.00
407.00	433.00
407.20	386.19
407.39	381.51
407.58	365.12
407.77	346.40
407.96	351.08
408.15	482.15
408.34	418.96
408.54	444.70
408.73	402.57
408.92	400.23
409.11	463.43
409.30	458.74
409.49	411.93
409.68	437.68
409.87	468.11
410.07	390.87
410.26	451.72
410.45	386.19
410.64	447.04
410.83	393.21
411.02	374.49
411.21	400.23
411.40	388.53
411.59	428.32
411.78	421.30
411.98	433.00
412.17	416.62
412.36	388.53
412.55	409.59
412.74	433.00
412.93	395.55
413.12	402.57
413.31	416.62
413.50	365.12
413.69	322.99
413.88	386.19
414.07	390.87
414.26	407.25
414.45	346.40
414.64	416.62
414.83	362.78
415.02	440.02
415.22	449.38
415.41	348.74
415.60	402.57
415.79	404.91
415.98	407.25
416.17	409.59
416.36	376.83
416.55	355.76
416.74	461.09
416.93	402.57
417.12	456.40
417.31	458.74
417.50	388.53
417.69	400.23
417.88	451.72
418.07	395.55
418.26	383.85
418.45	400.23
418.64	393.21
418.83	383.85
419.02	496.19
419.21	390.87
419.39	479.81
419.58	409.59
419.77	381.51
419.96	454.06
420.15	402.57
420.34	374.49
420.53	447.04
420.72	414.27
420.91	395.55
421.10	442.36
421.29	442.36
421.48	477.47
421.67	379.17
421.86	337.04
422.05	433.00
422.24	386.19
422.43	428.32
422.61	404.91
422.80	344.06
422.99	451.72
423.18	404.91
423.37	454.06
423.56	421.30
423.75	454.06
423.94	421.30
424.13	353.42
424.32	425.98
424.50	374.49
424.69	414.27
424.88	390.87
425.07	341.72
425.26	442.36
425.45	414.27
425.64	381.51
425.83	348.74
426.01	407.25
426.20	376.83
426.39	454.06
426.58	444.70
426.77	381.51
426.96	383.85
427.15	425.98
427.33	458.74
427.52	360.44
427.71	475.13
427.90	395.55
428.09	447.04
428.28	395.55
428.46	414.27
428.65	365.12
428.84	418.96
429.03	400.23
429.22	337.04
429.40	369.80
429.59	353.42
429.78	449.38
429.97	425.98
430.16	428.32
430.34	437.68
430.53	334.70
430.72	414.27
430.91	407.25
431.10	372.15
431.28	449.38
431.47	379.17
431.66	428.32
431.85	425.98
432.03	421.30
432.22	449.38
432.41	418.96
432.60	409.59
432.79	407.25
432.97	454.06
433.16	369.80
433.35	423.64
433.54	423.64
433.72	435.34
433.91	418.96
434.10	447.04
434.28	388.53
434.47	416.62
434.66	437.68
434.85	407.25
435.03	411.93
435.22	440.02
435.41	411.93
435.59	379.17
435.78	383.85
435.97	365.12
436.16	433.00
436.34	465.77
436.53	400.23
436.72	428.32
436.90	388.53
437.09	348.74
437.28	390.87
437.46	440.02
437.65	423.64
437.84	458.74
438.02	444.70
438.21	447.04
438.40	428.32
438.58	444.70
438.77	404.91
438.96	414.27
439.14	409.59
439.33	381.51
439.52	386.19
439.70	386.19
439.89	388.53
440.08	447.04
440.26	421.30
440.45	409.59
440.63	414.27
440.82	428.32
441.01	430.66
441.19	400.23
441.38	451.72
441.57	442.36
441.75	444.70
441.94	442.36
442.12	475.13
442.31	425.98
442.50	451.72
442.68	388.53
442.87	404.91
443.05	416.62
443.24	414.27
443.43	379.17
443.61	430.66
443.80	463.43
443.98	442.36
444.17	430.66
444.35	428.32
444.54	395.55
444.73	440.02
444.91	528.96
445.10	407.25
445.28	433.00
445.47	365.12
445.65	411.93
445.84	290.23
446.02	402.57
446.21	395.55
446.39	402.57
446.58	472.79
446.77	388.53
446.95	365.12
447.14	400.23
447.32	430.66
447.51	423.64
447.69	447.04
447.88	395.55
448.06	404.91
448.25	421.30
448.43	465.77
448.62	376.83
448.80	397.89
448.99	404.91
449.17	451.72
449.36	351.08
449.54	447.04
449.73	379.17
449.91	472.79
450.10	444.70
450.28	418.96
450.46	411.93
450.65	397.89
450.83	456.40
451.02	468.11
451.20	409.59
451.39	435.34
451.57	393.21
451.76	447.04
451.94	393.21
452.13	458.74
452.31	437.68
452.49	433.00
452.68	440.02
452.86	348.74
453.05	421.30
453.23	381.51
453.42	404.91
453.60	400.23
453.78	418.96
453.97	447.04
454.15	332.36
454.34	440.02
454.52	393.21
454.70	367.46
454.89	454.06
455.07	421.30
455.26	428.32
455.44	390.87
455.62	454.06
455.81	351.08
455.99	461.09
456.17	440.02
456.36	379.17
456.54	416.62
456.73	358.10
456.91	477.47
457.09	395.55
457.28	351.08
457.46	395.55
457.64	456.40
457.83	437.68
458.01	449.38
458.19	374.49
458.38	435.34
458.56	423.64
458.74	421.30
458.93	407.25
459.11	395.55
459.29	276.18
459.48	454.06
459.66	416.62
459.84	470.45
460.03	388.53
460.21	500.87
460.39	395.55
460.57	383.85
460.76	463.43
460.94	369.80
461.12	470.45
461.31	421.30
461.49	390.87
461.67	421.30
461.85	374.49
462.04	479.81
462.22	816.85
462.40	451.72
462.59	435.34
462.77	411.93
462.95	337.04
463.13	351.08
463.32	360.44
463.50	437.68
463.68	451.72
463.86	351.08
464.05	430.66
464.23	447.04
464.41	416.62
464.59	402.57
464.78	442.36
464.96	397.89
465.14	348.74
465.32	411.93
465.50	451.72
465.69	428.32
465.87	362.78
466.05	430.66
466.23	369.80
466.41	407.25
466.60	430.66
466.78	367.46
466.96	433.00
467.14	425.98
467.32	486.83
467.51	447.04
467.69	416.62
467.87	470.45
468.05	397.89
468.23	482.15
468.41	505.56
468.60	346.40
468.78	423.64
468.96	409.59
469.14	400.23
469.32	367.46
469.50	381.51
469.69	423.64
469.87	463.43
470.05	407.25
470.23	475.13
470.41	402.57
470.59	402.57
470.77	512.58
470.95	430.66
471.14	465.77
471.32	346.40
471.50	514.92
471.68	404.91
471.86	365.12
472.04	456.40
472.22	404.91
472.40	404.91
472.58	414.27
472.77	437.68
472.95	402.57
473.13	425.98
473.31	425.98
473.49	372.15
473.67	425.98
473.85	421.30
474.03	456.40
474.21	409.59
474.39	477.47
474.57	428.32
474.75	402.57
474.93	397.89
475.12	414.27
475.30	334.70
475.48	365.12
475.66	421.30
475.84	447.04
476.02	362.78
476.20	507.90
476.38	423.64
476.56	463.43
476.74	358.10
476.92	433.00
477.10	407.25
477.28	402.57
477.46	367.46
477.64	423.64
477.82	367.46
478.00	423.64
478.18	341.72
478.36	414.27
478.54	416.62
478.72	458.74
478.90	390.87
479.08	404.91
479.26	383.85
479.44	407.25
479.62	454.06
479.80	386.19
479.98	383.85
480.16	383.85
480.34	458.74
480.52	376.83
480.70	409.59
480.88	358.10
481.06	440.02
481.24	423.64
481.41	402.57
481.59	390.87
481.77	435.34
481.95	402.57
482.13	437.68
482.31	430.66
482.49	411.93
482.67	407.25
482.85	435.34
483.03	442.36
483.21	386.19
483.39	418.96
483.57	390.87
483.74	395.55
483.92	423.64
484.10	390.87
484.28	395.55
484.46	540.66
484.64	416.62
484.82	425.98
485.00	414.27
485.18	500.87
485.35	416.62
485.53	395.55
485.71	404.91
485.89	355.76
486.07	421.30
486.25	526.62
486.43	491.51
486.61	461.09
486.78	409.59
486.96	404.91
487.14	369.80
487.32	437.68
487.50	440.02
487.68	425.98
487.85	383.85
488.03	397.89
488.21	418.96
488.39	428.32
488.57	404.91
488.75	435.34
488.92	521.94
489.10	435.34
489.28	376.83
489.46	393.21
489.64	423.64
489.81	425.98
489.99	393.21
490.17	362.78
490.35	418.96
490.53	355.76
490.70	407.25
490.88	332.36
491.06	442.36
491.24	498.53
491.41	421.30
491.59	416.62
491.77	428.32
491.95	383.85
492.13	397.89
492.30	482.15
492.48	376.83
492.66	397.89
492.84	423.64
493.01	433.00
493.19	418.96
493.37	376.83
493.54	507.90
493.72	449.38
493.90	404.91
494.08	360.44
494.25	463.43
494.43	496.19
494.61	393.21
494.79	390.87
494.96	362.78
495.14	514.92
495.32	372.15
495.49	409.59
495.67	463.43
495.85	383.85
496.02	442.36
496.20	383.85
496.38	334.70
496.55	402.57
496.73	433.00
496.91	360.44
497.09	411.93
497.26	376.83
497.44	388.53
497.62	393.21
497.79	416.62
497.97	433.00
498.14	447.04
498.32	437.68
498.50	386.19
498.67	423.64
498.85	430.66
499.03	435.34
499.20	414.27
499.38	421.30
499.56	411.93
499.73	388.53
499.91	428.32
500.08	461.09
500.26	409.59
500.44	425.98
500.61	421.30
500.79	407.25
500.97	491.51
501.14	423.64
501.32	393.21
501.49	463.43
501.67	358.10
501.84	449.38
502.02	409.59
502.20	428.32
502.37	423.64
502.55	372.15
502.72	379.17
502.90	379.17
503.07	437.68
503.25	451.72
503.43	402.57
503.60	416.62
503.78	461.09
503.95	400.23
504.13	421.30
504.30	425.98
504.48	386.19
504.65	433.00
504.83	465.77
505.01	430.66
505.18	393.21
505.36	428.32
505.53	484.49
505.71	388.53
505.88	411.93
506.06	404.91
506.23	421.30
506.41	421.30
506.58	440.02
506.76	402.57
506.93	454.06
507.11	360.44
507.28	374.49
507.46	404.91
507.63	463.43
507.81	414.27
507.98	456.40
508.16	421.30
508.33	418.96
508.50	442.36
508.68	348.74
508.85	430.66
509.03	374.49
509.20	442.36
509.38	395.55
509.55	444.70
509.73	493.85
509.90	414.27
510.08	435.34
510.25	433.00
510.42	388.53
510.60	404.91
510.77	430.66
510.95	470.45
511.12	386.19
511.30	435.34
511.47	440.02
511.64	430.66
511.82	418.96
511.99	465.77
512.17	355.76
512.34	388.53
512.51	423.64
512.69	430.66
512.86	430.66
513.04	465.77
513.21	346.40
513.38	365.12
513.56	397.89
513.73	351.08
513.90	355.76
514.08	395.55
514.25	409.59
514.43	414.27
514.60	416.62
514.77	379.17
514.95	383.85
515.12	404.91
515.29	404.91
515.47	468.11
515.64	444.70
515.81	376.83
515.99	440.02
516.16	498.53
516.33	404.91
516.51	433.00
516.68	374.49
516.85	418.96
517.03	383.85
517.20	463.43
517.37	442.36
517.54	383.85
517.72	430.66
517.89	404.91
518.06	390.87
518.24	454.06
518.41	449.38
518.58	416.62
518.75	411.93
518.93	430.66
519.10	381.51
519.27	388.53
519.45	402.57
519.62	428.32
519.79	416.62
519.96	416.62
520.14	390.87
520.31	486.83
520.48	372.15
520.65	442.36
520.83	514.92
521.00	449.38
521.17	425.98
521.34	400.23
521.52	407.25
521.69	386.19
521.86	327.68
522.03	442.36
522.20	421.30
522.38	388.53
522.55	425.98
522.72	423.64
522.89	477.47
523.07	437.68
523.24	386.19
523.41	383.85
523.58	404.91
523.75	475.13
523.92	407.25
524.10	395.55
524.27	372.15
524.44	346.40
524.61	430.66
524.78	393.21
524.96	411.93
525.13	418.96
525.30	491.51
525.47	454.06
525.64	514.92
525.81	379.17
525.98	358.10
526.16	451.72
526.33	362.78
526.50	386.19
526.67	388.53
526.84	458.74
527.01	344.06
527.18	400.23
527.36	414.27
527.53	383.85
527.70	421.30
527.87	367.46
528.04	477.47
528.21	435.34
528.38	369.80
528.55	369.80
528.72	479.81
528.89	451.72
529.07	440.02
529.24	339.38
529.41	409.59
529.58	393.21
529.75	421.30
529.92	414.27
530.09	367.46
530.26	414.27
530.43	407.25
530.60	447.04
530.77	414.27
530.94	414.27
531.11	395.55
531.28	463.43
531.46	428.32
531.63	416.62
531.80	447.04
531.97	395.55
532.14	386.19
532.31	390.87
532.48	367.46
532.65	355.76
532.82	425.98
532.99	390.87
533.16	465.77
533.33	418.96
533.50	454.06
533.67	447.04
533.84	416.62
534.01	444.70
534.18	454.06
534.35	444.70
534.52	444.70
534.69	409.59
534.86	383.85
535.03	414.27
535.20	386.19
535.37	402.57
535.54	442.36
535.71	444.70
535.88	414.27
536.05	444.70
536.22	379.17
536.38	365.12
536.55	484.49
536.72	421.30
536.89	449.38
537.06	381.51
537.23	411.93
537.40	362.78
537.57	386.19
537.74	388.53
537.91	423.64
538.08	337.04
538.25	395.55
538.42	372.15
538.59	367.46
538.75	358.10
538.92	444.70
539.09	463.43
539.26	433.00
539.43	433.00
539.60	461.09
539.77	435.34
539.94	479.81
540.11	486.83
540.28	477.47
540.44	451.72
540.61	353.42
540.78	383.85
540.95	409.59
541.12	447.04
541.29	440.02
541.46	421.30
541.62	379.17
541.79	451.72
541.96	367.46
542.13	390.87
542.30	430.66
542.47	376.83
542.63	369.80
542.80	423.64
542.97	407.25
543.14	421.30
543.31	430.66
543.48	425.98
543.64	454.06
543.81	440.02
543.98	404.91
544.15	435.34
544.32	374.49
544.48	353.42
544.65	428.32
544.82	369.80
544.99	362.78
545.16	353.42
545.32	358.10
545.49	430.66
545.66	339.38
545.83	369.80
546.00	348.74
546.16	374.49
546.33	421.30
546.50	393.21
546.67	395.55
546.83	447.04
547.00	437.68
547.17	383.85
547.34	381.51
547.50	362.78
547.67	423.64
547.84	449.38
548.00	369.80
548.17	390.87
548.34	484.49
548.51	397.89
548.67	447.04
548.84	379.17
549.01	407.25
549.18	468.11
549.34	409.59
549.51	461.09
549.68	447.04
549.84	465.77
550.01	421.30
550.18	461.09
550.34	433.00
550.51	362.78
550.68	472.79
550.84	407.25
551.01	351.08
551.18	390.87
551.34	369.80
551.51	472.79
551.68	407.25
551.84	390.87
552.01	456.40
552.18	489.17
552.34	486.83
552.51	418.96
552.68	428.32
552.84	442.36
553.01	454.06
553.18	428.32
553.34	435.34
553.51	390.87
553.67	395.55
553.84	421.30
554.01	402.57
554.17	423.64
554.34	421.30
554.51	383.85
554.67	367.46
554.84	444.70
555.00	456.40
555.17	458.74
555.33	372.15
555.50	411.93
555.67	477.47
555.83	423.64
556.00	400.23
556.16	557.05
556.33	407.25
556.50	369.80
556.66	386.19
556.83	425.98
556.99	442.36
557.16	393.21
557.32	395.55
557.49	334.70
557.65	416.62
557.82	451.72
557.98	358.10
558.15	416.62
558.32	461.09
558.48	451.72
558.65	393.21
558.81	444.70
558.98	477.47
559.14	423.64
559.31	454.06
559.47	456.40
559.64	486.83
559.80	454.06
559.97	379.17
560.13	470.45
560.30	374.49
560.46	400.23
560.63	395.55
560.79	414.27
560.96	425.98
561.12	470.45
561.29	477.47
561.45	395.55
561.61	437.68
561.78	400.23
561.94	416.62
562.11	475.13
562.27	421.30
562.44	433.00
562.60	376.83
562.77	437.68
562.93	486.83
563.10	367.46
563.26	344.06
563.42	456.40
563.59	379.17
563.75	423.64
563.92	423.64
564.08	444.70
564.24	395.55
564.41	456.40
564.57	332.36
564.74	395.55
564.90	411.93
565.07	421.30
565.23	456.40
565.39	449.38
565.56	390.87
565.72	414.27
565.88	388.53
566.05	416.62
566.21	400.23
566.38	372.15
566.54	407.25
566.70	386.19
566.87	411.93
567.03	428.32
567.19	433.00
567.36	404.91
567.52	369.80
567.68	486.83
567.85	447.04
568.01	411.93
568.17	416.62
568.34	400.23
568.50	465.77
568.66	414.27
568.83	486.83
568.99	358.10
569.15	491.51
569.32	491.51
569.48	435.34
569.64	437.68
569.81	414.27
569.97	402.57
570.13	416.62
570.30	454.06
570.46	390.87
570.62	416.62
570.78	493.85
570.95	437.68
571.11	423.64
571.27	386.19
571.43	451.72
571.60	442.36
571.76	400.23
571.92	386.19
572.09	425.98
572.25	447.04
572.41	430.66
572.57	425.98
572.74	465.77
572.90	395.55
573.06	402.57
573.22	390.87
573.38	416.62
573.55	517.26
573.71	339.38
573.87	444.70
574.03	430.66
574.20	414.27
574.36	320.65
574.52	386.19
574.68	416.62
574.84	411.93
575.01	475.13
575.17	472.79
575.33	430.66
575.49	390.87
575.65	416.62
575.82	489.17
575.98	425.98
576.14	374.49
576.30	388.53
576.46	414.27
576.62	428.32
576.79	400.23
576.95	468.11
577.11	383.85
577.27	423.64
577.43	404.91
577.59	461.09
577.75	400.23
577.92	428.32
578.08	444.70
578.24	444.70
578.40	437.68
578.56	451.72
578.72	465.77
578.88	451.72
579.04	421.30
579.21	365.12
579.37	397.89
579.53	428.32
579.69	388.53
579.85	407.25
580.01	355.76
580.17	379.17
580.33	433.00
580.49	411.93
580.65	437.68
580.82	482.15
580.98	411.93
581.14	449.38
581.30	400.23
581.46	409.59
581.62	454.06
581.78	360.44
581.94	367.46
582.10	367.46
582.26	360.44
582.42	428.32
582.58	425.98
582.74	430.66
582.90	449.38
583.06	465.77
583.22	386.19
583.38	362.78
583.54	376.83
583.70	482.15
583.86	458.74
584.02	397.89
584.18	381.51
584.34	416.62
584.50	397.89
584.66	322.99
584.82	337.04
584.98	411.93
585.14	414.27
585.30	407.25
585.46	484.49
585.62	447.04
585.78	360.44
585.94	479.81
586.10	442.36
586.26	393.21
586.42	435.34
586.58	367.46
586.74	397.89
586.90	442.36
587.06	461.09
587.22	421.30
587.38	423.64
587.54	404.91
587.70	428.32
587.86	463.43
588.02	409.59
588.18	390.87
588.34	367.46
588.49	428.32
588.65	416.62
588.81	362.78
588.97	489.17
589.13	400.23
589.29	444.70
589.45	428.32
589.61	451.72
589.77	365.12
589.93	458.74
590.08	510.24
590.24	510.24
590.40	414.27
590.56	397.89
590.72	318.31
590.88	463.43
591.04	367.46
591.20	379.17
591.35	425.98
591.51	418.96
591.67	449.38
591.83	404.91
591.99	428.32
592.15	355.76
592.31	388.53
592.46	383.85
592.62	423.64
592.78	435.34
592.94	386.19
593.10	390.87
593.26	428.32
593.41	423.64
593.57	411.93
593.73	425.98
593.89	388.53
594.05	428.32
594.20	451.72
594.36	484.49
594.52	404.91
594.68	423.64
594.84	425.98
594.99	475.13
595.15	451.72
595.31	437.68
595.47	475.13
595.62	421.30
595.78	430.66
595.94	386.19
596.10	425.98
596.25	475.13
596.41	444.70
596.57	355.76
596.73	365.12
596.88	337.04
597.04	325.33
597.20	402.57
597.36	449.38
597.51	376.83
597.67	402.57
597.83	351.08
597.99	444.70
598.14	358.10
598.30	390.87
598.46	339.38
598.61	435.34
598.77	414.27
598.93	425.98
599.09	428.32
599.24	430.66
599.40	449.38
599.56	463.43
599.71	383.85
599.87	463.43
600.03	395.55
600.18	437.68
600.34	390.87
600.50	409.59
600.65	447.04
600.81	440.02
600.97	330.02
601.12	393.21
601.28	442.36
601.44	484.49
601.59	456.40
601.75	393.21
601.91	440.02
602.06	414.27
602.22	510.24
602.37	423.64
602.53	433.00
602.69	376.83
602.84	440.02
603.00	451.72
603.16	470.45
603.31	437.68
603.47	414.27
603.62	358.10
603.78	428.32
603.94	374.49
604.09	428.32
604.25	423.64
604.40	486.83
604.56	407.25
604.71	414.27
604.87	421.30
605.03	470.45
605.18	425.98
605.34	461.09
605.49	423.64
605.65	379.17
605.80	407.25
605.96	437.68
606.12	365.12
606.27	533.64
606.43	442.36
606.58	395.55
606.74	437.68
606.89	425.98
607.05	440.02
607.20	402.57
607.36	447.04
607.51	435.34
607.67	444.70
607.82	409.59
607.98	444.70
608.13	418.96
608.29	397.89
608.44	564.07
608.60	428.32
608.75	435.34
608.91	421.30
609.06	440.02
609.22	475.13
609.37	447.04
609.53	423.64
609.68	365.12
609.84	381.51
609.99	423.64
610.15	393.21
