SpectraSuite Data File
++++++++++++++++++++++++++++++++++++
Date: Fri Oct 25 12:11:45 EDT 2013
User: price-jones
Dark Spectrum Present: No
Reference Spectrum Present: No
Number of Sampled Component Spectra: 1
Spectrometers: USB2+H05261
Integration Time (usec): 100000 (USB2+H05261)
Spectra Averaged: 1 (USB2+H05261)
Boxcar Smoothing: 0 (USB2+H05261)
Correct for Electrical Dark: No (USB2+H05261)
Strobe/Lamp Enabled: No (USB2+H05261)
Correct for Detector Non-linearity: No (USB2+H05261)
Correct for Stray Light: No (USB2+H05261)
Number of Pixels in Processed Spectrum: 2048
>>>>>Begin Processed Spectral Data<<<<<
365.73	297.25
365.92	297.25
366.12	297.25
366.32	269.16
366.52	198.95
366.72	311.29
366.91	252.78
367.11	205.97
367.31	285.55
367.51	208.31
367.70	203.63
367.90	187.24
368.10	276.18
368.30	292.57
368.49	198.95
368.69	236.39
368.89	222.35
369.09	224.69
369.28	208.31
369.48	285.55
369.68	250.44
369.87	341.72
370.07	313.63
370.27	337.04
370.47	351.08
370.66	283.20
370.86	369.80
371.06	421.30
371.25	339.38
371.45	433.00
371.65	423.64
371.84	376.83
372.04	376.83
372.24	367.46
372.44	437.68
372.63	393.21
372.83	346.40
373.03	360.44
373.22	409.59
373.42	416.62
373.62	421.30
373.81	365.12
374.01	442.36
374.21	376.83
374.40	409.59
374.60	437.68
374.79	414.27
374.99	451.72
375.19	423.64
375.38	442.36
375.58	416.62
375.78	461.09
375.97	428.32
376.17	400.23
376.37	482.15
376.56	456.40
376.76	442.36
376.95	390.87
377.15	332.36
377.35	440.02
377.54	437.68
377.74	493.85
377.93	397.89
378.13	339.38
378.33	390.87
378.52	351.08
378.72	433.00
378.91	416.62
379.11	397.89
379.31	423.64
379.50	341.72
379.70	442.36
379.89	376.83
380.09	442.36
380.28	425.98
380.48	414.27
380.68	372.15
380.87	402.57
381.07	404.91
381.26	411.93
381.46	423.64
381.65	456.40
381.85	411.93
382.04	414.27
382.24	397.89
382.43	404.91
382.63	379.17
382.83	461.09
383.02	437.68
383.22	470.45
383.41	402.57
383.61	421.30
383.80	491.51
384.00	416.62
384.19	456.40
384.39	451.72
384.58	409.59
384.78	400.23
384.97	475.13
385.17	407.25
385.36	320.65
385.56	454.06
385.75	372.15
385.95	421.30
386.14	402.57
386.34	388.53
386.53	414.27
386.72	400.23
386.92	468.11
387.11	386.19
387.31	440.02
387.50	454.06
387.70	393.21
387.89	379.17
388.09	425.98
388.28	353.42
388.48	430.66
388.67	390.87
388.86	416.62
389.06	395.55
389.25	386.19
389.45	376.83
389.64	383.85
389.84	372.15
390.03	407.25
390.22	435.34
390.42	454.06
390.61	390.87
390.81	411.93
391.00	449.38
391.19	442.36
391.39	372.15
391.58	451.72
391.78	355.76
391.97	411.93
392.16	407.25
392.36	454.06
392.55	416.62
392.75	407.25
392.94	400.23
393.13	444.70
393.33	362.78
393.52	365.12
393.71	416.62
393.91	414.27
394.10	390.87
394.29	411.93
394.49	416.62
394.68	407.25
394.88	404.91
395.07	374.49
395.26	379.17
395.46	404.91
395.65	440.02
395.84	449.38
396.04	472.79
396.23	451.72
396.42	367.46
396.62	454.06
396.81	339.38
397.00	390.87
397.19	416.62
397.39	447.04
397.58	444.70
397.77	400.23
397.97	388.53
398.16	393.21
398.35	348.74
398.55	325.33
398.74	358.10
398.93	444.70
399.12	390.87
399.32	372.15
399.51	444.70
399.70	407.25
399.90	421.30
400.09	397.89
400.28	404.91
400.47	400.23
400.67	407.25
400.86	374.49
401.05	409.59
401.24	383.85
401.44	435.34
401.63	425.98
401.82	407.25
402.01	423.64
402.21	447.04
402.40	346.40
402.59	400.23
402.78	376.83
402.97	395.55
403.17	388.53
403.36	433.00
403.55	407.25
403.74	435.34
403.93	404.91
404.13	437.68
404.32	367.46
404.51	437.68
404.70	437.68
404.89	418.96
405.09	444.70
405.28	454.06
405.47	381.51
405.66	461.09
405.85	386.19
406.05	393.21
406.24	421.30
406.43	437.68
406.62	400.23
406.81	416.62
407.00	376.83
407.20	379.17
407.39	409.59
407.58	395.55
407.77	423.64
407.96	386.19
408.15	454.06
408.34	341.72
408.54	449.38
408.73	421.30
408.92	390.87
409.11	425.98
409.30	416.62
409.49	416.62
409.68	402.57
409.87	395.55
410.07	433.00
410.26	386.19
410.45	400.23
410.64	330.02
410.83	379.17
411.02	404.91
411.21	428.32
411.40	414.27
411.59	397.89
411.78	505.56
411.98	440.02
412.17	381.51
412.36	428.32
412.55	376.83
412.74	386.19
412.93	383.85
413.12	477.47
413.31	407.25
413.50	337.04
413.69	437.68
413.88	418.96
414.07	435.34
414.26	397.89
414.45	409.59
414.64	411.93
414.83	447.04
415.02	397.89
415.22	496.19
415.41	423.64
415.60	418.96
415.79	491.51
415.98	416.62
416.17	383.85
416.36	463.43
416.55	416.62
416.74	430.66
416.93	479.81
417.12	402.57
417.31	409.59
417.50	395.55
417.69	428.32
417.88	418.96
418.07	414.27
418.26	397.89
418.45	411.93
418.64	430.66
418.83	428.32
419.02	388.53
419.21	411.93
419.39	400.23
419.58	418.96
419.77	367.46
419.96	379.17
420.15	468.11
420.34	402.57
420.53	400.23
420.72	414.27
420.91	447.04
421.10	421.30
421.29	411.93
421.48	409.59
421.67	423.64
421.86	465.77
422.05	409.59
422.24	440.02
422.43	463.43
422.61	407.25
422.80	351.08
422.99	383.85
423.18	454.06
423.37	404.91
423.56	404.91
423.75	411.93
423.94	393.21
424.13	449.38
424.32	468.11
424.50	475.13
424.69	400.23
424.88	386.19
425.07	383.85
425.26	418.96
425.45	418.96
425.64	409.59
425.83	425.98
426.01	395.55
426.20	383.85
426.39	341.72
426.58	351.08
426.77	381.51
426.96	386.19
427.15	367.46
427.33	475.13
427.52	451.72
427.71	358.10
427.90	430.66
428.09	421.30
428.28	393.21
428.46	367.46
428.65	372.15
428.84	362.78
429.03	458.74
429.22	444.70
429.40	397.89
429.59	435.34
429.78	447.04
429.97	430.66
430.16	468.11
430.34	397.89
430.53	346.40
430.72	353.42
430.91	440.02
431.10	395.55
431.28	393.21
431.47	409.59
431.66	374.49
431.85	362.78
432.03	379.17
432.22	411.93
432.41	376.83
432.60	463.43
432.79	304.27
432.97	430.66
433.16	374.49
433.35	320.65
433.54	418.96
433.72	416.62
433.91	400.23
434.10	369.80
434.28	463.43
434.47	416.62
434.66	454.06
434.85	430.66
435.03	395.55
435.22	491.51
435.41	433.00
435.59	402.57
435.78	409.59
435.97	430.66
436.16	421.30
436.34	428.32
436.53	414.27
436.72	409.59
436.90	425.98
437.09	393.21
437.28	440.02
437.46	468.11
437.65	379.17
437.84	346.40
438.02	402.57
438.21	437.68
438.40	484.49
438.58	332.36
438.77	400.23
438.96	447.04
439.14	444.70
439.33	496.19
439.52	435.34
439.70	489.17
439.89	365.12
440.08	465.77
440.26	383.85
440.45	395.55
440.63	440.02
440.82	435.34
441.01	365.12
441.19	400.23
441.38	425.98
441.57	379.17
441.75	404.91
441.94	477.47
442.12	437.68
442.31	390.87
442.50	404.91
442.68	313.63
442.87	458.74
443.05	376.83
443.24	393.21
443.43	416.62
443.61	400.23
443.80	447.04
443.98	440.02
444.17	416.62
444.35	372.15
444.54	353.42
444.73	388.53
444.91	423.64
445.10	486.83
445.28	411.93
445.47	458.74
445.65	360.44
445.84	372.15
446.02	437.68
446.21	435.34
446.39	383.85
446.58	449.38
446.77	423.64
446.95	468.11
447.14	414.27
447.32	388.53
447.51	416.62
447.69	365.12
447.88	475.13
448.06	435.34
448.25	428.32
448.43	348.74
448.62	395.55
448.80	461.09
448.99	395.55
449.17	449.38
449.36	388.53
449.54	461.09
449.73	351.08
449.91	411.93
450.10	404.91
450.28	428.32
450.46	444.70
450.65	451.72
450.83	379.17
451.02	451.72
451.20	451.72
451.39	454.06
451.57	383.85
451.76	397.89
451.94	496.19
452.13	430.66
452.31	365.12
452.49	442.36
452.68	423.64
452.86	451.72
453.05	510.24
453.23	383.85
453.42	365.12
453.60	386.19
453.78	416.62
453.97	435.34
454.15	341.72
454.34	344.06
454.52	402.57
454.70	390.87
454.89	437.68
455.07	461.09
455.26	407.25
455.44	411.93
455.62	411.93
455.81	435.34
455.99	430.66
456.17	423.64
456.36	348.74
456.54	388.53
456.73	411.93
456.91	411.93
457.09	390.87
457.28	404.91
457.46	374.49
457.64	355.76
457.83	470.45
458.01	322.99
458.19	442.36
458.38	388.53
458.56	418.96
458.74	470.45
458.93	395.55
459.11	430.66
459.29	430.66
459.48	416.62
459.66	486.83
459.84	440.02
460.03	454.06
460.21	416.62
460.39	416.62
460.57	479.81
460.76	423.64
460.94	369.80
461.12	388.53
461.31	433.00
461.49	498.53
461.67	440.02
461.85	351.08
462.04	468.11
462.22	772.38
462.40	444.70
462.59	416.62
462.77	362.78
462.95	465.77
463.13	374.49
463.32	423.64
463.50	454.06
463.68	442.36
463.86	458.74
464.05	454.06
464.23	505.56
464.41	533.64
464.59	430.66
464.78	416.62
464.96	358.10
465.14	397.89
465.32	355.76
465.50	451.72
465.69	379.17
465.87	407.25
466.05	374.49
466.23	456.40
466.41	435.34
466.60	402.57
466.78	430.66
466.96	463.43
467.14	475.13
467.32	447.04
467.51	428.32
467.69	425.98
467.87	507.90
468.05	449.38
468.23	463.43
468.41	468.11
468.60	433.00
468.78	355.76
468.96	411.93
469.14	409.59
469.32	489.17
469.50	367.46
469.69	397.89
469.87	482.15
470.05	437.68
470.23	430.66
470.41	390.87
470.59	388.53
470.77	430.66
470.95	428.32
471.14	337.04
471.32	362.78
471.50	423.64
471.68	451.72
471.86	372.15
472.04	421.30
472.22	421.30
472.40	381.51
472.58	404.91
472.77	379.17
472.95	409.59
473.13	463.43
473.31	414.27
473.49	374.49
473.67	477.47
473.85	468.11
474.03	421.30
474.21	374.49
474.39	372.15
474.57	486.83
474.75	468.11
474.93	393.21
475.12	461.09
475.30	395.55
475.48	472.79
475.66	414.27
475.84	433.00
476.02	409.59
476.20	484.49
476.38	482.15
476.56	456.40
476.74	386.19
476.92	409.59
477.10	416.62
477.28	390.87
477.46	402.57
477.64	416.62
477.82	372.15
478.00	409.59
478.18	437.68
478.36	449.38
478.54	407.25
478.72	358.10
478.90	407.25
479.08	376.83
479.26	418.96
479.44	386.19
479.62	472.79
479.80	414.27
479.98	465.77
480.16	416.62
480.34	404.91
480.52	390.87
480.70	400.23
480.88	374.49
481.06	358.10
481.24	416.62
481.41	463.43
481.59	409.59
481.77	416.62
481.95	402.57
482.13	454.06
482.31	414.27
482.49	393.21
482.67	397.89
482.85	416.62
483.03	428.32
483.21	472.79
483.39	341.72
483.57	421.30
483.74	472.79
483.92	409.59
484.10	444.70
484.28	472.79
484.46	407.25
484.64	486.83
484.82	407.25
485.00	409.59
485.18	435.34
485.35	393.21
485.53	409.59
485.71	369.80
485.89	376.83
486.07	468.11
486.25	500.87
486.43	456.40
486.61	463.43
486.78	468.11
486.96	421.30
487.14	397.89
487.32	346.40
487.50	367.46
487.68	493.85
487.85	404.91
488.03	369.80
488.21	449.38
488.39	470.45
488.57	411.93
488.75	421.30
488.92	451.72
489.10	393.21
489.28	383.85
489.46	393.21
489.64	479.81
489.81	393.21
489.99	374.49
490.17	409.59
490.35	456.40
490.53	397.89
490.70	421.30
490.88	411.93
491.06	367.46
491.24	454.06
491.41	535.98
491.59	463.43
491.77	444.70
491.95	353.42
492.13	365.12
492.30	433.00
492.48	507.90
492.66	489.17
492.84	500.87
493.01	400.23
493.19	437.68
493.37	498.53
493.54	468.11
493.72	341.72
493.90	414.27
494.08	468.11
494.25	372.15
494.43	400.23
494.61	397.89
494.79	390.87
494.96	379.17
495.14	447.04
495.32	395.55
495.49	353.42
495.67	451.72
495.85	447.04
496.02	447.04
496.20	390.87
496.38	468.11
496.55	407.25
496.73	479.81
496.91	425.98
497.09	407.25
497.26	374.49
497.44	390.87
497.62	367.46
497.79	416.62
497.97	442.36
498.14	440.02
498.32	407.25
498.50	465.77
498.67	461.09
498.85	458.74
499.03	390.87
499.20	390.87
499.38	458.74
499.56	318.31
499.73	430.66
499.91	414.27
500.08	428.32
500.26	489.17
500.44	407.25
500.61	388.53
500.79	388.53
500.97	402.57
501.14	416.62
501.32	402.57
501.49	444.70
501.67	358.10
501.84	430.66
502.02	416.62
502.20	449.38
502.37	449.38
502.55	374.49
502.72	372.15
502.90	423.64
503.07	411.93
503.25	414.27
503.43	461.09
503.60	470.45
503.78	435.34
503.95	360.44
504.13	418.96
504.30	400.23
504.48	407.25
504.65	425.98
504.83	411.93
505.01	440.02
505.18	367.46
505.36	468.11
505.53	477.47
505.71	411.93
505.88	482.15
506.06	330.02
506.23	475.13
506.41	423.64
506.58	388.53
506.76	360.44
506.93	367.46
507.11	355.76
507.28	454.06
507.46	472.79
507.63	428.32
507.81	444.70
507.98	435.34
508.16	430.66
508.33	437.68
508.50	458.74
508.68	379.17
508.85	407.25
509.03	454.06
509.20	433.00
509.38	402.57
509.55	409.59
509.73	365.12
509.90	374.49
510.08	458.74
510.25	433.00
510.42	440.02
510.60	521.94
510.77	498.53
510.95	451.72
511.12	440.02
511.30	407.25
511.47	468.11
511.64	348.74
511.82	400.23
511.99	442.36
512.17	456.40
512.34	451.72
512.51	365.12
512.69	440.02
512.86	444.70
513.04	414.27
513.21	447.04
513.38	365.12
513.56	498.53
513.73	435.34
513.90	416.62
514.08	351.08
514.25	423.64
514.43	423.64
514.60	362.78
514.77	447.04
514.95	428.32
515.12	351.08
515.29	365.12
515.47	498.53
515.64	468.11
515.81	430.66
515.99	435.34
516.16	472.79
516.33	486.83
516.51	381.51
516.68	442.36
516.85	386.19
517.03	484.49
517.20	425.98
517.37	400.23
517.54	437.68
517.72	454.06
517.89	449.38
518.06	416.62
518.24	465.77
518.41	500.87
518.58	425.98
518.75	425.98
518.93	433.00
519.10	365.12
519.27	414.27
519.45	395.55
519.62	351.08
519.79	393.21
519.96	428.32
520.14	416.62
520.31	461.09
520.48	358.10
520.65	400.23
520.83	442.36
521.00	386.19
521.17	463.43
521.34	418.96
521.52	369.80
521.69	430.66
521.86	402.57
522.03	400.23
522.20	447.04
522.38	407.25
522.55	369.80
522.72	386.19
522.89	454.06
523.07	491.51
523.24	397.89
523.41	425.98
523.58	416.62
523.75	458.74
523.92	430.66
524.10	400.23
524.27	409.59
524.44	416.62
524.61	409.59
524.78	383.85
524.96	393.21
525.13	383.85
525.30	411.93
525.47	435.34
525.64	461.09
525.81	416.62
525.98	383.85
526.16	440.02
526.33	416.62
526.50	435.34
526.67	365.12
526.84	512.58
527.01	416.62
527.18	386.19
527.36	395.55
527.53	449.38
527.70	416.62
527.87	444.70
528.04	461.09
528.21	440.02
528.38	472.79
528.55	505.56
528.72	498.53
528.89	433.00
529.07	451.72
529.24	372.15
529.41	454.06
529.58	421.30
529.75	390.87
529.92	393.21
530.09	472.79
530.26	440.02
530.43	400.23
530.60	390.87
530.77	402.57
530.94	433.00
531.11	421.30
531.28	430.66
531.46	437.68
531.63	442.36
531.80	454.06
531.97	433.00
532.14	430.66
532.31	423.64
532.48	437.68
532.65	486.83
532.82	407.25
532.99	395.55
533.16	372.15
533.33	393.21
533.50	409.59
533.67	400.23
533.84	470.45
534.01	402.57
534.18	430.66
534.35	451.72
534.52	390.87
534.69	440.02
534.86	421.30
535.03	430.66
535.20	440.02
535.37	411.93
535.54	386.19
535.71	362.78
535.88	496.19
536.05	395.55
536.22	425.98
536.38	477.47
536.55	372.15
536.72	491.51
536.89	407.25
537.06	440.02
537.23	447.04
537.40	397.89
537.57	416.62
537.74	500.87
537.91	355.76
538.08	404.91
538.25	411.93
538.42	374.49
538.59	407.25
538.75	430.66
538.92	442.36
539.09	458.74
539.26	433.00
539.43	463.43
539.60	477.47
539.77	404.91
539.94	388.53
540.11	486.83
540.28	442.36
540.44	388.53
540.61	386.19
540.78	355.76
540.95	425.98
541.12	416.62
541.29	383.85
541.46	454.06
541.62	390.87
541.79	458.74
541.96	449.38
542.13	423.64
542.30	425.98
542.47	437.68
542.63	409.59
542.80	388.53
542.97	437.68
543.14	414.27
543.31	416.62
543.48	395.55
543.64	456.40
543.81	477.47
543.98	458.74
544.15	369.80
544.32	442.36
544.48	348.74
544.65	362.78
544.82	414.27
544.99	365.12
545.16	421.30
545.32	376.83
545.49	400.23
545.66	402.57
545.83	379.17
546.00	484.49
546.16	383.85
546.33	409.59
546.50	440.02
546.67	411.93
546.83	433.00
547.00	407.25
547.17	404.91
547.34	435.34
547.50	423.64
547.67	414.27
547.84	430.66
548.00	407.25
548.17	369.80
548.34	458.74
548.51	442.36
548.67	390.87
548.84	369.80
549.01	409.59
549.18	409.59
549.34	437.68
549.51	486.83
549.68	383.85
549.84	437.68
550.01	348.74
550.18	390.87
550.34	514.92
550.51	367.46
550.68	454.06
550.84	435.34
551.01	393.21
551.18	454.06
551.34	383.85
551.51	433.00
551.68	428.32
551.84	365.12
552.01	376.83
552.18	468.11
552.34	440.02
552.51	397.89
552.68	416.62
552.84	428.32
553.01	454.06
553.18	367.46
553.34	416.62
553.51	433.00
553.67	425.98
553.84	479.81
554.01	465.77
554.17	341.72
554.34	458.74
554.51	409.59
554.67	383.85
554.84	365.12
555.00	365.12
555.17	397.89
555.33	402.57
555.50	435.34
555.67	433.00
555.83	416.62
556.00	461.09
556.16	514.92
556.33	381.51
556.50	395.55
556.66	449.38
556.83	395.55
556.99	458.74
557.16	418.96
557.32	386.19
557.49	358.10
557.65	386.19
557.82	376.83
557.98	397.89
558.15	386.19
558.32	430.66
558.48	456.40
558.65	393.21
558.81	376.83
558.98	367.46
559.14	411.93
559.31	505.56
559.47	409.59
559.64	463.43
559.80	444.70
559.97	397.89
560.13	404.91
560.30	418.96
560.46	395.55
560.63	416.62
560.79	421.30
560.96	423.64
561.12	381.51
561.29	447.04
561.45	491.51
561.61	379.17
561.78	454.06
561.94	411.93
562.11	428.32
562.27	381.51
562.44	411.93
562.60	484.49
562.77	416.62
562.93	425.98
563.10	465.77
563.26	418.96
563.42	435.34
563.59	339.38
563.75	435.34
563.92	472.79
564.08	484.49
564.24	538.32
564.41	423.64
564.57	437.68
564.74	400.23
564.90	383.85
565.07	372.15
565.23	472.79
565.39	451.72
565.56	475.13
565.72	365.12
565.88	442.36
566.05	362.78
566.21	440.02
566.38	465.77
566.54	404.91
566.70	362.78
566.87	423.64
567.03	381.51
567.19	379.17
567.36	339.38
567.52	493.85
567.68	475.13
567.85	447.04
568.01	285.55
568.17	360.44
568.34	437.68
568.50	461.09
568.66	479.81
568.83	428.32
568.99	435.34
569.15	365.12
569.32	367.46
569.48	353.42
569.64	407.25
569.81	388.53
569.97	402.57
570.13	367.46
570.30	411.93
570.46	456.40
570.62	407.25
570.78	461.09
570.95	433.00
571.11	475.13
571.27	444.70
571.43	463.43
571.60	468.11
571.76	397.89
571.92	383.85
572.09	465.77
572.25	433.00
572.41	393.21
572.57	393.21
572.74	397.89
572.90	409.59
573.06	463.43
573.22	402.57
573.38	433.00
573.55	425.98
573.71	468.11
573.87	430.66
574.03	376.83
574.20	421.30
574.36	489.17
574.52	425.98
574.68	433.00
574.84	463.43
575.01	463.43
575.17	353.42
575.33	433.00
575.49	437.68
575.65	475.13
575.82	454.06
575.98	388.53
576.14	444.70
576.30	418.96
576.46	395.55
576.62	369.80
576.79	484.49
576.95	442.36
577.11	414.27
577.27	444.70
577.43	414.27
577.59	414.27
577.75	395.55
577.92	430.66
578.08	369.80
578.24	433.00
578.40	489.17
578.56	505.56
578.72	416.62
578.88	400.23
579.04	451.72
579.21	400.23
579.37	430.66
579.53	409.59
579.69	425.98
579.85	430.66
580.01	486.83
580.17	430.66
580.33	407.25
580.49	388.53
580.65	404.91
580.82	484.49
580.98	418.96
581.14	421.30
581.30	428.32
581.46	353.42
581.62	379.17
581.78	433.00
581.94	418.96
582.10	395.55
582.26	390.87
582.42	442.36
582.58	428.32
582.74	404.91
582.90	498.53
583.06	423.64
583.22	379.17
583.38	379.17
583.54	458.74
583.70	510.24
583.86	360.44
584.02	458.74
584.18	400.23
584.34	437.68
584.50	367.46
584.66	381.51
584.82	358.10
584.98	386.19
585.14	400.23
585.30	472.79
585.46	369.80
585.62	369.80
585.78	451.72
585.94	470.45
586.10	437.68
586.26	397.89
586.42	435.34
586.58	437.68
586.74	362.78
586.90	383.85
587.06	414.27
587.22	418.96
587.38	372.15
587.54	416.62
587.70	486.83
587.86	418.96
588.02	341.72
588.18	404.91
588.34	433.00
588.49	395.55
588.65	418.96
588.81	447.04
588.97	325.33
589.13	444.70
589.29	435.34
589.45	454.06
589.61	358.10
589.77	465.77
589.93	404.91
590.08	479.81
590.24	435.34
590.40	339.38
590.56	447.04
590.72	397.89
590.88	409.59
591.04	449.38
591.20	503.22
591.35	430.66
591.51	465.77
591.67	400.23
591.83	421.30
591.99	454.06
592.15	409.59
592.31	374.49
592.46	386.19
592.62	433.00
592.78	402.57
592.94	409.59
593.10	449.38
593.26	442.36
593.41	355.76
593.57	390.87
593.73	428.32
593.89	365.12
594.05	409.59
594.20	339.38
594.36	444.70
594.52	383.85
594.68	362.78
594.84	454.06
594.99	458.74
595.15	425.98
595.31	444.70
595.47	463.43
595.62	407.25
595.78	388.53
595.94	428.32
596.10	381.51
596.25	468.11
596.41	393.21
596.57	395.55
596.73	425.98
596.88	400.23
597.04	433.00
597.20	351.08
597.36	418.96
597.51	425.98
597.67	437.68
597.83	360.44
597.99	440.02
598.14	395.55
598.30	379.17
598.46	353.42
598.61	433.00
598.77	489.17
598.93	386.19
599.09	484.49
599.24	507.90
599.40	447.04
599.56	397.89
599.71	411.93
599.87	395.55
600.03	379.17
600.18	444.70
600.34	458.74
600.50	454.06
600.65	327.68
600.81	510.24
600.97	454.06
601.12	442.36
601.28	421.30
601.44	411.93
601.59	423.64
601.75	374.49
601.91	369.80
602.06	388.53
602.22	484.49
602.37	416.62
602.53	435.34
602.69	423.64
602.84	444.70
603.00	407.25
603.16	414.27
603.31	425.98
603.47	456.40
603.62	365.12
603.78	433.00
603.94	383.85
604.09	355.76
604.25	482.15
604.40	435.34
604.56	369.80
604.71	456.40
604.87	374.49
605.03	341.72
605.18	411.93
605.34	454.06
605.49	374.49
605.65	442.36
605.80	397.89
605.96	320.65
606.12	430.66
606.27	510.24
606.43	433.00
606.58	325.33
606.74	397.89
606.89	442.36
607.05	360.44
607.20	463.43
607.36	498.53
607.51	379.17
607.67	472.79
607.82	409.59
607.98	388.53
608.13	397.89
608.29	449.38
608.44	444.70
608.60	447.04
608.75	397.89
608.91	428.32
609.06	402.57
609.22	365.12
609.37	423.64
609.53	458.74
609.68	414.27
609.84	327.68
609.99	390.87
610.15	358.10
