SpectraSuite Data File
++++++++++++++++++++++++++++++++++++
Date: Fri Oct 25 12:10:22 EDT 2013
User: price-jones
Dark Spectrum Present: No
Reference Spectrum Present: No
Number of Sampled Component Spectra: 1
Spectrometers: USB2+H05261
Integration Time (usec): 100000 (USB2+H05261)
Spectra Averaged: 1 (USB2+H05261)
Boxcar Smoothing: 0 (USB2+H05261)
Correct for Electrical Dark: No (USB2+H05261)
Strobe/Lamp Enabled: No (USB2+H05261)
Correct for Detector Non-linearity: No (USB2+H05261)
Correct for Stray Light: No (USB2+H05261)
Number of Pixels in Processed Spectrum: 2048
>>>>>Begin Processed Spectral Data<<<<<
365.73	402.57
365.92	402.57
366.12	402.57
366.32	264.48
366.52	220.01
366.72	205.97
366.91	243.42
367.11	278.52
367.31	166.18
367.51	234.05
367.70	196.60
367.90	229.37
368.10	243.42
368.30	245.76
368.49	173.20
368.69	238.73
368.89	243.42
369.09	194.26
369.28	177.88
369.48	241.08
369.68	264.48
369.87	287.89
370.07	271.50
370.27	365.12
370.47	278.52
370.66	273.84
370.86	407.25
371.06	404.91
371.25	369.80
371.45	355.76
371.65	386.19
371.84	376.83
372.04	397.89
372.24	414.27
372.44	304.27
372.63	440.02
372.83	376.83
373.03	360.44
373.22	390.87
373.42	383.85
373.62	425.98
373.81	442.36
374.01	402.57
374.21	510.24
374.40	437.68
374.60	458.74
374.79	379.17
374.99	491.51
375.19	374.49
375.38	390.87
375.58	367.46
375.78	447.04
375.97	400.23
376.17	489.17
376.37	393.21
376.56	381.51
376.76	348.74
376.95	411.93
377.15	416.62
377.35	322.99
377.54	447.04
377.74	435.34
377.93	409.59
378.13	397.89
378.33	468.11
378.52	440.02
378.72	407.25
378.91	416.62
379.11	423.64
379.31	402.57
379.50	400.23
379.70	409.59
379.89	322.99
380.09	311.29
380.28	367.46
380.48	418.96
380.68	395.55
380.87	383.85
381.07	341.72
381.26	468.11
381.46	341.72
381.65	358.10
381.85	346.40
382.04	395.55
382.24	421.30
382.43	376.83
382.63	322.99
382.83	435.34
383.02	409.59
383.22	437.68
383.41	400.23
383.61	372.15
383.80	372.15
384.00	491.51
384.19	390.87
384.39	435.34
384.58	362.78
384.78	381.51
384.97	376.83
385.17	367.46
385.36	411.93
385.56	411.93
385.75	423.64
385.95	433.00
386.14	374.49
386.34	411.93
386.53	425.98
386.72	348.74
386.92	421.30
387.11	407.25
387.31	437.68
387.50	367.46
387.70	461.09
387.89	369.80
388.09	411.93
388.28	393.21
388.48	404.91
388.67	348.74
388.86	498.53
389.06	400.23
389.25	355.76
389.45	355.76
389.64	337.04
389.84	428.32
390.03	400.23
390.22	447.04
390.42	351.08
390.61	372.15
390.81	393.21
391.00	379.17
391.19	402.57
391.39	369.80
391.58	369.80
391.78	353.42
391.97	437.68
392.16	393.21
392.36	418.96
392.55	498.53
392.75	390.87
392.94	444.70
393.13	425.98
393.33	388.53
393.52	369.80
393.71	372.15
393.91	451.72
394.10	355.76
394.29	325.33
394.49	400.23
394.68	456.40
394.88	372.15
395.07	400.23
395.26	423.64
395.46	463.43
395.65	444.70
395.84	416.62
396.04	505.56
396.23	475.13
396.42	388.53
396.62	383.85
396.81	407.25
397.00	404.91
397.19	393.21
397.39	489.17
397.58	444.70
397.77	472.79
397.97	440.02
398.16	414.27
398.35	418.96
398.55	425.98
398.74	318.31
398.93	393.21
399.12	475.13
399.32	416.62
399.51	299.59
399.70	440.02
399.90	454.06
400.09	440.02
400.28	409.59
400.47	437.68
400.67	414.27
400.86	388.53
401.05	435.34
401.24	444.70
401.44	421.30
401.63	425.98
401.82	449.38
402.01	334.70
402.21	407.25
402.40	400.23
402.59	409.59
402.78	433.00
402.97	395.55
403.17	447.04
403.36	407.25
403.55	386.19
403.74	437.68
403.93	365.12
404.13	472.79
404.32	358.10
404.51	400.23
404.70	393.21
404.89	482.15
405.09	400.23
405.28	463.43
405.47	376.83
405.66	374.49
405.85	383.85
406.05	416.62
406.24	433.00
406.43	507.90
406.62	451.72
406.81	465.77
407.00	409.59
407.20	365.12
407.39	388.53
407.58	442.36
407.77	486.83
407.96	444.70
408.15	407.25
408.34	472.79
408.54	376.83
408.73	367.46
408.92	388.53
409.11	418.96
409.30	458.74
409.49	411.93
409.68	411.93
409.87	395.55
410.07	379.17
410.26	407.25
410.45	379.17
410.64	433.00
410.83	388.53
411.02	404.91
411.21	383.85
411.40	337.04
411.59	386.19
411.78	421.30
411.98	435.34
412.17	440.02
412.36	355.76
412.55	479.81
412.74	430.66
412.93	442.36
413.12	386.19
413.31	463.43
413.50	393.21
413.69	360.44
413.88	456.40
414.07	365.12
414.26	454.06
414.45	433.00
414.64	383.85
414.83	418.96
415.02	418.96
415.22	421.30
415.41	390.87
415.60	372.15
415.79	407.25
415.98	421.30
416.17	418.96
416.36	386.19
416.55	421.30
416.74	409.59
416.93	479.81
417.12	442.36
417.31	337.04
417.50	355.76
417.69	496.19
417.88	400.23
418.07	386.19
418.26	395.55
418.45	393.21
418.64	440.02
418.83	421.30
419.02	383.85
419.21	367.46
419.39	428.32
419.58	400.23
419.77	454.06
419.96	416.62
420.15	416.62
420.34	358.10
420.53	440.02
420.72	428.32
420.91	393.21
421.10	447.04
421.29	395.55
421.48	449.38
421.67	360.44
421.86	409.59
422.05	358.10
422.24	379.17
422.43	475.13
422.61	388.53
422.80	386.19
422.99	423.64
423.18	454.06
423.37	465.77
423.56	440.02
423.75	433.00
423.94	381.51
424.13	393.21
424.32	374.49
424.50	479.81
424.69	472.79
424.88	379.17
425.07	451.72
425.26	409.59
425.45	411.93
425.64	388.53
425.83	451.72
426.01	479.81
426.20	388.53
426.39	379.17
426.58	435.34
426.77	407.25
426.96	414.27
427.15	428.32
427.33	423.64
427.52	383.85
427.71	381.51
427.90	437.68
428.09	423.64
428.28	365.12
428.46	374.49
428.65	437.68
428.84	409.59
429.03	449.38
429.22	423.64
429.40	425.98
429.59	376.83
429.78	442.36
429.97	482.15
430.16	425.98
430.34	465.77
430.53	451.72
430.72	444.70
430.91	428.32
431.10	346.40
431.28	397.89
431.47	442.36
431.66	358.10
431.85	322.99
432.03	447.04
432.22	465.77
432.41	435.34
432.60	461.09
432.79	390.87
432.97	409.59
433.16	402.57
433.35	393.21
433.54	454.06
433.72	386.19
433.91	397.89
434.10	393.21
434.28	374.49
434.47	365.12
434.66	395.55
434.85	414.27
435.03	362.78
435.22	428.32
435.41	425.98
435.59	442.36
435.78	360.44
435.97	430.66
436.16	425.98
436.34	374.49
436.53	461.09
436.72	449.38
436.90	482.15
437.09	402.57
437.28	437.68
437.46	393.21
437.65	390.87
437.84	425.98
438.02	456.40
438.21	465.77
438.40	372.15
438.58	397.89
438.77	433.00
438.96	444.70
439.14	369.80
439.33	376.83
439.52	374.49
439.70	351.08
439.89	468.11
440.08	421.30
440.26	308.95
440.45	440.02
440.63	428.32
440.82	425.98
441.01	383.85
441.19	414.27
441.38	374.49
441.57	425.98
441.75	395.55
441.94	414.27
442.12	390.87
442.31	402.57
442.50	437.68
442.68	372.15
442.87	365.12
443.05	397.89
443.24	416.62
443.43	409.59
443.61	407.25
443.80	442.36
443.98	423.64
444.17	358.10
444.35	355.76
444.54	421.30
444.73	418.96
444.91	400.23
445.10	437.68
445.28	435.34
445.47	418.96
445.65	477.47
445.84	383.85
446.02	447.04
446.21	358.10
446.39	400.23
446.58	383.85
446.77	414.27
446.95	430.66
447.14	458.74
447.32	472.79
447.51	470.45
447.69	346.40
447.88	393.21
448.06	505.56
448.25	414.27
448.43	376.83
448.62	393.21
448.80	397.89
448.99	465.77
449.17	367.46
449.36	367.46
449.54	449.38
449.73	433.00
449.91	365.12
450.10	369.80
450.28	463.43
450.46	442.36
450.65	397.89
450.83	404.91
451.02	372.15
451.20	425.98
451.39	400.23
451.57	353.42
451.76	374.49
451.94	341.72
452.13	386.19
452.31	444.70
452.49	444.70
452.68	393.21
452.86	395.55
453.05	444.70
453.23	465.77
453.42	423.64
453.60	437.68
453.78	388.53
453.97	360.44
454.15	332.36
454.34	355.76
454.52	435.34
454.70	468.11
454.89	437.68
455.07	386.19
455.26	393.21
455.44	414.27
455.62	402.57
455.81	444.70
455.99	344.06
456.17	454.06
456.36	411.93
456.54	376.83
456.73	390.87
456.91	395.55
457.09	386.19
457.28	407.25
457.46	442.36
457.64	416.62
457.83	381.51
458.01	404.91
458.19	404.91
458.38	411.93
458.56	449.38
458.74	421.30
458.93	440.02
459.11	351.08
459.29	344.06
459.48	409.59
459.66	367.46
459.84	470.45
460.03	493.85
460.21	418.96
460.39	376.83
460.57	397.89
460.76	418.96
460.94	411.93
461.12	442.36
461.31	451.72
461.49	409.59
461.67	447.04
461.85	486.83
462.04	421.30
462.22	732.59
462.40	374.49
462.59	388.53
462.77	425.98
462.95	414.27
463.13	353.42
463.32	393.21
463.50	425.98
463.68	451.72
463.86	526.62
464.05	367.46
464.23	437.68
464.41	451.72
464.59	397.89
464.78	360.44
464.96	386.19
465.14	430.66
465.32	425.98
465.50	447.04
465.69	449.38
465.87	442.36
466.05	425.98
466.23	442.36
466.41	437.68
466.60	416.62
466.78	418.96
466.96	383.85
467.14	463.43
467.32	444.70
467.51	428.32
467.69	367.46
467.87	425.98
468.05	358.10
468.23	449.38
468.41	409.59
468.60	411.93
468.78	379.17
468.96	451.72
469.14	367.46
469.32	379.17
469.50	353.42
469.69	369.80
469.87	397.89
470.05	351.08
470.23	449.38
470.41	367.46
470.59	388.53
470.77	362.78
470.95	372.15
471.14	442.36
471.32	458.74
471.50	454.06
471.68	409.59
471.86	428.32
472.04	458.74
472.22	468.11
472.40	407.25
472.58	444.70
472.77	463.43
472.95	358.10
473.13	442.36
473.31	416.62
473.49	421.30
473.67	388.53
473.85	456.40
474.03	390.87
474.21	404.91
474.39	388.53
474.57	428.32
474.75	435.34
474.93	383.85
475.12	294.91
475.30	414.27
475.48	451.72
475.66	456.40
475.84	425.98
476.02	400.23
476.20	442.36
476.38	388.53
476.56	451.72
476.74	372.15
476.92	411.93
477.10	360.44
477.28	428.32
477.46	402.57
477.64	442.36
477.82	449.38
478.00	433.00
478.18	346.40
478.36	407.25
478.54	447.04
478.72	388.53
478.90	477.47
479.08	477.47
479.26	444.70
479.44	376.83
479.62	430.66
479.80	379.17
479.98	437.68
480.16	365.12
480.34	402.57
480.52	428.32
480.70	400.23
480.88	414.27
481.06	393.21
481.24	437.68
481.41	400.23
481.59	383.85
481.77	400.23
481.95	386.19
482.13	390.87
482.31	435.34
482.49	388.53
482.67	425.98
482.85	400.23
483.03	374.49
483.21	404.91
483.39	425.98
483.57	367.46
483.74	442.36
483.92	421.30
484.10	379.17
484.28	482.15
484.46	489.17
484.64	428.32
484.82	376.83
485.00	402.57
485.18	390.87
485.35	383.85
485.53	440.02
485.71	421.30
485.89	376.83
486.07	360.44
486.25	383.85
486.43	447.04
486.61	374.49
486.78	414.27
486.96	367.46
487.14	423.64
487.32	355.76
487.50	395.55
487.68	482.15
487.85	374.49
488.03	451.72
488.21	435.34
488.39	388.53
488.57	442.36
488.75	400.23
488.92	491.51
489.10	421.30
489.28	477.47
489.46	437.68
489.64	416.62
489.81	440.02
489.99	397.89
490.17	402.57
490.35	472.79
490.53	355.76
490.70	444.70
490.88	332.36
491.06	388.53
491.24	388.53
491.41	479.81
491.59	461.09
491.77	386.19
491.95	313.63
492.13	423.64
492.30	402.57
492.48	430.66
492.66	449.38
492.84	362.78
493.01	433.00
493.19	461.09
493.37	386.19
493.54	348.74
493.72	395.55
493.90	355.76
494.08	425.98
494.25	428.32
494.43	430.66
494.61	416.62
494.79	379.17
494.96	386.19
495.14	498.53
495.32	404.91
495.49	372.15
495.67	430.66
495.85	428.32
496.02	374.49
496.20	425.98
496.38	444.70
496.55	458.74
496.73	416.62
496.91	334.70
497.09	421.30
497.26	461.09
497.44	423.64
497.62	423.64
497.79	472.79
497.97	451.72
498.14	470.45
498.32	409.59
498.50	388.53
498.67	411.93
498.85	407.25
499.03	388.53
499.20	379.17
499.38	355.76
499.56	390.87
499.73	458.74
499.91	458.74
500.08	390.87
500.26	437.68
500.44	372.15
500.61	442.36
500.79	435.34
500.97	421.30
501.14	409.59
501.32	433.00
501.49	390.87
501.67	353.42
501.84	379.17
502.02	388.53
502.20	498.53
502.37	416.62
502.55	400.23
502.72	414.27
502.90	447.04
503.07	416.62
503.25	447.04
503.43	407.25
503.60	454.06
503.78	447.04
503.95	414.27
504.13	421.30
504.30	456.40
504.48	440.02
504.65	411.93
504.83	428.32
505.01	404.91
505.18	416.62
505.36	374.49
505.53	332.36
505.71	358.10
505.88	407.25
506.06	437.68
506.23	404.91
506.41	416.62
506.58	463.43
506.76	463.43
506.93	358.10
507.11	482.15
507.28	362.78
507.46	362.78
507.63	381.51
507.81	407.25
507.98	407.25
508.16	433.00
508.33	386.19
508.50	430.66
508.68	390.87
508.85	463.43
509.03	362.78
509.20	454.06
509.38	430.66
509.55	442.36
509.73	390.87
509.90	444.70
510.08	430.66
510.25	395.55
510.42	421.30
510.60	435.34
510.77	400.23
510.95	468.11
511.12	327.68
511.30	402.57
511.47	407.25
511.64	486.83
511.82	414.27
511.99	472.79
512.17	393.21
512.34	407.25
512.51	409.59
512.69	456.40
512.86	440.02
513.04	411.93
513.21	386.19
513.38	360.44
513.56	407.25
513.73	414.27
513.90	425.98
514.08	428.32
514.25	386.19
514.43	491.51
514.60	435.34
514.77	358.10
514.95	468.11
515.12	397.89
515.29	386.19
515.47	479.81
515.64	393.21
515.81	425.98
515.99	341.72
516.16	418.96
516.33	421.30
516.51	524.28
516.68	397.89
516.85	411.93
517.03	423.64
517.20	428.32
517.37	327.68
517.54	430.66
517.72	407.25
517.89	360.44
518.06	362.78
518.24	400.23
518.41	435.34
518.58	449.38
518.75	393.21
518.93	372.15
519.10	386.19
519.27	404.91
519.45	433.00
519.62	456.40
519.79	435.34
519.96	407.25
520.14	390.87
520.31	447.04
520.48	414.27
520.65	435.34
520.83	397.89
521.00	442.36
521.17	425.98
521.34	430.66
521.52	409.59
521.69	414.27
521.86	379.17
522.03	486.83
522.20	475.13
522.38	358.10
522.55	435.34
522.72	425.98
522.89	372.15
523.07	454.06
523.24	404.91
523.41	421.30
523.58	428.32
523.75	423.64
523.92	402.57
524.10	402.57
524.27	402.57
524.44	414.27
524.61	465.77
524.78	367.46
524.96	390.87
525.13	442.36
525.30	428.32
525.47	475.13
525.64	458.74
525.81	369.80
525.98	409.59
526.16	428.32
526.33	367.46
526.50	397.89
526.67	332.36
526.84	400.23
527.01	397.89
527.18	362.78
527.36	442.36
527.53	409.59
527.70	456.40
527.87	428.32
528.04	395.55
528.21	421.30
528.38	414.27
528.55	489.17
528.72	400.23
528.89	496.19
529.07	416.62
529.24	414.27
529.41	482.15
529.58	386.19
529.75	365.12
529.92	433.00
530.09	500.87
530.26	458.74
530.43	372.15
530.60	372.15
530.77	381.51
530.94	435.34
531.11	423.64
531.28	465.77
531.46	428.32
531.63	409.59
531.80	510.24
531.97	386.19
532.14	369.80
532.31	372.15
532.48	395.55
532.65	444.70
532.82	369.80
532.99	423.64
533.16	404.91
533.33	423.64
533.50	477.47
533.67	418.96
533.84	407.25
534.01	440.02
534.18	395.55
534.35	435.34
534.52	425.98
534.69	390.87
534.86	393.21
535.03	381.51
535.20	386.19
535.37	423.64
535.54	414.27
535.71	463.43
535.88	465.77
536.05	454.06
536.22	395.55
536.38	444.70
536.55	414.27
536.72	346.40
536.89	430.66
537.06	386.19
537.23	355.76
537.40	376.83
537.57	430.66
537.74	444.70
537.91	447.04
538.08	411.93
538.25	416.62
538.42	393.21
538.59	395.55
538.75	409.59
538.92	416.62
539.09	327.68
539.26	381.51
539.43	461.09
539.60	416.62
539.77	454.06
539.94	407.25
540.11	390.87
540.28	407.25
540.44	397.89
540.61	386.19
540.78	369.80
540.95	447.04
541.12	484.49
541.29	423.64
541.46	440.02
541.62	479.81
541.79	400.23
541.96	430.66
542.13	456.40
542.30	381.51
542.47	454.06
542.63	447.04
542.80	414.27
542.97	468.11
543.14	449.38
543.31	449.38
543.48	493.85
543.64	454.06
543.81	395.55
543.98	334.70
544.15	451.72
544.32	367.46
544.48	369.80
544.65	395.55
544.82	449.38
544.99	367.46
545.16	425.98
545.32	379.17
545.49	411.93
545.66	362.78
545.83	463.43
546.00	414.27
546.16	383.85
546.33	407.25
546.50	447.04
546.67	470.45
546.83	468.11
547.00	430.66
547.17	386.19
547.34	421.30
547.50	442.36
547.67	461.09
547.84	437.68
548.00	386.19
548.17	409.59
548.34	369.80
548.51	463.43
548.67	418.96
548.84	393.21
549.01	463.43
549.18	442.36
549.34	402.57
549.51	428.32
549.68	411.93
549.84	440.02
550.01	430.66
550.18	482.15
550.34	510.24
550.51	395.55
550.68	456.40
550.84	447.04
551.01	449.38
551.18	435.34
551.34	386.19
551.51	477.47
551.68	468.11
551.84	440.02
552.01	376.83
552.18	411.93
552.34	475.13
552.51	407.25
552.68	390.87
552.84	472.79
553.01	407.25
553.18	489.17
553.34	376.83
553.51	341.72
553.67	479.81
553.84	496.19
554.01	472.79
554.17	386.19
554.34	393.21
554.51	454.06
554.67	397.89
554.84	407.25
555.00	402.57
555.17	451.72
555.33	477.47
555.50	409.59
555.67	416.62
555.83	330.02
556.00	407.25
556.16	486.83
556.33	416.62
556.50	386.19
556.66	451.72
556.83	411.93
556.99	433.00
557.16	451.72
557.32	461.09
557.49	416.62
557.65	362.78
557.82	421.30
557.98	411.93
558.15	433.00
558.32	393.21
558.48	451.72
558.65	430.66
558.81	444.70
558.98	407.25
559.14	414.27
559.31	397.89
559.47	425.98
559.64	402.57
559.80	437.68
559.97	402.57
560.13	458.74
560.30	463.43
560.46	395.55
560.63	376.83
560.79	421.30
560.96	442.36
561.12	416.62
561.29	379.17
561.45	365.12
561.61	425.98
561.78	500.87
561.94	337.04
562.11	379.17
562.27	428.32
562.44	423.64
562.60	383.85
562.77	423.64
562.93	517.26
563.10	388.53
563.26	479.81
563.42	463.43
563.59	414.27
563.75	470.45
563.92	433.00
564.08	383.85
564.24	456.40
564.41	451.72
564.57	503.22
564.74	411.93
564.90	461.09
565.07	435.34
565.23	430.66
565.39	379.17
565.56	407.25
565.72	456.40
565.88	390.87
566.05	360.44
566.21	449.38
566.38	430.66
566.54	414.27
566.70	402.57
566.87	440.02
567.03	365.12
567.19	393.21
567.36	383.85
567.52	402.57
567.68	465.77
567.85	414.27
568.01	402.57
568.17	402.57
568.34	425.98
568.50	423.64
568.66	358.10
568.83	421.30
568.99	418.96
569.15	447.04
569.32	449.38
569.48	411.93
569.64	362.78
569.81	433.00
569.97	463.43
570.13	465.77
570.30	418.96
570.46	430.66
570.62	374.49
570.78	376.83
570.95	402.57
571.11	390.87
571.27	477.47
571.43	477.47
571.60	390.87
571.76	449.38
571.92	486.83
572.09	383.85
572.25	477.47
572.41	433.00
572.57	402.57
572.74	425.98
572.90	454.06
573.06	430.66
573.22	337.04
573.38	458.74
573.55	456.40
573.71	456.40
573.87	367.46
574.03	393.21
574.20	437.68
574.36	428.32
574.52	404.91
574.68	407.25
574.84	440.02
575.01	372.15
575.17	444.70
575.33	470.45
575.49	425.98
575.65	425.98
575.82	447.04
575.98	428.32
576.14	414.27
576.30	362.78
576.46	418.96
576.62	386.19
576.79	472.79
576.95	409.59
577.11	465.77
577.27	416.62
577.43	435.34
577.59	475.13
577.75	421.30
577.92	390.87
578.08	437.68
578.24	409.59
578.40	465.77
578.56	430.66
578.72	425.98
578.88	472.79
579.04	437.68
579.21	358.10
579.37	374.49
579.53	463.43
579.69	484.49
579.85	435.34
580.01	388.53
580.17	421.30
580.33	425.98
580.49	383.85
580.65	362.78
580.82	400.23
580.98	390.87
581.14	353.42
581.30	397.89
581.46	461.09
581.62	475.13
581.78	425.98
581.94	390.87
582.10	425.98
582.26	379.17
582.42	402.57
582.58	421.30
582.74	386.19
582.90	479.81
583.06	440.02
583.22	351.08
583.38	428.32
583.54	418.96
583.70	416.62
583.86	425.98
584.02	433.00
584.18	475.13
584.34	409.59
584.50	383.85
584.66	365.12
584.82	360.44
584.98	360.44
585.14	400.23
585.30	402.57
585.46	458.74
585.62	404.91
585.78	390.87
585.94	498.53
586.10	362.78
586.26	430.66
586.42	454.06
586.58	482.15
586.74	442.36
586.90	477.47
587.06	470.45
587.22	367.46
587.38	423.64
587.54	503.22
587.70	430.66
587.86	374.49
588.02	456.40
588.18	388.53
588.34	458.74
588.49	376.83
588.65	395.55
588.81	435.34
588.97	369.80
589.13	433.00
589.29	416.62
589.45	444.70
589.61	472.79
589.77	454.06
589.93	369.80
590.08	379.17
590.24	397.89
590.40	416.62
590.56	409.59
590.72	351.08
590.88	430.66
591.04	400.23
591.20	451.72
591.35	449.38
591.51	348.74
591.67	440.02
591.83	395.55
591.99	418.96
592.15	388.53
592.31	393.21
592.46	454.06
592.62	451.72
592.78	367.46
592.94	367.46
593.10	428.32
593.26	440.02
593.41	409.59
593.57	372.15
593.73	379.17
593.89	454.06
594.05	456.40
594.20	458.74
594.36	414.27
594.52	451.72
594.68	430.66
594.84	327.68
594.99	458.74
595.15	454.06
595.31	374.49
595.47	447.04
595.62	442.36
595.78	404.91
595.94	400.23
596.10	404.91
596.25	388.53
596.41	395.55
596.57	397.89
596.73	404.91
596.88	390.87
597.04	458.74
597.20	346.40
597.36	470.45
597.51	407.25
597.67	353.42
597.83	360.44
597.99	428.32
598.14	367.46
598.30	407.25
598.46	376.83
598.61	425.98
598.77	430.66
598.93	482.15
599.09	397.89
599.24	430.66
599.40	447.04
599.56	381.51
599.71	416.62
599.87	379.17
600.03	414.27
600.18	355.76
600.34	397.89
600.50	402.57
600.65	449.38
600.81	414.27
600.97	421.30
601.12	330.02
601.28	423.64
601.44	447.04
601.59	397.89
601.75	400.23
601.91	397.89
602.06	402.57
602.22	454.06
602.37	400.23
602.53	360.44
602.69	360.44
602.84	430.66
603.00	430.66
603.16	423.64
603.31	496.19
603.47	430.66
603.62	418.96
603.78	416.62
603.94	414.27
604.09	433.00
604.25	449.38
604.40	454.06
604.56	397.89
604.71	411.93
604.87	376.83
605.03	390.87
605.18	397.89
605.34	463.43
605.49	503.22
605.65	437.68
605.80	423.64
605.96	393.21
606.12	433.00
606.27	388.53
606.43	365.12
606.58	454.06
606.74	475.13
606.89	395.55
607.05	433.00
607.20	358.10
607.36	388.53
607.51	444.70
607.67	437.68
607.82	414.27
607.98	524.28
608.13	397.89
608.29	440.02
608.44	454.06
608.60	365.12
608.75	512.58
608.91	430.66
609.06	475.13
609.22	442.36
609.37	358.10
609.53	372.15
609.68	423.64
609.84	428.32
609.99	395.55
610.15	421.30
