SpectraSuite Data File
++++++++++++++++++++++++++++++++++++
Date: Fri Oct 25 12:11:18 EDT 2013
User: price-jones
Dark Spectrum Present: No
Reference Spectrum Present: No
Number of Sampled Component Spectra: 1
Spectrometers: USB2+H05261
Integration Time (usec): 100000 (USB2+H05261)
Spectra Averaged: 1 (USB2+H05261)
Boxcar Smoothing: 0 (USB2+H05261)
Correct for Electrical Dark: No (USB2+H05261)
Strobe/Lamp Enabled: No (USB2+H05261)
Correct for Detector Non-linearity: No (USB2+H05261)
Correct for Stray Light: No (USB2+H05261)
Number of Pixels in Processed Spectrum: 2048
>>>>>Begin Processed Spectral Data<<<<<
365.73	383.85
365.92	383.85
366.12	383.85
366.32	257.46
366.52	220.01
366.72	196.60
366.91	196.60
367.11	175.54
367.31	255.12
367.51	262.14
367.70	205.97
367.90	252.78
368.10	337.04
368.30	308.95
368.49	276.18
368.69	290.23
368.89	238.73
369.09	198.95
369.28	311.29
369.48	236.39
369.68	301.93
369.87	280.86
370.07	353.42
370.27	334.70
370.47	315.97
370.66	337.04
370.86	372.15
371.06	365.12
371.25	409.59
371.45	404.91
371.65	327.68
371.84	416.62
372.04	346.40
372.24	395.55
372.44	372.15
372.63	348.74
372.83	397.89
373.03	475.13
373.22	425.98
373.42	456.40
373.62	428.32
373.81	407.25
374.01	402.57
374.21	430.66
374.40	451.72
374.60	454.06
374.79	414.27
374.99	390.87
375.19	416.62
375.38	397.89
375.58	360.44
375.78	503.22
375.97	416.62
376.17	442.36
376.37	428.32
376.56	449.38
376.76	390.87
376.95	383.85
377.15	395.55
377.35	376.83
377.54	400.23
377.74	346.40
377.93	425.98
378.13	379.17
378.33	402.57
378.52	437.68
378.72	442.36
378.91	486.83
379.11	421.30
379.31	339.38
379.50	437.68
379.70	463.43
379.89	344.06
380.09	376.83
380.28	393.21
380.48	428.32
380.68	407.25
380.87	407.25
381.07	423.64
381.26	449.38
381.46	400.23
381.65	451.72
381.85	376.83
382.04	386.19
382.24	381.51
382.43	433.00
382.63	402.57
382.83	367.46
383.02	414.27
383.22	367.46
383.41	421.30
383.61	430.66
383.80	411.93
384.00	447.04
384.19	447.04
384.39	388.53
384.58	437.68
384.78	407.25
384.97	348.74
385.17	367.46
385.36	358.10
385.56	411.93
385.75	344.06
385.95	374.49
386.14	449.38
386.34	407.25
386.53	414.27
386.72	402.57
386.92	374.49
387.11	344.06
387.31	496.19
387.50	332.36
387.70	400.23
387.89	447.04
388.09	433.00
388.28	360.44
388.48	430.66
388.67	402.57
388.86	407.25
389.06	442.36
389.25	430.66
389.45	425.98
389.64	421.30
389.84	486.83
390.03	421.30
390.22	395.55
390.42	409.59
390.61	383.85
390.81	379.17
391.00	425.98
391.19	409.59
391.39	388.53
391.58	421.30
391.78	435.34
391.97	444.70
392.16	348.74
392.36	470.45
392.55	461.09
392.75	458.74
392.94	402.57
393.13	395.55
393.33	348.74
393.52	423.64
393.71	463.43
393.91	423.64
394.10	383.85
394.29	388.53
394.49	440.02
394.68	421.30
394.88	374.49
395.07	407.25
395.26	451.72
395.46	421.30
395.65	407.25
395.84	454.06
396.04	461.09
396.23	402.57
396.42	425.98
396.62	451.72
396.81	365.12
397.00	414.27
397.19	423.64
397.39	332.36
397.58	383.85
397.77	421.30
397.97	468.11
398.16	425.98
398.35	430.66
398.55	407.25
398.74	369.80
398.93	456.40
399.12	451.72
399.32	409.59
399.51	421.30
399.70	433.00
399.90	451.72
400.09	397.89
400.28	409.59
400.47	386.19
400.67	358.10
400.86	430.66
401.05	444.70
401.24	411.93
401.44	400.23
401.63	381.51
401.82	411.93
402.01	374.49
402.21	435.34
402.40	418.96
402.59	409.59
402.78	374.49
402.97	393.21
403.17	390.87
403.36	376.83
403.55	430.66
403.74	379.17
403.93	407.25
404.13	411.93
404.32	348.74
404.51	433.00
404.70	433.00
404.89	421.30
405.09	435.34
405.28	395.55
405.47	414.27
405.66	447.04
405.85	404.91
406.05	367.46
406.24	367.46
406.43	423.64
406.62	402.57
406.81	407.25
407.00	491.51
407.20	484.49
407.39	395.55
407.58	425.98
407.77	353.42
407.96	440.02
408.15	381.51
408.34	435.34
408.54	374.49
408.73	372.15
408.92	411.93
409.11	425.98
409.30	383.85
409.49	390.87
409.68	325.33
409.87	397.89
410.07	425.98
410.26	400.23
410.45	472.79
410.64	437.68
410.83	409.59
411.02	395.55
411.21	482.15
411.40	461.09
411.59	444.70
411.78	348.74
411.98	425.98
412.17	369.80
412.36	472.79
412.55	402.57
412.74	479.81
412.93	425.98
413.12	421.30
413.31	418.96
413.50	461.09
413.69	381.51
413.88	393.21
414.07	416.62
414.26	414.27
414.45	465.77
414.64	395.55
414.83	381.51
415.02	386.19
415.22	409.59
415.41	482.15
415.60	374.49
415.79	393.21
415.98	456.40
416.17	360.44
416.36	430.66
416.55	402.57
416.74	414.27
416.93	423.64
417.12	428.32
417.31	456.40
417.50	397.89
417.69	428.32
417.88	475.13
418.07	334.70
418.26	456.40
418.45	400.23
418.64	449.38
418.83	411.93
419.02	421.30
419.21	447.04
419.39	425.98
419.58	351.08
419.77	449.38
419.96	358.10
420.15	418.96
420.34	421.30
420.53	395.55
420.72	372.15
420.91	386.19
421.10	386.19
421.29	421.30
421.48	404.91
421.67	421.30
421.86	433.00
422.05	400.23
422.24	402.57
422.43	479.81
422.61	407.25
422.80	404.91
422.99	444.70
423.18	454.06
423.37	437.68
423.56	395.55
423.75	447.04
423.94	402.57
424.13	486.83
424.32	423.64
424.50	428.32
424.69	376.83
424.88	442.36
425.07	383.85
425.26	411.93
425.45	388.53
425.64	365.12
425.83	447.04
426.01	442.36
426.20	430.66
426.39	433.00
426.58	423.64
426.77	425.98
426.96	397.89
427.15	484.49
427.33	442.36
427.52	397.89
427.71	423.64
427.90	479.81
428.09	365.12
428.28	400.23
428.46	404.91
428.65	449.38
428.84	430.66
429.03	435.34
429.22	447.04
429.40	397.89
429.59	404.91
429.78	454.06
429.97	411.93
430.16	414.27
430.34	470.45
430.53	411.93
430.72	423.64
430.91	423.64
431.10	379.17
431.28	367.46
431.47	470.45
431.66	411.93
431.85	376.83
432.03	423.64
432.22	491.51
432.41	367.46
432.60	418.96
432.79	491.51
432.97	414.27
433.16	407.25
433.35	381.51
433.54	435.34
433.72	395.55
433.91	369.80
434.10	461.09
434.28	369.80
434.47	416.62
434.66	447.04
434.85	444.70
435.03	365.12
435.22	433.00
435.41	428.32
435.59	451.72
435.78	416.62
435.97	318.31
436.16	376.83
436.34	411.93
436.53	449.38
436.72	376.83
436.90	400.23
437.09	369.80
437.28	390.87
437.46	433.00
437.65	409.59
437.84	388.53
438.02	468.11
438.21	430.66
438.40	344.06
438.58	320.65
438.77	381.51
438.96	409.59
439.14	416.62
439.33	461.09
439.52	400.23
439.70	421.30
439.89	383.85
440.08	440.02
440.26	421.30
440.45	367.46
440.63	395.55
440.82	404.91
441.01	468.11
441.19	395.55
441.38	402.57
441.57	353.42
441.75	442.36
441.94	327.68
442.12	400.23
442.31	353.42
442.50	404.91
442.68	376.83
442.87	351.08
443.05	400.23
443.24	435.34
443.43	435.34
443.61	447.04
443.80	423.64
443.98	407.25
444.17	379.17
444.35	421.30
444.54	351.08
444.73	381.51
444.91	433.00
445.10	409.59
445.28	374.49
445.47	449.38
445.65	449.38
445.84	362.78
446.02	383.85
446.21	379.17
446.39	428.32
446.58	388.53
446.77	395.55
446.95	395.55
447.14	390.87
447.32	416.62
447.51	418.96
447.69	400.23
447.88	418.96
448.06	482.15
448.25	400.23
448.43	404.91
448.62	393.21
448.80	418.96
448.99	416.62
449.17	358.10
449.36	402.57
449.54	404.91
449.73	381.51
449.91	348.74
450.10	358.10
450.28	447.04
450.46	468.11
450.65	393.21
450.83	458.74
451.02	393.21
451.20	362.78
451.39	416.62
451.57	334.70
451.76	395.55
451.94	374.49
452.13	461.09
452.31	421.30
452.49	404.91
452.68	496.19
452.86	430.66
453.05	496.19
453.23	397.89
453.42	374.49
453.60	332.36
453.78	402.57
453.97	416.62
454.15	376.83
454.34	404.91
454.52	397.89
454.70	449.38
454.89	355.76
455.07	407.25
455.26	414.27
455.44	479.81
455.62	397.89
455.81	442.36
455.99	334.70
456.17	374.49
456.36	451.72
456.54	418.96
456.73	421.30
456.91	409.59
457.09	433.00
457.28	482.15
457.46	374.49
457.64	376.83
457.83	421.30
458.01	379.17
458.19	433.00
458.38	383.85
458.56	451.72
458.74	395.55
458.93	376.83
459.11	395.55
459.29	386.19
459.48	461.09
459.66	397.89
459.84	468.11
460.03	500.87
460.21	402.57
460.39	447.04
460.57	332.36
460.76	423.64
460.94	379.17
461.12	458.74
461.31	397.89
461.49	414.27
461.67	400.23
461.85	416.62
462.04	404.91
462.22	788.76
462.40	482.15
462.59	411.93
462.77	465.77
462.95	454.06
463.13	332.36
463.32	423.64
463.50	491.51
463.68	477.47
463.86	332.36
464.05	388.53
464.23	362.78
464.41	400.23
464.59	507.90
464.78	344.06
464.96	449.38
465.14	367.46
465.32	409.59
465.50	414.27
465.69	395.55
465.87	425.98
466.05	418.96
466.23	482.15
466.41	402.57
466.60	411.93
466.78	414.27
466.96	507.90
467.14	425.98
467.32	414.27
467.51	409.59
467.69	428.32
467.87	365.12
468.05	435.34
468.23	519.60
468.41	444.70
468.60	454.06
468.78	449.38
468.96	425.98
469.14	477.47
469.32	397.89
469.50	430.66
469.69	411.93
469.87	454.06
470.05	449.38
470.23	358.10
470.41	395.55
470.59	449.38
470.77	320.65
470.95	358.10
471.14	463.43
471.32	395.55
471.50	475.13
471.68	409.59
471.86	400.23
472.04	416.62
472.22	369.80
472.40	400.23
472.58	449.38
472.77	428.32
472.95	409.59
473.13	456.40
473.31	486.83
473.49	428.32
473.67	416.62
473.85	440.02
474.03	475.13
474.21	425.98
474.39	423.64
474.57	449.38
474.75	404.91
474.93	428.32
475.12	395.55
475.30	433.00
475.48	456.40
475.66	376.83
475.84	489.17
476.02	437.68
476.20	374.49
476.38	409.59
476.56	512.58
476.74	435.34
476.92	376.83
477.10	416.62
477.28	379.17
477.46	383.85
477.64	505.56
477.82	475.13
478.00	330.02
478.18	369.80
478.36	468.11
478.54	489.17
478.72	423.64
478.90	475.13
479.08	435.34
479.26	421.30
479.44	425.98
479.62	353.42
479.80	409.59
479.98	379.17
480.16	400.23
480.34	425.98
480.52	428.32
480.70	477.47
480.88	358.10
481.06	447.04
481.24	442.36
481.41	411.93
481.59	440.02
481.77	393.21
481.95	393.21
482.13	503.22
482.31	458.74
482.49	447.04
482.67	433.00
482.85	418.96
483.03	475.13
483.21	388.53
483.39	409.59
483.57	463.43
483.74	402.57
483.92	402.57
484.10	444.70
484.28	449.38
484.46	517.26
484.64	458.74
484.82	451.72
485.00	386.19
485.18	440.02
485.35	393.21
485.53	433.00
485.71	557.05
485.89	402.57
486.07	454.06
486.25	407.25
486.43	411.93
486.61	433.00
486.78	442.36
486.96	400.23
487.14	409.59
487.32	383.85
487.50	390.87
487.68	428.32
487.85	409.59
488.03	418.96
488.21	456.40
488.39	456.40
488.57	362.78
488.75	367.46
488.92	458.74
489.10	390.87
489.28	411.93
489.46	411.93
489.64	404.91
489.81	451.72
489.99	421.30
490.17	440.02
490.35	407.25
490.53	397.89
490.70	386.19
490.88	479.81
491.06	379.17
491.24	433.00
491.41	442.36
491.59	388.53
491.77	451.72
491.95	421.30
492.13	330.02
492.30	414.27
492.48	440.02
492.66	400.23
492.84	374.49
493.01	395.55
493.19	456.40
493.37	437.68
493.54	468.11
493.72	418.96
493.90	418.96
494.08	451.72
494.25	437.68
494.43	479.81
494.61	402.57
494.79	395.55
494.96	447.04
495.14	400.23
495.32	416.62
495.49	472.79
495.67	395.55
495.85	428.32
496.02	416.62
496.20	416.62
496.38	416.62
496.55	346.40
496.73	461.09
496.91	454.06
497.09	395.55
497.26	418.96
497.44	421.30
497.62	393.21
497.79	395.55
497.97	379.17
498.14	414.27
498.32	388.53
498.50	360.44
498.67	404.91
498.85	388.53
499.03	414.27
499.20	435.34
499.38	465.77
499.56	468.11
499.73	491.51
499.91	437.68
500.08	353.42
500.26	500.87
500.44	414.27
500.61	395.55
500.79	411.93
500.97	397.89
501.14	454.06
501.32	449.38
501.49	447.04
501.67	500.87
501.84	411.93
502.02	416.62
502.20	430.66
502.37	418.96
502.55	414.27
502.72	470.45
502.90	407.25
503.07	489.17
503.25	393.21
503.43	430.66
503.60	351.08
503.78	482.15
503.95	393.21
504.13	395.55
504.30	411.93
504.48	393.21
504.65	451.72
504.83	395.55
505.01	409.59
505.18	433.00
505.36	435.34
505.53	451.72
505.71	442.36
505.88	390.87
506.06	433.00
506.23	351.08
506.41	388.53
506.58	433.00
506.76	344.06
506.93	444.70
507.11	430.66
507.28	339.38
507.46	402.57
507.63	393.21
507.81	383.85
507.98	449.38
508.16	407.25
508.33	402.57
508.50	416.62
508.68	449.38
508.85	425.98
509.03	362.78
509.20	454.06
509.38	440.02
509.55	444.70
509.73	449.38
509.90	411.93
510.08	372.15
510.25	404.91
510.42	383.85
510.60	437.68
510.77	411.93
510.95	440.02
511.12	409.59
511.30	449.38
511.47	393.21
511.64	486.83
511.82	351.08
511.99	393.21
512.17	498.53
512.34	437.68
512.51	407.25
512.69	428.32
512.86	454.06
513.04	418.96
513.21	507.90
513.38	351.08
513.56	402.57
513.73	390.87
513.90	421.30
514.08	430.66
514.25	369.80
514.43	416.62
514.60	437.68
514.77	367.46
514.95	430.66
515.12	409.59
515.29	285.55
515.47	479.81
515.64	437.68
515.81	512.58
515.99	383.85
516.16	428.32
516.33	411.93
516.51	402.57
516.68	397.89
516.85	397.89
517.03	437.68
517.20	390.87
517.37	411.93
517.54	411.93
517.72	402.57
517.89	428.32
518.06	397.89
518.24	456.40
518.41	437.68
518.58	440.02
518.75	400.23
518.93	414.27
519.10	376.83
519.27	337.04
519.45	407.25
519.62	465.77
519.79	425.98
519.96	393.21
520.14	428.32
520.31	402.57
520.48	470.45
520.65	468.11
520.83	444.70
521.00	416.62
521.17	456.40
521.34	407.25
521.52	475.13
521.69	400.23
521.86	437.68
522.03	458.74
522.20	430.66
522.38	355.76
522.55	430.66
522.72	346.40
522.89	344.06
523.07	430.66
523.24	425.98
523.41	386.19
523.58	330.02
523.75	470.45
523.92	449.38
524.10	428.32
524.27	435.34
524.44	456.40
524.61	425.98
524.78	423.64
524.96	428.32
525.13	465.77
525.30	454.06
525.47	411.93
525.64	425.98
525.81	479.81
525.98	430.66
526.16	400.23
526.33	397.89
526.50	393.21
526.67	395.55
526.84	369.80
527.01	418.96
527.18	430.66
527.36	468.11
527.53	461.09
527.70	449.38
527.87	437.68
528.04	498.53
528.21	362.78
528.38	454.06
528.55	418.96
528.72	510.24
528.89	524.28
529.07	390.87
529.24	388.53
529.41	486.83
529.58	468.11
529.75	402.57
529.92	421.30
530.09	409.59
530.26	407.25
530.43	386.19
530.60	451.72
530.77	397.89
530.94	454.06
531.11	374.49
531.28	393.21
531.46	390.87
531.63	442.36
531.80	442.36
531.97	425.98
532.14	397.89
532.31	430.66
532.48	409.59
532.65	416.62
532.82	458.74
532.99	362.78
533.16	447.04
533.33	407.25
533.50	407.25
533.67	425.98
533.84	395.55
534.01	479.81
534.18	468.11
534.35	390.87
534.52	425.98
534.69	463.43
534.86	493.85
535.03	374.49
535.20	339.38
535.37	423.64
535.54	491.51
535.71	393.21
535.88	435.34
536.05	397.89
536.22	503.22
536.38	393.21
536.55	430.66
536.72	461.09
536.89	428.32
537.06	386.19
537.23	407.25
537.40	397.89
537.57	423.64
537.74	472.79
537.91	414.27
538.08	463.43
538.25	484.49
538.42	402.57
538.59	381.51
538.75	512.58
538.92	449.38
539.09	451.72
539.26	320.65
539.43	454.06
539.60	454.06
539.77	447.04
539.94	407.25
540.11	423.64
540.28	428.32
540.44	421.30
540.61	421.30
540.78	388.53
540.95	489.17
541.12	437.68
541.29	449.38
541.46	449.38
541.62	442.36
541.79	437.68
541.96	383.85
542.13	414.27
542.30	414.27
542.47	461.09
542.63	430.66
542.80	440.02
542.97	484.49
543.14	440.02
543.31	454.06
543.48	425.98
543.64	374.49
543.81	400.23
543.98	400.23
544.15	388.53
544.32	402.57
544.48	433.00
544.65	379.17
544.82	376.83
544.99	418.96
545.16	423.64
545.32	386.19
545.49	409.59
545.66	376.83
545.83	393.21
546.00	365.12
546.16	447.04
546.33	369.80
546.50	393.21
546.67	454.06
546.83	414.27
547.00	362.78
547.17	386.19
547.34	458.74
547.50	425.98
547.67	425.98
547.84	390.87
548.00	395.55
548.17	372.15
548.34	437.68
548.51	407.25
548.67	489.17
548.84	386.19
549.01	435.34
549.18	409.59
549.34	423.64
549.51	463.43
549.68	423.64
549.84	458.74
550.01	404.91
550.18	507.90
550.34	500.87
550.51	472.79
550.68	468.11
550.84	402.57
551.01	416.62
551.18	451.72
551.34	423.64
551.51	390.87
551.68	428.32
551.84	486.83
552.01	355.76
552.18	411.93
552.34	428.32
552.51	468.11
552.68	416.62
552.84	479.81
553.01	451.72
553.18	416.62
553.34	390.87
553.51	322.99
553.67	440.02
553.84	400.23
554.01	440.02
554.17	482.15
554.34	407.25
554.51	449.38
554.67	393.21
554.84	463.43
555.00	402.57
555.17	411.93
555.33	442.36
555.50	409.59
555.67	416.62
555.83	458.74
556.00	435.34
556.16	587.47
556.33	479.81
556.50	390.87
556.66	442.36
556.83	454.06
556.99	400.23
557.16	437.68
557.32	348.74
557.49	411.93
557.65	362.78
557.82	369.80
557.98	447.04
558.15	414.27
558.32	379.17
558.48	407.25
558.65	425.98
558.81	456.40
558.98	423.64
559.14	407.25
559.31	479.81
559.47	442.36
559.64	463.43
559.80	374.49
559.97	395.55
560.13	400.23
560.30	465.77
560.46	407.25
560.63	437.68
560.79	465.77
560.96	353.42
561.12	388.53
561.29	418.96
561.45	404.91
561.61	423.64
561.78	514.92
561.94	388.53
562.11	376.83
562.27	411.93
562.44	411.93
562.60	458.74
562.77	447.04
562.93	486.83
563.10	425.98
563.26	428.32
563.42	535.98
563.59	367.46
563.75	395.55
563.92	456.40
564.08	477.47
564.24	458.74
564.41	454.06
564.57	451.72
564.74	411.93
564.90	465.77
565.07	444.70
565.23	433.00
565.39	369.80
565.56	479.81
565.72	409.59
565.88	435.34
566.05	407.25
566.21	344.06
566.38	416.62
566.54	484.49
566.70	402.57
566.87	374.49
567.03	369.80
567.19	463.43
567.36	416.62
567.52	367.46
567.68	486.83
567.85	402.57
568.01	379.17
568.17	449.38
568.34	409.59
568.50	435.34
568.66	425.98
568.83	503.22
568.99	463.43
569.15	465.77
569.32	341.72
569.48	388.53
569.64	440.02
569.81	433.00
569.97	397.89
570.13	425.98
570.30	423.64
570.46	393.21
570.62	414.27
570.78	465.77
570.95	362.78
571.11	379.17
571.27	400.23
571.43	404.91
571.60	428.32
571.76	430.66
571.92	395.55
572.09	414.27
572.25	397.89
572.41	444.70
572.57	390.87
572.74	400.23
572.90	390.87
573.06	381.51
573.22	409.59
573.38	479.81
573.55	475.13
573.71	369.80
573.87	519.60
574.03	449.38
574.20	475.13
574.36	507.90
574.52	365.12
574.68	411.93
574.84	500.87
575.01	416.62
575.17	407.25
575.33	353.42
575.49	416.62
575.65	465.77
575.82	482.15
575.98	421.30
576.14	393.21
576.30	372.15
576.46	407.25
576.62	379.17
576.79	400.23
576.95	421.30
577.11	423.64
577.27	388.53
577.43	327.68
577.59	383.85
577.75	362.78
577.92	414.27
578.08	521.94
578.24	383.85
578.40	393.21
578.56	482.15
578.72	428.32
578.88	461.09
579.04	411.93
579.21	489.17
579.37	425.98
579.53	404.91
579.69	526.62
579.85	456.40
580.01	489.17
580.17	505.56
580.33	320.65
580.49	479.81
580.65	428.32
580.82	421.30
580.98	437.68
581.14	386.19
581.30	454.06
581.46	470.45
581.62	418.96
581.78	416.62
581.94	433.00
582.10	360.44
582.26	458.74
582.42	388.53
582.58	433.00
582.74	451.72
582.90	414.27
583.06	416.62
583.22	325.33
583.38	386.19
583.54	353.42
583.70	461.09
583.86	374.49
584.02	425.98
584.18	430.66
584.34	425.98
584.50	433.00
584.66	435.34
584.82	418.96
584.98	407.25
585.14	428.32
585.30	456.40
585.46	386.19
585.62	381.51
585.78	386.19
585.94	379.17
586.10	404.91
586.26	442.36
586.42	407.25
586.58	486.83
586.74	440.02
586.90	374.49
587.06	407.25
587.22	447.04
587.38	454.06
587.54	404.91
587.70	449.38
587.86	437.68
588.02	411.93
588.18	411.93
588.34	362.78
588.49	414.27
588.65	400.23
588.81	418.96
588.97	477.47
589.13	414.27
589.29	428.32
589.45	465.77
589.61	386.19
589.77	451.72
589.93	402.57
590.08	365.12
590.24	369.80
590.40	475.13
590.56	400.23
590.72	430.66
590.88	400.23
591.04	416.62
591.20	355.76
591.35	472.79
591.51	400.23
591.67	414.27
591.83	362.78
591.99	433.00
592.15	430.66
592.31	465.77
592.46	409.59
592.62	447.04
592.78	416.62
592.94	348.74
593.10	470.45
593.26	444.70
593.41	409.59
593.57	461.09
593.73	404.91
593.89	409.59
594.05	456.40
594.20	430.66
594.36	447.04
594.52	444.70
594.68	397.89
594.84	454.06
594.99	435.34
595.15	390.87
595.31	374.49
595.47	468.11
595.62	395.55
595.78	330.02
595.94	444.70
596.10	465.77
596.25	421.30
596.41	484.49
596.57	440.02
596.73	402.57
596.88	475.13
597.04	489.17
597.20	409.59
597.36	430.66
597.51	416.62
597.67	388.53
597.83	437.68
597.99	475.13
598.14	442.36
598.30	447.04
598.46	428.32
598.61	510.24
598.77	409.59
598.93	397.89
599.09	393.21
599.24	428.32
599.40	463.43
599.56	456.40
599.71	400.23
599.87	423.64
600.03	411.93
600.18	337.04
600.34	383.85
600.50	362.78
600.65	379.17
600.81	425.98
600.97	451.72
601.12	430.66
601.28	442.36
601.44	486.83
601.59	456.40
601.75	442.36
601.91	475.13
602.06	355.76
602.22	451.72
602.37	444.70
602.53	395.55
602.69	386.19
602.84	456.40
603.00	425.98
603.16	454.06
603.31	463.43
603.47	465.77
603.62	435.34
603.78	428.32
603.94	393.21
604.09	454.06
604.25	491.51
604.40	442.36
604.56	486.83
604.71	428.32
604.87	374.49
605.03	465.77
605.18	400.23
605.34	491.51
605.49	461.09
605.65	458.74
605.80	411.93
605.96	411.93
606.12	400.23
606.27	407.25
606.43	346.40
606.58	411.93
606.74	395.55
606.89	379.17
607.05	437.68
607.20	402.57
607.36	416.62
607.51	411.93
607.67	470.45
607.82	404.91
607.98	451.72
608.13	421.30
608.29	456.40
608.44	416.62
608.60	437.68
608.75	435.34
608.91	407.25
609.06	451.72
609.22	458.74
609.37	437.68
609.53	428.32
609.68	409.59
609.84	409.59
609.99	386.19
610.15	475.13
