SpectraSuite Data File
++++++++++++++++++++++++++++++++++++
Date: Fri Oct 25 12:10:09 EDT 2013
User: price-jones
Dark Spectrum Present: No
Reference Spectrum Present: No
Number of Sampled Component Spectra: 1
Spectrometers: USB2+H05261
Integration Time (usec): 100000 (USB2+H05261)
Spectra Averaged: 1 (USB2+H05261)
Boxcar Smoothing: 0 (USB2+H05261)
Correct for Electrical Dark: No (USB2+H05261)
Strobe/Lamp Enabled: No (USB2+H05261)
Correct for Detector Non-linearity: No (USB2+H05261)
Correct for Stray Light: No (USB2+H05261)
Number of Pixels in Processed Spectrum: 2048
>>>>>Begin Processed Spectral Data<<<<<
365.73	383.85
365.92	383.85
366.12	383.85
366.32	308.95
366.52	198.95
366.72	278.52
366.91	210.65
367.11	241.08
367.31	290.23
367.51	196.60
367.70	222.35
367.90	187.24
368.10	177.88
368.30	149.79
368.49	208.31
368.69	299.59
368.89	238.73
369.09	264.48
369.28	341.72
369.48	271.50
369.68	287.89
369.87	322.99
370.07	241.08
370.27	292.57
370.47	320.65
370.66	322.99
370.86	269.16
371.06	407.25
371.25	332.36
371.45	395.55
371.65	376.83
371.84	379.17
372.04	285.55
372.24	348.74
372.44	393.21
372.63	421.30
372.83	435.34
373.03	379.17
373.22	301.93
373.42	395.55
373.62	386.19
373.81	383.85
374.01	463.43
374.21	477.47
374.40	402.57
374.60	411.93
374.79	421.30
374.99	409.59
375.19	404.91
375.38	451.72
375.58	393.21
375.78	458.74
375.97	512.58
376.17	423.64
376.37	402.57
376.56	395.55
376.76	437.68
376.95	367.46
377.15	430.66
377.35	402.57
377.54	383.85
377.74	341.72
377.93	355.76
378.13	468.11
378.33	491.51
378.52	425.98
378.72	442.36
378.91	423.64
379.11	330.02
379.31	360.44
379.50	407.25
379.70	358.10
379.89	468.11
380.09	372.15
380.28	400.23
380.48	458.74
380.68	318.31
380.87	318.31
381.07	386.19
381.26	414.27
381.46	433.00
381.65	425.98
381.85	423.64
382.04	379.17
382.24	362.78
382.43	400.23
382.63	472.79
382.83	416.62
383.02	404.91
383.22	442.36
383.41	362.78
383.61	393.21
383.80	388.53
384.00	409.59
384.19	390.87
384.39	428.32
384.58	393.21
384.78	388.53
384.97	411.93
385.17	402.57
385.36	320.65
385.56	425.98
385.75	402.57
385.95	381.51
386.14	365.12
386.34	383.85
386.53	376.83
386.72	444.70
386.92	430.66
387.11	388.53
387.31	388.53
387.50	327.68
387.70	393.21
387.89	428.32
388.09	395.55
388.28	393.21
388.48	374.49
388.67	461.09
388.86	390.87
389.06	374.49
389.25	358.10
389.45	334.70
389.64	440.02
389.84	404.91
390.03	390.87
390.22	379.17
390.42	404.91
390.61	294.91
390.81	409.59
391.00	423.64
391.19	369.80
391.39	414.27
391.58	454.06
391.78	421.30
391.97	402.57
392.16	393.21
392.36	372.15
392.55	442.36
392.75	383.85
392.94	411.93
393.13	418.96
393.33	435.34
393.52	428.32
393.71	428.32
393.91	386.19
394.10	330.02
394.29	397.89
394.49	376.83
394.68	400.23
394.88	414.27
395.07	409.59
395.26	374.49
395.46	372.15
395.65	451.72
395.84	461.09
396.04	500.87
396.23	416.62
396.42	367.46
396.62	400.23
396.81	397.89
397.00	402.57
397.19	407.25
397.39	372.15
397.58	458.74
397.77	428.32
397.97	407.25
398.16	430.66
398.35	390.87
398.55	414.27
398.74	414.27
398.93	351.08
399.12	337.04
399.32	444.70
399.51	435.34
399.70	428.32
399.90	456.40
400.09	383.85
400.28	404.91
400.47	400.23
400.67	395.55
400.86	372.15
401.05	367.46
401.24	416.62
401.44	433.00
401.63	414.27
401.82	430.66
402.01	440.02
402.21	358.10
402.40	379.17
402.59	454.06
402.78	433.00
402.97	402.57
403.17	407.25
403.36	346.40
403.55	407.25
403.74	379.17
403.93	465.77
404.13	418.96
404.32	461.09
404.51	428.32
404.70	505.56
404.89	402.57
405.09	411.93
405.28	454.06
405.47	367.46
405.66	395.55
405.85	397.89
406.05	383.85
406.24	365.12
406.43	451.72
406.62	470.45
406.81	458.74
407.00	416.62
407.20	430.66
407.39	402.57
407.58	351.08
407.77	411.93
407.96	449.38
408.15	381.51
408.34	390.87
408.54	400.23
408.73	362.78
408.92	442.36
409.11	400.23
409.30	449.38
409.49	425.98
409.68	416.62
409.87	449.38
410.07	397.89
410.26	402.57
410.45	437.68
410.64	397.89
410.83	362.78
411.02	409.59
411.21	393.21
411.40	428.32
411.59	418.96
411.78	416.62
411.98	397.89
412.17	369.80
412.36	409.59
412.55	355.76
412.74	407.25
412.93	454.06
413.12	400.23
413.31	341.72
413.50	355.76
413.69	395.55
413.88	425.98
414.07	430.66
414.26	470.45
414.45	428.32
414.64	444.70
414.83	416.62
415.02	421.30
415.22	423.64
415.41	444.70
415.60	449.38
415.79	442.36
415.98	470.45
416.17	440.02
416.36	425.98
416.55	425.98
416.74	451.72
416.93	414.27
417.12	433.00
417.31	416.62
417.50	440.02
417.69	442.36
417.88	449.38
418.07	393.21
418.26	409.59
418.45	362.78
418.64	451.72
418.83	416.62
419.02	402.57
419.21	423.64
419.39	404.91
419.58	409.59
419.77	386.19
419.96	458.74
420.15	470.45
420.34	390.87
420.53	465.77
420.72	468.11
420.91	423.64
421.10	379.17
421.29	393.21
421.48	463.43
421.67	416.62
421.86	451.72
422.05	362.78
422.24	346.40
422.43	376.83
422.61	402.57
422.80	346.40
422.99	376.83
423.18	407.25
423.37	458.74
423.56	444.70
423.75	451.72
423.94	435.34
424.13	395.55
424.32	421.30
424.50	423.64
424.69	409.59
424.88	421.30
425.07	425.98
425.26	449.38
425.45	404.91
425.64	414.27
425.83	390.87
426.01	428.32
426.20	447.04
426.39	409.59
426.58	437.68
426.77	491.51
426.96	414.27
427.15	442.36
427.33	437.68
427.52	416.62
427.71	411.93
427.90	397.89
428.09	397.89
428.28	341.72
428.46	353.42
428.65	451.72
428.84	414.27
429.03	468.11
429.22	421.30
429.40	449.38
429.59	416.62
429.78	369.80
429.97	376.83
430.16	421.30
430.34	423.64
430.53	411.93
430.72	423.64
430.91	428.32
431.10	390.87
431.28	404.91
431.47	381.51
431.66	330.02
431.85	435.34
432.03	386.19
432.22	477.47
432.41	416.62
432.60	416.62
432.79	400.23
432.97	425.98
433.16	358.10
433.35	332.36
433.54	315.97
433.72	397.89
433.91	442.36
434.10	433.00
434.28	411.93
434.47	428.32
434.66	447.04
434.85	381.51
435.03	409.59
435.22	409.59
435.41	393.21
435.59	395.55
435.78	411.93
435.97	411.93
436.16	428.32
436.34	332.36
436.53	402.57
436.72	327.68
436.90	451.72
437.09	372.15
437.28	442.36
437.46	430.66
437.65	402.57
437.84	423.64
438.02	407.25
438.21	369.80
438.40	315.97
438.58	416.62
438.77	442.36
438.96	395.55
439.14	346.40
439.33	458.74
439.52	458.74
439.70	379.17
439.89	353.42
440.08	468.11
440.26	414.27
440.45	358.10
440.63	372.15
440.82	451.72
441.01	435.34
441.19	421.30
441.38	388.53
441.57	397.89
441.75	423.64
441.94	479.81
442.12	482.15
442.31	451.72
442.50	456.40
442.68	390.87
442.87	390.87
443.05	400.23
443.24	411.93
443.43	379.17
443.61	414.27
443.80	393.21
443.98	325.33
444.17	472.79
444.35	421.30
444.54	421.30
444.73	416.62
444.91	425.98
445.10	395.55
445.28	407.25
445.47	433.00
445.65	397.89
445.84	416.62
446.02	395.55
446.21	414.27
446.39	402.57
446.58	442.36
446.77	376.83
446.95	397.89
447.14	456.40
447.32	425.98
447.51	390.87
447.69	458.74
447.88	425.98
448.06	425.98
448.25	386.19
448.43	458.74
448.62	451.72
448.80	407.25
448.99	428.32
449.17	369.80
449.36	369.80
449.54	379.17
449.73	390.87
449.91	365.12
450.10	390.87
450.28	486.83
450.46	388.53
450.65	388.53
450.83	365.12
451.02	374.49
451.20	437.68
451.39	383.85
451.57	423.64
451.76	386.19
451.94	425.98
452.13	468.11
452.31	435.34
452.49	425.98
452.68	524.28
452.86	409.59
453.05	456.40
453.23	449.38
453.42	346.40
453.60	365.12
453.78	428.32
453.97	435.34
454.15	416.62
454.34	395.55
454.52	381.51
454.70	435.34
454.89	498.53
455.07	440.02
455.26	440.02
455.44	351.08
455.62	437.68
455.81	397.89
455.99	400.23
456.17	444.70
456.36	437.68
456.54	374.49
456.73	416.62
456.91	493.85
457.09	381.51
457.28	428.32
457.46	383.85
457.64	390.87
457.83	407.25
458.01	388.53
458.19	400.23
458.38	402.57
458.56	388.53
458.74	383.85
458.93	447.04
459.11	451.72
459.29	404.91
459.48	374.49
459.66	421.30
459.84	489.17
460.03	505.56
460.21	376.83
460.39	393.21
460.57	463.43
460.76	376.83
460.94	400.23
461.12	393.21
461.31	388.53
461.49	369.80
461.67	430.66
461.85	449.38
462.04	411.93
462.22	777.06
462.40	437.68
462.59	355.76
462.77	437.68
462.95	440.02
463.13	367.46
463.32	461.09
463.50	475.13
463.68	425.98
463.86	458.74
464.05	353.42
464.23	425.98
464.41	397.89
464.59	428.32
464.78	390.87
464.96	461.09
465.14	430.66
465.32	447.04
465.50	428.32
465.69	447.04
465.87	390.87
466.05	409.59
466.23	416.62
466.41	449.38
466.60	447.04
466.78	451.72
466.96	468.11
467.14	491.51
467.32	362.78
467.51	397.89
467.69	449.38
467.87	423.64
468.05	433.00
468.23	425.98
468.41	505.56
468.60	397.89
468.78	447.04
468.96	454.06
469.14	472.79
469.32	486.83
469.50	388.53
469.69	409.59
469.87	447.04
470.05	423.64
470.23	449.38
470.41	503.22
470.59	428.32
470.77	353.42
470.95	339.38
471.14	435.34
471.32	404.91
471.50	477.47
471.68	416.62
471.86	421.30
472.04	397.89
472.22	400.23
472.40	491.51
472.58	440.02
472.77	404.91
472.95	400.23
473.13	456.40
473.31	477.47
473.49	360.44
473.67	388.53
473.85	447.04
474.03	395.55
474.21	369.80
474.39	456.40
474.57	351.08
474.75	379.17
474.93	407.25
475.12	435.34
475.30	407.25
475.48	430.66
475.66	500.87
475.84	470.45
476.02	477.47
476.20	425.98
476.38	423.64
476.56	440.02
476.74	472.79
476.92	433.00
477.10	461.09
477.28	477.47
477.46	414.27
477.64	367.46
477.82	402.57
478.00	433.00
478.18	386.19
478.36	372.15
478.54	461.09
478.72	470.45
478.90	430.66
479.08	404.91
479.26	397.89
479.44	430.66
479.62	386.19
479.80	395.55
479.98	404.91
480.16	437.68
480.34	362.78
480.52	365.12
480.70	407.25
480.88	437.68
481.06	372.15
481.24	404.91
481.41	346.40
481.59	402.57
481.77	430.66
481.95	383.85
482.13	430.66
482.31	414.27
482.49	362.78
482.67	397.89
482.85	418.96
483.03	482.15
483.21	414.27
483.39	344.06
483.57	376.83
483.74	454.06
483.92	444.70
484.10	407.25
484.28	404.91
484.46	397.89
484.64	489.17
484.82	456.40
485.00	308.95
485.18	454.06
485.35	425.98
485.53	404.91
485.71	454.06
485.89	383.85
486.07	395.55
486.25	411.93
486.43	395.55
486.61	374.49
486.78	416.62
486.96	365.12
487.14	381.51
487.32	407.25
487.50	395.55
487.68	505.56
487.85	407.25
488.03	402.57
488.21	416.62
488.39	465.77
488.57	379.17
488.75	339.38
488.92	512.58
489.10	414.27
489.28	472.79
489.46	393.21
489.64	421.30
489.81	416.62
489.99	407.25
490.17	465.77
490.35	550.03
490.53	393.21
490.70	423.64
490.88	351.08
491.06	395.55
491.24	433.00
491.41	365.12
491.59	425.98
491.77	435.34
491.95	430.66
492.13	447.04
492.30	365.12
492.48	423.64
492.66	461.09
492.84	411.93
493.01	367.46
493.19	482.15
493.37	425.98
493.54	449.38
493.72	418.96
493.90	372.15
494.08	369.80
494.25	437.68
494.43	395.55
494.61	430.66
494.79	425.98
494.96	404.91
495.14	444.70
495.32	435.34
495.49	418.96
495.67	381.51
495.85	428.32
496.02	437.68
496.20	390.87
496.38	463.43
496.55	430.66
496.73	365.12
496.91	348.74
497.09	442.36
497.26	447.04
497.44	376.83
497.62	393.21
497.79	416.62
497.97	407.25
498.14	440.02
498.32	472.79
498.50	355.76
498.67	393.21
498.85	484.49
499.03	388.53
499.20	372.15
499.38	437.68
499.56	421.30
499.73	484.49
499.91	461.09
500.08	524.28
500.26	435.34
500.44	433.00
500.61	390.87
500.79	461.09
500.97	400.23
501.14	521.94
501.32	414.27
501.49	374.49
501.67	411.93
501.84	376.83
502.02	414.27
502.20	442.36
502.37	491.51
502.55	425.98
502.72	440.02
502.90	430.66
503.07	372.15
503.25	461.09
503.43	442.36
503.60	355.76
503.78	409.59
503.95	407.25
504.13	369.80
504.30	440.02
504.48	397.89
504.65	463.43
504.83	393.21
505.01	388.53
505.18	503.22
505.36	395.55
505.53	379.17
505.71	416.62
505.88	493.85
506.06	397.89
506.23	372.15
506.41	435.34
506.58	421.30
506.76	451.72
506.93	421.30
507.11	285.55
507.28	423.64
507.46	423.64
507.63	447.04
507.81	379.17
507.98	423.64
508.16	395.55
508.33	376.83
508.50	409.59
508.68	437.68
508.85	428.32
509.03	437.68
509.20	411.93
509.38	440.02
509.55	395.55
509.73	463.43
509.90	477.47
510.08	465.77
510.25	449.38
510.42	435.34
510.60	379.17
510.77	484.49
510.95	475.13
511.12	400.23
511.30	437.68
511.47	444.70
511.64	482.15
511.82	435.34
511.99	383.85
512.17	376.83
512.34	297.25
512.51	411.93
512.69	313.63
512.86	470.45
513.04	393.21
513.21	454.06
513.38	400.23
513.56	421.30
513.73	365.12
513.90	449.38
514.08	414.27
514.25	381.51
514.43	362.78
514.60	393.21
514.77	423.64
514.95	433.00
515.12	425.98
515.29	411.93
515.47	409.59
515.64	475.13
515.81	362.78
515.99	482.15
516.16	407.25
516.33	428.32
516.51	374.49
516.68	484.49
516.85	388.53
517.03	376.83
517.20	430.66
517.37	451.72
517.54	454.06
517.72	428.32
517.89	421.30
518.06	362.78
518.24	486.83
518.41	388.53
518.58	402.57
518.75	418.96
518.93	383.85
519.10	463.43
519.27	386.19
519.45	449.38
519.62	416.62
519.79	463.43
519.96	409.59
520.14	447.04
520.31	463.43
520.48	451.72
520.65	411.93
520.83	479.81
521.00	409.59
521.17	423.64
521.34	451.72
521.52	442.36
521.69	423.64
521.86	372.15
522.03	444.70
522.20	484.49
522.38	463.43
522.55	507.90
522.72	374.49
522.89	461.09
523.07	463.43
523.24	390.87
523.41	430.66
523.58	365.12
523.75	400.23
523.92	430.66
524.10	458.74
524.27	489.17
524.44	411.93
524.61	395.55
524.78	386.19
524.96	435.34
525.13	390.87
525.30	393.21
525.47	418.96
525.64	444.70
525.81	449.38
525.98	433.00
526.16	409.59
526.33	472.79
526.50	388.53
526.67	362.78
526.84	383.85
527.01	416.62
527.18	404.91
527.36	386.19
527.53	425.98
527.70	421.30
527.87	372.15
528.04	442.36
528.21	407.25
528.38	435.34
528.55	428.32
528.72	433.00
528.89	430.66
529.07	411.93
529.24	472.79
529.41	418.96
529.58	428.32
529.75	407.25
529.92	440.02
530.09	447.04
530.26	397.89
530.43	472.79
530.60	383.85
530.77	477.47
530.94	435.34
531.11	491.51
531.28	393.21
531.46	393.21
531.63	477.47
531.80	433.00
531.97	428.32
532.14	351.08
532.31	414.27
532.48	430.66
532.65	395.55
532.82	463.43
532.99	423.64
533.16	386.19
533.33	484.49
533.50	397.89
533.67	421.30
533.84	444.70
534.01	428.32
534.18	353.42
534.35	468.11
534.52	397.89
534.69	512.58
534.86	486.83
535.03	390.87
535.20	409.59
535.37	468.11
535.54	482.15
535.71	379.17
535.88	451.72
536.05	458.74
536.22	421.30
536.38	444.70
536.55	437.68
536.72	428.32
536.89	409.59
537.06	365.12
537.23	407.25
537.40	365.12
537.57	353.42
537.74	416.62
537.91	461.09
538.08	411.93
538.25	414.27
538.42	379.17
538.59	428.32
538.75	390.87
538.92	402.57
539.09	395.55
539.26	390.87
539.43	393.21
539.60	449.38
539.77	491.51
539.94	409.59
540.11	451.72
540.28	430.66
540.44	447.04
540.61	411.93
540.78	425.98
540.95	397.89
541.12	433.00
541.29	383.85
541.46	400.23
541.62	461.09
541.79	486.83
541.96	465.77
542.13	430.66
542.30	437.68
542.47	390.87
542.63	402.57
542.80	482.15
542.97	435.34
543.14	416.62
543.31	407.25
543.48	414.27
543.64	376.83
543.81	451.72
543.98	407.25
544.15	400.23
544.32	355.76
544.48	376.83
544.65	433.00
544.82	423.64
544.99	449.38
545.16	442.36
545.32	369.80
545.49	400.23
545.66	400.23
545.83	409.59
546.00	442.36
546.16	404.91
546.33	404.91
546.50	362.78
546.67	454.06
546.83	376.83
547.00	381.51
547.17	400.23
547.34	397.89
547.50	381.51
547.67	461.09
547.84	325.33
548.00	421.30
548.17	463.43
548.34	433.00
548.51	475.13
548.67	463.43
548.84	411.93
549.01	465.77
549.18	423.64
549.34	360.44
549.51	372.15
549.68	454.06
549.84	425.98
550.01	367.46
550.18	505.56
550.34	421.30
550.51	430.66
550.68	514.92
550.84	390.87
551.01	421.30
551.18	491.51
551.34	449.38
551.51	379.17
551.68	463.43
551.84	407.25
552.01	397.89
552.18	477.47
552.34	418.96
552.51	404.91
552.68	400.23
552.84	456.40
553.01	381.51
553.18	402.57
553.34	395.55
553.51	395.55
553.67	465.77
553.84	435.34
554.01	411.93
554.17	402.57
554.34	402.57
554.51	416.62
554.67	421.30
554.84	472.79
555.00	461.09
555.17	430.66
555.33	407.25
555.50	390.87
555.67	416.62
555.83	369.80
556.00	369.80
556.16	500.87
556.33	365.12
556.50	393.21
556.66	425.98
556.83	456.40
556.99	367.46
557.16	320.65
557.32	365.12
557.49	388.53
557.65	430.66
557.82	456.40
557.98	484.49
558.15	407.25
558.32	465.77
558.48	421.30
558.65	444.70
558.81	475.13
558.98	418.96
559.14	486.83
559.31	414.27
559.47	423.64
559.64	433.00
559.80	437.68
559.97	428.32
560.13	435.34
560.30	475.13
560.46	484.49
560.63	400.23
560.79	372.15
560.96	428.32
561.12	397.89
561.29	489.17
561.45	433.00
561.61	386.19
561.78	484.49
561.94	400.23
562.11	414.27
562.27	425.98
562.44	390.87
562.60	369.80
562.77	376.83
562.93	468.11
563.10	484.49
563.26	437.68
563.42	414.27
563.59	395.55
563.75	442.36
563.92	397.89
564.08	353.42
564.24	482.15
564.41	393.21
564.57	334.70
564.74	376.83
564.90	395.55
565.07	372.15
565.23	430.66
565.39	404.91
565.56	428.32
565.72	425.98
565.88	397.89
566.05	425.98
566.21	423.64
566.38	449.38
566.54	428.32
566.70	472.79
566.87	390.87
567.03	395.55
567.19	456.40
567.36	383.85
567.52	447.04
567.68	395.55
567.85	433.00
568.01	358.10
568.17	386.19
568.34	390.87
568.50	510.24
568.66	400.23
568.83	507.90
568.99	482.15
569.15	510.24
569.32	409.59
569.48	388.53
569.64	400.23
569.81	461.09
569.97	409.59
570.13	416.62
570.30	472.79
570.46	472.79
570.62	425.98
570.78	498.53
570.95	416.62
571.11	411.93
571.27	475.13
571.43	393.21
571.60	430.66
571.76	320.65
571.92	386.19
572.09	425.98
572.25	458.74
572.41	430.66
572.57	482.15
572.74	526.62
572.90	444.70
573.06	388.53
573.22	449.38
573.38	472.79
573.55	428.32
573.71	437.68
573.87	369.80
574.03	425.98
574.20	428.32
574.36	447.04
574.52	402.57
574.68	503.22
574.84	418.96
575.01	428.32
575.17	505.56
575.33	381.51
575.49	477.47
575.65	414.27
575.82	372.15
575.98	414.27
576.14	449.38
576.30	402.57
576.46	449.38
576.62	454.06
576.79	440.02
576.95	381.51
577.11	444.70
577.27	351.08
577.43	477.47
577.59	423.64
577.75	430.66
577.92	360.44
578.08	472.79
578.24	463.43
578.40	400.23
578.56	437.68
578.72	521.94
578.88	456.40
579.04	365.12
579.21	411.93
579.37	428.32
579.53	442.36
579.69	498.53
579.85	421.30
580.01	437.68
580.17	374.49
580.33	409.59
580.49	381.51
580.65	507.90
580.82	435.34
580.98	477.47
581.14	440.02
581.30	465.77
581.46	425.98
581.62	468.11
581.78	440.02
581.94	421.30
582.10	423.64
582.26	409.59
582.42	430.66
582.58	500.87
582.74	351.08
582.90	421.30
583.06	444.70
583.22	407.25
583.38	397.89
583.54	383.85
583.70	440.02
583.86	409.59
584.02	449.38
584.18	510.24
584.34	425.98
584.50	404.91
584.66	395.55
584.82	383.85
584.98	404.91
585.14	409.59
585.30	440.02
585.46	397.89
585.62	376.83
585.78	418.96
585.94	390.87
586.10	386.19
586.26	374.49
586.42	533.64
586.58	484.49
586.74	421.30
586.90	440.02
587.06	381.51
587.22	416.62
587.38	421.30
587.54	414.27
587.70	463.43
587.86	472.79
588.02	393.21
588.18	414.27
588.34	472.79
588.49	430.66
588.65	374.49
588.81	465.77
588.97	414.27
589.13	444.70
589.29	425.98
589.45	411.93
589.61	383.85
589.77	423.64
589.93	383.85
590.08	535.98
590.24	414.27
590.40	451.72
590.56	493.85
590.72	346.40
590.88	381.51
591.04	395.55
591.20	355.76
591.35	416.62
591.51	409.59
591.67	344.06
591.83	372.15
591.99	472.79
592.15	482.15
592.31	358.10
592.46	379.17
592.62	428.32
592.78	496.19
592.94	346.40
593.10	383.85
593.26	461.09
593.41	428.32
593.57	409.59
593.73	358.10
593.89	327.68
594.05	365.12
594.20	369.80
594.36	404.91
594.52	372.15
594.68	397.89
594.84	447.04
594.99	479.81
595.15	402.57
595.31	334.70
595.47	423.64
595.62	456.40
595.78	458.74
595.94	444.70
596.10	348.74
596.25	435.34
596.41	409.59
596.57	386.19
596.73	388.53
596.88	482.15
597.04	461.09
597.20	433.00
597.36	397.89
597.51	496.19
597.67	442.36
597.83	407.25
597.99	428.32
598.14	461.09
598.30	444.70
598.46	346.40
598.61	425.98
598.77	437.68
598.93	386.19
599.09	367.46
599.24	397.89
599.40	442.36
599.56	374.49
599.71	400.23
599.87	344.06
600.03	367.46
600.18	433.00
600.34	395.55
600.50	477.47
600.65	414.27
600.81	383.85
600.97	449.38
601.12	346.40
601.28	369.80
601.44	416.62
601.59	418.96
601.75	528.96
601.91	390.87
602.06	416.62
602.22	437.68
602.37	470.45
602.53	360.44
602.69	470.45
602.84	468.11
603.00	444.70
603.16	475.13
603.31	475.13
603.47	369.80
603.62	411.93
603.78	463.43
603.94	437.68
604.09	451.72
604.25	416.62
604.40	409.59
604.56	430.66
604.71	379.17
604.87	395.55
605.03	458.74
605.18	404.91
605.34	388.53
605.49	330.02
605.65	376.83
605.80	374.49
605.96	414.27
606.12	425.98
606.27	388.53
606.43	447.04
606.58	435.34
606.74	451.72
606.89	421.30
607.05	402.57
607.20	440.02
607.36	470.45
607.51	395.55
607.67	395.55
607.82	512.58
607.98	440.02
608.13	416.62
608.29	355.76
608.44	386.19
608.60	416.62
608.75	379.17
608.91	351.08
609.06	407.25
609.22	411.93
609.37	404.91
609.53	430.66
609.68	454.06
609.84	418.96
609.99	451.72
610.15	416.62
