SpectraSuite Data File
++++++++++++++++++++++++++++++++++++
Date: Fri Oct 25 12:10:27 EDT 2013
User: price-jones
Dark Spectrum Present: No
Reference Spectrum Present: No
Number of Sampled Component Spectra: 1
Spectrometers: USB2+H05261
Integration Time (usec): 100000 (USB2+H05261)
Spectra Averaged: 1 (USB2+H05261)
Boxcar Smoothing: 0 (USB2+H05261)
Correct for Electrical Dark: No (USB2+H05261)
Strobe/Lamp Enabled: No (USB2+H05261)
Correct for Detector Non-linearity: No (USB2+H05261)
Correct for Stray Light: No (USB2+H05261)
Number of Pixels in Processed Spectrum: 2048
>>>>>Begin Processed Spectral Data<<<<<
365.73	332.36
365.92	332.36
366.12	332.36
366.32	238.73
366.52	238.73
366.72	255.12
366.91	208.31
367.11	266.82
367.31	215.33
367.51	191.92
367.70	208.31
367.90	280.86
368.10	234.05
368.30	241.08
368.49	234.05
368.69	243.42
368.89	215.33
369.09	262.14
369.28	313.63
369.48	231.71
369.68	264.48
369.87	280.86
370.07	297.25
370.27	273.84
370.47	346.40
370.66	344.06
370.86	367.46
371.06	386.19
371.25	393.21
371.45	297.25
371.65	400.23
371.84	402.57
372.04	435.34
372.24	393.21
372.44	416.62
372.63	411.93
372.83	372.15
373.03	428.32
373.22	458.74
373.42	425.98
373.62	407.25
373.81	409.59
374.01	470.45
374.21	500.87
374.40	475.13
374.60	416.62
374.79	376.83
374.99	437.68
375.19	393.21
375.38	393.21
375.58	383.85
375.78	430.66
375.97	510.24
376.17	484.49
376.37	428.32
376.56	493.85
376.76	348.74
376.95	454.06
377.15	381.51
377.35	395.55
377.54	421.30
377.74	386.19
377.93	454.06
378.13	428.32
378.33	411.93
378.52	355.76
378.72	400.23
378.91	416.62
379.11	421.30
379.31	374.49
379.50	320.65
379.70	444.70
379.89	451.72
380.09	388.53
380.28	379.17
380.48	381.51
380.68	458.74
380.87	416.62
381.07	437.68
381.26	482.15
381.46	344.06
381.65	465.77
381.85	421.30
382.04	367.46
382.24	440.02
382.43	360.44
382.63	362.78
382.83	416.62
383.02	402.57
383.22	449.38
383.41	341.72
383.61	430.66
383.80	447.04
384.00	519.60
384.19	435.34
384.39	418.96
384.58	390.87
384.78	423.64
384.97	390.87
385.17	409.59
385.36	395.55
385.56	330.02
385.75	449.38
385.95	374.49
386.14	416.62
386.34	374.49
386.53	447.04
386.72	407.25
386.92	451.72
387.11	496.19
387.31	414.27
387.50	435.34
387.70	369.80
387.89	428.32
388.09	425.98
388.28	388.53
388.48	421.30
388.67	379.17
388.86	386.19
389.06	414.27
389.25	374.49
389.45	423.64
389.64	411.93
389.84	437.68
390.03	407.25
390.22	414.27
390.42	341.72
390.61	386.19
390.81	440.02
391.00	376.83
391.19	400.23
391.39	355.76
391.58	388.53
391.78	390.87
391.97	418.96
392.16	390.87
392.36	428.32
392.55	397.89
392.75	358.10
392.94	414.27
393.13	486.83
393.33	390.87
393.52	367.46
393.71	418.96
393.91	379.17
394.10	416.62
394.29	407.25
394.49	407.25
394.68	383.85
394.88	437.68
395.07	423.64
395.26	402.57
395.46	475.13
395.65	425.98
395.84	433.00
396.04	477.47
396.23	402.57
396.42	440.02
396.62	458.74
396.81	360.44
397.00	388.53
397.19	374.49
397.39	458.74
397.58	444.70
397.77	437.68
397.97	416.62
398.16	355.76
398.35	418.96
398.55	409.59
398.74	418.96
398.93	461.09
399.12	400.23
399.32	402.57
399.51	374.49
399.70	411.93
399.90	454.06
400.09	430.66
400.28	437.68
400.47	428.32
400.67	437.68
400.86	348.74
401.05	355.76
401.24	395.55
401.44	339.38
401.63	425.98
401.82	369.80
402.01	423.64
402.21	465.77
402.40	397.89
402.59	372.15
402.78	381.51
402.97	390.87
403.17	376.83
403.36	372.15
403.55	428.32
403.74	428.32
403.93	411.93
404.13	463.43
404.32	428.32
404.51	411.93
404.70	425.98
404.89	339.38
405.09	407.25
405.28	351.08
405.47	411.93
405.66	365.12
405.85	407.25
406.05	365.12
406.24	444.70
406.43	379.17
406.62	416.62
406.81	430.66
407.00	395.55
407.20	409.59
407.39	425.98
407.58	489.17
407.77	381.51
407.96	451.72
408.15	421.30
408.34	475.13
408.54	437.68
408.73	421.30
408.92	346.40
409.11	463.43
409.30	510.24
409.49	383.85
409.68	381.51
409.87	374.49
410.07	430.66
410.26	355.76
410.45	425.98
410.64	367.46
410.83	428.32
411.02	465.77
411.21	430.66
411.40	315.97
411.59	444.70
411.78	355.76
411.98	425.98
412.17	416.62
412.36	425.98
412.55	425.98
412.74	428.32
412.93	440.02
413.12	372.15
413.31	402.57
413.50	383.85
413.69	390.87
413.88	437.68
414.07	372.15
414.26	390.87
414.45	381.51
414.64	376.83
414.83	468.11
415.02	451.72
415.22	440.02
415.41	454.06
415.60	290.23
415.79	437.68
415.98	479.81
416.17	362.78
416.36	376.83
416.55	397.89
416.74	449.38
416.93	421.30
417.12	386.19
417.31	353.42
417.50	425.98
417.69	468.11
417.88	374.49
418.07	442.36
418.26	484.49
418.45	454.06
418.64	468.11
418.83	472.79
419.02	484.49
419.21	395.55
419.39	425.98
419.58	404.91
419.77	374.49
419.96	367.46
420.15	435.34
420.34	409.59
420.53	416.62
420.72	374.49
420.91	454.06
421.10	395.55
421.29	437.68
421.48	393.21
421.67	482.15
421.86	440.02
422.05	409.59
422.24	433.00
422.43	456.40
422.61	381.51
422.80	477.47
422.99	404.91
423.18	430.66
423.37	423.64
423.56	402.57
423.75	416.62
423.94	437.68
424.13	355.76
424.32	435.34
424.50	411.93
424.69	400.23
424.88	421.30
425.07	355.76
425.26	409.59
425.45	365.12
425.64	418.96
425.83	400.23
426.01	465.77
426.20	393.21
426.39	435.34
426.58	447.04
426.77	397.89
426.96	395.55
427.15	381.51
427.33	430.66
427.52	447.04
427.71	423.64
427.90	444.70
428.09	475.13
428.28	393.21
428.46	416.62
428.65	383.85
428.84	393.21
429.03	470.45
429.22	327.68
429.40	454.06
429.59	416.62
429.78	416.62
429.97	411.93
430.16	451.72
430.34	404.91
430.53	400.23
430.72	369.80
430.91	470.45
431.10	437.68
431.28	402.57
431.47	381.51
431.66	418.96
431.85	404.91
432.03	407.25
432.22	404.91
432.41	407.25
432.60	376.83
432.79	355.76
432.97	425.98
433.16	388.53
433.35	390.87
433.54	402.57
433.72	428.32
433.91	358.10
434.10	428.32
434.28	425.98
434.47	416.62
434.66	397.89
434.85	334.70
435.03	362.78
435.22	414.27
435.41	421.30
435.59	451.72
435.78	463.43
435.97	360.44
436.16	461.09
436.34	365.12
436.53	454.06
436.72	433.00
436.90	430.66
437.09	423.64
437.28	454.06
437.46	423.64
437.65	374.49
437.84	449.38
438.02	376.83
438.21	365.12
438.40	444.70
438.58	393.21
438.77	442.36
438.96	404.91
439.14	414.27
439.33	454.06
439.52	442.36
439.70	395.55
439.89	423.64
440.08	369.80
440.26	442.36
440.45	440.02
440.63	428.32
440.82	435.34
441.01	430.66
441.19	393.21
441.38	423.64
441.57	444.70
441.75	411.93
441.94	470.45
442.12	416.62
442.31	428.32
442.50	470.45
442.68	409.59
442.87	388.53
443.05	428.32
443.24	411.93
443.43	437.68
443.61	409.59
443.80	400.23
443.98	390.87
444.17	430.66
444.35	475.13
444.54	400.23
444.73	414.27
444.91	411.93
445.10	416.62
445.28	388.53
445.47	411.93
445.65	421.30
445.84	435.34
446.02	397.89
446.21	442.36
446.39	358.10
446.58	428.32
446.77	423.64
446.95	395.55
447.14	388.53
447.32	440.02
447.51	498.53
447.69	437.68
447.88	409.59
448.06	376.83
448.25	383.85
448.43	397.89
448.62	400.23
448.80	428.32
448.99	470.45
449.17	400.23
449.36	397.89
449.54	463.43
449.73	486.83
449.91	442.36
450.10	393.21
450.28	451.72
450.46	400.23
450.65	416.62
450.83	435.34
451.02	414.27
451.20	386.19
451.39	463.43
451.57	386.19
451.76	463.43
451.94	440.02
452.13	404.91
452.31	428.32
452.49	449.38
452.68	379.17
452.86	463.43
453.05	454.06
453.23	404.91
453.42	355.76
453.60	421.30
453.78	400.23
453.97	393.21
454.15	346.40
454.34	421.30
454.52	454.06
454.70	428.32
454.89	447.04
455.07	376.83
455.26	332.36
455.44	463.43
455.62	351.08
455.81	425.98
455.99	440.02
456.17	423.64
456.36	395.55
456.54	351.08
456.73	369.80
456.91	390.87
457.09	416.62
457.28	400.23
457.46	320.65
457.64	425.98
457.83	458.74
458.01	461.09
458.19	397.89
458.38	395.55
458.56	411.93
458.74	458.74
458.93	440.02
459.11	402.57
459.29	421.30
459.48	451.72
459.66	388.53
459.84	484.49
460.03	521.94
460.21	477.47
460.39	418.96
460.57	437.68
460.76	444.70
460.94	351.08
461.12	416.62
461.31	397.89
461.49	454.06
461.67	365.12
461.85	372.15
462.04	369.80
462.22	800.46
462.40	390.87
462.59	388.53
462.77	397.89
462.95	379.17
463.13	344.06
463.32	428.32
463.50	393.21
463.68	475.13
463.86	402.57
464.05	388.53
464.23	416.62
464.41	423.64
464.59	423.64
464.78	407.25
464.96	402.57
465.14	437.68
465.32	465.77
465.50	416.62
465.69	442.36
465.87	299.59
466.05	397.89
466.23	390.87
466.41	376.83
466.60	369.80
466.78	421.30
466.96	454.06
467.14	430.66
467.32	477.47
467.51	402.57
467.69	383.85
467.87	482.15
468.05	449.38
468.23	458.74
468.41	440.02
468.60	425.98
468.78	456.40
468.96	435.34
469.14	397.89
469.32	337.04
469.50	402.57
469.69	411.93
469.87	475.13
470.05	489.17
470.23	414.27
470.41	440.02
470.59	351.08
470.77	421.30
470.95	482.15
471.14	407.25
471.32	322.99
471.50	468.11
471.68	440.02
471.86	402.57
472.04	433.00
472.22	435.34
472.40	416.62
472.58	330.02
472.77	465.77
472.95	358.10
473.13	355.76
473.31	367.46
473.49	411.93
473.67	397.89
473.85	414.27
474.03	447.04
474.21	437.68
474.39	423.64
474.57	477.47
474.75	440.02
474.93	376.83
475.12	400.23
475.30	395.55
475.48	458.74
475.66	407.25
475.84	437.68
476.02	449.38
476.20	482.15
476.38	472.79
476.56	498.53
476.74	472.79
476.92	395.55
477.10	334.70
477.28	449.38
477.46	421.30
477.64	458.74
477.82	458.74
478.00	400.23
478.18	397.89
478.36	402.57
478.54	388.53
478.72	428.32
478.90	351.08
479.08	374.49
479.26	397.89
479.44	423.64
479.62	423.64
479.80	411.93
479.98	444.70
480.16	451.72
480.34	465.77
480.52	360.44
480.70	411.93
480.88	465.77
481.06	407.25
481.24	386.19
481.41	423.64
481.59	411.93
481.77	386.19
481.95	414.27
482.13	404.91
482.31	437.68
482.49	430.66
482.67	390.87
482.85	372.15
483.03	397.89
483.21	430.66
483.39	388.53
483.57	409.59
483.74	437.68
483.92	498.53
484.10	421.30
484.28	454.06
484.46	482.15
484.64	379.17
484.82	334.70
485.00	465.77
485.18	433.00
485.35	400.23
485.53	402.57
485.71	425.98
485.89	358.10
486.07	423.64
486.25	433.00
486.43	388.53
486.61	470.45
486.78	372.15
486.96	308.95
487.14	355.76
487.32	404.91
487.50	465.77
487.68	447.04
487.85	386.19
488.03	402.57
488.21	428.32
488.39	440.02
488.57	456.40
488.75	372.15
488.92	498.53
489.10	418.96
489.28	468.11
489.46	409.59
489.64	404.91
489.81	404.91
489.99	468.11
490.17	461.09
490.35	554.71
490.53	421.30
490.70	477.47
490.88	423.64
491.06	355.76
491.24	447.04
491.41	489.17
491.59	538.32
491.77	409.59
491.95	411.93
492.13	376.83
492.30	440.02
492.48	379.17
492.66	418.96
492.84	355.76
493.01	484.49
493.19	409.59
493.37	404.91
493.54	472.79
493.72	425.98
493.90	456.40
494.08	358.10
494.25	468.11
494.43	407.25
494.61	397.89
494.79	402.57
494.96	362.78
495.14	414.27
495.32	400.23
495.49	437.68
495.67	503.22
495.85	339.38
496.02	348.74
496.20	437.68
496.38	421.30
496.55	458.74
496.73	458.74
496.91	411.93
497.09	435.34
497.26	376.83
497.44	463.43
497.62	418.96
497.79	397.89
497.97	442.36
498.14	486.83
498.32	409.59
498.50	402.57
498.67	404.91
498.85	423.64
499.03	407.25
499.20	397.89
499.38	397.89
499.56	388.53
499.73	416.62
499.91	423.64
500.08	458.74
500.26	421.30
500.44	416.62
500.61	456.40
500.79	414.27
500.97	383.85
501.14	355.76
501.32	416.62
501.49	440.02
501.67	400.23
501.84	414.27
502.02	390.87
502.20	421.30
502.37	393.21
502.55	418.96
502.72	421.30
502.90	362.78
503.07	374.49
503.25	491.51
503.43	468.11
503.60	472.79
503.78	388.53
503.95	381.51
504.13	372.15
504.30	411.93
504.48	425.98
504.65	458.74
504.83	425.98
505.01	386.19
505.18	440.02
505.36	428.32
505.53	304.27
505.71	390.87
505.88	496.19
506.06	334.70
506.23	381.51
506.41	449.38
506.58	491.51
506.76	421.30
506.93	341.72
507.11	388.53
507.28	482.15
507.46	404.91
507.63	388.53
507.81	421.30
507.98	470.45
508.16	430.66
508.33	430.66
508.50	447.04
508.68	353.42
508.85	390.87
509.03	386.19
509.20	369.80
509.38	468.11
509.55	430.66
509.73	404.91
509.90	390.87
510.08	393.21
510.25	416.62
510.42	409.59
510.60	381.51
510.77	484.49
510.95	428.32
511.12	484.49
511.30	433.00
511.47	414.27
511.64	409.59
511.82	489.17
511.99	447.04
512.17	409.59
512.34	425.98
512.51	397.89
512.69	440.02
512.86	435.34
513.04	409.59
513.21	369.80
513.38	397.89
513.56	404.91
513.73	440.02
513.90	341.72
514.08	454.06
514.25	395.55
514.43	440.02
514.60	402.57
514.77	369.80
514.95	397.89
515.12	458.74
515.29	348.74
515.47	456.40
515.64	442.36
515.81	468.11
515.99	372.15
516.16	444.70
516.33	362.78
516.51	491.51
516.68	440.02
516.85	440.02
517.03	468.11
517.20	451.72
517.37	451.72
517.54	489.17
517.72	430.66
517.89	379.17
518.06	409.59
518.24	477.47
518.41	411.93
518.58	468.11
518.75	421.30
518.93	442.36
519.10	376.83
519.27	290.23
519.45	486.83
519.62	428.32
519.79	454.06
519.96	383.85
520.14	425.98
520.31	449.38
520.48	440.02
520.65	454.06
520.83	437.68
521.00	435.34
521.17	346.40
521.34	402.57
521.52	397.89
521.69	390.87
521.86	421.30
522.03	400.23
522.20	489.17
522.38	369.80
522.55	470.45
522.72	388.53
522.89	404.91
523.07	482.15
523.24	425.98
523.41	498.53
523.58	407.25
523.75	400.23
523.92	475.13
524.10	477.47
524.27	442.36
524.44	416.62
524.61	458.74
524.78	493.85
524.96	367.46
525.13	400.23
525.30	383.85
525.47	362.78
525.64	320.65
525.81	458.74
525.98	416.62
526.16	404.91
526.33	437.68
526.50	390.87
526.67	451.72
526.84	383.85
527.01	407.25
527.18	376.83
527.36	442.36
527.53	416.62
527.70	444.70
527.87	437.68
528.04	449.38
528.21	381.51
528.38	397.89
528.55	372.15
528.72	503.22
528.89	433.00
529.07	444.70
529.24	421.30
529.41	430.66
529.58	402.57
529.75	435.34
529.92	397.89
530.09	456.40
530.26	468.11
530.43	395.55
530.60	421.30
530.77	409.59
530.94	411.93
531.11	425.98
531.28	425.98
531.46	421.30
531.63	418.96
531.80	395.55
531.97	449.38
532.14	421.30
532.31	411.93
532.48	414.27
532.65	414.27
532.82	400.23
532.99	409.59
533.16	428.32
533.33	393.21
533.50	416.62
533.67	437.68
533.84	423.64
534.01	428.32
534.18	381.51
534.35	456.40
534.52	435.34
534.69	435.34
534.86	369.80
535.03	400.23
535.20	444.70
535.37	379.17
535.54	463.43
535.71	411.93
535.88	486.83
536.05	423.64
536.22	428.32
536.38	376.83
536.55	414.27
536.72	442.36
536.89	425.98
537.06	397.89
537.23	423.64
537.40	400.23
537.57	393.21
537.74	503.22
537.91	451.72
538.08	440.02
538.25	461.09
538.42	402.57
538.59	400.23
538.75	503.22
538.92	425.98
539.09	388.53
539.26	409.59
539.43	463.43
539.60	463.43
539.77	414.27
539.94	437.68
540.11	461.09
540.28	477.47
540.44	418.96
540.61	407.25
540.78	423.64
540.95	423.64
541.12	423.64
541.29	437.68
541.46	447.04
541.62	475.13
541.79	381.51
541.96	454.06
542.13	425.98
542.30	325.33
542.47	411.93
542.63	435.34
542.80	449.38
542.97	374.49
543.14	418.96
543.31	425.98
543.48	383.85
543.64	376.83
543.81	414.27
543.98	374.49
544.15	327.68
544.32	367.46
544.48	421.30
544.65	383.85
544.82	435.34
544.99	428.32
545.16	409.59
545.32	362.78
545.49	435.34
545.66	393.21
545.83	397.89
546.00	379.17
546.16	402.57
546.33	428.32
546.50	435.34
546.67	383.85
546.83	409.59
547.00	442.36
547.17	355.76
547.34	353.42
547.50	379.17
547.67	395.55
547.84	430.66
548.00	449.38
548.17	491.51
548.34	442.36
548.51	447.04
548.67	383.85
548.84	454.06
549.01	437.68
549.18	454.06
549.34	440.02
549.51	491.51
549.68	411.93
549.84	482.15
550.01	472.79
550.18	397.89
550.34	442.36
550.51	421.30
550.68	477.47
550.84	407.25
551.01	428.32
551.18	409.59
551.34	388.53
551.51	433.00
551.68	454.06
551.84	479.81
552.01	449.38
552.18	376.83
552.34	421.30
552.51	414.27
552.68	416.62
552.84	411.93
553.01	421.30
553.18	465.77
553.34	437.68
553.51	423.64
553.67	414.27
553.84	425.98
554.01	425.98
554.17	493.85
554.34	414.27
554.51	442.36
554.67	433.00
554.84	430.66
555.00	418.96
555.17	390.87
555.33	428.32
555.50	456.40
555.67	454.06
555.83	374.49
556.00	376.83
556.16	519.60
556.33	402.57
556.50	308.95
556.66	423.64
556.83	393.21
556.99	437.68
557.16	482.15
557.32	477.47
557.49	430.66
557.65	416.62
557.82	400.23
557.98	484.49
558.15	435.34
558.32	451.72
558.48	423.64
558.65	423.64
558.81	407.25
558.98	365.12
559.14	479.81
559.31	425.98
559.47	407.25
559.64	409.59
559.80	454.06
559.97	433.00
560.13	421.30
560.30	365.12
560.46	461.09
560.63	400.23
560.79	337.04
560.96	365.12
561.12	477.47
561.29	358.10
561.45	454.06
561.61	428.32
561.78	496.19
561.94	435.34
562.11	414.27
562.27	397.89
562.44	360.44
562.60	407.25
562.77	418.96
562.93	500.87
563.10	423.64
563.26	421.30
563.42	421.30
563.59	369.80
563.75	355.76
563.92	456.40
564.08	397.89
564.24	461.09
564.41	475.13
564.57	393.21
564.74	435.34
564.90	360.44
565.07	491.51
565.23	465.77
565.39	386.19
565.56	468.11
565.72	381.51
565.88	404.91
566.05	320.65
566.21	358.10
566.38	428.32
566.54	423.64
566.70	433.00
566.87	341.72
567.03	386.19
567.19	414.27
567.36	409.59
567.52	430.66
567.68	411.93
567.85	437.68
568.01	402.57
568.17	376.83
568.34	372.15
568.50	449.38
568.66	430.66
568.83	498.53
568.99	411.93
569.15	500.87
569.32	411.93
569.48	454.06
569.64	397.89
569.81	418.96
569.97	447.04
570.13	416.62
570.30	402.57
570.46	465.77
570.62	482.15
570.78	491.51
570.95	400.23
571.11	470.45
571.27	451.72
571.43	346.40
571.60	404.91
571.76	479.81
571.92	409.59
572.09	416.62
572.25	435.34
572.41	376.83
572.57	418.96
572.74	421.30
572.90	395.55
573.06	463.43
573.22	395.55
573.38	472.79
573.55	400.23
573.71	444.70
573.87	407.25
574.03	404.91
574.20	458.74
574.36	472.79
574.52	458.74
574.68	440.02
574.84	433.00
575.01	500.87
575.17	381.51
575.33	400.23
575.49	461.09
575.65	397.89
575.82	458.74
575.98	430.66
576.14	381.51
576.30	470.45
576.46	404.91
576.62	322.99
576.79	482.15
576.95	451.72
577.11	435.34
577.27	425.98
577.43	482.15
577.59	390.87
577.75	393.21
577.92	423.64
578.08	376.83
578.24	404.91
578.40	461.09
578.56	425.98
578.72	428.32
578.88	435.34
579.04	484.49
579.21	444.70
579.37	365.12
579.53	404.91
579.69	425.98
579.85	468.11
580.01	454.06
580.17	362.78
580.33	414.27
580.49	482.15
580.65	482.15
580.82	489.17
580.98	346.40
581.14	416.62
581.30	414.27
581.46	404.91
581.62	505.56
581.78	444.70
581.94	430.66
582.10	388.53
582.26	390.87
582.42	451.72
582.58	390.87
582.74	458.74
582.90	447.04
583.06	486.83
583.22	444.70
583.38	454.06
583.54	379.17
583.70	386.19
583.86	423.64
584.02	435.34
584.18	449.38
584.34	496.19
584.50	477.47
584.66	444.70
584.82	423.64
584.98	454.06
585.14	416.62
585.30	486.83
585.46	454.06
585.62	360.44
585.78	379.17
585.94	451.72
586.10	409.59
586.26	437.68
586.42	409.59
586.58	409.59
586.74	421.30
586.90	402.57
587.06	397.89
587.22	463.43
587.38	402.57
587.54	388.53
587.70	376.83
587.86	482.15
588.02	376.83
588.18	400.23
588.34	393.21
588.49	348.74
588.65	379.17
588.81	423.64
588.97	414.27
589.13	475.13
589.29	465.77
589.45	421.30
589.61	465.77
589.77	475.13
589.93	454.06
590.08	390.87
590.24	447.04
590.40	360.44
590.56	454.06
590.72	400.23
590.88	437.68
591.04	442.36
591.20	386.19
591.35	433.00
591.51	348.74
591.67	346.40
591.83	435.34
591.99	423.64
592.15	388.53
592.31	355.76
592.46	449.38
592.62	519.60
592.78	416.62
592.94	393.21
593.10	397.89
593.26	360.44
593.41	414.27
593.57	416.62
593.73	456.40
593.89	402.57
594.05	437.68
594.20	402.57
594.36	386.19
594.52	393.21
594.68	400.23
594.84	482.15
594.99	437.68
595.15	430.66
595.31	447.04
595.47	491.51
595.62	454.06
595.78	472.79
595.94	425.98
596.10	369.80
596.25	463.43
596.41	463.43
596.57	381.51
596.73	425.98
596.88	402.57
597.04	383.85
597.20	372.15
597.36	477.47
597.51	470.45
597.67	463.43
597.83	379.17
597.99	435.34
598.14	454.06
598.30	409.59
598.46	369.80
598.61	393.21
598.77	423.64
598.93	428.32
599.09	397.89
599.24	433.00
599.40	458.74
599.56	491.51
599.71	437.68
599.87	451.72
600.03	390.87
600.18	416.62
600.34	425.98
600.50	428.32
600.65	421.30
600.81	421.30
600.97	421.30
601.12	451.72
601.28	430.66
601.44	428.32
601.59	404.91
601.75	404.91
601.91	416.62
602.06	423.64
602.22	449.38
602.37	372.15
602.53	395.55
602.69	454.06
602.84	372.15
603.00	440.02
603.16	414.27
603.31	454.06
603.47	482.15
603.62	414.27
603.78	407.25
603.94	433.00
604.09	358.10
604.25	365.12
604.40	393.21
604.56	451.72
604.71	337.04
604.87	468.11
605.03	442.36
605.18	451.72
605.34	477.47
605.49	440.02
605.65	348.74
605.80	447.04
605.96	437.68
606.12	437.68
606.27	402.57
606.43	418.96
606.58	407.25
606.74	449.38
606.89	468.11
607.05	402.57
607.20	444.70
607.36	500.87
607.51	451.72
607.67	400.23
607.82	381.51
607.98	456.40
608.13	416.62
608.29	416.62
608.44	484.49
608.60	465.77
608.75	463.43
608.91	440.02
609.06	484.49
609.22	407.25
609.37	376.83
609.53	418.96
609.68	393.21
609.84	393.21
609.99	330.02
610.15	423.64
