SpectraSuite Data File
++++++++++++++++++++++++++++++++++++
Date: Fri Oct 25 12:10:41 EDT 2013
User: price-jones
Dark Spectrum Present: No
Reference Spectrum Present: No
Number of Sampled Component Spectra: 1
Spectrometers: USB2+H05261
Integration Time (usec): 100000 (USB2+H05261)
Spectra Averaged: 1 (USB2+H05261)
Boxcar Smoothing: 0 (USB2+H05261)
Correct for Electrical Dark: No (USB2+H05261)
Strobe/Lamp Enabled: No (USB2+H05261)
Correct for Detector Non-linearity: No (USB2+H05261)
Correct for Stray Light: No (USB2+H05261)
Number of Pixels in Processed Spectrum: 2048
>>>>>Begin Processed Spectral Data<<<<<
365.73	322.99
365.92	322.99
366.12	322.99
366.32	259.80
366.52	250.44
366.72	280.86
366.91	280.86
367.11	210.65
367.31	182.56
367.51	255.12
367.70	313.63
367.90	250.44
368.10	131.07
368.30	292.57
368.49	248.10
368.69	306.61
368.89	212.99
369.09	222.35
369.28	250.44
369.48	255.12
369.68	194.26
369.87	287.89
370.07	369.80
370.27	259.80
370.47	290.23
370.66	285.55
370.86	381.51
371.06	418.96
371.25	386.19
371.45	334.70
371.65	344.06
371.84	358.10
372.04	339.38
372.24	416.62
372.44	379.17
372.63	358.10
372.83	320.65
373.03	294.91
373.22	428.32
373.42	414.27
373.62	470.45
373.81	414.27
374.01	500.87
374.21	435.34
374.40	402.57
374.60	407.25
374.79	484.49
374.99	458.74
375.19	423.64
375.38	433.00
375.58	468.11
375.78	482.15
375.97	437.68
376.17	440.02
376.37	428.32
376.56	404.91
376.76	407.25
376.95	449.38
377.15	372.15
377.35	428.32
377.54	430.66
377.74	461.09
377.93	369.80
378.13	383.85
378.33	411.93
378.52	442.36
378.72	393.21
378.91	374.49
379.11	421.30
379.31	402.57
379.50	393.21
379.70	395.55
379.89	491.51
380.09	409.59
380.28	404.91
380.48	337.04
380.68	369.80
380.87	379.17
381.07	360.44
381.26	447.04
381.46	348.74
381.65	486.83
381.85	372.15
382.04	379.17
382.24	458.74
382.43	465.77
382.63	463.43
382.83	407.25
383.02	379.17
383.22	376.83
383.41	416.62
383.61	400.23
383.80	383.85
384.00	402.57
384.19	383.85
384.39	369.80
384.58	376.83
384.78	421.30
384.97	437.68
385.17	465.77
385.36	337.04
385.56	461.09
385.75	372.15
385.95	397.89
386.14	451.72
386.34	409.59
386.53	407.25
386.72	386.19
386.92	369.80
387.11	400.23
387.31	433.00
387.50	395.55
387.70	397.89
387.89	414.27
388.09	367.46
388.28	407.25
388.48	407.25
388.67	437.68
388.86	430.66
389.06	433.00
389.25	395.55
389.45	402.57
389.64	365.12
389.84	428.32
390.03	468.11
390.22	409.59
390.42	346.40
390.61	383.85
390.81	374.49
391.00	308.95
391.19	437.68
391.39	433.00
391.58	397.89
391.78	465.77
391.97	409.59
392.16	334.70
392.36	449.38
392.55	489.17
392.75	437.68
392.94	397.89
393.13	451.72
393.33	402.57
393.52	346.40
393.71	442.36
393.91	449.38
394.10	297.25
394.29	381.51
394.49	402.57
394.68	435.34
394.88	444.70
395.07	407.25
395.26	369.80
395.46	430.66
395.65	437.68
395.84	423.64
396.04	355.76
396.23	425.98
396.42	416.62
396.62	414.27
396.81	397.89
397.00	447.04
397.19	379.17
397.39	447.04
397.58	482.15
397.77	437.68
397.97	435.34
398.16	451.72
398.35	376.83
398.55	365.12
398.74	444.70
398.93	365.12
399.12	334.70
399.32	346.40
399.51	358.10
399.70	421.30
399.90	400.23
400.09	433.00
400.28	461.09
400.47	379.17
400.67	393.21
400.86	430.66
401.05	447.04
401.24	348.74
401.44	327.68
401.63	449.38
401.82	374.49
402.01	379.17
402.21	449.38
402.40	414.27
402.59	404.91
402.78	395.55
402.97	421.30
403.17	423.64
403.36	468.11
403.55	454.06
403.74	461.09
403.93	444.70
404.13	496.19
404.32	383.85
404.51	407.25
404.70	418.96
404.89	369.80
405.09	388.53
405.28	447.04
405.47	390.87
405.66	409.59
405.85	465.77
406.05	447.04
406.24	395.55
406.43	374.49
406.62	346.40
406.81	418.96
407.00	404.91
407.20	369.80
407.39	341.72
407.58	388.53
407.77	383.85
407.96	407.25
408.15	440.02
408.34	386.19
408.54	360.44
408.73	358.10
408.92	365.12
409.11	337.04
409.30	425.98
409.49	381.51
409.68	425.98
409.87	390.87
410.07	397.89
410.26	395.55
410.45	372.15
410.64	376.83
410.83	479.81
411.02	414.27
411.21	386.19
411.40	418.96
411.59	369.80
411.78	374.49
411.98	351.08
412.17	411.93
412.36	395.55
412.55	381.51
412.74	376.83
412.93	400.23
413.12	341.72
413.31	435.34
413.50	458.74
413.69	351.08
413.88	353.42
414.07	393.21
414.26	477.47
414.45	379.17
414.64	416.62
414.83	402.57
415.02	374.49
415.22	440.02
415.41	383.85
415.60	404.91
415.79	367.46
415.98	388.53
416.17	409.59
416.36	428.32
416.55	416.62
416.74	379.17
416.93	409.59
417.12	407.25
417.31	362.78
417.50	362.78
417.69	390.87
417.88	435.34
418.07	395.55
418.26	355.76
418.45	383.85
418.64	416.62
418.83	318.31
419.02	362.78
419.21	402.57
419.39	404.91
419.58	400.23
419.77	433.00
419.96	477.47
420.15	449.38
420.34	440.02
420.53	404.91
420.72	489.17
420.91	465.77
421.10	379.17
421.29	388.53
421.48	353.42
421.67	395.55
421.86	383.85
422.05	407.25
422.24	433.00
422.43	374.49
422.61	372.15
422.80	383.85
422.99	407.25
423.18	374.49
423.37	400.23
423.56	348.74
423.75	407.25
423.94	348.74
424.13	365.12
424.32	423.64
424.50	416.62
424.69	390.87
424.88	388.53
425.07	404.91
425.26	437.68
425.45	353.42
425.64	425.98
425.83	404.91
426.01	425.98
426.20	327.68
426.39	433.00
426.58	402.57
426.77	344.06
426.96	365.12
427.15	437.68
427.33	430.66
427.52	390.87
427.71	390.87
427.90	409.59
428.09	372.15
428.28	360.44
428.46	451.72
428.65	383.85
428.84	437.68
429.03	440.02
429.22	451.72
429.40	451.72
429.59	381.51
429.78	416.62
429.97	351.08
430.16	381.51
430.34	407.25
430.53	397.89
430.72	360.44
430.91	468.11
431.10	393.21
431.28	402.57
431.47	362.78
431.66	414.27
431.85	381.51
432.03	381.51
432.22	461.09
432.41	372.15
432.60	365.12
432.79	337.04
432.97	407.25
433.16	418.96
433.35	411.93
433.54	395.55
433.72	458.74
433.91	479.81
434.10	437.68
434.28	344.06
434.47	421.30
434.66	414.27
434.85	458.74
435.03	358.10
435.22	428.32
435.41	409.59
435.59	404.91
435.78	393.21
435.97	386.19
436.16	358.10
436.34	423.64
436.53	379.17
436.72	416.62
436.90	475.13
437.09	400.23
437.28	418.96
437.46	435.34
437.65	447.04
437.84	425.98
438.02	465.77
438.21	454.06
438.40	386.19
438.58	386.19
438.77	425.98
438.96	428.32
439.14	367.46
439.33	428.32
439.52	456.40
439.70	411.93
439.89	423.64
440.08	496.19
440.26	444.70
440.45	463.43
440.63	416.62
440.82	407.25
441.01	404.91
441.19	360.44
441.38	414.27
441.57	362.78
441.75	355.76
441.94	475.13
442.12	407.25
442.31	435.34
442.50	414.27
442.68	444.70
442.87	414.27
443.05	404.91
443.24	388.53
443.43	423.64
443.61	496.19
443.80	397.89
443.98	451.72
444.17	351.08
444.35	362.78
444.54	437.68
444.73	451.72
444.91	381.51
445.10	379.17
445.28	325.33
445.47	409.59
445.65	353.42
445.84	365.12
446.02	416.62
446.21	423.64
446.39	355.76
446.58	416.62
446.77	404.91
446.95	423.64
447.14	372.15
447.32	423.64
447.51	444.70
447.69	414.27
447.88	484.49
448.06	409.59
448.25	379.17
448.43	425.98
448.62	458.74
448.80	433.00
448.99	381.51
449.17	369.80
449.36	425.98
449.54	407.25
449.73	376.83
449.91	458.74
450.10	409.59
450.28	449.38
450.46	463.43
450.65	489.17
450.83	447.04
451.02	454.06
451.20	451.72
451.39	362.78
451.57	376.83
451.76	374.49
451.94	430.66
452.13	416.62
452.31	468.11
452.49	416.62
452.68	409.59
452.86	411.93
453.05	458.74
453.23	346.40
453.42	423.64
453.60	414.27
453.78	472.79
453.97	365.12
454.15	404.91
454.34	367.46
454.52	430.66
454.70	409.59
454.89	482.15
455.07	372.15
455.26	376.83
455.44	313.63
455.62	344.06
455.81	397.89
455.99	393.21
456.17	397.89
456.36	400.23
456.54	402.57
456.73	454.06
456.91	444.70
457.09	456.40
457.28	463.43
457.46	386.19
457.64	440.02
457.83	407.25
458.01	407.25
458.19	425.98
458.38	435.34
458.56	351.08
458.74	435.34
458.93	376.83
459.11	390.87
459.29	379.17
459.48	416.62
459.66	409.59
459.84	418.96
460.03	449.38
460.21	491.51
460.39	433.00
460.57	365.12
460.76	421.30
460.94	379.17
461.12	479.81
461.31	458.74
461.49	351.08
461.67	348.74
461.85	411.93
462.04	416.62
462.22	788.76
462.40	440.02
462.59	372.15
462.77	390.87
462.95	409.59
463.13	367.46
463.32	454.06
463.50	435.34
463.68	444.70
463.86	430.66
464.05	404.91
464.23	374.49
464.41	369.80
464.59	402.57
464.78	404.91
464.96	425.98
465.14	416.62
465.32	397.89
465.50	451.72
465.69	381.51
465.87	390.87
466.05	379.17
466.23	416.62
466.41	425.98
466.60	409.59
466.78	484.49
466.96	435.34
467.14	433.00
467.32	440.02
467.51	416.62
467.69	418.96
467.87	512.58
468.05	402.57
468.23	435.34
468.41	463.43
468.60	400.23
468.78	475.13
468.96	454.06
469.14	468.11
469.32	421.30
469.50	390.87
469.69	442.36
469.87	407.25
470.05	404.91
470.23	425.98
470.41	334.70
470.59	416.62
470.77	449.38
470.95	409.59
471.14	416.62
471.32	430.66
471.50	482.15
471.68	447.04
471.86	360.44
472.04	367.46
472.22	360.44
472.40	381.51
472.58	374.49
472.77	360.44
472.95	411.93
473.13	454.06
473.31	414.27
473.49	404.91
473.67	421.30
473.85	390.87
474.03	388.53
474.21	416.62
474.39	451.72
474.57	390.87
474.75	411.93
474.93	425.98
475.12	355.76
475.30	428.32
475.48	456.40
475.66	407.25
475.84	404.91
476.02	390.87
476.20	383.85
476.38	421.30
476.56	451.72
476.74	404.91
476.92	337.04
477.10	444.70
477.28	395.55
477.46	458.74
477.64	437.68
477.82	414.27
478.00	334.70
478.18	447.04
478.36	425.98
478.54	341.72
478.72	376.83
478.90	376.83
479.08	437.68
479.26	435.34
479.44	372.15
479.62	355.76
479.80	400.23
479.98	367.46
480.16	416.62
480.34	409.59
480.52	433.00
480.70	428.32
480.88	458.74
481.06	440.02
481.24	440.02
481.41	416.62
481.59	369.80
481.77	404.91
481.95	381.51
482.13	409.59
482.31	411.93
482.49	475.13
482.67	425.98
482.85	414.27
483.03	428.32
483.21	402.57
483.39	416.62
483.57	339.38
483.74	507.90
483.92	449.38
484.10	395.55
484.28	425.98
484.46	484.49
484.64	400.23
484.82	407.25
485.00	430.66
485.18	374.49
485.35	306.61
485.53	374.49
485.71	475.13
485.89	421.30
486.07	351.08
486.25	456.40
486.43	451.72
486.61	388.53
486.78	372.15
486.96	327.68
487.14	374.49
487.32	386.19
487.50	395.55
487.68	475.13
487.85	388.53
488.03	369.80
488.21	433.00
488.39	407.25
488.57	400.23
488.75	372.15
488.92	517.26
489.10	418.96
489.28	383.85
489.46	440.02
489.64	416.62
489.81	442.36
489.99	383.85
490.17	348.74
490.35	433.00
490.53	379.17
490.70	440.02
490.88	423.64
491.06	351.08
491.24	402.57
491.41	428.32
491.59	395.55
491.77	351.08
491.95	465.77
492.13	402.57
492.30	451.72
492.48	332.36
492.66	430.66
492.84	421.30
493.01	402.57
493.19	376.83
493.37	482.15
493.54	442.36
493.72	456.40
493.90	435.34
494.08	428.32
494.25	444.70
494.43	435.34
494.61	468.11
494.79	442.36
494.96	386.19
495.14	482.15
495.32	402.57
495.49	421.30
495.67	470.45
495.85	395.55
496.02	325.33
496.20	416.62
496.38	449.38
496.55	409.59
496.73	456.40
496.91	395.55
497.09	376.83
497.26	397.89
497.44	409.59
497.62	407.25
497.79	369.80
497.97	421.30
498.14	496.19
498.32	351.08
498.50	381.51
498.67	428.32
498.85	381.51
499.03	423.64
499.20	388.53
499.38	337.04
499.56	355.76
499.73	435.34
499.91	475.13
500.08	449.38
500.26	337.04
500.44	440.02
500.61	442.36
500.79	421.30
500.97	346.40
501.14	440.02
501.32	444.70
501.49	444.70
501.67	404.91
501.84	425.98
502.02	444.70
502.20	472.79
502.37	456.40
502.55	393.21
502.72	468.11
502.90	414.27
503.07	376.83
503.25	404.91
503.43	470.45
503.60	367.46
503.78	395.55
503.95	365.12
504.13	468.11
504.30	414.27
504.48	344.06
504.65	442.36
504.83	437.68
505.01	423.64
505.18	402.57
505.36	421.30
505.53	421.30
505.71	423.64
505.88	437.68
506.06	418.96
506.23	416.62
506.41	397.89
506.58	433.00
506.76	369.80
506.93	362.78
507.11	369.80
507.28	353.42
507.46	386.19
507.63	418.96
507.81	407.25
507.98	402.57
508.16	372.15
508.33	390.87
508.50	444.70
508.68	444.70
508.85	456.40
509.03	430.66
509.20	418.96
509.38	505.56
509.55	421.30
509.73	454.06
509.90	458.74
510.08	425.98
510.25	348.74
510.42	372.15
510.60	421.30
510.77	435.34
510.95	470.45
511.12	449.38
511.30	442.36
511.47	465.77
511.64	428.32
511.82	369.80
511.99	458.74
512.17	369.80
512.34	409.59
512.51	365.12
512.69	402.57
512.86	472.79
513.04	449.38
513.21	390.87
513.38	414.27
513.56	360.44
513.73	491.51
513.90	425.98
514.08	393.21
514.25	411.93
514.43	428.32
514.60	381.51
514.77	433.00
514.95	411.93
515.12	362.78
515.29	470.45
515.47	379.17
515.64	454.06
515.81	444.70
515.99	430.66
516.16	416.62
516.33	407.25
516.51	428.32
516.68	491.51
516.85	477.47
517.03	451.72
517.20	411.93
517.37	395.55
517.54	456.40
517.72	454.06
517.89	418.96
518.06	404.91
518.24	475.13
518.41	386.19
518.58	414.27
518.75	458.74
518.93	367.46
519.10	475.13
519.27	451.72
519.45	388.53
519.62	418.96
519.79	428.32
519.96	390.87
520.14	393.21
520.31	421.30
520.48	447.04
520.65	458.74
520.83	374.49
521.00	418.96
521.17	433.00
521.34	395.55
521.52	381.51
521.69	365.12
521.86	344.06
522.03	449.38
522.20	442.36
522.38	397.89
522.55	414.27
522.72	437.68
522.89	414.27
523.07	491.51
523.24	430.66
523.41	411.93
523.58	383.85
523.75	381.51
523.92	379.17
524.10	440.02
524.27	397.89
524.44	404.91
524.61	493.85
524.78	353.42
524.96	393.21
525.13	435.34
525.30	402.57
525.47	421.30
525.64	407.25
525.81	521.94
525.98	407.25
526.16	409.59
526.33	447.04
526.50	470.45
526.67	372.15
526.84	404.91
527.01	351.08
527.18	416.62
527.36	402.57
527.53	355.76
527.70	437.68
527.87	402.57
528.04	463.43
528.21	379.17
528.38	435.34
528.55	425.98
528.72	418.96
528.89	388.53
529.07	402.57
529.24	421.30
529.41	477.47
529.58	435.34
529.75	428.32
529.92	461.09
530.09	407.25
530.26	421.30
530.43	376.83
530.60	360.44
530.77	444.70
530.94	416.62
531.11	409.59
531.28	386.19
531.46	423.64
531.63	409.59
531.80	486.83
531.97	442.36
532.14	430.66
532.31	418.96
532.48	435.34
532.65	376.83
532.82	444.70
532.99	435.34
533.16	411.93
533.33	374.49
533.50	383.85
533.67	416.62
533.84	397.89
534.01	451.72
534.18	461.09
534.35	451.72
534.52	362.78
534.69	418.96
534.86	421.30
535.03	388.53
535.20	409.59
535.37	514.92
535.54	451.72
535.71	454.06
535.88	390.87
536.05	383.85
536.22	416.62
536.38	428.32
536.55	360.44
536.72	425.98
536.89	388.53
537.06	344.06
537.23	355.76
537.40	344.06
537.57	390.87
537.74	402.57
537.91	407.25
538.08	425.98
538.25	411.93
538.42	409.59
538.59	444.70
538.75	379.17
538.92	407.25
539.09	416.62
539.26	388.53
539.43	456.40
539.60	486.83
539.77	416.62
539.94	390.87
540.11	402.57
540.28	454.06
540.44	393.21
540.61	388.53
540.78	390.87
540.95	404.91
541.12	411.93
541.29	421.30
541.46	440.02
541.62	395.55
541.79	433.00
541.96	386.19
542.13	454.06
542.30	411.93
542.47	428.32
542.63	423.64
542.80	388.53
542.97	395.55
543.14	414.27
543.31	404.91
543.48	425.98
543.64	386.19
543.81	414.27
543.98	465.77
544.15	416.62
544.32	365.12
544.48	334.70
544.65	379.17
544.82	430.66
544.99	435.34
545.16	421.30
545.32	435.34
545.49	369.80
545.66	358.10
545.83	395.55
546.00	425.98
546.16	430.66
546.33	393.21
546.50	379.17
546.67	369.80
546.83	435.34
547.00	393.21
547.17	404.91
547.34	362.78
547.50	404.91
547.67	411.93
547.84	353.42
548.00	404.91
548.17	425.98
548.34	393.21
548.51	444.70
548.67	414.27
548.84	472.79
549.01	461.09
549.18	395.55
549.34	454.06
549.51	444.70
549.68	435.34
549.84	362.78
550.01	388.53
550.18	468.11
550.34	479.81
550.51	444.70
550.68	433.00
550.84	414.27
551.01	416.62
551.18	372.15
551.34	362.78
551.51	418.96
551.68	435.34
551.84	486.83
552.01	430.66
552.18	440.02
552.34	423.64
552.51	362.78
552.68	472.79
552.84	365.12
553.01	447.04
553.18	489.17
553.34	477.47
553.51	416.62
553.67	414.27
553.84	442.36
554.01	416.62
554.17	491.51
554.34	416.62
554.51	472.79
554.67	400.23
554.84	512.58
555.00	407.25
555.17	395.55
555.33	489.17
555.50	407.25
555.67	404.91
555.83	404.91
556.00	442.36
556.16	498.53
556.33	486.83
556.50	418.96
556.66	374.49
556.83	411.93
556.99	416.62
557.16	404.91
557.32	440.02
557.49	442.36
557.65	383.85
557.82	407.25
557.98	411.93
558.15	428.32
558.32	421.30
558.48	409.59
558.65	418.96
558.81	479.81
558.98	470.45
559.14	433.00
559.31	404.91
559.47	500.87
559.64	388.53
559.80	425.98
559.97	374.49
560.13	449.38
560.30	379.17
560.46	449.38
560.63	435.34
560.79	339.38
560.96	379.17
561.12	351.08
561.29	454.06
561.45	465.77
561.61	444.70
561.78	498.53
561.94	437.68
562.11	470.45
562.27	372.15
562.44	409.59
562.60	447.04
562.77	463.43
562.93	388.53
563.10	395.55
563.26	433.00
563.42	437.68
563.59	461.09
563.75	416.62
563.92	493.85
564.08	379.17
564.24	421.30
564.41	374.49
564.57	374.49
564.74	433.00
564.90	444.70
565.07	416.62
565.23	407.25
565.39	388.53
565.56	428.32
565.72	386.19
565.88	435.34
566.05	367.46
566.21	358.10
566.38	404.91
566.54	435.34
566.70	358.10
566.87	470.45
567.03	458.74
567.19	454.06
567.36	381.51
567.52	461.09
567.68	409.59
567.85	395.55
568.01	430.66
568.17	386.19
568.34	449.38
568.50	409.59
568.66	449.38
568.83	533.64
568.99	433.00
569.15	411.93
569.32	437.68
569.48	414.27
569.64	379.17
569.81	393.21
569.97	414.27
570.13	454.06
570.30	409.59
570.46	430.66
570.62	458.74
570.78	393.21
570.95	360.44
571.11	505.56
571.27	411.93
571.43	353.42
571.60	374.49
571.76	390.87
571.92	440.02
572.09	435.34
572.25	428.32
572.41	325.33
572.57	416.62
572.74	482.15
572.90	472.79
573.06	468.11
573.22	416.62
573.38	404.91
573.55	449.38
573.71	388.53
573.87	409.59
574.03	355.76
574.20	409.59
574.36	407.25
574.52	437.68
574.68	374.49
574.84	397.89
575.01	416.62
575.17	425.98
575.33	458.74
575.49	456.40
575.65	463.43
575.82	479.81
575.98	498.53
576.14	372.15
576.30	409.59
576.46	386.19
576.62	444.70
576.79	451.72
576.95	397.89
577.11	367.46
577.27	395.55
577.43	496.19
577.59	381.51
577.75	390.87
577.92	451.72
578.08	440.02
578.24	416.62
578.40	437.68
578.56	423.64
578.72	498.53
578.88	456.40
579.04	386.19
579.21	433.00
579.37	418.96
579.53	442.36
579.69	437.68
579.85	404.91
580.01	433.00
580.17	402.57
580.33	409.59
580.49	433.00
580.65	376.83
580.82	355.76
580.98	414.27
581.14	447.04
581.30	454.06
581.46	440.02
581.62	454.06
581.78	454.06
581.94	454.06
582.10	339.38
582.26	407.25
582.42	400.23
582.58	430.66
582.74	423.64
582.90	428.32
583.06	430.66
583.22	458.74
583.38	358.10
583.54	416.62
583.70	437.68
583.86	404.91
584.02	351.08
584.18	416.62
584.34	416.62
584.50	393.21
584.66	395.55
584.82	395.55
584.98	475.13
585.14	451.72
585.30	496.19
585.46	468.11
585.62	440.02
585.78	390.87
585.94	486.83
586.10	374.49
586.26	393.21
586.42	479.81
586.58	514.92
586.74	397.89
586.90	404.91
587.06	440.02
587.22	425.98
587.38	465.77
587.54	393.21
587.70	500.87
587.86	493.85
588.02	416.62
588.18	386.19
588.34	418.96
588.49	416.62
588.65	416.62
588.81	381.51
588.97	418.96
589.13	423.64
589.29	442.36
589.45	444.70
589.61	360.44
589.77	320.65
589.93	433.00
590.08	376.83
590.24	386.19
590.40	475.13
590.56	535.98
590.72	397.89
590.88	390.87
591.04	435.34
591.20	407.25
591.35	475.13
591.51	365.12
591.67	472.79
591.83	416.62
591.99	416.62
592.15	423.64
592.31	383.85
592.46	301.93
592.62	397.89
592.78	390.87
592.94	447.04
593.10	400.23
593.26	433.00
593.41	430.66
593.57	376.83
593.73	421.30
593.89	451.72
594.05	383.85
594.20	409.59
594.36	475.13
594.52	383.85
594.68	430.66
594.84	479.81
594.99	444.70
595.15	444.70
595.31	376.83
595.47	486.83
595.62	449.38
595.78	372.15
595.94	372.15
596.10	433.00
596.25	404.91
596.41	418.96
596.57	425.98
596.73	454.06
596.88	430.66
597.04	442.36
597.20	425.98
597.36	458.74
597.51	315.97
597.67	407.25
597.83	437.68
597.99	461.09
598.14	386.19
598.30	428.32
598.46	332.36
598.61	442.36
598.77	409.59
598.93	454.06
599.09	395.55
599.24	458.74
599.40	465.77
599.56	383.85
599.71	299.59
599.87	414.27
600.03	383.85
600.18	381.51
600.34	425.98
600.50	411.93
600.65	407.25
600.81	449.38
600.97	346.40
601.12	388.53
601.28	334.70
601.44	430.66
601.59	400.23
601.75	421.30
601.91	433.00
602.06	447.04
602.22	500.87
602.37	421.30
602.53	472.79
602.69	376.83
602.84	388.53
603.00	440.02
603.16	416.62
603.31	477.47
603.47	482.15
603.62	388.53
603.78	381.51
603.94	500.87
604.09	360.44
604.25	451.72
604.40	388.53
604.56	433.00
604.71	414.27
604.87	376.83
605.03	430.66
605.18	374.49
605.34	472.79
605.49	421.30
605.65	468.11
605.80	337.04
605.96	421.30
606.12	362.78
606.27	498.53
606.43	358.10
606.58	454.06
606.74	395.55
606.89	470.45
607.05	421.30
607.20	428.32
607.36	468.11
607.51	440.02
607.67	404.91
607.82	433.00
607.98	449.38
608.13	395.55
608.29	444.70
608.44	486.83
608.60	351.08
608.75	369.80
608.91	437.68
609.06	407.25
609.22	437.68
609.37	482.15
609.53	491.51
609.68	440.02
609.84	416.62
609.99	421.30
610.15	369.80
