SpectraSuite Data File
++++++++++++++++++++++++++++++++++++
Date: Fri Oct 25 12:11:06 EDT 2013
User: price-jones
Dark Spectrum Present: No
Reference Spectrum Present: No
Number of Sampled Component Spectra: 1
Spectrometers: USB2+H05261
Integration Time (usec): 100000 (USB2+H05261)
Spectra Averaged: 1 (USB2+H05261)
Boxcar Smoothing: 0 (USB2+H05261)
Correct for Electrical Dark: No (USB2+H05261)
Strobe/Lamp Enabled: No (USB2+H05261)
Correct for Detector Non-linearity: No (USB2+H05261)
Correct for Stray Light: No (USB2+H05261)
Number of Pixels in Processed Spectrum: 2048
>>>>>Begin Processed Spectral Data<<<<<
365.73	311.29
365.92	311.29
366.12	311.29
366.32	273.84
366.52	238.73
366.72	273.84
366.91	203.63
367.11	238.73
367.31	224.69
367.51	264.48
367.70	285.55
367.90	250.44
368.10	205.97
368.30	227.03
368.49	248.10
368.69	301.93
368.89	285.55
369.09	325.33
369.28	313.63
369.48	220.01
369.68	236.39
369.87	395.55
370.07	318.31
370.27	257.46
370.47	365.12
370.66	320.65
370.86	341.72
371.06	360.44
371.25	379.17
371.45	369.80
371.65	355.76
371.84	304.27
372.04	397.89
372.24	358.10
372.44	388.53
372.63	332.36
372.83	425.98
373.03	425.98
373.22	395.55
373.42	425.98
373.62	383.85
373.81	423.64
374.01	505.56
374.21	458.74
374.40	369.80
374.60	381.51
374.79	407.25
374.99	393.21
375.19	447.04
375.38	468.11
375.58	376.83
375.78	458.74
375.97	425.98
376.17	442.36
376.37	454.06
376.56	486.83
376.76	416.62
376.95	444.70
377.15	510.24
377.35	397.89
377.54	404.91
377.74	388.53
377.93	315.97
378.13	344.06
378.33	442.36
378.52	411.93
378.72	416.62
378.91	386.19
379.11	409.59
379.31	365.12
379.50	388.53
379.70	491.51
379.89	421.30
380.09	362.78
380.28	372.15
380.48	388.53
380.68	416.62
380.87	362.78
381.07	346.40
381.26	411.93
381.46	339.38
381.65	463.43
381.85	407.25
382.04	351.08
382.24	430.66
382.43	409.59
382.63	390.87
382.83	379.17
383.02	451.72
383.22	435.34
383.41	404.91
383.61	353.42
383.80	442.36
384.00	355.76
384.19	461.09
384.39	465.77
384.58	421.30
384.78	454.06
384.97	393.21
385.17	421.30
385.36	407.25
385.56	465.77
385.75	348.74
385.95	421.30
386.14	470.45
386.34	433.00
386.53	379.17
386.72	355.76
386.92	376.83
387.11	456.40
387.31	437.68
387.50	461.09
387.70	454.06
387.89	463.43
388.09	386.19
388.28	461.09
388.48	355.76
388.67	435.34
388.86	418.96
389.06	395.55
389.25	475.13
389.45	383.85
389.64	423.64
389.84	400.23
390.03	407.25
390.22	367.46
390.42	442.36
390.61	353.42
390.81	468.11
391.00	386.19
391.19	447.04
391.39	402.57
391.58	374.49
391.78	447.04
391.97	383.85
392.16	346.40
392.36	463.43
392.55	425.98
392.75	458.74
392.94	423.64
393.13	421.30
393.33	428.32
393.52	458.74
393.71	421.30
393.91	365.12
394.10	433.00
394.29	386.19
394.49	332.36
394.68	442.36
394.88	425.98
395.07	404.91
395.26	402.57
395.46	447.04
395.65	390.87
395.84	395.55
396.04	472.79
396.23	423.64
396.42	379.17
396.62	402.57
396.81	442.36
397.00	444.70
397.19	379.17
397.39	442.36
397.58	451.72
397.77	374.49
397.97	442.36
398.16	435.34
398.35	386.19
398.55	451.72
398.74	407.25
398.93	390.87
399.12	468.11
399.32	433.00
399.51	449.38
399.70	430.66
399.90	355.76
400.09	369.80
400.28	444.70
400.47	393.21
400.67	416.62
400.86	388.53
401.05	425.98
401.24	409.59
401.44	341.72
401.63	486.83
401.82	393.21
402.01	351.08
402.21	428.32
402.40	351.08
402.59	369.80
402.78	437.68
402.97	416.62
403.17	444.70
403.36	339.38
403.55	414.27
403.74	458.74
403.93	423.64
404.13	358.10
404.32	447.04
404.51	456.40
404.70	416.62
404.89	444.70
405.09	470.45
405.28	491.51
405.47	374.49
405.66	418.96
405.85	468.11
406.05	440.02
406.24	369.80
406.43	449.38
406.62	374.49
406.81	451.72
407.00	430.66
407.20	372.15
407.39	337.04
407.58	362.78
407.77	465.77
407.96	435.34
408.15	475.13
408.34	437.68
408.54	383.85
408.73	447.04
408.92	334.70
409.11	376.83
409.30	423.64
409.49	425.98
409.68	372.15
409.87	379.17
410.07	465.77
410.26	463.43
410.45	369.80
410.64	423.64
410.83	409.59
411.02	365.12
411.21	407.25
411.40	442.36
411.59	435.34
411.78	362.78
411.98	468.11
412.17	344.06
412.36	442.36
412.55	411.93
412.74	346.40
412.93	489.17
413.12	428.32
413.31	451.72
413.50	348.74
413.69	477.47
413.88	433.00
414.07	376.83
414.26	404.91
414.45	416.62
414.64	407.25
414.83	409.59
415.02	524.28
415.22	463.43
415.41	365.12
415.60	318.31
415.79	388.53
415.98	423.64
416.17	428.32
416.36	346.40
416.55	418.96
416.74	344.06
416.93	369.80
417.12	435.34
417.31	456.40
417.50	400.23
417.69	449.38
417.88	388.53
418.07	393.21
418.26	362.78
418.45	407.25
418.64	400.23
418.83	379.17
419.02	379.17
419.21	369.80
419.39	496.19
419.58	397.89
419.77	369.80
419.96	461.09
420.15	393.21
420.34	376.83
420.53	383.85
420.72	482.15
420.91	433.00
421.10	463.43
421.29	433.00
421.48	472.79
421.67	400.23
421.86	437.68
422.05	327.68
422.24	381.51
422.43	456.40
422.61	402.57
422.80	433.00
422.99	372.15
423.18	468.11
423.37	365.12
423.56	374.49
423.75	339.38
423.94	353.42
424.13	369.80
424.32	461.09
424.50	442.36
424.69	489.17
424.88	435.34
425.07	381.51
425.26	390.87
425.45	442.36
425.64	470.45
425.83	365.12
426.01	430.66
426.20	458.74
426.39	444.70
426.58	433.00
426.77	386.19
426.96	425.98
427.15	468.11
427.33	400.23
427.52	414.27
427.71	386.19
427.90	383.85
428.09	465.77
428.28	491.51
428.46	435.34
428.65	372.15
428.84	463.43
429.03	418.96
429.22	435.34
429.40	407.25
429.59	444.70
429.78	407.25
429.97	404.91
430.16	358.10
430.34	372.15
430.53	414.27
430.72	346.40
430.91	433.00
431.10	472.79
431.28	456.40
431.47	341.72
431.66	505.56
431.85	442.36
432.03	397.89
432.22	526.62
432.41	374.49
432.60	425.98
432.79	386.19
432.97	383.85
433.16	365.12
433.35	383.85
433.54	435.34
433.72	454.06
433.91	559.39
434.10	393.21
434.28	433.00
434.47	421.30
434.66	407.25
434.85	416.62
435.03	355.76
435.22	381.51
435.41	397.89
435.59	416.62
435.78	421.30
435.97	407.25
436.16	435.34
436.34	390.87
436.53	353.42
436.72	414.27
436.90	390.87
437.09	379.17
437.28	376.83
437.46	437.68
437.65	430.66
437.84	360.44
438.02	367.46
438.21	507.90
438.40	360.44
438.58	402.57
438.77	444.70
438.96	353.42
439.14	353.42
439.33	400.23
439.52	376.83
439.70	418.96
439.89	379.17
440.08	489.17
440.26	365.12
440.45	330.02
440.63	433.00
440.82	440.02
441.01	348.74
441.19	374.49
441.38	458.74
441.57	360.44
441.75	414.27
441.94	435.34
442.12	425.98
442.31	418.96
442.50	428.32
442.68	418.96
442.87	444.70
443.05	435.34
443.24	463.43
443.43	388.53
443.61	421.30
443.80	390.87
443.98	400.23
444.17	365.12
444.35	491.51
444.54	365.12
444.73	416.62
444.91	451.72
445.10	390.87
445.28	369.80
445.47	416.62
445.65	423.64
445.84	418.96
446.02	430.66
446.21	374.49
446.39	407.25
446.58	400.23
446.77	390.87
446.95	425.98
447.14	442.36
447.32	428.32
447.51	475.13
447.69	360.44
447.88	407.25
448.06	477.47
448.25	425.98
448.43	379.17
448.62	444.70
448.80	404.91
448.99	465.77
449.17	365.12
449.36	393.21
449.54	425.98
449.73	390.87
449.91	337.04
450.10	449.38
450.28	388.53
450.46	423.64
450.65	484.49
450.83	461.09
451.02	440.02
451.20	407.25
451.39	379.17
451.57	341.72
451.76	376.83
451.94	402.57
452.13	407.25
452.31	397.89
452.49	472.79
452.68	372.15
452.86	402.57
453.05	411.93
453.23	491.51
453.42	444.70
453.60	433.00
453.78	421.30
453.97	337.04
454.15	372.15
454.34	456.40
454.52	360.44
454.70	430.66
454.89	428.32
455.07	393.21
455.26	456.40
455.44	407.25
455.62	400.23
455.81	444.70
455.99	381.51
456.17	386.19
456.36	346.40
456.54	397.89
456.73	428.32
456.91	440.02
457.09	428.32
457.28	430.66
457.46	472.79
457.64	390.87
457.83	383.85
458.01	390.87
458.19	470.45
458.38	383.85
458.56	369.80
458.74	379.17
458.93	402.57
459.11	381.51
459.29	360.44
459.48	416.62
459.66	461.09
459.84	456.40
460.03	489.17
460.21	395.55
460.39	484.49
460.57	407.25
460.76	409.59
460.94	390.87
461.12	496.19
461.31	435.34
461.49	393.21
461.67	388.53
461.85	400.23
462.04	411.93
462.22	744.29
462.40	407.25
462.59	477.47
462.77	475.13
462.95	379.17
463.13	381.51
463.32	440.02
463.50	390.87
463.68	379.17
463.86	430.66
464.05	334.70
464.23	418.96
464.41	440.02
464.59	397.89
464.78	407.25
464.96	423.64
465.14	454.06
465.32	458.74
465.50	435.34
465.69	456.40
465.87	402.57
466.05	404.91
466.23	400.23
466.41	411.93
466.60	367.46
466.78	397.89
466.96	489.17
467.14	369.80
467.32	531.30
467.51	442.36
467.69	376.83
467.87	482.15
468.05	447.04
468.23	411.93
468.41	407.25
468.60	390.87
468.78	423.64
468.96	430.66
469.14	383.85
469.32	428.32
469.50	404.91
469.69	386.19
469.87	425.98
470.05	393.21
470.23	416.62
470.41	404.91
470.59	444.70
470.77	393.21
470.95	435.34
471.14	444.70
471.32	407.25
471.50	472.79
471.68	461.09
471.86	404.91
472.04	358.10
472.22	479.81
472.40	404.91
472.58	402.57
472.77	351.08
472.95	409.59
473.13	451.72
473.31	367.46
473.49	416.62
473.67	440.02
473.85	489.17
474.03	376.83
474.21	388.53
474.39	404.91
474.57	461.09
474.75	388.53
474.93	400.23
475.12	322.99
475.30	407.25
475.48	425.98
475.66	383.85
475.84	440.02
476.02	444.70
476.20	397.89
476.38	430.66
476.56	430.66
476.74	428.32
476.92	437.68
477.10	351.08
477.28	433.00
477.46	395.55
477.64	416.62
477.82	341.72
478.00	374.49
478.18	388.53
478.36	379.17
478.54	386.19
478.72	337.04
478.90	465.77
479.08	383.85
479.26	395.55
479.44	402.57
479.62	374.49
479.80	416.62
479.98	379.17
480.16	386.19
480.34	395.55
480.52	383.85
480.70	423.64
480.88	348.74
481.06	362.78
481.24	395.55
481.41	407.25
481.59	360.44
481.77	372.15
481.95	393.21
482.13	463.43
482.31	423.64
482.49	369.80
482.67	404.91
482.85	369.80
483.03	367.46
483.21	355.76
483.39	376.83
483.57	468.11
483.74	472.79
483.92	423.64
484.10	337.04
484.28	486.83
484.46	435.34
484.64	442.36
484.82	416.62
485.00	463.43
485.18	440.02
485.35	301.93
485.53	411.93
485.71	437.68
485.89	393.21
486.07	475.13
486.25	425.98
486.43	414.27
486.61	395.55
486.78	475.13
486.96	386.19
487.14	416.62
487.32	400.23
487.50	397.89
487.68	404.91
487.85	411.93
488.03	425.98
488.21	486.83
488.39	388.53
488.57	451.72
488.75	388.53
488.92	447.04
489.10	435.34
489.28	463.43
489.46	402.57
489.64	409.59
489.81	397.89
489.99	330.02
490.17	451.72
490.35	491.51
490.53	409.59
490.70	395.55
490.88	423.64
491.06	444.70
491.24	367.46
491.41	367.46
491.59	477.47
491.77	372.15
491.95	346.40
492.13	404.91
492.30	465.77
492.48	425.98
492.66	409.59
492.84	393.21
493.01	402.57
493.19	435.34
493.37	437.68
493.54	444.70
493.72	409.59
493.90	428.32
494.08	337.04
494.25	486.83
494.43	411.93
494.61	381.51
494.79	449.38
494.96	372.15
495.14	517.26
495.32	367.46
495.49	444.70
495.67	400.23
495.85	339.38
496.02	414.27
496.20	355.76
496.38	477.47
496.55	468.11
496.73	461.09
496.91	433.00
497.09	390.87
497.26	379.17
497.44	400.23
497.62	451.72
497.79	418.96
497.97	425.98
498.14	362.78
498.32	489.17
498.50	465.77
498.67	407.25
498.85	383.85
499.03	414.27
499.20	421.30
499.38	388.53
499.56	376.83
499.73	437.68
499.91	372.15
500.08	463.43
500.26	421.30
500.44	451.72
500.61	447.04
500.79	461.09
500.97	407.25
501.14	444.70
501.32	351.08
501.49	428.32
501.67	505.56
501.84	449.38
502.02	395.55
502.20	442.36
502.37	416.62
502.55	423.64
502.72	341.72
502.90	390.87
503.07	376.83
503.25	454.06
503.43	379.17
503.60	472.79
503.78	463.43
503.95	402.57
504.13	374.49
504.30	465.77
504.48	461.09
504.65	414.27
504.83	411.93
505.01	442.36
505.18	381.51
505.36	449.38
505.53	362.78
505.71	482.15
505.88	456.40
506.06	395.55
506.23	440.02
506.41	388.53
506.58	451.72
506.76	411.93
506.93	332.36
507.11	353.42
507.28	381.51
507.46	372.15
507.63	402.57
507.81	442.36
507.98	428.32
508.16	433.00
508.33	451.72
508.50	489.17
508.68	433.00
508.85	381.51
509.03	327.68
509.20	433.00
509.38	428.32
509.55	407.25
509.73	409.59
509.90	470.45
510.08	416.62
510.25	430.66
510.42	482.15
510.60	472.79
510.77	381.51
510.95	503.22
511.12	390.87
511.30	409.59
511.47	461.09
511.64	465.77
511.82	367.46
511.99	395.55
512.17	465.77
512.34	383.85
512.51	365.12
512.69	367.46
512.86	416.62
513.04	461.09
513.21	404.91
513.38	428.32
513.56	376.83
513.73	365.12
513.90	351.08
514.08	425.98
514.25	475.13
514.43	411.93
514.60	433.00
514.77	381.51
514.95	407.25
515.12	435.34
515.29	491.51
515.47	479.81
515.64	440.02
515.81	414.27
515.99	472.79
516.16	456.40
516.33	393.21
516.51	463.43
516.68	365.12
516.85	388.53
517.03	383.85
517.20	414.27
517.37	454.06
517.54	369.80
517.72	369.80
517.89	365.12
518.06	433.00
518.24	449.38
518.41	425.98
518.58	458.74
518.75	372.15
518.93	414.27
519.10	435.34
519.27	379.17
519.45	423.64
519.62	360.44
519.79	400.23
519.96	369.80
520.14	465.77
520.31	428.32
520.48	425.98
520.65	379.17
520.83	351.08
521.00	409.59
521.17	397.89
521.34	458.74
521.52	449.38
521.69	444.70
521.86	374.49
522.03	449.38
522.20	543.00
522.38	409.59
522.55	444.70
522.72	440.02
522.89	395.55
523.07	437.68
523.24	414.27
523.41	416.62
523.58	414.27
523.75	444.70
523.92	440.02
524.10	477.47
524.27	468.11
524.44	444.70
524.61	383.85
524.78	414.27
524.96	440.02
525.13	454.06
525.30	475.13
525.47	404.91
525.64	409.59
525.81	477.47
525.98	407.25
526.16	416.62
526.33	383.85
526.50	433.00
526.67	390.87
526.84	393.21
527.01	461.09
527.18	376.83
527.36	390.87
527.53	365.12
527.70	447.04
527.87	472.79
528.04	489.17
528.21	397.89
528.38	435.34
528.55	484.49
528.72	435.34
528.89	512.58
529.07	365.12
529.24	362.78
529.41	416.62
529.58	449.38
529.75	465.77
529.92	404.91
530.09	381.51
530.26	383.85
530.43	418.96
530.60	404.91
530.77	395.55
530.94	425.98
531.11	390.87
531.28	472.79
531.46	411.93
531.63	379.17
531.80	372.15
531.97	397.89
532.14	404.91
532.31	475.13
532.48	484.49
532.65	447.04
532.82	383.85
532.99	517.26
533.16	430.66
533.33	421.30
533.50	376.83
533.67	397.89
533.84	409.59
534.01	454.06
534.18	465.77
534.35	379.17
534.52	425.98
534.69	386.19
534.86	437.68
535.03	433.00
535.20	369.80
535.37	433.00
535.54	400.23
535.71	390.87
535.88	397.89
536.05	393.21
536.22	414.27
536.38	376.83
536.55	407.25
536.72	451.72
536.89	447.04
537.06	421.30
537.23	379.17
537.40	430.66
537.57	416.62
537.74	381.51
537.91	425.98
538.08	402.57
538.25	472.79
538.42	421.30
538.59	339.38
538.75	421.30
538.92	456.40
539.09	498.53
539.26	479.81
539.43	407.25
539.60	498.53
539.77	440.02
539.94	376.83
540.11	461.09
540.28	428.32
540.44	416.62
540.61	369.80
540.78	381.51
540.95	393.21
541.12	433.00
541.29	489.17
541.46	404.91
541.62	383.85
541.79	402.57
541.96	463.43
542.13	444.70
542.30	369.80
542.47	379.17
542.63	362.78
542.80	416.62
542.97	393.21
543.14	433.00
543.31	397.89
543.48	351.08
543.64	402.57
543.81	400.23
543.98	418.96
544.15	393.21
544.32	421.30
544.48	425.98
544.65	376.83
544.82	409.59
544.99	440.02
545.16	348.74
545.32	334.70
545.49	433.00
545.66	369.80
545.83	353.42
546.00	379.17
546.16	346.40
546.33	472.79
546.50	416.62
546.67	379.17
546.83	440.02
547.00	383.85
547.17	470.45
547.34	524.28
547.50	418.96
547.67	463.43
547.84	414.27
548.00	409.59
548.17	440.02
548.34	447.04
548.51	449.38
548.67	472.79
548.84	472.79
549.01	435.34
549.18	411.93
549.34	477.47
549.51	465.77
549.68	435.34
549.84	430.66
550.01	365.12
550.18	468.11
550.34	402.57
550.51	369.80
550.68	440.02
550.84	435.34
551.01	390.87
551.18	402.57
551.34	362.78
551.51	470.45
551.68	365.12
551.84	416.62
552.01	416.62
552.18	411.93
552.34	423.64
552.51	388.53
552.68	428.32
552.84	402.57
553.01	294.91
553.18	472.79
553.34	337.04
553.51	353.42
553.67	388.53
553.84	456.40
554.01	416.62
554.17	425.98
554.34	425.98
554.51	465.77
554.67	451.72
554.84	397.89
555.00	437.68
555.17	411.93
555.33	393.21
555.50	463.43
555.67	456.40
555.83	414.27
556.00	414.27
556.16	458.74
556.33	433.00
556.50	418.96
556.66	411.93
556.83	393.21
556.99	383.85
557.16	404.91
557.32	400.23
557.49	341.72
557.65	433.00
557.82	358.10
557.98	388.53
558.15	376.83
558.32	454.06
558.48	461.09
558.65	374.49
558.81	390.87
558.98	428.32
559.14	435.34
559.31	461.09
559.47	402.57
559.64	479.81
559.80	421.30
559.97	383.85
560.13	402.57
560.30	409.59
560.46	435.34
560.63	411.93
560.79	404.91
560.96	414.27
561.12	458.74
561.29	456.40
561.45	374.49
561.61	449.38
561.78	416.62
561.94	376.83
562.11	355.76
562.27	383.85
562.44	365.12
562.60	372.15
562.77	475.13
562.93	421.30
563.10	351.08
563.26	435.34
563.42	435.34
563.59	449.38
563.75	358.10
563.92	404.91
564.08	477.47
564.24	386.19
564.41	437.68
564.57	360.44
564.74	381.51
564.90	463.43
565.07	376.83
565.23	411.93
565.39	339.38
565.56	430.66
565.72	397.89
565.88	355.76
566.05	407.25
566.21	440.02
566.38	458.74
566.54	416.62
566.70	397.89
566.87	390.87
567.03	372.15
567.19	400.23
567.36	442.36
567.52	416.62
567.68	421.30
567.85	411.93
568.01	437.68
568.17	386.19
568.34	442.36
568.50	451.72
568.66	383.85
568.83	444.70
568.99	407.25
569.15	393.21
569.32	458.74
569.48	379.17
569.64	390.87
569.81	435.34
569.97	428.32
570.13	407.25
570.30	358.10
570.46	404.91
570.62	416.62
570.78	440.02
570.95	386.19
571.11	437.68
571.27	416.62
571.43	334.70
571.60	435.34
571.76	435.34
571.92	447.04
572.09	390.87
572.25	348.74
572.41	442.36
572.57	510.24
572.74	454.06
572.90	489.17
573.06	407.25
573.22	442.36
573.38	503.22
573.55	491.51
573.71	433.00
573.87	503.22
574.03	472.79
574.20	447.04
574.36	414.27
574.52	409.59
574.68	395.55
574.84	470.45
575.01	421.30
575.17	367.46
575.33	414.27
575.49	393.21
575.65	449.38
575.82	367.46
575.98	449.38
576.14	442.36
576.30	458.74
576.46	418.96
576.62	444.70
576.79	484.49
576.95	444.70
577.11	383.85
577.27	393.21
577.43	440.02
577.59	472.79
577.75	451.72
577.92	351.08
578.08	440.02
578.24	454.06
578.40	421.30
578.56	451.72
578.72	407.25
578.88	433.00
579.04	437.68
579.21	355.76
579.37	444.70
579.53	430.66
579.69	496.19
579.85	425.98
580.01	507.90
580.17	351.08
580.33	468.11
580.49	421.30
580.65	381.51
580.82	468.11
580.98	400.23
581.14	395.55
581.30	449.38
581.46	418.96
581.62	416.62
581.78	447.04
581.94	421.30
582.10	451.72
582.26	465.77
582.42	388.53
582.58	414.27
582.74	379.17
582.90	414.27
583.06	433.00
583.22	411.93
583.38	369.80
583.54	407.25
583.70	435.34
583.86	355.76
584.02	440.02
584.18	451.72
584.34	451.72
584.50	486.83
584.66	374.49
584.82	411.93
584.98	400.23
585.14	421.30
585.30	430.66
585.46	367.46
585.62	463.43
585.78	362.78
585.94	409.59
586.10	456.40
586.26	351.08
586.42	461.09
586.58	496.19
586.74	365.12
586.90	351.08
587.06	393.21
587.22	414.27
587.38	458.74
587.54	390.87
587.70	496.19
587.86	430.66
588.02	463.43
588.18	435.34
588.34	418.96
588.49	428.32
588.65	435.34
588.81	407.25
588.97	369.80
589.13	433.00
589.29	449.38
589.45	444.70
589.61	442.36
589.77	418.96
589.93	425.98
590.08	435.34
590.24	379.17
590.40	442.36
590.56	425.98
590.72	365.12
590.88	440.02
591.04	381.51
591.20	421.30
591.35	433.00
591.51	397.89
591.67	376.83
591.83	322.99
591.99	484.49
592.15	454.06
592.31	498.53
592.46	435.34
592.62	447.04
592.78	360.44
592.94	404.91
593.10	404.91
593.26	402.57
593.41	454.06
593.57	442.36
593.73	383.85
593.89	475.13
594.05	397.89
594.20	414.27
594.36	461.09
594.52	435.34
594.68	383.85
594.84	388.53
594.99	470.45
595.15	442.36
595.31	472.79
595.47	454.06
595.62	437.68
595.78	404.91
595.94	379.17
596.10	404.91
596.25	353.42
596.41	435.34
596.57	454.06
596.73	454.06
596.88	440.02
597.04	372.15
597.20	402.57
597.36	477.47
597.51	477.47
597.67	390.87
597.83	444.70
597.99	348.74
598.14	451.72
598.30	435.34
598.46	411.93
598.61	470.45
598.77	500.87
598.93	411.93
599.09	393.21
599.24	407.25
599.40	369.80
599.56	463.43
599.71	416.62
599.87	489.17
600.03	447.04
600.18	383.85
600.34	440.02
600.50	374.49
600.65	365.12
600.81	437.68
600.97	407.25
601.12	444.70
601.28	411.93
601.44	393.21
601.59	358.10
601.75	383.85
601.91	421.30
602.06	379.17
602.22	458.74
602.37	484.49
602.53	407.25
602.69	428.32
602.84	379.17
603.00	468.11
603.16	482.15
603.31	327.68
603.47	454.06
603.62	482.15
603.78	355.76
603.94	458.74
604.09	425.98
604.25	458.74
604.40	411.93
604.56	433.00
604.71	414.27
604.87	416.62
605.03	411.93
605.18	416.62
605.34	440.02
605.49	402.57
605.65	390.87
605.80	372.15
605.96	407.25
606.12	435.34
606.27	425.98
606.43	416.62
606.58	491.51
606.74	465.77
606.89	425.98
607.05	365.12
607.20	395.55
607.36	358.10
607.51	404.91
607.67	400.23
607.82	407.25
607.98	472.79
608.13	416.62
608.29	376.83
608.44	482.15
608.60	390.87
608.75	388.53
608.91	465.77
609.06	465.77
609.22	411.93
609.37	388.53
609.53	362.78
609.68	414.27
609.84	472.79
609.99	376.83
610.15	430.66
