SpectraSuite Data File
++++++++++++++++++++++++++++++++++++
Date: Fri Oct 25 12:10:37 EDT 2013
User: price-jones
Dark Spectrum Present: No
Reference Spectrum Present: No
Number of Sampled Component Spectra: 1
Spectrometers: USB2+H05261
Integration Time (usec): 100000 (USB2+H05261)
Spectra Averaged: 1 (USB2+H05261)
Boxcar Smoothing: 0 (USB2+H05261)
Correct for Electrical Dark: No (USB2+H05261)
Strobe/Lamp Enabled: No (USB2+H05261)
Correct for Detector Non-linearity: No (USB2+H05261)
Correct for Stray Light: No (USB2+H05261)
Number of Pixels in Processed Spectrum: 2048
>>>>>Begin Processed Spectral Data<<<<<
365.73	320.65
365.92	320.65
366.12	320.65
366.32	231.71
366.52	245.76
366.72	222.35
366.91	224.69
367.11	287.89
367.31	234.05
367.51	276.18
367.70	297.25
367.90	248.10
368.10	222.35
368.30	250.44
368.49	262.14
368.69	262.14
368.89	259.80
369.09	205.97
369.28	236.39
369.48	280.86
369.68	287.89
369.87	257.46
370.07	330.02
370.27	379.17
370.47	334.70
370.66	360.44
370.86	330.02
371.06	418.96
371.25	409.59
371.45	360.44
371.65	365.12
371.84	411.93
372.04	416.62
372.24	402.57
372.44	404.91
372.63	388.53
372.83	360.44
373.03	409.59
373.22	388.53
373.42	360.44
373.62	409.59
373.81	395.55
374.01	451.72
374.21	456.40
374.40	440.02
374.60	472.79
374.79	411.93
374.99	353.42
375.19	461.09
375.38	386.19
375.58	442.36
375.78	414.27
375.97	339.38
376.17	458.74
376.37	479.81
376.56	308.95
376.76	428.32
376.95	449.38
377.15	428.32
377.35	393.21
377.54	397.89
377.74	402.57
377.93	369.80
378.13	388.53
378.33	416.62
378.52	505.56
378.72	479.81
378.91	409.59
379.11	325.33
379.31	397.89
379.50	365.12
379.70	397.89
379.89	411.93
380.09	365.12
380.28	423.64
380.48	411.93
380.68	428.32
380.87	320.65
381.07	341.72
381.26	390.87
381.46	395.55
381.65	440.02
381.85	388.53
382.04	397.89
382.24	421.30
382.43	372.15
382.63	372.15
382.83	411.93
383.02	411.93
383.22	360.44
383.41	372.15
383.61	383.85
383.80	402.57
384.00	442.36
384.19	390.87
384.39	376.83
384.58	414.27
384.78	479.81
384.97	479.81
385.17	458.74
385.36	372.15
385.56	416.62
385.75	404.91
385.95	358.10
386.14	416.62
386.34	433.00
386.53	386.19
386.72	475.13
386.92	435.34
387.11	367.46
387.31	383.85
387.50	402.57
387.70	486.83
387.89	374.49
388.09	430.66
388.28	358.10
388.48	400.23
388.67	355.76
388.86	327.68
389.06	447.04
389.25	376.83
389.45	449.38
389.64	381.51
389.84	461.09
390.03	418.96
390.22	383.85
390.42	397.89
390.61	344.06
390.81	341.72
391.00	428.32
391.19	435.34
391.39	433.00
391.58	407.25
391.78	395.55
391.97	458.74
392.16	353.42
392.36	418.96
392.55	430.66
392.75	386.19
392.94	514.92
393.13	416.62
393.33	355.76
393.52	402.57
393.71	381.51
393.91	425.98
394.10	372.15
394.29	411.93
394.49	400.23
394.68	421.30
394.88	376.83
395.07	437.68
395.26	425.98
395.46	367.46
395.65	482.15
395.84	449.38
396.04	411.93
396.23	425.98
396.42	442.36
396.62	479.81
396.81	411.93
397.00	428.32
397.19	433.00
397.39	425.98
397.58	451.72
397.77	416.62
397.97	465.77
398.16	388.53
398.35	440.02
398.55	416.62
398.74	379.17
398.93	381.51
399.12	365.12
399.32	404.91
399.51	414.27
399.70	442.36
399.90	454.06
400.09	388.53
400.28	437.68
400.47	428.32
400.67	491.51
400.86	416.62
401.05	437.68
401.24	428.32
401.44	428.32
401.63	458.74
401.82	465.77
402.01	381.51
402.21	433.00
402.40	456.40
402.59	404.91
402.78	400.23
402.97	374.49
403.17	421.30
403.36	416.62
403.55	407.25
403.74	440.02
403.93	451.72
404.13	472.79
404.32	430.66
404.51	416.62
404.70	409.59
404.89	372.15
405.09	409.59
405.28	411.93
405.47	383.85
405.66	411.93
405.85	440.02
406.05	444.70
406.24	428.32
406.43	372.15
406.62	430.66
406.81	388.53
407.00	369.80
407.20	416.62
407.39	489.17
407.58	428.32
407.77	493.85
407.96	390.87
408.15	397.89
408.34	390.87
408.54	383.85
408.73	386.19
408.92	442.36
409.11	440.02
409.30	376.83
409.49	360.44
409.68	416.62
409.87	395.55
410.07	372.15
410.26	402.57
410.45	465.77
410.64	430.66
410.83	428.32
411.02	358.10
411.21	418.96
411.40	442.36
411.59	423.64
411.78	425.98
411.98	367.46
412.17	362.78
412.36	346.40
412.55	346.40
412.74	397.89
412.93	423.64
413.12	409.59
413.31	489.17
413.50	393.21
413.69	407.25
413.88	475.13
414.07	430.66
414.26	418.96
414.45	390.87
414.64	386.19
414.83	484.49
415.02	444.70
415.22	444.70
415.41	393.21
415.60	346.40
415.79	379.17
415.98	510.24
416.17	400.23
416.36	374.49
416.55	308.95
416.74	374.49
416.93	425.98
417.12	440.02
417.31	386.19
417.50	402.57
417.69	454.06
417.88	456.40
418.07	308.95
418.26	395.55
418.45	379.17
418.64	428.32
418.83	386.19
419.02	390.87
419.21	395.55
419.39	381.51
419.58	393.21
419.77	442.36
419.96	437.68
420.15	465.77
420.34	381.51
420.53	482.15
420.72	395.55
420.91	383.85
421.10	407.25
421.29	428.32
421.48	430.66
421.67	411.93
421.86	383.85
422.05	381.51
422.24	435.34
422.43	397.89
422.61	362.78
422.80	437.68
422.99	390.87
423.18	379.17
423.37	437.68
423.56	383.85
423.75	444.70
423.94	433.00
424.13	341.72
424.32	414.27
424.50	437.68
424.69	433.00
424.88	470.45
425.07	353.42
425.26	421.30
425.45	367.46
425.64	444.70
425.83	407.25
426.01	402.57
426.20	472.79
426.39	489.17
426.58	404.91
426.77	402.57
426.96	425.98
427.15	421.30
427.33	386.19
427.52	376.83
427.71	461.09
427.90	437.68
428.09	381.51
428.28	402.57
428.46	383.85
428.65	435.34
428.84	411.93
429.03	381.51
429.22	416.62
429.40	372.15
429.59	442.36
429.78	468.11
429.97	433.00
430.16	400.23
430.34	400.23
430.53	411.93
430.72	395.55
430.91	407.25
431.10	395.55
431.28	409.59
431.47	390.87
431.66	433.00
431.85	416.62
432.03	379.17
432.22	477.47
432.41	388.53
432.60	374.49
432.79	411.93
432.97	381.51
433.16	381.51
433.35	360.44
433.54	369.80
433.72	435.34
433.91	369.80
434.10	402.57
434.28	362.78
434.47	418.96
434.66	440.02
434.85	397.89
435.03	348.74
435.22	486.83
435.41	477.47
435.59	475.13
435.78	486.83
435.97	409.59
436.16	409.59
436.34	381.51
436.53	414.27
436.72	409.59
436.90	414.27
437.09	397.89
437.28	383.85
437.46	444.70
437.65	416.62
437.84	479.81
438.02	451.72
438.21	421.30
438.40	423.64
438.58	416.62
438.77	407.25
438.96	437.68
439.14	411.93
439.33	442.36
439.52	414.27
439.70	372.15
439.89	437.68
440.08	358.10
440.26	430.66
440.45	362.78
440.63	428.32
440.82	423.64
441.01	442.36
441.19	430.66
441.38	400.23
441.57	479.81
441.75	390.87
441.94	433.00
442.12	449.38
442.31	433.00
442.50	390.87
442.68	404.91
442.87	414.27
443.05	381.51
443.24	425.98
443.43	379.17
443.61	491.51
443.80	425.98
443.98	465.77
444.17	421.30
444.35	388.53
444.54	428.32
444.73	348.74
444.91	449.38
445.10	386.19
445.28	428.32
445.47	414.27
445.65	388.53
445.84	348.74
446.02	430.66
446.21	404.91
446.39	365.12
446.58	442.36
446.77	390.87
446.95	425.98
447.14	402.57
447.32	451.72
447.51	416.62
447.69	397.89
447.88	461.09
448.06	428.32
448.25	383.85
448.43	353.42
448.62	444.70
448.80	388.53
448.99	451.72
449.17	386.19
449.36	390.87
449.54	482.15
449.73	383.85
449.91	379.17
450.10	416.62
450.28	404.91
450.46	407.25
450.65	423.64
450.83	444.70
451.02	407.25
451.20	376.83
451.39	414.27
451.57	372.15
451.76	381.51
451.94	479.81
452.13	332.36
452.31	418.96
452.49	430.66
452.68	433.00
452.86	454.06
453.05	458.74
453.23	442.36
453.42	402.57
453.60	404.91
453.78	451.72
453.97	353.42
454.15	421.30
454.34	470.45
454.52	411.93
454.70	437.68
454.89	390.87
455.07	430.66
455.26	449.38
455.44	475.13
455.62	496.19
455.81	355.76
455.99	407.25
456.17	456.40
456.36	362.78
456.54	379.17
456.73	400.23
456.91	404.91
457.09	411.93
457.28	498.53
457.46	322.99
457.64	461.09
457.83	482.15
458.01	381.51
458.19	411.93
458.38	411.93
458.56	355.76
458.74	365.12
458.93	418.96
459.11	397.89
459.29	362.78
459.48	381.51
459.66	418.96
459.84	416.62
460.03	521.94
460.21	393.21
460.39	423.64
460.57	454.06
460.76	397.89
460.94	407.25
461.12	470.45
461.31	418.96
461.49	526.62
461.67	369.80
461.85	369.80
462.04	411.93
462.22	774.72
462.40	397.89
462.59	437.68
462.77	379.17
462.95	395.55
463.13	386.19
463.32	418.96
463.50	393.21
463.68	407.25
463.86	444.70
464.05	449.38
464.23	461.09
464.41	465.77
464.59	465.77
464.78	411.93
464.96	404.91
465.14	372.15
465.32	475.13
465.50	451.72
465.69	379.17
465.87	395.55
466.05	440.02
466.23	425.98
466.41	402.57
466.60	367.46
466.78	440.02
466.96	437.68
467.14	458.74
467.32	449.38
467.51	386.19
467.69	437.68
467.87	470.45
468.05	411.93
468.23	409.59
468.41	454.06
468.60	463.43
468.78	463.43
468.96	491.51
469.14	421.30
469.32	414.27
469.50	407.25
469.69	404.91
469.87	472.79
470.05	358.10
470.23	369.80
470.41	376.83
470.59	435.34
470.77	404.91
470.95	388.53
471.14	367.46
471.32	381.51
471.50	430.66
471.68	449.38
471.86	430.66
472.04	414.27
472.22	365.12
472.40	355.76
472.58	348.74
472.77	330.02
472.95	376.83
473.13	379.17
473.31	421.30
473.49	374.49
473.67	383.85
473.85	397.89
474.03	437.68
474.21	409.59
474.39	491.51
474.57	461.09
474.75	360.44
474.93	397.89
475.12	428.32
475.30	444.70
475.48	421.30
475.66	454.06
475.84	388.53
476.02	346.40
476.20	489.17
476.38	409.59
476.56	458.74
476.74	402.57
476.92	402.57
477.10	411.93
477.28	437.68
477.46	409.59
477.64	404.91
477.82	353.42
478.00	351.08
478.18	362.78
478.36	372.15
478.54	379.17
478.72	433.00
478.90	440.02
479.08	475.13
479.26	374.49
479.44	369.80
479.62	383.85
479.80	358.10
479.98	355.76
480.16	444.70
480.34	383.85
480.52	409.59
480.70	414.27
480.88	435.34
481.06	386.19
481.24	393.21
481.41	388.53
481.59	404.91
481.77	430.66
481.95	327.68
482.13	414.27
482.31	428.32
482.49	365.12
482.67	372.15
482.85	388.53
483.03	456.40
483.21	369.80
483.39	465.77
483.57	475.13
483.74	421.30
483.92	425.98
484.10	428.32
484.28	423.64
484.46	484.49
484.64	454.06
484.82	418.96
485.00	390.87
485.18	451.72
485.35	358.10
485.53	397.89
485.71	390.87
485.89	407.25
486.07	390.87
486.25	442.36
486.43	433.00
486.61	372.15
486.78	444.70
486.96	409.59
487.14	442.36
487.32	407.25
487.50	461.09
487.68	447.04
487.85	397.89
488.03	383.85
488.21	407.25
488.39	411.93
488.57	315.97
488.75	411.93
488.92	512.58
489.10	458.74
489.28	395.55
489.46	421.30
489.64	369.80
489.81	444.70
489.99	451.72
490.17	376.83
490.35	430.66
490.53	383.85
490.70	395.55
490.88	435.34
491.06	458.74
491.24	416.62
491.41	519.60
491.59	423.64
491.77	355.76
491.95	400.23
492.13	498.53
492.30	423.64
492.48	386.19
492.66	421.30
492.84	456.40
493.01	437.68
493.19	447.04
493.37	400.23
493.54	421.30
493.72	351.08
493.90	421.30
494.08	411.93
494.25	395.55
494.43	395.55
494.61	414.27
494.79	409.59
494.96	400.23
495.14	397.89
495.32	449.38
495.49	374.49
495.67	447.04
495.85	484.49
496.02	428.32
496.20	306.61
496.38	414.27
496.55	430.66
496.73	390.87
496.91	393.21
497.09	409.59
497.26	449.38
497.44	379.17
497.62	447.04
497.79	416.62
497.97	360.44
498.14	404.91
498.32	395.55
498.50	362.78
498.67	400.23
498.85	411.93
499.03	442.36
499.20	372.15
499.38	402.57
499.56	451.72
499.73	386.19
499.91	423.64
500.08	433.00
500.26	425.98
500.44	482.15
500.61	428.32
500.79	407.25
500.97	447.04
501.14	444.70
501.32	379.17
501.49	463.43
501.67	472.79
501.84	433.00
502.02	369.80
502.20	409.59
502.37	393.21
502.55	416.62
502.72	365.12
502.90	437.68
503.07	418.96
503.25	475.13
503.43	358.10
503.60	421.30
503.78	428.32
503.95	341.72
504.13	404.91
504.30	388.53
504.48	433.00
504.65	400.23
504.83	381.51
505.01	458.74
505.18	407.25
505.36	444.70
505.53	451.72
505.71	479.81
505.88	400.23
506.06	430.66
506.23	484.49
506.41	486.83
506.58	423.64
506.76	484.49
506.93	472.79
507.11	409.59
507.28	404.91
507.46	397.89
507.63	386.19
507.81	411.93
507.98	451.72
508.16	435.34
508.33	358.10
508.50	402.57
508.68	402.57
508.85	362.78
509.03	463.43
509.20	395.55
509.38	440.02
509.55	416.62
509.73	423.64
509.90	468.11
510.08	388.53
510.25	421.30
510.42	404.91
510.60	461.09
510.77	402.57
510.95	449.38
511.12	393.21
511.30	362.78
511.47	430.66
511.64	461.09
511.82	362.78
511.99	425.98
512.17	362.78
512.34	425.98
512.51	444.70
512.69	407.25
512.86	421.30
513.04	393.21
513.21	355.76
513.38	383.85
513.56	435.34
513.73	449.38
513.90	465.77
514.08	362.78
514.25	461.09
514.43	458.74
514.60	397.89
514.77	440.02
514.95	451.72
515.12	386.19
515.29	421.30
515.47	440.02
515.64	444.70
515.81	418.96
515.99	444.70
516.16	397.89
516.33	442.36
516.51	400.23
516.68	376.83
516.85	425.98
517.03	519.60
517.20	449.38
517.37	447.04
517.54	430.66
517.72	414.27
517.89	402.57
518.06	341.72
518.24	397.89
518.41	461.09
518.58	437.68
518.75	411.93
518.93	402.57
519.10	344.06
519.27	433.00
519.45	381.51
519.62	367.46
519.79	376.83
519.96	456.40
520.14	404.91
520.31	404.91
520.48	456.40
520.65	482.15
520.83	395.55
521.00	369.80
521.17	395.55
521.34	437.68
521.52	454.06
521.69	421.30
521.86	430.66
522.03	510.24
522.20	489.17
522.38	449.38
522.55	428.32
522.72	397.89
522.89	454.06
523.07	402.57
523.24	425.98
523.41	456.40
523.58	440.02
523.75	369.80
523.92	418.96
524.10	383.85
524.27	491.51
524.44	404.91
524.61	390.87
524.78	400.23
524.96	390.87
525.13	418.96
525.30	404.91
525.47	458.74
525.64	421.30
525.81	402.57
525.98	418.96
526.16	440.02
526.33	383.85
526.50	393.21
526.67	465.77
526.84	369.80
527.01	395.55
527.18	437.68
527.36	416.62
527.53	435.34
527.70	514.92
527.87	390.87
528.04	428.32
528.21	430.66
528.38	458.74
528.55	444.70
528.72	493.85
528.89	465.77
529.07	428.32
529.24	334.70
529.41	458.74
529.58	447.04
529.75	360.44
529.92	503.22
530.09	365.12
530.26	390.87
530.43	442.36
530.60	367.46
530.77	390.87
530.94	414.27
531.11	425.98
531.28	411.93
531.46	367.46
531.63	456.40
531.80	442.36
531.97	437.68
532.14	428.32
532.31	451.72
532.48	409.59
532.65	463.43
532.82	416.62
532.99	362.78
533.16	287.89
533.33	376.83
533.50	404.91
533.67	308.95
533.84	514.92
534.01	409.59
534.18	421.30
534.35	411.93
534.52	437.68
534.69	339.38
534.86	440.02
535.03	409.59
535.20	397.89
535.37	451.72
535.54	395.55
535.71	503.22
535.88	440.02
536.05	454.06
536.22	449.38
536.38	369.80
536.55	461.09
536.72	320.65
536.89	421.30
537.06	430.66
537.23	374.49
537.40	332.36
537.57	482.15
537.74	512.58
537.91	390.87
538.08	411.93
538.25	470.45
538.42	360.44
538.59	416.62
538.75	383.85
538.92	376.83
539.09	430.66
539.26	411.93
539.43	447.04
539.60	414.27
539.77	386.19
539.94	479.81
540.11	414.27
540.28	479.81
540.44	456.40
540.61	376.83
540.78	421.30
540.95	379.17
541.12	428.32
541.29	372.15
541.46	425.98
541.62	444.70
541.79	402.57
541.96	449.38
542.13	407.25
542.30	444.70
542.47	369.80
542.63	386.19
542.80	369.80
542.97	444.70
543.14	449.38
543.31	388.53
543.48	407.25
543.64	402.57
543.81	465.77
543.98	369.80
544.15	362.78
544.32	428.32
544.48	451.72
544.65	449.38
544.82	435.34
544.99	407.25
545.16	381.51
545.32	456.40
545.49	374.49
545.66	369.80
545.83	341.72
546.00	451.72
546.16	390.87
546.33	327.68
546.50	395.55
546.67	433.00
546.83	440.02
547.00	397.89
547.17	454.06
547.34	407.25
547.50	409.59
547.67	355.76
547.84	475.13
548.00	414.27
548.17	416.62
548.34	414.27
548.51	458.74
548.67	397.89
548.84	449.38
549.01	379.17
549.18	421.30
549.34	397.89
549.51	458.74
549.68	458.74
549.84	428.32
550.01	447.04
550.18	489.17
550.34	479.81
550.51	418.96
550.68	512.58
550.84	442.36
551.01	468.11
551.18	444.70
551.34	425.98
551.51	498.53
551.68	423.64
551.84	416.62
552.01	393.21
552.18	397.89
552.34	379.17
552.51	393.21
552.68	479.81
552.84	461.09
553.01	433.00
553.18	421.30
553.34	369.80
553.51	372.15
553.67	414.27
553.84	414.27
554.01	468.11
554.17	404.91
554.34	341.72
554.51	456.40
554.67	369.80
554.84	442.36
555.00	414.27
555.17	440.02
555.33	456.40
555.50	449.38
555.67	437.68
555.83	360.44
556.00	449.38
556.16	510.24
556.33	404.91
556.50	393.21
556.66	402.57
556.83	376.83
556.99	423.64
557.16	411.93
557.32	372.15
557.49	433.00
557.65	362.78
557.82	421.30
557.98	519.60
558.15	416.62
558.32	451.72
558.48	461.09
558.65	465.77
558.81	409.59
558.98	416.62
559.14	470.45
559.31	475.13
559.47	470.45
559.64	390.87
559.80	365.12
559.97	461.09
560.13	411.93
560.30	355.76
560.46	465.77
560.63	425.98
560.79	505.56
560.96	388.53
561.12	341.72
561.29	454.06
561.45	416.62
561.61	531.30
561.78	521.94
561.94	315.97
562.11	367.46
562.27	400.23
562.44	449.38
562.60	372.15
562.77	442.36
562.93	468.11
563.10	510.24
563.26	388.53
563.42	414.27
563.59	447.04
563.75	423.64
563.92	404.91
564.08	435.34
564.24	461.09
564.41	442.36
564.57	449.38
564.74	409.59
564.90	484.49
565.07	381.51
565.23	433.00
565.39	390.87
565.56	418.96
565.72	435.34
565.88	451.72
566.05	447.04
566.21	367.46
566.38	451.72
566.54	393.21
566.70	400.23
566.87	379.17
567.03	367.46
567.19	397.89
567.36	397.89
567.52	360.44
567.68	411.93
567.85	442.36
568.01	400.23
568.17	418.96
568.34	484.49
568.50	465.77
568.66	390.87
568.83	503.22
568.99	425.98
569.15	456.40
569.32	444.70
569.48	404.91
569.64	461.09
569.81	430.66
569.97	383.85
570.13	451.72
570.30	414.27
570.46	397.89
570.62	404.91
570.78	407.25
570.95	372.15
571.11	397.89
571.27	477.47
571.43	416.62
571.60	465.77
571.76	442.36
571.92	353.42
572.09	418.96
572.25	402.57
572.41	404.91
572.57	374.49
572.74	514.92
572.90	395.55
573.06	374.49
573.22	402.57
573.38	411.93
573.55	425.98
573.71	444.70
573.87	428.32
574.03	381.51
574.20	433.00
574.36	475.13
574.52	372.15
574.68	437.68
574.84	365.12
575.01	348.74
575.17	418.96
575.33	428.32
575.49	430.66
575.65	493.85
575.82	430.66
575.98	425.98
576.14	463.43
576.30	470.45
576.46	358.10
576.62	414.27
576.79	470.45
576.95	444.70
577.11	360.44
577.27	400.23
577.43	418.96
577.59	482.15
577.75	430.66
577.92	418.96
578.08	468.11
578.24	369.80
578.40	470.45
578.56	411.93
578.72	454.06
578.88	402.57
579.04	353.42
579.21	402.57
579.37	418.96
579.53	404.91
579.69	430.66
579.85	407.25
580.01	423.64
580.17	367.46
580.33	353.42
580.49	447.04
580.65	407.25
580.82	402.57
580.98	479.81
581.14	360.44
581.30	449.38
581.46	454.06
581.62	440.02
581.78	454.06
581.94	404.91
582.10	407.25
582.26	409.59
582.42	470.45
582.58	351.08
582.74	444.70
582.90	428.32
583.06	472.79
583.22	433.00
583.38	388.53
583.54	360.44
583.70	404.91
583.86	351.08
584.02	353.42
584.18	430.66
584.34	442.36
584.50	379.17
584.66	327.68
584.82	430.66
584.98	517.26
585.14	411.93
585.30	447.04
585.46	435.34
585.62	423.64
585.78	421.30
585.94	421.30
586.10	430.66
586.26	400.23
586.42	482.15
586.58	367.46
586.74	358.10
586.90	472.79
587.06	407.25
587.22	390.87
587.38	416.62
587.54	367.46
587.70	383.85
587.86	423.64
588.02	475.13
588.18	397.89
588.34	376.83
588.49	390.87
588.65	458.74
588.81	421.30
588.97	346.40
589.13	409.59
589.29	402.57
589.45	418.96
589.61	411.93
589.77	500.87
589.93	362.78
590.08	447.04
590.24	430.66
590.40	430.66
590.56	456.40
590.72	416.62
590.88	376.83
591.04	463.43
591.20	456.40
591.35	437.68
591.51	374.49
591.67	381.51
591.83	262.14
591.99	491.51
592.15	484.49
592.31	425.98
592.46	444.70
592.62	451.72
592.78	414.27
592.94	381.51
593.10	376.83
593.26	393.21
593.41	437.68
593.57	442.36
593.73	407.25
593.89	430.66
594.05	383.85
594.20	416.62
594.36	444.70
594.52	433.00
594.68	383.85
594.84	458.74
594.99	465.77
595.15	442.36
595.31	388.53
595.47	421.30
595.62	386.19
595.78	449.38
595.94	442.36
596.10	376.83
596.25	477.47
596.41	421.30
596.57	463.43
596.73	411.93
596.88	440.02
597.04	402.57
597.20	322.99
597.36	407.25
597.51	461.09
597.67	397.89
597.83	339.38
597.99	470.45
598.14	381.51
598.30	433.00
598.46	388.53
598.61	430.66
598.77	458.74
598.93	395.55
599.09	376.83
599.24	430.66
599.40	421.30
599.56	437.68
599.71	437.68
599.87	421.30
600.03	388.53
600.18	418.96
600.34	334.70
600.50	411.93
600.65	402.57
600.81	348.74
600.97	395.55
601.12	376.83
601.28	428.32
601.44	339.38
601.59	390.87
601.75	346.40
601.91	400.23
602.06	444.70
602.22	458.74
602.37	388.53
602.53	470.45
602.69	456.40
602.84	353.42
603.00	407.25
603.16	358.10
603.31	416.62
603.47	339.38
603.62	379.17
603.78	461.09
603.94	440.02
604.09	386.19
604.25	421.30
604.40	447.04
604.56	482.15
604.71	454.06
604.87	421.30
605.03	407.25
605.18	374.49
605.34	428.32
605.49	369.80
605.65	383.85
605.80	383.85
605.96	437.68
606.12	447.04
606.27	472.79
606.43	440.02
606.58	418.96
606.74	435.34
606.89	468.11
607.05	395.55
607.20	425.98
607.36	461.09
607.51	428.32
607.67	444.70
607.82	425.98
607.98	521.94
608.13	376.83
608.29	400.23
608.44	320.65
608.60	430.66
608.75	402.57
608.91	425.98
609.06	451.72
609.22	353.42
609.37	409.59
609.53	348.74
609.68	365.12
609.84	437.68
609.99	407.25
610.15	423.64
