SpectraSuite Data File
++++++++++++++++++++++++++++++++++++
Date: Fri Oct 25 12:11:06 EDT 2013
User: price-jones
Dark Spectrum Present: No
Reference Spectrum Present: No
Number of Sampled Component Spectra: 1
Spectrometers: USB2+H05261
Integration Time (usec): 100000 (USB2+H05261)
Spectra Averaged: 1 (USB2+H05261)
Boxcar Smoothing: 0 (USB2+H05261)
Correct for Electrical Dark: No (USB2+H05261)
Strobe/Lamp Enabled: No (USB2+H05261)
Correct for Detector Non-linearity: No (USB2+H05261)
Correct for Stray Light: No (USB2+H05261)
Number of Pixels in Processed Spectrum: 2048
>>>>>Begin Processed Spectral Data<<<<<
365.73	332.36
365.92	332.36
366.12	332.36
366.32	290.23
366.52	257.46
366.72	231.71
366.91	250.44
367.11	259.80
367.31	250.44
367.51	273.84
367.70	212.99
367.90	271.50
368.10	215.33
368.30	248.10
368.49	252.78
368.69	262.14
368.89	212.99
369.09	280.86
369.28	294.91
369.48	304.27
369.68	285.55
369.87	306.61
370.07	313.63
370.27	285.55
370.47	320.65
370.66	332.36
370.86	304.27
371.06	348.74
371.25	393.21
371.45	353.42
371.65	355.76
371.84	379.17
372.04	341.72
372.24	397.89
372.44	365.12
372.63	402.57
372.83	414.27
373.03	456.40
373.22	468.11
373.42	367.46
373.62	461.09
373.81	376.83
374.01	468.11
374.21	390.87
374.40	372.15
374.60	500.87
374.79	468.11
374.99	409.59
375.19	484.49
375.38	461.09
375.58	409.59
375.78	386.19
375.97	433.00
376.17	526.62
376.37	308.95
376.56	402.57
376.76	444.70
376.95	444.70
377.15	428.32
377.35	444.70
377.54	386.19
377.74	409.59
377.93	416.62
378.13	484.49
378.33	376.83
378.52	458.74
378.72	484.49
378.91	425.98
379.11	414.27
379.31	383.85
379.50	383.85
379.70	440.02
379.89	437.68
380.09	409.59
380.28	386.19
380.48	430.66
380.68	348.74
380.87	416.62
381.07	353.42
381.26	407.25
381.46	360.44
381.65	442.36
381.85	369.80
382.04	351.08
382.24	449.38
382.43	416.62
382.63	411.93
382.83	339.38
383.02	491.51
383.22	423.64
383.41	381.51
383.61	411.93
383.80	400.23
384.00	409.59
384.19	372.15
384.39	458.74
384.58	442.36
384.78	355.76
384.97	379.17
385.17	407.25
385.36	365.12
385.56	435.34
385.75	388.53
385.95	372.15
386.14	482.15
386.34	393.21
386.53	510.24
386.72	407.25
386.92	416.62
387.11	428.32
387.31	388.53
387.50	344.06
387.70	376.83
387.89	409.59
388.09	404.91
388.28	428.32
388.48	421.30
388.67	381.51
388.86	479.81
389.06	418.96
389.25	397.89
389.45	374.49
389.64	390.87
389.84	407.25
390.03	430.66
390.22	428.32
390.42	472.79
390.61	454.06
390.81	465.77
391.00	395.55
391.19	421.30
391.39	390.87
391.58	351.08
391.78	346.40
391.97	348.74
392.16	367.46
392.36	423.64
392.55	348.74
392.75	337.04
392.94	451.72
393.13	524.28
393.33	367.46
393.52	346.40
393.71	379.17
393.91	376.83
394.10	362.78
394.29	416.62
394.49	369.80
394.68	472.79
394.88	383.85
395.07	477.47
395.26	414.27
395.46	435.34
395.65	444.70
395.84	430.66
396.04	423.64
396.23	411.93
396.42	454.06
396.62	430.66
396.81	470.45
397.00	425.98
397.19	395.55
397.39	365.12
397.58	425.98
397.77	454.06
397.97	477.47
398.16	425.98
398.35	430.66
398.55	351.08
398.74	435.34
398.93	360.44
399.12	388.53
399.32	472.79
399.51	416.62
399.70	477.47
399.90	407.25
400.09	421.30
400.28	435.34
400.47	365.12
400.67	414.27
400.86	395.55
401.05	372.15
401.24	400.23
401.44	395.55
401.63	374.49
401.82	428.32
402.01	374.49
402.21	409.59
402.40	376.83
402.59	411.93
402.78	418.96
402.97	475.13
403.17	463.43
403.36	440.02
403.55	311.29
403.74	447.04
403.93	430.66
404.13	482.15
404.32	372.15
404.51	437.68
404.70	418.96
404.89	433.00
405.09	430.66
405.28	402.57
405.47	393.21
405.66	409.59
405.85	472.79
406.05	421.30
406.24	397.89
406.43	374.49
406.62	390.87
406.81	449.38
407.00	320.65
407.20	409.59
407.39	407.25
407.58	341.72
407.77	421.30
407.96	423.64
408.15	472.79
408.34	388.53
408.54	365.12
408.73	409.59
408.92	402.57
409.11	404.91
409.30	458.74
409.49	372.15
409.68	414.27
409.87	458.74
410.07	381.51
410.26	400.23
410.45	447.04
410.64	425.98
410.83	348.74
411.02	404.91
411.21	374.49
411.40	428.32
411.59	416.62
411.78	341.72
411.98	435.34
412.17	407.25
412.36	435.34
412.55	435.34
412.74	421.30
412.93	407.25
413.12	461.09
413.31	454.06
413.50	369.80
413.69	428.32
413.88	503.22
414.07	351.08
414.26	390.87
414.45	433.00
414.64	383.85
414.83	351.08
415.02	393.21
415.22	449.38
415.41	376.83
415.60	477.47
415.79	393.21
415.98	411.93
416.17	393.21
416.36	386.19
416.55	395.55
416.74	484.49
416.93	475.13
417.12	409.59
417.31	383.85
417.50	374.49
417.69	425.98
417.88	461.09
418.07	442.36
418.26	386.19
418.45	404.91
418.64	454.06
418.83	388.53
419.02	355.76
419.21	404.91
419.39	425.98
419.58	395.55
419.77	348.74
419.96	458.74
420.15	444.70
420.34	411.93
420.53	428.32
420.72	447.04
420.91	409.59
421.10	334.70
421.29	400.23
421.48	447.04
421.67	416.62
421.86	386.19
422.05	465.77
422.24	411.93
422.43	447.04
422.61	411.93
422.80	409.59
422.99	404.91
423.18	414.27
423.37	423.64
423.56	411.93
423.75	421.30
423.94	397.89
424.13	379.17
424.32	393.21
424.50	362.78
424.69	400.23
424.88	484.49
425.07	416.62
425.26	442.36
425.45	411.93
425.64	404.91
425.83	421.30
426.01	468.11
426.20	493.85
426.39	390.87
426.58	442.36
426.77	395.55
426.96	407.25
427.15	421.30
427.33	409.59
427.52	519.60
427.71	395.55
427.90	390.87
428.09	463.43
428.28	365.12
428.46	393.21
428.65	374.49
428.84	418.96
429.03	437.68
429.22	376.83
429.40	402.57
429.59	433.00
429.78	388.53
429.97	430.66
430.16	418.96
430.34	475.13
430.53	454.06
430.72	379.17
430.91	472.79
431.10	381.51
431.28	444.70
431.47	465.77
431.66	397.89
431.85	409.59
432.03	411.93
432.22	524.28
432.41	411.93
432.60	433.00
432.79	454.06
432.97	372.15
433.16	397.89
433.35	477.47
433.54	411.93
433.72	360.44
433.91	360.44
434.10	411.93
434.28	428.32
434.47	379.17
434.66	367.46
434.85	425.98
435.03	442.36
435.22	400.23
435.41	491.51
435.59	414.27
435.78	383.85
435.97	365.12
436.16	379.17
436.34	465.77
436.53	444.70
436.72	437.68
436.90	409.59
437.09	409.59
437.28	402.57
437.46	383.85
437.65	433.00
437.84	416.62
438.02	411.93
438.21	418.96
438.40	421.30
438.58	407.25
438.77	444.70
438.96	421.30
439.14	421.30
439.33	433.00
439.52	379.17
439.70	414.27
439.89	400.23
440.08	430.66
440.26	414.27
440.45	456.40
440.63	447.04
440.82	454.06
441.01	423.64
441.19	400.23
441.38	407.25
441.57	365.12
441.75	381.51
441.94	493.85
442.12	397.89
442.31	315.97
442.50	411.93
442.68	442.36
442.87	463.43
443.05	372.15
443.24	381.51
443.43	493.85
443.61	463.43
443.80	393.21
443.98	397.89
444.17	348.74
444.35	327.68
444.54	362.78
444.73	447.04
444.91	423.64
445.10	447.04
445.28	400.23
445.47	430.66
445.65	400.23
445.84	416.62
446.02	416.62
446.21	440.02
446.39	369.80
446.58	423.64
446.77	440.02
446.95	400.23
447.14	414.27
447.32	430.66
447.51	451.72
447.69	437.68
447.88	386.19
448.06	418.96
448.25	430.66
448.43	418.96
448.62	381.51
448.80	374.49
448.99	428.32
449.17	428.32
449.36	472.79
449.54	381.51
449.73	444.70
449.91	461.09
450.10	386.19
450.28	456.40
450.46	447.04
450.65	479.81
450.83	372.15
451.02	402.57
451.20	379.17
451.39	418.96
451.57	407.25
451.76	409.59
451.94	458.74
452.13	414.27
452.31	348.74
452.49	374.49
452.68	430.66
452.86	423.64
453.05	442.36
453.23	322.99
453.42	386.19
453.60	465.77
453.78	418.96
453.97	381.51
454.15	458.74
454.34	411.93
454.52	421.30
454.70	461.09
454.89	493.85
455.07	414.27
455.26	414.27
455.44	379.17
455.62	397.89
455.81	400.23
455.99	465.77
456.17	425.98
456.36	475.13
456.54	383.85
456.73	332.36
456.91	351.08
457.09	365.12
457.28	444.70
457.46	393.21
457.64	388.53
457.83	435.34
458.01	433.00
458.19	411.93
458.38	395.55
458.56	475.13
458.74	428.32
458.93	425.98
459.11	444.70
459.29	414.27
459.48	433.00
459.66	430.66
459.84	397.89
460.03	482.15
460.21	430.66
460.39	402.57
460.57	475.13
460.76	428.32
460.94	423.64
461.12	505.56
461.31	425.98
461.49	416.62
461.67	395.55
461.85	395.55
462.04	451.72
462.22	812.17
462.40	475.13
462.59	411.93
462.77	430.66
462.95	465.77
463.13	433.00
463.32	404.91
463.50	386.19
463.68	458.74
463.86	386.19
464.05	379.17
464.23	456.40
464.41	418.96
464.59	400.23
464.78	376.83
464.96	402.57
465.14	390.87
465.32	423.64
465.50	365.12
465.69	449.38
465.87	297.25
466.05	400.23
466.23	435.34
466.41	491.51
466.60	393.21
466.78	465.77
466.96	407.25
467.14	472.79
467.32	444.70
467.51	428.32
467.69	458.74
467.87	535.98
468.05	421.30
468.23	505.56
468.41	451.72
468.60	332.36
468.78	451.72
468.96	451.72
469.14	440.02
469.32	402.57
469.50	430.66
469.69	402.57
469.87	416.62
470.05	379.17
470.23	409.59
470.41	411.93
470.59	440.02
470.77	489.17
470.95	376.83
471.14	451.72
471.32	444.70
471.50	428.32
471.68	376.83
471.86	442.36
472.04	411.93
472.22	418.96
472.40	423.64
472.58	496.19
472.77	416.62
472.95	449.38
473.13	465.77
473.31	479.81
473.49	449.38
473.67	435.34
473.85	367.46
474.03	428.32
474.21	425.98
474.39	477.47
474.57	421.30
474.75	444.70
474.93	407.25
475.12	358.10
475.30	367.46
475.48	400.23
475.66	411.93
475.84	365.12
476.02	423.64
476.20	437.68
476.38	444.70
476.56	496.19
476.74	423.64
476.92	397.89
477.10	416.62
477.28	353.42
477.46	395.55
477.64	421.30
477.82	416.62
478.00	414.27
478.18	334.70
478.36	458.74
478.54	425.98
478.72	381.51
478.90	416.62
479.08	402.57
479.26	503.22
479.44	458.74
479.62	395.55
479.80	383.85
479.98	379.17
480.16	374.49
480.34	409.59
480.52	423.64
480.70	388.53
480.88	379.17
481.06	365.12
481.24	404.91
481.41	416.62
481.59	458.74
481.77	444.70
481.95	470.45
482.13	461.09
482.31	407.25
482.49	482.15
482.67	425.98
482.85	454.06
483.03	418.96
483.21	393.21
483.39	327.68
483.57	341.72
483.74	388.53
483.92	369.80
484.10	369.80
484.28	365.12
484.46	421.30
484.64	409.59
484.82	376.83
485.00	465.77
485.18	437.68
485.35	414.27
485.53	411.93
485.71	421.30
485.89	374.49
486.07	402.57
486.25	430.66
486.43	479.81
486.61	404.91
486.78	397.89
486.96	376.83
487.14	425.98
487.32	360.44
487.50	433.00
487.68	414.27
487.85	421.30
488.03	444.70
488.21	442.36
488.39	444.70
488.57	461.09
488.75	346.40
488.92	519.60
489.10	376.83
489.28	440.02
489.46	372.15
489.64	409.59
489.81	379.17
489.99	411.93
490.17	430.66
490.35	444.70
490.53	437.68
490.70	400.23
490.88	454.06
491.06	463.43
491.24	379.17
491.41	379.17
491.59	397.89
491.77	393.21
491.95	365.12
492.13	465.77
492.30	355.76
492.48	430.66
492.66	409.59
492.84	423.64
493.01	470.45
493.19	397.89
493.37	433.00
493.54	369.80
493.72	388.53
493.90	367.46
494.08	418.96
494.25	433.00
494.43	475.13
494.61	402.57
494.79	402.57
494.96	400.23
495.14	355.76
495.32	449.38
495.49	461.09
495.67	390.87
495.85	425.98
496.02	376.83
496.20	390.87
496.38	351.08
496.55	360.44
496.73	442.36
496.91	400.23
497.09	381.51
497.26	393.21
497.44	493.85
497.62	372.15
497.79	330.02
497.97	395.55
498.14	409.59
498.32	393.21
498.50	482.15
498.67	411.93
498.85	386.19
499.03	414.27
499.20	440.02
499.38	383.85
499.56	381.51
499.73	390.87
499.91	428.32
500.08	421.30
500.26	477.47
500.44	402.57
500.61	465.77
500.79	369.80
500.97	430.66
501.14	421.30
501.32	468.11
501.49	442.36
501.67	397.89
501.84	454.06
502.02	414.27
502.20	447.04
502.37	376.83
502.55	493.85
502.72	418.96
502.90	437.68
503.07	428.32
503.25	449.38
503.43	374.49
503.60	425.98
503.78	468.11
503.95	416.62
504.13	325.33
504.30	435.34
504.48	463.43
504.65	437.68
504.83	402.57
505.01	379.17
505.18	404.91
505.36	430.66
505.53	369.80
505.71	379.17
505.88	409.59
506.06	397.89
506.23	421.30
506.41	337.04
506.58	428.32
506.76	369.80
506.93	409.59
507.11	397.89
507.28	318.31
507.46	395.55
507.63	393.21
507.81	351.08
507.98	407.25
508.16	397.89
508.33	383.85
508.50	482.15
508.68	346.40
508.85	362.78
509.03	365.12
509.20	428.32
509.38	451.72
509.55	489.17
509.73	395.55
509.90	433.00
510.08	327.68
510.25	477.47
510.42	454.06
510.60	397.89
510.77	428.32
510.95	379.17
511.12	433.00
511.30	409.59
511.47	355.76
511.64	397.89
511.82	332.36
511.99	339.38
512.17	440.02
512.34	430.66
512.51	407.25
512.69	374.49
512.86	447.04
513.04	433.00
513.21	482.15
513.38	383.85
513.56	444.70
513.73	383.85
513.90	418.96
514.08	472.79
514.25	486.83
514.43	491.51
514.60	393.21
514.77	383.85
514.95	451.72
515.12	402.57
515.29	440.02
515.47	433.00
515.64	442.36
515.81	433.00
515.99	390.87
516.16	430.66
516.33	416.62
516.51	435.34
516.68	365.12
516.85	475.13
517.03	428.32
517.20	358.10
517.37	449.38
517.54	386.19
517.72	322.99
517.89	339.38
518.06	428.32
518.24	444.70
518.41	470.45
518.58	376.83
518.75	278.52
518.93	414.27
519.10	372.15
519.27	411.93
519.45	463.43
519.62	425.98
519.79	388.53
519.96	365.12
520.14	514.92
520.31	411.93
520.48	400.23
520.65	444.70
520.83	390.87
521.00	400.23
521.17	416.62
521.34	435.34
521.52	442.36
521.69	374.49
521.86	421.30
522.03	374.49
522.20	409.59
522.38	395.55
522.55	433.00
522.72	411.93
522.89	500.87
523.07	465.77
523.24	411.93
523.41	418.96
523.58	376.83
523.75	407.25
523.92	365.12
524.10	440.02
524.27	425.98
524.44	360.44
524.61	400.23
524.78	404.91
524.96	475.13
525.13	416.62
525.30	493.85
525.47	456.40
525.64	400.23
525.81	416.62
525.98	482.15
526.16	416.62
526.33	440.02
526.50	369.80
526.67	416.62
526.84	435.34
527.01	428.32
527.18	505.56
527.36	428.32
527.53	386.19
527.70	461.09
527.87	418.96
528.04	465.77
528.21	407.25
528.38	449.38
528.55	430.66
528.72	355.76
528.89	449.38
529.07	468.11
529.24	395.55
529.41	475.13
529.58	418.96
529.75	383.85
529.92	386.19
530.09	418.96
530.26	390.87
530.43	388.53
530.60	402.57
530.77	388.53
530.94	365.12
531.11	379.17
531.28	390.87
531.46	383.85
531.63	461.09
531.80	465.77
531.97	421.30
532.14	400.23
532.31	381.51
532.48	451.72
532.65	414.27
532.82	463.43
532.99	421.30
533.16	379.17
533.33	409.59
533.50	421.30
533.67	465.77
533.84	435.34
534.01	510.24
534.18	440.02
534.35	433.00
534.52	451.72
534.69	423.64
534.86	376.83
535.03	397.89
535.20	456.40
535.37	379.17
535.54	374.49
535.71	411.93
535.88	489.17
536.05	374.49
536.22	435.34
536.38	418.96
536.55	379.17
536.72	386.19
536.89	360.44
537.06	351.08
537.23	451.72
537.40	409.59
537.57	414.27
537.74	428.32
537.91	463.43
538.08	383.85
538.25	390.87
538.42	381.51
538.59	379.17
538.75	456.40
538.92	322.99
539.09	411.93
539.26	402.57
539.43	372.15
539.60	430.66
539.77	374.49
539.94	397.89
540.11	404.91
540.28	430.66
540.44	472.79
540.61	430.66
540.78	463.43
540.95	425.98
541.12	449.38
541.29	379.17
541.46	428.32
541.62	414.27
541.79	447.04
541.96	414.27
542.13	402.57
542.30	404.91
542.47	498.53
542.63	372.15
542.80	393.21
542.97	397.89
543.14	416.62
543.31	423.64
543.48	475.13
543.64	404.91
543.81	397.89
543.98	388.53
544.15	463.43
544.32	367.46
544.48	477.47
544.65	407.25
544.82	416.62
544.99	407.25
545.16	451.72
545.32	376.83
545.49	465.77
545.66	458.74
545.83	404.91
546.00	395.55
546.16	390.87
546.33	334.70
546.50	334.70
546.67	409.59
546.83	402.57
547.00	397.89
547.17	386.19
547.34	409.59
547.50	486.83
547.67	484.49
547.84	351.08
548.00	463.43
548.17	404.91
548.34	334.70
548.51	404.91
548.67	339.38
548.84	393.21
549.01	397.89
549.18	463.43
549.34	388.53
549.51	423.64
549.68	449.38
549.84	470.45
550.01	486.83
550.18	447.04
550.34	503.22
550.51	416.62
550.68	418.96
550.84	383.85
551.01	444.70
551.18	423.64
551.34	465.77
551.51	404.91
551.68	397.89
551.84	414.27
552.01	402.57
552.18	351.08
552.34	463.43
552.51	404.91
552.68	482.15
552.84	369.80
553.01	341.72
553.18	468.11
553.34	421.30
553.51	372.15
553.67	365.12
553.84	437.68
554.01	425.98
554.17	404.91
554.34	393.21
554.51	433.00
554.67	381.51
554.84	414.27
555.00	386.19
555.17	447.04
555.33	421.30
555.50	421.30
555.67	442.36
555.83	376.83
556.00	428.32
556.16	528.96
556.33	461.09
556.50	421.30
556.66	416.62
556.83	404.91
556.99	365.12
557.16	430.66
557.32	430.66
557.49	470.45
557.65	414.27
557.82	402.57
557.98	461.09
558.15	461.09
558.32	428.32
558.48	407.25
558.65	468.11
558.81	395.55
558.98	461.09
559.14	395.55
559.31	404.91
559.47	365.12
559.64	411.93
559.80	397.89
559.97	339.38
560.13	400.23
560.30	404.91
560.46	367.46
560.63	437.68
560.79	388.53
560.96	418.96
561.12	425.98
561.29	430.66
561.45	395.55
561.61	454.06
561.78	491.51
561.94	444.70
562.11	465.77
562.27	489.17
562.44	404.91
562.60	430.66
562.77	388.53
562.93	479.81
563.10	416.62
563.26	388.53
563.42	472.79
563.59	409.59
563.75	440.02
563.92	425.98
564.08	472.79
564.24	447.04
564.41	433.00
564.57	423.64
564.74	395.55
564.90	442.36
565.07	418.96
565.23	470.45
565.39	440.02
565.56	372.15
565.72	465.77
565.88	421.30
566.05	409.59
566.21	435.34
566.38	491.51
566.54	421.30
566.70	411.93
566.87	425.98
567.03	447.04
567.19	423.64
567.36	484.49
567.52	428.32
567.68	449.38
567.85	505.56
568.01	484.49
568.17	383.85
568.34	458.74
568.50	433.00
568.66	386.19
568.83	531.30
568.99	400.23
569.15	388.53
569.32	425.98
569.48	428.32
569.64	433.00
569.81	402.57
569.97	456.40
570.13	404.91
570.30	451.72
570.46	425.98
570.62	475.13
570.78	404.91
570.95	341.72
571.11	390.87
571.27	472.79
571.43	402.57
571.60	416.62
571.76	416.62
571.92	440.02
572.09	393.21
572.25	290.23
572.41	414.27
572.57	409.59
572.74	404.91
572.90	444.70
573.06	428.32
573.22	421.30
573.38	430.66
573.55	365.12
573.71	388.53
573.87	390.87
574.03	437.68
574.20	386.19
574.36	444.70
574.52	407.25
574.68	407.25
574.84	440.02
575.01	425.98
575.17	416.62
575.33	376.83
575.49	407.25
575.65	437.68
575.82	472.79
575.98	393.21
576.14	458.74
576.30	433.00
576.46	390.87
576.62	458.74
576.79	486.83
576.95	496.19
577.11	404.91
577.27	365.12
577.43	458.74
577.59	411.93
577.75	404.91
577.92	395.55
578.08	430.66
578.24	454.06
578.40	442.36
578.56	437.68
578.72	404.91
578.88	484.49
579.04	414.27
579.21	447.04
579.37	440.02
579.53	390.87
579.69	379.17
579.85	423.64
580.01	444.70
580.17	341.72
580.33	404.91
580.49	348.74
580.65	376.83
580.82	444.70
580.98	414.27
581.14	428.32
581.30	472.79
581.46	458.74
581.62	451.72
581.78	409.59
581.94	360.44
582.10	411.93
582.26	423.64
582.42	486.83
582.58	498.53
582.74	447.04
582.90	402.57
583.06	454.06
583.22	425.98
583.38	472.79
583.54	411.93
583.70	437.68
583.86	465.77
584.02	454.06
584.18	444.70
584.34	393.21
584.50	414.27
584.66	376.83
584.82	463.43
584.98	393.21
585.14	407.25
585.30	407.25
585.46	454.06
585.62	379.17
585.78	381.51
585.94	400.23
586.10	433.00
586.26	407.25
586.42	482.15
586.58	393.21
586.74	395.55
586.90	393.21
587.06	458.74
587.22	433.00
587.38	435.34
587.54	428.32
587.70	428.32
587.86	409.59
588.02	430.66
588.18	449.38
588.34	418.96
588.49	353.42
588.65	381.51
588.81	423.64
588.97	393.21
589.13	470.45
589.29	409.59
589.45	463.43
589.61	402.57
589.77	423.64
589.93	362.78
590.08	374.49
590.24	332.36
590.40	463.43
590.56	418.96
590.72	395.55
590.88	461.09
591.04	395.55
591.20	379.17
591.35	411.93
591.51	442.36
591.67	430.66
591.83	444.70
591.99	449.38
592.15	409.59
592.31	409.59
592.46	477.47
592.62	442.36
592.78	390.87
592.94	430.66
593.10	411.93
593.26	428.32
593.41	395.55
593.57	440.02
593.73	379.17
593.89	416.62
594.05	447.04
594.20	388.53
594.36	454.06
594.52	397.89
594.68	369.80
594.84	475.13
594.99	454.06
595.15	479.81
595.31	437.68
595.47	418.96
595.62	421.30
595.78	442.36
595.94	400.23
596.10	468.11
596.25	451.72
596.41	437.68
596.57	444.70
596.73	386.19
596.88	400.23
597.04	470.45
597.20	376.83
597.36	517.26
597.51	433.00
597.67	379.17
597.83	414.27
597.99	475.13
598.14	498.53
598.30	414.27
598.46	407.25
598.61	489.17
598.77	470.45
598.93	395.55
599.09	367.46
599.24	461.09
599.40	458.74
599.56	411.93
599.71	390.87
599.87	454.06
600.03	479.81
600.18	521.94
600.34	472.79
600.50	383.85
600.65	337.04
600.81	447.04
600.97	400.23
601.12	428.32
601.28	500.87
601.44	491.51
601.59	383.85
601.75	451.72
601.91	425.98
602.06	421.30
602.22	517.26
602.37	390.87
602.53	442.36
602.69	437.68
602.84	402.57
603.00	510.24
603.16	507.90
603.31	423.64
603.47	355.76
603.62	397.89
603.78	390.87
603.94	383.85
604.09	489.17
604.25	472.79
604.40	449.38
604.56	423.64
604.71	383.85
604.87	442.36
605.03	425.98
605.18	435.34
605.34	440.02
605.49	388.53
605.65	353.42
605.80	425.98
605.96	388.53
606.12	400.23
606.27	409.59
606.43	416.62
606.58	510.24
606.74	379.17
606.89	482.15
607.05	425.98
607.20	444.70
607.36	454.06
607.51	379.17
607.67	423.64
607.82	397.89
607.98	458.74
608.13	512.58
608.29	421.30
608.44	409.59
608.60	402.57
608.75	458.74
608.91	435.34
609.06	433.00
609.22	376.83
609.37	397.89
609.53	402.57
609.68	463.43
609.84	444.70
609.99	367.46
610.15	526.62
