SpectraSuite Data File
++++++++++++++++++++++++++++++++++++
Date: Fri Oct 25 12:10:42 EDT 2013
User: price-jones
Dark Spectrum Present: No
Reference Spectrum Present: No
Number of Sampled Component Spectra: 1
Spectrometers: USB2+H05261
Integration Time (usec): 100000 (USB2+H05261)
Spectra Averaged: 1 (USB2+H05261)
Boxcar Smoothing: 0 (USB2+H05261)
Correct for Electrical Dark: No (USB2+H05261)
Strobe/Lamp Enabled: No (USB2+H05261)
Correct for Detector Non-linearity: No (USB2+H05261)
Correct for Stray Light: No (USB2+H05261)
Number of Pixels in Processed Spectrum: 2048
>>>>>Begin Processed Spectral Data<<<<<
365.73	306.61
365.92	306.61
366.12	306.61
366.32	238.73
366.52	191.92
366.72	208.31
366.91	198.95
367.11	222.35
367.31	224.69
367.51	273.84
367.70	201.29
367.90	238.73
368.10	252.78
368.30	177.88
368.49	339.38
368.69	271.50
368.89	292.57
369.09	252.78
369.28	212.99
369.48	276.18
369.68	259.80
369.87	346.40
370.07	294.91
370.27	255.12
370.47	318.31
370.66	355.76
370.86	339.38
371.06	353.42
371.25	397.89
371.45	362.78
371.65	381.51
371.84	376.83
372.04	369.80
372.24	346.40
372.44	409.59
372.63	421.30
372.83	421.30
373.03	428.32
373.22	393.21
373.42	449.38
373.62	423.64
373.81	388.53
374.01	465.77
374.21	404.91
374.40	414.27
374.60	414.27
374.79	449.38
374.99	437.68
375.19	430.66
375.38	402.57
375.58	404.91
375.78	447.04
375.97	440.02
376.17	454.06
376.37	433.00
376.56	461.09
376.76	407.25
376.95	362.78
377.15	428.32
377.35	397.89
377.54	402.57
377.74	435.34
377.93	435.34
378.13	430.66
378.33	428.32
378.52	468.11
378.72	379.17
378.91	458.74
379.11	430.66
379.31	454.06
379.50	395.55
379.70	402.57
379.89	334.70
380.09	393.21
380.28	393.21
380.48	365.12
380.68	437.68
380.87	414.27
381.07	395.55
381.26	386.19
381.46	423.64
381.65	383.85
381.85	400.23
382.04	381.51
382.24	454.06
382.43	404.91
382.63	390.87
382.83	414.27
383.02	500.87
383.22	472.79
383.41	430.66
383.61	365.12
383.80	365.12
384.00	388.53
384.19	353.42
384.39	449.38
384.58	407.25
384.78	369.80
384.97	430.66
385.17	381.51
385.36	411.93
385.56	339.38
385.75	344.06
385.95	451.72
386.14	437.68
386.34	425.98
386.53	386.19
386.72	409.59
386.92	388.53
387.11	355.76
387.31	360.44
387.50	428.32
387.70	372.15
387.89	379.17
388.09	484.49
388.28	383.85
388.48	348.74
388.67	461.09
388.86	388.53
389.06	381.51
389.25	369.80
389.45	344.06
389.64	388.53
389.84	449.38
390.03	444.70
390.22	411.93
390.42	351.08
390.61	360.44
390.81	390.87
391.00	360.44
391.19	414.27
391.39	449.38
391.58	402.57
391.78	397.89
391.97	395.55
392.16	381.51
392.36	416.62
392.55	404.91
392.75	358.10
392.94	451.72
393.13	475.13
393.33	278.52
393.52	425.98
393.71	465.77
393.91	458.74
394.10	411.93
394.29	339.38
394.49	440.02
394.68	379.17
394.88	374.49
395.07	421.30
395.26	454.06
395.46	463.43
395.65	475.13
395.84	414.27
396.04	433.00
396.23	423.64
396.42	428.32
396.62	451.72
396.81	447.04
397.00	449.38
397.19	379.17
397.39	465.77
397.58	454.06
397.77	351.08
397.97	339.38
398.16	386.19
398.35	468.11
398.55	374.49
398.74	425.98
398.93	414.27
399.12	409.59
399.32	411.93
399.51	416.62
399.70	440.02
399.90	423.64
400.09	428.32
400.28	437.68
400.47	404.91
400.67	393.21
400.86	397.89
401.05	465.77
401.24	425.98
401.44	388.53
401.63	360.44
401.82	454.06
402.01	386.19
402.21	369.80
402.40	376.83
402.59	428.32
402.78	386.19
402.97	442.36
403.17	362.78
403.36	416.62
403.55	418.96
403.74	327.68
403.93	376.83
404.13	423.64
404.32	393.21
404.51	423.64
404.70	383.85
404.89	367.46
405.09	346.40
405.28	444.70
405.47	355.76
405.66	465.77
405.85	416.62
406.05	416.62
406.24	390.87
406.43	390.87
406.62	416.62
406.81	468.11
407.00	388.53
407.20	423.64
407.39	339.38
407.58	386.19
407.77	397.89
407.96	404.91
408.15	437.68
408.34	402.57
408.54	451.72
408.73	365.12
408.92	372.15
409.11	379.17
409.30	421.30
409.49	425.98
409.68	390.87
409.87	358.10
410.07	416.62
410.26	400.23
410.45	442.36
410.64	465.77
410.83	362.78
411.02	388.53
411.21	407.25
411.40	444.70
411.59	465.77
411.78	430.66
411.98	379.17
412.17	346.40
412.36	430.66
412.55	435.34
412.74	400.23
412.93	503.22
413.12	407.25
413.31	386.19
413.50	351.08
413.69	407.25
413.88	433.00
414.07	416.62
414.26	423.64
414.45	351.08
414.64	428.32
414.83	411.93
415.02	365.12
415.22	386.19
415.41	440.02
415.60	444.70
415.79	423.64
415.98	465.77
416.17	489.17
416.36	451.72
416.55	433.00
416.74	430.66
416.93	430.66
417.12	341.72
417.31	372.15
417.50	353.42
417.69	428.32
417.88	407.25
418.07	407.25
418.26	409.59
418.45	395.55
418.64	472.79
418.83	423.64
419.02	440.02
419.21	458.74
419.39	367.46
419.58	386.19
419.77	355.76
419.96	379.17
420.15	472.79
420.34	430.66
420.53	498.53
420.72	425.98
420.91	458.74
421.10	475.13
421.29	430.66
421.48	416.62
421.67	409.59
421.86	367.46
422.05	411.93
422.24	369.80
422.43	407.25
422.61	430.66
422.80	351.08
422.99	440.02
423.18	404.91
423.37	379.17
423.56	477.47
423.75	465.77
423.94	390.87
424.13	444.70
424.32	388.53
424.50	404.91
424.69	472.79
424.88	538.32
425.07	348.74
425.26	395.55
425.45	393.21
425.64	416.62
425.83	388.53
426.01	435.34
426.20	437.68
426.39	402.57
426.58	383.85
426.77	418.96
426.96	400.23
427.15	475.13
427.33	388.53
427.52	376.83
427.71	400.23
427.90	437.68
428.09	358.10
428.28	395.55
428.46	308.95
428.65	423.64
428.84	433.00
429.03	416.62
429.22	447.04
429.40	430.66
429.59	376.83
429.78	458.74
429.97	430.66
430.16	404.91
430.34	449.38
430.53	358.10
430.72	456.40
430.91	463.43
431.10	421.30
431.28	397.89
431.47	505.56
431.66	386.19
431.85	374.49
432.03	348.74
432.22	503.22
432.41	425.98
432.60	409.59
432.79	386.19
432.97	407.25
433.16	425.98
433.35	454.06
433.54	435.34
433.72	449.38
433.91	411.93
434.10	437.68
434.28	435.34
434.47	320.65
434.66	374.49
434.85	402.57
435.03	379.17
435.22	442.36
435.41	400.23
435.59	386.19
435.78	404.91
435.97	402.57
436.16	418.96
436.34	442.36
436.53	404.91
436.72	388.53
436.90	449.38
437.09	454.06
437.28	421.30
437.46	386.19
437.65	449.38
437.84	430.66
438.02	346.40
438.21	456.40
438.40	418.96
438.58	461.09
438.77	437.68
438.96	365.12
439.14	411.93
439.33	451.72
439.52	430.66
439.70	397.89
439.89	425.98
440.08	440.02
440.26	369.80
440.45	458.74
440.63	456.40
440.82	465.77
441.01	411.93
441.19	418.96
441.38	430.66
441.57	465.77
441.75	451.72
441.94	482.15
442.12	421.30
442.31	376.83
442.50	362.78
442.68	423.64
442.87	437.68
443.05	365.12
443.24	386.19
443.43	409.59
443.61	365.12
443.80	440.02
443.98	440.02
444.17	341.72
444.35	418.96
444.54	404.91
444.73	397.89
444.91	423.64
445.10	397.89
445.28	372.15
445.47	376.83
445.65	330.02
445.84	362.78
446.02	461.09
446.21	351.08
446.39	369.80
446.58	353.42
446.77	428.32
446.95	362.78
447.14	470.45
447.32	468.11
447.51	440.02
447.69	435.34
447.88	407.25
448.06	440.02
448.25	411.93
448.43	402.57
448.62	400.23
448.80	421.30
448.99	416.62
449.17	362.78
449.36	383.85
449.54	418.96
449.73	404.91
449.91	372.15
450.10	395.55
450.28	510.24
450.46	517.26
450.65	449.38
450.83	425.98
451.02	496.19
451.20	409.59
451.39	458.74
451.57	404.91
451.76	416.62
451.94	404.91
452.13	433.00
452.31	435.34
452.49	379.17
452.68	376.83
452.86	407.25
453.05	472.79
453.23	456.40
453.42	414.27
453.60	447.04
453.78	360.44
453.97	411.93
454.15	369.80
454.34	442.36
454.52	388.53
454.70	404.91
454.89	435.34
455.07	386.19
455.26	390.87
455.44	416.62
455.62	407.25
455.81	421.30
455.99	451.72
456.17	411.93
456.36	430.66
456.54	397.89
456.73	418.96
456.91	353.42
457.09	369.80
457.28	395.55
457.46	404.91
457.64	444.70
457.83	388.53
458.01	358.10
458.19	437.68
458.38	451.72
458.56	395.55
458.74	388.53
458.93	430.66
459.11	365.12
459.29	304.27
459.48	360.44
459.66	397.89
459.84	374.49
460.03	528.96
460.21	425.98
460.39	379.17
460.57	416.62
460.76	358.10
460.94	397.89
461.12	379.17
461.31	444.70
461.49	390.87
461.67	416.62
461.85	397.89
462.04	400.23
462.22	805.14
462.40	454.06
462.59	475.13
462.77	430.66
462.95	465.77
463.13	334.70
463.32	421.30
463.50	374.49
463.68	418.96
463.86	421.30
464.05	388.53
464.23	454.06
464.41	395.55
464.59	437.68
464.78	470.45
464.96	409.59
465.14	442.36
465.32	379.17
465.50	433.00
465.69	397.89
465.87	421.30
466.05	425.98
466.23	407.25
466.41	433.00
466.60	379.17
466.78	414.27
466.96	461.09
467.14	407.25
467.32	386.19
467.51	348.74
467.69	437.68
467.87	386.19
468.05	416.62
468.23	433.00
468.41	411.93
468.60	433.00
468.78	449.38
468.96	400.23
469.14	470.45
469.32	369.80
469.50	348.74
469.69	393.21
469.87	341.72
470.05	456.40
470.23	437.68
470.41	454.06
470.59	346.40
470.77	463.43
470.95	411.93
471.14	444.70
471.32	458.74
471.50	376.83
471.68	447.04
471.86	479.81
472.04	369.80
472.22	440.02
472.40	346.40
472.58	369.80
472.77	374.49
472.95	374.49
473.13	543.00
473.31	416.62
473.49	365.12
473.67	388.53
473.85	383.85
474.03	362.78
474.21	451.72
474.39	423.64
474.57	449.38
474.75	383.85
474.93	418.96
475.12	395.55
475.30	449.38
475.48	456.40
475.66	491.51
475.84	421.30
476.02	510.24
476.20	447.04
476.38	400.23
476.56	500.87
476.74	486.83
476.92	472.79
477.10	388.53
477.28	372.15
477.46	351.08
477.64	444.70
477.82	400.23
478.00	397.89
478.18	376.83
478.36	397.89
478.54	437.68
478.72	400.23
478.90	437.68
479.08	447.04
479.26	362.78
479.44	374.49
479.62	376.83
479.80	365.12
479.98	482.15
480.16	442.36
480.34	393.21
480.52	440.02
480.70	435.34
480.88	381.51
481.06	433.00
481.24	393.21
481.41	435.34
481.59	395.55
481.77	404.91
481.95	400.23
482.13	437.68
482.31	449.38
482.49	421.30
482.67	409.59
482.85	430.66
483.03	435.34
483.21	430.66
483.39	351.08
483.57	402.57
483.74	458.74
483.92	470.45
484.10	369.80
484.28	379.17
484.46	393.21
484.64	383.85
484.82	383.85
485.00	402.57
485.18	404.91
485.35	463.43
485.53	444.70
485.71	496.19
485.89	442.36
486.07	381.51
486.25	531.30
486.43	465.77
486.61	372.15
486.78	461.09
486.96	383.85
487.14	374.49
487.32	416.62
487.50	414.27
487.68	395.55
487.85	374.49
488.03	397.89
488.21	430.66
488.39	381.51
488.57	463.43
488.75	454.06
488.92	498.53
489.10	402.57
489.28	458.74
489.46	372.15
489.64	397.89
489.81	421.30
489.99	404.91
490.17	456.40
490.35	472.79
490.53	447.04
490.70	416.62
490.88	447.04
491.06	435.34
491.24	458.74
491.41	435.34
491.59	400.23
491.77	404.91
491.95	346.40
492.13	428.32
492.30	435.34
492.48	468.11
492.66	393.21
492.84	407.25
493.01	407.25
493.19	383.85
493.37	416.62
493.54	477.47
493.72	468.11
493.90	423.64
494.08	484.49
494.25	451.72
494.43	400.23
494.61	372.15
494.79	365.12
494.96	440.02
495.14	416.62
495.32	442.36
495.49	435.34
495.67	437.68
495.85	383.85
496.02	346.40
496.20	468.11
496.38	414.27
496.55	360.44
496.73	470.45
496.91	430.66
497.09	379.17
497.26	437.68
497.44	376.83
497.62	463.43
497.79	465.77
497.97	433.00
498.14	376.83
498.32	402.57
498.50	379.17
498.67	397.89
498.85	444.70
499.03	411.93
499.20	437.68
499.38	376.83
499.56	425.98
499.73	449.38
499.91	411.93
500.08	344.06
500.26	337.04
500.44	442.36
500.61	416.62
500.79	423.64
500.97	437.68
501.14	447.04
501.32	437.68
501.49	421.30
501.67	433.00
501.84	369.80
502.02	353.42
502.20	411.93
502.37	444.70
502.55	397.89
502.72	409.59
502.90	454.06
503.07	461.09
503.25	372.15
503.43	407.25
503.60	430.66
503.78	388.53
503.95	458.74
504.13	404.91
504.30	468.11
504.48	447.04
504.65	430.66
504.83	477.47
505.01	428.32
505.18	358.10
505.36	374.49
505.53	374.49
505.71	411.93
505.88	449.38
506.06	435.34
506.23	365.12
506.41	360.44
506.58	442.36
506.76	344.06
506.93	348.74
507.11	386.19
507.28	423.64
507.46	418.96
507.63	449.38
507.81	360.44
507.98	421.30
508.16	454.06
508.33	433.00
508.50	379.17
508.68	390.87
508.85	402.57
509.03	341.72
509.20	393.21
509.38	442.36
509.55	472.79
509.73	470.45
509.90	458.74
510.08	430.66
510.25	386.19
510.42	374.49
510.60	407.25
510.77	367.46
510.95	449.38
511.12	430.66
511.30	430.66
511.47	486.83
511.64	423.64
511.82	421.30
511.99	449.38
512.17	435.34
512.34	472.79
512.51	447.04
512.69	428.32
512.86	503.22
513.04	442.36
513.21	433.00
513.38	423.64
513.56	440.02
513.73	386.19
513.90	320.65
514.08	442.36
514.25	386.19
514.43	404.91
514.60	430.66
514.77	423.64
514.95	372.15
515.12	374.49
515.29	407.25
515.47	388.53
515.64	383.85
515.81	440.02
515.99	376.83
516.16	435.34
516.33	407.25
516.51	376.83
516.68	383.85
516.85	395.55
517.03	463.43
517.20	437.68
517.37	362.78
517.54	442.36
517.72	386.19
517.89	404.91
518.06	421.30
518.24	411.93
518.41	425.98
518.58	390.87
518.75	362.78
518.93	463.43
519.10	411.93
519.27	325.33
519.45	447.04
519.62	411.93
519.79	491.51
519.96	395.55
520.14	388.53
520.31	451.72
520.48	458.74
520.65	390.87
520.83	404.91
521.00	414.27
521.17	447.04
521.34	402.57
521.52	435.34
521.69	407.25
521.86	353.42
522.03	425.98
522.20	393.21
522.38	374.49
522.55	437.68
522.72	374.49
522.89	465.77
523.07	475.13
523.24	435.34
523.41	409.59
523.58	447.04
523.75	383.85
523.92	404.91
524.10	440.02
524.27	425.98
524.44	418.96
524.61	437.68
524.78	381.51
524.96	484.49
525.13	397.89
525.30	390.87
525.47	451.72
525.64	411.93
525.81	421.30
525.98	440.02
526.16	414.27
526.33	489.17
526.50	451.72
526.67	470.45
526.84	418.96
527.01	383.85
527.18	477.47
527.36	472.79
527.53	414.27
527.70	465.77
527.87	383.85
528.04	451.72
528.21	372.15
528.38	451.72
528.55	484.49
528.72	386.19
528.89	456.40
529.07	374.49
529.24	418.96
529.41	470.45
529.58	477.47
529.75	449.38
529.92	456.40
530.09	390.87
530.26	423.64
530.43	435.34
530.60	447.04
530.77	430.66
530.94	440.02
531.11	444.70
531.28	416.62
531.46	468.11
531.63	421.30
531.80	416.62
531.97	346.40
532.14	447.04
532.31	456.40
532.48	465.77
532.65	433.00
532.82	367.46
532.99	327.68
533.16	400.23
533.33	482.15
533.50	423.64
533.67	411.93
533.84	411.93
534.01	423.64
534.18	418.96
534.35	461.09
534.52	421.30
534.69	414.27
534.86	369.80
535.03	376.83
535.20	421.30
535.37	456.40
535.54	475.13
535.71	407.25
535.88	491.51
536.05	423.64
536.22	402.57
536.38	407.25
536.55	449.38
536.72	468.11
536.89	407.25
537.06	454.06
537.23	369.80
537.40	435.34
537.57	430.66
537.74	393.21
537.91	461.09
538.08	411.93
538.25	418.96
538.42	433.00
538.59	444.70
538.75	379.17
538.92	369.80
539.09	402.57
539.26	458.74
539.43	421.30
539.60	411.93
539.77	404.91
539.94	400.23
540.11	421.30
540.28	440.02
540.44	397.89
540.61	428.32
540.78	400.23
540.95	362.78
541.12	425.98
541.29	397.89
541.46	449.38
541.62	379.17
541.79	407.25
541.96	442.36
542.13	407.25
542.30	407.25
542.47	423.64
542.63	416.62
542.80	388.53
542.97	379.17
543.14	351.08
543.31	404.91
543.48	414.27
543.64	393.21
543.81	369.80
543.98	386.19
544.15	418.96
544.32	454.06
544.48	414.27
544.65	430.66
544.82	407.25
544.99	433.00
545.16	404.91
545.32	379.17
545.49	425.98
545.66	461.09
545.83	365.12
546.00	449.38
546.16	421.30
546.33	507.90
546.50	376.83
546.67	418.96
546.83	418.96
547.00	418.96
547.17	400.23
547.34	402.57
547.50	379.17
547.67	411.93
547.84	428.32
548.00	468.11
548.17	428.32
548.34	454.06
548.51	477.47
548.67	416.62
548.84	381.51
549.01	475.13
549.18	362.78
549.34	428.32
549.51	397.89
549.68	414.27
549.84	425.98
550.01	393.21
550.18	425.98
550.34	535.98
550.51	425.98
550.68	444.70
550.84	369.80
551.01	395.55
551.18	421.30
551.34	395.55
551.51	414.27
551.68	397.89
551.84	440.02
552.01	458.74
552.18	362.78
552.34	407.25
552.51	458.74
552.68	416.62
552.84	404.91
553.01	367.46
553.18	479.81
553.34	414.27
553.51	344.06
553.67	449.38
553.84	484.49
554.01	454.06
554.17	479.81
554.34	379.17
554.51	454.06
554.67	409.59
554.84	442.36
555.00	430.66
555.17	348.74
555.33	482.15
555.50	458.74
555.67	409.59
555.83	411.93
556.00	500.87
556.16	528.96
556.33	498.53
556.50	449.38
556.66	395.55
556.83	358.10
556.99	440.02
557.16	374.49
557.32	491.51
557.49	430.66
557.65	379.17
557.82	358.10
557.98	407.25
558.15	433.00
558.32	442.36
558.48	454.06
558.65	376.83
558.81	416.62
558.98	437.68
559.14	472.79
559.31	423.64
559.47	388.53
559.64	381.51
559.80	379.17
559.97	423.64
560.13	409.59
560.30	372.15
560.46	475.13
560.63	482.15
560.79	447.04
560.96	397.89
561.12	372.15
561.29	451.72
561.45	440.02
561.61	395.55
561.78	528.96
561.94	428.32
562.11	468.11
562.27	381.51
562.44	400.23
562.60	397.89
562.77	400.23
562.93	461.09
563.10	418.96
563.26	425.98
563.42	421.30
563.59	461.09
563.75	449.38
563.92	463.43
564.08	355.76
564.24	486.83
564.41	451.72
564.57	423.64
564.74	388.53
564.90	418.96
565.07	397.89
565.23	433.00
565.39	451.72
565.56	428.32
565.72	402.57
565.88	374.49
566.05	454.06
566.21	442.36
566.38	430.66
566.54	409.59
566.70	458.74
566.87	348.74
567.03	468.11
567.19	351.08
567.36	395.55
567.52	423.64
567.68	437.68
567.85	428.32
568.01	393.21
568.17	404.91
568.34	416.62
568.50	461.09
568.66	484.49
568.83	458.74
568.99	416.62
569.15	465.77
569.32	381.51
569.48	447.04
569.64	477.47
569.81	397.89
569.97	449.38
570.13	423.64
570.30	461.09
570.46	447.04
570.62	428.32
570.78	447.04
570.95	440.02
571.11	449.38
571.27	463.43
571.43	442.36
571.60	428.32
571.76	383.85
571.92	360.44
572.09	360.44
572.25	500.87
572.41	465.77
572.57	489.17
572.74	458.74
572.90	423.64
573.06	437.68
573.22	468.11
573.38	400.23
573.55	414.27
573.71	404.91
573.87	449.38
574.03	433.00
574.20	407.25
574.36	397.89
574.52	372.15
574.68	423.64
574.84	451.72
575.01	440.02
575.17	437.68
575.33	444.70
575.49	388.53
575.65	437.68
575.82	433.00
575.98	407.25
576.14	451.72
576.30	433.00
576.46	418.96
576.62	442.36
576.79	383.85
576.95	454.06
577.11	418.96
577.27	430.66
577.43	400.23
577.59	456.40
577.75	458.74
577.92	404.91
578.08	369.80
578.24	409.59
578.40	440.02
578.56	372.15
578.72	416.62
578.88	437.68
579.04	475.13
579.21	444.70
579.37	430.66
579.53	440.02
579.69	463.43
579.85	402.57
580.01	379.17
580.17	386.19
580.33	416.62
580.49	465.77
580.65	454.06
580.82	456.40
580.98	388.53
581.14	418.96
581.30	521.94
581.46	402.57
581.62	383.85
581.78	442.36
581.94	430.66
582.10	428.32
582.26	397.89
582.42	404.91
582.58	416.62
582.74	472.79
582.90	369.80
583.06	430.66
583.22	397.89
583.38	423.64
583.54	505.56
583.70	451.72
583.86	451.72
584.02	414.27
584.18	383.85
584.34	433.00
584.50	444.70
584.66	397.89
584.82	433.00
584.98	444.70
585.14	430.66
585.30	491.51
585.46	400.23
585.62	402.57
585.78	458.74
585.94	456.40
586.10	390.87
586.26	395.55
586.42	500.87
586.58	482.15
586.74	411.93
586.90	456.40
587.06	433.00
587.22	449.38
587.38	383.85
587.54	348.74
587.70	454.06
587.86	388.53
588.02	456.40
588.18	463.43
588.34	416.62
588.49	418.96
588.65	433.00
588.81	390.87
588.97	360.44
589.13	437.68
589.29	451.72
589.45	325.33
589.61	381.51
589.77	454.06
589.93	477.47
590.08	379.17
590.24	381.51
590.40	369.80
590.56	390.87
590.72	404.91
590.88	435.34
591.04	355.76
591.20	430.66
591.35	430.66
591.51	430.66
591.67	435.34
591.83	435.34
591.99	437.68
592.15	461.09
592.31	386.19
592.46	365.12
592.62	400.23
592.78	351.08
592.94	475.13
593.10	442.36
593.26	430.66
593.41	449.38
593.57	369.80
593.73	339.38
593.89	428.32
594.05	414.27
594.20	463.43
594.36	449.38
594.52	470.45
594.68	369.80
594.84	442.36
594.99	442.36
595.15	386.19
595.31	447.04
595.47	486.83
595.62	428.32
595.78	346.40
595.94	425.98
596.10	470.45
596.25	358.10
596.41	465.77
596.57	433.00
596.73	423.64
596.88	346.40
597.04	369.80
597.20	355.76
597.36	421.30
597.51	404.91
597.67	341.72
597.83	418.96
597.99	390.87
598.14	393.21
598.30	395.55
598.46	332.36
598.61	346.40
598.77	372.15
598.93	402.57
599.09	440.02
599.24	447.04
599.40	367.46
599.56	440.02
599.71	327.68
599.87	451.72
600.03	463.43
600.18	402.57
600.34	437.68
600.50	341.72
600.65	400.23
600.81	423.64
600.97	362.78
601.12	379.17
601.28	470.45
601.44	496.19
601.59	355.76
601.75	407.25
601.91	491.51
602.06	435.34
602.22	507.90
602.37	433.00
602.53	381.51
602.69	414.27
602.84	531.30
603.00	440.02
603.16	390.87
603.31	472.79
603.47	400.23
603.62	414.27
603.78	428.32
603.94	447.04
604.09	409.59
604.25	407.25
604.40	430.66
604.56	386.19
604.71	440.02
604.87	425.98
605.03	479.81
605.18	346.40
605.34	428.32
605.49	418.96
605.65	428.32
605.80	411.93
605.96	468.11
606.12	414.27
606.27	414.27
606.43	416.62
606.58	463.43
606.74	400.23
606.89	374.49
607.05	395.55
607.20	386.19
607.36	458.74
607.51	517.26
607.67	449.38
607.82	421.30
607.98	489.17
608.13	498.53
608.29	437.68
608.44	428.32
608.60	435.34
608.75	407.25
608.91	397.89
609.06	407.25
609.22	395.55
609.37	402.57
609.53	411.93
609.68	425.98
609.84	374.49
609.99	430.66
610.15	437.68
