SpectraSuite Data File
++++++++++++++++++++++++++++++++++++
Date: Fri Oct 25 12:10:47 EDT 2013
User: price-jones
Dark Spectrum Present: No
Reference Spectrum Present: No
Number of Sampled Component Spectra: 1
Spectrometers: USB2+H05261
Integration Time (usec): 100000 (USB2+H05261)
Spectra Averaged: 1 (USB2+H05261)
Boxcar Smoothing: 0 (USB2+H05261)
Correct for Electrical Dark: No (USB2+H05261)
Strobe/Lamp Enabled: No (USB2+H05261)
Correct for Detector Non-linearity: No (USB2+H05261)
Correct for Stray Light: No (USB2+H05261)
Number of Pixels in Processed Spectrum: 2048
>>>>>Begin Processed Spectral Data<<<<<
365.73	379.17
365.92	379.17
366.12	379.17
366.32	255.12
366.52	255.12
366.72	245.76
366.91	229.37
367.11	285.55
367.31	184.90
367.51	269.16
367.70	243.42
367.90	180.22
368.10	222.35
368.30	259.80
368.49	250.44
368.69	285.55
368.89	201.29
369.09	367.46
369.28	278.52
369.48	306.61
369.68	301.93
369.87	271.50
370.07	276.18
370.27	362.78
370.47	325.33
370.66	346.40
370.86	322.99
371.06	395.55
371.25	416.62
371.45	402.57
371.65	400.23
371.84	390.87
372.04	360.44
372.24	390.87
372.44	369.80
372.63	435.34
372.83	395.55
373.03	374.49
373.22	388.53
373.42	395.55
373.62	351.08
373.81	442.36
374.01	386.19
374.21	505.56
374.40	444.70
374.60	400.23
374.79	416.62
374.99	421.30
375.19	456.40
375.38	437.68
375.58	482.15
375.78	407.25
375.97	416.62
376.17	449.38
376.37	411.93
376.56	372.15
376.76	428.32
376.95	463.43
377.15	437.68
377.35	416.62
377.54	425.98
377.74	365.12
377.93	423.64
378.13	390.87
378.33	416.62
378.52	465.77
378.72	430.66
378.91	472.79
379.11	334.70
379.31	409.59
379.50	456.40
379.70	435.34
379.89	421.30
380.09	395.55
380.28	355.76
380.48	379.17
380.68	355.76
380.87	365.12
381.07	458.74
381.26	383.85
381.46	351.08
381.65	393.21
381.85	409.59
382.04	454.06
382.24	418.96
382.43	444.70
382.63	425.98
382.83	358.10
383.02	470.45
383.22	402.57
383.41	390.87
383.61	365.12
383.80	425.98
384.00	421.30
384.19	449.38
384.39	442.36
384.58	374.49
384.78	332.36
384.97	409.59
385.17	360.44
385.36	407.25
385.56	437.68
385.75	369.80
385.95	339.38
386.14	407.25
386.34	362.78
386.53	428.32
386.72	454.06
386.92	447.04
387.11	465.77
387.31	461.09
387.50	482.15
387.70	365.12
387.89	388.53
388.09	386.19
388.28	435.34
388.48	447.04
388.67	409.59
388.86	449.38
389.06	379.17
389.25	400.23
389.45	402.57
389.64	414.27
389.84	444.70
390.03	353.42
390.22	344.06
390.42	411.93
390.61	374.49
390.81	334.70
391.00	397.89
391.19	454.06
391.39	388.53
391.58	428.32
391.78	458.74
391.97	444.70
392.16	444.70
392.36	493.85
392.55	404.91
392.75	440.02
392.94	440.02
393.13	395.55
393.33	374.49
393.52	390.87
393.71	435.34
393.91	418.96
394.10	393.21
394.29	447.04
394.49	390.87
394.68	421.30
394.88	435.34
395.07	395.55
395.26	379.17
395.46	376.83
395.65	407.25
395.84	411.93
396.04	397.89
396.23	470.45
396.42	400.23
396.62	461.09
396.81	409.59
397.00	451.72
397.19	369.80
397.39	428.32
397.58	372.15
397.77	344.06
397.97	414.27
398.16	435.34
398.35	433.00
398.55	318.31
398.74	390.87
398.93	353.42
399.12	376.83
399.32	351.08
399.51	332.36
399.70	423.64
399.90	388.53
400.09	430.66
400.28	407.25
400.47	407.25
400.67	437.68
400.86	423.64
401.05	355.76
401.24	475.13
401.44	367.46
401.63	411.93
401.82	435.34
402.01	418.96
402.21	393.21
402.40	437.68
402.59	477.47
402.78	379.17
402.97	407.25
403.17	418.96
403.36	430.66
403.55	428.32
403.74	454.06
403.93	339.38
404.13	484.49
404.32	451.72
404.51	411.93
404.70	379.17
404.89	360.44
405.09	475.13
405.28	402.57
405.47	444.70
405.66	428.32
405.85	421.30
406.05	463.43
406.24	353.42
406.43	444.70
406.62	407.25
406.81	484.49
407.00	404.91
407.20	425.98
407.39	454.06
407.58	348.74
407.77	421.30
407.96	444.70
408.15	393.21
408.34	397.89
408.54	393.21
408.73	386.19
408.92	383.85
409.11	376.83
409.30	402.57
409.49	449.38
409.68	418.96
409.87	383.85
410.07	372.15
410.26	425.98
410.45	367.46
410.64	435.34
410.83	440.02
411.02	418.96
411.21	411.93
411.40	456.40
411.59	416.62
411.78	341.72
411.98	369.80
412.17	346.40
412.36	444.70
412.55	383.85
412.74	437.68
412.93	470.45
413.12	454.06
413.31	447.04
413.50	531.30
413.69	430.66
413.88	383.85
414.07	379.17
414.26	386.19
414.45	294.91
414.64	341.72
414.83	458.74
415.02	365.12
415.22	458.74
415.41	461.09
415.60	400.23
415.79	425.98
415.98	444.70
416.17	423.64
416.36	393.21
416.55	386.19
416.74	402.57
416.93	468.11
417.12	393.21
417.31	456.40
417.50	461.09
417.69	407.25
417.88	409.59
418.07	381.51
418.26	414.27
418.45	409.59
418.64	430.66
418.83	414.27
419.02	437.68
419.21	400.23
419.39	411.93
419.58	397.89
419.77	407.25
419.96	421.30
420.15	447.04
420.34	355.76
420.53	430.66
420.72	444.70
420.91	433.00
421.10	440.02
421.29	386.19
421.48	386.19
421.67	404.91
421.86	383.85
422.05	421.30
422.24	447.04
422.43	397.89
422.61	365.12
422.80	409.59
422.99	416.62
423.18	360.44
423.37	430.66
423.56	430.66
423.75	465.77
423.94	362.78
424.13	395.55
424.32	409.59
424.50	379.17
424.69	397.89
424.88	423.64
425.07	411.93
425.26	414.27
425.45	425.98
425.64	372.15
425.83	388.53
426.01	397.89
426.20	358.10
426.39	381.51
426.58	435.34
426.77	435.34
426.96	425.98
427.15	423.64
427.33	386.19
427.52	358.10
427.71	428.32
427.90	358.10
428.09	470.45
428.28	402.57
428.46	418.96
428.65	369.80
428.84	423.64
429.03	411.93
429.22	421.30
429.40	418.96
429.59	435.34
429.78	367.46
429.97	425.98
430.16	456.40
430.34	421.30
430.53	369.80
430.72	425.98
430.91	437.68
431.10	393.21
431.28	400.23
431.47	477.47
431.66	367.46
431.85	416.62
432.03	435.34
432.22	418.96
432.41	369.80
432.60	318.31
432.79	430.66
432.97	425.98
433.16	437.68
433.35	386.19
433.54	393.21
433.72	421.30
433.91	365.12
434.10	461.09
434.28	414.27
434.47	397.89
434.66	395.55
434.85	425.98
435.03	463.43
435.22	416.62
435.41	493.85
435.59	458.74
435.78	411.93
435.97	428.32
436.16	423.64
436.34	423.64
436.53	458.74
436.72	456.40
436.90	395.55
437.09	334.70
437.28	346.40
437.46	407.25
437.65	526.62
437.84	397.89
438.02	451.72
438.21	409.59
438.40	395.55
438.58	435.34
438.77	442.36
438.96	337.04
439.14	388.53
439.33	465.77
439.52	449.38
439.70	500.87
439.89	472.79
440.08	454.06
440.26	358.10
440.45	411.93
440.63	411.93
440.82	423.64
441.01	379.17
441.19	369.80
441.38	418.96
441.57	435.34
441.75	493.85
441.94	454.06
442.12	386.19
442.31	458.74
442.50	423.64
442.68	407.25
442.87	390.87
443.05	449.38
443.24	414.27
443.43	456.40
443.61	451.72
443.80	475.13
443.98	379.17
444.17	348.74
444.35	390.87
444.54	423.64
444.73	428.32
444.91	418.96
445.10	407.25
445.28	374.49
445.47	355.76
445.65	393.21
445.84	381.51
446.02	358.10
446.21	409.59
446.39	397.89
446.58	367.46
446.77	381.51
446.95	367.46
447.14	386.19
447.32	463.43
447.51	454.06
447.69	409.59
447.88	395.55
448.06	425.98
448.25	376.83
448.43	430.66
448.62	425.98
448.80	430.66
448.99	444.70
449.17	365.12
449.36	430.66
449.54	444.70
449.73	379.17
449.91	344.06
450.10	372.15
450.28	416.62
450.46	416.62
450.65	400.23
450.83	379.17
451.02	393.21
451.20	454.06
451.39	416.62
451.57	376.83
451.76	362.78
451.94	458.74
452.13	425.98
452.31	388.53
452.49	472.79
452.68	468.11
452.86	367.46
453.05	493.85
453.23	458.74
453.42	379.17
453.60	477.47
453.78	423.64
453.97	421.30
454.15	433.00
454.34	367.46
454.52	470.45
454.70	484.49
454.89	411.93
455.07	360.44
455.26	395.55
455.44	337.04
455.62	454.06
455.81	376.83
455.99	400.23
456.17	440.02
456.36	449.38
456.54	414.27
456.73	393.21
456.91	409.59
457.09	454.06
457.28	402.57
457.46	414.27
457.64	425.98
457.83	341.72
458.01	353.42
458.19	414.27
458.38	442.36
458.56	395.55
458.74	400.23
458.93	372.15
459.11	402.57
459.29	430.66
459.48	451.72
459.66	475.13
459.84	433.00
460.03	472.79
460.21	449.38
460.39	486.83
460.57	414.27
460.76	517.26
460.94	388.53
461.12	409.59
461.31	414.27
461.49	437.68
461.67	414.27
461.85	369.80
462.04	430.66
462.22	873.02
462.40	388.53
462.59	496.19
462.77	351.08
462.95	440.02
463.13	362.78
463.32	484.49
463.50	414.27
463.68	447.04
463.86	322.99
464.05	381.51
464.23	337.04
464.41	407.25
464.59	451.72
464.78	430.66
464.96	376.83
465.14	374.49
465.32	355.76
465.50	416.62
465.69	379.17
465.87	327.68
466.05	390.87
466.23	376.83
466.41	418.96
466.60	386.19
466.78	425.98
466.96	423.64
467.14	428.32
467.32	433.00
467.51	386.19
467.69	355.76
467.87	435.34
468.05	418.96
468.23	416.62
468.41	379.17
468.60	437.68
468.78	514.92
468.96	442.36
469.14	407.25
469.32	430.66
469.50	428.32
469.69	449.38
469.87	421.30
470.05	393.21
470.23	393.21
470.41	411.93
470.59	386.19
470.77	468.11
470.95	308.95
471.14	437.68
471.32	409.59
471.50	447.04
471.68	451.72
471.86	414.27
472.04	376.83
472.22	433.00
472.40	365.12
472.58	369.80
472.77	416.62
472.95	383.85
473.13	449.38
473.31	407.25
473.49	360.44
473.67	425.98
473.85	402.57
474.03	421.30
474.21	433.00
474.39	456.40
474.57	491.51
474.75	440.02
474.93	463.43
475.12	425.98
475.30	390.87
475.48	393.21
475.66	421.30
475.84	454.06
476.02	409.59
476.20	383.85
476.38	435.34
476.56	477.47
476.74	327.68
476.92	390.87
477.10	449.38
477.28	449.38
477.46	440.02
477.64	400.23
477.82	433.00
478.00	355.76
478.18	379.17
478.36	365.12
478.54	444.70
478.72	444.70
478.90	395.55
479.08	491.51
479.26	393.21
479.44	428.32
479.62	423.64
479.80	337.04
479.98	327.68
480.16	344.06
480.34	386.19
480.52	397.89
480.70	519.60
480.88	430.66
481.06	393.21
481.24	418.96
481.41	379.17
481.59	414.27
481.77	437.68
481.95	421.30
482.13	435.34
482.31	409.59
482.49	440.02
482.67	416.62
482.85	386.19
483.03	409.59
483.21	315.97
483.39	423.64
483.57	341.72
483.74	409.59
483.92	425.98
484.10	362.78
484.28	449.38
484.46	472.79
484.64	416.62
484.82	463.43
485.00	393.21
485.18	535.98
485.35	395.55
485.53	451.72
485.71	454.06
485.89	395.55
486.07	393.21
486.25	444.70
486.43	451.72
486.61	416.62
486.78	440.02
486.96	386.19
487.14	411.93
487.32	374.49
487.50	379.17
487.68	404.91
487.85	395.55
488.03	365.12
488.21	386.19
488.39	358.10
488.57	351.08
488.75	418.96
488.92	496.19
489.10	397.89
489.28	486.83
489.46	414.27
489.64	433.00
489.81	428.32
489.99	423.64
490.17	433.00
490.35	388.53
490.53	472.79
490.70	397.89
490.88	369.80
491.06	435.34
491.24	400.23
491.41	444.70
491.59	433.00
491.77	379.17
491.95	388.53
492.13	346.40
492.30	423.64
492.48	372.15
492.66	416.62
492.84	404.91
493.01	440.02
493.19	409.59
493.37	475.13
493.54	454.06
493.72	397.89
493.90	397.89
494.08	416.62
494.25	414.27
494.43	407.25
494.61	440.02
494.79	414.27
494.96	430.66
495.14	444.70
495.32	430.66
495.49	447.04
495.67	461.09
495.85	433.00
496.02	381.51
496.20	390.87
496.38	458.74
496.55	414.27
496.73	390.87
496.91	404.91
497.09	388.53
497.26	402.57
497.44	444.70
497.62	454.06
497.79	376.83
497.97	423.64
498.14	451.72
498.32	493.85
498.50	454.06
498.67	454.06
498.85	393.21
499.03	435.34
499.20	454.06
499.38	449.38
499.56	400.23
499.73	477.47
499.91	493.85
500.08	470.45
500.26	381.51
500.44	437.68
500.61	414.27
500.79	423.64
500.97	461.09
501.14	449.38
501.32	435.34
501.49	341.72
501.67	397.89
501.84	390.87
502.02	437.68
502.20	402.57
502.37	407.25
502.55	327.68
502.72	400.23
502.90	458.74
503.07	468.11
503.25	479.81
503.43	386.19
503.60	458.74
503.78	372.15
503.95	416.62
504.13	388.53
504.30	360.44
504.48	393.21
504.65	404.91
504.83	372.15
505.01	425.98
505.18	390.87
505.36	306.61
505.53	344.06
505.71	409.59
505.88	451.72
506.06	365.12
506.23	369.80
506.41	386.19
506.58	395.55
506.76	414.27
506.93	409.59
507.11	386.19
507.28	397.89
507.46	461.09
507.63	423.64
507.81	381.51
507.98	418.96
508.16	404.91
508.33	416.62
508.50	418.96
508.68	423.64
508.85	355.76
509.03	442.36
509.20	400.23
509.38	458.74
509.55	379.17
509.73	365.12
509.90	423.64
510.08	414.27
510.25	437.68
510.42	388.53
510.60	402.57
510.77	390.87
510.95	423.64
511.12	395.55
511.30	402.57
511.47	376.83
511.64	440.02
511.82	376.83
511.99	444.70
512.17	404.91
512.34	381.51
512.51	374.49
512.69	461.09
512.86	482.15
513.04	421.30
513.21	461.09
513.38	407.25
513.56	418.96
513.73	451.72
513.90	421.30
514.08	346.40
514.25	348.74
514.43	397.89
514.60	388.53
514.77	416.62
514.95	430.66
515.12	444.70
515.29	437.68
515.47	451.72
515.64	479.81
515.81	383.85
515.99	449.38
516.16	381.51
516.33	433.00
516.51	440.02
516.68	358.10
516.85	379.17
517.03	400.23
517.20	383.85
517.37	416.62
517.54	435.34
517.72	414.27
517.89	325.33
518.06	463.43
518.24	440.02
518.41	507.90
518.58	421.30
518.75	362.78
518.93	397.89
519.10	414.27
519.27	437.68
519.45	454.06
519.62	458.74
519.79	444.70
519.96	393.21
520.14	372.15
520.31	458.74
520.48	358.10
520.65	416.62
520.83	383.85
521.00	423.64
521.17	510.24
521.34	346.40
521.52	433.00
521.69	440.02
521.86	477.47
522.03	423.64
522.20	449.38
522.38	369.80
522.55	409.59
522.72	447.04
522.89	430.66
523.07	447.04
523.24	397.89
523.41	376.83
523.58	379.17
523.75	320.65
523.92	327.68
524.10	360.44
524.27	409.59
524.44	463.43
524.61	437.68
524.78	414.27
524.96	383.85
525.13	449.38
525.30	449.38
525.47	381.51
525.64	423.64
525.81	409.59
525.98	414.27
526.16	395.55
526.33	430.66
526.50	337.04
526.67	421.30
526.84	454.06
527.01	376.83
527.18	379.17
527.36	418.96
527.53	365.12
527.70	430.66
527.87	442.36
528.04	465.77
528.21	440.02
528.38	425.98
528.55	493.85
528.72	442.36
528.89	409.59
529.07	409.59
529.24	477.47
529.41	503.22
529.58	388.53
529.75	463.43
529.92	479.81
530.09	383.85
530.26	449.38
530.43	409.59
530.60	404.91
530.77	379.17
530.94	418.96
531.11	390.87
531.28	491.51
531.46	393.21
531.63	425.98
531.80	418.96
531.97	393.21
532.14	395.55
532.31	418.96
532.48	447.04
532.65	386.19
532.82	425.98
532.99	383.85
533.16	407.25
533.33	425.98
533.50	393.21
533.67	360.44
533.84	425.98
534.01	369.80
534.18	461.09
534.35	425.98
534.52	360.44
534.69	428.32
534.86	409.59
535.03	409.59
535.20	435.34
535.37	421.30
535.54	425.98
535.71	454.06
535.88	402.57
536.05	416.62
536.22	376.83
536.38	423.64
536.55	444.70
536.72	486.83
536.89	409.59
537.06	402.57
537.23	388.53
537.40	393.21
537.57	376.83
537.74	409.59
537.91	449.38
538.08	418.96
538.25	346.40
538.42	339.38
538.59	423.64
538.75	444.70
538.92	397.89
539.09	435.34
539.26	362.78
539.43	414.27
539.60	421.30
539.77	425.98
539.94	437.68
540.11	472.79
540.28	421.30
540.44	491.51
540.61	512.58
540.78	435.34
540.95	402.57
541.12	463.43
541.29	390.87
541.46	428.32
541.62	411.93
541.79	447.04
541.96	383.85
542.13	477.47
542.30	376.83
542.47	433.00
542.63	435.34
542.80	402.57
542.97	362.78
543.14	440.02
543.31	512.58
543.48	449.38
543.64	433.00
543.81	479.81
543.98	369.80
544.15	381.51
544.32	341.72
544.48	423.64
544.65	348.74
544.82	402.57
544.99	402.57
545.16	425.98
545.32	409.59
545.49	425.98
545.66	451.72
545.83	381.51
546.00	372.15
546.16	447.04
546.33	407.25
546.50	372.15
546.67	472.79
546.83	449.38
547.00	475.13
547.17	388.53
547.34	421.30
547.50	418.96
547.67	388.53
547.84	411.93
548.00	400.23
548.17	381.51
548.34	390.87
548.51	458.74
548.67	386.19
548.84	435.34
549.01	411.93
549.18	444.70
549.34	409.59
549.51	404.91
549.68	430.66
549.84	428.32
550.01	435.34
550.18	540.66
550.34	454.06
550.51	461.09
550.68	475.13
550.84	372.15
551.01	379.17
551.18	386.19
551.34	407.25
551.51	440.02
551.68	362.78
551.84	376.83
552.01	447.04
552.18	458.74
552.34	407.25
552.51	402.57
552.68	440.02
552.84	425.98
553.01	479.81
553.18	411.93
553.34	395.55
553.51	402.57
553.67	470.45
553.84	463.43
554.01	447.04
554.17	344.06
554.34	311.29
554.51	428.32
554.67	379.17
554.84	433.00
555.00	397.89
555.17	407.25
555.33	416.62
555.50	442.36
555.67	379.17
555.83	456.40
556.00	421.30
556.16	496.19
556.33	454.06
556.50	444.70
556.66	383.85
556.83	397.89
556.99	451.72
557.16	421.30
557.32	411.93
557.49	472.79
557.65	416.62
557.82	486.83
557.98	428.32
558.15	400.23
558.32	390.87
558.48	393.21
558.65	409.59
558.81	421.30
558.98	421.30
559.14	397.89
559.31	456.40
559.47	430.66
559.64	421.30
559.80	425.98
559.97	390.87
560.13	390.87
560.30	381.51
560.46	421.30
560.63	496.19
560.79	428.32
560.96	388.53
561.12	383.85
561.29	411.93
561.45	376.83
561.61	325.33
561.78	482.15
561.94	416.62
562.11	386.19
562.27	521.94
562.44	414.27
562.60	444.70
562.77	430.66
562.93	486.83
563.10	472.79
563.26	388.53
563.42	451.72
563.59	423.64
563.75	400.23
563.92	402.57
564.08	411.93
564.24	454.06
564.41	425.98
564.57	374.49
564.74	421.30
564.90	397.89
565.07	482.15
565.23	442.36
565.39	369.80
565.56	437.68
565.72	400.23
565.88	402.57
566.05	428.32
566.21	430.66
566.38	404.91
566.54	442.36
566.70	433.00
566.87	397.89
567.03	430.66
567.19	362.78
567.36	449.38
567.52	374.49
567.68	425.98
567.85	416.62
568.01	409.59
568.17	372.15
568.34	404.91
568.50	409.59
568.66	440.02
568.83	503.22
568.99	477.47
569.15	458.74
569.32	416.62
569.48	425.98
569.64	414.27
569.81	416.62
569.97	430.66
570.13	454.06
570.30	447.04
570.46	444.70
570.62	451.72
570.78	458.74
570.95	353.42
571.11	444.70
571.27	430.66
571.43	430.66
571.60	440.02
571.76	383.85
571.92	423.64
572.09	409.59
572.25	433.00
572.41	306.61
572.57	388.53
572.74	461.09
572.90	437.68
573.06	428.32
573.22	409.59
573.38	414.27
573.55	409.59
573.71	395.55
573.87	414.27
574.03	393.21
574.20	404.91
574.36	383.85
574.52	355.76
574.68	430.66
574.84	435.34
575.01	388.53
575.17	425.98
575.33	416.62
575.49	367.46
575.65	444.70
575.82	365.12
575.98	461.09
576.14	442.36
576.30	379.17
576.46	374.49
576.62	461.09
576.79	440.02
576.95	498.53
577.11	407.25
577.27	360.44
577.43	369.80
577.59	442.36
577.75	330.02
577.92	376.83
578.08	433.00
578.24	428.32
578.40	461.09
578.56	397.89
578.72	376.83
578.88	404.91
579.04	381.51
579.21	346.40
579.37	421.30
579.53	428.32
579.69	404.91
579.85	376.83
580.01	411.93
580.17	379.17
580.33	437.68
580.49	477.47
580.65	449.38
580.82	444.70
580.98	395.55
581.14	400.23
581.30	400.23
581.46	468.11
581.62	425.98
581.78	433.00
581.94	451.72
582.10	386.19
582.26	463.43
582.42	369.80
582.58	418.96
582.74	425.98
582.90	430.66
583.06	409.59
583.22	409.59
583.38	360.44
583.54	388.53
583.70	376.83
583.86	447.04
584.02	442.36
584.18	407.25
584.34	414.27
584.50	421.30
584.66	379.17
584.82	454.06
584.98	374.49
585.14	486.83
585.30	493.85
585.46	430.66
585.62	379.17
585.78	367.46
585.94	400.23
586.10	390.87
586.26	374.49
586.42	456.40
586.58	383.85
586.74	395.55
586.90	463.43
587.06	433.00
587.22	428.32
587.38	463.43
587.54	402.57
587.70	468.11
587.86	428.32
588.02	456.40
588.18	435.34
588.34	395.55
588.49	411.93
588.65	365.12
588.81	489.17
588.97	425.98
589.13	367.46
589.29	472.79
589.45	482.15
589.61	397.89
589.77	425.98
589.93	404.91
590.08	421.30
590.24	400.23
590.40	372.15
590.56	479.81
590.72	414.27
590.88	400.23
591.04	428.32
591.20	498.53
591.35	430.66
591.51	390.87
591.67	376.83
591.83	421.30
591.99	360.44
592.15	330.02
592.31	355.76
592.46	444.70
592.62	433.00
592.78	395.55
592.94	400.23
593.10	362.78
593.26	355.76
593.41	493.85
593.57	442.36
593.73	358.10
593.89	411.93
594.05	449.38
594.20	397.89
594.36	433.00
594.52	444.70
594.68	428.32
594.84	479.81
594.99	451.72
595.15	463.43
595.31	425.98
595.47	381.51
595.62	402.57
595.78	463.43
595.94	372.15
596.10	442.36
596.25	390.87
596.41	425.98
596.57	454.06
596.73	376.83
596.88	379.17
597.04	409.59
597.20	425.98
597.36	491.51
597.51	390.87
597.67	423.64
597.83	402.57
597.99	433.00
598.14	444.70
598.30	486.83
598.46	381.51
598.61	440.02
598.77	444.70
598.93	383.85
599.09	465.77
599.24	475.13
599.40	444.70
599.56	351.08
599.71	454.06
599.87	414.27
600.03	489.17
600.18	374.49
600.34	470.45
600.50	418.96
600.65	322.99
600.81	416.62
600.97	411.93
601.12	437.68
601.28	409.59
601.44	433.00
601.59	381.51
601.75	395.55
601.91	440.02
602.06	400.23
602.22	468.11
602.37	461.09
602.53	456.40
602.69	386.19
602.84	451.72
603.00	360.44
603.16	447.04
603.31	461.09
603.47	468.11
603.62	409.59
603.78	468.11
603.94	447.04
604.09	379.17
604.25	456.40
604.40	388.53
604.56	411.93
604.71	444.70
604.87	407.25
605.03	456.40
605.18	402.57
605.34	449.38
605.49	433.00
605.65	493.85
605.80	407.25
605.96	379.17
606.12	397.89
606.27	355.76
606.43	362.78
606.58	514.92
606.74	376.83
606.89	344.06
607.05	407.25
607.20	402.57
607.36	435.34
607.51	430.66
607.67	435.34
607.82	433.00
607.98	519.60
608.13	353.42
608.29	463.43
608.44	414.27
608.60	397.89
608.75	409.59
608.91	440.02
609.06	414.27
609.22	451.72
609.37	470.45
609.53	428.32
609.68	437.68
609.84	418.96
609.99	395.55
610.15	482.15
