SpectraSuite Data File
++++++++++++++++++++++++++++++++++++
Date: Fri Oct 25 12:10:52 EDT 2013
User: price-jones
Dark Spectrum Present: No
Reference Spectrum Present: No
Number of Sampled Component Spectra: 1
Spectrometers: USB2+H05261
Integration Time (usec): 100000 (USB2+H05261)
Spectra Averaged: 1 (USB2+H05261)
Boxcar Smoothing: 0 (USB2+H05261)
Correct for Electrical Dark: No (USB2+H05261)
Strobe/Lamp Enabled: No (USB2+H05261)
Correct for Detector Non-linearity: No (USB2+H05261)
Correct for Stray Light: No (USB2+H05261)
Number of Pixels in Processed Spectrum: 2048
>>>>>Begin Processed Spectral Data<<<<<
365.73	376.83
365.92	376.83
366.12	376.83
366.32	234.05
366.52	208.31
366.72	234.05
366.91	252.78
367.11	292.57
367.31	318.31
367.51	236.39
367.70	273.84
367.90	248.10
368.10	217.67
368.30	248.10
368.49	278.52
368.69	308.95
368.89	280.86
369.09	290.23
369.28	311.29
369.48	224.69
369.68	327.68
369.87	348.74
370.07	245.76
370.27	283.20
370.47	341.72
370.66	386.19
370.86	379.17
371.06	341.72
371.25	411.93
371.45	367.46
371.65	407.25
371.84	381.51
372.04	339.38
372.24	442.36
372.44	463.43
372.63	407.25
372.83	355.76
373.03	379.17
373.22	468.11
373.42	418.96
373.62	454.06
373.81	393.21
374.01	433.00
374.21	444.70
374.40	400.23
374.60	472.79
374.79	470.45
374.99	379.17
375.19	454.06
375.38	451.72
375.58	442.36
375.78	428.32
375.97	461.09
376.17	512.58
376.37	456.40
376.56	416.62
376.76	400.23
376.95	367.46
377.15	444.70
377.35	393.21
377.54	362.78
377.74	433.00
377.93	355.76
378.13	433.00
378.33	447.04
378.52	383.85
378.72	449.38
378.91	362.78
379.11	402.57
379.31	390.87
379.50	379.17
379.70	402.57
379.89	416.62
380.09	409.59
380.28	381.51
380.48	360.44
380.68	351.08
380.87	414.27
381.07	353.42
381.26	468.11
381.46	395.55
381.65	365.12
381.85	330.02
382.04	437.68
382.24	374.49
382.43	437.68
382.63	390.87
382.83	437.68
383.02	407.25
383.22	435.34
383.41	444.70
383.61	425.98
383.80	444.70
384.00	430.66
384.19	425.98
384.39	381.51
384.58	411.93
384.78	411.93
384.97	416.62
385.17	332.36
385.36	475.13
385.56	451.72
385.75	388.53
385.95	404.91
386.14	430.66
386.34	423.64
386.53	390.87
386.72	404.91
386.92	477.47
387.11	334.70
387.31	425.98
387.50	437.68
387.70	423.64
387.89	435.34
388.09	402.57
388.28	348.74
388.48	411.93
388.67	404.91
388.86	414.27
389.06	379.17
389.25	416.62
389.45	400.23
389.64	482.15
389.84	381.51
390.03	393.21
390.22	404.91
390.42	341.72
390.61	351.08
390.81	400.23
391.00	386.19
391.19	451.72
391.39	477.47
391.58	493.85
391.78	388.53
391.97	437.68
392.16	402.57
392.36	374.49
392.55	428.32
392.75	449.38
392.94	421.30
393.13	444.70
393.33	437.68
393.52	395.55
393.71	486.83
393.91	404.91
394.10	313.63
394.29	362.78
394.49	400.23
394.68	372.15
394.88	484.49
395.07	409.59
395.26	390.87
395.46	393.21
395.65	409.59
395.84	404.91
396.04	451.72
396.23	346.40
396.42	369.80
396.62	346.40
396.81	423.64
397.00	458.74
397.19	418.96
397.39	402.57
397.58	337.04
397.77	475.13
397.97	393.21
398.16	409.59
398.35	386.19
398.55	423.64
398.74	409.59
398.93	397.89
399.12	365.12
399.32	433.00
399.51	360.44
399.70	477.47
399.90	463.43
400.09	411.93
400.28	395.55
400.47	458.74
400.67	358.10
400.86	414.27
401.05	451.72
401.24	444.70
401.44	341.72
401.63	395.55
401.82	400.23
402.01	393.21
402.21	407.25
402.40	362.78
402.59	367.46
402.78	367.46
402.97	468.11
403.17	372.15
403.36	404.91
403.55	463.43
403.74	402.57
403.93	421.30
404.13	442.36
404.32	435.34
404.51	402.57
404.70	423.64
404.89	353.42
405.09	404.91
405.28	402.57
405.47	475.13
405.66	393.21
405.85	390.87
406.05	423.64
406.24	379.17
406.43	456.40
406.62	440.02
406.81	433.00
407.00	503.22
407.20	395.55
407.39	407.25
407.58	430.66
407.77	423.64
407.96	442.36
408.15	456.40
408.34	421.30
408.54	362.78
408.73	358.10
408.92	512.58
409.11	355.76
409.30	465.77
409.49	388.53
409.68	397.89
409.87	365.12
410.07	348.74
410.26	294.91
410.45	404.91
410.64	397.89
410.83	346.40
411.02	409.59
411.21	411.93
411.40	362.78
411.59	395.55
411.78	393.21
411.98	402.57
412.17	397.89
412.36	418.96
412.55	383.85
412.74	362.78
412.93	507.90
413.12	423.64
413.31	344.06
413.50	430.66
413.69	416.62
413.88	402.57
414.07	344.06
414.26	421.30
414.45	301.93
414.64	428.32
414.83	423.64
415.02	498.53
415.22	454.06
415.41	425.98
415.60	393.21
415.79	388.53
415.98	472.79
416.17	409.59
416.36	400.23
416.55	428.32
416.74	461.09
416.93	416.62
417.12	414.27
417.31	433.00
417.50	393.21
417.69	358.10
417.88	315.97
418.07	402.57
418.26	416.62
418.45	463.43
418.64	475.13
418.83	383.85
419.02	360.44
419.21	388.53
419.39	327.68
419.58	444.70
419.77	465.77
419.96	470.45
420.15	447.04
420.34	325.33
420.53	397.89
420.72	440.02
420.91	428.32
421.10	411.93
421.29	386.19
421.48	393.21
421.67	411.93
421.86	365.12
422.05	435.34
422.24	374.49
422.43	430.66
422.61	360.44
422.80	337.04
422.99	407.25
423.18	425.98
423.37	400.23
423.56	418.96
423.75	437.68
423.94	390.87
424.13	407.25
424.32	421.30
424.50	454.06
424.69	369.80
424.88	449.38
425.07	404.91
425.26	367.46
425.45	437.68
425.64	428.32
425.83	390.87
426.01	458.74
426.20	402.57
426.39	383.85
426.58	402.57
426.77	372.15
426.96	400.23
427.15	388.53
427.33	402.57
427.52	414.27
427.71	449.38
427.90	440.02
428.09	383.85
428.28	388.53
428.46	332.36
428.65	425.98
428.84	475.13
429.03	397.89
429.22	369.80
429.40	351.08
429.59	386.19
429.78	444.70
429.97	447.04
430.16	369.80
430.34	367.46
430.53	393.21
430.72	449.38
430.91	428.32
431.10	442.36
431.28	470.45
431.47	395.55
431.66	425.98
431.85	386.19
432.03	402.57
432.22	414.27
432.41	411.93
432.60	503.22
432.79	423.64
432.97	449.38
433.16	376.83
433.35	348.74
433.54	393.21
433.72	395.55
433.91	500.87
434.10	414.27
434.28	482.15
434.47	390.87
434.66	458.74
434.85	322.99
435.03	397.89
435.22	437.68
435.41	468.11
435.59	402.57
435.78	383.85
435.97	468.11
436.16	397.89
436.34	379.17
436.53	416.62
436.72	444.70
436.90	416.62
437.09	430.66
437.28	470.45
437.46	407.25
437.65	383.85
437.84	421.30
438.02	444.70
438.21	433.00
438.40	404.91
438.58	395.55
438.77	491.51
438.96	360.44
439.14	407.25
439.33	346.40
439.52	360.44
439.70	393.21
439.89	360.44
440.08	393.21
440.26	507.90
440.45	454.06
440.63	414.27
440.82	411.93
441.01	383.85
441.19	425.98
441.38	318.31
441.57	411.93
441.75	449.38
441.94	428.32
442.12	362.78
442.31	388.53
442.50	418.96
442.68	468.11
442.87	341.72
443.05	365.12
443.24	430.66
443.43	369.80
443.61	351.08
443.80	416.62
443.98	348.74
444.17	402.57
444.35	407.25
444.54	400.23
444.73	437.68
444.91	458.74
445.10	428.32
445.28	376.83
445.47	353.42
445.65	489.17
445.84	418.96
446.02	435.34
446.21	388.53
446.39	325.33
446.58	397.89
446.77	379.17
446.95	454.06
447.14	458.74
447.32	437.68
447.51	386.19
447.69	318.31
447.88	365.12
448.06	416.62
448.25	414.27
448.43	365.12
448.62	421.30
448.80	369.80
448.99	411.93
449.17	404.91
449.36	458.74
449.54	489.17
449.73	372.15
449.91	440.02
450.10	379.17
450.28	416.62
450.46	482.15
450.65	428.32
450.83	430.66
451.02	418.96
451.20	402.57
451.39	423.64
451.57	365.12
451.76	411.93
451.94	407.25
452.13	449.38
452.31	395.55
452.49	376.83
452.68	416.62
452.86	416.62
453.05	365.12
453.23	437.68
453.42	386.19
453.60	376.83
453.78	416.62
453.97	351.08
454.15	393.21
454.34	304.27
454.52	369.80
454.70	458.74
454.89	425.98
455.07	407.25
455.26	440.02
455.44	435.34
455.62	337.04
455.81	437.68
455.99	390.87
456.17	477.47
456.36	407.25
456.54	402.57
456.73	442.36
456.91	365.12
457.09	365.12
457.28	454.06
457.46	503.22
457.64	383.85
457.83	395.55
458.01	379.17
458.19	442.36
458.38	407.25
458.56	433.00
458.74	414.27
458.93	374.49
459.11	407.25
459.29	360.44
459.48	491.51
459.66	435.34
459.84	433.00
460.03	505.56
460.21	449.38
460.39	393.21
460.57	463.43
460.76	456.40
460.94	418.96
461.12	414.27
461.31	411.93
461.49	500.87
461.67	379.17
461.85	404.91
462.04	402.57
462.22	725.57
462.40	463.43
462.59	454.06
462.77	341.72
462.95	402.57
463.13	369.80
463.32	477.47
463.50	360.44
463.68	374.49
463.86	393.21
464.05	374.49
464.23	411.93
464.41	463.43
464.59	407.25
464.78	404.91
464.96	334.70
465.14	376.83
465.32	327.68
465.50	381.51
465.69	416.62
465.87	358.10
466.05	325.33
466.23	409.59
466.41	409.59
466.60	463.43
466.78	353.42
466.96	367.46
467.14	372.15
467.32	463.43
467.51	376.83
467.69	479.81
467.87	479.81
468.05	435.34
468.23	465.77
468.41	395.55
468.60	470.45
468.78	407.25
468.96	444.70
469.14	486.83
469.32	425.98
469.50	376.83
469.69	440.02
469.87	374.49
470.05	437.68
470.23	444.70
470.41	416.62
470.59	425.98
470.77	475.13
470.95	433.00
471.14	479.81
471.32	402.57
471.50	472.79
471.68	414.27
471.86	489.17
472.04	423.64
472.22	383.85
472.40	376.83
472.58	447.04
472.77	456.40
472.95	425.98
473.13	449.38
473.31	475.13
473.49	379.17
473.67	390.87
473.85	447.04
474.03	393.21
474.21	428.32
474.39	463.43
474.57	465.77
474.75	409.59
474.93	341.72
475.12	411.93
475.30	421.30
475.48	320.65
475.66	388.53
475.84	381.51
476.02	411.93
476.20	454.06
476.38	369.80
476.56	402.57
476.74	397.89
476.92	425.98
477.10	409.59
477.28	442.36
477.46	414.27
477.64	372.15
477.82	411.93
478.00	374.49
478.18	397.89
478.36	489.17
478.54	468.11
478.72	402.57
478.90	425.98
479.08	393.21
479.26	423.64
479.44	402.57
479.62	362.78
479.80	372.15
479.98	341.72
480.16	409.59
480.34	341.72
480.52	421.30
480.70	397.89
480.88	423.64
481.06	386.19
481.24	505.56
481.41	393.21
481.59	486.83
481.77	449.38
481.95	421.30
482.13	411.93
482.31	414.27
482.49	428.32
482.67	456.40
482.85	416.62
483.03	393.21
483.21	374.49
483.39	362.78
483.57	348.74
483.74	407.25
483.92	437.68
484.10	433.00
484.28	428.32
484.46	449.38
484.64	395.55
484.82	449.38
485.00	418.96
485.18	386.19
485.35	428.32
485.53	395.55
485.71	482.15
485.89	381.51
486.07	425.98
486.25	425.98
486.43	407.25
486.61	477.47
486.78	465.77
486.96	339.38
487.14	379.17
487.32	414.27
487.50	433.00
487.68	409.59
487.85	397.89
488.03	383.85
488.21	482.15
488.39	362.78
488.57	425.98
488.75	430.66
488.92	482.15
489.10	421.30
489.28	454.06
489.46	414.27
489.64	374.49
489.81	458.74
489.99	440.02
490.17	404.91
490.35	491.51
490.53	390.87
490.70	451.72
490.88	451.72
491.06	341.72
491.24	437.68
491.41	496.19
491.59	416.62
491.77	437.68
491.95	409.59
492.13	425.98
492.30	498.53
492.48	454.06
492.66	416.62
492.84	454.06
493.01	362.78
493.19	418.96
493.37	393.21
493.54	411.93
493.72	381.51
493.90	374.49
494.08	374.49
494.25	390.87
494.43	449.38
494.61	465.77
494.79	414.27
494.96	334.70
495.14	425.98
495.32	421.30
495.49	344.06
495.67	334.70
495.85	421.30
496.02	411.93
496.20	451.72
496.38	409.59
496.55	493.85
496.73	414.27
496.91	433.00
497.09	451.72
497.26	479.81
497.44	383.85
497.62	369.80
497.79	386.19
497.97	348.74
498.14	447.04
498.32	491.51
498.50	430.66
498.67	395.55
498.85	433.00
499.03	327.68
499.20	393.21
499.38	402.57
499.56	418.96
499.73	461.09
499.91	442.36
500.08	475.13
500.26	465.77
500.44	444.70
500.61	379.17
500.79	421.30
500.97	442.36
501.14	449.38
501.32	433.00
501.49	433.00
501.67	430.66
501.84	414.27
502.02	355.76
502.20	472.79
502.37	379.17
502.55	437.68
502.72	353.42
502.90	433.00
503.07	421.30
503.25	449.38
503.43	435.34
503.60	372.15
503.78	402.57
503.95	435.34
504.13	423.64
504.30	444.70
504.48	463.43
504.65	435.34
504.83	458.74
505.01	454.06
505.18	437.68
505.36	404.91
505.53	407.25
505.71	386.19
505.88	425.98
506.06	423.64
506.23	409.59
506.41	376.83
506.58	374.49
506.76	482.15
506.93	397.89
507.11	433.00
507.28	402.57
507.46	409.59
507.63	414.27
507.81	358.10
507.98	407.25
508.16	442.36
508.33	428.32
508.50	444.70
508.68	383.85
508.85	400.23
509.03	383.85
509.20	390.87
509.38	447.04
509.55	409.59
509.73	393.21
509.90	496.19
510.08	381.51
510.25	390.87
510.42	355.76
510.60	437.68
510.77	468.11
510.95	456.40
511.12	435.34
511.30	442.36
511.47	376.83
511.64	465.77
511.82	463.43
511.99	477.47
512.17	437.68
512.34	407.25
512.51	433.00
512.69	362.78
512.86	414.27
513.04	423.64
513.21	334.70
513.38	477.47
513.56	444.70
513.73	437.68
513.90	388.53
514.08	374.49
514.25	423.64
514.43	465.77
514.60	409.59
514.77	376.83
514.95	416.62
515.12	430.66
515.29	337.04
515.47	500.87
515.64	379.17
515.81	423.64
515.99	425.98
516.16	430.66
516.33	451.72
516.51	437.68
516.68	397.89
516.85	428.32
517.03	407.25
517.20	463.43
517.37	418.96
517.54	475.13
517.72	390.87
517.89	440.02
518.06	463.43
518.24	451.72
518.41	458.74
518.58	442.36
518.75	407.25
518.93	353.42
519.10	477.47
519.27	428.32
519.45	367.46
519.62	306.61
519.79	409.59
519.96	358.10
520.14	383.85
520.31	472.79
520.48	367.46
520.65	386.19
520.83	472.79
521.00	341.72
521.17	381.51
521.34	449.38
521.52	372.15
521.69	447.04
521.86	430.66
522.03	468.11
522.20	470.45
522.38	482.15
522.55	379.17
522.72	360.44
522.89	428.32
523.07	484.49
523.24	461.09
523.41	416.62
523.58	409.59
523.75	341.72
523.92	360.44
524.10	400.23
524.27	409.59
524.44	327.68
524.61	339.38
524.78	407.25
524.96	383.85
525.13	414.27
525.30	411.93
525.47	390.87
525.64	416.62
525.81	407.25
525.98	428.32
526.16	423.64
526.33	433.00
526.50	458.74
526.67	393.21
526.84	400.23
527.01	404.91
527.18	449.38
527.36	337.04
527.53	475.13
527.70	428.32
527.87	407.25
528.04	428.32
528.21	421.30
528.38	416.62
528.55	404.91
528.72	425.98
528.89	447.04
529.07	404.91
529.24	428.32
529.41	440.02
529.58	397.89
529.75	365.12
529.92	383.85
530.09	423.64
530.26	414.27
530.43	414.27
530.60	351.08
530.77	400.23
530.94	353.42
531.11	393.21
531.28	386.19
531.46	337.04
531.63	369.80
531.80	482.15
531.97	430.66
532.14	472.79
532.31	430.66
532.48	440.02
532.65	383.85
532.82	411.93
532.99	418.96
533.16	479.81
533.33	428.32
533.50	437.68
533.67	386.19
533.84	393.21
534.01	423.64
534.18	458.74
534.35	367.46
534.52	369.80
534.69	397.89
534.86	402.57
535.03	404.91
535.20	346.40
535.37	423.64
535.54	411.93
535.71	411.93
535.88	393.21
536.05	442.36
536.22	435.34
536.38	404.91
536.55	477.47
536.72	416.62
536.89	444.70
537.06	393.21
537.23	397.89
537.40	416.62
537.57	397.89
537.74	519.60
537.91	407.25
538.08	376.83
538.25	433.00
538.42	458.74
538.59	493.85
538.75	346.40
538.92	418.96
539.09	430.66
539.26	425.98
539.43	414.27
539.60	463.43
539.77	430.66
539.94	390.87
540.11	428.32
540.28	463.43
540.44	437.68
540.61	435.34
540.78	346.40
540.95	407.25
541.12	454.06
541.29	383.85
541.46	454.06
541.62	400.23
541.79	386.19
541.96	430.66
542.13	447.04
542.30	325.33
542.47	374.49
542.63	430.66
542.80	388.53
542.97	383.85
543.14	428.32
543.31	440.02
543.48	402.57
543.64	402.57
543.81	409.59
543.98	451.72
544.15	404.91
544.32	428.32
544.48	379.17
544.65	397.89
544.82	407.25
544.99	430.66
545.16	414.27
545.32	400.23
545.49	451.72
545.66	397.89
545.83	435.34
546.00	414.27
546.16	365.12
546.33	390.87
546.50	442.36
546.67	449.38
546.83	440.02
547.00	461.09
547.17	442.36
547.34	433.00
547.50	407.25
547.67	458.74
547.84	451.72
548.00	451.72
548.17	374.49
548.34	365.12
548.51	425.98
548.67	409.59
548.84	388.53
549.01	430.66
549.18	393.21
549.34	444.70
549.51	421.30
549.68	365.12
549.84	344.06
550.01	416.62
550.18	475.13
550.34	521.94
550.51	388.53
550.68	486.83
550.84	425.98
551.01	477.47
551.18	437.68
551.34	404.91
551.51	346.40
551.68	376.83
551.84	414.27
552.01	421.30
552.18	449.38
552.34	433.00
552.51	404.91
552.68	414.27
552.84	444.70
553.01	425.98
553.18	463.43
553.34	379.17
553.51	402.57
553.67	440.02
553.84	479.81
554.01	437.68
554.17	451.72
554.34	395.55
554.51	454.06
554.67	411.93
554.84	454.06
555.00	386.19
555.17	379.17
555.33	407.25
555.50	388.53
555.67	463.43
555.83	404.91
556.00	365.12
556.16	538.32
556.33	454.06
556.50	358.10
556.66	369.80
556.83	411.93
556.99	411.93
557.16	451.72
557.32	421.30
557.49	367.46
557.65	433.00
557.82	395.55
557.98	395.55
558.15	369.80
558.32	433.00
558.48	376.83
558.65	416.62
558.81	503.22
558.98	353.42
559.14	395.55
559.31	388.53
559.47	435.34
559.64	360.44
559.80	414.27
559.97	456.40
560.13	465.77
560.30	423.64
560.46	348.74
560.63	376.83
560.79	369.80
560.96	493.85
561.12	369.80
561.29	433.00
561.45	449.38
561.61	386.19
561.78	545.34
561.94	400.23
562.11	379.17
562.27	458.74
562.44	458.74
562.60	475.13
562.77	416.62
562.93	472.79
563.10	407.25
563.26	386.19
563.42	482.15
563.59	390.87
563.75	344.06
563.92	433.00
564.08	472.79
564.24	468.11
564.41	442.36
564.57	416.62
564.74	414.27
564.90	304.27
565.07	355.76
565.23	437.68
565.39	402.57
565.56	472.79
565.72	397.89
565.88	367.46
566.05	447.04
566.21	428.32
566.38	451.72
566.54	383.85
566.70	395.55
566.87	421.30
567.03	369.80
567.19	400.23
567.36	404.91
567.52	409.59
567.68	318.31
567.85	409.59
568.01	409.59
568.17	421.30
568.34	386.19
568.50	430.66
568.66	400.23
568.83	458.74
568.99	395.55
569.15	421.30
569.32	428.32
569.48	435.34
569.64	376.83
569.81	433.00
569.97	428.32
570.13	390.87
570.30	376.83
570.46	416.62
570.62	355.76
570.78	388.53
570.95	458.74
571.11	479.81
571.27	440.02
571.43	379.17
571.60	393.21
571.76	397.89
571.92	430.66
572.09	374.49
572.25	414.27
572.41	449.38
572.57	433.00
572.74	451.72
572.90	418.96
573.06	444.70
573.22	447.04
573.38	435.34
573.55	425.98
573.71	463.43
573.87	404.91
574.03	346.40
574.20	386.19
574.36	440.02
574.52	353.42
574.68	374.49
574.84	447.04
575.01	383.85
575.17	512.58
575.33	421.30
575.49	395.55
575.65	442.36
575.82	423.64
575.98	477.47
576.14	407.25
576.30	395.55
576.46	376.83
576.62	468.11
576.79	430.66
576.95	475.13
577.11	383.85
577.27	346.40
577.43	458.74
577.59	458.74
577.75	367.46
577.92	416.62
578.08	416.62
578.24	393.21
578.40	301.93
578.56	402.57
578.72	423.64
578.88	388.53
579.04	388.53
579.21	388.53
579.37	435.34
579.53	358.10
579.69	400.23
579.85	482.15
580.01	461.09
580.17	409.59
580.33	437.68
580.49	454.06
580.65	381.51
580.82	442.36
580.98	456.40
581.14	358.10
581.30	470.45
581.46	404.91
581.62	418.96
581.78	433.00
581.94	503.22
582.10	325.33
582.26	407.25
582.42	344.06
582.58	425.98
582.74	451.72
582.90	423.64
583.06	411.93
583.22	355.76
583.38	379.17
583.54	379.17
583.70	470.45
583.86	440.02
584.02	444.70
584.18	425.98
584.34	367.46
584.50	482.15
584.66	440.02
584.82	355.76
584.98	402.57
585.14	355.76
585.30	451.72
585.46	418.96
585.62	388.53
585.78	390.87
585.94	402.57
586.10	451.72
586.26	395.55
586.42	442.36
586.58	430.66
586.74	383.85
586.90	437.68
587.06	404.91
587.22	440.02
587.38	372.15
587.54	423.64
587.70	411.93
587.86	433.00
588.02	416.62
588.18	454.06
588.34	472.79
588.49	351.08
588.65	416.62
588.81	428.32
588.97	397.89
589.13	411.93
589.29	472.79
589.45	428.32
589.61	456.40
589.77	468.11
589.93	430.66
590.08	435.34
590.24	421.30
590.40	451.72
590.56	496.19
590.72	416.62
590.88	414.27
591.04	337.04
591.20	433.00
591.35	425.98
591.51	423.64
591.67	416.62
591.83	404.91
591.99	402.57
592.15	397.89
592.31	489.17
592.46	425.98
592.62	463.43
592.78	372.15
592.94	379.17
593.10	386.19
593.26	395.55
593.41	437.68
593.57	421.30
593.73	386.19
593.89	414.27
594.05	435.34
594.20	381.51
594.36	425.98
594.52	332.36
594.68	414.27
594.84	470.45
594.99	414.27
595.15	416.62
595.31	503.22
595.47	456.40
595.62	517.26
595.78	444.70
595.94	393.21
596.10	411.93
596.25	425.98
596.41	454.06
596.57	344.06
596.73	374.49
596.88	428.32
597.04	414.27
597.20	374.49
597.36	468.11
597.51	397.89
597.67	423.64
597.83	383.85
597.99	388.53
598.14	400.23
598.30	421.30
598.46	430.66
598.61	416.62
598.77	383.85
598.93	411.93
599.09	444.70
599.24	421.30
599.40	386.19
599.56	421.30
599.71	437.68
599.87	414.27
600.03	411.93
600.18	393.21
600.34	372.15
600.50	463.43
600.65	355.76
600.81	376.83
600.97	346.40
601.12	400.23
601.28	409.59
601.44	454.06
601.59	449.38
601.75	409.59
601.91	442.36
602.06	372.15
602.22	461.09
602.37	428.32
602.53	475.13
602.69	444.70
602.84	442.36
603.00	332.36
603.16	435.34
603.31	421.30
603.47	351.08
603.62	416.62
603.78	449.38
603.94	344.06
604.09	397.89
604.25	393.21
604.40	374.49
604.56	404.91
604.71	395.55
604.87	376.83
605.03	470.45
605.18	423.64
605.34	454.06
605.49	430.66
605.65	496.19
605.80	418.96
605.96	482.15
606.12	444.70
606.27	374.49
606.43	425.98
606.58	418.96
606.74	461.09
606.89	524.28
607.05	393.21
607.20	418.96
607.36	433.00
607.51	414.27
607.67	397.89
607.82	379.17
607.98	477.47
608.13	425.98
608.29	330.02
608.44	447.04
608.60	468.11
608.75	421.30
608.91	402.57
609.06	360.44
609.22	372.15
609.37	423.64
609.53	404.91
609.68	299.59
609.84	374.49
609.99	318.31
610.15	407.25
