SpectraSuite Data File
++++++++++++++++++++++++++++++++++++
Date: Fri Oct 25 12:11:08 EDT 2013
User: price-jones
Dark Spectrum Present: No
Reference Spectrum Present: No
Number of Sampled Component Spectra: 1
Spectrometers: USB2+H05261
Integration Time (usec): 100000 (USB2+H05261)
Spectra Averaged: 1 (USB2+H05261)
Boxcar Smoothing: 0 (USB2+H05261)
Correct for Electrical Dark: No (USB2+H05261)
Strobe/Lamp Enabled: No (USB2+H05261)
Correct for Detector Non-linearity: No (USB2+H05261)
Correct for Stray Light: No (USB2+H05261)
Number of Pixels in Processed Spectrum: 2048
>>>>>Begin Processed Spectral Data<<<<<
365.73	379.17
365.92	379.17
366.12	379.17
366.32	243.42
366.52	299.59
366.72	241.08
366.91	180.22
367.11	259.80
367.31	217.67
367.51	217.67
367.70	285.55
367.90	208.31
368.10	285.55
368.30	234.05
368.49	320.65
368.69	327.68
368.89	292.57
369.09	264.48
369.28	248.10
369.48	248.10
369.68	337.04
369.87	269.16
370.07	297.25
370.27	266.82
370.47	358.10
370.66	367.46
370.86	428.32
371.06	276.18
371.25	447.04
371.45	360.44
371.65	381.51
371.84	327.68
372.04	365.12
372.24	418.96
372.44	348.74
372.63	355.76
372.83	393.21
373.03	395.55
373.22	374.49
373.42	458.74
373.62	404.91
373.81	416.62
374.01	386.19
374.21	440.02
374.40	383.85
374.60	390.87
374.79	437.68
374.99	395.55
375.19	500.87
375.38	421.30
375.58	430.66
375.78	435.34
375.97	374.49
376.17	484.49
376.37	388.53
376.56	430.66
376.76	470.45
376.95	414.27
377.15	435.34
377.35	404.91
377.54	397.89
377.74	358.10
377.93	397.89
378.13	409.59
378.33	400.23
378.52	402.57
378.72	400.23
378.91	407.25
379.11	334.70
379.31	381.51
379.50	402.57
379.70	404.91
379.89	475.13
380.09	416.62
380.28	404.91
380.48	362.78
380.68	337.04
380.87	430.66
381.07	397.89
381.26	484.49
381.46	444.70
381.65	358.10
381.85	409.59
382.04	435.34
382.24	430.66
382.43	437.68
382.63	369.80
382.83	379.17
383.02	491.51
383.22	451.72
383.41	425.98
383.61	365.12
383.80	411.93
384.00	409.59
384.19	351.08
384.39	435.34
384.58	409.59
384.78	442.36
384.97	351.08
385.17	374.49
385.36	449.38
385.56	407.25
385.75	404.91
385.95	435.34
386.14	454.06
386.34	369.80
386.53	418.96
386.72	444.70
386.92	404.91
387.11	444.70
387.31	404.91
387.50	433.00
387.70	358.10
387.89	440.02
388.09	362.78
388.28	421.30
388.48	383.85
388.67	353.42
388.86	470.45
389.06	440.02
389.25	447.04
389.45	451.72
389.64	374.49
389.84	388.53
390.03	414.27
390.22	421.30
390.42	477.47
390.61	421.30
390.81	472.79
391.00	400.23
391.19	418.96
391.39	383.85
391.58	454.06
391.78	351.08
391.97	376.83
392.16	383.85
392.36	465.77
392.55	451.72
392.75	491.51
392.94	339.38
393.13	458.74
393.33	393.21
393.52	407.25
393.71	425.98
393.91	355.76
394.10	409.59
394.29	372.15
394.49	395.55
394.68	437.68
394.88	435.34
395.07	451.72
395.26	468.11
395.46	411.93
395.65	454.06
395.84	447.04
396.04	444.70
396.23	386.19
396.42	397.89
396.62	409.59
396.81	414.27
397.00	362.78
397.19	449.38
397.39	461.09
397.58	404.91
397.77	360.44
397.97	433.00
398.16	458.74
398.35	397.89
398.55	390.87
398.74	358.10
398.93	400.23
399.12	367.46
399.32	423.64
399.51	430.66
399.70	451.72
399.90	430.66
400.09	369.80
400.28	402.57
400.47	376.83
400.67	367.46
400.86	386.19
401.05	433.00
401.24	440.02
401.44	440.02
401.63	486.83
401.82	433.00
402.01	425.98
402.21	425.98
402.40	348.74
402.59	430.66
402.78	365.12
402.97	433.00
403.17	428.32
403.36	470.45
403.55	461.09
403.74	390.87
403.93	341.72
404.13	393.21
404.32	376.83
404.51	362.78
404.70	395.55
404.89	379.17
405.09	472.79
405.28	416.62
405.47	440.02
405.66	456.40
405.85	475.13
406.05	435.34
406.24	418.96
406.43	411.93
406.62	390.87
406.81	468.11
407.00	423.64
407.20	379.17
407.39	409.59
407.58	411.93
407.77	423.64
407.96	390.87
408.15	411.93
408.34	425.98
408.54	407.25
408.73	430.66
408.92	435.34
409.11	379.17
409.30	397.89
409.49	383.85
409.68	409.59
409.87	404.91
410.07	409.59
410.26	390.87
410.45	353.42
410.64	423.64
410.83	404.91
411.02	414.27
411.21	397.89
411.40	402.57
411.59	437.68
411.78	423.64
411.98	414.27
412.17	379.17
412.36	402.57
412.55	418.96
412.74	414.27
412.93	402.57
413.12	421.30
413.31	468.11
413.50	390.87
413.69	447.04
413.88	404.91
414.07	463.43
414.26	393.21
414.45	344.06
414.64	360.44
414.83	381.51
415.02	456.40
415.22	397.89
415.41	456.40
415.60	458.74
415.79	418.96
415.98	418.96
416.17	428.32
416.36	355.76
416.55	407.25
416.74	395.55
416.93	428.32
417.12	510.24
417.31	404.91
417.50	435.34
417.69	458.74
417.88	440.02
418.07	334.70
418.26	468.11
418.45	433.00
418.64	479.81
418.83	444.70
419.02	390.87
419.21	414.27
419.39	386.19
419.58	423.64
419.77	397.89
419.96	414.27
420.15	437.68
420.34	470.45
420.53	465.77
420.72	369.80
420.91	393.21
421.10	390.87
421.29	381.51
421.48	360.44
421.67	440.02
421.86	409.59
422.05	372.15
422.24	383.85
422.43	451.72
422.61	376.83
422.80	421.30
422.99	376.83
423.18	386.19
423.37	379.17
423.56	386.19
423.75	397.89
423.94	402.57
424.13	416.62
424.32	442.36
424.50	456.40
424.69	395.55
424.88	470.45
425.07	397.89
425.26	400.23
425.45	463.43
425.64	444.70
425.83	393.21
426.01	418.96
426.20	470.45
426.39	386.19
426.58	383.85
426.77	397.89
426.96	369.80
427.15	390.87
427.33	454.06
427.52	421.30
427.71	365.12
427.90	379.17
428.09	341.72
428.28	339.38
428.46	402.57
428.65	400.23
428.84	388.53
429.03	430.66
429.22	395.55
429.40	433.00
429.59	388.53
429.78	416.62
429.97	454.06
430.16	428.32
430.34	421.30
430.53	444.70
430.72	397.89
430.91	468.11
431.10	358.10
431.28	447.04
431.47	425.98
431.66	479.81
431.85	393.21
432.03	444.70
432.22	470.45
432.41	393.21
432.60	386.19
432.79	383.85
432.97	400.23
433.16	437.68
433.35	447.04
433.54	451.72
433.72	512.58
433.91	475.13
434.10	367.46
434.28	433.00
434.47	341.72
434.66	402.57
434.85	477.47
435.03	440.02
435.22	505.56
435.41	437.68
435.59	393.21
435.78	411.93
435.97	376.83
436.16	451.72
436.34	365.12
436.53	461.09
436.72	421.30
436.90	440.02
437.09	440.02
437.28	437.68
437.46	334.70
437.65	423.64
437.84	362.78
438.02	395.55
438.21	388.53
438.40	433.00
438.58	402.57
438.77	395.55
438.96	381.51
439.14	425.98
439.33	491.51
439.52	365.12
439.70	472.79
439.89	400.23
440.08	440.02
440.26	465.77
440.45	433.00
440.63	376.83
440.82	404.91
441.01	433.00
441.19	430.66
441.38	355.76
441.57	428.32
441.75	479.81
441.94	454.06
442.12	465.77
442.31	367.46
442.50	367.46
442.68	404.91
442.87	447.04
443.05	402.57
443.24	358.10
443.43	383.85
443.61	397.89
443.80	430.66
443.98	374.49
444.17	374.49
444.35	409.59
444.54	341.72
444.73	365.12
444.91	414.27
445.10	348.74
445.28	386.19
445.47	376.83
445.65	435.34
445.84	428.32
446.02	404.91
446.21	390.87
446.39	407.25
446.58	374.49
446.77	390.87
446.95	454.06
447.14	404.91
447.32	442.36
447.51	421.30
447.69	440.02
447.88	409.59
448.06	489.17
448.25	435.34
448.43	416.62
448.62	383.85
448.80	376.83
448.99	435.34
449.17	369.80
449.36	463.43
449.54	402.57
449.73	449.38
449.91	407.25
450.10	421.30
450.28	503.22
450.46	477.47
450.65	468.11
450.83	409.59
451.02	423.64
451.20	374.49
451.39	421.30
451.57	458.74
451.76	390.87
451.94	374.49
452.13	440.02
452.31	393.21
452.49	409.59
452.68	379.17
452.86	428.32
453.05	451.72
453.23	355.76
453.42	360.44
453.60	437.68
453.78	416.62
453.97	402.57
454.15	440.02
454.34	435.34
454.52	409.59
454.70	407.25
454.89	409.59
455.07	468.11
455.26	390.87
455.44	442.36
455.62	386.19
455.81	430.66
455.99	327.68
456.17	365.12
456.36	383.85
456.54	428.32
456.73	428.32
456.91	381.51
457.09	397.89
457.28	379.17
457.46	306.61
457.64	393.21
457.83	449.38
458.01	428.32
458.19	411.93
458.38	447.04
458.56	430.66
458.74	440.02
458.93	402.57
459.11	409.59
459.29	472.79
459.48	451.72
459.66	386.19
459.84	465.77
460.03	510.24
460.21	418.96
460.39	353.42
460.57	449.38
460.76	454.06
460.94	409.59
461.12	411.93
461.31	512.58
461.49	472.79
461.67	463.43
461.85	386.19
462.04	444.70
462.22	723.23
462.40	418.96
462.59	430.66
462.77	395.55
462.95	435.34
463.13	411.93
463.32	444.70
463.50	365.12
463.68	388.53
463.86	451.72
464.05	454.06
464.23	442.36
464.41	416.62
464.59	454.06
464.78	318.31
464.96	470.45
465.14	376.83
465.32	404.91
465.50	482.15
465.69	458.74
465.87	409.59
466.05	430.66
466.23	416.62
466.41	468.11
466.60	440.02
466.78	442.36
466.96	409.59
467.14	449.38
467.32	437.68
467.51	390.87
467.69	465.77
467.87	468.11
468.05	416.62
468.23	503.22
468.41	433.00
468.60	444.70
468.78	425.98
468.96	367.46
469.14	397.89
469.32	372.15
469.50	376.83
469.69	507.90
469.87	430.66
470.05	440.02
470.23	372.15
470.41	418.96
470.59	442.36
470.77	430.66
470.95	447.04
471.14	451.72
471.32	397.89
471.50	496.19
471.68	440.02
471.86	393.21
472.04	444.70
472.22	372.15
472.40	390.87
472.58	369.80
472.77	435.34
472.95	477.47
473.13	416.62
473.31	416.62
473.49	390.87
473.67	414.27
473.85	374.49
474.03	397.89
474.21	425.98
474.39	472.79
474.57	465.77
474.75	425.98
474.93	491.51
475.12	442.36
475.30	437.68
475.48	313.63
475.66	423.64
475.84	393.21
476.02	435.34
476.20	411.93
476.38	411.93
476.56	479.81
476.74	491.51
476.92	411.93
477.10	355.76
477.28	390.87
477.46	451.72
477.64	447.04
477.82	402.57
478.00	337.04
478.18	416.62
478.36	360.44
478.54	362.78
478.72	313.63
478.90	360.44
479.08	486.83
479.26	416.62
479.44	411.93
479.62	414.27
479.80	449.38
479.98	348.74
480.16	360.44
480.34	390.87
480.52	388.53
480.70	461.09
480.88	390.87
481.06	372.15
481.24	461.09
481.41	465.77
481.59	418.96
481.77	362.78
481.95	386.19
482.13	463.43
482.31	416.62
482.49	414.27
482.67	369.80
482.85	407.25
483.03	367.46
483.21	355.76
483.39	409.59
483.57	390.87
483.74	430.66
483.92	433.00
484.10	404.91
484.28	472.79
484.46	390.87
484.64	414.27
484.82	416.62
485.00	411.93
485.18	341.72
485.35	468.11
485.53	451.72
485.71	486.83
485.89	470.45
486.07	402.57
486.25	454.06
486.43	358.10
486.61	470.45
486.78	496.19
486.96	414.27
487.14	440.02
487.32	372.15
487.50	433.00
487.68	404.91
487.85	393.21
488.03	397.89
488.21	374.49
488.39	423.64
488.57	381.51
488.75	465.77
488.92	552.37
489.10	423.64
489.28	444.70
489.46	449.38
489.64	407.25
489.81	437.68
489.99	458.74
490.17	374.49
490.35	425.98
490.53	393.21
490.70	444.70
490.88	376.83
491.06	470.45
491.24	463.43
491.41	470.45
491.59	423.64
491.77	407.25
491.95	465.77
492.13	386.19
492.30	339.38
492.48	376.83
492.66	421.30
492.84	362.78
493.01	442.36
493.19	388.53
493.37	409.59
493.54	465.77
493.72	397.89
493.90	461.09
494.08	353.42
494.25	376.83
494.43	381.51
494.61	409.59
494.79	416.62
494.96	376.83
495.14	430.66
495.32	414.27
495.49	400.23
495.67	414.27
495.85	411.93
496.02	461.09
496.20	465.77
496.38	456.40
496.55	470.45
496.73	477.47
496.91	376.83
497.09	458.74
497.26	414.27
497.44	346.40
497.62	386.19
497.79	362.78
497.97	437.68
498.14	475.13
498.32	430.66
498.50	393.21
498.67	428.32
498.85	402.57
499.03	365.12
499.20	447.04
499.38	414.27
499.56	433.00
499.73	491.51
499.91	386.19
500.08	500.87
500.26	540.66
500.44	470.45
500.61	388.53
500.79	404.91
500.97	496.19
501.14	451.72
501.32	416.62
501.49	444.70
501.67	451.72
501.84	470.45
502.02	393.21
502.20	449.38
502.37	383.85
502.55	411.93
502.72	402.57
502.90	421.30
503.07	390.87
503.25	409.59
503.43	404.91
503.60	395.55
503.78	339.38
503.95	383.85
504.13	358.10
504.30	416.62
504.48	458.74
504.65	395.55
504.83	390.87
505.01	425.98
505.18	365.12
505.36	388.53
505.53	414.27
505.71	472.79
505.88	540.66
506.06	418.96
506.23	435.34
506.41	440.02
506.58	454.06
506.76	482.15
506.93	416.62
507.11	374.49
507.28	463.43
507.46	465.77
507.63	465.77
507.81	444.70
507.98	414.27
508.16	418.96
508.33	409.59
508.50	367.46
508.68	393.21
508.85	367.46
509.03	341.72
509.20	458.74
509.38	407.25
509.55	397.89
509.73	461.09
509.90	477.47
510.08	383.85
510.25	451.72
510.42	353.42
510.60	428.32
510.77	458.74
510.95	437.68
511.12	332.36
511.30	390.87
511.47	447.04
511.64	482.15
511.82	472.79
511.99	395.55
512.17	418.96
512.34	479.81
512.51	407.25
512.69	407.25
512.86	358.10
513.04	404.91
513.21	374.49
513.38	379.17
513.56	404.91
513.73	433.00
513.90	393.21
514.08	421.30
514.25	437.68
514.43	461.09
514.60	451.72
514.77	369.80
514.95	465.77
515.12	454.06
515.29	458.74
515.47	486.83
515.64	461.09
515.81	400.23
515.99	465.77
516.16	428.32
516.33	402.57
516.51	402.57
516.68	365.12
516.85	376.83
517.03	337.04
517.20	416.62
517.37	482.15
517.54	430.66
517.72	390.87
517.89	411.93
518.06	433.00
518.24	435.34
518.41	411.93
518.58	456.40
518.75	322.99
518.93	393.21
519.10	402.57
519.27	435.34
519.45	437.68
519.62	461.09
519.79	390.87
519.96	395.55
520.14	461.09
520.31	430.66
520.48	447.04
520.65	407.25
520.83	402.57
521.00	402.57
521.17	400.23
521.34	456.40
521.52	402.57
521.69	393.21
521.86	383.85
522.03	421.30
522.20	519.60
522.38	447.04
522.55	454.06
522.72	313.63
522.89	402.57
523.07	449.38
523.24	454.06
523.41	433.00
523.58	360.44
523.75	388.53
523.92	444.70
524.10	383.85
524.27	430.66
524.44	369.80
524.61	407.25
524.78	449.38
524.96	372.15
525.13	463.43
525.30	393.21
525.47	482.15
525.64	475.13
525.81	421.30
525.98	402.57
526.16	393.21
526.33	344.06
526.50	344.06
526.67	454.06
526.84	418.96
527.01	379.17
527.18	379.17
527.36	411.93
527.53	395.55
527.70	416.62
527.87	416.62
528.04	416.62
528.21	442.36
528.38	437.68
528.55	355.76
528.72	538.32
528.89	479.81
529.07	395.55
529.24	390.87
529.41	442.36
529.58	395.55
529.75	435.34
529.92	449.38
530.09	444.70
530.26	421.30
530.43	374.49
530.60	477.47
530.77	367.46
530.94	362.78
531.11	346.40
531.28	423.64
531.46	442.36
531.63	456.40
531.80	428.32
531.97	423.64
532.14	423.64
532.31	367.46
532.48	402.57
532.65	411.93
532.82	341.72
532.99	418.96
533.16	458.74
533.33	414.27
533.50	374.49
533.67	395.55
533.84	456.40
534.01	393.21
534.18	320.65
534.35	428.32
534.52	465.77
534.69	440.02
534.86	388.53
535.03	416.62
535.20	395.55
535.37	458.74
535.54	423.64
535.71	407.25
535.88	470.45
536.05	402.57
536.22	381.51
536.38	442.36
536.55	414.27
536.72	388.53
536.89	381.51
537.06	411.93
537.23	437.68
537.40	437.68
537.57	407.25
537.74	416.62
537.91	482.15
538.08	456.40
538.25	386.19
538.42	433.00
538.59	416.62
538.75	404.91
538.92	381.51
539.09	470.45
539.26	353.42
539.43	369.80
539.60	369.80
539.77	451.72
539.94	435.34
540.11	407.25
540.28	428.32
540.44	489.17
540.61	400.23
540.78	395.55
540.95	437.68
541.12	416.62
541.29	430.66
541.46	402.57
541.62	428.32
541.79	407.25
541.96	433.00
542.13	425.98
542.30	442.36
542.47	470.45
542.63	444.70
542.80	451.72
542.97	468.11
543.14	418.96
543.31	456.40
543.48	388.53
543.64	433.00
543.81	402.57
543.98	409.59
544.15	365.12
544.32	428.32
544.48	339.38
544.65	374.49
544.82	428.32
544.99	407.25
545.16	423.64
545.32	456.40
545.49	411.93
545.66	416.62
545.83	470.45
546.00	418.96
546.16	430.66
546.33	411.93
546.50	355.76
546.67	416.62
546.83	402.57
547.00	374.49
547.17	430.66
547.34	421.30
547.50	372.15
547.67	442.36
547.84	430.66
548.00	421.30
548.17	433.00
548.34	374.49
548.51	482.15
548.67	416.62
548.84	337.04
549.01	435.34
549.18	318.31
549.34	482.15
549.51	421.30
549.68	393.21
549.84	428.32
550.01	421.30
550.18	514.92
550.34	409.59
550.51	416.62
550.68	437.68
550.84	472.79
551.01	414.27
551.18	491.51
551.34	472.79
551.51	414.27
551.68	372.15
551.84	430.66
552.01	435.34
552.18	376.83
552.34	404.91
552.51	428.32
552.68	430.66
552.84	416.62
553.01	428.32
553.18	440.02
553.34	428.32
553.51	400.23
553.67	440.02
553.84	493.85
554.01	416.62
554.17	433.00
554.34	454.06
554.51	433.00
554.67	421.30
554.84	430.66
555.00	456.40
555.17	388.53
555.33	496.19
555.50	430.66
555.67	404.91
555.83	362.78
556.00	372.15
556.16	535.98
556.33	407.25
556.50	416.62
556.66	400.23
556.83	416.62
556.99	428.32
557.16	479.81
557.32	421.30
557.49	430.66
557.65	416.62
557.82	358.10
557.98	425.98
558.15	388.53
558.32	393.21
558.48	435.34
558.65	486.83
558.81	386.19
558.98	456.40
559.14	416.62
559.31	423.64
559.47	407.25
559.64	442.36
559.80	393.21
559.97	451.72
560.13	437.68
560.30	397.89
560.46	407.25
560.63	402.57
560.79	390.87
560.96	442.36
561.12	393.21
561.29	435.34
561.45	407.25
561.61	421.30
561.78	456.40
561.94	423.64
562.11	482.15
562.27	470.45
562.44	332.36
562.60	367.46
562.77	489.17
562.93	496.19
563.10	465.77
563.26	409.59
563.42	503.22
563.59	442.36
563.75	416.62
563.92	379.17
564.08	379.17
564.24	444.70
564.41	421.30
564.57	404.91
564.74	437.68
564.90	376.83
565.07	388.53
565.23	465.77
565.39	416.62
565.56	402.57
565.72	411.93
565.88	442.36
566.05	351.08
566.21	475.13
566.38	500.87
566.54	430.66
566.70	379.17
566.87	395.55
567.03	465.77
567.19	451.72
567.36	444.70
567.52	475.13
567.68	428.32
567.85	397.89
568.01	449.38
568.17	465.77
568.34	416.62
568.50	472.79
568.66	376.83
568.83	402.57
568.99	447.04
569.15	381.51
569.32	362.78
569.48	409.59
569.64	393.21
569.81	454.06
569.97	388.53
570.13	351.08
570.30	404.91
570.46	414.27
570.62	418.96
570.78	397.89
570.95	372.15
571.11	475.13
571.27	468.11
571.43	386.19
571.60	428.32
571.76	465.77
571.92	386.19
572.09	418.96
572.25	395.55
572.41	390.87
572.57	444.70
572.74	538.32
572.90	470.45
573.06	388.53
573.22	470.45
573.38	477.47
573.55	421.30
573.71	418.96
573.87	425.98
574.03	428.32
574.20	393.21
574.36	433.00
574.52	395.55
574.68	433.00
574.84	416.62
575.01	440.02
575.17	444.70
575.33	369.80
575.49	470.45
575.65	395.55
575.82	470.45
575.98	423.64
576.14	409.59
576.30	383.85
576.46	404.91
576.62	475.13
576.79	470.45
576.95	482.15
577.11	386.19
577.27	397.89
577.43	486.83
577.59	437.68
577.75	454.06
577.92	339.38
578.08	372.15
578.24	407.25
578.40	456.40
578.56	456.40
578.72	442.36
578.88	496.19
579.04	449.38
579.21	437.68
579.37	430.66
579.53	454.06
579.69	496.19
579.85	390.87
580.01	409.59
580.17	451.72
580.33	346.40
580.49	383.85
580.65	416.62
580.82	430.66
580.98	376.83
581.14	458.74
581.30	507.90
581.46	404.91
581.62	454.06
581.78	421.30
581.94	397.89
582.10	407.25
582.26	430.66
582.42	369.80
582.58	430.66
582.74	409.59
582.90	386.19
583.06	402.57
583.22	374.49
583.38	444.70
583.54	454.06
583.70	423.64
583.86	430.66
584.02	416.62
584.18	433.00
584.34	402.57
584.50	458.74
584.66	393.21
584.82	416.62
584.98	524.28
585.14	440.02
585.30	451.72
585.46	360.44
585.62	430.66
585.78	418.96
585.94	407.25
586.10	440.02
586.26	418.96
586.42	461.09
586.58	418.96
586.74	423.64
586.90	407.25
587.06	365.12
587.22	433.00
587.38	393.21
587.54	430.66
587.70	449.38
587.86	411.93
588.02	517.26
588.18	486.83
588.34	351.08
588.49	470.45
588.65	461.09
588.81	440.02
588.97	437.68
589.13	381.51
589.29	425.98
589.45	428.32
589.61	353.42
589.77	477.47
589.93	435.34
590.08	435.34
590.24	451.72
590.40	447.04
590.56	510.24
590.72	400.23
590.88	423.64
591.04	484.49
591.20	423.64
591.35	416.62
591.51	404.91
591.67	425.98
591.83	421.30
591.99	440.02
592.15	447.04
592.31	484.49
592.46	379.17
592.62	514.92
592.78	482.15
592.94	362.78
593.10	414.27
593.26	397.89
593.41	414.27
593.57	409.59
593.73	393.21
593.89	433.00
594.05	433.00
594.20	388.53
594.36	411.93
594.52	365.12
594.68	451.72
594.84	400.23
594.99	402.57
595.15	390.87
595.31	477.47
595.47	449.38
595.62	430.66
595.78	430.66
595.94	470.45
596.10	395.55
596.25	458.74
596.41	451.72
596.57	414.27
596.73	400.23
596.88	409.59
597.04	447.04
597.20	411.93
597.36	465.77
597.51	489.17
597.67	386.19
597.83	418.96
597.99	421.30
598.14	437.68
598.30	390.87
598.46	435.34
598.61	428.32
598.77	463.43
598.93	421.30
599.09	414.27
599.24	397.89
599.40	454.06
599.56	416.62
599.71	414.27
599.87	496.19
600.03	437.68
600.18	456.40
600.34	402.57
600.50	388.53
600.65	421.30
600.81	456.40
600.97	379.17
601.12	395.55
601.28	425.98
601.44	397.89
601.59	437.68
601.75	423.64
601.91	454.06
602.06	397.89
602.22	517.26
602.37	496.19
602.53	397.89
602.69	463.43
602.84	383.85
603.00	428.32
603.16	421.30
603.31	433.00
603.47	379.17
603.62	353.42
603.78	444.70
603.94	397.89
604.09	482.15
604.25	463.43
604.40	451.72
604.56	423.64
604.71	416.62
604.87	393.21
605.03	407.25
605.18	463.43
605.34	454.06
605.49	442.36
605.65	358.10
605.80	454.06
605.96	386.19
606.12	454.06
606.27	430.66
606.43	358.10
606.58	451.72
606.74	404.91
606.89	428.32
607.05	395.55
607.20	292.57
607.36	400.23
607.51	344.06
607.67	383.85
607.82	465.77
607.98	383.85
608.13	393.21
608.29	421.30
608.44	447.04
608.60	390.87
608.75	465.77
608.91	423.64
609.06	444.70
609.22	411.93
609.37	395.55
609.53	404.91
609.68	409.59
609.84	428.32
609.99	400.23
610.15	461.09
