SpectraSuite Data File
++++++++++++++++++++++++++++++++++++
Date: Fri Oct 25 12:10:33 EDT 2013
User: price-jones
Dark Spectrum Present: No
Reference Spectrum Present: No
Number of Sampled Component Spectra: 1
Spectrometers: USB2+H05261
Integration Time (usec): 100000 (USB2+H05261)
Spectra Averaged: 1 (USB2+H05261)
Boxcar Smoothing: 0 (USB2+H05261)
Correct for Electrical Dark: No (USB2+H05261)
Strobe/Lamp Enabled: No (USB2+H05261)
Correct for Detector Non-linearity: No (USB2+H05261)
Correct for Stray Light: No (USB2+H05261)
Number of Pixels in Processed Spectrum: 2048
>>>>>Begin Processed Spectral Data<<<<<
365.73	393.21
365.92	393.21
366.12	393.21
366.32	250.44
366.52	217.67
366.72	290.23
366.91	238.73
367.11	290.23
367.31	243.42
367.51	229.37
367.70	201.29
367.90	264.48
368.10	257.46
368.30	273.84
368.49	315.97
368.69	229.37
368.89	276.18
369.09	308.95
369.28	222.35
369.48	299.59
369.68	271.50
369.87	327.68
370.07	250.44
370.27	362.78
370.47	320.65
370.66	322.99
370.86	346.40
371.06	397.89
371.25	418.96
371.45	430.66
371.65	407.25
371.84	320.65
372.04	304.27
372.24	430.66
372.44	505.56
372.63	414.27
372.83	344.06
373.03	463.43
373.22	400.23
373.42	369.80
373.62	416.62
373.81	458.74
374.01	409.59
374.21	421.30
374.40	451.72
374.60	444.70
374.79	411.93
374.99	395.55
375.19	411.93
375.38	402.57
375.58	402.57
375.78	383.85
375.97	447.04
376.17	468.11
376.37	374.49
376.56	435.34
376.76	454.06
376.95	451.72
377.15	454.06
377.35	381.51
377.54	402.57
377.74	428.32
377.93	404.91
378.13	447.04
378.33	416.62
378.52	397.89
378.72	397.89
378.91	388.53
379.11	414.27
379.31	393.21
379.50	400.23
379.70	428.32
379.89	388.53
380.09	379.17
380.28	379.17
380.48	440.02
380.68	442.36
380.87	315.97
381.07	468.11
381.26	397.89
381.46	379.17
381.65	344.06
381.85	400.23
382.04	416.62
382.24	418.96
382.43	428.32
382.63	379.17
382.83	428.32
383.02	325.33
383.22	400.23
383.41	400.23
383.61	407.25
383.80	400.23
384.00	374.49
384.19	367.46
384.39	402.57
384.58	447.04
384.78	393.21
384.97	355.76
385.17	376.83
385.36	365.12
385.56	421.30
385.75	353.42
385.95	376.83
386.14	454.06
386.34	397.89
386.53	444.70
386.72	362.78
386.92	409.59
387.11	507.90
387.31	458.74
387.50	372.15
387.70	386.19
387.89	386.19
388.09	407.25
388.28	402.57
388.48	400.23
388.67	451.72
388.86	393.21
389.06	409.59
389.25	451.72
389.45	421.30
389.64	383.85
389.84	383.85
390.03	428.32
390.22	386.19
390.42	369.80
390.61	409.59
390.81	362.78
391.00	440.02
391.19	430.66
391.39	414.27
391.58	393.21
391.78	414.27
391.97	376.83
392.16	418.96
392.36	421.30
392.55	470.45
392.75	388.53
392.94	379.17
393.13	428.32
393.33	430.66
393.52	411.93
393.71	437.68
393.91	386.19
394.10	348.74
394.29	362.78
394.49	376.83
394.68	402.57
394.88	421.30
395.07	416.62
395.26	400.23
395.46	390.87
395.65	421.30
395.84	491.51
396.04	456.40
396.23	440.02
396.42	365.12
396.62	351.08
396.81	404.91
397.00	425.98
397.19	367.46
397.39	360.44
397.58	381.51
397.77	456.40
397.97	397.89
398.16	475.13
398.35	465.77
398.55	386.19
398.74	360.44
398.93	404.91
399.12	390.87
399.32	386.19
399.51	362.78
399.70	327.68
399.90	365.12
400.09	404.91
400.28	435.34
400.47	425.98
400.67	433.00
400.86	383.85
401.05	482.15
401.24	411.93
401.44	423.64
401.63	395.55
401.82	369.80
402.01	461.09
402.21	493.85
402.40	395.55
402.59	381.51
402.78	416.62
402.97	369.80
403.17	416.62
403.36	400.23
403.55	442.36
403.74	397.89
403.93	461.09
404.13	416.62
404.32	381.51
404.51	472.79
404.70	458.74
404.89	383.85
405.09	503.22
405.28	411.93
405.47	388.53
405.66	402.57
405.85	414.27
406.05	433.00
406.24	362.78
406.43	376.83
406.62	327.68
406.81	451.72
407.00	444.70
407.20	468.11
407.39	477.47
407.58	440.02
407.77	395.55
407.96	376.83
408.15	386.19
408.34	479.81
408.54	519.60
408.73	458.74
408.92	393.21
409.11	423.64
409.30	411.93
409.49	409.59
409.68	418.96
409.87	365.12
410.07	423.64
410.26	428.32
410.45	313.63
410.64	409.59
410.83	449.38
411.02	376.83
411.21	386.19
411.40	423.64
411.59	365.12
411.78	416.62
411.98	409.59
412.17	416.62
412.36	353.42
412.55	369.80
412.74	479.81
412.93	463.43
413.12	365.12
413.31	486.83
413.50	369.80
413.69	379.17
413.88	468.11
414.07	425.98
414.26	390.87
414.45	456.40
414.64	425.98
414.83	435.34
415.02	484.49
415.22	402.57
415.41	484.49
415.60	376.83
415.79	472.79
415.98	425.98
416.17	423.64
416.36	393.21
416.55	411.93
416.74	400.23
416.93	362.78
417.12	418.96
417.31	454.06
417.50	409.59
417.69	442.36
417.88	451.72
418.07	463.43
418.26	395.55
418.45	425.98
418.64	416.62
418.83	421.30
419.02	383.85
419.21	400.23
419.39	449.38
419.58	390.87
419.77	411.93
419.96	395.55
420.15	414.27
420.34	353.42
420.53	411.93
420.72	454.06
420.91	351.08
421.10	358.10
421.29	397.89
421.48	369.80
421.67	423.64
421.86	381.51
422.05	381.51
422.24	414.27
422.43	402.57
422.61	397.89
422.80	376.83
422.99	393.21
423.18	430.66
423.37	381.51
423.56	428.32
423.75	468.11
423.94	430.66
424.13	379.17
424.32	423.64
424.50	383.85
424.69	390.87
424.88	454.06
425.07	334.70
425.26	388.53
425.45	425.98
425.64	418.96
425.83	472.79
426.01	479.81
426.20	449.38
426.39	341.72
426.58	386.19
426.77	330.02
426.96	484.49
427.15	395.55
427.33	404.91
427.52	404.91
427.71	416.62
427.90	379.17
428.09	379.17
428.28	475.13
428.46	383.85
428.65	472.79
428.84	390.87
429.03	409.59
429.22	381.51
429.40	390.87
429.59	421.30
429.78	397.89
429.97	395.55
430.16	360.44
430.34	416.62
430.53	489.17
430.72	451.72
430.91	470.45
431.10	442.36
431.28	365.12
431.47	428.32
431.66	344.06
431.85	451.72
432.03	365.12
432.22	437.68
432.41	454.06
432.60	374.49
432.79	418.96
432.97	507.90
433.16	330.02
433.35	458.74
433.54	416.62
433.72	472.79
433.91	435.34
434.10	358.10
434.28	379.17
434.47	416.62
434.66	465.77
434.85	416.62
435.03	388.53
435.22	482.15
435.41	484.49
435.59	390.87
435.78	402.57
435.97	360.44
436.16	414.27
436.34	376.83
436.53	458.74
436.72	407.25
436.90	381.51
437.09	404.91
437.28	411.93
437.46	383.85
437.65	428.32
437.84	449.38
438.02	402.57
438.21	365.12
438.40	458.74
438.58	433.00
438.77	386.19
438.96	367.46
439.14	409.59
439.33	353.42
439.52	330.02
439.70	407.25
439.89	491.51
440.08	463.43
440.26	416.62
440.45	428.32
440.63	425.98
440.82	425.98
441.01	437.68
441.19	402.57
441.38	407.25
441.57	456.40
441.75	407.25
441.94	433.00
442.12	425.98
442.31	390.87
442.50	337.04
442.68	409.59
442.87	435.34
443.05	362.78
443.24	402.57
443.43	416.62
443.61	458.74
443.80	383.85
443.98	381.51
444.17	418.96
444.35	486.83
444.54	468.11
444.73	397.89
444.91	430.66
445.10	397.89
445.28	433.00
445.47	330.02
445.65	421.30
445.84	372.15
446.02	416.62
446.21	376.83
446.39	442.36
446.58	351.08
446.77	407.25
446.95	365.12
447.14	433.00
447.32	435.34
447.51	376.83
447.69	379.17
447.88	379.17
448.06	496.19
448.25	374.49
448.43	430.66
448.62	381.51
448.80	416.62
448.99	409.59
449.17	414.27
449.36	435.34
449.54	367.46
449.73	418.96
449.91	390.87
450.10	428.32
450.28	428.32
450.46	472.79
450.65	449.38
450.83	416.62
451.02	430.66
451.20	430.66
451.39	386.19
451.57	447.04
451.76	479.81
451.94	526.62
452.13	400.23
452.31	437.68
452.49	360.44
452.68	428.32
452.86	404.91
453.05	437.68
453.23	423.64
453.42	271.50
453.60	395.55
453.78	475.13
453.97	407.25
454.15	407.25
454.34	362.78
454.52	376.83
454.70	437.68
454.89	449.38
455.07	362.78
455.26	444.70
455.44	428.32
455.62	341.72
455.81	388.53
455.99	468.11
456.17	451.72
456.36	409.59
456.54	407.25
456.73	423.64
456.91	449.38
457.09	416.62
457.28	444.70
457.46	390.87
457.64	458.74
457.83	381.51
458.01	421.30
458.19	449.38
458.38	486.83
458.56	442.36
458.74	379.17
458.93	425.98
459.11	409.59
459.29	444.70
459.48	425.98
459.66	479.81
459.84	433.00
460.03	493.85
460.21	442.36
460.39	456.40
460.57	489.17
460.76	423.64
460.94	383.85
461.12	503.22
461.31	414.27
461.49	454.06
461.67	351.08
461.85	416.62
462.04	351.08
462.22	734.93
462.40	365.12
462.59	414.27
462.77	339.38
462.95	395.55
463.13	423.64
463.32	379.17
463.50	381.51
463.68	470.45
463.86	430.66
464.05	449.38
464.23	404.91
464.41	447.04
464.59	428.32
464.78	397.89
464.96	451.72
465.14	346.40
465.32	414.27
465.50	400.23
465.69	407.25
465.87	447.04
466.05	388.53
466.23	372.15
466.41	388.53
466.60	381.51
466.78	414.27
466.96	479.81
467.14	423.64
467.32	435.34
467.51	411.93
467.69	409.59
467.87	461.09
468.05	425.98
468.23	465.77
468.41	447.04
468.60	461.09
468.78	411.93
468.96	444.70
469.14	379.17
469.32	337.04
469.50	383.85
469.69	409.59
469.87	414.27
470.05	339.38
470.23	379.17
470.41	362.78
470.59	416.62
470.77	461.09
470.95	407.25
471.14	442.36
471.32	421.30
471.50	430.66
471.68	379.17
471.86	402.57
472.04	383.85
472.22	344.06
472.40	341.72
472.58	428.32
472.77	381.51
472.95	451.72
473.13	409.59
473.31	358.10
473.49	346.40
473.67	449.38
473.85	418.96
474.03	393.21
474.21	376.83
474.39	374.49
474.57	442.36
474.75	444.70
474.93	395.55
475.12	337.04
475.30	360.44
475.48	444.70
475.66	428.32
475.84	381.51
476.02	505.56
476.20	437.68
476.38	409.59
476.56	491.51
476.74	416.62
476.92	442.36
477.10	468.11
477.28	507.90
477.46	411.93
477.64	376.83
477.82	411.93
478.00	372.15
478.18	390.87
478.36	388.53
478.54	442.36
478.72	376.83
478.90	393.21
479.08	454.06
479.26	423.64
479.44	414.27
479.62	458.74
479.80	402.57
479.98	369.80
480.16	341.72
480.34	397.89
480.52	383.85
480.70	433.00
480.88	407.25
481.06	362.78
481.24	376.83
481.41	374.49
481.59	407.25
481.77	470.45
481.95	395.55
482.13	416.62
482.31	332.36
482.49	425.98
482.67	402.57
482.85	351.08
483.03	465.77
483.21	372.15
483.39	421.30
483.57	407.25
483.74	482.15
483.92	437.68
484.10	435.34
484.28	430.66
484.46	395.55
484.64	379.17
484.82	395.55
485.00	381.51
485.18	388.53
485.35	334.70
485.53	409.59
485.71	442.36
485.89	423.64
486.07	388.53
486.25	423.64
486.43	367.46
486.61	528.96
486.78	456.40
486.96	390.87
487.14	418.96
487.32	430.66
487.50	437.68
487.68	376.83
487.85	409.59
488.03	428.32
488.21	461.09
488.39	393.21
488.57	355.76
488.75	362.78
488.92	437.68
489.10	465.77
489.28	421.30
489.46	430.66
489.64	430.66
489.81	397.89
489.99	447.04
490.17	449.38
490.35	500.87
490.53	447.04
490.70	409.59
490.88	458.74
491.06	451.72
491.24	409.59
491.41	404.91
491.59	409.59
491.77	456.40
491.95	344.06
492.13	489.17
492.30	407.25
492.48	404.91
492.66	437.68
492.84	428.32
493.01	395.55
493.19	428.32
493.37	425.98
493.54	416.62
493.72	447.04
493.90	428.32
494.08	355.76
494.25	386.19
494.43	376.83
494.61	418.96
494.79	381.51
494.96	313.63
495.14	477.47
495.32	400.23
495.49	479.81
495.67	404.91
495.85	367.46
496.02	437.68
496.20	479.81
496.38	414.27
496.55	388.53
496.73	458.74
496.91	437.68
497.09	308.95
497.26	433.00
497.44	442.36
497.62	404.91
497.79	425.98
497.97	374.49
498.14	442.36
498.32	482.15
498.50	465.77
498.67	376.83
498.85	451.72
499.03	418.96
499.20	425.98
499.38	353.42
499.56	397.89
499.73	418.96
499.91	447.04
500.08	458.74
500.26	451.72
500.44	393.21
500.61	449.38
500.79	418.96
500.97	416.62
501.14	339.38
501.32	442.36
501.49	393.21
501.67	451.72
501.84	407.25
502.02	334.70
502.20	341.72
502.37	470.45
502.55	409.59
502.72	409.59
502.90	423.64
503.07	388.53
503.25	425.98
503.43	414.27
503.60	440.02
503.78	402.57
503.95	489.17
504.13	428.32
504.30	477.47
504.48	360.44
504.65	423.64
504.83	402.57
505.01	442.36
505.18	414.27
505.36	393.21
505.53	456.40
505.71	388.53
505.88	430.66
506.06	381.51
506.23	416.62
506.41	339.38
506.58	386.19
506.76	425.98
506.93	444.70
507.11	430.66
507.28	311.29
507.46	468.11
507.63	388.53
507.81	454.06
507.98	381.51
508.16	402.57
508.33	404.91
508.50	379.17
508.68	351.08
508.85	414.27
509.03	423.64
509.20	374.49
509.38	395.55
509.55	402.57
509.73	456.40
509.90	437.68
510.08	407.25
510.25	386.19
510.42	395.55
510.60	437.68
510.77	461.09
510.95	447.04
511.12	470.45
511.30	430.66
511.47	376.83
511.64	442.36
511.82	374.49
511.99	369.80
512.17	425.98
512.34	395.55
512.51	372.15
512.69	393.21
512.86	451.72
513.04	451.72
513.21	362.78
513.38	416.62
513.56	477.47
513.73	510.24
513.90	381.51
514.08	344.06
514.25	491.51
514.43	376.83
514.60	430.66
514.77	402.57
514.95	430.66
515.12	456.40
515.29	407.25
515.47	358.10
515.64	444.70
515.81	379.17
515.99	468.11
516.16	514.92
516.33	440.02
516.51	449.38
516.68	386.19
516.85	423.64
517.03	433.00
517.20	435.34
517.37	468.11
517.54	337.04
517.72	428.32
517.89	367.46
518.06	351.08
518.24	447.04
518.41	416.62
518.58	430.66
518.75	449.38
518.93	388.53
519.10	386.19
519.27	379.17
519.45	440.02
519.62	395.55
519.79	423.64
519.96	358.10
520.14	463.43
520.31	461.09
520.48	390.87
520.65	500.87
520.83	468.11
521.00	379.17
521.17	437.68
521.34	435.34
521.52	397.89
521.69	465.77
521.86	433.00
522.03	479.81
522.20	442.36
522.38	430.66
522.55	355.76
522.72	334.70
522.89	482.15
523.07	379.17
523.24	372.15
523.41	369.80
523.58	273.84
523.75	449.38
523.92	355.76
524.10	418.96
524.27	468.11
524.44	393.21
524.61	468.11
524.78	353.42
524.96	461.09
525.13	423.64
525.30	447.04
525.47	470.45
525.64	437.68
525.81	437.68
525.98	435.34
526.16	397.89
526.33	404.91
526.50	423.64
526.67	416.62
526.84	369.80
527.01	353.42
527.18	433.00
527.36	477.47
527.53	393.21
527.70	407.25
527.87	437.68
528.04	416.62
528.21	451.72
528.38	414.27
528.55	423.64
528.72	393.21
528.89	468.11
529.07	475.13
529.24	397.89
529.41	454.06
529.58	444.70
529.75	442.36
529.92	411.93
530.09	367.46
530.26	428.32
530.43	409.59
530.60	393.21
530.77	416.62
530.94	451.72
531.11	416.62
531.28	430.66
531.46	402.57
531.63	428.32
531.80	421.30
531.97	437.68
532.14	402.57
532.31	374.49
532.48	489.17
532.65	454.06
532.82	404.91
532.99	423.64
533.16	418.96
533.33	482.15
533.50	353.42
533.67	447.04
533.84	449.38
534.01	386.19
534.18	414.27
534.35	423.64
534.52	440.02
534.69	383.85
534.86	418.96
535.03	435.34
535.20	435.34
535.37	421.30
535.54	409.59
535.71	425.98
535.88	423.64
536.05	433.00
536.22	395.55
536.38	433.00
536.55	430.66
536.72	472.79
536.89	416.62
537.06	374.49
537.23	423.64
537.40	372.15
537.57	365.12
537.74	416.62
537.91	456.40
538.08	416.62
538.25	395.55
538.42	451.72
538.59	414.27
538.75	517.26
538.92	376.83
539.09	491.51
539.26	416.62
539.43	444.70
539.60	470.45
539.77	407.25
539.94	376.83
540.11	383.85
540.28	428.32
540.44	461.09
540.61	465.77
540.78	440.02
540.95	381.51
541.12	456.40
541.29	454.06
541.46	463.43
541.62	383.85
541.79	430.66
541.96	332.36
542.13	383.85
542.30	414.27
542.47	465.77
542.63	461.09
542.80	395.55
542.97	486.83
543.14	440.02
543.31	535.98
543.48	390.87
543.64	503.22
543.81	409.59
543.98	454.06
544.15	411.93
544.32	402.57
544.48	409.59
544.65	397.89
544.82	414.27
544.99	470.45
545.16	428.32
545.32	433.00
545.49	421.30
545.66	414.27
545.83	390.87
546.00	444.70
546.16	411.93
546.33	390.87
546.50	421.30
546.67	421.30
546.83	393.21
547.00	407.25
547.17	411.93
547.34	493.85
547.50	425.98
547.67	437.68
547.84	404.91
548.00	428.32
548.17	428.32
548.34	465.77
548.51	395.55
548.67	388.53
548.84	458.74
549.01	430.66
549.18	423.64
549.34	437.68
549.51	423.64
549.68	388.53
549.84	416.62
550.01	421.30
550.18	470.45
550.34	400.23
550.51	404.91
550.68	465.77
550.84	383.85
551.01	440.02
551.18	496.19
551.34	433.00
551.51	360.44
551.68	454.06
551.84	447.04
552.01	386.19
552.18	397.89
552.34	416.62
552.51	461.09
552.68	411.93
552.84	414.27
553.01	402.57
553.18	433.00
553.34	451.72
553.51	344.06
553.67	400.23
553.84	454.06
554.01	425.98
554.17	435.34
554.34	393.21
554.51	430.66
554.67	402.57
554.84	468.11
555.00	449.38
555.17	435.34
555.33	416.62
555.50	451.72
555.67	528.96
555.83	430.66
556.00	411.93
556.16	564.07
556.33	458.74
556.50	397.89
556.66	400.23
556.83	444.70
556.99	416.62
557.16	423.64
557.32	411.93
557.49	428.32
557.65	425.98
557.82	454.06
557.98	447.04
558.15	383.85
558.32	503.22
558.48	395.55
558.65	409.59
558.81	454.06
558.98	440.02
559.14	418.96
559.31	379.17
559.47	404.91
559.64	365.12
559.80	365.12
559.97	348.74
560.13	428.32
560.30	423.64
560.46	362.78
560.63	397.89
560.79	423.64
560.96	444.70
561.12	425.98
561.29	390.87
561.45	407.25
561.61	440.02
561.78	475.13
561.94	428.32
562.11	395.55
562.27	409.59
562.44	397.89
562.60	416.62
562.77	465.77
562.93	437.68
563.10	407.25
563.26	407.25
563.42	442.36
563.59	444.70
563.75	416.62
563.92	477.47
564.08	433.00
564.24	458.74
564.41	433.00
564.57	397.89
564.74	430.66
564.90	386.19
565.07	440.02
565.23	397.89
565.39	482.15
565.56	400.23
565.72	414.27
565.88	454.06
566.05	418.96
566.21	334.70
566.38	407.25
566.54	393.21
566.70	390.87
566.87	379.17
567.03	407.25
567.19	404.91
567.36	402.57
567.52	379.17
567.68	433.00
567.85	421.30
568.01	421.30
568.17	444.70
568.34	414.27
568.50	489.17
568.66	442.36
568.83	423.64
568.99	351.08
569.15	416.62
569.32	411.93
569.48	402.57
569.64	423.64
569.81	433.00
569.97	407.25
570.13	421.30
570.30	411.93
570.46	393.21
570.62	393.21
570.78	311.29
570.95	409.59
571.11	367.46
571.27	404.91
571.43	367.46
571.60	425.98
571.76	397.89
571.92	374.49
572.09	442.36
572.25	437.68
572.41	505.56
572.57	451.72
572.74	463.43
572.90	372.15
573.06	411.93
573.22	468.11
573.38	390.87
573.55	409.59
573.71	498.53
573.87	449.38
574.03	437.68
574.20	440.02
574.36	484.49
574.52	374.49
574.68	442.36
574.84	397.89
575.01	404.91
575.17	390.87
575.33	348.74
575.49	390.87
575.65	454.06
575.82	423.64
575.98	498.53
576.14	435.34
576.30	360.44
576.46	407.25
576.62	411.93
576.79	409.59
576.95	425.98
577.11	418.96
577.27	425.98
577.43	383.85
577.59	435.34
577.75	418.96
577.92	489.17
578.08	414.27
578.24	400.23
578.40	458.74
578.56	414.27
578.72	519.60
578.88	521.94
579.04	362.78
579.21	484.49
579.37	449.38
579.53	456.40
579.69	365.12
579.85	388.53
580.01	374.49
580.17	404.91
580.33	430.66
580.49	444.70
580.65	423.64
580.82	491.51
580.98	428.32
581.14	444.70
581.30	421.30
581.46	411.93
581.62	423.64
581.78	379.17
581.94	423.64
582.10	402.57
582.26	379.17
582.42	425.98
582.58	433.00
582.74	374.49
582.90	433.00
583.06	407.25
583.22	456.40
583.38	407.25
583.54	395.55
583.70	404.91
583.86	379.17
584.02	390.87
584.18	423.64
584.34	430.66
584.50	479.81
584.66	374.49
584.82	334.70
584.98	444.70
585.14	397.89
585.30	433.00
585.46	404.91
585.62	353.42
585.78	400.23
585.94	489.17
586.10	421.30
586.26	421.30
586.42	470.45
586.58	395.55
586.74	463.43
586.90	444.70
587.06	468.11
587.22	369.80
587.38	454.06
587.54	348.74
587.70	430.66
587.86	470.45
588.02	428.32
588.18	360.44
588.34	456.40
588.49	388.53
588.65	411.93
588.81	472.79
588.97	510.24
589.13	402.57
589.29	472.79
589.45	388.53
589.61	451.72
589.77	390.87
589.93	454.06
590.08	411.93
590.24	400.23
590.40	407.25
590.56	458.74
590.72	402.57
590.88	433.00
591.04	388.53
591.20	372.15
591.35	500.87
591.51	409.59
591.67	381.51
591.83	402.57
591.99	440.02
592.15	454.06
592.31	404.91
592.46	435.34
592.62	449.38
592.78	475.13
592.94	440.02
593.10	430.66
593.26	358.10
593.41	423.64
593.57	404.91
593.73	418.96
593.89	395.55
594.05	344.06
594.20	411.93
594.36	416.62
594.52	353.42
594.68	433.00
594.84	454.06
594.99	416.62
595.15	428.32
595.31	379.17
595.47	491.51
595.62	447.04
595.78	360.44
595.94	461.09
596.10	486.83
596.25	411.93
596.41	433.00
596.57	418.96
596.73	482.15
596.88	461.09
597.04	447.04
597.20	435.34
597.36	463.43
597.51	421.30
597.67	428.32
597.83	381.51
597.99	435.34
598.14	395.55
598.30	461.09
598.46	411.93
598.61	489.17
598.77	390.87
598.93	365.12
599.09	421.30
599.24	388.53
599.40	461.09
599.56	397.89
599.71	374.49
599.87	355.76
600.03	461.09
600.18	428.32
600.34	433.00
600.50	454.06
600.65	449.38
600.81	505.56
600.97	423.64
601.12	341.72
601.28	463.43
601.44	451.72
601.59	423.64
601.75	496.19
601.91	360.44
602.06	416.62
602.22	521.94
602.37	374.49
602.53	393.21
602.69	423.64
602.84	372.15
603.00	376.83
603.16	449.38
603.31	381.51
603.47	500.87
603.62	418.96
603.78	360.44
603.94	404.91
604.09	433.00
604.25	428.32
604.40	393.21
604.56	430.66
604.71	397.89
604.87	388.53
605.03	454.06
605.18	400.23
605.34	454.06
605.49	400.23
605.65	397.89
605.80	444.70
605.96	442.36
606.12	465.77
606.27	447.04
606.43	418.96
606.58	454.06
606.74	407.25
606.89	458.74
607.05	477.47
607.20	400.23
607.36	416.62
607.51	339.38
607.67	442.36
607.82	440.02
607.98	437.68
608.13	353.42
608.29	414.27
608.44	440.02
608.60	409.59
608.75	390.87
608.91	407.25
609.06	416.62
609.22	437.68
609.37	402.57
609.53	376.83
609.68	411.93
609.84	456.40
609.99	409.59
610.15	395.55
