SpectraSuite Data File
++++++++++++++++++++++++++++++++++++
Date: Fri Oct 25 12:10:09 EDT 2013
User: price-jones
Dark Spectrum Present: No
Reference Spectrum Present: No
Number of Sampled Component Spectra: 1
Spectrometers: USB2+H05261
Integration Time (usec): 100000 (USB2+H05261)
Spectra Averaged: 1 (USB2+H05261)
Boxcar Smoothing: 0 (USB2+H05261)
Correct for Electrical Dark: No (USB2+H05261)
Strobe/Lamp Enabled: No (USB2+H05261)
Correct for Detector Non-linearity: No (USB2+H05261)
Correct for Stray Light: No (USB2+H05261)
Number of Pixels in Processed Spectrum: 2048
>>>>>Begin Processed Spectral Data<<<<<
365.73	327.68
365.92	327.68
366.12	327.68
366.32	224.69
366.52	212.99
366.72	241.08
366.91	278.52
367.11	248.10
367.31	234.05
367.51	292.57
367.70	231.71
367.90	227.03
368.10	257.46
368.30	248.10
368.49	201.29
368.69	294.91
368.89	205.97
369.09	212.99
369.28	264.48
369.48	297.25
369.68	325.33
369.87	348.74
370.07	330.02
370.27	290.23
370.47	334.70
370.66	365.12
370.86	344.06
371.06	386.19
371.25	423.64
371.45	379.17
371.65	379.17
371.84	369.80
372.04	334.70
372.24	409.59
372.44	344.06
372.63	407.25
372.83	397.89
373.03	409.59
373.22	381.51
373.42	386.19
373.62	433.00
373.81	440.02
374.01	423.64
374.21	374.49
374.40	430.66
374.60	418.96
374.79	463.43
374.99	386.19
375.19	425.98
375.38	493.85
375.58	479.81
375.78	395.55
375.97	496.19
376.17	454.06
376.37	374.49
376.56	442.36
376.76	404.91
376.95	461.09
377.15	428.32
377.35	404.91
377.54	425.98
377.74	458.74
377.93	400.23
378.13	379.17
378.33	465.77
378.52	416.62
378.72	423.64
378.91	423.64
379.11	351.08
379.31	355.76
379.50	409.59
379.70	355.76
379.89	472.79
380.09	388.53
380.28	383.85
380.48	355.76
380.68	360.44
380.87	365.12
381.07	393.21
381.26	418.96
381.46	362.78
381.65	437.68
381.85	433.00
382.04	421.30
382.24	421.30
382.43	395.55
382.63	402.57
382.83	430.66
383.02	461.09
383.22	397.89
383.41	468.11
383.61	372.15
383.80	379.17
384.00	418.96
384.19	383.85
384.39	386.19
384.58	491.51
384.78	376.83
384.97	372.15
385.17	397.89
385.36	402.57
385.56	416.62
385.75	449.38
385.95	358.10
386.14	369.80
386.34	379.17
386.53	400.23
386.72	367.46
386.92	393.21
387.11	365.12
387.31	409.59
387.50	297.25
387.70	330.02
387.89	402.57
388.09	433.00
388.28	355.76
388.48	362.78
388.67	395.55
388.86	355.76
389.06	390.87
389.25	421.30
389.45	404.91
389.64	327.68
389.84	479.81
390.03	456.40
390.22	461.09
390.42	313.63
390.61	339.38
390.81	379.17
391.00	402.57
391.19	346.40
391.39	437.68
391.58	433.00
391.78	423.64
391.97	440.02
392.16	344.06
392.36	479.81
392.55	334.70
392.75	433.00
392.94	365.12
393.13	428.32
393.33	372.15
393.52	421.30
393.71	430.66
393.91	407.25
394.10	393.21
394.29	409.59
394.49	437.68
394.68	407.25
394.88	486.83
395.07	379.17
395.26	393.21
395.46	395.55
395.65	390.87
395.84	416.62
396.04	454.06
396.23	423.64
396.42	418.96
396.62	416.62
396.81	461.09
397.00	381.51
397.19	458.74
397.39	454.06
397.58	500.87
397.77	484.49
397.97	411.93
398.16	409.59
398.35	351.08
398.55	360.44
398.74	402.57
398.93	372.15
399.12	383.85
399.32	447.04
399.51	428.32
399.70	437.68
399.90	400.23
400.09	390.87
400.28	451.72
400.47	470.45
400.67	365.12
400.86	332.36
401.05	390.87
401.24	428.32
401.44	461.09
401.63	397.89
401.82	404.91
402.01	421.30
402.21	397.89
402.40	451.72
402.59	330.02
402.78	437.68
402.97	369.80
403.17	360.44
403.36	458.74
403.55	437.68
403.74	444.70
403.93	400.23
404.13	444.70
404.32	402.57
404.51	376.83
404.70	379.17
404.89	416.62
405.09	477.47
405.28	376.83
405.47	433.00
405.66	435.34
405.85	421.30
406.05	404.91
406.24	416.62
406.43	437.68
406.62	463.43
406.81	444.70
407.00	395.55
407.20	411.93
407.39	383.85
407.58	404.91
407.77	374.49
407.96	435.34
408.15	472.79
408.34	451.72
408.54	407.25
408.73	435.34
408.92	376.83
409.11	414.27
409.30	418.96
409.49	428.32
409.68	409.59
409.87	386.19
410.07	411.93
410.26	383.85
410.45	411.93
410.64	369.80
410.83	315.97
411.02	379.17
411.21	400.23
411.40	463.43
411.59	447.04
411.78	444.70
411.98	362.78
412.17	383.85
412.36	461.09
412.55	369.80
412.74	395.55
412.93	402.57
413.12	372.15
413.31	397.89
413.50	390.87
413.69	400.23
413.88	447.04
414.07	374.49
414.26	365.12
414.45	449.38
414.64	482.15
414.83	421.30
415.02	447.04
415.22	430.66
415.41	400.23
415.60	367.46
415.79	379.17
415.98	449.38
416.17	440.02
416.36	475.13
416.55	397.89
416.74	376.83
416.93	442.36
417.12	409.59
417.31	468.11
417.50	388.53
417.69	362.78
417.88	428.32
418.07	402.57
418.26	386.19
418.45	285.55
418.64	369.80
418.83	430.66
419.02	435.34
419.21	383.85
419.39	407.25
419.58	358.10
419.77	386.19
419.96	430.66
420.15	440.02
420.34	458.74
420.53	409.59
420.72	402.57
420.91	372.15
421.10	418.96
421.29	404.91
421.48	479.81
421.67	458.74
421.86	397.89
422.05	374.49
422.24	400.23
422.43	447.04
422.61	444.70
422.80	400.23
422.99	414.27
423.18	383.85
423.37	451.72
423.56	322.99
423.75	409.59
423.94	390.87
424.13	442.36
424.32	409.59
424.50	437.68
424.69	383.85
424.88	447.04
425.07	433.00
425.26	437.68
425.45	325.33
425.64	411.93
425.83	393.21
426.01	477.47
426.20	315.97
426.39	383.85
426.58	421.30
426.77	358.10
426.96	449.38
427.15	433.00
427.33	468.11
427.52	437.68
427.71	388.53
427.90	461.09
428.09	322.99
428.28	447.04
428.46	402.57
428.65	395.55
428.84	472.79
429.03	423.64
429.22	444.70
429.40	496.19
429.59	407.25
429.78	402.57
429.97	402.57
430.16	381.51
430.34	407.25
430.53	348.74
430.72	411.93
430.91	440.02
431.10	386.19
431.28	360.44
431.47	358.10
431.66	482.15
431.85	407.25
432.03	435.34
432.22	428.32
432.41	369.80
432.60	418.96
432.79	365.12
432.97	362.78
433.16	477.47
433.35	397.89
433.54	416.62
433.72	400.23
433.91	451.72
434.10	402.57
434.28	423.64
434.47	367.46
434.66	458.74
434.85	386.19
435.03	381.51
435.22	440.02
435.41	458.74
435.59	414.27
435.78	351.08
435.97	393.21
436.16	395.55
436.34	414.27
436.53	425.98
436.72	402.57
436.90	400.23
437.09	381.51
437.28	381.51
437.46	414.27
437.65	428.32
437.84	395.55
438.02	428.32
438.21	451.72
438.40	414.27
438.58	379.17
438.77	341.72
438.96	390.87
439.14	444.70
439.33	383.85
439.52	510.24
439.70	430.66
439.89	454.06
440.08	454.06
440.26	456.40
440.45	407.25
440.63	367.46
440.82	404.91
441.01	404.91
441.19	369.80
441.38	409.59
441.57	353.42
441.75	475.13
441.94	437.68
442.12	395.55
442.31	395.55
442.50	379.17
442.68	327.68
442.87	308.95
443.05	479.81
443.24	393.21
443.43	367.46
443.61	421.30
443.80	437.68
443.98	395.55
444.17	425.98
444.35	397.89
444.54	428.32
444.73	393.21
444.91	400.23
445.10	428.32
445.28	393.21
445.47	386.19
445.65	430.66
445.84	400.23
446.02	381.51
446.21	414.27
446.39	388.53
446.58	442.36
446.77	397.89
446.95	472.79
447.14	414.27
447.32	482.15
447.51	414.27
447.69	395.55
447.88	381.51
448.06	428.32
448.25	355.76
448.43	334.70
448.62	442.36
448.80	435.34
448.99	447.04
449.17	332.36
449.36	414.27
449.54	416.62
449.73	388.53
449.91	440.02
450.10	379.17
450.28	507.90
450.46	437.68
450.65	395.55
450.83	418.96
451.02	407.25
451.20	388.53
451.39	367.46
451.57	379.17
451.76	463.43
451.94	418.96
452.13	404.91
452.31	411.93
452.49	435.34
452.68	411.93
452.86	468.11
453.05	447.04
453.23	428.32
453.42	409.59
453.60	344.06
453.78	456.40
453.97	435.34
454.15	423.64
454.34	411.93
454.52	341.72
454.70	482.15
454.89	437.68
455.07	414.27
455.26	444.70
455.44	465.77
455.62	369.80
455.81	418.96
455.99	442.36
456.17	430.66
456.36	442.36
456.54	407.25
456.73	388.53
456.91	376.83
457.09	386.19
457.28	400.23
457.46	428.32
457.64	367.46
457.83	447.04
458.01	418.96
458.19	400.23
458.38	449.38
458.56	353.42
458.74	433.00
458.93	381.51
459.11	454.06
459.29	414.27
459.48	390.87
459.66	409.59
459.84	454.06
460.03	470.45
460.21	470.45
460.39	423.64
460.57	447.04
460.76	358.10
460.94	423.64
461.12	440.02
461.31	402.57
461.49	418.96
461.67	372.15
461.85	416.62
462.04	430.66
462.22	812.17
462.40	365.12
462.59	477.47
462.77	369.80
462.95	435.34
463.13	360.44
463.32	390.87
463.50	458.74
463.68	484.49
463.86	414.27
464.05	437.68
464.23	437.68
464.41	468.11
464.59	409.59
464.78	437.68
464.96	400.23
465.14	360.44
465.32	451.72
465.50	421.30
465.69	470.45
465.87	334.70
466.05	400.23
466.23	367.46
466.41	388.53
466.60	383.85
466.78	468.11
466.96	369.80
467.14	393.21
467.32	360.44
467.51	383.85
467.69	367.46
467.87	442.36
468.05	512.58
468.23	468.11
468.41	390.87
468.60	449.38
468.78	344.06
468.96	451.72
469.14	456.40
469.32	360.44
469.50	407.25
469.69	482.15
469.87	381.51
470.05	400.23
470.23	479.81
470.41	486.83
470.59	451.72
470.77	472.79
470.95	386.19
471.14	416.62
471.32	397.89
471.50	414.27
471.68	416.62
471.86	407.25
472.04	358.10
472.22	390.87
472.40	440.02
472.58	428.32
472.77	383.85
472.95	381.51
473.13	414.27
473.31	362.78
473.49	358.10
473.67	299.59
473.85	360.44
474.03	437.68
474.21	418.96
474.39	440.02
474.57	465.77
474.75	390.87
474.93	411.93
475.12	388.53
475.30	379.17
475.48	416.62
475.66	369.80
475.84	411.93
476.02	416.62
476.20	425.98
476.38	430.66
476.56	353.42
476.74	447.04
476.92	456.40
477.10	390.87
477.28	472.79
477.46	400.23
477.64	421.30
477.82	341.72
478.00	430.66
478.18	489.17
478.36	397.89
478.54	435.34
478.72	355.76
478.90	381.51
479.08	397.89
479.26	449.38
479.44	407.25
479.62	397.89
479.80	397.89
479.98	367.46
480.16	390.87
480.34	465.77
480.52	444.70
480.70	433.00
480.88	418.96
481.06	444.70
481.24	416.62
481.41	404.91
481.59	407.25
481.77	344.06
481.95	402.57
482.13	423.64
482.31	433.00
482.49	409.59
482.67	451.72
482.85	416.62
483.03	475.13
483.21	390.87
483.39	440.02
483.57	451.72
483.74	423.64
483.92	411.93
484.10	397.89
484.28	463.43
484.46	470.45
484.64	372.15
484.82	442.36
485.00	428.32
485.18	425.98
485.35	409.59
485.53	365.12
485.71	456.40
485.89	421.30
486.07	346.40
486.25	470.45
486.43	404.91
486.61	353.42
486.78	355.76
486.96	360.44
487.14	376.83
487.32	404.91
487.50	458.74
487.68	386.19
487.85	458.74
488.03	390.87
488.21	407.25
488.39	442.36
488.57	418.96
488.75	442.36
488.92	447.04
489.10	463.43
489.28	500.87
489.46	318.31
489.64	313.63
489.81	388.53
489.99	430.66
490.17	374.49
490.35	437.68
490.53	468.11
490.70	372.15
490.88	386.19
491.06	440.02
491.24	440.02
491.41	437.68
491.59	393.21
491.77	372.15
491.95	365.12
492.13	409.59
492.30	465.77
492.48	404.91
492.66	418.96
492.84	449.38
493.01	404.91
493.19	409.59
493.37	388.53
493.54	393.21
493.72	397.89
493.90	430.66
494.08	437.68
494.25	451.72
494.43	411.93
494.61	397.89
494.79	416.62
494.96	313.63
495.14	365.12
495.32	428.32
495.49	463.43
495.67	447.04
495.85	360.44
496.02	400.23
496.20	418.96
496.38	435.34
496.55	477.47
496.73	362.78
496.91	369.80
497.09	447.04
497.26	451.72
497.44	381.51
497.62	465.77
497.79	440.02
497.97	414.27
498.14	414.27
498.32	379.17
498.50	390.87
498.67	402.57
498.85	404.91
499.03	381.51
499.20	393.21
499.38	423.64
499.56	418.96
499.73	423.64
499.91	463.43
500.08	491.51
500.26	374.49
500.44	444.70
500.61	442.36
500.79	409.59
500.97	444.70
501.14	451.72
501.32	348.74
501.49	449.38
501.67	383.85
501.84	433.00
502.02	477.47
502.20	442.36
502.37	374.49
502.55	451.72
502.72	407.25
502.90	351.08
503.07	444.70
503.25	395.55
503.43	404.91
503.60	416.62
503.78	454.06
503.95	437.68
504.13	416.62
504.30	393.21
504.48	416.62
504.65	411.93
504.83	402.57
505.01	449.38
505.18	421.30
505.36	407.25
505.53	388.53
505.71	376.83
505.88	388.53
506.06	444.70
506.23	451.72
506.41	440.02
506.58	447.04
506.76	404.91
506.93	402.57
507.11	386.19
507.28	468.11
507.46	381.51
507.63	395.55
507.81	414.27
507.98	463.43
508.16	437.68
508.33	421.30
508.50	386.19
508.68	367.46
508.85	414.27
509.03	484.49
509.20	458.74
509.38	430.66
509.55	409.59
509.73	447.04
509.90	416.62
510.08	423.64
510.25	433.00
510.42	465.77
510.60	365.12
510.77	477.47
510.95	388.53
511.12	454.06
511.30	404.91
511.47	482.15
511.64	362.78
511.82	409.59
511.99	442.36
512.17	404.91
512.34	472.79
512.51	393.21
512.69	418.96
512.86	463.43
513.04	425.98
513.21	355.76
513.38	468.11
513.56	379.17
513.73	475.13
513.90	440.02
514.08	449.38
514.25	421.30
514.43	465.77
514.60	397.89
514.77	393.21
514.95	379.17
515.12	409.59
515.29	400.23
515.47	414.27
515.64	332.36
515.81	418.96
515.99	409.59
516.16	411.93
516.33	435.34
516.51	493.85
516.68	454.06
516.85	400.23
517.03	409.59
517.20	411.93
517.37	491.51
517.54	470.45
517.72	379.17
517.89	393.21
518.06	437.68
518.24	411.93
518.41	449.38
518.58	358.10
518.75	367.46
518.93	430.66
519.10	430.66
519.27	397.89
519.45	440.02
519.62	409.59
519.79	454.06
519.96	416.62
520.14	447.04
520.31	379.17
520.48	400.23
520.65	428.32
520.83	423.64
521.00	367.46
521.17	423.64
521.34	451.72
521.52	409.59
521.69	416.62
521.86	458.74
522.03	430.66
522.20	442.36
522.38	470.45
522.55	407.25
522.72	458.74
522.89	444.70
523.07	475.13
523.24	416.62
523.41	360.44
523.58	358.10
523.75	456.40
523.92	411.93
524.10	390.87
524.27	433.00
524.44	330.02
524.61	409.59
524.78	421.30
524.96	383.85
525.13	416.62
525.30	472.79
525.47	484.49
525.64	397.89
525.81	463.43
525.98	451.72
526.16	404.91
526.33	379.17
526.50	470.45
526.67	444.70
526.84	421.30
527.01	461.09
527.18	388.53
527.36	395.55
527.53	414.27
527.70	475.13
527.87	409.59
528.04	425.98
528.21	425.98
528.38	472.79
528.55	451.72
528.72	407.25
528.89	472.79
529.07	454.06
529.24	442.36
529.41	409.59
529.58	348.74
529.75	365.12
529.92	400.23
530.09	383.85
530.26	425.98
530.43	386.19
530.60	381.51
530.77	479.81
530.94	395.55
531.11	472.79
531.28	421.30
531.46	362.78
531.63	423.64
531.80	458.74
531.97	458.74
532.14	454.06
532.31	407.25
532.48	433.00
532.65	367.46
532.82	407.25
532.99	400.23
533.16	454.06
533.33	425.98
533.50	367.46
533.67	414.27
533.84	514.92
534.01	365.12
534.18	447.04
534.35	458.74
534.52	433.00
534.69	390.87
534.86	421.30
535.03	355.76
535.20	386.19
535.37	416.62
535.54	416.62
535.71	379.17
535.88	526.62
536.05	416.62
536.22	451.72
536.38	411.93
536.55	360.44
536.72	407.25
536.89	355.76
537.06	407.25
537.23	414.27
537.40	400.23
537.57	390.87
537.74	496.19
537.91	395.55
538.08	440.02
538.25	486.83
538.42	470.45
538.59	458.74
538.75	348.74
538.92	404.91
539.09	507.90
539.26	388.53
539.43	430.66
539.60	386.19
539.77	397.89
539.94	397.89
540.11	461.09
540.28	449.38
540.44	444.70
540.61	472.79
540.78	404.91
540.95	388.53
541.12	425.98
541.29	400.23
541.46	489.17
541.62	458.74
541.79	421.30
541.96	411.93
542.13	369.80
542.30	421.30
542.47	386.19
542.63	395.55
542.80	461.09
542.97	465.77
543.14	418.96
543.31	479.81
543.48	353.42
543.64	458.74
543.81	447.04
543.98	461.09
544.15	465.77
544.32	379.17
544.48	397.89
544.65	365.12
544.82	430.66
544.99	383.85
545.16	437.68
545.32	334.70
545.49	451.72
545.66	390.87
545.83	351.08
546.00	358.10
546.16	463.43
546.33	433.00
546.50	407.25
546.67	491.51
546.83	444.70
547.00	411.93
547.17	362.78
547.34	456.40
547.50	407.25
547.67	397.89
547.84	411.93
548.00	447.04
548.17	388.53
548.34	425.98
548.51	456.40
548.67	479.81
548.84	433.00
549.01	449.38
549.18	447.04
549.34	463.43
549.51	388.53
549.68	407.25
549.84	440.02
550.01	440.02
550.18	465.77
550.34	493.85
550.51	418.96
550.68	444.70
550.84	433.00
551.01	376.83
551.18	395.55
551.34	397.89
551.51	425.98
551.68	409.59
551.84	383.85
552.01	444.70
552.18	433.00
552.34	421.30
552.51	435.34
552.68	435.34
552.84	423.64
553.01	346.40
553.18	449.38
553.34	411.93
553.51	428.32
553.67	416.62
553.84	444.70
554.01	435.34
554.17	423.64
554.34	447.04
554.51	442.36
554.67	470.45
554.84	421.30
555.00	421.30
555.17	477.47
555.33	423.64
555.50	433.00
555.67	461.09
555.83	428.32
556.00	381.51
556.16	510.24
556.33	489.17
556.50	383.85
556.66	465.77
556.83	425.98
556.99	430.66
557.16	454.06
557.32	430.66
557.49	379.17
557.65	369.80
557.82	484.49
557.98	482.15
558.15	416.62
558.32	472.79
558.48	388.53
558.65	358.10
558.81	458.74
558.98	395.55
559.14	418.96
559.31	376.83
559.47	444.70
559.64	425.98
559.80	407.25
559.97	416.62
560.13	418.96
560.30	388.53
560.46	444.70
560.63	430.66
560.79	397.89
560.96	386.19
561.12	421.30
561.29	383.85
561.45	390.87
561.61	383.85
561.78	477.47
561.94	416.62
562.11	404.91
562.27	360.44
562.44	449.38
562.60	404.91
562.77	386.19
562.93	433.00
563.10	418.96
563.26	386.19
563.42	484.49
563.59	411.93
563.75	383.85
563.92	393.21
564.08	425.98
564.24	421.30
564.41	468.11
564.57	341.72
564.74	416.62
564.90	451.72
565.07	423.64
565.23	456.40
565.39	411.93
565.56	440.02
565.72	425.98
565.88	414.27
566.05	325.33
566.21	409.59
566.38	470.45
566.54	447.04
566.70	362.78
566.87	337.04
567.03	360.44
567.19	449.38
567.36	358.10
567.52	404.91
567.68	440.02
567.85	409.59
568.01	425.98
568.17	337.04
568.34	447.04
568.50	433.00
568.66	433.00
568.83	435.34
568.99	454.06
569.15	430.66
569.32	372.15
569.48	456.40
569.64	404.91
569.81	484.49
569.97	346.40
570.13	393.21
570.30	433.00
570.46	456.40
570.62	437.68
570.78	379.17
570.95	430.66
571.11	468.11
571.27	433.00
571.43	409.59
571.60	444.70
571.76	468.11
571.92	475.13
572.09	423.64
572.25	418.96
572.41	416.62
572.57	449.38
572.74	425.98
572.90	409.59
573.06	430.66
573.22	423.64
573.38	449.38
573.55	404.91
573.71	486.83
573.87	381.51
574.03	449.38
574.20	425.98
574.36	414.27
574.52	425.98
574.68	344.06
574.84	440.02
575.01	433.00
575.17	379.17
575.33	400.23
575.49	454.06
575.65	463.43
575.82	418.96
575.98	465.77
576.14	365.12
576.30	388.53
576.46	421.30
576.62	402.57
576.79	425.98
576.95	486.83
577.11	355.76
577.27	475.13
577.43	435.34
577.59	451.72
577.75	433.00
577.92	407.25
578.08	425.98
578.24	388.53
578.40	423.64
578.56	449.38
578.72	407.25
578.88	367.46
579.04	393.21
579.21	418.96
579.37	440.02
579.53	383.85
579.69	397.89
579.85	447.04
580.01	404.91
580.17	404.91
580.33	414.27
580.49	437.68
580.65	397.89
580.82	402.57
580.98	414.27
581.14	388.53
581.30	430.66
581.46	435.34
581.62	447.04
581.78	414.27
581.94	416.62
582.10	402.57
582.26	388.53
582.42	451.72
582.58	395.55
582.74	447.04
582.90	451.72
583.06	454.06
583.22	465.77
583.38	390.87
583.54	374.49
583.70	390.87
583.86	411.93
584.02	451.72
584.18	465.77
584.34	442.36
584.50	383.85
584.66	383.85
584.82	411.93
584.98	418.96
585.14	395.55
585.30	433.00
585.46	351.08
585.62	449.38
585.78	472.79
585.94	440.02
586.10	423.64
586.26	437.68
586.42	468.11
586.58	430.66
586.74	407.25
586.90	454.06
587.06	425.98
587.22	346.40
587.38	348.74
587.54	440.02
587.70	456.40
587.86	433.00
588.02	444.70
588.18	404.91
588.34	383.85
588.49	411.93
588.65	402.57
588.81	486.83
588.97	414.27
589.13	416.62
589.29	414.27
589.45	416.62
589.61	393.21
589.77	407.25
589.93	437.68
590.08	418.96
590.24	430.66
590.40	437.68
590.56	421.30
590.72	416.62
590.88	440.02
591.04	386.19
591.20	400.23
591.35	444.70
591.51	397.89
591.67	435.34
591.83	416.62
591.99	423.64
592.15	404.91
592.31	425.98
592.46	442.36
592.62	421.30
592.78	379.17
592.94	468.11
593.10	379.17
593.26	411.93
593.41	372.15
593.57	393.21
593.73	407.25
593.89	465.77
594.05	433.00
594.20	409.59
594.36	428.32
594.52	449.38
594.68	390.87
594.84	491.51
594.99	468.11
595.15	437.68
595.31	421.30
595.47	475.13
595.62	430.66
595.78	514.92
595.94	409.59
596.10	440.02
596.25	407.25
596.41	388.53
596.57	423.64
596.73	367.46
596.88	397.89
597.04	451.72
597.20	425.98
597.36	447.04
597.51	381.51
597.67	423.64
597.83	376.83
597.99	402.57
598.14	442.36
598.30	376.83
598.46	423.64
598.61	411.93
598.77	442.36
598.93	362.78
599.09	325.33
599.24	454.06
599.40	500.87
599.56	465.77
599.71	447.04
599.87	414.27
600.03	376.83
600.18	346.40
600.34	456.40
600.50	465.77
600.65	390.87
600.81	484.49
600.97	402.57
601.12	449.38
601.28	440.02
601.44	428.32
601.59	430.66
601.75	411.93
601.91	348.74
602.06	393.21
602.22	484.49
602.37	397.89
602.53	421.30
602.69	423.64
602.84	421.30
603.00	444.70
603.16	493.85
603.31	411.93
603.47	379.17
603.62	425.98
603.78	428.32
603.94	360.44
604.09	369.80
604.25	369.80
604.40	451.72
604.56	390.87
604.71	451.72
604.87	428.32
605.03	461.09
605.18	414.27
605.34	416.62
605.49	374.49
605.65	414.27
605.80	423.64
605.96	400.23
606.12	402.57
606.27	510.24
606.43	362.78
606.58	355.76
606.74	381.51
606.89	461.09
607.05	447.04
607.20	461.09
607.36	437.68
607.51	332.36
607.67	411.93
607.82	346.40
607.98	442.36
608.13	423.64
608.29	435.34
608.44	447.04
608.60	395.55
608.75	411.93
608.91	390.87
609.06	397.89
609.22	503.22
609.37	393.21
609.53	447.04
609.68	414.27
609.84	423.64
609.99	425.98
610.15	463.43
