SpectraSuite Data File
++++++++++++++++++++++++++++++++++++
Date: Fri Oct 25 12:10:15 EDT 2013
User: price-jones
Dark Spectrum Present: No
Reference Spectrum Present: No
Number of Sampled Component Spectra: 1
Spectrometers: USB2+H05261
Integration Time (usec): 100000 (USB2+H05261)
Spectra Averaged: 1 (USB2+H05261)
Boxcar Smoothing: 0 (USB2+H05261)
Correct for Electrical Dark: No (USB2+H05261)
Strobe/Lamp Enabled: No (USB2+H05261)
Correct for Detector Non-linearity: No (USB2+H05261)
Correct for Stray Light: No (USB2+H05261)
Number of Pixels in Processed Spectrum: 2048
>>>>>Begin Processed Spectral Data<<<<<
365.73	374.49
365.92	374.49
366.12	374.49
366.32	292.57
366.52	201.29
366.72	266.82
366.91	238.73
367.11	224.69
367.31	166.18
367.51	259.80
367.70	231.71
367.90	222.35
368.10	175.54
368.30	177.88
368.49	224.69
368.69	266.82
368.89	241.08
369.09	308.95
369.28	299.59
369.48	257.46
369.68	243.42
369.87	341.72
370.07	318.31
370.27	341.72
370.47	308.95
370.66	315.97
370.86	299.59
371.06	416.62
371.25	458.74
371.45	348.74
371.65	344.06
371.84	367.46
372.04	313.63
372.24	409.59
372.44	348.74
372.63	395.55
372.83	365.12
373.03	402.57
373.22	491.51
373.42	388.53
373.62	442.36
373.81	425.98
374.01	400.23
374.21	423.64
374.40	447.04
374.60	472.79
374.79	372.15
374.99	402.57
375.19	423.64
375.38	442.36
375.58	461.09
375.78	472.79
375.97	442.36
376.17	435.34
376.37	369.80
376.56	463.43
376.76	393.21
376.95	381.51
377.15	388.53
377.35	325.33
377.54	414.27
377.74	435.34
377.93	433.00
378.13	390.87
378.33	407.25
378.52	402.57
378.72	409.59
378.91	409.59
379.11	435.34
379.31	404.91
379.50	383.85
379.70	428.32
379.89	430.66
380.09	372.15
380.28	416.62
380.48	383.85
380.68	411.93
380.87	381.51
381.07	376.83
381.26	421.30
381.46	475.13
381.65	463.43
381.85	416.62
382.04	414.27
382.24	456.40
382.43	369.80
382.63	332.36
382.83	423.64
383.02	416.62
383.22	416.62
383.41	365.12
383.61	353.42
383.80	411.93
384.00	365.12
384.19	440.02
384.39	465.77
384.58	461.09
384.78	449.38
384.97	353.42
385.17	444.70
385.36	472.79
385.56	395.55
385.75	358.10
385.95	393.21
386.14	430.66
386.34	386.19
386.53	390.87
386.72	418.96
386.92	390.87
387.11	447.04
387.31	407.25
387.50	353.42
387.70	369.80
387.89	325.33
388.09	423.64
388.28	430.66
388.48	388.53
388.67	416.62
388.86	404.91
389.06	414.27
389.25	414.27
389.45	456.40
389.64	411.93
389.84	458.74
390.03	402.57
390.22	435.34
390.42	421.30
390.61	435.34
390.81	433.00
391.00	390.87
391.19	376.83
391.39	407.25
391.58	444.70
391.78	400.23
391.97	393.21
392.16	404.91
392.36	393.21
392.55	475.13
392.75	337.04
392.94	440.02
393.13	423.64
393.33	372.15
393.52	423.64
393.71	355.76
393.91	416.62
394.10	358.10
394.29	402.57
394.49	404.91
394.68	409.59
394.88	423.64
395.07	374.49
395.26	421.30
395.46	360.44
395.65	397.89
395.84	442.36
396.04	440.02
396.23	362.78
396.42	411.93
396.62	458.74
396.81	339.38
397.00	402.57
397.19	386.19
397.39	362.78
397.58	430.66
397.77	407.25
397.97	402.57
398.16	367.46
398.35	376.83
398.55	315.97
398.74	325.33
398.93	407.25
399.12	411.93
399.32	416.62
399.51	440.02
399.70	425.98
399.90	374.49
400.09	479.81
400.28	400.23
400.47	433.00
400.67	334.70
400.86	346.40
401.05	414.27
401.24	456.40
401.44	458.74
401.63	416.62
401.82	346.40
402.01	386.19
402.21	393.21
402.40	414.27
402.59	376.83
402.78	449.38
402.97	435.34
403.17	425.98
403.36	437.68
403.55	367.46
403.74	428.32
403.93	463.43
404.13	393.21
404.32	330.02
404.51	339.38
404.70	379.17
404.89	358.10
405.09	416.62
405.28	416.62
405.47	414.27
405.66	388.53
405.85	416.62
406.05	397.89
406.24	379.17
406.43	386.19
406.62	397.89
406.81	519.60
407.00	454.06
407.20	437.68
407.39	379.17
407.58	383.85
407.77	341.72
407.96	421.30
408.15	421.30
408.34	437.68
408.54	379.17
408.73	407.25
408.92	320.65
409.11	395.55
409.30	404.91
409.49	348.74
409.68	423.64
409.87	383.85
410.07	397.89
410.26	369.80
410.45	463.43
410.64	327.68
410.83	409.59
411.02	400.23
411.21	414.27
411.40	468.11
411.59	390.87
411.78	395.55
411.98	451.72
412.17	360.44
412.36	308.95
412.55	430.66
412.74	428.32
412.93	475.13
413.12	376.83
413.31	390.87
413.50	512.58
413.69	390.87
413.88	425.98
414.07	407.25
414.26	418.96
414.45	421.30
414.64	367.46
414.83	390.87
415.02	395.55
415.22	423.64
415.41	369.80
415.60	372.15
415.79	337.04
415.98	442.36
416.17	435.34
416.36	423.64
416.55	447.04
416.74	372.15
416.93	444.70
417.12	435.34
417.31	416.62
417.50	440.02
417.69	423.64
417.88	435.34
418.07	425.98
418.26	386.19
418.45	433.00
418.64	325.33
418.83	362.78
419.02	404.91
419.21	407.25
419.39	400.23
419.58	381.51
419.77	397.89
419.96	390.87
420.15	461.09
420.34	456.40
420.53	369.80
420.72	397.89
420.91	425.98
421.10	437.68
421.29	395.55
421.48	437.68
421.67	402.57
421.86	381.51
422.05	468.11
422.24	390.87
422.43	411.93
422.61	381.51
422.80	428.32
422.99	372.15
423.18	367.46
423.37	491.51
423.56	454.06
423.75	465.77
423.94	447.04
424.13	365.12
424.32	447.04
424.50	437.68
424.69	395.55
424.88	365.12
425.07	411.93
425.26	411.93
425.45	430.66
425.64	435.34
425.83	388.53
426.01	444.70
426.20	444.70
426.39	430.66
426.58	395.55
426.77	472.79
426.96	475.13
427.15	404.91
427.33	386.19
427.52	365.12
427.71	414.27
427.90	430.66
428.09	367.46
428.28	456.40
428.46	416.62
428.65	435.34
428.84	407.25
429.03	360.44
429.22	353.42
429.40	379.17
429.59	411.93
429.78	388.53
429.97	395.55
430.16	404.91
430.34	409.59
430.53	409.59
430.72	400.23
430.91	418.96
431.10	337.04
431.28	414.27
431.47	393.21
431.66	475.13
431.85	430.66
432.03	376.83
432.22	505.56
432.41	383.85
432.60	397.89
432.79	313.63
432.97	386.19
433.16	421.30
433.35	327.68
433.54	360.44
433.72	475.13
433.91	311.29
434.10	400.23
434.28	421.30
434.47	327.68
434.66	402.57
434.85	440.02
435.03	449.38
435.22	393.21
435.41	447.04
435.59	411.93
435.78	341.72
435.97	355.76
436.16	381.51
436.34	449.38
436.53	416.62
436.72	477.47
436.90	409.59
437.09	386.19
437.28	400.23
437.46	447.04
437.65	416.62
437.84	402.57
438.02	388.53
438.21	383.85
438.40	348.74
438.58	348.74
438.77	400.23
438.96	346.40
439.14	397.89
439.33	425.98
439.52	428.32
439.70	444.70
439.89	425.98
440.08	409.59
440.26	393.21
440.45	451.72
440.63	379.17
440.82	397.89
441.01	493.85
441.19	421.30
441.38	372.15
441.57	425.98
441.75	437.68
441.94	383.85
442.12	435.34
442.31	369.80
442.50	397.89
442.68	330.02
442.87	421.30
443.05	360.44
443.24	421.30
443.43	435.34
443.61	486.83
443.80	358.10
443.98	418.96
444.17	411.93
444.35	437.68
444.54	461.09
444.73	486.83
444.91	461.09
445.10	418.96
445.28	395.55
445.47	430.66
445.65	461.09
445.84	379.17
446.02	376.83
446.21	379.17
446.39	369.80
446.58	433.00
446.77	395.55
446.95	428.32
447.14	428.32
447.32	468.11
447.51	386.19
447.69	409.59
447.88	395.55
448.06	437.68
448.25	449.38
448.43	383.85
448.62	402.57
448.80	404.91
448.99	393.21
449.17	430.66
449.36	507.90
449.54	435.34
449.73	407.25
449.91	388.53
450.10	348.74
450.28	514.92
450.46	477.47
450.65	381.51
450.83	407.25
451.02	388.53
451.20	456.40
451.39	449.38
451.57	437.68
451.76	397.89
451.94	433.00
452.13	456.40
452.31	400.23
452.49	407.25
452.68	372.15
452.86	393.21
453.05	407.25
453.23	444.70
453.42	409.59
453.60	449.38
453.78	372.15
453.97	416.62
454.15	437.68
454.34	409.59
454.52	376.83
454.70	395.55
454.89	372.15
455.07	404.91
455.26	320.65
455.44	407.25
455.62	381.51
455.81	351.08
455.99	430.66
456.17	442.36
456.36	344.06
456.54	379.17
456.73	318.31
456.91	397.89
457.09	428.32
457.28	456.40
457.46	411.93
457.64	365.12
457.83	388.53
458.01	428.32
458.19	425.98
458.38	404.91
458.56	355.76
458.74	388.53
458.93	400.23
459.11	348.74
459.29	376.83
459.48	402.57
459.66	407.25
459.84	458.74
460.03	528.96
460.21	376.83
460.39	407.25
460.57	355.76
460.76	374.49
460.94	404.91
461.12	397.89
461.31	458.74
461.49	468.11
461.67	400.23
461.85	383.85
462.04	351.08
462.22	692.80
462.40	372.15
462.59	393.21
462.77	325.33
462.95	397.89
463.13	393.21
463.32	458.74
463.50	470.45
463.68	407.25
463.86	348.74
464.05	437.68
464.23	402.57
464.41	484.49
464.59	463.43
464.78	358.10
464.96	365.12
465.14	428.32
465.32	372.15
465.50	372.15
465.69	428.32
465.87	402.57
466.05	416.62
466.23	409.59
466.41	416.62
466.60	442.36
466.78	409.59
466.96	416.62
467.14	376.83
467.32	409.59
467.51	393.21
467.69	451.72
467.87	407.25
468.05	437.68
468.23	365.12
468.41	440.02
468.60	381.51
468.78	430.66
468.96	372.15
469.14	369.80
469.32	395.55
469.50	442.36
469.69	461.09
469.87	402.57
470.05	390.87
470.23	435.34
470.41	369.80
470.59	409.59
470.77	397.89
470.95	456.40
471.14	425.98
471.32	414.27
471.50	372.15
471.68	344.06
471.86	423.64
472.04	475.13
472.22	428.32
472.40	397.89
472.58	360.44
472.77	381.51
472.95	393.21
473.13	526.62
473.31	458.74
473.49	433.00
473.67	390.87
473.85	456.40
474.03	465.77
474.21	430.66
474.39	449.38
474.57	379.17
474.75	442.36
474.93	423.64
475.12	341.72
475.30	456.40
475.48	416.62
475.66	400.23
475.84	430.66
476.02	402.57
476.20	486.83
476.38	442.36
476.56	519.60
476.74	379.17
476.92	482.15
477.10	362.78
477.28	444.70
477.46	374.49
477.64	428.32
477.82	423.64
478.00	374.49
478.18	449.38
478.36	374.49
478.54	381.51
478.72	400.23
478.90	414.27
479.08	409.59
479.26	435.34
479.44	332.36
479.62	416.62
479.80	388.53
479.98	388.53
480.16	505.56
480.34	418.96
480.52	407.25
480.70	437.68
480.88	369.80
481.06	393.21
481.24	414.27
481.41	386.19
481.59	414.27
481.77	428.32
481.95	428.32
482.13	486.83
482.31	362.78
482.49	369.80
482.67	430.66
482.85	442.36
483.03	388.53
483.21	444.70
483.39	388.53
483.57	468.11
483.74	433.00
483.92	381.51
484.10	470.45
484.28	428.32
484.46	383.85
484.64	400.23
484.82	383.85
485.00	379.17
485.18	447.04
485.35	360.44
485.53	393.21
485.71	454.06
485.89	369.80
486.07	407.25
486.25	482.15
486.43	479.81
486.61	416.62
486.78	493.85
486.96	402.57
487.14	468.11
487.32	355.76
487.50	353.42
487.68	449.38
487.85	461.09
488.03	463.43
488.21	421.30
488.39	372.15
488.57	433.00
488.75	388.53
488.92	528.96
489.10	407.25
489.28	440.02
489.46	351.08
489.64	404.91
489.81	440.02
489.99	383.85
490.17	411.93
490.35	423.64
490.53	479.81
490.70	437.68
490.88	447.04
491.06	440.02
491.24	437.68
491.41	458.74
491.59	430.66
491.77	388.53
491.95	360.44
492.13	362.78
492.30	388.53
492.48	374.49
492.66	458.74
492.84	395.55
493.01	416.62
493.19	409.59
493.37	440.02
493.54	449.38
493.72	482.15
493.90	418.96
494.08	376.83
494.25	416.62
494.43	428.32
494.61	479.81
494.79	449.38
494.96	381.51
495.14	423.64
495.32	367.46
495.49	355.76
495.67	400.23
495.85	423.64
496.02	374.49
496.20	390.87
496.38	461.09
496.55	437.68
496.73	425.98
496.91	369.80
497.09	334.70
497.26	428.32
497.44	334.70
497.62	411.93
497.79	395.55
497.97	479.81
498.14	430.66
498.32	393.21
498.50	498.53
498.67	430.66
498.85	358.10
499.03	421.30
499.20	444.70
499.38	433.00
499.56	456.40
499.73	433.00
499.91	414.27
500.08	379.17
500.26	339.38
500.44	393.21
500.61	484.49
500.79	397.89
500.97	442.36
501.14	423.64
501.32	465.77
501.49	482.15
501.67	444.70
501.84	416.62
502.02	362.78
502.20	411.93
502.37	437.68
502.55	444.70
502.72	482.15
502.90	433.00
503.07	470.45
503.25	390.87
503.43	430.66
503.60	421.30
503.78	407.25
503.95	400.23
504.13	435.34
504.30	437.68
504.48	468.11
504.65	435.34
504.83	430.66
505.01	451.72
505.18	386.19
505.36	362.78
505.53	414.27
505.71	383.85
505.88	454.06
506.06	428.32
506.23	428.32
506.41	440.02
506.58	458.74
506.76	437.68
506.93	458.74
507.11	437.68
507.28	409.59
507.46	360.44
507.63	381.51
507.81	358.10
507.98	402.57
508.16	409.59
508.33	440.02
508.50	433.00
508.68	348.74
508.85	468.11
509.03	383.85
509.20	447.04
509.38	425.98
509.55	428.32
509.73	440.02
509.90	430.66
510.08	430.66
510.25	381.51
510.42	458.74
510.60	341.72
510.77	341.72
510.95	437.68
511.12	428.32
511.30	421.30
511.47	383.85
511.64	496.19
511.82	414.27
511.99	367.46
512.17	435.34
512.34	454.06
512.51	390.87
512.69	386.19
512.86	393.21
513.04	395.55
513.21	440.02
513.38	468.11
513.56	484.49
513.73	465.77
513.90	418.96
514.08	379.17
514.25	365.12
514.43	388.53
514.60	367.46
514.77	449.38
514.95	442.36
515.12	374.49
515.29	444.70
515.47	505.56
515.64	367.46
515.81	510.24
515.99	500.87
516.16	477.47
516.33	383.85
516.51	444.70
516.68	337.04
516.85	376.83
517.03	416.62
517.20	404.91
517.37	423.64
517.54	393.21
517.72	414.27
517.89	428.32
518.06	442.36
518.24	465.77
518.41	423.64
518.58	421.30
518.75	421.30
518.93	437.68
519.10	367.46
519.27	418.96
519.45	395.55
519.62	414.27
519.79	437.68
519.96	444.70
520.14	386.19
520.31	428.32
520.48	447.04
520.65	407.25
520.83	416.62
521.00	444.70
521.17	397.89
521.34	458.74
521.52	468.11
521.69	435.34
521.86	433.00
522.03	388.53
522.20	435.34
522.38	423.64
522.55	430.66
522.72	414.27
522.89	486.83
523.07	468.11
523.24	449.38
523.41	395.55
523.58	388.53
523.75	334.70
523.92	372.15
524.10	430.66
524.27	433.00
524.44	397.89
524.61	423.64
524.78	472.79
524.96	454.06
525.13	395.55
525.30	428.32
525.47	383.85
525.64	454.06
525.81	433.00
525.98	486.83
526.16	477.47
526.33	395.55
526.50	442.36
526.67	358.10
526.84	386.19
527.01	374.49
527.18	423.64
527.36	395.55
527.53	458.74
527.70	421.30
527.87	437.68
528.04	442.36
528.21	372.15
528.38	449.38
528.55	454.06
528.72	465.77
528.89	400.23
529.07	416.62
529.24	411.93
529.41	407.25
529.58	409.59
529.75	430.66
529.92	430.66
530.09	440.02
530.26	393.21
530.43	463.43
530.60	475.13
530.77	437.68
530.94	407.25
531.11	440.02
531.28	437.68
531.46	447.04
531.63	465.77
531.80	444.70
531.97	386.19
532.14	496.19
532.31	440.02
532.48	386.19
532.65	397.89
532.82	418.96
532.99	442.36
533.16	444.70
533.33	425.98
533.50	430.66
533.67	376.83
533.84	369.80
534.01	433.00
534.18	418.96
534.35	444.70
534.52	472.79
534.69	491.51
534.86	468.11
535.03	428.32
535.20	477.47
535.37	428.32
535.54	365.12
535.71	379.17
535.88	442.36
536.05	493.85
536.22	437.68
536.38	395.55
536.55	369.80
536.72	411.93
536.89	463.43
537.06	482.15
537.23	411.93
537.40	421.30
537.57	404.91
537.74	503.22
537.91	421.30
538.08	444.70
538.25	414.27
538.42	386.19
538.59	440.02
538.75	372.15
538.92	433.00
539.09	486.83
539.26	465.77
539.43	465.77
539.60	486.83
539.77	475.13
539.94	414.27
540.11	428.32
540.28	435.34
540.44	425.98
540.61	376.83
540.78	402.57
540.95	489.17
541.12	468.11
541.29	407.25
541.46	416.62
541.62	423.64
541.79	505.56
541.96	381.51
542.13	341.72
542.30	472.79
542.47	472.79
542.63	451.72
542.80	489.17
542.97	477.47
543.14	433.00
543.31	353.42
543.48	374.49
543.64	458.74
543.81	449.38
543.98	404.91
544.15	367.46
544.32	425.98
544.48	416.62
544.65	440.02
544.82	444.70
544.99	388.53
545.16	444.70
545.32	381.51
545.49	390.87
545.66	388.53
545.83	416.62
546.00	381.51
546.16	386.19
546.33	393.21
546.50	479.81
546.67	463.43
546.83	355.76
547.00	367.46
547.17	376.83
547.34	372.15
547.50	397.89
547.67	454.06
547.84	404.91
548.00	400.23
548.17	472.79
548.34	421.30
548.51	404.91
548.67	376.83
548.84	395.55
549.01	447.04
549.18	440.02
549.34	404.91
549.51	411.93
549.68	416.62
549.84	402.57
550.01	379.17
550.18	470.45
550.34	496.19
550.51	407.25
550.68	458.74
550.84	379.17
551.01	418.96
551.18	461.09
551.34	397.89
551.51	404.91
551.68	397.89
551.84	402.57
552.01	428.32
552.18	418.96
552.34	444.70
552.51	411.93
552.68	447.04
552.84	344.06
553.01	465.77
553.18	444.70
553.34	421.30
553.51	414.27
553.67	451.72
553.84	458.74
554.01	376.83
554.17	411.93
554.34	395.55
554.51	355.76
554.67	447.04
554.84	416.62
555.00	430.66
555.17	348.74
555.33	491.51
555.50	428.32
555.67	404.91
555.83	435.34
556.00	376.83
556.16	547.69
556.33	437.68
556.50	463.43
556.66	418.96
556.83	421.30
556.99	447.04
557.16	444.70
557.32	507.90
557.49	395.55
557.65	355.76
557.82	348.74
557.98	383.85
558.15	318.31
558.32	404.91
558.48	381.51
558.65	437.68
558.81	409.59
558.98	433.00
559.14	416.62
559.31	456.40
559.47	440.02
559.64	372.15
559.80	447.04
559.97	379.17
560.13	442.36
560.30	433.00
560.46	423.64
560.63	374.49
560.79	435.34
560.96	397.89
561.12	353.42
561.29	437.68
561.45	463.43
561.61	418.96
561.78	538.32
561.94	435.34
562.11	369.80
562.27	400.23
562.44	369.80
562.60	451.72
562.77	414.27
562.93	456.40
563.10	479.81
563.26	458.74
563.42	503.22
563.59	395.55
563.75	470.45
563.92	444.70
564.08	444.70
564.24	496.19
564.41	482.15
564.57	393.21
564.74	367.46
564.90	475.13
565.07	461.09
565.23	454.06
565.39	416.62
565.56	423.64
565.72	360.44
565.88	440.02
566.05	386.19
566.21	421.30
566.38	428.32
566.54	397.89
566.70	360.44
566.87	440.02
567.03	423.64
567.19	280.86
567.36	451.72
567.52	409.59
567.68	369.80
567.85	442.36
568.01	468.11
568.17	491.51
568.34	477.47
568.50	444.70
568.66	423.64
568.83	503.22
568.99	437.68
569.15	437.68
569.32	430.66
569.48	416.62
569.64	437.68
569.81	440.02
569.97	449.38
570.13	376.83
570.30	484.49
570.46	449.38
570.62	449.38
570.78	353.42
570.95	482.15
571.11	428.32
571.27	390.87
571.43	400.23
571.60	449.38
571.76	402.57
571.92	423.64
572.09	379.17
572.25	362.78
572.41	447.04
572.57	395.55
572.74	519.60
572.90	402.57
573.06	425.98
573.22	390.87
573.38	407.25
573.55	430.66
573.71	369.80
573.87	386.19
574.03	353.42
574.20	463.43
574.36	475.13
574.52	381.51
574.68	418.96
574.84	454.06
575.01	402.57
575.17	418.96
575.33	402.57
575.49	451.72
575.65	428.32
575.82	449.38
575.98	388.53
576.14	470.45
576.30	393.21
576.46	468.11
576.62	524.28
576.79	461.09
576.95	414.27
577.11	393.21
577.27	416.62
577.43	428.32
577.59	397.89
577.75	433.00
577.92	447.04
578.08	400.23
578.24	320.65
578.40	507.90
578.56	430.66
578.72	416.62
578.88	437.68
579.04	425.98
579.21	379.17
579.37	376.83
579.53	442.36
579.69	440.02
579.85	454.06
580.01	416.62
580.17	430.66
580.33	400.23
580.49	407.25
580.65	397.89
580.82	400.23
580.98	444.70
581.14	395.55
581.30	468.11
581.46	470.45
581.62	390.87
581.78	442.36
581.94	437.68
582.10	383.85
582.26	376.83
582.42	484.49
582.58	365.12
582.74	393.21
582.90	374.49
583.06	388.53
583.22	468.11
583.38	362.78
583.54	440.02
583.70	493.85
583.86	435.34
584.02	379.17
584.18	379.17
584.34	411.93
584.50	449.38
584.66	435.34
584.82	348.74
584.98	449.38
585.14	421.30
585.30	486.83
585.46	397.89
585.62	360.44
585.78	447.04
585.94	421.30
586.10	416.62
586.26	400.23
586.42	496.19
586.58	411.93
586.74	447.04
586.90	416.62
587.06	458.74
587.22	404.91
587.38	355.76
587.54	395.55
587.70	414.27
587.86	458.74
588.02	360.44
588.18	421.30
588.34	484.49
588.49	393.21
588.65	379.17
588.81	374.49
588.97	482.15
589.13	451.72
589.29	477.47
589.45	409.59
589.61	400.23
589.77	381.51
589.93	416.62
590.08	383.85
590.24	365.12
590.40	472.79
590.56	416.62
590.72	407.25
590.88	400.23
591.04	472.79
591.20	409.59
591.35	430.66
591.51	400.23
591.67	386.19
591.83	390.87
591.99	397.89
592.15	468.11
592.31	491.51
592.46	449.38
592.62	465.77
592.78	456.40
592.94	390.87
593.10	409.59
593.26	386.19
593.41	388.53
593.57	376.83
593.73	404.91
593.89	461.09
594.05	430.66
594.20	440.02
594.36	486.83
594.52	468.11
594.68	393.21
594.84	404.91
594.99	411.93
595.15	433.00
595.31	390.87
595.47	491.51
595.62	386.19
595.78	430.66
595.94	393.21
596.10	390.87
596.25	379.17
596.41	423.64
596.57	447.04
596.73	430.66
596.88	390.87
597.04	449.38
597.20	402.57
597.36	484.49
597.51	447.04
597.67	381.51
597.83	430.66
597.99	477.47
598.14	421.30
598.30	482.15
598.46	400.23
598.61	454.06
598.77	421.30
598.93	404.91
599.09	456.40
599.24	404.91
599.40	395.55
599.56	411.93
599.71	393.21
599.87	390.87
600.03	437.68
600.18	339.38
600.34	433.00
600.50	407.25
600.65	344.06
600.81	421.30
600.97	407.25
601.12	409.59
601.28	442.36
601.44	376.83
601.59	400.23
601.75	458.74
601.91	400.23
602.06	411.93
602.22	463.43
602.37	479.81
602.53	430.66
602.69	400.23
602.84	409.59
603.00	407.25
603.16	465.77
603.31	491.51
603.47	339.38
603.62	376.83
603.78	468.11
603.94	428.32
604.09	381.51
604.25	472.79
604.40	341.72
604.56	362.78
604.71	423.64
604.87	379.17
605.03	437.68
605.18	379.17
605.34	395.55
605.49	390.87
605.65	442.36
605.80	393.21
605.96	437.68
606.12	330.02
606.27	486.83
606.43	425.98
606.58	444.70
606.74	414.27
606.89	444.70
607.05	507.90
607.20	404.91
607.36	425.98
607.51	411.93
607.67	414.27
607.82	440.02
607.98	433.00
608.13	435.34
608.29	362.78
608.44	449.38
608.60	381.51
608.75	440.02
608.91	463.43
609.06	489.17
609.22	463.43
609.37	383.85
609.53	383.85
609.68	393.21
609.84	402.57
609.99	421.30
610.15	376.83
