SpectraSuite Data File
++++++++++++++++++++++++++++++++++++
Date: Fri Oct 25 12:10:32 EDT 2013
User: price-jones
Dark Spectrum Present: No
Reference Spectrum Present: No
Number of Sampled Component Spectra: 1
Spectrometers: USB2+H05261
Integration Time (usec): 100000 (USB2+H05261)
Spectra Averaged: 1 (USB2+H05261)
Boxcar Smoothing: 0 (USB2+H05261)
Correct for Electrical Dark: No (USB2+H05261)
Strobe/Lamp Enabled: No (USB2+H05261)
Correct for Detector Non-linearity: No (USB2+H05261)
Correct for Stray Light: No (USB2+H05261)
Number of Pixels in Processed Spectrum: 2048
>>>>>Begin Processed Spectral Data<<<<<
365.73	367.46
365.92	367.46
366.12	367.46
366.32	236.39
366.52	166.18
366.72	241.08
366.91	266.82
367.11	259.80
367.31	208.31
367.51	276.18
367.70	262.14
367.90	222.35
368.10	248.10
368.30	273.84
368.49	229.37
368.69	250.44
368.89	201.29
369.09	297.25
369.28	273.84
369.48	280.86
369.68	285.55
369.87	198.95
370.07	283.20
370.27	304.27
370.47	372.15
370.66	383.85
370.86	308.95
371.06	437.68
371.25	411.93
371.45	346.40
371.65	372.15
371.84	362.78
372.04	358.10
372.24	416.62
372.44	425.98
372.63	322.99
372.83	411.93
373.03	402.57
373.22	397.89
373.42	346.40
373.62	477.47
373.81	475.13
374.01	425.98
374.21	390.87
374.40	423.64
374.60	465.77
374.79	414.27
374.99	449.38
375.19	477.47
375.38	346.40
375.58	433.00
375.78	479.81
375.97	433.00
376.17	465.77
376.37	395.55
376.56	451.72
376.76	414.27
376.95	395.55
377.15	346.40
377.35	416.62
377.54	463.43
377.74	351.08
377.93	390.87
378.13	388.53
378.33	418.96
378.52	348.74
378.72	383.85
378.91	393.21
379.11	423.64
379.31	402.57
379.50	400.23
379.70	353.42
379.89	507.90
380.09	360.44
380.28	395.55
380.48	367.46
380.68	376.83
380.87	386.19
381.07	337.04
381.26	435.34
381.46	470.45
381.65	463.43
381.85	397.89
382.04	423.64
382.24	449.38
382.43	383.85
382.63	353.42
382.83	397.89
383.02	477.47
383.22	411.93
383.41	411.93
383.61	393.21
383.80	437.68
384.00	428.32
384.19	313.63
384.39	407.25
384.58	449.38
384.78	489.17
384.97	442.36
385.17	444.70
385.36	308.95
385.56	369.80
385.75	367.46
385.95	435.34
386.14	409.59
386.34	362.78
386.53	332.36
386.72	393.21
386.92	493.85
387.11	461.09
387.31	428.32
387.50	440.02
387.70	395.55
387.89	425.98
388.09	458.74
388.28	327.68
388.48	372.15
388.67	397.89
388.86	365.12
389.06	379.17
389.25	358.10
389.45	423.64
389.64	341.72
389.84	423.64
390.03	430.66
390.22	437.68
390.42	365.12
390.61	311.29
390.81	388.53
391.00	440.02
391.19	416.62
391.39	390.87
391.58	442.36
391.78	355.76
391.97	444.70
392.16	414.27
392.36	451.72
392.55	379.17
392.75	428.32
392.94	383.85
393.13	456.40
393.33	409.59
393.52	418.96
393.71	435.34
393.91	440.02
394.10	388.53
394.29	383.85
394.49	372.15
394.68	381.51
394.88	421.30
395.07	433.00
395.26	344.06
395.46	421.30
395.65	390.87
395.84	428.32
396.04	383.85
396.23	421.30
396.42	461.09
396.62	461.09
396.81	416.62
397.00	374.49
397.19	404.91
397.39	451.72
397.58	397.89
397.77	374.49
397.97	425.98
398.16	435.34
398.35	435.34
398.55	367.46
398.74	395.55
398.93	334.70
399.12	367.46
399.32	437.68
399.51	365.12
399.70	456.40
399.90	447.04
400.09	386.19
400.28	390.87
400.47	421.30
400.67	407.25
400.86	435.34
401.05	372.15
401.24	449.38
401.44	407.25
401.63	416.62
401.82	386.19
402.01	383.85
402.21	395.55
402.40	433.00
402.59	386.19
402.78	334.70
402.97	360.44
403.17	411.93
403.36	463.43
403.55	381.51
403.74	360.44
403.93	365.12
404.13	477.47
404.32	381.51
404.51	404.91
404.70	489.17
404.89	416.62
405.09	416.62
405.28	393.21
405.47	402.57
405.66	433.00
405.85	400.23
406.05	430.66
406.24	449.38
406.43	395.55
406.62	379.17
406.81	528.96
407.00	463.43
407.20	416.62
407.39	374.49
407.58	390.87
407.77	477.47
407.96	421.30
408.15	393.21
408.34	374.49
408.54	395.55
408.73	365.12
408.92	437.68
409.11	458.74
409.30	379.17
409.49	451.72
409.68	299.59
409.87	433.00
410.07	388.53
410.26	442.36
410.45	435.34
410.64	437.68
410.83	367.46
411.02	526.62
411.21	440.02
411.40	388.53
411.59	440.02
411.78	451.72
411.98	514.92
412.17	463.43
412.36	390.87
412.55	369.80
412.74	386.19
412.93	454.06
413.12	411.93
413.31	409.59
413.50	404.91
413.69	388.53
413.88	428.32
414.07	381.51
414.26	402.57
414.45	320.65
414.64	433.00
414.83	458.74
415.02	458.74
415.22	491.51
415.41	423.64
415.60	430.66
415.79	442.36
415.98	470.45
416.17	416.62
416.36	472.79
416.55	376.83
416.74	404.91
416.93	447.04
417.12	400.23
417.31	468.11
417.50	435.34
417.69	395.55
417.88	355.76
418.07	369.80
418.26	397.89
418.45	442.36
418.64	433.00
418.83	411.93
419.02	451.72
419.21	400.23
419.39	395.55
419.58	327.68
419.77	369.80
419.96	465.77
420.15	395.55
420.34	355.76
420.53	435.34
420.72	395.55
420.91	400.23
421.10	468.11
421.29	367.46
421.48	484.49
421.67	454.06
421.86	372.15
422.05	369.80
422.24	358.10
422.43	379.17
422.61	437.68
422.80	458.74
422.99	386.19
423.18	367.46
423.37	425.98
423.56	388.53
423.75	376.83
423.94	411.93
424.13	421.30
424.32	409.59
424.50	461.09
424.69	440.02
424.88	381.51
425.07	367.46
425.26	442.36
425.45	395.55
425.64	355.76
425.83	425.98
426.01	404.91
426.20	395.55
426.39	418.96
426.58	358.10
426.77	407.25
426.96	484.49
427.15	421.30
427.33	341.72
427.52	369.80
427.71	411.93
427.90	416.62
428.09	416.62
428.28	388.53
428.46	512.58
428.65	458.74
428.84	409.59
429.03	362.78
429.22	365.12
429.40	395.55
429.59	397.89
429.78	423.64
429.97	451.72
430.16	360.44
430.34	404.91
430.53	393.21
430.72	421.30
430.91	402.57
431.10	339.38
431.28	344.06
431.47	404.91
431.66	418.96
431.85	409.59
432.03	339.38
432.22	416.62
432.41	362.78
432.60	463.43
432.79	381.51
432.97	440.02
433.16	510.24
433.35	358.10
433.54	388.53
433.72	437.68
433.91	454.06
434.10	388.53
434.28	454.06
434.47	400.23
434.66	409.59
434.85	411.93
435.03	390.87
435.22	440.02
435.41	491.51
435.59	397.89
435.78	463.43
435.97	407.25
436.16	418.96
436.34	379.17
436.53	444.70
436.72	383.85
436.90	395.55
437.09	479.81
437.28	393.21
437.46	348.74
437.65	440.02
437.84	355.76
438.02	393.21
438.21	414.27
438.40	442.36
438.58	383.85
438.77	451.72
438.96	393.21
439.14	421.30
439.33	409.59
439.52	425.98
439.70	442.36
439.89	454.06
440.08	449.38
440.26	440.02
440.45	367.46
440.63	367.46
440.82	437.68
441.01	428.32
441.19	390.87
441.38	423.64
441.57	400.23
441.75	421.30
441.94	440.02
442.12	440.02
442.31	447.04
442.50	332.36
442.68	332.36
442.87	411.93
443.05	367.46
443.24	388.53
443.43	423.64
443.61	435.34
443.80	379.17
443.98	435.34
444.17	407.25
444.35	374.49
444.54	379.17
444.73	440.02
444.91	416.62
445.10	402.57
445.28	381.51
445.47	411.93
445.65	503.22
445.84	498.53
446.02	458.74
446.21	315.97
446.39	451.72
446.58	409.59
446.77	416.62
446.95	369.80
447.14	435.34
447.32	414.27
447.51	388.53
447.69	421.30
447.88	449.38
448.06	510.24
448.25	451.72
448.43	416.62
448.62	421.30
448.80	374.49
448.99	414.27
449.17	322.99
449.36	437.68
449.54	421.30
449.73	402.57
449.91	376.83
450.10	442.36
450.28	484.49
450.46	447.04
450.65	416.62
450.83	470.45
451.02	395.55
451.20	472.79
451.39	425.98
451.57	372.15
451.76	423.64
451.94	461.09
452.13	395.55
452.31	442.36
452.49	461.09
452.68	416.62
452.86	409.59
453.05	374.49
453.23	390.87
453.42	383.85
453.60	458.74
453.78	414.27
453.97	414.27
454.15	447.04
454.34	442.36
454.52	425.98
454.70	435.34
454.89	397.89
455.07	355.76
455.26	397.89
455.44	379.17
455.62	400.23
455.81	325.33
455.99	360.44
456.17	308.95
456.36	421.30
456.54	397.89
456.73	294.91
456.91	395.55
457.09	388.53
457.28	402.57
457.46	367.46
457.64	411.93
457.83	475.13
458.01	393.21
458.19	444.70
458.38	430.66
458.56	416.62
458.74	388.53
458.93	402.57
459.11	390.87
459.29	346.40
459.48	353.42
459.66	355.76
459.84	496.19
460.03	486.83
460.21	374.49
460.39	374.49
460.57	390.87
460.76	430.66
460.94	411.93
461.12	381.51
461.31	430.66
461.49	433.00
461.67	353.42
461.85	454.06
462.04	334.70
462.22	755.99
462.40	411.93
462.59	421.30
462.77	318.31
462.95	358.10
463.13	374.49
463.32	484.49
463.50	477.47
463.68	404.91
463.86	404.91
464.05	482.15
464.23	435.34
464.41	362.78
464.59	447.04
464.78	397.89
464.96	435.34
465.14	365.12
465.32	411.93
465.50	486.83
465.69	400.23
465.87	416.62
466.05	437.68
466.23	461.09
466.41	470.45
466.60	489.17
466.78	411.93
466.96	425.98
467.14	383.85
467.32	451.72
467.51	421.30
467.69	421.30
467.87	451.72
468.05	353.42
468.23	449.38
468.41	362.78
468.60	393.21
468.78	463.43
468.96	461.09
469.14	430.66
469.32	407.25
469.50	374.49
469.69	411.93
469.87	379.17
470.05	463.43
470.23	442.36
470.41	404.91
470.59	470.45
470.77	472.79
470.95	423.64
471.14	355.76
471.32	369.80
471.50	440.02
471.68	414.27
471.86	411.93
472.04	418.96
472.22	416.62
472.40	407.25
472.58	395.55
472.77	411.93
472.95	411.93
473.13	521.94
473.31	425.98
473.49	416.62
473.67	442.36
473.85	400.23
474.03	435.34
474.21	414.27
474.39	475.13
474.57	440.02
474.75	425.98
474.93	411.93
475.12	376.83
475.30	407.25
475.48	379.17
475.66	444.70
475.84	430.66
476.02	337.04
476.20	402.57
476.38	386.19
476.56	411.93
476.74	400.23
476.92	430.66
477.10	381.51
477.28	444.70
477.46	390.87
477.64	458.74
477.82	465.77
478.00	423.64
478.18	463.43
478.36	423.64
478.54	353.42
478.72	374.49
478.90	355.76
479.08	400.23
479.26	386.19
479.44	430.66
479.62	390.87
479.80	423.64
479.98	404.91
480.16	395.55
480.34	381.51
480.52	400.23
480.70	367.46
480.88	425.98
481.06	322.99
481.24	402.57
481.41	407.25
481.59	411.93
481.77	425.98
481.95	447.04
482.13	442.36
482.31	407.25
482.49	444.70
482.67	423.64
482.85	423.64
483.03	416.62
483.21	390.87
483.39	418.96
483.57	451.72
483.74	472.79
483.92	428.32
484.10	407.25
484.28	423.64
484.46	493.85
484.64	447.04
484.82	437.68
485.00	454.06
485.18	458.74
485.35	330.02
485.53	372.15
485.71	402.57
485.89	458.74
486.07	376.83
486.25	519.60
486.43	418.96
486.61	411.93
486.78	458.74
486.96	423.64
487.14	341.72
487.32	390.87
487.50	379.17
487.68	397.89
487.85	344.06
488.03	440.02
488.21	404.91
488.39	395.55
488.57	465.77
488.75	409.59
488.92	454.06
489.10	416.62
489.28	397.89
489.46	395.55
489.64	458.74
489.81	411.93
489.99	444.70
490.17	404.91
490.35	416.62
490.53	416.62
490.70	367.46
490.88	468.11
491.06	423.64
491.24	449.38
491.41	428.32
491.59	435.34
491.77	400.23
491.95	404.91
492.13	367.46
492.30	348.74
492.48	397.89
492.66	479.81
492.84	372.15
493.01	458.74
493.19	351.08
493.37	461.09
493.54	421.30
493.72	475.13
493.90	411.93
494.08	393.21
494.25	456.40
494.43	409.59
494.61	411.93
494.79	421.30
494.96	428.32
495.14	442.36
495.32	451.72
495.49	463.43
495.67	454.06
495.85	411.93
496.02	468.11
496.20	449.38
496.38	430.66
496.55	428.32
496.73	407.25
496.91	444.70
497.09	362.78
497.26	409.59
497.44	409.59
497.62	341.72
497.79	404.91
497.97	374.49
498.14	482.15
498.32	423.64
498.50	505.56
498.67	383.85
498.85	437.68
499.03	428.32
499.20	388.53
499.38	376.83
499.56	388.53
499.73	468.11
499.91	477.47
500.08	402.57
500.26	360.44
500.44	409.59
500.61	451.72
500.79	360.44
500.97	409.59
501.14	435.34
501.32	475.13
501.49	468.11
501.67	407.25
501.84	367.46
502.02	374.49
502.20	451.72
502.37	428.32
502.55	402.57
502.72	428.32
502.90	362.78
503.07	402.57
503.25	386.19
503.43	341.72
503.60	433.00
503.78	379.17
503.95	374.49
504.13	409.59
504.30	376.83
504.48	475.13
504.65	402.57
504.83	444.70
505.01	433.00
505.18	414.27
505.36	327.68
505.53	376.83
505.71	428.32
505.88	416.62
506.06	437.68
506.23	383.85
506.41	465.77
506.58	425.98
506.76	463.43
506.93	425.98
507.11	402.57
507.28	465.77
507.46	402.57
507.63	456.40
507.81	407.25
507.98	395.55
508.16	425.98
508.33	468.11
508.50	423.64
508.68	433.00
508.85	425.98
509.03	449.38
509.20	362.78
509.38	418.96
509.55	383.85
509.73	416.62
509.90	390.87
510.08	351.08
510.25	388.53
510.42	428.32
510.60	449.38
510.77	376.83
510.95	451.72
511.12	437.68
511.30	435.34
511.47	507.90
511.64	475.13
511.82	416.62
511.99	346.40
512.17	360.44
512.34	322.99
512.51	447.04
512.69	376.83
512.86	449.38
513.04	397.89
513.21	421.30
513.38	367.46
513.56	404.91
513.73	442.36
513.90	430.66
514.08	416.62
514.25	416.62
514.43	395.55
514.60	400.23
514.77	416.62
514.95	407.25
515.12	404.91
515.29	367.46
515.47	449.38
515.64	425.98
515.81	423.64
515.99	423.64
516.16	458.74
516.33	496.19
516.51	404.91
516.68	332.36
516.85	409.59
517.03	418.96
517.20	451.72
517.37	369.80
517.54	397.89
517.72	372.15
517.89	437.68
518.06	358.10
518.24	418.96
518.41	449.38
518.58	414.27
518.75	388.53
518.93	383.85
519.10	404.91
519.27	344.06
519.45	376.83
519.62	463.43
519.79	442.36
519.96	409.59
520.14	479.81
520.31	423.64
520.48	430.66
520.65	367.46
520.83	407.25
521.00	486.83
521.17	425.98
521.34	400.23
521.52	449.38
521.69	407.25
521.86	456.40
522.03	430.66
522.20	416.62
522.38	411.93
522.55	400.23
522.72	409.59
522.89	486.83
523.07	395.55
523.24	461.09
523.41	393.21
523.58	416.62
523.75	390.87
523.92	362.78
524.10	461.09
524.27	407.25
524.44	475.13
524.61	482.15
524.78	360.44
524.96	418.96
525.13	470.45
525.30	400.23
525.47	454.06
525.64	428.32
525.81	400.23
525.98	430.66
526.16	428.32
526.33	404.91
526.50	388.53
526.67	367.46
526.84	395.55
527.01	435.34
527.18	449.38
527.36	409.59
527.53	428.32
527.70	404.91
527.87	458.74
528.04	458.74
528.21	428.32
528.38	435.34
528.55	503.22
528.72	440.02
528.89	374.49
529.07	390.87
529.24	435.34
529.41	390.87
529.58	472.79
529.75	348.74
529.92	409.59
530.09	369.80
530.26	313.63
530.43	423.64
530.60	379.17
530.77	414.27
530.94	393.21
531.11	454.06
531.28	423.64
531.46	421.30
531.63	334.70
531.80	447.04
531.97	390.87
532.14	428.32
532.31	379.17
532.48	451.72
532.65	400.23
532.82	496.19
532.99	339.38
533.16	404.91
533.33	423.64
533.50	411.93
533.67	437.68
533.84	414.27
534.01	395.55
534.18	411.93
534.35	383.85
534.52	444.70
534.69	395.55
534.86	430.66
535.03	362.78
535.20	440.02
535.37	393.21
535.54	376.83
535.71	444.70
535.88	521.94
536.05	383.85
536.22	524.28
536.38	306.61
536.55	390.87
536.72	418.96
536.89	416.62
537.06	465.77
537.23	372.15
537.40	397.89
537.57	381.51
537.74	468.11
537.91	458.74
538.08	454.06
538.25	486.83
538.42	353.42
538.59	423.64
538.75	437.68
538.92	358.10
539.09	463.43
539.26	402.57
539.43	358.10
539.60	409.59
539.77	372.15
539.94	353.42
540.11	449.38
540.28	430.66
540.44	351.08
540.61	421.30
540.78	454.06
540.95	442.36
541.12	397.89
541.29	367.46
541.46	430.66
541.62	365.12
541.79	472.79
541.96	362.78
542.13	440.02
542.30	433.00
542.47	362.78
542.63	334.70
542.80	461.09
542.97	393.21
543.14	393.21
543.31	454.06
543.48	397.89
543.64	486.83
543.81	386.19
543.98	456.40
544.15	407.25
544.32	353.42
544.48	430.66
544.65	465.77
544.82	395.55
544.99	379.17
545.16	418.96
545.32	397.89
545.49	393.21
545.66	428.32
545.83	423.64
546.00	395.55
546.16	416.62
546.33	463.43
546.50	400.23
546.67	421.30
546.83	409.59
547.00	330.02
547.17	447.04
547.34	376.83
547.50	348.74
547.67	355.76
547.84	414.27
548.00	376.83
548.17	418.96
548.34	409.59
548.51	421.30
548.67	390.87
548.84	423.64
549.01	465.77
549.18	463.43
549.34	472.79
549.51	465.77
549.68	489.17
549.84	423.64
550.01	402.57
550.18	491.51
550.34	430.66
550.51	435.34
550.68	484.49
550.84	440.02
551.01	421.30
551.18	418.96
551.34	386.19
551.51	433.00
551.68	339.38
551.84	372.15
552.01	477.47
552.18	428.32
552.34	416.62
552.51	390.87
552.68	397.89
552.84	461.09
553.01	388.53
553.18	388.53
553.34	411.93
553.51	447.04
553.67	393.21
553.84	362.78
554.01	456.40
554.17	379.17
554.34	416.62
554.51	409.59
554.67	421.30
554.84	458.74
555.00	348.74
555.17	390.87
555.33	477.47
555.50	388.53
555.67	402.57
555.83	379.17
556.00	381.51
556.16	547.69
556.33	435.34
556.50	449.38
556.66	435.34
556.83	458.74
556.99	376.83
557.16	355.76
557.32	400.23
557.49	383.85
557.65	362.78
557.82	376.83
557.98	440.02
558.15	442.36
558.32	423.64
558.48	433.00
558.65	407.25
558.81	416.62
558.98	423.64
559.14	437.68
559.31	381.51
559.47	461.09
559.64	435.34
559.80	411.93
559.97	390.87
560.13	369.80
560.30	383.85
560.46	376.83
560.63	402.57
560.79	465.77
560.96	425.98
561.12	442.36
561.29	407.25
561.45	428.32
561.61	416.62
561.78	418.96
561.94	433.00
562.11	365.12
562.27	400.23
562.44	498.53
562.60	367.46
562.77	414.27
562.93	491.51
563.10	428.32
563.26	449.38
563.42	414.27
563.59	365.12
563.75	386.19
563.92	411.93
564.08	425.98
564.24	468.11
564.41	477.47
564.57	456.40
564.74	435.34
564.90	390.87
565.07	374.49
565.23	423.64
565.39	362.78
565.56	395.55
565.72	379.17
565.88	463.43
566.05	388.53
566.21	482.15
566.38	351.08
566.54	400.23
566.70	379.17
566.87	411.93
567.03	355.76
567.19	402.57
567.36	444.70
567.52	437.68
567.68	449.38
567.85	491.51
568.01	493.85
568.17	463.43
568.34	454.06
568.50	428.32
568.66	433.00
568.83	568.75
568.99	414.27
569.15	458.74
569.32	430.66
569.48	496.19
569.64	440.02
569.81	421.30
569.97	374.49
570.13	423.64
570.30	418.96
570.46	477.47
570.62	493.85
570.78	365.12
570.95	365.12
571.11	449.38
571.27	458.74
571.43	451.72
571.60	449.38
571.76	360.44
571.92	348.74
572.09	423.64
572.25	395.55
572.41	414.27
572.57	418.96
572.74	404.91
572.90	442.36
573.06	386.19
573.22	414.27
573.38	404.91
573.55	435.34
573.71	386.19
573.87	444.70
574.03	393.21
574.20	468.11
574.36	456.40
574.52	458.74
574.68	451.72
574.84	409.59
575.01	379.17
575.17	425.98
575.33	461.09
575.49	402.57
575.65	465.77
575.82	468.11
575.98	486.83
576.14	411.93
576.30	428.32
576.46	430.66
576.62	454.06
576.79	456.40
576.95	411.93
577.11	404.91
577.27	433.00
577.43	454.06
577.59	449.38
577.75	458.74
577.92	388.53
578.08	451.72
578.24	430.66
578.40	461.09
578.56	479.81
578.72	407.25
578.88	402.57
579.04	433.00
579.21	414.27
579.37	435.34
579.53	423.64
579.69	416.62
579.85	454.06
580.01	390.87
580.17	379.17
580.33	409.59
580.49	337.04
580.65	468.11
580.82	386.19
580.98	411.93
581.14	374.49
581.30	402.57
581.46	428.32
581.62	451.72
581.78	404.91
581.94	404.91
582.10	461.09
582.26	414.27
582.42	337.04
582.58	447.04
582.74	493.85
582.90	411.93
583.06	514.92
583.22	447.04
583.38	425.98
583.54	449.38
583.70	463.43
583.86	479.81
584.02	435.34
584.18	510.24
584.34	444.70
584.50	425.98
584.66	477.47
584.82	402.57
584.98	386.19
585.14	440.02
585.30	458.74
585.46	411.93
585.62	374.49
585.78	449.38
585.94	411.93
586.10	428.32
586.26	435.34
586.42	372.15
586.58	447.04
586.74	437.68
586.90	397.89
587.06	379.17
587.22	402.57
587.38	353.42
587.54	341.72
587.70	435.34
587.86	421.30
588.02	358.10
588.18	472.79
588.34	486.83
588.49	402.57
588.65	440.02
588.81	428.32
588.97	348.74
589.13	383.85
589.29	425.98
589.45	472.79
589.61	430.66
589.77	395.55
589.93	362.78
590.08	461.09
590.24	435.34
590.40	393.21
590.56	428.32
590.72	367.46
590.88	418.96
591.04	442.36
591.20	421.30
591.35	393.21
591.51	430.66
591.67	393.21
591.83	479.81
591.99	407.25
592.15	449.38
592.31	386.19
592.46	416.62
592.62	461.09
592.78	409.59
592.94	402.57
593.10	374.49
593.26	507.90
593.41	395.55
593.57	451.72
593.73	435.34
593.89	400.23
594.05	470.45
594.20	425.98
594.36	411.93
594.52	358.10
594.68	416.62
594.84	430.66
594.99	451.72
595.15	379.17
595.31	397.89
595.47	477.47
595.62	379.17
595.78	379.17
595.94	418.96
596.10	440.02
596.25	421.30
596.41	433.00
596.57	388.53
596.73	442.36
596.88	337.04
597.04	423.64
597.20	407.25
597.36	489.17
597.51	440.02
597.67	418.96
597.83	458.74
597.99	421.30
598.14	456.40
598.30	425.98
598.46	395.55
598.61	503.22
598.77	454.06
598.93	416.62
599.09	437.68
599.24	390.87
599.40	376.83
599.56	379.17
599.71	386.19
599.87	482.15
600.03	372.15
600.18	381.51
600.34	418.96
600.50	437.68
600.65	365.12
600.81	428.32
600.97	454.06
601.12	351.08
601.28	440.02
601.44	444.70
601.59	374.49
601.75	395.55
601.91	468.11
602.06	379.17
602.22	561.73
602.37	451.72
602.53	440.02
602.69	386.19
602.84	369.80
603.00	498.53
603.16	433.00
603.31	463.43
603.47	456.40
603.62	433.00
603.78	500.87
603.94	461.09
604.09	388.53
604.25	451.72
604.40	491.51
604.56	411.93
604.71	367.46
604.87	381.51
605.03	456.40
605.18	463.43
605.34	470.45
605.49	451.72
605.65	358.10
605.80	390.87
605.96	381.51
606.12	449.38
606.27	440.02
606.43	447.04
606.58	430.66
606.74	414.27
606.89	395.55
607.05	437.68
607.20	362.78
607.36	411.93
607.51	407.25
607.67	440.02
607.82	395.55
607.98	440.02
608.13	411.93
608.29	418.96
608.44	404.91
608.60	425.98
608.75	414.27
608.91	472.79
609.06	425.98
609.22	374.49
609.37	407.25
609.53	358.10
609.68	386.19
609.84	374.49
609.99	425.98
610.15	433.00
