SpectraSuite Data File
++++++++++++++++++++++++++++++++++++
Date: Fri Oct 25 12:10:09 EDT 2013
User: price-jones
Dark Spectrum Present: No
Reference Spectrum Present: No
Number of Sampled Component Spectra: 1
Spectrometers: USB2+H05261
Integration Time (usec): 100000 (USB2+H05261)
Spectra Averaged: 1 (USB2+H05261)
Boxcar Smoothing: 0 (USB2+H05261)
Correct for Electrical Dark: No (USB2+H05261)
Strobe/Lamp Enabled: No (USB2+H05261)
Correct for Detector Non-linearity: No (USB2+H05261)
Correct for Stray Light: No (USB2+H05261)
Number of Pixels in Processed Spectrum: 2048
>>>>>Begin Processed Spectral Data<<<<<
365.73	311.29
365.92	311.29
366.12	311.29
366.32	262.14
366.52	229.37
366.72	330.02
366.91	278.52
367.11	238.73
367.31	203.63
367.51	234.05
367.70	201.29
367.90	283.20
368.10	241.08
368.30	236.39
368.49	191.92
368.69	266.82
368.89	276.18
369.09	346.40
369.28	292.57
369.48	243.42
369.68	283.20
369.87	320.65
370.07	241.08
370.27	304.27
370.47	292.57
370.66	290.23
370.86	325.33
371.06	318.31
371.25	402.57
371.45	395.55
371.65	367.46
371.84	374.49
372.04	337.04
372.24	351.08
372.44	435.34
372.63	423.64
372.83	418.96
373.03	395.55
373.22	430.66
373.42	503.22
373.62	411.93
373.81	400.23
374.01	409.59
374.21	395.55
374.40	477.47
374.60	388.53
374.79	475.13
374.99	362.78
375.19	418.96
375.38	491.51
375.58	411.93
375.78	512.58
375.97	404.91
376.17	402.57
376.37	463.43
376.56	411.93
376.76	402.57
376.95	416.62
377.15	430.66
377.35	458.74
377.54	400.23
377.74	369.80
377.93	369.80
378.13	393.21
378.33	423.64
378.52	374.49
378.72	409.59
378.91	468.11
379.11	388.53
379.31	393.21
379.50	376.83
379.70	414.27
379.89	395.55
380.09	458.74
380.28	374.49
380.48	414.27
380.68	411.93
380.87	409.59
381.07	461.09
381.26	348.74
381.46	367.46
381.65	411.93
381.85	423.64
382.04	428.32
382.24	458.74
382.43	442.36
382.63	374.49
382.83	383.85
383.02	393.21
383.22	463.43
383.41	418.96
383.61	369.80
383.80	407.25
384.00	416.62
384.19	416.62
384.39	376.83
384.58	435.34
384.78	404.91
384.97	395.55
385.17	393.21
385.36	402.57
385.56	365.12
385.75	381.51
385.95	358.10
386.14	428.32
386.34	447.04
386.53	414.27
386.72	409.59
386.92	388.53
387.11	390.87
387.31	444.70
387.50	358.10
387.70	428.32
387.89	461.09
388.09	435.34
388.28	344.06
388.48	388.53
388.67	388.53
388.86	409.59
389.06	461.09
389.25	421.30
389.45	451.72
389.64	418.96
389.84	358.10
390.03	414.27
390.22	376.83
390.42	423.64
390.61	433.00
390.81	395.55
391.00	372.15
391.19	463.43
391.39	395.55
391.58	411.93
391.78	397.89
391.97	472.79
392.16	341.72
392.36	374.49
392.55	442.36
392.75	362.78
392.94	393.21
393.13	393.21
393.33	440.02
393.52	400.23
393.71	404.91
393.91	381.51
394.10	388.53
394.29	428.32
394.49	437.68
394.68	416.62
394.88	454.06
395.07	388.53
395.26	367.46
395.46	365.12
395.65	430.66
395.84	397.89
396.04	407.25
396.23	397.89
396.42	409.59
396.62	365.12
396.81	407.25
397.00	442.36
397.19	367.46
397.39	411.93
397.58	407.25
397.77	386.19
397.97	369.80
398.16	374.49
398.35	404.91
398.55	437.68
398.74	404.91
398.93	393.21
399.12	372.15
399.32	479.81
399.51	372.15
399.70	332.36
399.90	421.30
400.09	461.09
400.28	440.02
400.47	433.00
400.67	449.38
400.86	414.27
401.05	451.72
401.24	414.27
401.44	425.98
401.63	372.15
401.82	388.53
402.01	332.36
402.21	409.59
402.40	428.32
402.59	365.12
402.78	395.55
402.97	472.79
403.17	451.72
403.36	449.38
403.55	353.42
403.74	320.65
403.93	376.83
404.13	400.23
404.32	402.57
404.51	409.59
404.70	477.47
404.89	442.36
405.09	407.25
405.28	351.08
405.47	353.42
405.66	458.74
405.85	379.17
406.05	416.62
406.24	353.42
406.43	421.30
406.62	447.04
406.81	451.72
407.00	444.70
407.20	362.78
407.39	397.89
407.58	348.74
407.77	465.77
407.96	442.36
408.15	435.34
408.34	381.51
408.54	372.15
408.73	400.23
408.92	355.76
409.11	416.62
409.30	416.62
409.49	404.91
409.68	449.38
409.87	463.43
410.07	409.59
410.26	395.55
410.45	465.77
410.64	393.21
410.83	411.93
411.02	355.76
411.21	416.62
411.40	376.83
411.59	390.87
411.78	414.27
411.98	383.85
412.17	388.53
412.36	463.43
412.55	451.72
412.74	454.06
412.93	500.87
413.12	353.42
413.31	407.25
413.50	456.40
413.69	468.11
413.88	437.68
414.07	393.21
414.26	390.87
414.45	475.13
414.64	425.98
414.83	425.98
415.02	447.04
415.22	435.34
415.41	411.93
415.60	400.23
415.79	425.98
415.98	416.62
416.17	423.64
416.36	397.89
416.55	402.57
416.74	425.98
416.93	451.72
417.12	465.77
417.31	456.40
417.50	465.77
417.69	423.64
417.88	423.64
418.07	376.83
418.26	369.80
418.45	369.80
418.64	367.46
418.83	402.57
419.02	475.13
419.21	451.72
419.39	416.62
419.58	433.00
419.77	421.30
419.96	433.00
420.15	442.36
420.34	358.10
420.53	440.02
420.72	414.27
420.91	411.93
421.10	369.80
421.29	381.51
421.48	374.49
421.67	465.77
421.86	416.62
422.05	477.47
422.24	433.00
422.43	425.98
422.61	351.08
422.80	454.06
422.99	402.57
423.18	383.85
423.37	379.17
423.56	372.15
423.75	421.30
423.94	355.76
424.13	428.32
424.32	386.19
424.50	414.27
424.69	433.00
424.88	390.87
425.07	454.06
425.26	433.00
425.45	425.98
425.64	374.49
425.83	433.00
426.01	498.53
426.20	355.76
426.39	400.23
426.58	372.15
426.77	463.43
426.96	423.64
427.15	416.62
427.33	346.40
427.52	416.62
427.71	411.93
427.90	440.02
428.09	402.57
428.28	376.83
428.46	355.76
428.65	376.83
428.84	437.68
429.03	447.04
429.22	369.80
429.40	393.21
429.59	383.85
429.78	395.55
429.97	421.30
430.16	421.30
430.34	428.32
430.53	386.19
430.72	437.68
430.91	442.36
431.10	451.72
431.28	346.40
431.47	376.83
431.66	416.62
431.85	330.02
432.03	334.70
432.22	414.27
432.41	428.32
432.60	402.57
432.79	390.87
432.97	365.12
433.16	470.45
433.35	337.04
433.54	393.21
433.72	344.06
433.91	479.81
434.10	407.25
434.28	355.76
434.47	379.17
434.66	379.17
434.85	482.15
435.03	367.46
435.22	365.12
435.41	414.27
435.59	430.66
435.78	484.49
435.97	404.91
436.16	428.32
436.34	367.46
436.53	372.15
436.72	465.77
436.90	376.83
437.09	414.27
437.28	458.74
437.46	381.51
437.65	418.96
437.84	442.36
438.02	444.70
438.21	416.62
438.40	409.59
438.58	451.72
438.77	383.85
438.96	444.70
439.14	381.51
439.33	402.57
439.52	423.64
439.70	386.19
439.89	440.02
440.08	437.68
440.26	440.02
440.45	458.74
440.63	475.13
440.82	437.68
441.01	449.38
441.19	402.57
441.38	416.62
441.57	341.72
441.75	430.66
441.94	416.62
442.12	407.25
442.31	416.62
442.50	425.98
442.68	411.93
442.87	390.87
443.05	421.30
443.24	402.57
443.43	451.72
443.61	496.19
443.80	344.06
443.98	400.23
444.17	437.68
444.35	489.17
444.54	440.02
444.73	379.17
444.91	435.34
445.10	397.89
445.28	374.49
445.47	477.47
445.65	325.33
445.84	379.17
446.02	397.89
446.21	493.85
446.39	458.74
446.58	376.83
446.77	360.44
446.95	435.34
447.14	404.91
447.32	442.36
447.51	379.17
447.69	383.85
447.88	344.06
448.06	484.49
448.25	440.02
448.43	456.40
448.62	423.64
448.80	414.27
448.99	409.59
449.17	355.76
449.36	372.15
449.54	409.59
449.73	414.27
449.91	400.23
450.10	360.44
450.28	440.02
450.46	479.81
450.65	358.10
450.83	369.80
451.02	348.74
451.20	400.23
451.39	425.98
451.57	376.83
451.76	341.72
451.94	416.62
452.13	449.38
452.31	400.23
452.49	362.78
452.68	465.77
452.86	428.32
453.05	397.89
453.23	386.19
453.42	404.91
453.60	348.74
453.78	430.66
453.97	430.66
454.15	393.21
454.34	404.91
454.52	449.38
454.70	463.43
454.89	409.59
455.07	444.70
455.26	425.98
455.44	409.59
455.62	456.40
455.81	397.89
455.99	393.21
456.17	451.72
456.36	416.62
456.54	395.55
456.73	451.72
456.91	407.25
457.09	388.53
457.28	351.08
457.46	418.96
457.64	444.70
457.83	374.49
458.01	421.30
458.19	430.66
458.38	393.21
458.56	433.00
458.74	348.74
458.93	400.23
459.11	442.36
459.29	411.93
459.48	425.98
459.66	416.62
459.84	425.98
460.03	482.15
460.21	395.55
460.39	390.87
460.57	365.12
460.76	428.32
460.94	510.24
461.12	484.49
461.31	376.83
461.49	379.17
461.67	421.30
461.85	404.91
462.04	397.89
462.22	709.18
462.40	468.11
462.59	531.30
462.77	369.80
462.95	388.53
463.13	341.72
463.32	416.62
463.50	360.44
463.68	404.91
463.86	414.27
464.05	428.32
464.23	397.89
464.41	458.74
464.59	407.25
464.78	440.02
464.96	423.64
465.14	386.19
465.32	397.89
465.50	367.46
465.69	418.96
465.87	444.70
466.05	465.77
466.23	449.38
466.41	416.62
466.60	433.00
466.78	402.57
466.96	437.68
467.14	512.58
467.32	463.43
467.51	414.27
467.69	388.53
467.87	428.32
468.05	381.51
468.23	454.06
468.41	428.32
468.60	444.70
468.78	407.25
468.96	498.53
469.14	379.17
469.32	400.23
469.50	442.36
469.69	404.91
469.87	428.32
470.05	393.21
470.23	395.55
470.41	388.53
470.59	395.55
470.77	512.58
470.95	458.74
471.14	468.11
471.32	369.80
471.50	444.70
471.68	353.42
471.86	475.13
472.04	374.49
472.22	400.23
472.40	418.96
472.58	416.62
472.77	381.51
472.95	491.51
473.13	472.79
473.31	414.27
473.49	327.68
473.67	322.99
473.85	512.58
474.03	402.57
474.21	475.13
474.39	430.66
474.57	402.57
474.75	449.38
474.93	351.08
475.12	379.17
475.30	465.77
475.48	437.68
475.66	486.83
475.84	416.62
476.02	330.02
476.20	416.62
476.38	435.34
476.56	486.83
476.74	514.92
476.92	383.85
477.10	390.87
477.28	411.93
477.46	402.57
477.64	470.45
477.82	428.32
478.00	411.93
478.18	341.72
478.36	447.04
478.54	388.53
478.72	395.55
478.90	379.17
479.08	440.02
479.26	418.96
479.44	447.04
479.62	447.04
479.80	386.19
479.98	418.96
480.16	388.53
480.34	358.10
480.52	386.19
480.70	344.06
480.88	388.53
481.06	407.25
481.24	332.36
481.41	423.64
481.59	383.85
481.77	435.34
481.95	444.70
482.13	444.70
482.31	379.17
482.49	484.49
482.67	498.53
482.85	423.64
483.03	454.06
483.21	390.87
483.39	379.17
483.57	372.15
483.74	433.00
483.92	402.57
484.10	395.55
484.28	372.15
484.46	409.59
484.64	458.74
484.82	425.98
485.00	430.66
485.18	428.32
485.35	407.25
485.53	390.87
485.71	472.79
485.89	383.85
486.07	447.04
486.25	454.06
486.43	425.98
486.61	379.17
486.78	327.68
486.96	383.85
487.14	395.55
487.32	360.44
487.50	447.04
487.68	444.70
487.85	376.83
488.03	353.42
488.21	470.45
488.39	388.53
488.57	341.72
488.75	367.46
488.92	535.98
489.10	409.59
489.28	456.40
489.46	414.27
489.64	372.15
489.81	531.30
489.99	421.30
490.17	416.62
490.35	397.89
490.53	451.72
490.70	367.46
490.88	491.51
491.06	451.72
491.24	444.70
491.41	374.49
491.59	454.06
491.77	418.96
491.95	435.34
492.13	407.25
492.30	484.49
492.48	461.09
492.66	404.91
492.84	379.17
493.01	479.81
493.19	400.23
493.37	395.55
493.54	414.27
493.72	327.68
493.90	435.34
494.08	421.30
494.25	416.62
494.43	404.91
494.61	402.57
494.79	425.98
494.96	325.33
495.14	482.15
495.32	425.98
495.49	449.38
495.67	425.98
495.85	393.21
496.02	416.62
496.20	407.25
496.38	383.85
496.55	451.72
496.73	395.55
496.91	430.66
497.09	425.98
497.26	470.45
497.44	400.23
497.62	435.34
497.79	449.38
497.97	383.85
498.14	383.85
498.32	454.06
498.50	421.30
498.67	435.34
498.85	397.89
499.03	376.83
499.20	425.98
499.38	355.76
499.56	376.83
499.73	498.53
499.91	479.81
500.08	435.34
500.26	372.15
500.44	442.36
500.61	449.38
500.79	348.74
500.97	388.53
501.14	449.38
501.32	407.25
501.49	458.74
501.67	409.59
501.84	362.78
502.02	423.64
502.20	484.49
502.37	402.57
502.55	409.59
502.72	475.13
502.90	390.87
503.07	423.64
503.25	418.96
503.43	409.59
503.60	355.76
503.78	390.87
503.95	451.72
504.13	390.87
504.30	416.62
504.48	425.98
504.65	505.56
504.83	449.38
505.01	376.83
505.18	416.62
505.36	351.08
505.53	365.12
505.71	397.89
505.88	402.57
506.06	381.51
506.23	409.59
506.41	430.66
506.58	428.32
506.76	411.93
506.93	433.00
507.11	440.02
507.28	421.30
507.46	348.74
507.63	444.70
507.81	346.40
507.98	395.55
508.16	388.53
508.33	369.80
508.50	444.70
508.68	456.40
508.85	358.10
509.03	456.40
509.20	447.04
509.38	348.74
509.55	416.62
509.73	437.68
509.90	402.57
510.08	390.87
510.25	461.09
510.42	397.89
510.60	411.93
510.77	414.27
510.95	397.89
511.12	430.66
511.30	367.46
511.47	416.62
511.64	386.19
511.82	461.09
511.99	456.40
512.17	444.70
512.34	461.09
512.51	360.44
512.69	339.38
512.86	505.56
513.04	465.77
513.21	428.32
513.38	519.60
513.56	393.21
513.73	400.23
513.90	388.53
514.08	397.89
514.25	407.25
514.43	414.27
514.60	414.27
514.77	358.10
514.95	404.91
515.12	430.66
515.29	407.25
515.47	451.72
515.64	416.62
515.81	407.25
515.99	418.96
516.16	475.13
516.33	479.81
516.51	449.38
516.68	442.36
516.85	400.23
517.03	402.57
517.20	386.19
517.37	404.91
517.54	383.85
517.72	425.98
517.89	416.62
518.06	447.04
518.24	449.38
518.41	498.53
518.58	449.38
518.75	411.93
518.93	496.19
519.10	418.96
519.27	360.44
519.45	379.17
519.62	442.36
519.79	428.32
519.96	414.27
520.14	383.85
520.31	402.57
520.48	383.85
520.65	407.25
520.83	449.38
521.00	428.32
521.17	414.27
521.34	393.21
521.52	425.98
521.69	393.21
521.86	425.98
522.03	416.62
522.20	484.49
522.38	414.27
522.55	416.62
522.72	447.04
522.89	456.40
523.07	458.74
523.24	442.36
523.41	407.25
523.58	369.80
523.75	435.34
523.92	388.53
524.10	393.21
524.27	379.17
524.44	437.68
524.61	447.04
524.78	407.25
524.96	477.47
525.13	451.72
525.30	463.43
525.47	411.93
525.64	447.04
525.81	437.68
525.98	397.89
526.16	416.62
526.33	416.62
526.50	477.47
526.67	484.49
526.84	428.32
527.01	390.87
527.18	411.93
527.36	388.53
527.53	332.36
527.70	444.70
527.87	449.38
528.04	444.70
528.21	423.64
528.38	444.70
528.55	379.17
528.72	440.02
528.89	449.38
529.07	407.25
529.24	306.61
529.41	421.30
529.58	395.55
529.75	379.17
529.92	449.38
530.09	390.87
530.26	458.74
530.43	411.93
530.60	414.27
530.77	411.93
530.94	428.32
531.11	449.38
531.28	337.04
531.46	393.21
531.63	369.80
531.80	440.02
531.97	465.77
532.14	475.13
532.31	388.53
532.48	428.32
532.65	414.27
532.82	418.96
532.99	362.78
533.16	414.27
533.33	425.98
533.50	388.53
533.67	421.30
533.84	372.15
534.01	381.51
534.18	440.02
534.35	447.04
534.52	418.96
534.69	461.09
534.86	395.55
535.03	304.27
535.20	414.27
535.37	402.57
535.54	449.38
535.71	477.47
535.88	472.79
536.05	390.87
536.22	433.00
536.38	418.96
536.55	376.83
536.72	489.17
536.89	414.27
537.06	430.66
537.23	421.30
537.40	430.66
537.57	465.77
537.74	489.17
537.91	372.15
538.08	421.30
538.25	411.93
538.42	404.91
538.59	381.51
538.75	397.89
538.92	449.38
539.09	404.91
539.26	421.30
539.43	428.32
539.60	381.51
539.77	447.04
539.94	355.76
540.11	416.62
540.28	435.34
540.44	454.06
540.61	400.23
540.78	416.62
540.95	362.78
541.12	404.91
541.29	444.70
541.46	395.55
541.62	339.38
541.79	430.66
541.96	318.31
542.13	416.62
542.30	435.34
542.47	395.55
542.63	409.59
542.80	411.93
542.97	463.43
543.14	472.79
543.31	421.30
543.48	454.06
543.64	472.79
543.81	433.00
543.98	475.13
544.15	521.94
544.32	379.17
544.48	456.40
544.65	367.46
544.82	395.55
544.99	402.57
545.16	386.19
545.32	379.17
545.49	430.66
545.66	383.85
545.83	425.98
546.00	379.17
546.16	463.43
546.33	393.21
546.50	337.04
546.67	458.74
546.83	407.25
547.00	423.64
547.17	411.93
547.34	390.87
547.50	411.93
547.67	440.02
547.84	416.62
548.00	458.74
548.17	395.55
548.34	423.64
548.51	416.62
548.67	489.17
548.84	503.22
549.01	519.60
549.18	416.62
549.34	397.89
549.51	390.87
549.68	461.09
549.84	451.72
550.01	386.19
550.18	475.13
550.34	468.11
550.51	423.64
550.68	517.26
550.84	353.42
551.01	376.83
551.18	428.32
551.34	397.89
551.51	472.79
551.68	461.09
551.84	390.87
552.01	521.94
552.18	437.68
552.34	465.77
552.51	400.23
552.68	416.62
552.84	395.55
553.01	362.78
553.18	435.34
553.34	421.30
553.51	456.40
553.67	409.59
553.84	440.02
554.01	458.74
554.17	411.93
554.34	440.02
554.51	433.00
554.67	390.87
554.84	440.02
555.00	444.70
555.17	416.62
555.33	463.43
555.50	435.34
555.67	461.09
555.83	388.53
556.00	425.98
556.16	500.87
556.33	465.77
556.50	360.44
556.66	409.59
556.83	388.53
556.99	374.49
557.16	397.89
557.32	461.09
557.49	510.24
557.65	447.04
557.82	421.30
557.98	390.87
558.15	404.91
558.32	367.46
558.48	388.53
558.65	486.83
558.81	407.25
558.98	386.19
559.14	456.40
559.31	376.83
559.47	433.00
559.64	358.10
559.80	416.62
559.97	388.53
560.13	486.83
560.30	381.51
560.46	325.33
560.63	358.10
560.79	409.59
560.96	435.34
561.12	416.62
561.29	409.59
561.45	416.62
561.61	395.55
561.78	486.83
561.94	418.96
562.11	437.68
562.27	435.34
562.44	416.62
562.60	379.17
562.77	395.55
562.93	470.45
563.10	550.03
563.26	407.25
563.42	421.30
563.59	454.06
563.75	461.09
563.92	416.62
564.08	418.96
564.24	479.81
564.41	437.68
564.57	437.68
564.74	362.78
564.90	507.90
565.07	430.66
565.23	416.62
565.39	442.36
565.56	461.09
565.72	440.02
565.88	475.13
566.05	346.40
566.21	400.23
566.38	409.59
566.54	411.93
566.70	383.85
566.87	388.53
567.03	325.33
567.19	444.70
567.36	374.49
567.52	407.25
567.68	479.81
567.85	456.40
568.01	437.68
568.17	393.21
568.34	435.34
568.50	477.47
568.66	381.51
568.83	440.02
568.99	411.93
569.15	423.64
569.32	400.23
569.48	470.45
569.64	433.00
569.81	353.42
569.97	430.66
570.13	444.70
570.30	360.44
570.46	360.44
570.62	409.59
570.78	447.04
570.95	386.19
571.11	484.49
571.27	365.12
571.43	423.64
571.60	430.66
571.76	454.06
571.92	451.72
572.09	362.78
572.25	341.72
572.41	437.68
572.57	418.96
572.74	543.00
572.90	421.30
573.06	351.08
573.22	393.21
573.38	367.46
573.55	376.83
573.71	437.68
573.87	423.64
574.03	411.93
574.20	421.30
574.36	414.27
574.52	395.55
574.68	374.49
574.84	458.74
575.01	437.68
575.17	395.55
575.33	365.12
575.49	374.49
575.65	500.87
575.82	496.19
575.98	470.45
576.14	372.15
576.30	379.17
576.46	418.96
576.62	379.17
576.79	477.47
576.95	454.06
577.11	484.49
577.27	409.59
577.43	369.80
577.59	360.44
577.75	341.72
577.92	386.19
578.08	369.80
578.24	390.87
578.40	458.74
578.56	484.49
578.72	437.68
578.88	437.68
579.04	409.59
579.21	397.89
579.37	353.42
579.53	430.66
579.69	407.25
579.85	451.72
580.01	404.91
580.17	437.68
580.33	386.19
580.49	386.19
580.65	397.89
580.82	402.57
580.98	465.77
581.14	421.30
581.30	395.55
581.46	430.66
581.62	418.96
581.78	430.66
581.94	447.04
582.10	437.68
582.26	383.85
582.42	428.32
582.58	383.85
582.74	472.79
582.90	468.11
583.06	442.36
583.22	428.32
583.38	351.08
583.54	365.12
583.70	428.32
583.86	407.25
584.02	379.17
584.18	461.09
584.34	355.76
584.50	374.49
584.66	447.04
584.82	355.76
584.98	454.06
585.14	395.55
585.30	479.81
585.46	386.19
585.62	351.08
585.78	444.70
585.94	416.62
586.10	428.32
586.26	449.38
586.42	451.72
586.58	444.70
586.74	418.96
586.90	451.72
587.06	409.59
587.22	423.64
587.38	447.04
587.54	402.57
587.70	444.70
587.86	430.66
588.02	407.25
588.18	411.93
588.34	456.40
588.49	381.51
588.65	386.19
588.81	451.72
588.97	409.59
589.13	430.66
589.29	449.38
589.45	416.62
589.61	379.17
589.77	505.56
589.93	458.74
590.08	381.51
590.24	458.74
590.40	418.96
590.56	444.70
590.72	311.29
590.88	393.21
591.04	444.70
591.20	414.27
591.35	372.15
591.51	444.70
591.67	339.38
591.83	416.62
591.99	458.74
592.15	444.70
592.31	468.11
592.46	376.83
592.62	425.98
592.78	330.02
592.94	397.89
593.10	400.23
593.26	400.23
593.41	304.27
593.57	423.64
593.73	451.72
593.89	418.96
594.05	416.62
594.20	369.80
594.36	440.02
594.52	400.23
594.68	421.30
594.84	435.34
594.99	437.68
595.15	435.34
595.31	421.30
595.47	477.47
595.62	367.46
595.78	425.98
595.94	416.62
596.10	390.87
596.25	428.32
596.41	397.89
596.57	416.62
596.73	463.43
596.88	425.98
597.04	414.27
597.20	330.02
597.36	454.06
597.51	418.96
597.67	388.53
597.83	393.21
597.99	418.96
598.14	437.68
598.30	470.45
598.46	402.57
598.61	447.04
598.77	428.32
598.93	381.51
599.09	315.97
599.24	388.53
599.40	369.80
599.56	374.49
599.71	451.72
599.87	383.85
600.03	425.98
600.18	358.10
600.34	416.62
600.50	489.17
600.65	367.46
600.81	437.68
600.97	374.49
601.12	416.62
601.28	472.79
601.44	404.91
601.59	463.43
601.75	463.43
601.91	444.70
602.06	440.02
602.22	437.68
602.37	465.77
602.53	421.30
602.69	458.74
602.84	367.46
603.00	433.00
603.16	538.32
603.31	421.30
603.47	409.59
603.62	327.68
603.78	425.98
603.94	407.25
604.09	348.74
604.25	407.25
604.40	437.68
604.56	367.46
604.71	458.74
604.87	421.30
605.03	379.17
605.18	433.00
605.34	500.87
605.49	451.72
605.65	379.17
605.80	351.08
605.96	369.80
606.12	484.49
606.27	472.79
606.43	409.59
606.58	411.93
606.74	414.27
606.89	454.06
607.05	435.34
607.20	393.21
607.36	414.27
607.51	404.91
607.67	367.46
607.82	421.30
607.98	458.74
608.13	355.76
608.29	393.21
608.44	397.89
608.60	393.21
608.75	465.77
608.91	449.38
609.06	484.49
609.22	458.74
609.37	402.57
609.53	376.83
609.68	407.25
609.84	358.10
609.99	458.74
610.15	379.17
