SpectraSuite Data File
++++++++++++++++++++++++++++++++++++
Date: Fri Oct 25 12:11:01 EDT 2013
User: price-jones
Dark Spectrum Present: No
Reference Spectrum Present: No
Number of Sampled Component Spectra: 1
Spectrometers: USB2+H05261
Integration Time (usec): 100000 (USB2+H05261)
Spectra Averaged: 1 (USB2+H05261)
Boxcar Smoothing: 0 (USB2+H05261)
Correct for Electrical Dark: No (USB2+H05261)
Strobe/Lamp Enabled: No (USB2+H05261)
Correct for Detector Non-linearity: No (USB2+H05261)
Correct for Stray Light: No (USB2+H05261)
Number of Pixels in Processed Spectrum: 2048
>>>>>Begin Processed Spectral Data<<<<<
365.73	330.02
365.92	330.02
366.12	330.02
366.32	269.16
366.52	259.80
366.72	278.52
366.91	241.08
367.11	212.99
367.31	234.05
367.51	234.05
367.70	201.29
367.90	180.22
368.10	182.56
368.30	156.82
368.49	180.22
368.69	227.03
368.89	250.44
369.09	262.14
369.28	294.91
369.48	273.84
369.68	276.18
369.87	238.73
370.07	327.68
370.27	313.63
370.47	315.97
370.66	287.89
370.86	311.29
371.06	411.93
371.25	381.51
371.45	276.18
371.65	402.57
371.84	358.10
372.04	388.53
372.24	461.09
372.44	334.70
372.63	475.13
372.83	465.77
373.03	440.02
373.22	367.46
373.42	402.57
373.62	512.58
373.81	475.13
374.01	463.43
374.21	428.32
374.40	418.96
374.60	407.25
374.79	353.42
374.99	376.83
375.19	360.44
375.38	388.53
375.58	418.96
375.78	414.27
375.97	421.30
376.17	411.93
376.37	348.74
376.56	456.40
376.76	360.44
376.95	404.91
377.15	435.34
377.35	365.12
377.54	456.40
377.74	372.15
377.93	374.49
378.13	440.02
378.33	395.55
378.52	355.76
378.72	353.42
378.91	454.06
379.11	447.04
379.31	442.36
379.50	414.27
379.70	374.49
379.89	346.40
380.09	416.62
380.28	341.72
380.48	465.77
380.68	418.96
380.87	369.80
381.07	447.04
381.26	416.62
381.46	433.00
381.65	402.57
381.85	374.49
382.04	425.98
382.24	449.38
382.43	491.51
382.63	411.93
382.83	430.66
383.02	411.93
383.22	425.98
383.41	454.06
383.61	344.06
383.80	442.36
384.00	402.57
384.19	416.62
384.39	418.96
384.58	369.80
384.78	447.04
384.97	411.93
385.17	400.23
385.36	353.42
385.56	486.83
385.75	418.96
385.95	386.19
386.14	444.70
386.34	313.63
386.53	386.19
386.72	402.57
386.92	416.62
387.11	383.85
387.31	397.89
387.50	381.51
387.70	393.21
387.89	330.02
388.09	388.53
388.28	411.93
388.48	362.78
388.67	407.25
388.86	355.76
389.06	376.83
389.25	456.40
389.45	435.34
389.64	353.42
389.84	430.66
390.03	498.53
390.22	463.43
390.42	346.40
390.61	465.77
390.81	421.30
391.00	449.38
391.19	447.04
391.39	353.42
391.58	442.36
391.78	463.43
391.97	433.00
392.16	458.74
392.36	440.02
392.55	402.57
392.75	411.93
392.94	381.51
393.13	365.12
393.33	428.32
393.52	404.91
393.71	435.34
393.91	386.19
394.10	372.15
394.29	418.96
394.49	402.57
394.68	376.83
394.88	409.59
395.07	421.30
395.26	461.09
395.46	407.25
395.65	386.19
395.84	383.85
396.04	486.83
396.23	379.17
396.42	402.57
396.62	423.64
396.81	437.68
397.00	397.89
397.19	454.06
397.39	421.30
397.58	409.59
397.77	393.21
397.97	390.87
398.16	365.12
398.35	397.89
398.55	374.49
398.74	393.21
398.93	388.53
399.12	372.15
399.32	411.93
399.51	411.93
399.70	409.59
399.90	409.59
400.09	465.77
400.28	407.25
400.47	400.23
400.67	472.79
400.86	388.53
401.05	372.15
401.24	447.04
401.44	386.19
401.63	376.83
401.82	386.19
402.01	437.68
402.21	395.55
402.40	447.04
402.59	367.46
402.78	440.02
402.97	376.83
403.17	461.09
403.36	423.64
403.55	379.17
403.74	407.25
403.93	341.72
404.13	418.96
404.32	374.49
404.51	421.30
404.70	360.44
404.89	468.11
405.09	395.55
405.28	383.85
405.47	372.15
405.66	437.68
405.85	477.47
406.05	369.80
406.24	500.87
406.43	353.42
406.62	355.76
406.81	395.55
407.00	430.66
407.20	372.15
407.39	428.32
407.58	421.30
407.77	465.77
407.96	400.23
408.15	374.49
408.34	414.27
408.54	379.17
408.73	435.34
408.92	411.93
409.11	447.04
409.30	475.13
409.49	362.78
409.68	421.30
409.87	360.44
410.07	395.55
410.26	397.89
410.45	379.17
410.64	425.98
410.83	397.89
411.02	437.68
411.21	425.98
411.40	449.38
411.59	428.32
411.78	414.27
411.98	390.87
412.17	386.19
412.36	374.49
412.55	381.51
412.74	397.89
412.93	468.11
413.12	444.70
413.31	395.55
413.50	376.83
413.69	458.74
413.88	414.27
414.07	418.96
414.26	423.64
414.45	468.11
414.64	463.43
414.83	360.44
415.02	374.49
415.22	407.25
415.41	369.80
415.60	428.32
415.79	442.36
415.98	486.83
416.17	381.51
416.36	379.17
416.55	344.06
416.74	437.68
416.93	386.19
417.12	374.49
417.31	416.62
417.50	423.64
417.69	430.66
417.88	437.68
418.07	360.44
418.26	395.55
418.45	390.87
418.64	416.62
418.83	456.40
419.02	395.55
419.21	376.83
419.39	409.59
419.58	372.15
419.77	393.21
419.96	379.17
420.15	379.17
420.34	404.91
420.53	437.68
420.72	397.89
420.91	418.96
421.10	381.51
421.29	383.85
421.48	440.02
421.67	486.83
421.86	414.27
422.05	404.91
422.24	372.15
422.43	376.83
422.61	402.57
422.80	433.00
422.99	374.49
423.18	451.72
423.37	423.64
423.56	456.40
423.75	374.49
423.94	390.87
424.13	322.99
424.32	390.87
424.50	409.59
424.69	414.27
424.88	463.43
425.07	411.93
425.26	482.15
425.45	416.62
425.64	416.62
425.83	355.76
426.01	428.32
426.20	393.21
426.39	341.72
426.58	381.51
426.77	383.85
426.96	379.17
427.15	390.87
427.33	341.72
427.52	423.64
427.71	402.57
427.90	409.59
428.09	358.10
428.28	369.80
428.46	414.27
428.65	348.74
428.84	409.59
429.03	381.51
429.22	393.21
429.40	451.72
429.59	442.36
429.78	421.30
429.97	397.89
430.16	395.55
430.34	409.59
430.53	402.57
430.72	383.85
430.91	440.02
431.10	388.53
431.28	381.51
431.47	437.68
431.66	493.85
431.85	383.85
432.03	388.53
432.22	428.32
432.41	454.06
432.60	482.15
432.79	400.23
432.97	423.64
433.16	376.83
433.35	388.53
433.54	351.08
433.72	414.27
433.91	409.59
434.10	411.93
434.28	437.68
434.47	414.27
434.66	372.15
434.85	353.42
435.03	404.91
435.22	435.34
435.41	404.91
435.59	421.30
435.78	390.87
435.97	379.17
436.16	411.93
436.34	341.72
436.53	397.89
436.72	369.80
436.90	388.53
437.09	409.59
437.28	423.64
437.46	381.51
437.65	425.98
437.84	402.57
438.02	423.64
438.21	421.30
438.40	353.42
438.58	425.98
438.77	456.40
438.96	379.17
439.14	374.49
439.33	442.36
439.52	430.66
439.70	437.68
439.89	381.51
440.08	425.98
440.26	458.74
440.45	428.32
440.63	397.89
440.82	379.17
441.01	449.38
441.19	451.72
441.38	407.25
441.57	433.00
441.75	454.06
441.94	390.87
442.12	433.00
442.31	435.34
442.50	407.25
442.68	395.55
442.87	477.47
443.05	365.12
443.24	423.64
443.43	456.40
443.61	425.98
443.80	503.22
443.98	369.80
444.17	372.15
444.35	437.68
444.54	433.00
444.73	454.06
444.91	458.74
445.10	425.98
445.28	388.53
445.47	381.51
445.65	451.72
445.84	409.59
446.02	418.96
446.21	451.72
446.39	339.38
446.58	428.32
446.77	393.21
446.95	381.51
447.14	416.62
447.32	425.98
447.51	360.44
447.69	411.93
447.88	423.64
448.06	425.98
448.25	470.45
448.43	344.06
448.62	367.46
448.80	437.68
448.99	421.30
449.17	374.49
449.36	407.25
449.54	411.93
449.73	409.59
449.91	477.47
450.10	468.11
450.28	421.30
450.46	461.09
450.65	411.93
450.83	365.12
451.02	367.46
451.20	451.72
451.39	397.89
451.57	404.91
451.76	376.83
451.94	418.96
452.13	505.56
452.31	444.70
452.49	402.57
452.68	402.57
452.86	367.46
453.05	428.32
453.23	402.57
453.42	402.57
453.60	376.83
453.78	395.55
453.97	418.96
454.15	407.25
454.34	428.32
454.52	472.79
454.70	500.87
454.89	425.98
455.07	369.80
455.26	388.53
455.44	365.12
455.62	334.70
455.81	409.59
455.99	435.34
456.17	344.06
456.36	458.74
456.54	451.72
456.73	372.15
456.91	402.57
457.09	379.17
457.28	526.62
457.46	402.57
457.64	379.17
457.83	416.62
458.01	421.30
458.19	409.59
458.38	444.70
458.56	418.96
458.74	383.85
458.93	402.57
459.11	374.49
459.29	365.12
459.48	463.43
459.66	479.81
459.84	411.93
460.03	505.56
460.21	418.96
460.39	376.83
460.57	468.11
460.76	479.81
460.94	376.83
461.12	440.02
461.31	430.66
461.49	421.30
461.67	360.44
461.85	407.25
462.04	423.64
462.22	489.17
462.40	447.04
462.59	482.15
462.77	372.15
462.95	421.30
463.13	449.38
463.32	407.25
463.50	339.38
463.68	411.93
463.86	451.72
464.05	421.30
464.23	348.74
464.41	414.27
464.59	376.83
464.78	379.17
464.96	404.91
465.14	484.49
465.32	442.36
465.50	397.89
465.69	449.38
465.87	409.59
466.05	421.30
466.23	479.81
466.41	369.80
466.60	400.23
466.78	379.17
466.96	383.85
467.14	454.06
467.32	444.70
467.51	386.19
467.69	470.45
467.87	409.59
468.05	442.36
468.23	479.81
468.41	404.91
468.60	435.34
468.78	454.06
468.96	411.93
469.14	435.34
469.32	414.27
469.50	397.89
469.69	418.96
469.87	383.85
470.05	393.21
470.23	440.02
470.41	421.30
470.59	475.13
470.77	477.47
470.95	416.62
471.14	512.58
471.32	374.49
471.50	456.40
471.68	435.34
471.86	397.89
472.04	461.09
472.22	409.59
472.40	404.91
472.58	475.13
472.77	379.17
472.95	341.72
473.13	528.96
473.31	381.51
473.49	376.83
473.67	386.19
473.85	472.79
474.03	395.55
474.21	409.59
474.39	458.74
474.57	397.89
474.75	381.51
474.93	400.23
475.12	404.91
475.30	409.59
475.48	409.59
475.66	454.06
475.84	430.66
476.02	393.21
476.20	404.91
476.38	411.93
476.56	484.49
476.74	388.53
476.92	383.85
477.10	428.32
477.28	444.70
477.46	402.57
477.64	444.70
477.82	428.32
478.00	374.49
478.18	365.12
478.36	524.28
478.54	393.21
478.72	395.55
478.90	416.62
479.08	355.76
479.26	482.15
479.44	418.96
479.62	437.68
479.80	393.21
479.98	428.32
480.16	376.83
480.34	458.74
480.52	496.19
480.70	472.79
480.88	372.15
481.06	397.89
481.24	442.36
481.41	393.21
481.59	440.02
481.77	404.91
481.95	418.96
482.13	437.68
482.31	379.17
482.49	444.70
482.67	381.51
482.85	472.79
483.03	440.02
483.21	383.85
483.39	416.62
483.57	395.55
483.74	482.15
483.92	390.87
484.10	376.83
484.28	409.59
484.46	454.06
484.64	362.78
484.82	374.49
485.00	414.27
485.18	430.66
485.35	421.30
485.53	435.34
485.71	442.36
485.89	400.23
486.07	433.00
486.25	512.58
486.43	507.90
486.61	395.55
486.78	458.74
486.96	383.85
487.14	390.87
487.32	468.11
487.50	400.23
487.68	409.59
487.85	388.53
488.03	393.21
488.21	416.62
488.39	353.42
488.57	418.96
488.75	449.38
488.92	489.17
489.10	416.62
489.28	524.28
489.46	388.53
489.64	411.93
489.81	367.46
489.99	489.17
490.17	358.10
490.35	407.25
490.53	409.59
490.70	388.53
490.88	440.02
491.06	379.17
491.24	496.19
491.41	463.43
491.59	402.57
491.77	407.25
491.95	397.89
492.13	369.80
492.30	444.70
492.48	369.80
492.66	433.00
492.84	440.02
493.01	341.72
493.19	332.36
493.37	456.40
493.54	461.09
493.72	430.66
493.90	435.34
494.08	381.51
494.25	451.72
494.43	402.57
494.61	341.72
494.79	468.11
494.96	346.40
495.14	414.27
495.32	407.25
495.49	416.62
495.67	390.87
495.85	404.91
496.02	423.64
496.20	388.53
496.38	470.45
496.55	390.87
496.73	390.87
496.91	383.85
497.09	433.00
497.26	397.89
497.44	337.04
497.62	400.23
497.79	348.74
497.97	372.15
498.14	376.83
498.32	397.89
498.50	407.25
498.67	428.32
498.85	400.23
499.03	393.21
499.20	435.34
499.38	404.91
499.56	372.15
499.73	367.46
499.91	475.13
500.08	425.98
500.26	358.10
500.44	444.70
500.61	430.66
500.79	421.30
500.97	404.91
501.14	383.85
501.32	496.19
501.49	468.11
501.67	447.04
501.84	383.85
502.02	353.42
502.20	489.17
502.37	475.13
502.55	435.34
502.72	421.30
502.90	444.70
503.07	379.17
503.25	383.85
503.43	397.89
503.60	418.96
503.78	381.51
503.95	390.87
504.13	414.27
504.30	414.27
504.48	461.09
504.65	414.27
504.83	341.72
505.01	463.43
505.18	442.36
505.36	388.53
505.53	456.40
505.71	430.66
505.88	369.80
506.06	393.21
506.23	444.70
506.41	458.74
506.58	400.23
506.76	372.15
506.93	458.74
507.11	444.70
507.28	381.51
507.46	440.02
507.63	414.27
507.81	414.27
507.98	393.21
508.16	397.89
508.33	365.12
508.50	461.09
508.68	416.62
508.85	430.66
509.03	409.59
509.20	409.59
509.38	388.53
509.55	397.89
509.73	423.64
509.90	468.11
510.08	365.12
510.25	386.19
510.42	390.87
510.60	437.68
510.77	477.47
510.95	407.25
511.12	456.40
511.30	444.70
511.47	393.21
511.64	395.55
511.82	421.30
511.99	397.89
512.17	395.55
512.34	463.43
512.51	397.89
512.69	407.25
512.86	416.62
513.04	388.53
513.21	423.64
513.38	383.85
513.56	402.57
513.73	397.89
513.90	418.96
514.08	404.91
514.25	451.72
514.43	393.21
514.60	435.34
514.77	379.17
514.95	416.62
515.12	416.62
515.29	388.53
515.47	437.68
515.64	425.98
515.81	435.34
515.99	400.23
516.16	437.68
516.33	498.53
516.51	390.87
516.68	507.90
516.85	421.30
517.03	411.93
517.20	372.15
517.37	402.57
517.54	449.38
517.72	475.13
517.89	379.17
518.06	428.32
518.24	402.57
518.41	524.28
518.58	437.68
518.75	393.21
518.93	440.02
519.10	402.57
519.27	388.53
519.45	430.66
519.62	411.93
519.79	416.62
519.96	360.44
520.14	376.83
520.31	414.27
520.48	435.34
520.65	444.70
520.83	388.53
521.00	437.68
521.17	465.77
521.34	454.06
521.52	386.19
521.69	416.62
521.86	416.62
522.03	388.53
522.20	437.68
522.38	440.02
522.55	381.51
522.72	454.06
522.89	383.85
523.07	514.92
523.24	454.06
523.41	334.70
523.58	383.85
523.75	353.42
523.92	428.32
524.10	423.64
524.27	416.62
524.44	454.06
524.61	468.11
524.78	397.89
524.96	475.13
525.13	360.44
525.30	404.91
525.47	428.32
525.64	418.96
525.81	433.00
525.98	409.59
526.16	400.23
526.33	411.93
526.50	360.44
526.67	351.08
526.84	383.85
527.01	416.62
527.18	433.00
527.36	402.57
527.53	402.57
527.70	414.27
527.87	416.62
528.04	428.32
528.21	344.06
528.38	440.02
528.55	463.43
528.72	430.66
528.89	397.89
529.07	449.38
529.24	433.00
529.41	423.64
529.58	332.36
529.75	407.25
529.92	374.49
530.09	397.89
530.26	500.87
530.43	332.36
530.60	425.98
530.77	395.55
530.94	433.00
531.11	416.62
531.28	341.72
531.46	435.34
531.63	416.62
531.80	404.91
531.97	437.68
532.14	423.64
532.31	454.06
532.48	386.19
532.65	402.57
532.82	379.17
532.99	365.12
533.16	496.19
533.33	470.45
533.50	358.10
533.67	465.77
533.84	437.68
534.01	465.77
534.18	472.79
534.35	421.30
534.52	332.36
534.69	402.57
534.86	442.36
535.03	404.91
535.20	407.25
535.37	381.51
535.54	437.68
535.71	334.70
535.88	486.83
536.05	423.64
536.22	456.40
536.38	498.53
536.55	461.09
536.72	386.19
536.89	360.44
537.06	416.62
537.23	372.15
537.40	449.38
537.57	393.21
537.74	458.74
537.91	421.30
538.08	433.00
538.25	440.02
538.42	397.89
538.59	447.04
538.75	418.96
538.92	430.66
539.09	395.55
539.26	461.09
539.43	463.43
539.60	440.02
539.77	346.40
539.94	440.02
540.11	440.02
540.28	489.17
540.44	423.64
540.61	442.36
540.78	409.59
540.95	435.34
541.12	484.49
541.29	372.15
541.46	479.81
541.62	437.68
541.79	395.55
541.96	423.64
542.13	397.89
542.30	353.42
542.47	381.51
542.63	411.93
542.80	376.83
542.97	397.89
543.14	400.23
543.31	458.74
543.48	351.08
543.64	435.34
543.81	477.47
543.98	414.27
544.15	360.44
544.32	369.80
544.48	395.55
544.65	418.96
544.82	311.29
544.99	423.64
545.16	423.64
545.32	421.30
545.49	393.21
545.66	351.08
545.83	454.06
546.00	372.15
546.16	416.62
546.33	400.23
546.50	330.02
546.67	425.98
546.83	430.66
547.00	416.62
547.17	360.44
547.34	360.44
547.50	425.98
547.67	367.46
547.84	367.46
548.00	428.32
548.17	414.27
548.34	416.62
548.51	425.98
548.67	444.70
548.84	334.70
549.01	411.93
549.18	402.57
549.34	458.74
549.51	334.70
549.68	372.15
549.84	386.19
550.01	320.65
550.18	472.79
550.34	507.90
550.51	409.59
550.68	435.34
550.84	425.98
551.01	423.64
551.18	472.79
551.34	411.93
551.51	400.23
551.68	437.68
551.84	421.30
552.01	397.89
552.18	510.24
552.34	390.87
552.51	444.70
552.68	388.53
552.84	390.87
553.01	409.59
553.18	425.98
553.34	358.10
553.51	374.49
553.67	421.30
553.84	475.13
554.01	447.04
554.17	423.64
554.34	355.76
554.51	425.98
554.67	449.38
554.84	437.68
555.00	447.04
555.17	376.83
555.33	442.36
555.50	454.06
555.67	447.04
555.83	414.27
556.00	465.77
556.16	526.62
556.33	454.06
556.50	367.46
556.66	442.36
556.83	386.19
556.99	423.64
557.16	437.68
557.32	463.43
557.49	339.38
557.65	381.51
557.82	440.02
557.98	416.62
558.15	414.27
558.32	409.59
558.48	437.68
558.65	414.27
558.81	430.66
558.98	376.83
559.14	428.32
559.31	374.49
559.47	486.83
559.64	465.77
559.80	360.44
559.97	376.83
560.13	442.36
560.30	463.43
560.46	447.04
560.63	351.08
560.79	334.70
560.96	402.57
561.12	442.36
561.29	433.00
561.45	428.32
561.61	414.27
561.78	491.51
561.94	463.43
562.11	463.43
562.27	409.59
562.44	421.30
562.60	447.04
562.77	404.91
562.93	496.19
563.10	461.09
563.26	383.85
563.42	440.02
563.59	367.46
563.75	374.49
563.92	362.78
564.08	411.93
564.24	425.98
564.41	484.49
564.57	442.36
564.74	421.30
564.90	416.62
565.07	428.32
565.23	430.66
565.39	421.30
565.56	376.83
565.72	393.21
565.88	456.40
566.05	451.72
566.21	393.21
566.38	397.89
566.54	369.80
566.70	353.42
566.87	411.93
567.03	376.83
567.19	414.27
567.36	416.62
567.52	397.89
567.68	397.89
567.85	388.53
568.01	379.17
568.17	423.64
568.34	397.89
568.50	416.62
568.66	369.80
568.83	423.64
568.99	402.57
569.15	491.51
569.32	395.55
569.48	451.72
569.64	393.21
569.81	411.93
569.97	470.45
570.13	465.77
570.30	379.17
570.46	430.66
570.62	477.47
570.78	458.74
570.95	393.21
571.11	437.68
571.27	475.13
571.43	421.30
571.60	451.72
571.76	456.40
571.92	411.93
572.09	386.19
572.25	348.74
572.41	425.98
572.57	430.66
572.74	435.34
572.90	430.66
573.06	358.10
573.22	374.49
573.38	423.64
573.55	388.53
573.71	411.93
573.87	491.51
574.03	447.04
574.20	451.72
574.36	442.36
574.52	440.02
574.68	383.85
574.84	428.32
575.01	360.44
575.17	451.72
575.33	433.00
575.49	435.34
575.65	388.53
575.82	418.96
575.98	390.87
576.14	440.02
576.30	425.98
576.46	379.17
576.62	423.64
576.79	425.98
576.95	458.74
577.11	404.91
577.27	425.98
577.43	519.60
577.59	454.06
577.75	393.21
577.92	376.83
578.08	388.53
578.24	386.19
578.40	402.57
578.56	425.98
578.72	458.74
578.88	376.83
579.04	444.70
579.21	390.87
579.37	437.68
579.53	428.32
579.69	425.98
579.85	416.62
580.01	423.64
580.17	334.70
580.33	297.25
580.49	428.32
580.65	397.89
580.82	475.13
580.98	369.80
581.14	369.80
581.30	465.77
581.46	383.85
581.62	416.62
581.78	379.17
581.94	486.83
582.10	496.19
582.26	430.66
582.42	421.30
582.58	383.85
582.74	402.57
582.90	458.74
583.06	475.13
583.22	428.32
583.38	322.99
583.54	365.12
583.70	425.98
583.86	407.25
584.02	379.17
584.18	397.89
584.34	322.99
584.50	454.06
584.66	388.53
584.82	374.49
584.98	437.68
585.14	386.19
585.30	407.25
585.46	388.53
585.62	444.70
585.78	482.15
585.94	435.34
586.10	449.38
586.26	430.66
586.42	414.27
586.58	393.21
586.74	416.62
586.90	498.53
587.06	409.59
587.22	337.04
587.38	437.68
587.54	362.78
587.70	395.55
587.86	376.83
588.02	388.53
588.18	369.80
588.34	437.68
588.49	493.85
588.65	498.53
588.81	388.53
588.97	355.76
589.13	393.21
589.29	444.70
589.45	367.46
589.61	442.36
589.77	444.70
589.93	393.21
590.08	390.87
590.24	348.74
590.40	437.68
590.56	463.43
590.72	397.89
590.88	407.25
591.04	369.80
591.20	355.76
591.35	425.98
591.51	397.89
591.67	374.49
591.83	423.64
591.99	447.04
592.15	435.34
592.31	367.46
592.46	449.38
592.62	379.17
592.78	353.42
592.94	376.83
593.10	454.06
593.26	390.87
593.41	486.83
593.57	388.53
593.73	444.70
593.89	407.25
594.05	346.40
594.20	404.91
594.36	400.23
594.52	430.66
594.68	397.89
594.84	507.90
594.99	482.15
595.15	470.45
595.31	411.93
595.47	421.30
595.62	454.06
595.78	397.89
595.94	355.76
596.10	512.58
596.25	463.43
596.41	463.43
596.57	379.17
596.73	369.80
596.88	390.87
597.04	393.21
597.20	365.12
597.36	463.43
597.51	425.98
597.67	390.87
597.83	463.43
597.99	397.89
598.14	444.70
598.30	428.32
598.46	383.85
598.61	393.21
598.77	390.87
598.93	397.89
599.09	465.77
599.24	416.62
599.40	379.17
599.56	409.59
599.71	379.17
599.87	423.64
600.03	444.70
600.18	393.21
600.34	433.00
600.50	390.87
600.65	339.38
600.81	498.53
600.97	470.45
601.12	407.25
601.28	428.32
601.44	409.59
601.59	411.93
601.75	477.47
601.91	400.23
602.06	411.93
602.22	411.93
602.37	463.43
602.53	390.87
602.69	454.06
602.84	435.34
603.00	393.21
603.16	416.62
603.31	421.30
603.47	470.45
603.62	388.53
603.78	449.38
603.94	507.90
604.09	423.64
604.25	421.30
604.40	421.30
604.56	348.74
604.71	381.51
604.87	322.99
605.03	397.89
605.18	400.23
605.34	425.98
605.49	409.59
605.65	425.98
605.80	447.04
605.96	383.85
606.12	418.96
606.27	416.62
606.43	386.19
606.58	451.72
606.74	463.43
606.89	381.51
607.05	437.68
607.20	477.47
607.36	362.78
607.51	425.98
607.67	437.68
607.82	411.93
607.98	365.12
608.13	433.00
608.29	425.98
608.44	418.96
608.60	393.21
608.75	402.57
608.91	423.64
609.06	451.72
609.22	454.06
609.37	355.76
609.53	337.04
609.68	425.98
609.84	390.87
609.99	400.23
610.15	440.02
