SpectraSuite Data File
++++++++++++++++++++++++++++++++++++
Date: Fri Oct 25 12:10:09 EDT 2013
User: price-jones
Dark Spectrum Present: No
Reference Spectrum Present: No
Number of Sampled Component Spectra: 1
Spectrometers: USB2+H05261
Integration Time (usec): 100000 (USB2+H05261)
Spectra Averaged: 1 (USB2+H05261)
Boxcar Smoothing: 0 (USB2+H05261)
Correct for Electrical Dark: No (USB2+H05261)
Strobe/Lamp Enabled: No (USB2+H05261)
Correct for Detector Non-linearity: No (USB2+H05261)
Correct for Stray Light: No (USB2+H05261)
Number of Pixels in Processed Spectrum: 2048
>>>>>Begin Processed Spectral Data<<<<<
365.73	308.95
365.92	308.95
366.12	308.95
366.32	262.14
366.52	208.31
366.72	266.82
366.91	229.37
367.11	220.01
367.31	259.80
367.51	294.91
367.70	229.37
367.90	215.33
368.10	273.84
368.30	266.82
368.49	224.69
368.69	266.82
368.89	269.16
369.09	278.52
369.28	248.10
369.48	301.93
369.68	259.80
369.87	255.12
370.07	320.65
370.27	294.91
370.47	400.23
370.66	327.68
370.86	393.21
371.06	337.04
371.25	346.40
371.45	362.78
371.65	374.49
371.84	318.31
372.04	409.59
372.24	416.62
372.44	533.64
372.63	341.72
372.83	346.40
373.03	433.00
373.22	390.87
373.42	411.93
373.62	498.53
373.81	433.00
374.01	458.74
374.21	482.15
374.40	440.02
374.60	418.96
374.79	440.02
374.99	397.89
375.19	416.62
375.38	449.38
375.58	477.47
375.78	367.46
375.97	486.83
376.17	425.98
376.37	404.91
376.56	477.47
376.76	383.85
376.95	447.04
377.15	486.83
377.35	388.53
377.54	372.15
377.74	440.02
377.93	416.62
378.13	397.89
378.33	383.85
378.52	367.46
378.72	381.51
378.91	404.91
379.11	400.23
379.31	381.51
379.50	444.70
379.70	442.36
379.89	451.72
380.09	383.85
380.28	388.53
380.48	447.04
380.68	379.17
380.87	407.25
381.07	369.80
381.26	435.34
381.46	451.72
381.65	395.55
381.85	369.80
382.04	334.70
382.24	376.83
382.43	393.21
382.63	500.87
382.83	402.57
383.02	388.53
383.22	407.25
383.41	360.44
383.61	379.17
383.80	421.30
384.00	360.44
384.19	376.83
384.39	416.62
384.58	482.15
384.78	472.79
384.97	379.17
385.17	362.78
385.36	425.98
385.56	451.72
385.75	383.85
385.95	372.15
386.14	430.66
386.34	393.21
386.53	404.91
386.72	456.40
386.92	463.43
387.11	433.00
387.31	428.32
387.50	400.23
387.70	423.64
387.89	393.21
388.09	379.17
388.28	444.70
388.48	358.10
388.67	348.74
388.86	435.34
389.06	381.51
389.25	400.23
389.45	437.68
389.64	418.96
389.84	362.78
390.03	437.68
390.22	414.27
390.42	407.25
390.61	367.46
390.81	369.80
391.00	440.02
391.19	456.40
391.39	346.40
391.58	390.87
391.78	404.91
391.97	442.36
392.16	393.21
392.36	451.72
392.55	423.64
392.75	383.85
392.94	411.93
393.13	423.64
393.33	454.06
393.52	433.00
393.71	433.00
393.91	409.59
394.10	395.55
394.29	409.59
394.49	449.38
394.68	428.32
394.88	428.32
395.07	540.66
395.26	440.02
395.46	409.59
395.65	404.91
395.84	468.11
396.04	444.70
396.23	344.06
396.42	444.70
396.62	381.51
396.81	458.74
397.00	533.64
397.19	463.43
397.39	461.09
397.58	440.02
397.77	430.66
397.97	341.72
398.16	365.12
398.35	381.51
398.55	404.91
398.74	465.77
398.93	428.32
399.12	330.02
399.32	433.00
399.51	355.76
399.70	393.21
399.90	423.64
400.09	367.46
400.28	430.66
400.47	390.87
400.67	358.10
400.86	360.44
401.05	456.40
401.24	444.70
401.44	442.36
401.63	447.04
401.82	383.85
402.01	360.44
402.21	383.85
402.40	433.00
402.59	374.49
402.78	388.53
402.97	388.53
403.17	440.02
403.36	397.89
403.55	393.21
403.74	388.53
403.93	369.80
404.13	418.96
404.32	414.27
404.51	430.66
404.70	346.40
404.89	407.25
405.09	470.45
405.28	397.89
405.47	430.66
405.66	433.00
405.85	400.23
406.05	421.30
406.24	395.55
406.43	390.87
406.62	491.51
406.81	423.64
407.00	402.57
407.20	465.77
407.39	440.02
407.58	376.83
407.77	449.38
407.96	379.17
408.15	428.32
408.34	379.17
408.54	561.73
408.73	440.02
408.92	369.80
409.11	393.21
409.30	433.00
409.49	461.09
409.68	393.21
409.87	407.25
410.07	433.00
410.26	449.38
410.45	418.96
410.64	407.25
410.83	381.51
411.02	395.55
411.21	409.59
411.40	390.87
411.59	411.93
411.78	355.76
411.98	414.27
412.17	322.99
412.36	416.62
412.55	458.74
412.74	381.51
412.93	472.79
413.12	428.32
413.31	482.15
413.50	318.31
413.69	437.68
413.88	397.89
414.07	416.62
414.26	393.21
414.45	379.17
414.64	430.66
414.83	358.10
415.02	428.32
415.22	414.27
415.41	383.85
415.60	421.30
415.79	397.89
415.98	414.27
416.17	430.66
416.36	454.06
416.55	381.51
416.74	409.59
416.93	463.43
417.12	407.25
417.31	409.59
417.50	365.12
417.69	381.51
417.88	407.25
418.07	404.91
418.26	449.38
418.45	411.93
418.64	397.89
418.83	369.80
419.02	351.08
419.21	416.62
419.39	407.25
419.58	409.59
419.77	435.34
419.96	355.76
420.15	425.98
420.34	461.09
420.53	386.19
420.72	393.21
420.91	479.81
421.10	365.12
421.29	418.96
421.48	404.91
421.67	468.11
421.86	393.21
422.05	404.91
422.24	451.72
422.43	367.46
422.61	393.21
422.80	351.08
422.99	425.98
423.18	404.91
423.37	433.00
423.56	404.91
423.75	414.27
423.94	351.08
424.13	470.45
424.32	367.46
424.50	407.25
424.69	458.74
424.88	411.93
425.07	463.43
425.26	477.47
425.45	470.45
425.64	402.57
425.83	409.59
426.01	442.36
426.20	425.98
426.39	376.83
426.58	367.46
426.77	397.89
426.96	503.22
427.15	444.70
427.33	404.91
427.52	430.66
427.71	407.25
427.90	475.13
428.09	425.98
428.28	407.25
428.46	411.93
428.65	374.49
428.84	416.62
429.03	447.04
429.22	447.04
429.40	397.89
429.59	407.25
429.78	428.32
429.97	416.62
430.16	442.36
430.34	461.09
430.53	404.91
430.72	381.51
430.91	416.62
431.10	449.38
431.28	416.62
431.47	486.83
431.66	416.62
431.85	421.30
432.03	458.74
432.22	468.11
432.41	386.19
432.60	411.93
432.79	374.49
432.97	367.46
433.16	433.00
433.35	421.30
433.54	397.89
433.72	428.32
433.91	416.62
434.10	402.57
434.28	383.85
434.47	407.25
434.66	421.30
434.85	465.77
435.03	376.83
435.22	416.62
435.41	390.87
435.59	381.51
435.78	381.51
435.97	320.65
436.16	477.47
436.34	372.15
436.53	430.66
436.72	409.59
436.90	421.30
437.09	482.15
437.28	461.09
437.46	325.33
437.65	372.15
437.84	393.21
438.02	416.62
438.21	463.43
438.40	423.64
438.58	304.27
438.77	407.25
438.96	409.59
439.14	372.15
439.33	475.13
439.52	372.15
439.70	400.23
439.89	376.83
440.08	414.27
440.26	400.23
440.45	411.93
440.63	351.08
440.82	470.45
441.01	414.27
441.19	430.66
441.38	505.56
441.57	430.66
441.75	435.34
441.94	468.11
442.12	475.13
442.31	390.87
442.50	411.93
442.68	397.89
442.87	421.30
443.05	402.57
443.24	437.68
443.43	379.17
443.61	428.32
443.80	421.30
443.98	355.76
444.17	430.66
444.35	379.17
444.54	416.62
444.73	358.10
444.91	404.91
445.10	381.51
445.28	449.38
445.47	425.98
445.65	402.57
445.84	372.15
446.02	360.44
446.21	395.55
446.39	458.74
446.58	414.27
446.77	388.53
446.95	444.70
447.14	472.79
447.32	433.00
447.51	437.68
447.69	376.83
447.88	428.32
448.06	414.27
448.25	402.57
448.43	442.36
448.62	411.93
448.80	458.74
448.99	423.64
449.17	365.12
449.36	386.19
449.54	400.23
449.73	458.74
449.91	435.34
450.10	355.76
450.28	372.15
450.46	418.96
450.65	376.83
450.83	475.13
451.02	395.55
451.20	425.98
451.39	479.81
451.57	475.13
451.76	416.62
451.94	404.91
452.13	425.98
452.31	521.94
452.49	428.32
452.68	388.53
452.86	358.10
453.05	451.72
453.23	493.85
453.42	381.51
453.60	423.64
453.78	383.85
453.97	409.59
454.15	379.17
454.34	360.44
454.52	414.27
454.70	479.81
454.89	435.34
455.07	346.40
455.26	395.55
455.44	444.70
455.62	465.77
455.81	421.30
455.99	388.53
456.17	519.60
456.36	449.38
456.54	388.53
456.73	435.34
456.91	390.87
457.09	451.72
457.28	397.89
457.46	404.91
457.64	404.91
457.83	421.30
458.01	407.25
458.19	386.19
458.38	451.72
458.56	449.38
458.74	397.89
458.93	381.51
459.11	351.08
459.29	400.23
459.48	465.77
459.66	491.51
459.84	433.00
460.03	482.15
460.21	500.87
460.39	465.77
460.57	390.87
460.76	496.19
460.94	393.21
461.12	435.34
461.31	442.36
461.49	360.44
461.67	372.15
461.85	325.33
462.04	402.57
462.22	770.04
462.40	423.64
462.59	402.57
462.77	479.81
462.95	402.57
463.13	484.49
463.32	465.77
463.50	430.66
463.68	489.17
463.86	477.47
464.05	393.21
464.23	388.53
464.41	397.89
464.59	390.87
464.78	374.49
464.96	390.87
465.14	369.80
465.32	458.74
465.50	381.51
465.69	435.34
465.87	449.38
466.05	454.06
466.23	414.27
466.41	411.93
466.60	421.30
466.78	442.36
466.96	414.27
467.14	330.02
467.32	477.47
467.51	379.17
467.69	451.72
467.87	444.70
468.05	430.66
468.23	482.15
468.41	416.62
468.60	416.62
468.78	425.98
468.96	468.11
469.14	456.40
469.32	360.44
469.50	444.70
469.69	440.02
469.87	479.81
470.05	362.78
470.23	414.27
470.41	407.25
470.59	416.62
470.77	379.17
470.95	440.02
471.14	411.93
471.32	402.57
471.50	482.15
471.68	447.04
471.86	418.96
472.04	409.59
472.22	362.78
472.40	367.46
472.58	433.00
472.77	425.98
472.95	400.23
473.13	503.22
473.31	425.98
473.49	428.32
473.67	425.98
473.85	477.47
474.03	423.64
474.21	482.15
474.39	421.30
474.57	400.23
474.75	433.00
474.93	409.59
475.12	461.09
475.30	341.72
475.48	383.85
475.66	393.21
475.84	433.00
476.02	407.25
476.20	484.49
476.38	444.70
476.56	433.00
476.74	390.87
476.92	402.57
477.10	400.23
477.28	433.00
477.46	444.70
477.64	421.30
477.82	397.89
478.00	416.62
478.18	451.72
478.36	437.68
478.54	404.91
478.72	365.12
478.90	395.55
479.08	393.21
479.26	468.11
479.44	369.80
479.62	409.59
479.80	454.06
479.98	362.78
480.16	353.42
480.34	416.62
480.52	367.46
480.70	451.72
480.88	383.85
481.06	346.40
481.24	418.96
481.41	463.43
481.59	402.57
481.77	451.72
481.95	393.21
482.13	475.13
482.31	444.70
482.49	400.23
482.67	376.83
482.85	386.19
483.03	369.80
483.21	341.72
483.39	416.62
483.57	388.53
483.74	463.43
483.92	308.95
484.10	454.06
484.28	433.00
484.46	437.68
484.64	407.25
484.82	430.66
485.00	395.55
485.18	397.89
485.35	400.23
485.53	393.21
485.71	435.34
485.89	369.80
486.07	376.83
486.25	402.57
486.43	411.93
486.61	416.62
486.78	428.32
486.96	416.62
487.14	409.59
487.32	416.62
487.50	421.30
487.68	447.04
487.85	365.12
488.03	428.32
488.21	423.64
488.39	449.38
488.57	430.66
488.75	393.21
488.92	517.26
489.10	461.09
489.28	435.34
489.46	414.27
489.64	454.06
489.81	404.91
489.99	442.36
490.17	365.12
490.35	465.77
490.53	395.55
490.70	341.72
490.88	461.09
491.06	463.43
491.24	433.00
491.41	449.38
491.59	369.80
491.77	390.87
491.95	372.15
492.13	390.87
492.30	395.55
492.48	421.30
492.66	348.74
492.84	390.87
493.01	454.06
493.19	386.19
493.37	505.56
493.54	386.19
493.72	369.80
493.90	402.57
494.08	372.15
494.25	414.27
494.43	456.40
494.61	381.51
494.79	397.89
494.96	421.30
495.14	393.21
495.32	388.53
495.49	362.78
495.67	475.13
495.85	358.10
496.02	374.49
496.20	358.10
496.38	477.47
496.55	388.53
496.73	468.11
496.91	435.34
497.09	423.64
497.26	411.93
497.44	388.53
497.62	465.77
497.79	486.83
497.97	433.00
498.14	414.27
498.32	400.23
498.50	358.10
498.67	449.38
498.85	383.85
499.03	388.53
499.20	423.64
499.38	395.55
499.56	456.40
499.73	454.06
499.91	458.74
500.08	400.23
500.26	339.38
500.44	442.36
500.61	411.93
500.79	386.19
500.97	435.34
501.14	479.81
501.32	416.62
501.49	451.72
501.67	416.62
501.84	367.46
502.02	404.91
502.20	400.23
502.37	475.13
502.55	337.04
502.72	393.21
502.90	372.15
503.07	425.98
503.25	379.17
503.43	353.42
503.60	414.27
503.78	353.42
503.95	386.19
504.13	397.89
504.30	433.00
504.48	418.96
504.65	372.15
504.83	372.15
505.01	400.23
505.18	451.72
505.36	367.46
505.53	468.11
505.71	465.77
505.88	390.87
506.06	407.25
506.23	381.51
506.41	449.38
506.58	402.57
506.76	437.68
506.93	320.65
507.11	500.87
507.28	449.38
507.46	482.15
507.63	376.83
507.81	376.83
507.98	425.98
508.16	425.98
508.33	423.64
508.50	449.38
508.68	372.15
508.85	386.19
509.03	465.77
509.20	442.36
509.38	411.93
509.55	435.34
509.73	435.34
509.90	409.59
510.08	346.40
510.25	430.66
510.42	477.47
510.60	447.04
510.77	383.85
510.95	479.81
511.12	397.89
511.30	454.06
511.47	418.96
511.64	442.36
511.82	365.12
511.99	339.38
512.17	365.12
512.34	421.30
512.51	365.12
512.69	421.30
512.86	440.02
513.04	449.38
513.21	404.91
513.38	416.62
513.56	367.46
513.73	402.57
513.90	411.93
514.08	416.62
514.25	451.72
514.43	433.00
514.60	433.00
514.77	402.57
514.95	484.49
515.12	386.19
515.29	425.98
515.47	421.30
515.64	458.74
515.81	454.06
515.99	421.30
516.16	465.77
516.33	454.06
516.51	372.15
516.68	428.32
516.85	386.19
517.03	416.62
517.20	404.91
517.37	430.66
517.54	510.24
517.72	404.91
517.89	379.17
518.06	418.96
518.24	458.74
518.41	411.93
518.58	397.89
518.75	433.00
518.93	428.32
519.10	393.21
519.27	407.25
519.45	440.02
519.62	393.21
519.79	435.34
519.96	325.33
520.14	407.25
520.31	428.32
520.48	397.89
520.65	393.21
520.83	461.09
521.00	442.36
521.17	404.91
521.34	425.98
521.52	468.11
521.69	402.57
521.86	393.21
522.03	425.98
522.20	447.04
522.38	372.15
522.55	440.02
522.72	395.55
522.89	430.66
523.07	425.98
523.24	423.64
523.41	470.45
523.58	327.68
523.75	402.57
523.92	411.93
524.10	416.62
524.27	379.17
524.44	404.91
524.61	376.83
524.78	393.21
524.96	409.59
525.13	348.74
525.30	416.62
525.47	402.57
525.64	433.00
525.81	425.98
525.98	379.17
526.16	444.70
526.33	393.21
526.50	498.53
526.67	418.96
526.84	393.21
527.01	374.49
527.18	367.46
527.36	404.91
527.53	388.53
527.70	421.30
527.87	435.34
528.04	414.27
528.21	407.25
528.38	447.04
528.55	461.09
528.72	456.40
528.89	421.30
529.07	372.15
529.24	374.49
529.41	477.47
529.58	423.64
529.75	379.17
529.92	421.30
530.09	376.83
530.26	407.25
530.43	379.17
530.60	369.80
530.77	393.21
530.94	458.74
531.11	411.93
531.28	390.87
531.46	393.21
531.63	400.23
531.80	458.74
531.97	409.59
532.14	390.87
532.31	435.34
532.48	395.55
532.65	449.38
532.82	470.45
532.99	447.04
533.16	440.02
533.33	393.21
533.50	362.78
533.67	407.25
533.84	540.66
534.01	440.02
534.18	465.77
534.35	397.89
534.52	430.66
534.69	486.83
534.86	362.78
535.03	390.87
535.20	433.00
535.37	449.38
535.54	451.72
535.71	409.59
535.88	458.74
536.05	451.72
536.22	442.36
536.38	381.51
536.55	376.83
536.72	505.56
536.89	332.36
537.06	379.17
537.23	404.91
537.40	358.10
537.57	397.89
537.74	402.57
537.91	449.38
538.08	390.87
538.25	440.02
538.42	379.17
538.59	409.59
538.75	381.51
538.92	388.53
539.09	428.32
539.26	430.66
539.43	400.23
539.60	526.62
539.77	433.00
539.94	397.89
540.11	409.59
540.28	414.27
540.44	454.06
540.61	411.93
540.78	433.00
540.95	430.66
541.12	451.72
541.29	407.25
541.46	451.72
541.62	421.30
541.79	458.74
541.96	390.87
542.13	374.49
542.30	454.06
542.47	390.87
542.63	418.96
542.80	463.43
542.97	461.09
543.14	365.12
543.31	454.06
543.48	472.79
543.64	381.51
543.81	430.66
543.98	404.91
544.15	404.91
544.32	381.51
544.48	447.04
544.65	397.89
544.82	454.06
544.99	451.72
545.16	400.23
545.32	400.23
545.49	433.00
545.66	416.62
545.83	383.85
546.00	447.04
546.16	414.27
546.33	409.59
546.50	421.30
546.67	404.91
546.83	404.91
547.00	374.49
547.17	440.02
547.34	397.89
547.50	388.53
547.67	386.19
547.84	458.74
548.00	395.55
548.17	451.72
548.34	409.59
548.51	397.89
548.67	465.77
548.84	388.53
549.01	437.68
549.18	491.51
549.34	444.70
549.51	416.62
549.68	468.11
549.84	447.04
550.01	416.62
550.18	451.72
550.34	463.43
550.51	428.32
550.68	451.72
550.84	468.11
551.01	395.55
551.18	440.02
551.34	404.91
551.51	393.21
551.68	315.97
551.84	489.17
552.01	383.85
552.18	454.06
552.34	402.57
552.51	381.51
552.68	442.36
552.84	411.93
553.01	461.09
553.18	451.72
553.34	447.04
553.51	423.64
553.67	362.78
553.84	512.58
554.01	407.25
554.17	442.36
554.34	409.59
554.51	383.85
554.67	503.22
554.84	503.22
555.00	400.23
555.17	425.98
555.33	379.17
555.50	411.93
555.67	348.74
555.83	409.59
556.00	500.87
556.16	517.26
556.33	411.93
556.50	400.23
556.66	341.72
556.83	360.44
556.99	383.85
557.16	402.57
557.32	374.49
557.49	421.30
557.65	433.00
557.82	411.93
557.98	379.17
558.15	404.91
558.32	409.59
558.48	449.38
558.65	381.51
558.81	458.74
558.98	425.98
559.14	388.53
559.31	414.27
559.47	507.90
559.64	404.91
559.80	402.57
559.97	437.68
560.13	397.89
560.30	456.40
560.46	393.21
560.63	400.23
560.79	355.76
560.96	409.59
561.12	461.09
561.29	451.72
561.45	461.09
561.61	440.02
561.78	498.53
561.94	400.23
562.11	397.89
562.27	390.87
562.44	458.74
562.60	355.76
562.77	449.38
562.93	535.98
563.10	390.87
563.26	493.85
563.42	409.59
563.59	428.32
563.75	353.42
563.92	493.85
564.08	404.91
564.24	475.13
564.41	491.51
564.57	425.98
564.74	486.83
564.90	423.64
565.07	395.55
565.23	449.38
565.39	386.19
565.56	433.00
565.72	407.25
565.88	489.17
566.05	348.74
566.21	407.25
566.38	425.98
566.54	421.30
566.70	470.45
566.87	388.53
567.03	496.19
567.19	381.51
567.36	470.45
567.52	386.19
567.68	435.34
567.85	393.21
568.01	402.57
568.17	383.85
568.34	437.68
568.50	411.93
568.66	386.19
568.83	461.09
568.99	383.85
569.15	409.59
569.32	409.59
569.48	440.02
569.64	386.19
569.81	360.44
569.97	433.00
570.13	393.21
570.30	390.87
570.46	365.12
570.62	418.96
570.78	390.87
570.95	372.15
571.11	433.00
571.27	440.02
571.43	400.23
571.60	395.55
571.76	456.40
571.92	418.96
572.09	397.89
572.25	437.68
572.41	404.91
572.57	411.93
572.74	418.96
572.90	402.57
573.06	421.30
573.22	409.59
573.38	393.21
573.55	421.30
573.71	440.02
573.87	425.98
574.03	411.93
574.20	362.78
574.36	421.30
574.52	449.38
574.68	402.57
574.84	475.13
575.01	341.72
575.17	400.23
575.33	418.96
575.49	489.17
575.65	400.23
575.82	472.79
575.98	402.57
576.14	440.02
576.30	369.80
576.46	395.55
576.62	440.02
576.79	519.60
576.95	491.51
577.11	430.66
577.27	388.53
577.43	365.12
577.59	440.02
577.75	407.25
577.92	444.70
578.08	404.91
578.24	421.30
578.40	402.57
578.56	442.36
578.72	447.04
578.88	397.89
579.04	423.64
579.21	470.45
579.37	442.36
579.53	451.72
579.69	404.91
579.85	423.64
580.01	395.55
580.17	372.15
580.33	367.46
580.49	449.38
580.65	388.53
580.82	397.89
580.98	428.32
581.14	376.83
581.30	397.89
581.46	470.45
581.62	369.80
581.78	484.49
581.94	458.74
582.10	475.13
582.26	404.91
582.42	369.80
582.58	397.89
582.74	395.55
582.90	418.96
583.06	449.38
583.22	430.66
583.38	400.23
583.54	386.19
583.70	411.93
583.86	386.19
584.02	425.98
584.18	451.72
584.34	337.04
584.50	470.45
584.66	411.93
584.82	376.83
584.98	437.68
585.14	379.17
585.30	407.25
585.46	407.25
585.62	395.55
585.78	379.17
585.94	425.98
586.10	404.91
586.26	458.74
586.42	416.62
586.58	479.81
586.74	376.83
586.90	393.21
587.06	402.57
587.22	430.66
587.38	437.68
587.54	400.23
587.70	433.00
587.86	482.15
588.02	496.19
588.18	456.40
588.34	491.51
588.49	383.85
588.65	449.38
588.81	437.68
588.97	428.32
589.13	475.13
589.29	386.19
589.45	500.87
589.61	393.21
589.77	421.30
589.93	402.57
590.08	381.51
590.24	428.32
590.40	421.30
590.56	423.64
590.72	416.62
590.88	428.32
591.04	428.32
591.20	461.09
591.35	456.40
591.51	393.21
591.67	400.23
591.83	454.06
591.99	461.09
592.15	395.55
592.31	416.62
592.46	411.93
592.62	447.04
592.78	388.53
592.94	437.68
593.10	395.55
593.26	393.21
593.41	425.98
593.57	514.92
593.73	407.25
593.89	388.53
594.05	416.62
594.20	409.59
594.36	367.46
594.52	402.57
594.68	463.43
594.84	505.56
594.99	447.04
595.15	440.02
595.31	435.34
595.47	470.45
595.62	402.57
595.78	463.43
595.94	491.51
596.10	435.34
596.25	456.40
596.41	425.98
596.57	404.91
596.73	425.98
596.88	390.87
597.04	477.47
597.20	435.34
597.36	330.02
597.51	381.51
597.67	454.06
597.83	463.43
597.99	433.00
598.14	404.91
598.30	430.66
598.46	440.02
598.61	465.77
598.77	463.43
598.93	491.51
599.09	402.57
599.24	449.38
599.40	477.47
599.56	451.72
599.71	430.66
599.87	404.91
600.03	454.06
600.18	435.34
600.34	440.02
600.50	435.34
600.65	402.57
600.81	388.53
600.97	442.36
601.12	423.64
601.28	451.72
601.44	425.98
601.59	395.55
601.75	477.47
601.91	353.42
602.06	332.36
602.22	423.64
602.37	447.04
602.53	416.62
602.69	442.36
602.84	444.70
603.00	344.06
603.16	451.72
603.31	454.06
603.47	425.98
603.62	458.74
603.78	482.15
603.94	442.36
604.09	418.96
604.25	430.66
604.40	465.77
604.56	421.30
604.71	402.57
604.87	442.36
605.03	339.38
605.18	421.30
605.34	416.62
605.49	451.72
605.65	322.99
605.80	416.62
605.96	498.53
606.12	472.79
606.27	458.74
606.43	423.64
606.58	458.74
606.74	430.66
606.89	404.91
607.05	386.19
607.20	428.32
607.36	440.02
607.51	348.74
607.67	404.91
607.82	444.70
607.98	437.68
608.13	416.62
608.29	454.06
608.44	475.13
608.60	404.91
608.75	404.91
608.91	472.79
609.06	496.19
609.22	454.06
609.37	388.53
609.53	435.34
609.68	358.10
609.84	451.72
609.99	348.74
610.15	395.55
