SpectraSuite Data File
++++++++++++++++++++++++++++++++++++
Date: Fri Oct 25 12:10:55 EDT 2013
User: price-jones
Dark Spectrum Present: No
Reference Spectrum Present: No
Number of Sampled Component Spectra: 1
Spectrometers: USB2+H05261
Integration Time (usec): 100000 (USB2+H05261)
Spectra Averaged: 1 (USB2+H05261)
Boxcar Smoothing: 0 (USB2+H05261)
Correct for Electrical Dark: No (USB2+H05261)
Strobe/Lamp Enabled: No (USB2+H05261)
Correct for Detector Non-linearity: No (USB2+H05261)
Correct for Stray Light: No (USB2+H05261)
Number of Pixels in Processed Spectrum: 2048
>>>>>Begin Processed Spectral Data<<<<<
365.73	341.72
365.92	341.72
366.12	341.72
366.32	311.29
366.52	245.76
366.72	271.50
366.91	351.08
367.11	243.42
367.31	191.92
367.51	215.33
367.70	259.80
367.90	278.52
368.10	248.10
368.30	238.73
368.49	236.39
368.69	217.67
368.89	236.39
369.09	208.31
369.28	238.73
369.48	283.20
369.68	271.50
369.87	351.08
370.07	273.84
370.27	299.59
370.47	318.31
370.66	320.65
370.86	351.08
371.06	351.08
371.25	304.27
371.45	388.53
371.65	428.32
371.84	379.17
372.04	376.83
372.24	381.51
372.44	454.06
372.63	468.11
372.83	341.72
373.03	407.25
373.22	447.04
373.42	475.13
373.62	456.40
373.81	425.98
374.01	484.49
374.21	507.90
374.40	437.68
374.60	423.64
374.79	428.32
374.99	386.19
375.19	416.62
375.38	442.36
375.58	440.02
375.78	423.64
375.97	489.17
376.17	486.83
376.37	402.57
376.56	440.02
376.76	318.31
376.95	428.32
377.15	451.72
377.35	418.96
377.54	397.89
377.74	416.62
377.93	454.06
378.13	402.57
378.33	416.62
378.52	386.19
378.72	409.59
378.91	430.66
379.11	404.91
379.31	365.12
379.50	386.19
379.70	425.98
379.89	402.57
380.09	400.23
380.28	421.30
380.48	332.36
380.68	416.62
380.87	325.33
381.07	402.57
381.26	428.32
381.46	339.38
381.65	362.78
381.85	383.85
382.04	418.96
382.24	433.00
382.43	442.36
382.63	428.32
382.83	475.13
383.02	313.63
383.22	381.51
383.41	362.78
383.61	409.59
383.80	414.27
384.00	409.59
384.19	369.80
384.39	423.64
384.58	437.68
384.78	407.25
384.97	358.10
385.17	435.34
385.36	367.46
385.56	372.15
385.75	400.23
385.95	390.87
386.14	381.51
386.34	407.25
386.53	407.25
386.72	355.76
386.92	437.68
387.11	421.30
387.31	400.23
387.50	395.55
387.70	390.87
387.89	400.23
388.09	360.44
388.28	388.53
388.48	372.15
388.67	383.85
388.86	353.42
389.06	416.62
389.25	505.56
389.45	425.98
389.64	379.17
389.84	458.74
390.03	353.42
390.22	430.66
390.42	400.23
390.61	395.55
390.81	383.85
391.00	376.83
391.19	463.43
391.39	404.91
391.58	360.44
391.78	414.27
391.97	416.62
392.16	381.51
392.36	496.19
392.55	374.49
392.75	404.91
392.94	461.09
393.13	472.79
393.33	397.89
393.52	369.80
393.71	395.55
393.91	423.64
394.10	376.83
394.29	320.65
394.49	414.27
394.68	423.64
394.88	442.36
395.07	351.08
395.26	423.64
395.46	374.49
395.65	400.23
395.84	348.74
396.04	454.06
396.23	416.62
396.42	327.68
396.62	402.57
396.81	411.93
397.00	421.30
397.19	390.87
397.39	430.66
397.58	512.58
397.77	421.30
397.97	404.91
398.16	458.74
398.35	461.09
398.55	404.91
398.74	435.34
398.93	428.32
399.12	442.36
399.32	461.09
399.51	393.21
399.70	374.49
399.90	444.70
400.09	461.09
400.28	444.70
400.47	411.93
400.67	428.32
400.86	362.78
401.05	463.43
401.24	409.59
401.44	407.25
401.63	430.66
401.82	367.46
402.01	442.36
402.21	411.93
402.40	393.21
402.59	416.62
402.78	383.85
402.97	428.32
403.17	383.85
403.36	414.27
403.55	423.64
403.74	402.57
403.93	365.12
404.13	435.34
404.32	402.57
404.51	475.13
404.70	423.64
404.89	369.80
405.09	435.34
405.28	400.23
405.47	433.00
405.66	496.19
405.85	444.70
406.05	395.55
406.24	348.74
406.43	404.91
406.62	454.06
406.81	472.79
407.00	402.57
407.20	447.04
407.39	414.27
407.58	456.40
407.77	435.34
407.96	435.34
408.15	369.80
408.34	400.23
408.54	379.17
408.73	376.83
408.92	414.27
409.11	386.19
409.30	423.64
409.49	423.64
409.68	428.32
409.87	325.33
410.07	425.98
410.26	325.33
410.45	381.51
410.64	411.93
410.83	451.72
411.02	402.57
411.21	458.74
411.40	414.27
411.59	402.57
411.78	454.06
411.98	465.77
412.17	449.38
412.36	393.21
412.55	393.21
412.74	379.17
412.93	470.45
413.12	386.19
413.31	454.06
413.50	386.19
413.69	386.19
413.88	418.96
414.07	397.89
414.26	383.85
414.45	383.85
414.64	468.11
414.83	423.64
415.02	514.92
415.22	423.64
415.41	372.15
415.60	416.62
415.79	430.66
415.98	337.04
416.17	437.68
416.36	404.91
416.55	407.25
416.74	376.83
416.93	421.30
417.12	404.91
417.31	386.19
417.50	458.74
417.69	433.00
417.88	351.08
418.07	425.98
418.26	402.57
418.45	367.46
418.64	416.62
418.83	442.36
419.02	358.10
419.21	400.23
419.39	521.94
419.58	362.78
419.77	421.30
419.96	393.21
420.15	423.64
420.34	383.85
420.53	470.45
420.72	367.46
420.91	440.02
421.10	290.23
421.29	376.83
421.48	421.30
421.67	383.85
421.86	461.09
422.05	433.00
422.24	376.83
422.43	381.51
422.61	447.04
422.80	351.08
422.99	418.96
423.18	425.98
423.37	416.62
423.56	440.02
423.75	397.89
423.94	425.98
424.13	416.62
424.32	444.70
424.50	477.47
424.69	458.74
424.88	447.04
425.07	376.83
425.26	433.00
425.45	404.91
425.64	465.77
425.83	484.49
426.01	475.13
426.20	379.17
426.39	358.10
426.58	437.68
426.77	409.59
426.96	461.09
427.15	407.25
427.33	435.34
427.52	484.49
427.71	411.93
427.90	416.62
428.09	409.59
428.28	400.23
428.46	376.83
428.65	404.91
428.84	395.55
429.03	369.80
429.22	423.64
429.40	416.62
429.59	430.66
429.78	470.45
429.97	489.17
430.16	381.51
430.34	390.87
430.53	435.34
430.72	362.78
430.91	365.12
431.10	379.17
431.28	411.93
431.47	461.09
431.66	404.91
431.85	388.53
432.03	440.02
432.22	430.66
432.41	472.79
432.60	418.96
432.79	322.99
432.97	367.46
433.16	388.53
433.35	360.44
433.54	440.02
433.72	421.30
433.91	505.56
434.10	402.57
434.28	451.72
434.47	418.96
434.66	423.64
434.85	444.70
435.03	358.10
435.22	353.42
435.41	404.91
435.59	369.80
435.78	402.57
435.97	449.38
436.16	435.34
436.34	402.57
436.53	379.17
436.72	390.87
436.90	407.25
437.09	433.00
437.28	465.77
437.46	395.55
437.65	463.43
437.84	409.59
438.02	381.51
438.21	425.98
438.40	440.02
438.58	414.27
438.77	379.17
438.96	388.53
439.14	369.80
439.33	369.80
439.52	433.00
439.70	369.80
439.89	346.40
440.08	386.19
440.26	407.25
440.45	337.04
440.63	374.49
440.82	449.38
441.01	332.36
441.19	381.51
441.38	397.89
441.57	379.17
441.75	411.93
441.94	498.53
442.12	393.21
442.31	435.34
442.50	411.93
442.68	428.32
442.87	397.89
443.05	437.68
443.24	418.96
443.43	315.97
443.61	411.93
443.80	416.62
443.98	444.70
444.17	423.64
444.35	374.49
444.54	472.79
444.73	440.02
444.91	407.25
445.10	477.47
445.28	435.34
445.47	372.15
445.65	388.53
445.84	498.53
446.02	395.55
446.21	475.13
446.39	447.04
446.58	400.23
446.77	374.49
446.95	397.89
447.14	430.66
447.32	428.32
447.51	451.72
447.69	337.04
447.88	463.43
448.06	369.80
448.25	449.38
448.43	390.87
448.62	376.83
448.80	362.78
448.99	355.76
449.17	320.65
449.36	386.19
449.54	407.25
449.73	444.70
449.91	390.87
450.10	433.00
450.28	428.32
450.46	395.55
450.65	395.55
450.83	458.74
451.02	400.23
451.20	369.80
451.39	425.98
451.57	449.38
451.76	372.15
451.94	423.64
452.13	390.87
452.31	379.17
452.49	390.87
452.68	402.57
452.86	351.08
453.05	430.66
453.23	383.85
453.42	355.76
453.60	423.64
453.78	449.38
453.97	341.72
454.15	369.80
454.34	486.83
454.52	440.02
454.70	456.40
454.89	433.00
455.07	496.19
455.26	440.02
455.44	425.98
455.62	367.46
455.81	397.89
455.99	351.08
456.17	472.79
456.36	369.80
456.54	388.53
456.73	402.57
456.91	383.85
457.09	407.25
457.28	463.43
457.46	353.42
457.64	437.68
457.83	374.49
458.01	425.98
458.19	428.32
458.38	440.02
458.56	409.59
458.74	395.55
458.93	379.17
459.11	402.57
459.29	393.21
459.48	461.09
459.66	475.13
459.84	430.66
460.03	461.09
460.21	409.59
460.39	447.04
460.57	351.08
460.76	416.62
460.94	332.36
461.12	440.02
461.31	447.04
461.49	379.17
461.67	393.21
461.85	435.34
462.04	341.72
462.22	777.06
462.40	444.70
462.59	454.06
462.77	400.23
462.95	428.32
463.13	447.04
463.32	355.76
463.50	449.38
463.68	447.04
463.86	372.15
464.05	362.78
464.23	409.59
464.41	444.70
464.59	444.70
464.78	397.89
464.96	367.46
465.14	440.02
465.32	411.93
465.50	360.44
465.69	470.45
465.87	383.85
466.05	379.17
466.23	390.87
466.41	430.66
466.60	393.21
466.78	433.00
466.96	421.30
467.14	381.51
467.32	468.11
467.51	381.51
467.69	430.66
467.87	489.17
468.05	472.79
468.23	379.17
468.41	437.68
468.60	440.02
468.78	435.34
468.96	395.55
469.14	374.49
469.32	301.93
469.50	397.89
469.69	397.89
469.87	423.64
470.05	369.80
470.23	477.47
470.41	472.79
470.59	458.74
470.77	383.85
470.95	414.27
471.14	423.64
471.32	355.76
471.50	351.08
471.68	409.59
471.86	360.44
472.04	400.23
472.22	372.15
472.40	411.93
472.58	358.10
472.77	397.89
472.95	407.25
473.13	416.62
473.31	475.13
473.49	390.87
473.67	430.66
473.85	360.44
474.03	409.59
474.21	421.30
474.39	500.87
474.57	402.57
474.75	479.81
474.93	411.93
475.12	421.30
475.30	400.23
475.48	425.98
475.66	477.47
475.84	360.44
476.02	440.02
476.20	468.11
476.38	386.19
476.56	451.72
476.74	397.89
476.92	386.19
477.10	482.15
477.28	402.57
477.46	512.58
477.64	482.15
477.82	430.66
478.00	407.25
478.18	381.51
478.36	442.36
478.54	379.17
478.72	388.53
478.90	425.98
479.08	430.66
479.26	395.55
479.44	278.52
479.62	376.83
479.80	383.85
479.98	390.87
480.16	430.66
480.34	433.00
480.52	435.34
480.70	468.11
480.88	393.21
481.06	383.85
481.24	428.32
481.41	402.57
481.59	379.17
481.77	465.77
481.95	440.02
482.13	390.87
482.31	381.51
482.49	365.12
482.67	402.57
482.85	430.66
483.03	418.96
483.21	437.68
483.39	440.02
483.57	362.78
483.74	491.51
483.92	388.53
484.10	397.89
484.28	547.69
484.46	400.23
484.64	444.70
484.82	397.89
485.00	365.12
485.18	367.46
485.35	454.06
485.53	447.04
485.71	444.70
485.89	369.80
486.07	416.62
486.25	538.32
486.43	477.47
486.61	456.40
486.78	393.21
486.96	304.27
487.14	381.51
487.32	442.36
487.50	379.17
487.68	465.77
487.85	463.43
488.03	388.53
488.21	444.70
488.39	423.64
488.57	444.70
488.75	353.42
488.92	482.15
489.10	414.27
489.28	442.36
489.46	411.93
489.64	440.02
489.81	397.89
489.99	416.62
490.17	362.78
490.35	440.02
490.53	442.36
490.70	447.04
490.88	369.80
491.06	468.11
491.24	440.02
491.41	402.57
491.59	435.34
491.77	376.83
491.95	454.06
492.13	348.74
492.30	390.87
492.48	447.04
492.66	374.49
492.84	381.51
493.01	404.91
493.19	416.62
493.37	414.27
493.54	425.98
493.72	447.04
493.90	402.57
494.08	290.23
494.25	461.09
494.43	388.53
494.61	433.00
494.79	383.85
494.96	348.74
495.14	379.17
495.32	437.68
495.49	325.33
495.67	475.13
495.85	372.15
496.02	351.08
496.20	433.00
496.38	386.19
496.55	433.00
496.73	461.09
496.91	360.44
497.09	407.25
497.26	358.10
497.44	404.91
497.62	404.91
497.79	404.91
497.97	407.25
498.14	418.96
498.32	372.15
498.50	442.36
498.67	400.23
498.85	430.66
499.03	449.38
499.20	449.38
499.38	449.38
499.56	402.57
499.73	472.79
499.91	339.38
500.08	421.30
500.26	367.46
500.44	409.59
500.61	414.27
500.79	418.96
500.97	444.70
501.14	512.58
501.32	402.57
501.49	442.36
501.67	482.15
501.84	437.68
502.02	430.66
502.20	442.36
502.37	437.68
502.55	451.72
502.72	369.80
502.90	407.25
503.07	395.55
503.25	325.33
503.43	390.87
503.60	402.57
503.78	430.66
503.95	440.02
504.13	325.33
504.30	381.51
504.48	421.30
504.65	540.66
504.83	510.24
505.01	388.53
505.18	440.02
505.36	472.79
505.53	456.40
505.71	395.55
505.88	367.46
506.06	404.91
506.23	454.06
506.41	379.17
506.58	423.64
506.76	400.23
506.93	409.59
507.11	386.19
507.28	456.40
507.46	472.79
507.63	362.78
507.81	355.76
507.98	451.72
508.16	397.89
508.33	456.40
508.50	435.34
508.68	458.74
508.85	456.40
509.03	339.38
509.20	369.80
509.38	421.30
509.55	433.00
509.73	437.68
509.90	472.79
510.08	402.57
510.25	402.57
510.42	416.62
510.60	358.10
510.77	433.00
510.95	409.59
511.12	416.62
511.30	404.91
511.47	407.25
511.64	351.08
511.82	409.59
511.99	383.85
512.17	472.79
512.34	337.04
512.51	388.53
512.69	416.62
512.86	428.32
513.04	423.64
513.21	414.27
513.38	433.00
513.56	397.89
513.73	447.04
513.90	425.98
514.08	411.93
514.25	433.00
514.43	456.40
514.60	456.40
514.77	444.70
514.95	456.40
515.12	470.45
515.29	505.56
515.47	433.00
515.64	400.23
515.81	407.25
515.99	425.98
516.16	437.68
516.33	435.34
516.51	388.53
516.68	355.76
516.85	414.27
517.03	423.64
517.20	381.51
517.37	454.06
517.54	447.04
517.72	367.46
517.89	435.34
518.06	311.29
518.24	512.58
518.41	461.09
518.58	475.13
518.75	365.12
518.93	414.27
519.10	393.21
519.27	337.04
519.45	369.80
519.62	372.15
519.79	416.62
519.96	376.83
520.14	435.34
520.31	447.04
520.48	402.57
520.65	409.59
520.83	397.89
521.00	428.32
521.17	430.66
521.34	423.64
521.52	383.85
521.69	369.80
521.86	433.00
522.03	409.59
522.20	465.77
522.38	402.57
522.55	477.47
522.72	348.74
522.89	454.06
523.07	449.38
523.24	411.93
523.41	353.42
523.58	376.83
523.75	388.53
523.92	430.66
524.10	477.47
524.27	430.66
524.44	409.59
524.61	475.13
524.78	374.49
524.96	430.66
525.13	479.81
525.30	421.30
525.47	454.06
525.64	393.21
525.81	451.72
525.98	397.89
526.16	388.53
526.33	397.89
526.50	400.23
526.67	440.02
526.84	418.96
527.01	393.21
527.18	437.68
527.36	418.96
527.53	332.36
527.70	440.02
527.87	416.62
528.04	475.13
528.21	449.38
528.38	454.06
528.55	411.93
528.72	393.21
528.89	454.06
529.07	456.40
529.24	447.04
529.41	449.38
529.58	393.21
529.75	376.83
529.92	465.77
530.09	402.57
530.26	423.64
530.43	421.30
530.60	463.43
530.77	486.83
530.94	423.64
531.11	428.32
531.28	444.70
531.46	456.40
531.63	425.98
531.80	472.79
531.97	386.19
532.14	428.32
532.31	404.91
532.48	433.00
532.65	435.34
532.82	388.53
532.99	482.15
533.16	409.59
533.33	416.62
533.50	421.30
533.67	374.49
533.84	430.66
534.01	447.04
534.18	430.66
534.35	416.62
534.52	435.34
534.69	435.34
534.86	414.27
535.03	376.83
535.20	414.27
535.37	395.55
535.54	339.38
535.71	365.12
535.88	489.17
536.05	437.68
536.22	416.62
536.38	435.34
536.55	461.09
536.72	484.49
536.89	423.64
537.06	418.96
537.23	407.25
537.40	430.66
537.57	362.78
537.74	510.24
537.91	482.15
538.08	423.64
538.25	414.27
538.42	416.62
538.59	454.06
538.75	423.64
538.92	444.70
539.09	444.70
539.26	430.66
539.43	449.38
539.60	372.15
539.77	465.77
539.94	421.30
540.11	423.64
540.28	433.00
540.44	388.53
540.61	416.62
540.78	428.32
540.95	362.78
541.12	440.02
541.29	444.70
541.46	461.09
541.62	416.62
541.79	425.98
541.96	397.89
542.13	414.27
542.30	449.38
542.47	341.72
542.63	365.12
542.80	365.12
542.97	418.96
543.14	421.30
543.31	482.15
543.48	461.09
543.64	421.30
543.81	397.89
543.98	313.63
544.15	395.55
544.32	386.19
544.48	463.43
544.65	430.66
544.82	454.06
544.99	418.96
545.16	381.51
545.32	414.27
545.49	430.66
545.66	440.02
545.83	386.19
546.00	374.49
546.16	444.70
546.33	430.66
546.50	304.27
546.67	447.04
546.83	456.40
547.00	475.13
547.17	381.51
547.34	388.53
547.50	388.53
547.67	475.13
547.84	400.23
548.00	428.32
548.17	479.81
548.34	493.85
548.51	449.38
548.67	393.21
548.84	435.34
549.01	435.34
549.18	444.70
549.34	393.21
549.51	367.46
549.68	425.98
549.84	397.89
550.01	369.80
550.18	428.32
550.34	442.36
550.51	475.13
550.68	376.83
550.84	503.22
551.01	414.27
551.18	348.74
551.34	479.81
551.51	395.55
551.68	402.57
551.84	451.72
552.01	475.13
552.18	475.13
552.34	414.27
552.51	395.55
552.68	404.91
552.84	433.00
553.01	433.00
553.18	470.45
553.34	383.85
553.51	451.72
553.67	454.06
553.84	418.96
554.01	418.96
554.17	437.68
554.34	421.30
554.51	491.51
554.67	444.70
554.84	383.85
555.00	393.21
555.17	416.62
555.33	402.57
555.50	404.91
555.67	409.59
555.83	418.96
556.00	383.85
556.16	430.66
556.33	411.93
556.50	386.19
556.66	397.89
556.83	463.43
556.99	400.23
557.16	451.72
557.32	400.23
557.49	409.59
557.65	348.74
557.82	435.34
557.98	386.19
558.15	369.80
558.32	430.66
558.48	447.04
558.65	449.38
558.81	404.91
558.98	425.98
559.14	475.13
559.31	379.17
559.47	388.53
559.64	383.85
559.80	386.19
559.97	379.17
560.13	341.72
560.30	397.89
560.46	444.70
560.63	454.06
560.79	458.74
560.96	472.79
561.12	402.57
561.29	435.34
561.45	458.74
561.61	486.83
561.78	526.62
561.94	367.46
562.11	428.32
562.27	458.74
562.44	383.85
562.60	421.30
562.77	430.66
562.93	514.92
563.10	414.27
563.26	465.77
563.42	444.70
563.59	456.40
563.75	348.74
563.92	489.17
564.08	407.25
564.24	395.55
564.41	505.56
564.57	418.96
564.74	372.15
564.90	423.64
565.07	383.85
565.23	416.62
565.39	477.47
565.56	421.30
565.72	407.25
565.88	374.49
566.05	393.21
566.21	440.02
566.38	421.30
566.54	465.77
566.70	444.70
566.87	409.59
567.03	404.91
567.19	425.98
567.36	418.96
567.52	411.93
567.68	418.96
567.85	362.78
568.01	428.32
568.17	367.46
568.34	393.21
568.50	470.45
568.66	376.83
568.83	514.92
568.99	456.40
569.15	421.30
569.32	409.59
569.48	463.43
569.64	353.42
569.81	428.32
569.97	500.87
570.13	510.24
570.30	381.51
570.46	423.64
570.62	402.57
570.78	344.06
570.95	351.08
571.11	423.64
571.27	451.72
571.43	400.23
571.60	425.98
571.76	489.17
571.92	402.57
572.09	339.38
572.25	376.83
572.41	425.98
572.57	407.25
572.74	397.89
572.90	437.68
573.06	505.56
573.22	442.36
573.38	409.59
573.55	472.79
573.71	454.06
573.87	416.62
574.03	444.70
574.20	327.68
574.36	428.32
574.52	425.98
574.68	337.04
574.84	407.25
575.01	437.68
575.17	409.59
575.33	458.74
575.49	465.77
575.65	402.57
575.82	402.57
575.98	435.34
576.14	440.02
576.30	395.55
576.46	407.25
576.62	458.74
576.79	451.72
576.95	463.43
577.11	358.10
577.27	376.83
577.43	374.49
577.59	449.38
577.75	411.93
577.92	409.59
578.08	425.98
578.24	393.21
578.40	421.30
578.56	498.53
578.72	372.15
578.88	367.46
579.04	437.68
579.21	397.89
579.37	344.06
579.53	351.08
579.69	456.40
579.85	456.40
580.01	489.17
580.17	430.66
580.33	372.15
580.49	440.02
580.65	369.80
580.82	383.85
580.98	421.30
581.14	386.19
581.30	461.09
581.46	451.72
581.62	379.17
581.78	397.89
581.94	461.09
582.10	369.80
582.26	360.44
582.42	442.36
582.58	414.27
582.74	395.55
582.90	397.89
583.06	414.27
583.22	397.89
583.38	440.02
583.54	470.45
583.70	407.25
583.86	365.12
584.02	390.87
584.18	388.53
584.34	435.34
584.50	447.04
584.66	386.19
584.82	374.49
584.98	411.93
585.14	397.89
585.30	416.62
585.46	344.06
585.62	374.49
585.78	409.59
585.94	430.66
586.10	428.32
586.26	433.00
586.42	442.36
586.58	409.59
586.74	458.74
586.90	430.66
587.06	444.70
587.22	423.64
587.38	383.85
587.54	442.36
587.70	472.79
587.86	393.21
588.02	355.76
588.18	468.11
588.34	404.91
588.49	430.66
588.65	337.04
588.81	400.23
588.97	428.32
589.13	351.08
589.29	418.96
589.45	404.91
589.61	400.23
589.77	463.43
589.93	425.98
590.08	339.38
590.24	416.62
590.40	435.34
590.56	411.93
590.72	409.59
590.88	442.36
591.04	423.64
591.20	383.85
591.35	404.91
591.51	379.17
591.67	411.93
591.83	442.36
591.99	418.96
592.15	423.64
592.31	386.19
592.46	362.78
592.62	409.59
592.78	393.21
592.94	374.49
593.10	433.00
593.26	409.59
593.41	472.79
593.57	400.23
593.73	404.91
593.89	449.38
594.05	496.19
594.20	493.85
594.36	449.38
594.52	393.21
594.68	444.70
594.84	482.15
594.99	428.32
595.15	395.55
595.31	442.36
595.47	517.26
595.62	435.34
595.78	468.11
595.94	400.23
596.10	444.70
596.25	400.23
596.41	456.40
596.57	451.72
596.73	423.64
596.88	421.30
597.04	348.74
597.20	418.96
597.36	451.72
597.51	440.02
597.67	449.38
597.83	409.59
597.99	369.80
598.14	447.04
598.30	447.04
598.46	411.93
598.61	440.02
598.77	454.06
598.93	444.70
599.09	395.55
599.24	386.19
599.40	407.25
599.56	376.83
599.71	423.64
599.87	386.19
600.03	425.98
600.18	402.57
600.34	447.04
600.50	369.80
600.65	362.78
600.81	451.72
600.97	409.59
601.12	390.87
601.28	449.38
601.44	468.11
601.59	386.19
601.75	430.66
601.91	404.91
602.06	409.59
602.22	437.68
602.37	465.77
602.53	334.70
602.69	503.22
602.84	376.83
603.00	397.89
603.16	383.85
603.31	407.25
603.47	400.23
603.62	449.38
603.78	393.21
603.94	437.68
604.09	447.04
604.25	479.81
604.40	397.89
604.56	482.15
604.71	437.68
604.87	388.53
605.03	442.36
605.18	409.59
605.34	475.13
605.49	468.11
605.65	418.96
605.80	477.47
605.96	409.59
606.12	433.00
606.27	454.06
606.43	470.45
606.58	358.10
606.74	414.27
606.89	421.30
607.05	388.53
607.20	440.02
607.36	465.77
607.51	400.23
607.67	451.72
607.82	458.74
607.98	491.51
608.13	479.81
608.29	433.00
608.44	433.00
608.60	416.62
608.75	423.64
608.91	386.19
609.06	477.47
609.22	447.04
609.37	425.98
609.53	435.34
609.68	407.25
609.84	421.30
609.99	390.87
610.15	397.89
