SpectraSuite Data File
++++++++++++++++++++++++++++++++++++
Date: Fri Oct 25 12:10:31 EDT 2013
User: price-jones
Dark Spectrum Present: No
Reference Spectrum Present: No
Number of Sampled Component Spectra: 1
Spectrometers: USB2+H05261
Integration Time (usec): 100000 (USB2+H05261)
Spectra Averaged: 1 (USB2+H05261)
Boxcar Smoothing: 0 (USB2+H05261)
Correct for Electrical Dark: No (USB2+H05261)
Strobe/Lamp Enabled: No (USB2+H05261)
Correct for Detector Non-linearity: No (USB2+H05261)
Correct for Stray Light: No (USB2+H05261)
Number of Pixels in Processed Spectrum: 2048
>>>>>Begin Processed Spectral Data<<<<<
365.73	383.85
365.92	383.85
366.12	383.85
366.32	201.29
366.52	227.03
366.72	220.01
366.91	231.71
367.11	203.63
367.31	205.97
367.51	173.20
367.70	208.31
367.90	262.14
368.10	243.42
368.30	154.48
368.49	194.26
368.69	367.46
368.89	266.82
369.09	280.86
369.28	208.31
369.48	264.48
369.68	292.57
369.87	308.95
370.07	278.52
370.27	344.06
370.47	353.42
370.66	320.65
370.86	362.78
371.06	376.83
371.25	367.46
371.45	416.62
371.65	433.00
371.84	397.89
372.04	330.02
372.24	362.78
372.44	397.89
372.63	332.36
372.83	372.15
373.03	454.06
373.22	440.02
373.42	409.59
373.62	444.70
373.81	409.59
374.01	428.32
374.21	451.72
374.40	493.85
374.60	407.25
374.79	423.64
374.99	414.27
375.19	425.98
375.38	400.23
375.58	351.08
375.78	400.23
375.97	430.66
376.17	418.96
376.37	383.85
376.56	454.06
376.76	365.12
376.95	351.08
377.15	416.62
377.35	404.91
377.54	416.62
377.74	454.06
377.93	489.17
378.13	440.02
378.33	435.34
378.52	433.00
378.72	393.21
378.91	440.02
379.11	360.44
379.31	435.34
379.50	386.19
379.70	510.24
379.89	409.59
380.09	407.25
380.28	414.27
380.48	402.57
380.68	327.68
380.87	358.10
381.07	400.23
381.26	430.66
381.46	425.98
381.65	376.83
381.85	362.78
382.04	444.70
382.24	381.51
382.43	379.17
382.63	414.27
382.83	400.23
383.02	421.30
383.22	423.64
383.41	430.66
383.61	374.49
383.80	397.89
384.00	285.55
384.19	437.68
384.39	435.34
384.58	315.97
384.78	397.89
384.97	416.62
385.17	461.09
385.36	332.36
385.56	379.17
385.75	409.59
385.95	407.25
386.14	374.49
386.34	437.68
386.53	341.72
386.72	416.62
386.92	411.93
387.11	386.19
387.31	365.12
387.50	334.70
387.70	346.40
387.89	355.76
388.09	428.32
388.28	372.15
388.48	383.85
388.67	383.85
388.86	402.57
389.06	433.00
389.25	388.53
389.45	332.36
389.64	383.85
389.84	402.57
390.03	388.53
390.22	411.93
390.42	416.62
390.61	346.40
390.81	393.21
391.00	376.83
391.19	454.06
391.39	358.10
391.58	379.17
391.78	418.96
391.97	404.91
392.16	360.44
392.36	367.46
392.55	411.93
392.75	404.91
392.94	374.49
393.13	409.59
393.33	437.68
393.52	456.40
393.71	444.70
393.91	409.59
394.10	332.36
394.29	379.17
394.49	360.44
394.68	355.76
394.88	425.98
395.07	402.57
395.26	395.55
395.46	376.83
395.65	395.55
395.84	416.62
396.04	449.38
396.23	379.17
396.42	423.64
396.62	407.25
396.81	390.87
397.00	365.12
397.19	369.80
397.39	390.87
397.58	428.32
397.77	337.04
397.97	365.12
398.16	442.36
398.35	456.40
398.55	444.70
398.74	442.36
398.93	402.57
399.12	390.87
399.32	334.70
399.51	381.51
399.70	390.87
399.90	322.99
400.09	402.57
400.28	365.12
400.47	369.80
400.67	383.85
400.86	404.91
401.05	372.15
401.24	376.83
401.44	407.25
401.63	421.30
401.82	416.62
402.01	388.53
402.21	421.30
402.40	465.77
402.59	381.51
402.78	362.78
402.97	404.91
403.17	407.25
403.36	435.34
403.55	397.89
403.74	395.55
403.93	369.80
404.13	390.87
404.32	400.23
404.51	437.68
404.70	348.74
404.89	383.85
405.09	479.81
405.28	369.80
405.47	383.85
405.66	435.34
405.85	430.66
406.05	414.27
406.24	440.02
406.43	428.32
406.62	428.32
406.81	465.77
407.00	442.36
407.20	369.80
407.39	512.58
407.58	400.23
407.77	433.00
407.96	386.19
408.15	430.66
408.34	386.19
408.54	360.44
408.73	390.87
408.92	360.44
409.11	409.59
409.30	435.34
409.49	367.46
409.68	374.49
409.87	479.81
410.07	404.91
410.26	393.21
410.45	402.57
410.64	477.47
410.83	484.49
411.02	369.80
411.21	402.57
411.40	332.36
411.59	407.25
411.78	416.62
411.98	351.08
412.17	402.57
412.36	454.06
412.55	414.27
412.74	393.21
412.93	444.70
413.12	358.10
413.31	447.04
413.50	442.36
413.69	456.40
413.88	442.36
414.07	388.53
414.26	442.36
414.45	376.83
414.64	330.02
414.83	395.55
415.02	367.46
415.22	393.21
415.41	456.40
415.60	339.38
415.79	381.51
415.98	451.72
416.17	435.34
416.36	369.80
416.55	372.15
416.74	447.04
416.93	404.91
417.12	381.51
417.31	414.27
417.50	397.89
417.69	425.98
417.88	451.72
418.07	383.85
418.26	435.34
418.45	451.72
418.64	397.89
418.83	397.89
419.02	418.96
419.21	372.15
419.39	365.12
419.58	390.87
419.77	418.96
419.96	388.53
420.15	463.43
420.34	374.49
420.53	390.87
420.72	402.57
420.91	421.30
421.10	407.25
421.29	451.72
421.48	411.93
421.67	433.00
421.86	393.21
422.05	344.06
422.24	379.17
422.43	470.45
422.61	454.06
422.80	425.98
422.99	397.89
423.18	367.46
423.37	374.49
423.56	423.64
423.75	393.21
423.94	407.25
424.13	491.51
424.32	365.12
424.50	372.15
424.69	367.46
424.88	440.02
425.07	360.44
425.26	407.25
425.45	383.85
425.64	475.13
425.83	444.70
426.01	402.57
426.20	500.87
426.39	362.78
426.58	440.02
426.77	449.38
426.96	376.83
427.15	404.91
427.33	325.33
427.52	437.68
427.71	428.32
427.90	440.02
428.09	397.89
428.28	353.42
428.46	414.27
428.65	402.57
428.84	397.89
429.03	465.77
429.22	397.89
429.40	418.96
429.59	348.74
429.78	447.04
429.97	423.64
430.16	402.57
430.34	437.68
430.53	456.40
430.72	461.09
430.91	470.45
431.10	409.59
431.28	428.32
431.47	348.74
431.66	421.30
431.85	390.87
432.03	390.87
432.22	447.04
432.41	397.89
432.60	433.00
432.79	367.46
432.97	425.98
433.16	407.25
433.35	318.31
433.54	383.85
433.72	374.49
433.91	362.78
434.10	444.70
434.28	341.72
434.47	376.83
434.66	400.23
434.85	449.38
435.03	400.23
435.22	447.04
435.41	493.85
435.59	383.85
435.78	383.85
435.97	449.38
436.16	374.49
436.34	355.76
436.53	355.76
436.72	407.25
436.90	456.40
437.09	437.68
437.28	437.68
437.46	372.15
437.65	449.38
437.84	379.17
438.02	451.72
438.21	390.87
438.40	425.98
438.58	423.64
438.77	402.57
438.96	505.56
439.14	414.27
439.33	395.55
439.52	400.23
439.70	369.80
439.89	449.38
440.08	397.89
440.26	369.80
440.45	447.04
440.63	339.38
440.82	425.98
441.01	381.51
441.19	341.72
441.38	440.02
441.57	376.83
441.75	397.89
441.94	365.12
442.12	428.32
442.31	423.64
442.50	404.91
442.68	444.70
442.87	411.93
443.05	447.04
443.24	376.83
443.43	428.32
443.61	486.83
443.80	346.40
443.98	447.04
444.17	465.77
444.35	397.89
444.54	409.59
444.73	388.53
444.91	430.66
445.10	428.32
445.28	400.23
445.47	437.68
445.65	414.27
445.84	409.59
446.02	374.49
446.21	390.87
446.39	435.34
446.58	461.09
446.77	521.94
446.95	402.57
447.14	461.09
447.32	449.38
447.51	397.89
447.69	421.30
447.88	423.64
448.06	451.72
448.25	346.40
448.43	395.55
448.62	348.74
448.80	493.85
448.99	411.93
449.17	407.25
449.36	433.00
449.54	428.32
449.73	430.66
449.91	362.78
450.10	428.32
450.28	423.64
450.46	407.25
450.65	414.27
450.83	374.49
451.02	388.53
451.20	369.80
451.39	407.25
451.57	428.32
451.76	411.93
451.94	374.49
452.13	334.70
452.31	489.17
452.49	433.00
452.68	388.53
452.86	458.74
453.05	461.09
453.23	395.55
453.42	482.15
453.60	362.78
453.78	393.21
453.97	383.85
454.15	402.57
454.34	440.02
454.52	341.72
454.70	418.96
454.89	402.57
455.07	524.28
455.26	423.64
455.44	411.93
455.62	330.02
455.81	425.98
455.99	437.68
456.17	451.72
456.36	402.57
456.54	465.77
456.73	379.17
456.91	484.49
457.09	416.62
457.28	416.62
457.46	458.74
457.64	449.38
457.83	444.70
458.01	351.08
458.19	425.98
458.38	440.02
458.56	428.32
458.74	395.55
458.93	435.34
459.11	411.93
459.29	475.13
459.48	416.62
459.66	374.49
459.84	461.09
460.03	447.04
460.21	407.25
460.39	444.70
460.57	454.06
460.76	348.74
460.94	416.62
461.12	428.32
461.31	435.34
461.49	421.30
461.67	404.91
461.85	456.40
462.04	367.46
462.22	814.51
462.40	440.02
462.59	425.98
462.77	393.21
462.95	433.00
463.13	390.87
463.32	430.66
463.50	374.49
463.68	414.27
463.86	358.10
464.05	409.59
464.23	425.98
464.41	451.72
464.59	435.34
464.78	393.21
464.96	411.93
465.14	416.62
465.32	447.04
465.50	367.46
465.69	362.78
465.87	344.06
466.05	456.40
466.23	383.85
466.41	442.36
466.60	386.19
466.78	411.93
466.96	461.09
467.14	339.38
467.32	440.02
467.51	397.89
467.69	503.22
467.87	484.49
468.05	383.85
468.23	458.74
468.41	472.79
468.60	435.34
468.78	409.59
468.96	454.06
469.14	430.66
469.32	365.12
469.50	414.27
469.69	482.15
469.87	409.59
470.05	435.34
470.23	451.72
470.41	468.11
470.59	444.70
470.77	472.79
470.95	444.70
471.14	470.45
471.32	372.15
471.50	461.09
471.68	393.21
471.86	404.91
472.04	386.19
472.22	381.51
472.40	351.08
472.58	369.80
472.77	428.32
472.95	456.40
473.13	503.22
473.31	421.30
473.49	461.09
473.67	397.89
473.85	451.72
474.03	416.62
474.21	458.74
474.39	507.90
474.57	425.98
474.75	430.66
474.93	416.62
475.12	376.83
475.30	414.27
475.48	411.93
475.66	411.93
475.84	344.06
476.02	379.17
476.20	421.30
476.38	379.17
476.56	409.59
476.74	330.02
476.92	470.45
477.10	442.36
477.28	367.46
477.46	468.11
477.64	381.51
477.82	430.66
478.00	411.93
478.18	416.62
478.36	379.17
478.54	337.04
478.72	416.62
478.90	381.51
479.08	440.02
479.26	379.17
479.44	407.25
479.62	395.55
479.80	369.80
479.98	437.68
480.16	381.51
480.34	400.23
480.52	376.83
480.70	360.44
480.88	332.36
481.06	351.08
481.24	397.89
481.41	388.53
481.59	435.34
481.77	409.59
481.95	365.12
482.13	423.64
482.31	369.80
482.49	402.57
482.67	435.34
482.85	416.62
483.03	383.85
483.21	465.77
483.39	400.23
483.57	369.80
483.74	440.02
483.92	322.99
484.10	304.27
484.28	416.62
484.46	430.66
484.64	351.08
484.82	330.02
485.00	416.62
485.18	454.06
485.35	440.02
485.53	454.06
485.71	456.40
485.89	409.59
486.07	367.46
486.25	484.49
486.43	386.19
486.61	400.23
486.78	444.70
486.96	388.53
487.14	425.98
487.32	449.38
487.50	390.87
487.68	498.53
487.85	355.76
488.03	430.66
488.21	435.34
488.39	402.57
488.57	409.59
488.75	395.55
488.92	486.83
489.10	411.93
489.28	437.68
489.46	456.40
489.64	418.96
489.81	402.57
489.99	477.47
490.17	456.40
490.35	437.68
490.53	409.59
490.70	395.55
490.88	402.57
491.06	376.83
491.24	379.17
491.41	454.06
491.59	411.93
491.77	400.23
491.95	372.15
492.13	390.87
492.30	402.57
492.48	411.93
492.66	454.06
492.84	416.62
493.01	402.57
493.19	435.34
493.37	395.55
493.54	425.98
493.72	440.02
493.90	360.44
494.08	428.32
494.25	337.04
494.43	425.98
494.61	346.40
494.79	339.38
494.96	379.17
495.14	433.00
495.32	442.36
495.49	454.06
495.67	402.57
495.85	393.21
496.02	423.64
496.20	404.91
496.38	372.15
496.55	444.70
496.73	397.89
496.91	400.23
497.09	477.47
497.26	346.40
497.44	386.19
497.62	409.59
497.79	390.87
497.97	442.36
498.14	425.98
498.32	407.25
498.50	416.62
498.67	397.89
498.85	428.32
499.03	465.77
499.20	393.21
499.38	440.02
499.56	425.98
499.73	435.34
499.91	395.55
500.08	486.83
500.26	418.96
500.44	458.74
500.61	435.34
500.79	383.85
500.97	388.53
501.14	416.62
501.32	397.89
501.49	435.34
501.67	341.72
501.84	449.38
502.02	444.70
502.20	444.70
502.37	418.96
502.55	376.83
502.72	435.34
502.90	421.30
503.07	381.51
503.25	437.68
503.43	456.40
503.60	425.98
503.78	395.55
503.95	411.93
504.13	423.64
504.30	451.72
504.48	418.96
504.65	470.45
504.83	393.21
505.01	444.70
505.18	442.36
505.36	463.43
505.53	454.06
505.71	367.46
505.88	491.51
506.06	475.13
506.23	388.53
506.41	355.76
506.58	442.36
506.76	454.06
506.93	388.53
507.11	374.49
507.28	393.21
507.46	395.55
507.63	435.34
507.81	407.25
507.98	414.27
508.16	433.00
508.33	444.70
508.50	454.06
508.68	463.43
508.85	407.25
509.03	447.04
509.20	360.44
509.38	447.04
509.55	482.15
509.73	451.72
509.90	437.68
510.08	498.53
510.25	397.89
510.42	411.93
510.60	386.19
510.77	449.38
510.95	407.25
511.12	374.49
511.30	372.15
511.47	351.08
511.64	404.91
511.82	451.72
511.99	425.98
512.17	404.91
512.34	381.51
512.51	388.53
512.69	531.30
512.86	477.47
513.04	390.87
513.21	421.30
513.38	433.00
513.56	425.98
513.73	355.76
513.90	337.04
514.08	397.89
514.25	465.77
514.43	423.64
514.60	461.09
514.77	425.98
514.95	421.30
515.12	407.25
515.29	409.59
515.47	435.34
515.64	411.93
515.81	458.74
515.99	442.36
516.16	393.21
516.33	388.53
516.51	447.04
516.68	362.78
516.85	388.53
517.03	397.89
517.20	400.23
517.37	416.62
517.54	447.04
517.72	414.27
517.89	388.53
518.06	442.36
518.24	442.36
518.41	484.49
518.58	500.87
518.75	510.24
518.93	390.87
519.10	400.23
519.27	390.87
519.45	397.89
519.62	379.17
519.79	440.02
519.96	402.57
520.14	423.64
520.31	475.13
520.48	442.36
520.65	400.23
520.83	491.51
521.00	430.66
521.17	414.27
521.34	407.25
521.52	395.55
521.69	428.32
521.86	393.21
522.03	472.79
522.20	442.36
522.38	376.83
522.55	517.26
522.72	341.72
522.89	477.47
523.07	461.09
523.24	400.23
523.41	454.06
523.58	418.96
523.75	411.93
523.92	353.42
524.10	425.98
524.27	437.68
524.44	484.49
524.61	491.51
524.78	435.34
524.96	449.38
525.13	395.55
525.30	468.11
525.47	393.21
525.64	421.30
525.81	386.19
525.98	402.57
526.16	365.12
526.33	367.46
526.50	376.83
526.67	334.70
526.84	442.36
527.01	379.17
527.18	404.91
527.36	442.36
527.53	430.66
527.70	524.28
527.87	493.85
528.04	418.96
528.21	463.43
528.38	425.98
528.55	425.98
528.72	393.21
528.89	365.12
529.07	388.53
529.24	418.96
529.41	447.04
529.58	393.21
529.75	421.30
529.92	444.70
530.09	358.10
530.26	404.91
530.43	447.04
530.60	404.91
530.77	447.04
530.94	425.98
531.11	358.10
531.28	449.38
531.46	381.51
531.63	379.17
531.80	451.72
531.97	437.68
532.14	475.13
532.31	430.66
532.48	386.19
532.65	325.33
532.82	334.70
532.99	423.64
533.16	447.04
533.33	400.23
533.50	297.25
533.67	355.76
533.84	374.49
534.01	440.02
534.18	409.59
534.35	444.70
534.52	435.34
534.69	458.74
534.86	400.23
535.03	435.34
535.20	421.30
535.37	475.13
535.54	418.96
535.71	437.68
535.88	477.47
536.05	425.98
536.22	503.22
536.38	435.34
536.55	327.68
536.72	447.04
536.89	416.62
537.06	339.38
537.23	454.06
537.40	383.85
537.57	470.45
537.74	407.25
537.91	540.66
538.08	482.15
538.25	440.02
538.42	435.34
538.59	454.06
538.75	430.66
538.92	402.57
539.09	442.36
539.26	433.00
539.43	554.71
539.60	372.15
539.77	437.68
539.94	397.89
540.11	528.96
540.28	528.96
540.44	435.34
540.61	454.06
540.78	390.87
540.95	447.04
541.12	423.64
541.29	393.21
541.46	409.59
541.62	379.17
541.79	416.62
541.96	437.68
542.13	435.34
542.30	519.60
542.47	461.09
542.63	428.32
542.80	418.96
542.97	444.70
543.14	407.25
543.31	451.72
543.48	383.85
543.64	435.34
543.81	379.17
543.98	362.78
544.15	376.83
544.32	386.19
544.48	395.55
544.65	400.23
544.82	435.34
544.99	425.98
545.16	360.44
545.32	290.23
545.49	407.25
545.66	418.96
545.83	444.70
546.00	423.64
546.16	395.55
546.33	435.34
546.50	390.87
546.67	433.00
546.83	421.30
547.00	505.56
547.17	365.12
547.34	428.32
547.50	393.21
547.67	421.30
547.84	376.83
548.00	425.98
548.17	393.21
548.34	477.47
548.51	444.70
548.67	346.40
548.84	374.49
549.01	468.11
549.18	479.81
549.34	381.51
549.51	421.30
549.68	421.30
549.84	369.80
550.01	435.34
550.18	433.00
550.34	552.37
550.51	425.98
550.68	479.81
550.84	402.57
551.01	376.83
551.18	416.62
551.34	414.27
551.51	442.36
551.68	365.12
551.84	505.56
552.01	411.93
552.18	402.57
552.34	482.15
552.51	458.74
552.68	372.15
552.84	369.80
553.01	353.42
553.18	397.89
553.34	397.89
553.51	397.89
553.67	458.74
553.84	430.66
554.01	433.00
554.17	381.51
554.34	433.00
554.51	402.57
554.67	400.23
554.84	379.17
555.00	484.49
555.17	444.70
555.33	414.27
555.50	332.36
555.67	461.09
555.83	440.02
556.00	388.53
556.16	592.16
556.33	437.68
556.50	369.80
556.66	346.40
556.83	430.66
556.99	390.87
557.16	449.38
557.32	461.09
557.49	376.83
557.65	367.46
557.82	454.06
557.98	449.38
558.15	442.36
558.32	388.53
558.48	430.66
558.65	454.06
558.81	393.21
558.98	463.43
559.14	411.93
559.31	430.66
559.47	454.06
559.64	327.68
559.80	402.57
559.97	374.49
560.13	421.30
560.30	393.21
560.46	402.57
560.63	435.34
560.79	383.85
560.96	379.17
561.12	414.27
561.29	437.68
561.45	484.49
561.61	404.91
561.78	444.70
561.94	388.53
562.11	428.32
562.27	430.66
562.44	414.27
562.60	407.25
562.77	404.91
562.93	465.77
563.10	404.91
563.26	383.85
563.42	472.79
563.59	451.72
563.75	442.36
563.92	482.15
564.08	404.91
564.24	468.11
564.41	433.00
564.57	383.85
564.74	407.25
564.90	447.04
565.07	416.62
565.23	379.17
565.39	390.87
565.56	470.45
565.72	407.25
565.88	479.81
566.05	463.43
566.21	400.23
566.38	395.55
566.54	381.51
566.70	425.98
566.87	428.32
567.03	386.19
567.19	334.70
567.36	470.45
567.52	386.19
567.68	414.27
567.85	418.96
568.01	433.00
568.17	313.63
568.34	433.00
568.50	440.02
568.66	409.59
568.83	437.68
568.99	454.06
569.15	472.79
569.32	454.06
569.48	367.46
569.64	358.10
569.81	449.38
569.97	379.17
570.13	416.62
570.30	428.32
570.46	458.74
570.62	374.49
570.78	407.25
570.95	425.98
571.11	423.64
571.27	435.34
571.43	402.57
571.60	454.06
571.76	440.02
571.92	362.78
572.09	409.59
572.25	454.06
572.41	390.87
572.57	374.49
572.74	418.96
572.90	341.72
573.06	414.27
573.22	421.30
573.38	433.00
573.55	430.66
573.71	465.77
573.87	444.70
574.03	393.21
574.20	386.19
574.36	430.66
574.52	458.74
574.68	337.04
574.84	468.11
575.01	454.06
575.17	465.77
575.33	440.02
575.49	493.85
575.65	369.80
575.82	442.36
575.98	484.49
576.14	376.83
576.30	435.34
576.46	416.62
576.62	458.74
576.79	465.77
576.95	461.09
577.11	386.19
577.27	376.83
577.43	430.66
577.59	440.02
577.75	456.40
577.92	351.08
578.08	444.70
578.24	341.72
578.40	322.99
578.56	470.45
578.72	458.74
578.88	468.11
579.04	430.66
579.21	409.59
579.37	442.36
579.53	346.40
579.69	433.00
579.85	425.98
580.01	320.65
580.17	388.53
580.33	400.23
580.49	402.57
580.65	421.30
580.82	381.51
580.98	433.00
581.14	451.72
581.30	409.59
581.46	442.36
581.62	397.89
581.78	402.57
581.94	374.49
582.10	390.87
582.26	447.04
582.42	409.59
582.58	430.66
582.74	477.47
582.90	367.46
583.06	472.79
583.22	362.78
583.38	369.80
583.54	395.55
583.70	486.83
583.86	337.04
584.02	461.09
584.18	482.15
584.34	381.51
584.50	475.13
584.66	283.20
584.82	358.10
584.98	465.77
585.14	447.04
585.30	449.38
585.46	433.00
585.62	461.09
585.78	479.81
585.94	411.93
586.10	393.21
586.26	479.81
586.42	470.45
586.58	428.32
586.74	454.06
586.90	348.74
587.06	447.04
587.22	503.22
587.38	411.93
587.54	416.62
587.70	440.02
587.86	416.62
588.02	374.49
588.18	334.70
588.34	447.04
588.49	407.25
588.65	397.89
588.81	414.27
588.97	409.59
589.13	390.87
589.29	425.98
589.45	379.17
589.61	416.62
589.77	379.17
589.93	383.85
590.08	416.62
590.24	425.98
590.40	404.91
590.56	440.02
590.72	393.21
590.88	395.55
591.04	369.80
591.20	369.80
591.35	409.59
591.51	447.04
591.67	414.27
591.83	414.27
591.99	423.64
592.15	444.70
592.31	442.36
592.46	383.85
592.62	435.34
592.78	463.43
592.94	451.72
593.10	440.02
593.26	383.85
593.41	421.30
593.57	358.10
593.73	425.98
593.89	468.11
594.05	496.19
594.20	376.83
594.36	496.19
594.52	421.30
594.68	414.27
594.84	470.45
594.99	421.30
595.15	386.19
595.31	411.93
595.47	386.19
595.62	411.93
595.78	435.34
595.94	447.04
596.10	482.15
596.25	386.19
596.41	461.09
596.57	395.55
596.73	468.11
596.88	451.72
597.04	491.51
597.20	407.25
597.36	444.70
597.51	498.53
597.67	444.70
597.83	365.12
597.99	414.27
598.14	402.57
598.30	402.57
598.46	360.44
598.61	416.62
598.77	355.76
598.93	393.21
599.09	395.55
599.24	498.53
599.40	433.00
599.56	409.59
599.71	353.42
599.87	362.78
600.03	383.85
600.18	409.59
600.34	430.66
600.50	337.04
600.65	376.83
600.81	393.21
600.97	365.12
601.12	468.11
601.28	486.83
601.44	437.68
601.59	411.93
601.75	369.80
601.91	411.93
602.06	397.89
602.22	500.87
602.37	423.64
602.53	418.96
602.69	416.62
602.84	395.55
603.00	386.19
603.16	461.09
603.31	477.47
603.47	444.70
603.62	393.21
603.78	414.27
603.94	463.43
604.09	409.59
604.25	458.74
604.40	367.46
604.56	430.66
604.71	409.59
604.87	400.23
605.03	428.32
605.18	425.98
605.34	489.17
605.49	407.25
605.65	433.00
605.80	416.62
605.96	414.27
606.12	425.98
606.27	411.93
606.43	430.66
606.58	468.11
606.74	348.74
606.89	435.34
607.05	409.59
607.20	383.85
607.36	404.91
607.51	327.68
607.67	369.80
607.82	341.72
607.98	475.13
608.13	475.13
608.29	437.68
608.44	435.34
608.60	409.59
608.75	454.06
608.91	433.00
609.06	383.85
609.22	409.59
609.37	423.64
609.53	390.87
609.68	372.15
609.84	437.68
609.99	346.40
610.15	404.91
