SpectraSuite Data File
++++++++++++++++++++++++++++++++++++
Date: Fri Oct 25 12:11:47 EDT 2013
User: price-jones
Dark Spectrum Present: No
Reference Spectrum Present: No
Number of Sampled Component Spectra: 1
Spectrometers: USB2+H05261
Integration Time (usec): 100000 (USB2+H05261)
Spectra Averaged: 1 (USB2+H05261)
Boxcar Smoothing: 0 (USB2+H05261)
Correct for Electrical Dark: No (USB2+H05261)
Strobe/Lamp Enabled: No (USB2+H05261)
Correct for Detector Non-linearity: No (USB2+H05261)
Correct for Stray Light: No (USB2+H05261)
Number of Pixels in Processed Spectrum: 2048
>>>>>Begin Processed Spectral Data<<<<<
365.73	367.46
365.92	367.46
366.12	367.46
366.32	287.89
366.52	365.12
366.72	264.48
366.91	297.25
367.11	264.48
367.31	283.20
367.51	271.50
367.70	252.78
367.90	280.86
368.10	264.48
368.30	278.52
368.49	198.95
368.69	250.44
368.89	266.82
369.09	215.33
369.28	262.14
369.48	285.55
369.68	222.35
369.87	325.33
370.07	280.86
370.27	313.63
370.47	372.15
370.66	344.06
370.86	355.76
371.06	400.23
371.25	416.62
371.45	341.72
371.65	440.02
371.84	442.36
372.04	318.31
372.24	383.85
372.44	414.27
372.63	397.89
372.83	374.49
373.03	428.32
373.22	444.70
373.42	421.30
373.62	500.87
373.81	444.70
374.01	379.17
374.21	411.93
374.40	353.42
374.60	430.66
374.79	423.64
374.99	444.70
375.19	362.78
375.38	418.96
375.58	517.26
375.78	416.62
375.97	411.93
376.17	507.90
376.37	414.27
376.56	418.96
376.76	423.64
376.95	475.13
377.15	521.94
377.35	395.55
377.54	484.49
377.74	407.25
377.93	442.36
378.13	376.83
378.33	482.15
378.52	362.78
378.72	470.45
378.91	458.74
379.11	416.62
379.31	404.91
379.50	365.12
379.70	423.64
379.89	451.72
380.09	409.59
380.28	414.27
380.48	367.46
380.68	433.00
380.87	369.80
381.07	449.38
381.26	400.23
381.46	337.04
381.65	423.64
381.85	404.91
382.04	454.06
382.24	388.53
382.43	454.06
382.63	418.96
382.83	379.17
383.02	400.23
383.22	332.36
383.41	416.62
383.61	383.85
383.80	414.27
384.00	428.32
384.19	425.98
384.39	414.27
384.58	404.91
384.78	500.87
384.97	440.02
385.17	351.08
385.36	362.78
385.56	393.21
385.75	470.45
385.95	482.15
386.14	482.15
386.34	402.57
386.53	447.04
386.72	411.93
386.92	440.02
387.11	374.49
387.31	440.02
387.50	362.78
387.70	437.68
387.89	458.74
388.09	411.93
388.28	400.23
388.48	395.55
388.67	442.36
388.86	395.55
389.06	388.53
389.25	425.98
389.45	430.66
389.64	397.89
389.84	484.49
390.03	430.66
390.22	358.10
390.42	454.06
390.61	409.59
390.81	367.46
391.00	416.62
391.19	376.83
391.39	425.98
391.58	428.32
391.78	407.25
391.97	369.80
392.16	411.93
392.36	395.55
392.55	430.66
392.75	461.09
392.94	437.68
393.13	395.55
393.33	465.77
393.52	458.74
393.71	372.15
393.91	416.62
394.10	388.53
394.29	372.15
394.49	397.89
394.68	390.87
394.88	416.62
395.07	447.04
395.26	393.21
395.46	447.04
395.65	416.62
395.84	433.00
396.04	512.58
396.23	425.98
396.42	372.15
396.62	393.21
396.81	407.25
397.00	400.23
397.19	400.23
397.39	407.25
397.58	414.27
397.77	365.12
397.97	449.38
398.16	379.17
398.35	451.72
398.55	348.74
398.74	393.21
398.93	423.64
399.12	367.46
399.32	442.36
399.51	458.74
399.70	372.15
399.90	400.23
400.09	440.02
400.28	400.23
400.47	353.42
400.67	381.51
400.86	386.19
401.05	433.00
401.24	367.46
401.44	353.42
401.63	351.08
401.82	388.53
402.01	407.25
402.21	360.44
402.40	479.81
402.59	348.74
402.78	388.53
402.97	400.23
403.17	402.57
403.36	402.57
403.55	447.04
403.74	381.51
403.93	437.68
404.13	479.81
404.32	397.89
404.51	344.06
404.70	430.66
404.89	433.00
405.09	521.94
405.28	404.91
405.47	393.21
405.66	414.27
405.85	418.96
406.05	383.85
406.24	411.93
406.43	379.17
406.62	393.21
406.81	461.09
407.00	484.49
407.20	400.23
407.39	402.57
407.58	411.93
407.77	397.89
407.96	423.64
408.15	390.87
408.34	461.09
408.54	407.25
408.73	409.59
408.92	400.23
409.11	402.57
409.30	454.06
409.49	362.78
409.68	400.23
409.87	430.66
410.07	437.68
410.26	341.72
410.45	376.83
410.64	461.09
410.83	337.04
411.02	376.83
411.21	444.70
411.40	376.83
411.59	390.87
411.78	386.19
411.98	414.27
412.17	381.51
412.36	390.87
412.55	493.85
412.74	355.76
412.93	435.34
413.12	362.78
413.31	416.62
413.50	407.25
413.69	383.85
413.88	496.19
414.07	381.51
414.26	397.89
414.45	402.57
414.64	433.00
414.83	428.32
415.02	477.47
415.22	423.64
415.41	472.79
415.60	306.61
415.79	409.59
415.98	393.21
416.17	365.12
416.36	287.89
416.55	383.85
416.74	451.72
416.93	404.91
417.12	416.62
417.31	400.23
417.50	402.57
417.69	425.98
417.88	437.68
418.07	407.25
418.26	465.77
418.45	416.62
418.64	493.85
418.83	428.32
419.02	388.53
419.21	400.23
419.39	449.38
419.58	339.38
419.77	386.19
419.96	397.89
420.15	425.98
420.34	337.04
420.53	440.02
420.72	435.34
420.91	425.98
421.10	404.91
421.29	407.25
421.48	388.53
421.67	409.59
421.86	433.00
422.05	479.81
422.24	409.59
422.43	388.53
422.61	411.93
422.80	430.66
422.99	418.96
423.18	404.91
423.37	449.38
423.56	388.53
423.75	442.36
423.94	444.70
424.13	430.66
424.32	372.15
424.50	393.21
424.69	414.27
424.88	437.68
425.07	451.72
425.26	451.72
425.45	433.00
425.64	400.23
425.83	430.66
426.01	479.81
426.20	430.66
426.39	421.30
426.58	379.17
426.77	472.79
426.96	411.93
427.15	390.87
427.33	379.17
427.52	423.64
427.71	465.77
427.90	458.74
428.09	407.25
428.28	425.98
428.46	374.49
428.65	430.66
428.84	381.51
429.03	454.06
429.22	402.57
429.40	400.23
429.59	395.55
429.78	442.36
429.97	393.21
430.16	409.59
430.34	386.19
430.53	421.30
430.72	418.96
430.91	428.32
431.10	360.44
431.28	386.19
431.47	493.85
431.66	430.66
431.85	440.02
432.03	433.00
432.22	521.94
432.41	402.57
432.60	456.40
432.79	449.38
432.97	463.43
433.16	365.12
433.35	435.34
433.54	430.66
433.72	451.72
433.91	369.80
434.10	390.87
434.28	421.30
434.47	465.77
434.66	383.85
434.85	386.19
435.03	414.27
435.22	404.91
435.41	397.89
435.59	353.42
435.78	428.32
435.97	435.34
436.16	449.38
436.34	346.40
436.53	416.62
436.72	409.59
436.90	397.89
437.09	430.66
437.28	400.23
437.46	409.59
437.65	404.91
437.84	407.25
438.02	404.91
438.21	435.34
438.40	437.68
438.58	304.27
438.77	472.79
438.96	414.27
439.14	358.10
439.33	475.13
439.52	351.08
439.70	517.26
439.89	440.02
440.08	372.15
440.26	430.66
440.45	430.66
440.63	418.96
440.82	421.30
441.01	414.27
441.19	451.72
441.38	386.19
441.57	433.00
441.75	470.45
441.94	381.51
442.12	367.46
442.31	416.62
442.50	418.96
442.68	451.72
442.87	411.93
443.05	365.12
443.24	388.53
443.43	475.13
443.61	505.56
443.80	402.57
443.98	353.42
444.17	423.64
444.35	428.32
444.54	454.06
444.73	381.51
444.91	484.49
445.10	442.36
445.28	386.19
445.47	491.51
445.65	409.59
445.84	433.00
446.02	341.72
446.21	414.27
446.39	433.00
446.58	393.21
446.77	409.59
446.95	416.62
447.14	411.93
447.32	430.66
447.51	500.87
447.69	458.74
447.88	430.66
448.06	486.83
448.25	472.79
448.43	414.27
448.62	367.46
448.80	372.15
448.99	498.53
449.17	376.83
449.36	423.64
449.54	407.25
449.73	411.93
449.91	407.25
450.10	437.68
450.28	447.04
450.46	489.17
450.65	404.91
450.83	428.32
451.02	418.96
451.20	447.04
451.39	423.64
451.57	411.93
451.76	409.59
451.94	435.34
452.13	421.30
452.31	470.45
452.49	414.27
452.68	435.34
452.86	414.27
453.05	437.68
453.23	400.23
453.42	475.13
453.60	428.32
453.78	442.36
453.97	381.51
454.15	400.23
454.34	430.66
454.52	442.36
454.70	383.85
454.89	416.62
455.07	435.34
455.26	416.62
455.44	428.32
455.62	369.80
455.81	367.46
455.99	400.23
456.17	418.96
456.36	425.98
456.54	482.15
456.73	437.68
456.91	397.89
457.09	463.43
457.28	456.40
457.46	407.25
457.64	451.72
457.83	376.83
458.01	435.34
458.19	433.00
458.38	433.00
458.56	447.04
458.74	351.08
458.93	472.79
459.11	440.02
459.29	393.21
459.48	468.11
459.66	461.09
459.84	435.34
460.03	505.56
460.21	472.79
460.39	463.43
460.57	435.34
460.76	461.09
460.94	435.34
461.12	475.13
461.31	447.04
461.49	435.34
461.67	374.49
461.85	435.34
462.04	388.53
462.22	823.87
462.40	423.64
462.59	381.51
462.77	407.25
462.95	433.00
463.13	421.30
463.32	390.87
463.50	411.93
463.68	362.78
463.86	351.08
464.05	404.91
464.23	472.79
464.41	393.21
464.59	365.12
464.78	348.74
464.96	440.02
465.14	367.46
465.32	440.02
465.50	458.74
465.69	437.68
465.87	395.55
466.05	440.02
466.23	456.40
466.41	337.04
466.60	409.59
466.78	386.19
466.96	402.57
467.14	456.40
467.32	463.43
467.51	430.66
467.69	510.24
467.87	491.51
468.05	456.40
468.23	472.79
468.41	402.57
468.60	454.06
468.78	376.83
468.96	442.36
469.14	433.00
469.32	372.15
469.50	463.43
469.69	470.45
469.87	496.19
470.05	486.83
470.23	456.40
470.41	388.53
470.59	402.57
470.77	428.32
470.95	484.49
471.14	414.27
471.32	327.68
471.50	465.77
471.68	449.38
471.86	411.93
472.04	423.64
472.22	442.36
472.40	416.62
472.58	421.30
472.77	369.80
472.95	440.02
473.13	486.83
473.31	456.40
473.49	409.59
473.67	369.80
473.85	475.13
474.03	365.12
474.21	430.66
474.39	449.38
474.57	421.30
474.75	433.00
474.93	407.25
475.12	374.49
475.30	470.45
475.48	461.09
475.66	493.85
475.84	353.42
476.02	348.74
476.20	393.21
476.38	435.34
476.56	461.09
476.74	374.49
476.92	440.02
477.10	372.15
477.28	362.78
477.46	447.04
477.64	449.38
477.82	407.25
478.00	409.59
478.18	353.42
478.36	407.25
478.54	322.99
478.72	355.76
478.90	379.17
479.08	449.38
479.26	390.87
479.44	433.00
479.62	437.68
479.80	451.72
479.98	397.89
480.16	379.17
480.34	390.87
480.52	440.02
480.70	404.91
480.88	367.46
481.06	397.89
481.24	407.25
481.41	444.70
481.59	379.17
481.77	435.34
481.95	491.51
482.13	425.98
482.31	414.27
482.49	407.25
482.67	430.66
482.85	425.98
483.03	390.87
483.21	447.04
483.39	433.00
483.57	477.47
483.74	402.57
483.92	390.87
484.10	388.53
484.28	423.64
484.46	479.81
484.64	327.68
484.82	454.06
485.00	369.80
485.18	447.04
485.35	381.51
485.53	379.17
485.71	435.34
485.89	440.02
486.07	517.26
486.25	477.47
486.43	428.32
486.61	477.47
486.78	372.15
486.96	393.21
487.14	416.62
487.32	322.99
487.50	409.59
487.68	458.74
487.85	409.59
488.03	407.25
488.21	414.27
488.39	437.68
488.57	458.74
488.75	421.30
488.92	477.47
489.10	435.34
489.28	472.79
489.46	367.46
489.64	372.15
489.81	395.55
489.99	437.68
490.17	402.57
490.35	400.23
490.53	454.06
490.70	484.49
490.88	423.64
491.06	400.23
491.24	461.09
491.41	374.49
491.59	437.68
491.77	376.83
491.95	351.08
492.13	397.89
492.30	374.49
492.48	362.78
492.66	430.66
492.84	472.79
493.01	468.11
493.19	407.25
493.37	425.98
493.54	503.22
493.72	442.36
493.90	379.17
494.08	444.70
494.25	409.59
494.43	402.57
494.61	484.49
494.79	369.80
494.96	421.30
495.14	493.85
495.32	369.80
495.49	379.17
495.67	365.12
495.85	400.23
496.02	353.42
496.20	402.57
496.38	489.17
496.55	388.53
496.73	416.62
496.91	379.17
497.09	402.57
497.26	456.40
497.44	393.21
497.62	444.70
497.79	425.98
497.97	477.47
498.14	430.66
498.32	397.89
498.50	376.83
498.67	381.51
498.85	421.30
499.03	322.99
499.20	365.12
499.38	367.46
499.56	411.93
499.73	470.45
499.91	482.15
500.08	393.21
500.26	372.15
500.44	400.23
500.61	442.36
500.79	416.62
500.97	449.38
501.14	418.96
501.32	407.25
501.49	514.92
501.67	442.36
501.84	458.74
502.02	367.46
502.20	390.87
502.37	433.00
502.55	444.70
502.72	369.80
502.90	437.68
503.07	404.91
503.25	463.43
503.43	390.87
503.60	444.70
503.78	390.87
503.95	402.57
504.13	397.89
504.30	461.09
504.48	383.85
504.65	468.11
504.83	416.62
505.01	447.04
505.18	379.17
505.36	404.91
505.53	400.23
505.71	358.10
505.88	383.85
506.06	442.36
506.23	393.21
506.41	400.23
506.58	496.19
506.76	411.93
506.93	400.23
507.11	355.76
507.28	358.10
507.46	388.53
507.63	451.72
507.81	421.30
507.98	418.96
508.16	369.80
508.33	482.15
508.50	442.36
508.68	472.79
508.85	374.49
509.03	451.72
509.20	486.83
509.38	442.36
509.55	468.11
509.73	435.34
509.90	444.70
510.08	409.59
510.25	400.23
510.42	435.34
510.60	386.19
510.77	409.59
510.95	395.55
511.12	388.53
511.30	379.17
511.47	418.96
511.64	449.38
511.82	421.30
511.99	334.70
512.17	395.55
512.34	454.06
512.51	346.40
512.69	372.15
512.86	395.55
513.04	402.57
513.21	383.85
513.38	362.78
513.56	409.59
513.73	374.49
513.90	414.27
514.08	397.89
514.25	376.83
514.43	400.23
514.60	409.59
514.77	344.06
514.95	353.42
515.12	365.12
515.29	479.81
515.47	451.72
515.64	400.23
515.81	374.49
515.99	404.91
516.16	465.77
516.33	477.47
516.51	400.23
516.68	430.66
516.85	381.51
517.03	451.72
517.20	425.98
517.37	365.12
517.54	456.40
517.72	386.19
517.89	353.42
518.06	365.12
518.24	430.66
518.41	454.06
518.58	421.30
518.75	402.57
518.93	407.25
519.10	383.85
519.27	414.27
519.45	430.66
519.62	454.06
519.79	346.40
519.96	442.36
520.14	386.19
520.31	407.25
520.48	409.59
520.65	444.70
520.83	463.43
521.00	404.91
521.17	451.72
521.34	379.17
521.52	404.91
521.69	468.11
521.86	475.13
522.03	519.60
522.20	440.02
522.38	423.64
522.55	454.06
522.72	409.59
522.89	355.76
523.07	444.70
523.24	425.98
523.41	430.66
523.58	428.32
523.75	418.96
523.92	444.70
524.10	428.32
524.27	433.00
524.44	463.43
524.61	353.42
524.78	425.98
524.96	402.57
525.13	465.77
525.30	484.49
525.47	451.72
525.64	425.98
525.81	407.25
525.98	414.27
526.16	360.44
526.33	397.89
526.50	390.87
526.67	355.76
526.84	433.00
527.01	454.06
527.18	421.30
527.36	421.30
527.53	379.17
527.70	454.06
527.87	472.79
528.04	482.15
528.21	374.49
528.38	444.70
528.55	477.47
528.72	442.36
528.89	402.57
529.07	334.70
529.24	346.40
529.41	437.68
529.58	470.45
529.75	442.36
529.92	440.02
530.09	414.27
530.26	369.80
530.43	369.80
530.60	425.98
530.77	411.93
530.94	402.57
531.11	486.83
531.28	414.27
531.46	421.30
531.63	454.06
531.80	435.34
531.97	418.96
532.14	351.08
532.31	496.19
532.48	430.66
532.65	418.96
532.82	440.02
532.99	376.83
533.16	379.17
533.33	440.02
533.50	344.06
533.67	421.30
533.84	376.83
534.01	482.15
534.18	400.23
534.35	404.91
534.52	358.10
534.69	365.12
534.86	449.38
535.03	491.51
535.20	484.49
535.37	425.98
535.54	423.64
535.71	423.64
535.88	425.98
536.05	397.89
536.22	346.40
536.38	353.42
536.55	365.12
536.72	444.70
536.89	407.25
537.06	418.96
537.23	418.96
537.40	372.15
537.57	330.02
537.74	409.59
537.91	353.42
538.08	393.21
538.25	437.68
538.42	430.66
538.59	433.00
538.75	482.15
538.92	423.64
539.09	411.93
539.26	465.77
539.43	505.56
539.60	362.78
539.77	372.15
539.94	411.93
540.11	400.23
540.28	517.26
540.44	386.19
540.61	447.04
540.78	402.57
540.95	456.40
541.12	470.45
541.29	414.27
541.46	454.06
541.62	421.30
541.79	383.85
541.96	425.98
542.13	390.87
542.30	442.36
542.47	414.27
542.63	421.30
542.80	472.79
542.97	447.04
543.14	372.15
543.31	475.13
543.48	404.91
543.64	500.87
543.81	376.83
543.98	386.19
544.15	376.83
544.32	437.68
544.48	393.21
544.65	386.19
544.82	416.62
544.99	430.66
545.16	425.98
545.32	411.93
545.49	430.66
545.66	461.09
545.83	397.89
546.00	421.30
546.16	414.27
546.33	425.98
546.50	418.96
546.67	454.06
546.83	440.02
547.00	442.36
547.17	381.51
547.34	484.49
547.50	414.27
547.67	414.27
547.84	400.23
548.00	437.68
548.17	423.64
548.34	430.66
548.51	425.98
548.67	428.32
548.84	393.21
549.01	411.93
549.18	404.91
549.34	435.34
549.51	456.40
549.68	465.77
549.84	475.13
550.01	437.68
550.18	477.47
550.34	486.83
550.51	423.64
550.68	440.02
550.84	360.44
551.01	290.23
551.18	456.40
551.34	456.40
551.51	458.74
551.68	411.93
551.84	484.49
552.01	463.43
552.18	437.68
552.34	540.66
552.51	397.89
552.68	454.06
552.84	428.32
553.01	423.64
553.18	423.64
553.34	472.79
553.51	393.21
553.67	440.02
553.84	451.72
554.01	372.15
554.17	402.57
554.34	444.70
554.51	388.53
554.67	447.04
554.84	461.09
555.00	390.87
555.17	425.98
555.33	433.00
555.50	440.02
555.67	437.68
555.83	421.30
556.00	470.45
556.16	566.41
556.33	444.70
556.50	442.36
556.66	435.34
556.83	395.55
556.99	360.44
557.16	402.57
557.32	381.51
557.49	447.04
557.65	482.15
557.82	465.77
557.98	451.72
558.15	425.98
558.32	407.25
558.48	449.38
558.65	437.68
558.81	470.45
558.98	451.72
559.14	463.43
559.31	414.27
559.47	423.64
559.64	383.85
559.80	423.64
559.97	486.83
560.13	402.57
560.30	402.57
560.46	440.02
560.63	454.06
560.79	430.66
560.96	379.17
561.12	386.19
561.29	428.32
561.45	430.66
561.61	430.66
561.78	484.49
561.94	477.47
562.11	355.76
562.27	493.85
562.44	395.55
562.60	418.96
562.77	477.47
562.93	447.04
563.10	423.64
563.26	416.62
563.42	435.34
563.59	458.74
563.75	360.44
563.92	397.89
564.08	416.62
564.24	407.25
564.41	437.68
564.57	397.89
564.74	444.70
564.90	449.38
565.07	461.09
565.23	477.47
565.39	484.49
565.56	454.06
565.72	411.93
565.88	414.27
566.05	376.83
566.21	348.74
566.38	423.64
566.54	444.70
566.70	386.19
566.87	470.45
567.03	486.83
567.19	411.93
567.36	418.96
567.52	416.62
567.68	440.02
567.85	430.66
568.01	425.98
568.17	395.55
568.34	423.64
568.50	418.96
568.66	386.19
568.83	461.09
568.99	407.25
569.15	437.68
569.32	360.44
569.48	442.36
569.64	376.83
569.81	411.93
569.97	425.98
570.13	514.92
570.30	468.11
570.46	369.80
570.62	451.72
570.78	423.64
570.95	400.23
571.11	411.93
571.27	468.11
571.43	458.74
571.60	430.66
571.76	388.53
571.92	444.70
572.09	425.98
572.25	362.78
572.41	428.32
572.57	423.64
572.74	369.80
572.90	369.80
573.06	486.83
573.22	500.87
573.38	425.98
573.55	409.59
573.71	393.21
573.87	437.68
574.03	381.51
574.20	418.96
574.36	358.10
574.52	395.55
574.68	423.64
574.84	381.51
575.01	407.25
575.17	461.09
575.33	430.66
575.49	416.62
575.65	411.93
575.82	433.00
575.98	423.64
576.14	393.21
576.30	477.47
576.46	372.15
576.62	416.62
576.79	433.00
576.95	411.93
577.11	456.40
577.27	372.15
577.43	444.70
577.59	477.47
577.75	379.17
577.92	388.53
578.08	425.98
578.24	482.15
578.40	360.44
578.56	484.49
578.72	503.22
578.88	442.36
579.04	440.02
579.21	411.93
579.37	447.04
579.53	411.93
579.69	395.55
579.85	409.59
580.01	449.38
580.17	421.30
580.33	425.98
580.49	414.27
580.65	461.09
580.82	402.57
580.98	369.80
581.14	409.59
581.30	444.70
581.46	400.23
581.62	402.57
581.78	428.32
581.94	435.34
582.10	449.38
582.26	383.85
582.42	435.34
582.58	416.62
582.74	447.04
582.90	447.04
583.06	458.74
583.22	423.64
583.38	411.93
583.54	344.06
583.70	423.64
583.86	475.13
584.02	442.36
584.18	461.09
584.34	381.51
584.50	390.87
584.66	482.15
584.82	397.89
584.98	428.32
585.14	362.78
585.30	425.98
585.46	428.32
585.62	423.64
585.78	421.30
585.94	421.30
586.10	463.43
586.26	407.25
586.42	465.77
586.58	374.49
586.74	458.74
586.90	372.15
587.06	423.64
587.22	433.00
587.38	418.96
587.54	388.53
587.70	416.62
587.86	514.92
588.02	456.40
588.18	430.66
588.34	512.58
588.49	411.93
588.65	468.11
588.81	404.91
588.97	414.27
589.13	411.93
589.29	395.55
589.45	449.38
589.61	407.25
589.77	451.72
589.93	465.77
590.08	407.25
590.24	447.04
590.40	430.66
590.56	397.89
590.72	416.62
590.88	456.40
591.04	351.08
591.20	397.89
591.35	320.65
591.51	386.19
591.67	400.23
591.83	372.15
591.99	510.24
592.15	327.68
592.31	379.17
592.46	416.62
592.62	386.19
592.78	395.55
592.94	493.85
593.10	477.47
593.26	433.00
593.41	425.98
593.57	496.19
593.73	430.66
593.89	458.74
594.05	414.27
594.20	463.43
594.36	393.21
594.52	395.55
594.68	362.78
594.84	418.96
594.99	430.66
595.15	437.68
595.31	472.79
595.47	456.40
595.62	517.26
595.78	449.38
595.94	383.85
596.10	472.79
596.25	421.30
596.41	461.09
596.57	435.34
596.73	435.34
596.88	407.25
597.04	332.36
597.20	395.55
597.36	418.96
597.51	461.09
597.67	435.34
597.83	454.06
597.99	435.34
598.14	428.32
598.30	425.98
598.46	400.23
598.61	433.00
598.77	369.80
598.93	435.34
599.09	421.30
599.24	468.11
599.40	449.38
599.56	397.89
599.71	372.15
599.87	456.40
600.03	407.25
600.18	402.57
600.34	423.64
600.50	456.40
600.65	423.64
600.81	376.83
600.97	433.00
601.12	456.40
601.28	442.36
601.44	435.34
601.59	451.72
601.75	414.27
601.91	435.34
602.06	341.72
602.22	374.49
602.37	463.43
602.53	395.55
602.69	390.87
602.84	388.53
603.00	311.29
603.16	444.70
603.31	367.46
603.47	493.85
603.62	388.53
603.78	482.15
603.94	491.51
604.09	463.43
604.25	379.17
604.40	416.62
604.56	430.66
604.71	390.87
604.87	404.91
605.03	430.66
605.18	449.38
605.34	418.96
605.49	411.93
605.65	414.27
605.80	367.46
605.96	447.04
606.12	411.93
606.27	411.93
606.43	379.17
606.58	465.77
606.74	409.59
606.89	442.36
607.05	381.51
607.20	421.30
607.36	433.00
607.51	409.59
607.67	463.43
607.82	400.23
607.98	458.74
608.13	404.91
608.29	374.49
608.44	421.30
608.60	482.15
608.75	411.93
608.91	407.25
609.06	407.25
609.22	510.24
609.37	388.53
609.53	428.32
609.68	409.59
609.84	414.27
609.99	465.77
610.15	390.87
