SpectraSuite Data File
++++++++++++++++++++++++++++++++++++
Date: Fri Oct 25 12:11:42 EDT 2013
User: price-jones
Dark Spectrum Present: No
Reference Spectrum Present: No
Number of Sampled Component Spectra: 1
Spectrometers: USB2+H05261
Integration Time (usec): 100000 (USB2+H05261)
Spectra Averaged: 1 (USB2+H05261)
Boxcar Smoothing: 0 (USB2+H05261)
Correct for Electrical Dark: No (USB2+H05261)
Strobe/Lamp Enabled: No (USB2+H05261)
Correct for Detector Non-linearity: No (USB2+H05261)
Correct for Stray Light: No (USB2+H05261)
Number of Pixels in Processed Spectrum: 2048
>>>>>Begin Processed Spectral Data<<<<<
365.73	318.31
365.92	318.31
366.12	318.31
366.32	294.91
366.52	220.01
366.72	236.39
366.91	208.31
367.11	292.57
367.31	250.44
367.51	196.60
367.70	198.95
367.90	292.57
368.10	220.01
368.30	252.78
368.49	252.78
368.69	208.31
368.89	236.39
369.09	313.63
369.28	311.29
369.48	290.23
369.68	264.48
369.87	283.20
370.07	334.70
370.27	374.49
370.47	332.36
370.66	306.61
370.86	341.72
371.06	348.74
371.25	440.02
371.45	287.89
371.65	390.87
371.84	458.74
372.04	388.53
372.24	381.51
372.44	365.12
372.63	414.27
372.83	430.66
373.03	449.38
373.22	362.78
373.42	372.15
373.62	332.36
373.81	463.43
374.01	440.02
374.21	400.23
374.40	447.04
374.60	456.40
374.79	414.27
374.99	407.25
375.19	425.98
375.38	468.11
375.58	463.43
375.78	437.68
375.97	472.79
376.17	404.91
376.37	409.59
376.56	449.38
376.76	374.49
376.95	341.72
377.15	379.17
377.35	395.55
377.54	461.09
377.74	416.62
377.93	423.64
378.13	444.70
378.33	484.49
378.52	407.25
378.72	442.36
378.91	472.79
379.11	409.59
379.31	430.66
379.50	404.91
379.70	479.81
379.89	470.45
380.09	397.89
380.28	414.27
380.48	365.12
380.68	407.25
380.87	428.32
381.07	425.98
381.26	437.68
381.46	421.30
381.65	411.93
381.85	411.93
382.04	423.64
382.24	369.80
382.43	418.96
382.63	362.78
382.83	407.25
383.02	414.27
383.22	423.64
383.41	351.08
383.61	393.21
383.80	407.25
384.00	411.93
384.19	423.64
384.39	458.74
384.58	390.87
384.78	423.64
384.97	454.06
385.17	386.19
385.36	355.76
385.56	400.23
385.75	365.12
385.95	437.68
386.14	444.70
386.34	414.27
386.53	381.51
386.72	367.46
386.92	475.13
387.11	433.00
387.31	428.32
387.50	393.21
387.70	402.57
387.89	376.83
388.09	414.27
388.28	337.04
388.48	374.49
388.67	477.47
388.86	428.32
389.06	341.72
389.25	388.53
389.45	458.74
389.64	374.49
389.84	351.08
390.03	411.93
390.22	423.64
390.42	404.91
390.61	388.53
390.81	388.53
391.00	407.25
391.19	421.30
391.39	409.59
391.58	381.51
391.78	346.40
391.97	411.93
392.16	409.59
392.36	442.36
392.55	468.11
392.75	479.81
392.94	409.59
393.13	425.98
393.33	374.49
393.52	421.30
393.71	421.30
393.91	458.74
394.10	425.98
394.29	383.85
394.49	409.59
394.68	404.91
394.88	393.21
395.07	404.91
395.26	470.45
395.46	367.46
395.65	440.02
395.84	409.59
396.04	451.72
396.23	374.49
396.42	456.40
396.62	444.70
396.81	372.15
397.00	332.36
397.19	418.96
397.39	465.77
397.58	444.70
397.77	444.70
397.97	355.76
398.16	386.19
398.35	369.80
398.55	344.06
398.74	400.23
398.93	442.36
399.12	386.19
399.32	423.64
399.51	360.44
399.70	402.57
399.90	383.85
400.09	454.06
400.28	388.53
400.47	390.87
400.67	493.85
400.86	414.27
401.05	414.27
401.24	383.85
401.44	395.55
401.63	451.72
401.82	397.89
402.01	458.74
402.21	400.23
402.40	468.11
402.59	365.12
402.78	318.31
402.97	461.09
403.17	386.19
403.36	411.93
403.55	430.66
403.74	491.51
403.93	409.59
404.13	367.46
404.32	393.21
404.51	428.32
404.70	407.25
404.89	400.23
405.09	409.59
405.28	472.79
405.47	409.59
405.66	449.38
405.85	472.79
406.05	433.00
406.24	367.46
406.43	369.80
406.62	503.22
406.81	458.74
407.00	425.98
407.20	411.93
407.39	402.57
407.58	369.80
407.77	397.89
407.96	411.93
408.15	414.27
408.34	386.19
408.54	435.34
408.73	411.93
408.92	430.66
409.11	433.00
409.30	400.23
409.49	428.32
409.68	444.70
409.87	416.62
410.07	414.27
410.26	407.25
410.45	454.06
410.64	444.70
410.83	351.08
411.02	376.83
411.21	440.02
411.40	397.89
411.59	407.25
411.78	402.57
411.98	372.15
412.17	440.02
412.36	346.40
412.55	435.34
412.74	418.96
412.93	390.87
413.12	416.62
413.31	458.74
413.50	435.34
413.69	337.04
413.88	521.94
414.07	425.98
414.26	390.87
414.45	346.40
414.64	430.66
414.83	451.72
415.02	397.89
415.22	409.59
415.41	484.49
415.60	493.85
415.79	369.80
415.98	444.70
416.17	461.09
416.36	383.85
416.55	388.53
416.74	411.93
416.93	449.38
417.12	320.65
417.31	383.85
417.50	404.91
417.69	414.27
417.88	465.77
418.07	355.76
418.26	440.02
418.45	344.06
418.64	447.04
418.83	388.53
419.02	390.87
419.21	369.80
419.39	376.83
419.58	435.34
419.77	383.85
419.96	447.04
420.15	486.83
420.34	344.06
420.53	353.42
420.72	388.53
420.91	351.08
421.10	355.76
421.29	369.80
421.48	416.62
421.67	339.38
421.86	365.12
422.05	388.53
422.24	407.25
422.43	395.55
422.61	393.21
422.80	397.89
422.99	355.76
423.18	414.27
423.37	428.32
423.56	421.30
423.75	390.87
423.94	351.08
424.13	430.66
424.32	421.30
424.50	416.62
424.69	351.08
424.88	440.02
425.07	383.85
425.26	383.85
425.45	433.00
425.64	437.68
425.83	402.57
426.01	381.51
426.20	379.17
426.39	404.91
426.58	367.46
426.77	435.34
426.96	376.83
427.15	393.21
427.33	404.91
427.52	442.36
427.71	433.00
427.90	402.57
428.09	409.59
428.28	395.55
428.46	355.76
428.65	393.21
428.84	402.57
429.03	479.81
429.22	397.89
429.40	451.72
429.59	440.02
429.78	440.02
429.97	423.64
430.16	442.36
430.34	409.59
430.53	411.93
430.72	395.55
430.91	402.57
431.10	355.76
431.28	383.85
431.47	421.30
431.66	390.87
431.85	463.43
432.03	367.46
432.22	545.34
432.41	374.49
432.60	409.59
432.79	381.51
432.97	437.68
433.16	428.32
433.35	383.85
433.54	390.87
433.72	444.70
433.91	437.68
434.10	414.27
434.28	416.62
434.47	339.38
434.66	435.34
434.85	402.57
435.03	400.23
435.22	440.02
435.41	519.60
435.59	360.44
435.78	388.53
435.97	458.74
436.16	397.89
436.34	449.38
436.53	442.36
436.72	458.74
436.90	414.27
437.09	397.89
437.28	425.98
437.46	372.15
437.65	369.80
437.84	397.89
438.02	402.57
438.21	442.36
438.40	390.87
438.58	404.91
438.77	376.83
438.96	411.93
439.14	318.31
439.33	444.70
439.52	404.91
439.70	428.32
439.89	418.96
440.08	407.25
440.26	360.44
440.45	463.43
440.63	425.98
440.82	433.00
441.01	388.53
441.19	440.02
441.38	365.12
441.57	360.44
441.75	442.36
441.94	430.66
442.12	397.89
442.31	456.40
442.50	400.23
442.68	442.36
442.87	386.19
443.05	428.32
443.24	388.53
443.43	484.49
443.61	442.36
443.80	465.77
443.98	379.17
444.17	409.59
444.35	435.34
444.54	430.66
444.73	442.36
444.91	440.02
445.10	414.27
445.28	416.62
445.47	444.70
445.65	374.49
445.84	404.91
446.02	451.72
446.21	456.40
446.39	414.27
446.58	421.30
446.77	367.46
446.95	341.72
447.14	416.62
447.32	440.02
447.51	372.15
447.69	395.55
447.88	386.19
448.06	407.25
448.25	470.45
448.43	376.83
448.62	353.42
448.80	456.40
448.99	447.04
449.17	339.38
449.36	376.83
449.54	421.30
449.73	337.04
449.91	381.51
450.10	428.32
450.28	479.81
450.46	491.51
450.65	386.19
450.83	409.59
451.02	393.21
451.20	456.40
451.39	400.23
451.57	388.53
451.76	421.30
451.94	416.62
452.13	395.55
452.31	351.08
452.49	425.98
452.68	372.15
452.86	402.57
453.05	449.38
453.23	463.43
453.42	440.02
453.60	390.87
453.78	435.34
453.97	411.93
454.15	390.87
454.34	332.36
454.52	367.46
454.70	411.93
454.89	423.64
455.07	393.21
455.26	397.89
455.44	428.32
455.62	367.46
455.81	433.00
455.99	444.70
456.17	388.53
456.36	440.02
456.54	320.65
456.73	339.38
456.91	428.32
457.09	365.12
457.28	465.77
457.46	451.72
457.64	433.00
457.83	400.23
458.01	433.00
458.19	388.53
458.38	381.51
458.56	383.85
458.74	407.25
458.93	362.78
459.11	442.36
459.29	437.68
459.48	433.00
459.66	404.91
459.84	411.93
460.03	535.98
460.21	449.38
460.39	411.93
460.57	421.30
460.76	414.27
460.94	430.66
461.12	442.36
461.31	440.02
461.49	400.23
461.67	374.49
461.85	358.10
462.04	451.72
462.22	781.74
462.40	440.02
462.59	423.64
462.77	358.10
462.95	393.21
463.13	407.25
463.32	397.89
463.50	430.66
463.68	358.10
463.86	379.17
464.05	411.93
464.23	454.06
464.41	449.38
464.59	376.83
464.78	355.76
464.96	414.27
465.14	388.53
465.32	374.49
465.50	425.98
465.69	379.17
465.87	388.53
466.05	468.11
466.23	393.21
466.41	472.79
466.60	348.74
466.78	411.93
466.96	400.23
467.14	447.04
467.32	388.53
467.51	407.25
467.69	395.55
467.87	414.27
468.05	416.62
468.23	353.42
468.41	372.15
468.60	383.85
468.78	411.93
468.96	472.79
469.14	477.47
469.32	451.72
469.50	496.19
469.69	472.79
469.87	416.62
470.05	444.70
470.23	465.77
470.41	383.85
470.59	479.81
470.77	395.55
470.95	463.43
471.14	428.32
471.32	435.34
471.50	334.70
471.68	414.27
471.86	379.17
472.04	463.43
472.22	397.89
472.40	418.96
472.58	360.44
472.77	421.30
472.95	425.98
473.13	461.09
473.31	428.32
473.49	437.68
473.67	437.68
473.85	472.79
474.03	397.89
474.21	400.23
474.39	458.74
474.57	514.92
474.75	447.04
474.93	337.04
475.12	381.51
475.30	388.53
475.48	454.06
475.66	430.66
475.84	437.68
476.02	372.15
476.20	503.22
476.38	353.42
476.56	493.85
476.74	477.47
476.92	365.12
477.10	435.34
477.28	454.06
477.46	425.98
477.64	470.45
477.82	404.91
478.00	400.23
478.18	461.09
478.36	388.53
478.54	360.44
478.72	397.89
478.90	430.66
479.08	447.04
479.26	421.30
479.44	388.53
479.62	374.49
479.80	308.95
479.98	381.51
480.16	294.91
480.34	393.21
480.52	411.93
480.70	407.25
480.88	442.36
481.06	421.30
481.24	379.17
481.41	440.02
481.59	454.06
481.77	402.57
481.95	428.32
482.13	444.70
482.31	423.64
482.49	372.15
482.67	376.83
482.85	521.94
483.03	428.32
483.21	435.34
483.39	404.91
483.57	463.43
483.74	465.77
483.92	477.47
484.10	386.19
484.28	390.87
484.46	526.62
484.64	428.32
484.82	437.68
485.00	428.32
485.18	409.59
485.35	416.62
485.53	407.25
485.71	444.70
485.89	468.11
486.07	461.09
486.25	470.45
486.43	386.19
486.61	468.11
486.78	433.00
486.96	351.08
487.14	404.91
487.32	393.21
487.50	358.10
487.68	486.83
487.85	372.15
488.03	489.17
488.21	407.25
488.39	395.55
488.57	379.17
488.75	362.78
488.92	477.47
489.10	418.96
489.28	433.00
489.46	428.32
489.64	465.77
489.81	444.70
489.99	372.15
490.17	404.91
490.35	451.72
490.53	372.15
490.70	421.30
490.88	440.02
491.06	477.47
491.24	409.59
491.41	461.09
491.59	437.68
491.77	425.98
491.95	449.38
492.13	416.62
492.30	397.89
492.48	411.93
492.66	418.96
492.84	418.96
493.01	433.00
493.19	397.89
493.37	440.02
493.54	397.89
493.72	404.91
493.90	397.89
494.08	433.00
494.25	362.78
494.43	423.64
494.61	386.19
494.79	388.53
494.96	411.93
495.14	395.55
495.32	393.21
495.49	379.17
495.67	447.04
495.85	440.02
496.02	383.85
496.20	397.89
496.38	437.68
496.55	461.09
496.73	514.92
496.91	447.04
497.09	425.98
497.26	437.68
497.44	386.19
497.62	414.27
497.79	379.17
497.97	393.21
498.14	465.77
498.32	477.47
498.50	428.32
498.67	444.70
498.85	461.09
499.03	407.25
499.20	421.30
499.38	475.13
499.56	395.55
499.73	470.45
499.91	442.36
500.08	437.68
500.26	425.98
500.44	365.12
500.61	376.83
500.79	369.80
500.97	428.32
501.14	451.72
501.32	395.55
501.49	489.17
501.67	486.83
501.84	383.85
502.02	421.30
502.20	479.81
502.37	437.68
502.55	442.36
502.72	407.25
502.90	402.57
503.07	465.77
503.25	472.79
503.43	430.66
503.60	451.72
503.78	468.11
503.95	411.93
504.13	402.57
504.30	444.70
504.48	404.91
504.65	498.53
504.83	386.19
505.01	376.83
505.18	458.74
505.36	339.38
505.53	440.02
505.71	416.62
505.88	479.81
506.06	369.80
506.23	433.00
506.41	402.57
506.58	456.40
506.76	381.51
506.93	505.56
507.11	414.27
507.28	376.83
507.46	400.23
507.63	489.17
507.81	414.27
507.98	397.89
508.16	362.78
508.33	454.06
508.50	447.04
508.68	430.66
508.85	397.89
509.03	421.30
509.20	442.36
509.38	421.30
509.55	418.96
509.73	414.27
509.90	468.11
510.08	395.55
510.25	479.81
510.42	376.83
510.60	404.91
510.77	442.36
510.95	451.72
511.12	402.57
511.30	383.85
511.47	402.57
511.64	489.17
511.82	423.64
511.99	425.98
512.17	428.32
512.34	397.89
512.51	409.59
512.69	402.57
512.86	456.40
513.04	395.55
513.21	489.17
513.38	442.36
513.56	390.87
513.73	407.25
513.90	388.53
514.08	348.74
514.25	402.57
514.43	435.34
514.60	388.53
514.77	409.59
514.95	468.11
515.12	379.17
515.29	428.32
515.47	341.72
515.64	479.81
515.81	454.06
515.99	414.27
516.16	470.45
516.33	447.04
516.51	388.53
516.68	325.33
516.85	365.12
517.03	423.64
517.20	444.70
517.37	386.19
517.54	486.83
517.72	435.34
517.89	449.38
518.06	379.17
518.24	447.04
518.41	372.15
518.58	397.89
518.75	411.93
518.93	386.19
519.10	463.43
519.27	444.70
519.45	381.51
519.62	402.57
519.79	390.87
519.96	346.40
520.14	418.96
520.31	465.77
520.48	334.70
520.65	395.55
520.83	435.34
521.00	449.38
521.17	449.38
521.34	416.62
521.52	351.08
521.69	428.32
521.86	437.68
522.03	458.74
522.20	402.57
522.38	407.25
522.55	430.66
522.72	435.34
522.89	416.62
523.07	482.15
523.24	418.96
523.41	463.43
523.58	458.74
523.75	367.46
523.92	388.53
524.10	447.04
524.27	367.46
524.44	498.53
524.61	463.43
524.78	418.96
524.96	463.43
525.13	428.32
525.30	517.26
525.47	400.23
525.64	390.87
525.81	383.85
525.98	456.40
526.16	414.27
526.33	383.85
526.50	444.70
526.67	341.72
526.84	440.02
527.01	379.17
527.18	477.47
527.36	407.25
527.53	386.19
527.70	322.99
527.87	465.77
528.04	486.83
528.21	425.98
528.38	484.49
528.55	390.87
528.72	447.04
528.89	475.13
529.07	409.59
529.24	393.21
529.41	449.38
529.58	461.09
529.75	442.36
529.92	404.91
530.09	344.06
530.26	383.85
530.43	418.96
530.60	376.83
530.77	425.98
530.94	435.34
531.11	430.66
531.28	381.51
531.46	428.32
531.63	479.81
531.80	447.04
531.97	519.60
532.14	411.93
532.31	491.51
532.48	444.70
532.65	435.34
532.82	372.15
532.99	414.27
533.16	397.89
533.33	423.64
533.50	388.53
533.67	404.91
533.84	493.85
534.01	351.08
534.18	440.02
534.35	451.72
534.52	461.09
534.69	367.46
534.86	440.02
535.03	402.57
535.20	456.40
535.37	454.06
535.54	334.70
535.71	376.83
535.88	425.98
536.05	425.98
536.22	477.47
536.38	393.21
536.55	411.93
536.72	463.43
536.89	440.02
537.06	372.15
537.23	463.43
537.40	411.93
537.57	388.53
537.74	430.66
537.91	484.49
538.08	414.27
538.25	425.98
538.42	428.32
538.59	381.51
538.75	395.55
538.92	407.25
539.09	437.68
539.26	465.77
539.43	454.06
539.60	369.80
539.77	395.55
539.94	407.25
540.11	465.77
540.28	461.09
540.44	437.68
540.61	395.55
540.78	388.53
540.95	372.15
541.12	444.70
541.29	379.17
541.46	547.69
541.62	440.02
541.79	397.89
541.96	440.02
542.13	433.00
542.30	479.81
542.47	491.51
542.63	442.36
542.80	444.70
542.97	479.81
543.14	395.55
543.31	437.68
543.48	395.55
543.64	400.23
543.81	379.17
543.98	418.96
544.15	409.59
544.32	374.49
544.48	451.72
544.65	454.06
544.82	421.30
544.99	418.96
545.16	418.96
545.32	386.19
545.49	383.85
545.66	334.70
545.83	428.32
546.00	390.87
546.16	430.66
546.33	400.23
546.50	440.02
546.67	493.85
546.83	409.59
547.00	409.59
547.17	383.85
547.34	500.87
547.50	409.59
547.67	456.40
547.84	397.89
548.00	404.91
548.17	383.85
548.34	407.25
548.51	486.83
548.67	442.36
548.84	437.68
549.01	360.44
549.18	482.15
549.34	435.34
549.51	437.68
549.68	477.47
549.84	355.76
550.01	388.53
550.18	489.17
550.34	573.43
550.51	463.43
550.68	463.43
550.84	430.66
551.01	400.23
551.18	440.02
551.34	423.64
551.51	418.96
551.68	458.74
551.84	381.51
552.01	423.64
552.18	390.87
552.34	496.19
552.51	435.34
552.68	423.64
552.84	458.74
553.01	428.32
553.18	428.32
553.34	411.93
553.51	327.68
553.67	418.96
553.84	477.47
554.01	456.40
554.17	409.59
554.34	393.21
554.51	416.62
554.67	500.87
554.84	477.47
555.00	479.81
555.17	463.43
555.33	390.87
555.50	458.74
555.67	475.13
555.83	404.91
556.00	468.11
556.16	552.37
556.33	458.74
556.50	362.78
556.66	416.62
556.83	397.89
556.99	425.98
557.16	463.43
557.32	433.00
557.49	470.45
557.65	430.66
557.82	341.72
557.98	376.83
558.15	395.55
558.32	472.79
558.48	477.47
558.65	416.62
558.81	414.27
558.98	383.85
559.14	454.06
559.31	402.57
559.47	461.09
559.64	341.72
559.80	421.30
559.97	393.21
560.13	425.98
560.30	411.93
560.46	421.30
560.63	416.62
560.79	383.85
560.96	451.72
561.12	395.55
561.29	407.25
561.45	472.79
561.61	447.04
561.78	489.17
561.94	411.93
562.11	395.55
562.27	423.64
562.44	395.55
562.60	376.83
562.77	346.40
562.93	442.36
563.10	397.89
563.26	444.70
563.42	463.43
563.59	444.70
563.75	437.68
563.92	411.93
564.08	430.66
564.24	367.46
564.41	430.66
564.57	433.00
564.74	454.06
564.90	404.91
565.07	463.43
565.23	465.77
565.39	411.93
565.56	425.98
565.72	379.17
565.88	390.87
566.05	423.64
566.21	369.80
566.38	414.27
566.54	386.19
566.70	430.66
566.87	418.96
567.03	386.19
567.19	440.02
567.36	337.04
567.52	421.30
567.68	411.93
567.85	442.36
568.01	400.23
568.17	404.91
568.34	423.64
568.50	458.74
568.66	468.11
568.83	440.02
568.99	442.36
569.15	407.25
569.32	395.55
569.48	435.34
569.64	407.25
569.81	393.21
569.97	400.23
570.13	479.81
570.30	339.38
570.46	416.62
570.62	503.22
570.78	376.83
570.95	395.55
571.11	470.45
571.27	411.93
571.43	379.17
571.60	416.62
571.76	498.53
571.92	418.96
572.09	379.17
572.25	442.36
572.41	411.93
572.57	440.02
572.74	512.58
572.90	390.87
573.06	416.62
573.22	395.55
573.38	400.23
573.55	440.02
573.71	435.34
573.87	423.64
574.03	400.23
574.20	390.87
574.36	447.04
574.52	397.89
574.68	411.93
574.84	442.36
575.01	358.10
575.17	404.91
575.33	451.72
575.49	393.21
575.65	355.76
575.82	397.89
575.98	454.06
576.14	444.70
576.30	411.93
576.46	400.23
576.62	421.30
576.79	479.81
576.95	475.13
577.11	355.76
577.27	409.59
577.43	390.87
577.59	489.17
577.75	442.36
577.92	421.30
578.08	444.70
578.24	433.00
578.40	416.62
578.56	400.23
578.72	402.57
578.88	404.91
579.04	489.17
579.21	435.34
579.37	407.25
579.53	353.42
579.69	358.10
579.85	470.45
580.01	433.00
580.17	454.06
580.33	442.36
580.49	477.47
580.65	400.23
580.82	397.89
580.98	400.23
581.14	395.55
581.30	440.02
581.46	390.87
581.62	437.68
581.78	409.59
581.94	409.59
582.10	388.53
582.26	390.87
582.42	477.47
582.58	369.80
582.74	374.49
582.90	428.32
583.06	482.15
583.22	425.98
583.38	407.25
583.54	409.59
583.70	435.34
583.86	451.72
584.02	463.43
584.18	451.72
584.34	433.00
584.50	390.87
584.66	409.59
584.82	461.09
584.98	435.34
585.14	372.15
585.30	507.90
585.46	425.98
585.62	482.15
585.78	360.44
585.94	475.13
586.10	430.66
586.26	498.53
586.42	470.45
586.58	421.30
586.74	379.17
586.90	437.68
587.06	456.40
587.22	449.38
587.38	507.90
587.54	372.15
587.70	423.64
587.86	414.27
588.02	400.23
588.18	416.62
588.34	411.93
588.49	404.91
588.65	451.72
588.81	479.81
588.97	416.62
589.13	526.62
589.29	425.98
589.45	463.43
589.61	379.17
589.77	454.06
589.93	425.98
590.08	489.17
590.24	383.85
590.40	430.66
590.56	465.77
590.72	348.74
590.88	437.68
591.04	423.64
591.20	442.36
591.35	423.64
591.51	444.70
591.67	500.87
591.83	386.19
591.99	486.83
592.15	369.80
592.31	472.79
592.46	430.66
592.62	470.45
592.78	411.93
592.94	433.00
593.10	442.36
593.26	444.70
593.41	416.62
593.57	461.09
593.73	444.70
593.89	409.59
594.05	461.09
594.20	388.53
594.36	400.23
594.52	472.79
594.68	418.96
594.84	402.57
594.99	482.15
595.15	390.87
595.31	374.49
595.47	477.47
595.62	442.36
595.78	374.49
595.94	423.64
596.10	437.68
596.25	334.70
596.41	461.09
596.57	409.59
596.73	416.62
596.88	449.38
597.04	421.30
597.20	395.55
597.36	341.72
597.51	442.36
597.67	418.96
597.83	362.78
597.99	437.68
598.14	435.34
598.30	418.96
598.46	372.15
598.61	507.90
598.77	362.78
598.93	402.57
599.09	400.23
599.24	365.12
599.40	393.21
599.56	397.89
599.71	404.91
599.87	386.19
600.03	418.96
600.18	430.66
600.34	409.59
600.50	383.85
600.65	402.57
600.81	447.04
600.97	430.66
601.12	388.53
601.28	477.47
601.44	407.25
601.59	437.68
601.75	404.91
601.91	414.27
602.06	479.81
602.22	500.87
602.37	465.77
602.53	423.64
602.69	428.32
602.84	437.68
603.00	407.25
603.16	400.23
603.31	388.53
603.47	477.47
603.62	493.85
603.78	435.34
603.94	456.40
604.09	451.72
604.25	374.49
604.40	505.56
604.56	440.02
604.71	386.19
604.87	428.32
605.03	463.43
605.18	425.98
605.34	421.30
605.49	468.11
605.65	346.40
605.80	346.40
605.96	428.32
606.12	390.87
606.27	355.76
606.43	442.36
606.58	451.72
606.74	327.68
606.89	425.98
607.05	451.72
607.20	381.51
607.36	447.04
607.51	407.25
607.67	458.74
607.82	461.09
607.98	402.57
608.13	447.04
608.29	402.57
608.44	472.79
608.60	409.59
608.75	507.90
608.91	454.06
609.06	428.32
609.22	461.09
609.37	407.25
609.53	465.77
609.68	409.59
609.84	374.49
609.99	334.70
610.15	535.98
