SpectraSuite Data File
++++++++++++++++++++++++++++++++++++
Date: Fri Oct 25 12:10:47 EDT 2013
User: price-jones
Dark Spectrum Present: No
Reference Spectrum Present: No
Number of Sampled Component Spectra: 1
Spectrometers: USB2+H05261
Integration Time (usec): 100000 (USB2+H05261)
Spectra Averaged: 1 (USB2+H05261)
Boxcar Smoothing: 0 (USB2+H05261)
Correct for Electrical Dark: No (USB2+H05261)
Strobe/Lamp Enabled: No (USB2+H05261)
Correct for Detector Non-linearity: No (USB2+H05261)
Correct for Stray Light: No (USB2+H05261)
Number of Pixels in Processed Spectrum: 2048
>>>>>Begin Processed Spectral Data<<<<<
365.73	315.97
365.92	315.97
366.12	315.97
366.32	262.14
366.52	231.71
366.72	238.73
366.91	198.95
367.11	227.03
367.31	243.42
367.51	217.67
367.70	290.23
367.90	271.50
368.10	220.01
368.30	215.33
368.49	255.12
368.69	285.55
368.89	259.80
369.09	248.10
369.28	334.70
369.48	292.57
369.68	285.55
369.87	297.25
370.07	212.99
370.27	311.29
370.47	320.65
370.66	330.02
370.86	414.27
371.06	421.30
371.25	386.19
371.45	351.08
371.65	440.02
371.84	402.57
372.04	334.70
372.24	365.12
372.44	367.46
372.63	322.99
372.83	416.62
373.03	376.83
373.22	386.19
373.42	416.62
373.62	397.89
373.81	437.68
374.01	433.00
374.21	454.06
374.40	475.13
374.60	456.40
374.79	414.27
374.99	365.12
375.19	383.85
375.38	425.98
375.58	421.30
375.78	367.46
375.97	416.62
376.17	393.21
376.37	423.64
376.56	358.10
376.76	379.17
376.95	414.27
377.15	442.36
377.35	433.00
377.54	456.40
377.74	360.44
377.93	395.55
378.13	339.38
378.33	423.64
378.52	416.62
378.72	411.93
378.91	428.32
379.11	456.40
379.31	393.21
379.50	381.51
379.70	381.51
379.89	390.87
380.09	383.85
380.28	386.19
380.48	435.34
380.68	402.57
380.87	327.68
381.07	362.78
381.26	458.74
381.46	407.25
381.65	425.98
381.85	423.64
382.04	447.04
382.24	369.80
382.43	372.15
382.63	423.64
382.83	423.64
383.02	428.32
383.22	407.25
383.41	362.78
383.61	400.23
383.80	425.98
384.00	425.98
384.19	393.21
384.39	411.93
384.58	386.19
384.78	355.76
384.97	402.57
385.17	374.49
385.36	411.93
385.56	388.53
385.75	456.40
385.95	416.62
386.14	421.30
386.34	409.59
386.53	425.98
386.72	386.19
386.92	421.30
387.11	414.27
387.31	376.83
387.50	337.04
387.70	348.74
387.89	355.76
388.09	367.46
388.28	425.98
388.48	423.64
388.67	395.55
388.86	423.64
389.06	428.32
389.25	416.62
389.45	444.70
389.64	388.53
389.84	461.09
390.03	351.08
390.22	465.77
390.42	400.23
390.61	372.15
390.81	341.72
391.00	437.68
391.19	407.25
391.39	454.06
391.58	395.55
391.78	437.68
391.97	449.38
392.16	367.46
392.36	404.91
392.55	411.93
392.75	304.27
392.94	411.93
393.13	348.74
393.33	358.10
393.52	430.66
393.71	414.27
393.91	519.60
394.10	416.62
394.29	372.15
394.49	374.49
394.68	330.02
394.88	423.64
395.07	463.43
395.26	365.12
395.46	397.89
395.65	442.36
395.84	430.66
396.04	477.47
396.23	379.17
396.42	388.53
396.62	353.42
396.81	402.57
397.00	372.15
397.19	458.74
397.39	330.02
397.58	428.32
397.77	430.66
397.97	379.17
398.16	360.44
398.35	414.27
398.55	402.57
398.74	369.80
398.93	449.38
399.12	447.04
399.32	442.36
399.51	355.76
399.70	437.68
399.90	355.76
400.09	372.15
400.28	409.59
400.47	461.09
400.67	425.98
400.86	369.80
401.05	416.62
401.24	440.02
401.44	344.06
401.63	458.74
401.82	433.00
402.01	322.99
402.21	348.74
402.40	430.66
402.59	346.40
402.78	395.55
402.97	449.38
403.17	414.27
403.36	381.51
403.55	395.55
403.74	430.66
403.93	423.64
404.13	444.70
404.32	402.57
404.51	440.02
404.70	477.47
404.89	393.21
405.09	411.93
405.28	374.49
405.47	411.93
405.66	393.21
405.85	402.57
406.05	369.80
406.24	372.15
406.43	409.59
406.62	339.38
406.81	456.40
407.00	444.70
407.20	390.87
407.39	411.93
407.58	369.80
407.77	442.36
407.96	407.25
408.15	404.91
408.34	400.23
408.54	376.83
408.73	402.57
408.92	360.44
409.11	402.57
409.30	402.57
409.49	444.70
409.68	402.57
409.87	430.66
410.07	442.36
410.26	374.49
410.45	376.83
410.64	367.46
410.83	339.38
411.02	411.93
411.21	416.62
411.40	369.80
411.59	456.40
411.78	440.02
411.98	381.51
412.17	475.13
412.36	430.66
412.55	348.74
412.74	376.83
412.93	449.38
413.12	404.91
413.31	440.02
413.50	421.30
413.69	507.90
413.88	493.85
414.07	409.59
414.26	423.64
414.45	440.02
414.64	400.23
414.83	430.66
415.02	400.23
415.22	428.32
415.41	449.38
415.60	386.19
415.79	465.77
415.98	416.62
416.17	414.27
416.36	390.87
416.55	369.80
416.74	367.46
416.93	510.24
417.12	444.70
417.31	397.89
417.50	435.34
417.69	470.45
417.88	360.44
418.07	411.93
418.26	447.04
418.45	346.40
418.64	437.68
418.83	379.17
419.02	362.78
419.21	379.17
419.39	388.53
419.58	339.38
419.77	348.74
419.96	381.51
420.15	390.87
420.34	416.62
420.53	440.02
420.72	461.09
420.91	402.57
421.10	358.10
421.29	409.59
421.48	409.59
421.67	369.80
421.86	360.44
422.05	369.80
422.24	358.10
422.43	358.10
422.61	402.57
422.80	447.04
422.99	393.21
423.18	390.87
423.37	458.74
423.56	423.64
423.75	395.55
423.94	348.74
424.13	418.96
424.32	400.23
424.50	404.91
424.69	390.87
424.88	428.32
425.07	458.74
425.26	423.64
425.45	493.85
425.64	383.85
425.83	402.57
426.01	388.53
426.20	395.55
426.39	369.80
426.58	372.15
426.77	496.19
426.96	428.32
427.15	411.93
427.33	367.46
427.52	430.66
427.71	365.12
427.90	372.15
428.09	477.47
428.28	390.87
428.46	386.19
428.65	468.11
428.84	421.30
429.03	407.25
429.22	390.87
429.40	400.23
429.59	430.66
429.78	397.89
429.97	416.62
430.16	381.51
430.34	463.43
430.53	449.38
430.72	444.70
430.91	367.46
431.10	409.59
431.28	440.02
431.47	407.25
431.66	390.87
431.85	409.59
432.03	353.42
432.22	456.40
432.41	414.27
432.60	444.70
432.79	383.85
432.97	454.06
433.16	367.46
433.35	390.87
433.54	418.96
433.72	404.91
433.91	411.93
434.10	353.42
434.28	482.15
434.47	365.12
434.66	447.04
434.85	395.55
435.03	458.74
435.22	482.15
435.41	482.15
435.59	390.87
435.78	386.19
435.97	402.57
436.16	367.46
436.34	472.79
436.53	402.57
436.72	374.49
436.90	409.59
437.09	465.77
437.28	428.32
437.46	454.06
437.65	472.79
437.84	435.34
438.02	376.83
438.21	451.72
438.40	425.98
438.58	393.21
438.77	458.74
438.96	440.02
439.14	421.30
439.33	362.78
439.52	454.06
439.70	388.53
439.89	397.89
440.08	456.40
440.26	496.19
440.45	374.49
440.63	454.06
440.82	407.25
441.01	379.17
441.19	430.66
441.38	425.98
441.57	379.17
441.75	479.81
441.94	437.68
442.12	301.93
442.31	397.89
442.50	472.79
442.68	393.21
442.87	393.21
443.05	456.40
443.24	411.93
443.43	454.06
443.61	468.11
443.80	386.19
443.98	449.38
444.17	454.06
444.35	395.55
444.54	428.32
444.73	369.80
444.91	400.23
445.10	376.83
445.28	414.27
445.47	451.72
445.65	400.23
445.84	416.62
446.02	393.21
446.21	407.25
446.39	456.40
446.58	416.62
446.77	409.59
446.95	437.68
447.14	388.53
447.32	430.66
447.51	376.83
447.69	472.79
447.88	444.70
448.06	367.46
448.25	409.59
448.43	360.44
448.62	362.78
448.80	404.91
448.99	414.27
449.17	381.51
449.36	351.08
449.54	414.27
449.73	444.70
449.91	367.46
450.10	376.83
450.28	414.27
450.46	440.02
450.65	435.34
450.83	433.00
451.02	444.70
451.20	440.02
451.39	444.70
451.57	379.17
451.76	411.93
451.94	430.66
452.13	411.93
452.31	397.89
452.49	435.34
452.68	409.59
452.86	482.15
453.05	379.17
453.23	402.57
453.42	433.00
453.60	411.93
453.78	402.57
453.97	346.40
454.15	393.21
454.34	435.34
454.52	407.25
454.70	430.66
454.89	379.17
455.07	367.46
455.26	402.57
455.44	423.64
455.62	346.40
455.81	435.34
455.99	376.83
456.17	461.09
456.36	449.38
456.54	407.25
456.73	358.10
456.91	402.57
457.09	379.17
457.28	461.09
457.46	418.96
457.64	376.83
457.83	400.23
458.01	428.32
458.19	468.11
458.38	386.19
458.56	468.11
458.74	425.98
458.93	461.09
459.11	381.51
459.29	355.76
459.48	430.66
459.66	477.47
459.84	428.32
460.03	472.79
460.21	482.15
460.39	369.80
460.57	465.77
460.76	442.36
460.94	411.93
461.12	463.43
461.31	428.32
461.49	395.55
461.67	402.57
461.85	409.59
462.04	386.19
462.22	823.87
462.40	437.68
462.59	433.00
462.77	428.32
462.95	353.42
463.13	433.00
463.32	400.23
463.50	379.17
463.68	320.65
463.86	451.72
464.05	388.53
464.23	477.47
464.41	465.77
464.59	379.17
464.78	418.96
464.96	390.87
465.14	437.68
465.32	456.40
465.50	428.32
465.69	386.19
465.87	297.25
466.05	397.89
466.23	386.19
466.41	414.27
466.60	360.44
466.78	365.12
466.96	430.66
467.14	351.08
467.32	454.06
467.51	456.40
467.69	395.55
467.87	416.62
468.05	379.17
468.23	390.87
468.41	435.34
468.60	407.25
468.78	383.85
468.96	430.66
469.14	414.27
469.32	456.40
469.50	454.06
469.69	374.49
469.87	425.98
470.05	421.30
470.23	470.45
470.41	360.44
470.59	423.64
470.77	337.04
470.95	369.80
471.14	395.55
471.32	376.83
471.50	458.74
471.68	386.19
471.86	414.27
472.04	418.96
472.22	444.70
472.40	418.96
472.58	414.27
472.77	414.27
472.95	416.62
473.13	451.72
473.31	442.36
473.49	304.27
473.67	423.64
473.85	386.19
474.03	444.70
474.21	379.17
474.39	435.34
474.57	461.09
474.75	400.23
474.93	393.21
475.12	435.34
475.30	442.36
475.48	430.66
475.66	418.96
475.84	428.32
476.02	414.27
476.20	355.76
476.38	355.76
476.56	425.98
476.74	367.46
476.92	425.98
477.10	454.06
477.28	407.25
477.46	407.25
477.64	442.36
477.82	369.80
478.00	400.23
478.18	404.91
478.36	451.72
478.54	353.42
478.72	414.27
478.90	404.91
479.08	416.62
479.26	430.66
479.44	383.85
479.62	437.68
479.80	367.46
479.98	313.63
480.16	482.15
480.34	437.68
480.52	367.46
480.70	407.25
480.88	402.57
481.06	418.96
481.24	416.62
481.41	386.19
481.59	435.34
481.77	369.80
481.95	449.38
482.13	430.66
482.31	451.72
482.49	470.45
482.67	421.30
482.85	407.25
483.03	463.43
483.21	402.57
483.39	386.19
483.57	454.06
483.74	421.30
483.92	404.91
484.10	454.06
484.28	388.53
484.46	451.72
484.64	362.78
484.82	353.42
485.00	409.59
485.18	404.91
485.35	421.30
485.53	390.87
485.71	500.87
485.89	383.85
486.07	444.70
486.25	435.34
486.43	444.70
486.61	440.02
486.78	428.32
486.96	304.27
487.14	463.43
487.32	367.46
487.50	365.12
487.68	486.83
487.85	393.21
488.03	390.87
488.21	472.79
488.39	454.06
488.57	423.64
488.75	402.57
488.92	503.22
489.10	428.32
489.28	428.32
489.46	379.17
489.64	477.47
489.81	367.46
489.99	456.40
490.17	397.89
490.35	414.27
490.53	423.64
490.70	423.64
490.88	437.68
491.06	344.06
491.24	425.98
491.41	451.72
491.59	407.25
491.77	447.04
491.95	395.55
492.13	397.89
492.30	470.45
492.48	440.02
492.66	402.57
492.84	400.23
493.01	372.15
493.19	442.36
493.37	465.77
493.54	486.83
493.72	374.49
493.90	414.27
494.08	449.38
494.25	451.72
494.43	383.85
494.61	397.89
494.79	372.15
494.96	320.65
495.14	416.62
495.32	454.06
495.49	390.87
495.67	440.02
495.85	447.04
496.02	383.85
496.20	346.40
496.38	400.23
496.55	404.91
496.73	383.85
496.91	442.36
497.09	444.70
497.26	411.93
497.44	411.93
497.62	376.83
497.79	397.89
497.97	507.90
498.14	404.91
498.32	451.72
498.50	491.51
498.67	369.80
498.85	376.83
499.03	407.25
499.20	386.19
499.38	351.08
499.56	411.93
499.73	503.22
499.91	458.74
500.08	423.64
500.26	437.68
500.44	421.30
500.61	402.57
500.79	332.36
500.97	425.98
501.14	454.06
501.32	440.02
501.49	372.15
501.67	486.83
501.84	484.49
502.02	465.77
502.20	470.45
502.37	463.43
502.55	421.30
502.72	353.42
502.90	444.70
503.07	386.19
503.25	397.89
503.43	362.78
503.60	421.30
503.78	486.83
503.95	376.83
504.13	444.70
504.30	430.66
504.48	421.30
504.65	433.00
504.83	437.68
505.01	433.00
505.18	440.02
505.36	437.68
505.53	315.97
505.71	440.02
505.88	440.02
506.06	472.79
506.23	395.55
506.41	468.11
506.58	503.22
506.76	411.93
506.93	383.85
507.11	430.66
507.28	411.93
507.46	407.25
507.63	365.12
507.81	383.85
507.98	423.64
508.16	348.74
508.33	456.40
508.50	397.89
508.68	433.00
508.85	402.57
509.03	390.87
509.20	442.36
509.38	465.77
509.55	472.79
509.73	484.49
509.90	421.30
510.08	388.53
510.25	475.13
510.42	402.57
510.60	456.40
510.77	386.19
510.95	409.59
511.12	425.98
511.30	414.27
511.47	430.66
511.64	451.72
511.82	433.00
511.99	461.09
512.17	395.55
512.34	428.32
512.51	416.62
512.69	463.43
512.86	442.36
513.04	379.17
513.21	381.51
513.38	388.53
513.56	400.23
513.73	496.19
513.90	379.17
514.08	325.33
514.25	390.87
514.43	418.96
514.60	411.93
514.77	428.32
514.95	472.79
515.12	435.34
515.29	411.93
515.47	447.04
515.64	379.17
515.81	482.15
515.99	440.02
516.16	456.40
516.33	444.70
516.51	461.09
516.68	379.17
516.85	376.83
517.03	437.68
517.20	374.49
517.37	404.91
517.54	397.89
517.72	393.21
517.89	442.36
518.06	404.91
518.24	421.30
518.41	365.12
518.58	454.06
518.75	388.53
518.93	407.25
519.10	404.91
519.27	430.66
519.45	421.30
519.62	383.85
519.79	442.36
519.96	454.06
520.14	454.06
520.31	486.83
520.48	437.68
520.65	367.46
520.83	472.79
521.00	374.49
521.17	423.64
521.34	397.89
521.52	409.59
521.69	400.23
521.86	400.23
522.03	451.72
522.20	423.64
522.38	510.24
522.55	418.96
522.72	379.17
522.89	454.06
523.07	435.34
523.24	365.12
523.41	416.62
523.58	407.25
523.75	463.43
523.92	409.59
524.10	402.57
524.27	334.70
524.44	381.51
524.61	454.06
524.78	411.93
524.96	402.57
525.13	390.87
525.30	421.30
525.47	435.34
525.64	418.96
525.81	393.21
525.98	425.98
526.16	379.17
526.33	390.87
526.50	444.70
526.67	332.36
526.84	421.30
527.01	346.40
527.18	489.17
527.36	381.51
527.53	381.51
527.70	390.87
527.87	507.90
528.04	472.79
528.21	400.23
528.38	418.96
528.55	430.66
528.72	435.34
528.89	447.04
529.07	451.72
529.24	463.43
529.41	512.58
529.58	369.80
529.75	418.96
529.92	458.74
530.09	440.02
530.26	475.13
530.43	425.98
530.60	411.93
530.77	402.57
530.94	397.89
531.11	440.02
531.28	449.38
531.46	437.68
531.63	383.85
531.80	409.59
531.97	360.44
532.14	447.04
532.31	472.79
532.48	407.25
532.65	388.53
532.82	440.02
532.99	444.70
533.16	411.93
533.33	444.70
533.50	402.57
533.67	376.83
533.84	358.10
534.01	365.12
534.18	458.74
534.35	315.97
534.52	374.49
534.69	402.57
534.86	470.45
535.03	447.04
535.20	351.08
535.37	393.21
535.54	409.59
535.71	423.64
535.88	423.64
536.05	400.23
536.22	430.66
536.38	437.68
536.55	407.25
536.72	367.46
536.89	383.85
537.06	379.17
537.23	379.17
537.40	470.45
537.57	395.55
537.74	386.19
537.91	407.25
538.08	388.53
538.25	353.42
538.42	369.80
538.59	444.70
538.75	409.59
538.92	428.32
539.09	416.62
539.26	339.38
539.43	510.24
539.60	367.46
539.77	512.58
539.94	421.30
540.11	425.98
540.28	486.83
540.44	463.43
540.61	348.74
540.78	449.38
540.95	423.64
541.12	395.55
541.29	440.02
541.46	433.00
541.62	458.74
541.79	395.55
541.96	404.91
542.13	409.59
542.30	554.71
542.47	444.70
542.63	404.91
542.80	463.43
542.97	454.06
543.14	390.87
543.31	367.46
543.48	400.23
543.64	365.12
543.81	451.72
543.98	376.83
544.15	355.76
544.32	358.10
544.48	442.36
544.65	369.80
544.82	388.53
544.99	444.70
545.16	423.64
545.32	348.74
545.49	463.43
545.66	428.32
545.83	430.66
546.00	386.19
546.16	435.34
546.33	376.83
546.50	409.59
546.67	433.00
546.83	456.40
547.00	395.55
547.17	374.49
547.34	351.08
547.50	395.55
547.67	400.23
547.84	390.87
548.00	402.57
548.17	348.74
548.34	423.64
548.51	433.00
548.67	477.47
548.84	358.10
549.01	456.40
549.18	456.40
549.34	449.38
549.51	435.34
549.68	421.30
549.84	379.17
550.01	400.23
550.18	479.81
550.34	547.69
550.51	397.89
550.68	477.47
550.84	390.87
551.01	348.74
551.18	404.91
551.34	393.21
551.51	402.57
551.68	423.64
551.84	418.96
552.01	372.15
552.18	437.68
552.34	416.62
552.51	402.57
552.68	454.06
552.84	393.21
553.01	421.30
553.18	486.83
553.34	393.21
553.51	402.57
553.67	454.06
553.84	435.34
554.01	423.64
554.17	416.62
554.34	395.55
554.51	404.91
554.67	404.91
554.84	435.34
555.00	496.19
555.17	423.64
555.33	383.85
555.50	365.12
555.67	468.11
555.83	355.76
556.00	395.55
556.16	517.26
556.33	479.81
556.50	397.89
556.66	486.83
556.83	463.43
556.99	440.02
557.16	397.89
557.32	437.68
557.49	407.25
557.65	402.57
557.82	421.30
557.98	444.70
558.15	404.91
558.32	444.70
558.48	362.78
558.65	402.57
558.81	454.06
558.98	423.64
559.14	433.00
559.31	454.06
559.47	526.62
559.64	367.46
559.80	465.77
559.97	461.09
560.13	418.96
560.30	414.27
560.46	425.98
560.63	435.34
560.79	418.96
560.96	421.30
561.12	360.44
561.29	388.53
561.45	456.40
561.61	376.83
561.78	535.98
561.94	430.66
562.11	414.27
562.27	367.46
562.44	374.49
562.60	503.22
562.77	386.19
562.93	423.64
563.10	428.32
563.26	374.49
563.42	465.77
563.59	477.47
563.75	369.80
563.92	397.89
564.08	454.06
564.24	475.13
564.41	500.87
564.57	346.40
564.74	430.66
564.90	407.25
565.07	404.91
565.23	381.51
565.39	444.70
565.56	395.55
565.72	437.68
565.88	395.55
566.05	386.19
566.21	430.66
566.38	416.62
566.54	444.70
566.70	404.91
566.87	381.51
567.03	330.02
567.19	442.36
567.36	315.97
567.52	372.15
567.68	430.66
567.85	444.70
568.01	379.17
568.17	505.56
568.34	477.47
568.50	477.47
568.66	440.02
568.83	507.90
568.99	444.70
569.15	447.04
569.32	470.45
569.48	463.43
569.64	468.11
569.81	414.27
569.97	393.21
570.13	390.87
570.30	456.40
570.46	369.80
570.62	383.85
570.78	484.49
570.95	433.00
571.11	468.11
571.27	404.91
571.43	395.55
571.60	407.25
571.76	428.32
571.92	358.10
572.09	358.10
572.25	355.76
572.41	381.51
572.57	390.87
572.74	503.22
572.90	528.96
573.06	428.32
573.22	414.27
573.38	416.62
573.55	440.02
573.71	472.79
573.87	458.74
574.03	503.22
574.20	400.23
574.36	472.79
574.52	407.25
574.68	423.64
574.84	402.57
575.01	440.02
575.17	449.38
575.33	477.47
575.49	414.27
575.65	482.15
575.82	409.59
575.98	416.62
576.14	538.32
576.30	421.30
576.46	393.21
576.62	437.68
576.79	402.57
576.95	482.15
577.11	449.38
577.27	397.89
577.43	423.64
577.59	411.93
577.75	503.22
577.92	435.34
578.08	468.11
578.24	393.21
578.40	381.51
578.56	482.15
578.72	383.85
578.88	440.02
579.04	367.46
579.21	390.87
579.37	393.21
579.53	425.98
579.69	428.32
579.85	465.77
580.01	442.36
580.17	330.02
580.33	470.45
580.49	388.53
580.65	418.96
580.82	461.09
580.98	402.57
581.14	463.43
581.30	428.32
581.46	374.49
581.62	421.30
581.78	437.68
581.94	381.51
582.10	402.57
582.26	404.91
582.42	355.76
582.58	409.59
582.74	400.23
582.90	421.30
583.06	416.62
583.22	430.66
583.38	440.02
583.54	449.38
583.70	430.66
583.86	388.53
584.02	461.09
584.18	463.43
584.34	430.66
584.50	393.21
584.66	433.00
584.82	360.44
584.98	486.83
585.14	390.87
585.30	362.78
585.46	404.91
585.62	381.51
585.78	367.46
585.94	425.98
586.10	397.89
586.26	475.13
586.42	449.38
586.58	470.45
586.74	416.62
586.90	404.91
587.06	376.83
587.22	416.62
587.38	416.62
587.54	451.72
587.70	402.57
587.86	397.89
588.02	404.91
588.18	400.23
588.34	416.62
588.49	362.78
588.65	461.09
588.81	411.93
588.97	362.78
589.13	383.85
589.29	468.11
589.45	437.68
589.61	388.53
589.77	463.43
589.93	489.17
590.08	442.36
590.24	407.25
590.40	430.66
590.56	447.04
590.72	365.12
590.88	465.77
591.04	367.46
591.20	390.87
591.35	395.55
591.51	468.11
591.67	351.08
591.83	425.98
591.99	421.30
592.15	500.87
592.31	440.02
592.46	442.36
592.62	437.68
592.78	400.23
592.94	379.17
593.10	425.98
593.26	320.65
593.41	421.30
593.57	339.38
593.73	470.45
593.89	402.57
594.05	449.38
594.20	430.66
594.36	433.00
594.52	404.91
594.68	423.64
594.84	440.02
594.99	484.49
595.15	442.36
595.31	437.68
595.47	454.06
595.62	430.66
595.78	404.91
595.94	475.13
596.10	402.57
596.25	372.15
596.41	461.09
596.57	376.83
596.73	425.98
596.88	411.93
597.04	458.74
597.20	397.89
597.36	496.19
597.51	348.74
597.67	433.00
597.83	404.91
597.99	440.02
598.14	428.32
598.30	397.89
598.46	372.15
598.61	383.85
598.77	402.57
598.93	433.00
599.09	386.19
599.24	440.02
599.40	470.45
599.56	418.96
599.71	395.55
599.87	425.98
600.03	369.80
600.18	374.49
600.34	407.25
600.50	383.85
600.65	372.15
600.81	433.00
600.97	461.09
601.12	454.06
601.28	517.26
601.44	456.40
601.59	433.00
601.75	456.40
601.91	404.91
602.06	344.06
602.22	451.72
602.37	402.57
602.53	475.13
602.69	440.02
602.84	411.93
603.00	456.40
603.16	390.87
603.31	463.43
603.47	395.55
603.62	376.83
603.78	397.89
603.94	437.68
604.09	402.57
604.25	411.93
604.40	381.51
604.56	400.23
604.71	437.68
604.87	381.51
605.03	428.32
605.18	437.68
605.34	395.55
605.49	411.93
605.65	390.87
605.80	444.70
605.96	418.96
606.12	374.49
606.27	486.83
606.43	414.27
606.58	435.34
606.74	456.40
606.89	440.02
607.05	409.59
607.20	372.15
607.36	437.68
607.51	397.89
607.67	451.72
607.82	451.72
607.98	447.04
608.13	414.27
608.29	379.17
608.44	435.34
608.60	388.53
608.75	404.91
608.91	435.34
609.06	400.23
609.22	433.00
609.37	437.68
609.53	388.53
609.68	463.43
609.84	374.49
609.99	376.83
610.15	358.10
