SpectraSuite Data File
++++++++++++++++++++++++++++++++++++
Date: Fri Oct 25 12:10:49 EDT 2013
User: price-jones
Dark Spectrum Present: No
Reference Spectrum Present: No
Number of Sampled Component Spectra: 1
Spectrometers: USB2+H05261
Integration Time (usec): 100000 (USB2+H05261)
Spectra Averaged: 1 (USB2+H05261)
Boxcar Smoothing: 0 (USB2+H05261)
Correct for Electrical Dark: No (USB2+H05261)
Strobe/Lamp Enabled: No (USB2+H05261)
Correct for Detector Non-linearity: No (USB2+H05261)
Correct for Stray Light: No (USB2+H05261)
Number of Pixels in Processed Spectrum: 2048
>>>>>Begin Processed Spectral Data<<<<<
365.73	404.91
365.92	404.91
366.12	404.91
366.32	224.69
366.52	236.39
366.72	248.10
366.91	238.73
367.11	238.73
367.31	301.93
367.51	287.89
367.70	273.84
367.90	222.35
368.10	201.29
368.30	220.01
368.49	212.99
368.69	304.27
368.89	212.99
369.09	301.93
369.28	297.25
369.48	255.12
369.68	287.89
369.87	306.61
370.07	301.93
370.27	325.33
370.47	362.78
370.66	294.91
370.86	425.98
371.06	297.25
371.25	437.68
371.45	367.46
371.65	454.06
371.84	437.68
372.04	353.42
372.24	388.53
372.44	318.31
372.63	386.19
372.83	433.00
373.03	362.78
373.22	381.51
373.42	367.46
373.62	376.83
373.81	393.21
374.01	456.40
374.21	418.96
374.40	358.10
374.60	463.43
374.79	468.11
374.99	428.32
375.19	381.51
375.38	435.34
375.58	416.62
375.78	402.57
375.97	411.93
376.17	477.47
376.37	414.27
376.56	437.68
376.76	437.68
376.95	374.49
377.15	430.66
377.35	381.51
377.54	411.93
377.74	409.59
377.93	404.91
378.13	393.21
378.33	397.89
378.52	395.55
378.72	411.93
378.91	444.70
379.11	437.68
379.31	430.66
379.50	428.32
379.70	367.46
379.89	437.68
380.09	306.61
380.28	322.99
380.48	409.59
380.68	416.62
380.87	353.42
381.07	409.59
381.26	411.93
381.46	447.04
381.65	397.89
381.85	311.29
382.04	430.66
382.24	428.32
382.43	402.57
382.63	400.23
382.83	386.19
383.02	421.30
383.22	404.91
383.41	454.06
383.61	330.02
383.80	423.64
384.00	414.27
384.19	435.34
384.39	327.68
384.58	386.19
384.78	402.57
384.97	383.85
385.17	372.15
385.36	428.32
385.56	411.93
385.75	437.68
385.95	386.19
386.14	344.06
386.34	383.85
386.53	383.85
386.72	395.55
386.92	404.91
387.11	486.83
387.31	428.32
387.50	472.79
387.70	367.46
387.89	440.02
388.09	397.89
388.28	346.40
388.48	393.21
388.67	421.30
388.86	411.93
389.06	400.23
389.25	414.27
389.45	346.40
389.64	341.72
389.84	477.47
390.03	447.04
390.22	409.59
390.42	400.23
390.61	390.87
390.81	330.02
391.00	348.74
391.19	479.81
391.39	418.96
391.58	390.87
391.78	362.78
391.97	400.23
392.16	337.04
392.36	425.98
392.55	442.36
392.75	454.06
392.94	372.15
393.13	425.98
393.33	414.27
393.52	379.17
393.71	414.27
393.91	411.93
394.10	402.57
394.29	449.38
394.49	369.80
394.68	447.04
394.88	386.19
395.07	414.27
395.26	414.27
395.46	369.80
395.65	440.02
395.84	362.78
396.04	468.11
396.23	341.72
396.42	358.10
396.62	402.57
396.81	428.32
397.00	451.72
397.19	435.34
397.39	447.04
397.58	353.42
397.77	393.21
397.97	447.04
398.16	421.30
398.35	318.31
398.55	390.87
398.74	437.68
398.93	388.53
399.12	358.10
399.32	402.57
399.51	388.53
399.70	411.93
399.90	386.19
400.09	444.70
400.28	409.59
400.47	365.12
400.67	379.17
400.86	411.93
401.05	449.38
401.24	414.27
401.44	409.59
401.63	402.57
401.82	442.36
402.01	449.38
402.21	444.70
402.40	409.59
402.59	421.30
402.78	468.11
402.97	433.00
403.17	421.30
403.36	390.87
403.55	411.93
403.74	339.38
403.93	407.25
404.13	411.93
404.32	358.10
404.51	433.00
404.70	411.93
404.89	362.78
405.09	404.91
405.28	400.23
405.47	341.72
405.66	386.19
405.85	423.64
406.05	374.49
406.24	346.40
406.43	479.81
406.62	344.06
406.81	458.74
407.00	444.70
407.20	376.83
407.39	409.59
407.58	416.62
407.77	423.64
407.96	358.10
408.15	386.19
408.34	393.21
408.54	463.43
408.73	421.30
408.92	315.97
409.11	388.53
409.30	404.91
409.49	402.57
409.68	390.87
409.87	423.64
410.07	367.46
410.26	435.34
410.45	440.02
410.64	397.89
410.83	421.30
411.02	351.08
411.21	425.98
411.40	404.91
411.59	407.25
411.78	423.64
411.98	388.53
412.17	381.51
412.36	425.98
412.55	330.02
412.74	418.96
412.93	449.38
413.12	318.31
413.31	299.59
413.50	449.38
413.69	418.96
413.88	440.02
414.07	430.66
414.26	376.83
414.45	283.20
414.64	449.38
414.83	374.49
415.02	381.51
415.22	411.93
415.41	381.51
415.60	369.80
415.79	381.51
415.98	423.64
416.17	344.06
416.36	423.64
416.55	383.85
416.74	390.87
416.93	383.85
417.12	437.68
417.31	470.45
417.50	435.34
417.69	407.25
417.88	423.64
418.07	369.80
418.26	421.30
418.45	374.49
418.64	416.62
418.83	374.49
419.02	351.08
419.21	402.57
419.39	428.32
419.58	416.62
419.77	428.32
419.96	395.55
420.15	456.40
420.34	355.76
420.53	381.51
420.72	435.34
420.91	409.59
421.10	416.62
421.29	344.06
421.48	386.19
421.67	409.59
421.86	421.30
422.05	447.04
422.24	379.17
422.43	416.62
422.61	395.55
422.80	393.21
422.99	395.55
423.18	411.93
423.37	442.36
423.56	428.32
423.75	395.55
423.94	404.91
424.13	365.12
424.32	447.04
424.50	418.96
424.69	435.34
424.88	458.74
425.07	447.04
425.26	407.25
425.45	402.57
425.64	421.30
425.83	449.38
426.01	451.72
426.20	365.12
426.39	444.70
426.58	409.59
426.77	461.09
426.96	409.59
427.15	447.04
427.33	379.17
427.52	404.91
427.71	409.59
427.90	390.87
428.09	468.11
428.28	346.40
428.46	416.62
428.65	465.77
428.84	435.34
429.03	470.45
429.22	358.10
429.40	416.62
429.59	407.25
429.78	433.00
429.97	369.80
430.16	393.21
430.34	404.91
430.53	411.93
430.72	409.59
430.91	430.66
431.10	367.46
431.28	369.80
431.47	491.51
431.66	365.12
431.85	334.70
432.03	381.51
432.22	465.77
432.41	442.36
432.60	493.85
432.79	442.36
432.97	414.27
433.16	390.87
433.35	433.00
433.54	308.95
433.72	425.98
433.91	440.02
434.10	423.64
434.28	374.49
434.47	437.68
434.66	393.21
434.85	447.04
435.03	425.98
435.22	407.25
435.41	451.72
435.59	430.66
435.78	416.62
435.97	444.70
436.16	486.83
436.34	456.40
436.53	430.66
436.72	393.21
436.90	414.27
437.09	425.98
437.28	397.89
437.46	437.68
437.65	339.38
437.84	472.79
438.02	437.68
438.21	416.62
438.40	400.23
438.58	435.34
438.77	386.19
438.96	407.25
439.14	379.17
439.33	423.64
439.52	421.30
439.70	414.27
439.89	493.85
440.08	430.66
440.26	397.89
440.45	360.44
440.63	339.38
440.82	425.98
441.01	463.43
441.19	351.08
441.38	388.53
441.57	458.74
441.75	425.98
441.94	383.85
442.12	435.34
442.31	409.59
442.50	416.62
442.68	456.40
442.87	407.25
443.05	388.53
443.24	428.32
443.43	475.13
443.61	535.98
443.80	435.34
443.98	390.87
444.17	416.62
444.35	425.98
444.54	388.53
444.73	425.98
444.91	421.30
445.10	388.53
445.28	376.83
445.47	395.55
445.65	390.87
445.84	397.89
446.02	393.21
446.21	334.70
446.39	421.30
446.58	365.12
446.77	418.96
446.95	367.46
447.14	411.93
447.32	484.49
447.51	423.64
447.69	390.87
447.88	472.79
448.06	449.38
448.25	379.17
448.43	376.83
448.62	390.87
448.80	362.78
448.99	330.02
449.17	365.12
449.36	376.83
449.54	482.15
449.73	390.87
449.91	351.08
450.10	353.42
450.28	472.79
450.46	414.27
450.65	486.83
450.83	440.02
451.02	435.34
451.20	330.02
451.39	355.76
451.57	423.64
451.76	351.08
451.94	369.80
452.13	397.89
452.31	479.81
452.49	433.00
452.68	437.68
452.86	393.21
453.05	472.79
453.23	318.31
453.42	428.32
453.60	428.32
453.78	351.08
453.97	374.49
454.15	423.64
454.34	425.98
454.52	348.74
454.70	388.53
454.89	407.25
455.07	374.49
455.26	428.32
455.44	407.25
455.62	400.23
455.81	376.83
455.99	395.55
456.17	421.30
456.36	404.91
456.54	383.85
456.73	416.62
456.91	341.72
457.09	397.89
457.28	379.17
457.46	365.12
457.64	433.00
457.83	365.12
458.01	444.70
458.19	468.11
458.38	390.87
458.56	397.89
458.74	360.44
458.93	421.30
459.11	493.85
459.29	416.62
459.48	379.17
459.66	454.06
459.84	404.91
460.03	444.70
460.21	505.56
460.39	402.57
460.57	383.85
460.76	416.62
460.94	456.40
461.12	512.58
461.31	470.45
461.49	447.04
461.67	402.57
461.85	465.77
462.04	376.83
462.22	823.87
462.40	437.68
462.59	440.02
462.77	383.85
462.95	404.91
463.13	367.46
463.32	428.32
463.50	388.53
463.68	379.17
463.86	444.70
464.05	397.89
464.23	388.53
464.41	449.38
464.59	379.17
464.78	325.33
464.96	421.30
465.14	365.12
465.32	390.87
465.50	374.49
465.69	484.49
465.87	351.08
466.05	449.38
466.23	379.17
466.41	409.59
466.60	428.32
466.78	409.59
466.96	472.79
467.14	416.62
467.32	489.17
467.51	428.32
467.69	381.51
467.87	472.79
468.05	400.23
468.23	418.96
468.41	395.55
468.60	397.89
468.78	390.87
468.96	409.59
469.14	456.40
469.32	414.27
469.50	388.53
469.69	327.68
469.87	388.53
470.05	402.57
470.23	418.96
470.41	472.79
470.59	411.93
470.77	395.55
470.95	447.04
471.14	475.13
471.32	430.66
471.50	402.57
471.68	355.76
471.86	386.19
472.04	421.30
472.22	409.59
472.40	435.34
472.58	393.21
472.77	393.21
472.95	407.25
473.13	421.30
473.31	400.23
473.49	444.70
473.67	390.87
473.85	463.43
474.03	407.25
474.21	388.53
474.39	369.80
474.57	465.77
474.75	416.62
474.93	409.59
475.12	379.17
475.30	463.43
475.48	383.85
475.66	435.34
475.84	386.19
476.02	360.44
476.20	383.85
476.38	395.55
476.56	454.06
476.74	411.93
476.92	479.81
477.10	358.10
477.28	416.62
477.46	409.59
477.64	400.23
477.82	433.00
478.00	447.04
478.18	409.59
478.36	393.21
478.54	397.89
478.72	411.93
478.90	430.66
479.08	386.19
479.26	472.79
479.44	435.34
479.62	440.02
479.80	423.64
479.98	472.79
480.16	388.53
480.34	454.06
480.52	416.62
480.70	451.72
480.88	425.98
481.06	358.10
481.24	388.53
481.41	414.27
481.59	447.04
481.77	454.06
481.95	437.68
482.13	393.21
482.31	433.00
482.49	369.80
482.67	404.91
482.85	388.53
483.03	376.83
483.21	395.55
483.39	372.15
483.57	440.02
483.74	447.04
483.92	447.04
484.10	463.43
484.28	451.72
484.46	428.32
484.64	355.76
484.82	327.68
485.00	423.64
485.18	379.17
485.35	393.21
485.53	360.44
485.71	458.74
485.89	358.10
486.07	386.19
486.25	433.00
486.43	442.36
486.61	425.98
486.78	491.51
486.96	435.34
487.14	428.32
487.32	421.30
487.50	461.09
487.68	458.74
487.85	402.57
488.03	430.66
488.21	479.81
488.39	367.46
488.57	404.91
488.75	306.61
488.92	447.04
489.10	400.23
489.28	416.62
489.46	351.08
489.64	400.23
489.81	442.36
489.99	451.72
490.17	435.34
490.35	442.36
490.53	449.38
490.70	344.06
490.88	433.00
491.06	327.68
491.24	381.51
491.41	425.98
491.59	411.93
491.77	423.64
491.95	393.21
492.13	372.15
492.30	421.30
492.48	423.64
492.66	393.21
492.84	395.55
493.01	395.55
493.19	393.21
493.37	500.87
493.54	451.72
493.72	428.32
493.90	409.59
494.08	435.34
494.25	409.59
494.43	390.87
494.61	435.34
494.79	365.12
494.96	390.87
495.14	463.43
495.32	411.93
495.49	418.96
495.67	484.49
495.85	367.46
496.02	388.53
496.20	421.30
496.38	383.85
496.55	365.12
496.73	430.66
496.91	428.32
497.09	428.32
497.26	351.08
497.44	388.53
497.62	393.21
497.79	390.87
497.97	397.89
498.14	454.06
498.32	374.49
498.50	458.74
498.67	414.27
498.85	376.83
499.03	433.00
499.20	430.66
499.38	379.17
499.56	409.59
499.73	418.96
499.91	458.74
500.08	416.62
500.26	397.89
500.44	418.96
500.61	484.49
500.79	407.25
500.97	423.64
501.14	461.09
501.32	442.36
501.49	475.13
501.67	484.49
501.84	447.04
502.02	435.34
502.20	470.45
502.37	388.53
502.55	411.93
502.72	369.80
502.90	491.51
503.07	449.38
503.25	414.27
503.43	353.42
503.60	400.23
503.78	421.30
503.95	369.80
504.13	440.02
504.30	374.49
504.48	447.04
504.65	451.72
504.83	510.24
505.01	479.81
505.18	416.62
505.36	430.66
505.53	372.15
505.71	411.93
505.88	472.79
506.06	411.93
506.23	360.44
506.41	374.49
506.58	353.42
506.76	433.00
506.93	423.64
507.11	418.96
507.28	435.34
507.46	475.13
507.63	416.62
507.81	421.30
507.98	400.23
508.16	330.02
508.33	414.27
508.50	409.59
508.68	521.94
508.85	339.38
509.03	365.12
509.20	374.49
509.38	423.64
509.55	484.49
509.73	461.09
509.90	430.66
510.08	430.66
510.25	468.11
510.42	386.19
510.60	440.02
510.77	374.49
510.95	407.25
511.12	433.00
511.30	479.81
511.47	416.62
511.64	454.06
511.82	372.15
511.99	421.30
512.17	430.66
512.34	430.66
512.51	411.93
512.69	395.55
512.86	449.38
513.04	447.04
513.21	372.15
513.38	358.10
513.56	430.66
513.73	411.93
513.90	383.85
514.08	414.27
514.25	393.21
514.43	493.85
514.60	407.25
514.77	423.64
514.95	362.78
515.12	353.42
515.29	538.32
515.47	435.34
515.64	447.04
515.81	365.12
515.99	475.13
516.16	416.62
516.33	381.51
516.51	442.36
516.68	423.64
516.85	367.46
517.03	404.91
517.20	433.00
517.37	430.66
517.54	425.98
517.72	400.23
517.89	348.74
518.06	456.40
518.24	489.17
518.41	477.47
518.58	407.25
518.75	360.44
518.93	390.87
519.10	395.55
519.27	381.51
519.45	458.74
519.62	383.85
519.79	367.46
519.96	421.30
520.14	421.30
520.31	421.30
520.48	442.36
520.65	416.62
520.83	395.55
521.00	395.55
521.17	433.00
521.34	404.91
521.52	407.25
521.69	358.10
521.86	404.91
522.03	433.00
522.20	472.79
522.38	477.47
522.55	407.25
522.72	390.87
522.89	404.91
523.07	470.45
523.24	397.89
523.41	409.59
523.58	379.17
523.75	411.93
523.92	451.72
524.10	458.74
524.27	360.44
524.44	421.30
524.61	421.30
524.78	397.89
524.96	383.85
525.13	395.55
525.30	423.64
525.47	400.23
525.64	437.68
525.81	393.21
525.98	435.34
526.16	365.12
526.33	393.21
526.50	379.17
526.67	369.80
526.84	374.49
527.01	390.87
527.18	397.89
527.36	386.19
527.53	369.80
527.70	402.57
527.87	407.25
528.04	451.72
528.21	414.27
528.38	437.68
528.55	423.64
528.72	458.74
528.89	458.74
529.07	341.72
529.24	423.64
529.41	416.62
529.58	393.21
529.75	397.89
529.92	374.49
530.09	367.46
530.26	341.72
530.43	390.87
530.60	498.53
530.77	416.62
530.94	479.81
531.11	484.49
531.28	379.17
531.46	395.55
531.63	351.08
531.80	367.46
531.97	428.32
532.14	428.32
532.31	503.22
532.48	404.91
532.65	449.38
532.82	411.93
532.99	404.91
533.16	397.89
533.33	334.70
533.50	374.49
533.67	470.45
533.84	393.21
534.01	386.19
534.18	458.74
534.35	435.34
534.52	486.83
534.69	423.64
534.86	390.87
535.03	437.68
535.20	395.55
535.37	381.51
535.54	416.62
535.71	418.96
535.88	344.06
536.05	496.19
536.22	451.72
536.38	409.59
536.55	407.25
536.72	374.49
536.89	458.74
537.06	362.78
537.23	447.04
537.40	386.19
537.57	416.62
537.74	463.43
537.91	437.68
538.08	407.25
538.25	414.27
538.42	475.13
538.59	428.32
538.75	414.27
538.92	468.11
539.09	442.36
539.26	369.80
539.43	468.11
539.60	400.23
539.77	421.30
539.94	341.72
540.11	435.34
540.28	435.34
540.44	493.85
540.61	414.27
540.78	482.15
540.95	428.32
541.12	456.40
541.29	409.59
541.46	425.98
541.62	423.64
541.79	376.83
541.96	374.49
542.13	411.93
542.30	393.21
542.47	458.74
542.63	449.38
542.80	388.53
542.97	411.93
543.14	447.04
543.31	442.36
543.48	407.25
543.64	458.74
543.81	409.59
543.98	428.32
544.15	409.59
544.32	421.30
544.48	425.98
544.65	421.30
544.82	400.23
544.99	379.17
545.16	428.32
545.32	383.85
545.49	440.02
545.66	379.17
545.83	402.57
546.00	433.00
546.16	400.23
546.33	468.11
546.50	374.49
546.67	444.70
546.83	479.81
547.00	447.04
547.17	330.02
547.34	451.72
547.50	498.53
547.67	449.38
547.84	395.55
548.00	435.34
548.17	423.64
548.34	449.38
548.51	463.43
548.67	437.68
548.84	397.89
549.01	414.27
549.18	418.96
549.34	381.51
549.51	386.19
549.68	395.55
549.84	348.74
550.01	433.00
550.18	418.96
550.34	479.81
550.51	451.72
550.68	433.00
550.84	451.72
551.01	479.81
551.18	383.85
551.34	425.98
551.51	500.87
551.68	428.32
551.84	454.06
552.01	381.51
552.18	437.68
552.34	465.77
552.51	379.17
552.68	496.19
552.84	449.38
553.01	346.40
553.18	477.47
553.34	470.45
553.51	411.93
553.67	472.79
553.84	437.68
554.01	421.30
554.17	451.72
554.34	449.38
554.51	454.06
554.67	442.36
554.84	388.53
555.00	341.72
555.17	411.93
555.33	496.19
555.50	411.93
555.67	444.70
555.83	393.21
556.00	437.68
556.16	528.96
556.33	491.51
556.50	433.00
556.66	402.57
556.83	470.45
556.99	402.57
557.16	379.17
557.32	341.72
557.49	449.38
557.65	416.62
557.82	418.96
557.98	437.68
558.15	411.93
558.32	449.38
558.48	498.53
558.65	482.15
558.81	428.32
558.98	411.93
559.14	482.15
559.31	461.09
559.47	416.62
559.64	437.68
559.80	428.32
559.97	390.87
560.13	468.11
560.30	360.44
560.46	395.55
560.63	402.57
560.79	444.70
560.96	393.21
561.12	418.96
561.29	395.55
561.45	397.89
561.61	414.27
561.78	524.28
561.94	416.62
562.11	442.36
562.27	376.83
562.44	348.74
562.60	435.34
562.77	393.21
562.93	458.74
563.10	414.27
563.26	442.36
563.42	409.59
563.59	437.68
563.75	449.38
563.92	383.85
564.08	442.36
564.24	475.13
564.41	421.30
564.57	437.68
564.74	418.96
564.90	404.91
565.07	428.32
565.23	428.32
565.39	322.99
565.56	407.25
565.72	407.25
565.88	418.96
566.05	400.23
566.21	484.49
566.38	458.74
566.54	510.24
566.70	428.32
566.87	358.10
567.03	409.59
567.19	390.87
567.36	440.02
567.52	393.21
567.68	463.43
567.85	397.89
568.01	418.96
568.17	465.77
568.34	346.40
568.50	444.70
568.66	386.19
568.83	451.72
568.99	416.62
569.15	447.04
569.32	444.70
569.48	383.85
569.64	440.02
569.81	407.25
569.97	388.53
570.13	437.68
570.30	454.06
570.46	407.25
570.62	442.36
570.78	425.98
570.95	376.83
571.11	498.53
571.27	456.40
571.43	372.15
571.60	458.74
571.76	395.55
571.92	440.02
572.09	397.89
572.25	383.85
572.41	435.34
572.57	395.55
572.74	456.40
572.90	437.68
573.06	435.34
573.22	404.91
573.38	360.44
573.55	465.77
573.71	451.72
573.87	484.49
574.03	381.51
574.20	423.64
574.36	423.64
574.52	414.27
574.68	440.02
574.84	461.09
575.01	423.64
575.17	414.27
575.33	402.57
575.49	472.79
575.65	498.53
575.82	472.79
575.98	447.04
576.14	402.57
576.30	376.83
576.46	437.68
576.62	433.00
576.79	458.74
576.95	437.68
577.11	411.93
577.27	425.98
577.43	407.25
577.59	411.93
577.75	409.59
577.92	437.68
578.08	411.93
578.24	414.27
578.40	484.49
578.56	430.66
578.72	414.27
578.88	423.64
579.04	390.87
579.21	381.51
579.37	369.80
579.53	456.40
579.69	451.72
579.85	346.40
580.01	414.27
580.17	465.77
580.33	425.98
580.49	465.77
580.65	351.08
580.82	411.93
580.98	346.40
581.14	479.81
581.30	458.74
581.46	414.27
581.62	444.70
581.78	374.49
581.94	362.78
582.10	395.55
582.26	395.55
582.42	442.36
582.58	395.55
582.74	442.36
582.90	390.87
583.06	409.59
583.22	425.98
583.38	381.51
583.54	421.30
583.70	421.30
583.86	444.70
584.02	395.55
584.18	416.62
584.34	416.62
584.50	390.87
584.66	388.53
584.82	404.91
584.98	386.19
585.14	479.81
585.30	437.68
585.46	369.80
585.62	372.15
585.78	393.21
585.94	451.72
586.10	369.80
586.26	386.19
586.42	433.00
586.58	418.96
586.74	404.91
586.90	437.68
587.06	388.53
587.22	400.23
587.38	414.27
587.54	416.62
587.70	388.53
587.86	414.27
588.02	322.99
588.18	456.40
588.34	400.23
588.49	390.87
588.65	379.17
588.81	346.40
588.97	407.25
589.13	447.04
589.29	425.98
589.45	472.79
589.61	433.00
589.77	477.47
589.93	451.72
590.08	486.83
590.24	360.44
590.40	367.46
590.56	369.80
590.72	365.12
590.88	402.57
591.04	454.06
591.20	376.83
591.35	428.32
591.51	451.72
591.67	449.38
591.83	393.21
591.99	388.53
592.15	458.74
592.31	463.43
592.46	409.59
592.62	451.72
592.78	393.21
592.94	379.17
593.10	386.19
593.26	379.17
593.41	416.62
593.57	414.27
593.73	463.43
593.89	414.27
594.05	465.77
594.20	402.57
594.36	395.55
594.52	454.06
594.68	456.40
594.84	421.30
594.99	489.17
595.15	465.77
595.31	440.02
595.47	505.56
595.62	433.00
595.78	294.91
595.94	414.27
596.10	428.32
596.25	428.32
596.41	444.70
596.57	468.11
596.73	428.32
596.88	393.21
597.04	449.38
597.20	390.87
597.36	353.42
597.51	437.68
597.67	374.49
597.83	409.59
597.99	428.32
598.14	411.93
598.30	411.93
598.46	425.98
598.61	456.40
598.77	458.74
598.93	388.53
599.09	425.98
599.24	404.91
599.40	423.64
599.56	435.34
599.71	468.11
599.87	454.06
600.03	337.04
600.18	428.32
600.34	418.96
600.50	468.11
600.65	330.02
600.81	341.72
600.97	383.85
601.12	451.72
601.28	479.81
601.44	367.46
601.59	428.32
601.75	440.02
601.91	433.00
602.06	404.91
602.22	425.98
602.37	322.99
602.53	346.40
602.69	414.27
602.84	397.89
603.00	470.45
603.16	430.66
603.31	451.72
603.47	477.47
603.62	430.66
603.78	454.06
603.94	390.87
604.09	360.44
604.25	339.38
604.40	433.00
604.56	369.80
604.71	400.23
604.87	433.00
605.03	437.68
605.18	489.17
605.34	505.56
605.49	395.55
605.65	442.36
605.80	437.68
605.96	369.80
606.12	421.30
606.27	414.27
606.43	423.64
606.58	395.55
606.74	402.57
606.89	409.59
607.05	397.89
607.20	451.72
607.36	435.34
607.51	451.72
607.67	430.66
607.82	425.98
607.98	517.26
608.13	400.23
608.29	416.62
608.44	416.62
608.60	367.46
608.75	463.43
608.91	423.64
609.06	374.49
609.22	369.80
609.37	390.87
609.53	367.46
609.68	388.53
609.84	475.13
609.99	383.85
610.15	339.38
