SpectraSuite Data File
++++++++++++++++++++++++++++++++++++
Date: Fri Oct 25 12:10:49 EDT 2013
User: price-jones
Dark Spectrum Present: No
Reference Spectrum Present: No
Number of Sampled Component Spectra: 1
Spectrometers: USB2+H05261
Integration Time (usec): 100000 (USB2+H05261)
Spectra Averaged: 1 (USB2+H05261)
Boxcar Smoothing: 0 (USB2+H05261)
Correct for Electrical Dark: No (USB2+H05261)
Strobe/Lamp Enabled: No (USB2+H05261)
Correct for Detector Non-linearity: No (USB2+H05261)
Correct for Stray Light: No (USB2+H05261)
Number of Pixels in Processed Spectrum: 2048
>>>>>Begin Processed Spectral Data<<<<<
365.73	301.93
365.92	301.93
366.12	301.93
366.32	273.84
366.52	294.91
366.72	224.69
366.91	264.48
367.11	222.35
367.31	163.84
367.51	231.71
367.70	252.78
367.90	217.67
368.10	257.46
368.30	224.69
368.49	203.63
368.69	161.50
368.89	257.46
369.09	280.86
369.28	177.88
369.48	220.01
369.68	311.29
369.87	273.84
370.07	252.78
370.27	304.27
370.47	339.38
370.66	315.97
370.86	337.04
371.06	332.36
371.25	400.23
371.45	334.70
371.65	376.83
371.84	376.83
372.04	367.46
372.24	402.57
372.44	369.80
372.63	435.34
372.83	407.25
373.03	421.30
373.22	475.13
373.42	423.64
373.62	395.55
373.81	433.00
374.01	409.59
374.21	425.98
374.40	414.27
374.60	400.23
374.79	388.53
374.99	421.30
375.19	388.53
375.38	416.62
375.58	414.27
375.78	482.15
375.97	414.27
376.17	407.25
376.37	397.89
376.56	379.17
376.76	472.79
376.95	479.81
377.15	397.89
377.35	428.32
377.54	400.23
377.74	400.23
377.93	379.17
378.13	365.12
378.33	428.32
378.52	421.30
378.72	498.53
378.91	454.06
379.11	374.49
379.31	416.62
379.50	353.42
379.70	418.96
379.89	491.51
380.09	365.12
380.28	381.51
380.48	313.63
380.68	334.70
380.87	327.68
381.07	367.46
381.26	435.34
381.46	407.25
381.65	472.79
381.85	390.87
382.04	402.57
382.24	365.12
382.43	383.85
382.63	393.21
382.83	447.04
383.02	423.64
383.22	444.70
383.41	437.68
383.61	346.40
383.80	416.62
384.00	327.68
384.19	358.10
384.39	404.91
384.58	416.62
384.78	372.15
384.97	454.06
385.17	435.34
385.36	404.91
385.56	332.36
385.75	416.62
385.95	369.80
386.14	376.83
386.34	355.76
386.53	423.64
386.72	418.96
386.92	491.51
387.11	367.46
387.31	451.72
387.50	372.15
387.70	407.25
387.89	402.57
388.09	423.64
388.28	400.23
388.48	479.81
388.67	418.96
388.86	397.89
389.06	353.42
389.25	369.80
389.45	493.85
389.64	348.74
389.84	409.59
390.03	404.91
390.22	418.96
390.42	383.85
390.61	402.57
390.81	374.49
391.00	393.21
391.19	325.33
391.39	461.09
391.58	379.17
391.78	390.87
391.97	433.00
392.16	360.44
392.36	470.45
392.55	402.57
392.75	360.44
392.94	418.96
393.13	449.38
393.33	411.93
393.52	409.59
393.71	428.32
393.91	416.62
394.10	397.89
394.29	409.59
394.49	388.53
394.68	475.13
394.88	444.70
395.07	397.89
395.26	461.09
395.46	444.70
395.65	400.23
395.84	440.02
396.04	444.70
396.23	334.70
396.42	402.57
396.62	353.42
396.81	402.57
397.00	390.87
397.19	425.98
397.39	402.57
397.58	416.62
397.77	421.30
397.97	383.85
398.16	418.96
398.35	369.80
398.55	433.00
398.74	454.06
398.93	360.44
399.12	383.85
399.32	397.89
399.51	414.27
399.70	374.49
399.90	430.66
400.09	386.19
400.28	407.25
400.47	400.23
400.67	395.55
400.86	414.27
401.05	425.98
401.24	430.66
401.44	430.66
401.63	475.13
401.82	409.59
402.01	468.11
402.21	383.85
402.40	393.21
402.59	440.02
402.78	353.42
402.97	421.30
403.17	416.62
403.36	442.36
403.55	437.68
403.74	386.19
403.93	393.21
404.13	400.23
404.32	381.51
404.51	447.04
404.70	425.98
404.89	454.06
405.09	381.51
405.28	414.27
405.47	409.59
405.66	437.68
405.85	395.55
406.05	444.70
406.24	369.80
406.43	383.85
406.62	428.32
406.81	465.77
407.00	461.09
407.20	334.70
407.39	437.68
407.58	327.68
407.77	393.21
407.96	409.59
408.15	479.81
408.34	430.66
408.54	390.87
408.73	440.02
408.92	367.46
409.11	437.68
409.30	386.19
409.49	477.47
409.68	397.89
409.87	442.36
410.07	447.04
410.26	348.74
410.45	400.23
410.64	358.10
410.83	423.64
411.02	313.63
411.21	440.02
411.40	407.25
411.59	372.15
411.78	454.06
411.98	367.46
412.17	397.89
412.36	390.87
412.55	390.87
412.74	348.74
412.93	418.96
413.12	397.89
413.31	423.64
413.50	358.10
413.69	458.74
413.88	442.36
414.07	379.17
414.26	393.21
414.45	383.85
414.64	430.66
414.83	381.51
415.02	428.32
415.22	411.93
415.41	402.57
415.60	360.44
415.79	433.00
415.98	458.74
416.17	379.17
416.36	360.44
416.55	386.19
416.74	510.24
416.93	442.36
417.12	451.72
417.31	360.44
417.50	421.30
417.69	440.02
417.88	458.74
418.07	367.46
418.26	400.23
418.45	442.36
418.64	454.06
418.83	390.87
419.02	395.55
419.21	402.57
419.39	390.87
419.58	435.34
419.77	374.49
419.96	404.91
420.15	435.34
420.34	360.44
420.53	400.23
420.72	482.15
420.91	428.32
421.10	388.53
421.29	404.91
421.48	365.12
421.67	358.10
421.86	330.02
422.05	437.68
422.24	409.59
422.43	407.25
422.61	344.06
422.80	479.81
422.99	440.02
423.18	374.49
423.37	416.62
423.56	475.13
423.75	362.78
423.94	444.70
424.13	414.27
424.32	463.43
424.50	404.91
424.69	456.40
424.88	421.30
425.07	456.40
425.26	397.89
425.45	383.85
425.64	475.13
425.83	451.72
426.01	447.04
426.20	397.89
426.39	449.38
426.58	351.08
426.77	407.25
426.96	470.45
427.15	486.83
427.33	367.46
427.52	381.51
427.71	334.70
427.90	351.08
428.09	423.64
428.28	465.77
428.46	362.78
428.65	418.96
428.84	407.25
429.03	465.77
429.22	407.25
429.40	430.66
429.59	425.98
429.78	355.76
429.97	393.21
430.16	437.68
430.34	449.38
430.53	379.17
430.72	404.91
430.91	369.80
431.10	449.38
431.28	418.96
431.47	369.80
431.66	372.15
431.85	362.78
432.03	458.74
432.22	428.32
432.41	341.72
432.60	388.53
432.79	395.55
432.97	475.13
433.16	423.64
433.35	421.30
433.54	379.17
433.72	395.55
433.91	390.87
434.10	461.09
434.28	437.68
434.47	386.19
434.66	416.62
434.85	360.44
435.03	381.51
435.22	444.70
435.41	456.40
435.59	407.25
435.78	367.46
435.97	351.08
436.16	428.32
436.34	440.02
436.53	355.76
436.72	369.80
436.90	461.09
437.09	360.44
437.28	444.70
437.46	409.59
437.65	411.93
437.84	526.62
438.02	461.09
438.21	411.93
438.40	404.91
438.58	423.64
438.77	386.19
438.96	472.79
439.14	421.30
439.33	393.21
439.52	435.34
439.70	390.87
439.89	418.96
440.08	416.62
440.26	348.74
440.45	409.59
440.63	393.21
440.82	402.57
441.01	376.83
441.19	381.51
441.38	456.40
441.57	437.68
441.75	381.51
441.94	362.78
442.12	393.21
442.31	454.06
442.50	465.77
442.68	444.70
442.87	423.64
443.05	425.98
443.24	430.66
443.43	418.96
443.61	477.47
443.80	425.98
443.98	463.43
444.17	400.23
444.35	348.74
444.54	404.91
444.73	358.10
444.91	500.87
445.10	416.62
445.28	404.91
445.47	430.66
445.65	440.02
445.84	388.53
446.02	355.76
446.21	475.13
446.39	489.17
446.58	437.68
446.77	418.96
446.95	456.40
447.14	475.13
447.32	409.59
447.51	379.17
447.69	440.02
447.88	433.00
448.06	465.77
448.25	402.57
448.43	388.53
448.62	402.57
448.80	374.49
448.99	428.32
449.17	372.15
449.36	414.27
449.54	416.62
449.73	381.51
449.91	386.19
450.10	421.30
450.28	493.85
450.46	491.51
450.65	461.09
450.83	313.63
451.02	411.93
451.20	369.80
451.39	435.34
451.57	433.00
451.76	369.80
451.94	496.19
452.13	402.57
452.31	465.77
452.49	393.21
452.68	358.10
452.86	388.53
453.05	442.36
453.23	449.38
453.42	374.49
453.60	416.62
453.78	435.34
453.97	475.13
454.15	402.57
454.34	454.06
454.52	444.70
454.70	404.91
454.89	400.23
455.07	435.34
455.26	437.68
455.44	374.49
455.62	500.87
455.81	440.02
455.99	421.30
456.17	381.51
456.36	402.57
456.54	451.72
456.73	402.57
456.91	383.85
457.09	458.74
457.28	418.96
457.46	390.87
457.64	367.46
457.83	360.44
458.01	475.13
458.19	425.98
458.38	360.44
458.56	404.91
458.74	400.23
458.93	461.09
459.11	402.57
459.29	437.68
459.48	404.91
459.66	414.27
459.84	402.57
460.03	521.94
460.21	395.55
460.39	428.32
460.57	496.19
460.76	430.66
460.94	337.04
461.12	493.85
461.31	461.09
461.49	409.59
461.67	374.49
461.85	376.83
462.04	416.62
462.22	772.38
462.40	433.00
462.59	437.68
462.77	472.79
462.95	376.83
463.13	400.23
463.32	463.43
463.50	430.66
463.68	414.27
463.86	390.87
464.05	402.57
464.23	411.93
464.41	386.19
464.59	376.83
464.78	444.70
464.96	358.10
465.14	463.43
465.32	404.91
465.50	421.30
465.69	411.93
465.87	351.08
466.05	447.04
466.23	322.99
466.41	416.62
466.60	411.93
466.78	355.76
466.96	433.00
467.14	482.15
467.32	475.13
467.51	493.85
467.69	458.74
467.87	484.49
468.05	358.10
468.23	407.25
468.41	416.62
468.60	348.74
468.78	402.57
468.96	428.32
469.14	395.55
469.32	379.17
469.50	416.62
469.69	421.30
469.87	358.10
470.05	397.89
470.23	444.70
470.41	416.62
470.59	397.89
470.77	456.40
470.95	402.57
471.14	430.66
471.32	440.02
471.50	449.38
471.68	437.68
471.86	374.49
472.04	341.72
472.22	390.87
472.40	386.19
472.58	451.72
472.77	433.00
472.95	360.44
473.13	418.96
473.31	475.13
473.49	393.21
473.67	418.96
473.85	390.87
474.03	442.36
474.21	444.70
474.39	482.15
474.57	486.83
474.75	416.62
474.93	463.43
475.12	379.17
475.30	369.80
475.48	435.34
475.66	388.53
475.84	425.98
476.02	465.77
476.20	442.36
476.38	428.32
476.56	486.83
476.74	437.68
476.92	428.32
477.10	411.93
477.28	397.89
477.46	360.44
477.64	383.85
477.82	430.66
478.00	404.91
478.18	409.59
478.36	414.27
478.54	409.59
478.72	400.23
478.90	421.30
479.08	358.10
479.26	407.25
479.44	430.66
479.62	351.08
479.80	423.64
479.98	360.44
480.16	407.25
480.34	418.96
480.52	468.11
480.70	409.59
480.88	341.72
481.06	425.98
481.24	437.68
481.41	437.68
481.59	390.87
481.77	360.44
481.95	351.08
482.13	456.40
482.31	367.46
482.49	351.08
482.67	458.74
482.85	475.13
483.03	475.13
483.21	444.70
483.39	440.02
483.57	458.74
483.74	486.83
483.92	423.64
484.10	421.30
484.28	416.62
484.46	456.40
484.64	421.30
484.82	416.62
485.00	409.59
485.18	374.49
485.35	395.55
485.53	397.89
485.71	442.36
485.89	402.57
486.07	482.15
486.25	400.23
486.43	482.15
486.61	402.57
486.78	411.93
486.96	395.55
487.14	390.87
487.32	442.36
487.50	428.32
487.68	383.85
487.85	353.42
488.03	421.30
488.21	409.59
488.39	360.44
488.57	423.64
488.75	404.91
488.92	514.92
489.10	388.53
489.28	435.34
489.46	381.51
489.64	393.21
489.81	433.00
489.99	379.17
490.17	358.10
490.35	519.60
490.53	411.93
490.70	348.74
490.88	351.08
491.06	402.57
491.24	409.59
491.41	486.83
491.59	414.27
491.77	470.45
491.95	395.55
492.13	461.09
492.30	514.92
492.48	421.30
492.66	379.17
492.84	449.38
493.01	381.51
493.19	423.64
493.37	491.51
493.54	397.89
493.72	418.96
493.90	449.38
494.08	376.83
494.25	393.21
494.43	402.57
494.61	400.23
494.79	416.62
494.96	479.81
495.14	390.87
495.32	390.87
495.49	451.72
495.67	433.00
495.85	395.55
496.02	369.80
496.20	447.04
496.38	430.66
496.55	397.89
496.73	437.68
496.91	315.97
497.09	461.09
497.26	442.36
497.44	351.08
497.62	409.59
497.79	404.91
497.97	374.49
498.14	409.59
498.32	365.12
498.50	411.93
498.67	402.57
498.85	388.53
499.03	388.53
499.20	407.25
499.38	393.21
499.56	409.59
499.73	388.53
499.91	404.91
500.08	463.43
500.26	428.32
500.44	411.93
500.61	379.17
500.79	400.23
500.97	421.30
501.14	414.27
501.32	440.02
501.49	449.38
501.67	458.74
501.84	428.32
502.02	418.96
502.20	456.40
502.37	435.34
502.55	414.27
502.72	334.70
502.90	351.08
503.07	402.57
503.25	376.83
503.43	353.42
503.60	423.64
503.78	435.34
503.95	409.59
504.13	416.62
504.30	414.27
504.48	383.85
504.65	517.26
504.83	397.89
505.01	435.34
505.18	390.87
505.36	374.49
505.53	475.13
505.71	376.83
505.88	397.89
506.06	374.49
506.23	346.40
506.41	421.30
506.58	397.89
506.76	430.66
506.93	400.23
507.11	421.30
507.28	390.87
507.46	407.25
507.63	435.34
507.81	418.96
507.98	393.21
508.16	416.62
508.33	414.27
508.50	449.38
508.68	493.85
508.85	418.96
509.03	425.98
509.20	416.62
509.38	475.13
509.55	428.32
509.73	421.30
509.90	411.93
510.08	360.44
510.25	322.99
510.42	379.17
510.60	393.21
510.77	372.15
510.95	388.53
511.12	383.85
511.30	355.76
511.47	381.51
511.64	409.59
511.82	454.06
511.99	411.93
512.17	468.11
512.34	360.44
512.51	442.36
512.69	369.80
512.86	503.22
513.04	428.32
513.21	503.22
513.38	390.87
513.56	423.64
513.73	376.83
513.90	451.72
514.08	386.19
514.25	433.00
514.43	416.62
514.60	404.91
514.77	397.89
514.95	421.30
515.12	475.13
515.29	470.45
515.47	477.47
515.64	404.91
515.81	367.46
515.99	454.06
516.16	461.09
516.33	430.66
516.51	372.15
516.68	404.91
516.85	435.34
517.03	416.62
517.20	374.49
517.37	418.96
517.54	400.23
517.72	449.38
517.89	400.23
518.06	372.15
518.24	475.13
518.41	449.38
518.58	435.34
518.75	397.89
518.93	404.91
519.10	418.96
519.27	456.40
519.45	458.74
519.62	341.72
519.79	397.89
519.96	390.87
520.14	454.06
520.31	463.43
520.48	505.56
520.65	510.24
520.83	489.17
521.00	475.13
521.17	423.64
521.34	308.95
521.52	416.62
521.69	308.95
521.86	440.02
522.03	428.32
522.20	498.53
522.38	433.00
522.55	407.25
522.72	428.32
522.89	514.92
523.07	456.40
523.24	425.98
523.41	393.21
523.58	409.59
523.75	400.23
523.92	435.34
524.10	433.00
524.27	358.10
524.44	437.68
524.61	465.77
524.78	374.49
524.96	360.44
525.13	430.66
525.30	486.83
525.47	435.34
525.64	416.62
525.81	407.25
525.98	400.23
526.16	444.70
526.33	433.00
526.50	421.30
526.67	428.32
526.84	376.83
527.01	404.91
527.18	395.55
527.36	390.87
527.53	372.15
527.70	433.00
527.87	416.62
528.04	461.09
528.21	304.27
528.38	440.02
528.55	442.36
528.72	425.98
528.89	472.79
529.07	416.62
529.24	454.06
529.41	404.91
529.58	416.62
529.75	428.32
529.92	423.64
530.09	468.11
530.26	416.62
530.43	402.57
530.60	449.38
530.77	411.93
530.94	397.89
531.11	388.53
531.28	388.53
531.46	383.85
531.63	383.85
531.80	430.66
531.97	482.15
532.14	486.83
532.31	449.38
532.48	468.11
532.65	442.36
532.82	379.17
532.99	461.09
533.16	315.97
533.33	414.27
533.50	465.77
533.67	430.66
533.84	411.93
534.01	407.25
534.18	383.85
534.35	414.27
534.52	449.38
534.69	362.78
534.86	414.27
535.03	341.72
535.20	428.32
535.37	411.93
535.54	379.17
535.71	472.79
535.88	402.57
536.05	421.30
536.22	463.43
536.38	428.32
536.55	404.91
536.72	409.59
536.89	430.66
537.06	475.13
537.23	421.30
537.40	400.23
537.57	337.04
537.74	454.06
537.91	433.00
538.08	388.53
538.25	444.70
538.42	437.68
538.59	435.34
538.75	491.51
538.92	507.90
539.09	440.02
539.26	402.57
539.43	390.87
539.60	379.17
539.77	379.17
539.94	344.06
540.11	409.59
540.28	458.74
540.44	465.77
540.61	348.74
540.78	367.46
540.95	365.12
541.12	510.24
541.29	404.91
541.46	444.70
541.62	425.98
541.79	404.91
541.96	386.19
542.13	397.89
542.30	360.44
542.47	374.49
542.63	402.57
542.80	367.46
542.97	421.30
543.14	463.43
543.31	411.93
543.48	374.49
543.64	404.91
543.81	383.85
543.98	393.21
544.15	390.87
544.32	475.13
544.48	444.70
544.65	435.34
544.82	395.55
544.99	421.30
545.16	402.57
545.32	379.17
545.49	402.57
545.66	514.92
545.83	327.68
546.00	383.85
546.16	395.55
546.33	404.91
546.50	409.59
546.67	447.04
546.83	472.79
547.00	489.17
547.17	404.91
547.34	308.95
547.50	456.40
547.67	414.27
547.84	404.91
548.00	393.21
548.17	444.70
548.34	411.93
548.51	435.34
548.67	369.80
548.84	418.96
549.01	388.53
549.18	433.00
549.34	386.19
549.51	421.30
549.68	470.45
549.84	430.66
550.01	472.79
550.18	454.06
550.34	456.40
550.51	409.59
550.68	449.38
550.84	379.17
551.01	395.55
551.18	461.09
551.34	409.59
551.51	423.64
551.68	353.42
551.84	402.57
552.01	404.91
552.18	430.66
552.34	444.70
552.51	355.76
552.68	409.59
552.84	414.27
553.01	440.02
553.18	470.45
553.34	451.72
553.51	477.47
553.67	444.70
553.84	449.38
554.01	430.66
554.17	414.27
554.34	341.72
554.51	411.93
554.67	437.68
554.84	449.38
555.00	477.47
555.17	383.85
555.33	362.78
555.50	430.66
555.67	461.09
555.83	433.00
556.00	425.98
556.16	550.03
556.33	454.06
556.50	390.87
556.66	404.91
556.83	393.21
556.99	440.02
557.16	416.62
557.32	346.40
557.49	472.79
557.65	433.00
557.82	386.19
557.98	435.34
558.15	409.59
558.32	463.43
558.48	440.02
558.65	425.98
558.81	397.89
558.98	362.78
559.14	430.66
559.31	479.81
559.47	451.72
559.64	374.49
559.80	383.85
559.97	475.13
560.13	428.32
560.30	433.00
560.46	416.62
560.63	334.70
560.79	393.21
560.96	435.34
561.12	337.04
561.29	386.19
561.45	400.23
561.61	383.85
561.78	468.11
561.94	433.00
562.11	463.43
562.27	484.49
562.44	379.17
562.60	463.43
562.77	409.59
562.93	425.98
563.10	414.27
563.26	404.91
563.42	451.72
563.59	451.72
563.75	414.27
563.92	456.40
564.08	365.12
564.24	376.83
564.41	482.15
564.57	402.57
564.74	447.04
564.90	400.23
565.07	440.02
565.23	428.32
565.39	458.74
565.56	407.25
565.72	411.93
565.88	454.06
566.05	425.98
566.21	372.15
566.38	416.62
566.54	477.47
566.70	505.56
566.87	428.32
567.03	444.70
567.19	430.66
567.36	489.17
567.52	365.12
567.68	388.53
567.85	379.17
568.01	346.40
568.17	470.45
568.34	369.80
568.50	461.09
568.66	421.30
568.83	468.11
568.99	400.23
569.15	425.98
569.32	390.87
569.48	416.62
569.64	386.19
569.81	360.44
569.97	374.49
570.13	416.62
570.30	376.83
570.46	381.51
570.62	404.91
570.78	430.66
570.95	397.89
571.11	416.62
571.27	425.98
571.43	400.23
571.60	404.91
571.76	449.38
571.92	376.83
572.09	362.78
572.25	421.30
572.41	475.13
572.57	442.36
572.74	400.23
572.90	447.04
573.06	479.81
573.22	379.17
573.38	416.62
573.55	435.34
573.71	442.36
573.87	381.51
574.03	376.83
574.20	407.25
574.36	461.09
574.52	472.79
574.68	423.64
574.84	475.13
575.01	367.46
575.17	402.57
575.33	463.43
575.49	379.17
575.65	456.40
575.82	430.66
575.98	372.15
576.14	442.36
576.30	451.72
576.46	409.59
576.62	390.87
576.79	458.74
576.95	472.79
577.11	379.17
577.27	409.59
577.43	425.98
577.59	428.32
577.75	386.19
577.92	348.74
578.08	395.55
578.24	407.25
578.40	456.40
578.56	395.55
578.72	437.68
578.88	468.11
579.04	353.42
579.21	409.59
579.37	458.74
579.53	470.45
579.69	500.87
579.85	437.68
580.01	409.59
580.17	379.17
580.33	386.19
580.49	442.36
580.65	407.25
580.82	444.70
580.98	404.91
581.14	362.78
581.30	416.62
581.46	407.25
581.62	465.77
581.78	409.59
581.94	414.27
582.10	397.89
582.26	390.87
582.42	407.25
582.58	449.38
582.74	390.87
582.90	381.51
583.06	379.17
583.22	475.13
583.38	465.77
583.54	365.12
583.70	433.00
583.86	355.76
584.02	465.77
584.18	390.87
584.34	477.47
584.50	475.13
584.66	404.91
584.82	358.10
584.98	393.21
585.14	383.85
585.30	407.25
585.46	367.46
585.62	362.78
585.78	397.89
585.94	477.47
586.10	390.87
586.26	397.89
586.42	447.04
586.58	435.34
586.74	365.12
586.90	416.62
587.06	470.45
587.22	437.68
587.38	337.04
587.54	430.66
587.70	496.19
587.86	447.04
588.02	365.12
588.18	404.91
588.34	428.32
588.49	315.97
588.65	447.04
588.81	418.96
588.97	348.74
589.13	442.36
589.29	367.46
589.45	456.40
589.61	404.91
589.77	444.70
589.93	386.19
590.08	444.70
590.24	379.17
590.40	348.74
590.56	416.62
590.72	367.46
590.88	414.27
591.04	433.00
591.20	423.64
591.35	444.70
591.51	358.10
591.67	381.51
591.83	425.98
591.99	397.89
592.15	451.72
592.31	435.34
592.46	463.43
592.62	430.66
592.78	409.59
592.94	365.12
593.10	458.74
593.26	374.49
593.41	437.68
593.57	440.02
593.73	390.87
593.89	393.21
594.05	447.04
594.20	360.44
594.36	442.36
594.52	325.33
594.68	348.74
594.84	423.64
594.99	433.00
595.15	470.45
595.31	365.12
595.47	444.70
595.62	337.04
595.78	395.55
595.94	386.19
596.10	423.64
596.25	449.38
596.41	411.93
596.57	442.36
596.73	404.91
596.88	444.70
597.04	369.80
597.20	425.98
597.36	416.62
597.51	404.91
597.67	444.70
597.83	386.19
597.99	425.98
598.14	463.43
598.30	402.57
598.46	386.19
598.61	458.74
598.77	402.57
598.93	416.62
599.09	325.33
599.24	418.96
599.40	447.04
599.56	425.98
599.71	456.40
599.87	484.49
600.03	365.12
600.18	407.25
600.34	463.43
600.50	390.87
600.65	409.59
600.81	440.02
600.97	379.17
601.12	355.76
601.28	433.00
601.44	390.87
601.59	421.30
601.75	411.93
601.91	411.93
602.06	397.89
602.22	526.62
602.37	482.15
602.53	411.93
602.69	390.87
602.84	372.15
603.00	465.77
603.16	390.87
603.31	493.85
603.47	358.10
603.62	409.59
603.78	390.87
603.94	414.27
604.09	390.87
604.25	386.19
604.40	404.91
604.56	388.53
604.71	337.04
604.87	393.21
605.03	362.78
605.18	458.74
605.34	395.55
605.49	332.36
605.65	395.55
605.80	418.96
605.96	461.09
606.12	458.74
606.27	409.59
606.43	449.38
606.58	418.96
606.74	397.89
606.89	421.30
607.05	379.17
607.20	451.72
607.36	369.80
607.51	461.09
607.67	390.87
607.82	447.04
607.98	465.77
608.13	369.80
608.29	435.34
608.44	414.27
608.60	365.12
608.75	442.36
608.91	365.12
609.06	395.55
609.22	395.55
609.37	418.96
609.53	395.55
609.68	395.55
609.84	437.68
609.99	418.96
610.15	414.27
