SpectraSuite Data File
++++++++++++++++++++++++++++++++++++
Date: Fri Oct 25 12:10:30 EDT 2013
User: price-jones
Dark Spectrum Present: No
Reference Spectrum Present: No
Number of Sampled Component Spectra: 1
Spectrometers: USB2+H05261
Integration Time (usec): 100000 (USB2+H05261)
Spectra Averaged: 1 (USB2+H05261)
Boxcar Smoothing: 0 (USB2+H05261)
Correct for Electrical Dark: No (USB2+H05261)
Strobe/Lamp Enabled: No (USB2+H05261)
Correct for Detector Non-linearity: No (USB2+H05261)
Correct for Stray Light: No (USB2+H05261)
Number of Pixels in Processed Spectrum: 2048
>>>>>Begin Processed Spectral Data<<<<<
365.73	365.12
365.92	365.12
366.12	365.12
366.32	262.14
366.52	145.11
366.72	203.63
366.91	201.29
367.11	191.92
367.31	173.20
367.51	236.39
367.70	203.63
367.90	306.61
368.10	238.73
368.30	203.63
368.49	220.01
368.69	276.18
368.89	259.80
369.09	252.78
369.28	330.02
369.48	308.95
369.68	292.57
369.87	271.50
370.07	318.31
370.27	358.10
370.47	346.40
370.66	271.50
370.86	292.57
371.06	449.38
371.25	425.98
371.45	393.21
371.65	355.76
371.84	416.62
372.04	341.72
372.24	341.72
372.44	470.45
372.63	367.46
372.83	411.93
373.03	376.83
373.22	425.98
373.42	351.08
373.62	390.87
373.81	409.59
374.01	454.06
374.21	407.25
374.40	381.51
374.60	442.36
374.79	461.09
374.99	421.30
375.19	411.93
375.38	435.34
375.58	383.85
375.78	444.70
375.97	456.40
376.17	414.27
376.37	407.25
376.56	390.87
376.76	404.91
376.95	430.66
377.15	440.02
377.35	369.80
377.54	430.66
377.74	456.40
377.93	440.02
378.13	397.89
378.33	386.19
378.52	348.74
378.72	358.10
378.91	388.53
379.11	339.38
379.31	451.72
379.50	318.31
379.70	472.79
379.89	409.59
380.09	362.78
380.28	407.25
380.48	421.30
380.68	409.59
380.87	374.49
381.07	376.83
381.26	430.66
381.46	402.57
381.65	433.00
381.85	437.68
382.04	414.27
382.24	397.89
382.43	330.02
382.63	367.46
382.83	355.76
383.02	454.06
383.22	393.21
383.41	393.21
383.61	362.78
383.80	388.53
384.00	360.44
384.19	397.89
384.39	395.55
384.58	454.06
384.78	393.21
384.97	461.09
385.17	425.98
385.36	369.80
385.56	404.91
385.75	390.87
385.95	440.02
386.14	367.46
386.34	383.85
386.53	367.46
386.72	416.62
386.92	477.47
387.11	416.62
387.31	435.34
387.50	383.85
387.70	468.11
387.89	388.53
388.09	440.02
388.28	386.19
388.48	348.74
388.67	461.09
388.86	456.40
389.06	381.51
389.25	379.17
389.45	313.63
389.64	374.49
389.84	409.59
390.03	367.46
390.22	376.83
390.42	440.02
390.61	360.44
390.81	388.53
391.00	437.68
391.19	479.81
391.39	386.19
391.58	369.80
391.78	367.46
391.97	423.64
392.16	416.62
392.36	512.58
392.55	435.34
392.75	449.38
392.94	416.62
393.13	416.62
393.33	367.46
393.52	397.89
393.71	365.12
393.91	320.65
394.10	444.70
394.29	388.53
394.49	376.83
394.68	442.36
394.88	395.55
395.07	346.40
395.26	376.83
395.46	421.30
395.65	402.57
395.84	411.93
396.04	475.13
396.23	414.27
396.42	362.78
396.62	425.98
396.81	416.62
397.00	428.32
397.19	365.12
397.39	414.27
397.58	360.44
397.77	421.30
397.97	435.34
398.16	395.55
398.35	440.02
398.55	362.78
398.74	402.57
398.93	500.87
399.12	395.55
399.32	400.23
399.51	400.23
399.70	479.81
399.90	416.62
400.09	388.53
400.28	433.00
400.47	395.55
400.67	477.47
400.86	402.57
401.05	486.83
401.24	435.34
401.44	383.85
401.63	437.68
401.82	388.53
402.01	374.49
402.21	421.30
402.40	393.21
402.59	428.32
402.78	437.68
402.97	472.79
403.17	393.21
403.36	400.23
403.55	395.55
403.74	416.62
403.93	393.21
404.13	442.36
404.32	397.89
404.51	374.49
404.70	348.74
404.89	383.85
405.09	451.72
405.28	346.40
405.47	365.12
405.66	358.10
405.85	383.85
406.05	374.49
406.24	383.85
406.43	444.70
406.62	400.23
406.81	463.43
407.00	444.70
407.20	451.72
407.39	437.68
407.58	407.25
407.77	374.49
407.96	479.81
408.15	435.34
408.34	458.74
408.54	451.72
408.73	337.04
408.92	404.91
409.11	421.30
409.30	425.98
409.49	395.55
409.68	348.74
409.87	449.38
410.07	435.34
410.26	372.15
410.45	407.25
410.64	346.40
410.83	372.15
411.02	484.49
411.21	423.64
411.40	402.57
411.59	425.98
411.78	390.87
411.98	423.64
412.17	358.10
412.36	404.91
412.55	376.83
412.74	423.64
412.93	451.72
413.12	418.96
413.31	418.96
413.50	369.80
413.69	379.17
413.88	414.27
414.07	397.89
414.26	425.98
414.45	435.34
414.64	444.70
414.83	402.57
415.02	456.40
415.22	425.98
415.41	423.64
415.60	411.93
415.79	362.78
415.98	376.83
416.17	381.51
416.36	402.57
416.55	397.89
416.74	360.44
416.93	379.17
417.12	327.68
417.31	369.80
417.50	400.23
417.69	496.19
417.88	388.53
418.07	449.38
418.26	411.93
418.45	433.00
418.64	463.43
418.83	444.70
419.02	451.72
419.21	414.27
419.39	388.53
419.58	444.70
419.77	442.36
419.96	425.98
420.15	404.91
420.34	372.15
420.53	400.23
420.72	393.21
420.91	395.55
421.10	416.62
421.29	411.93
421.48	447.04
421.67	397.89
421.86	421.30
422.05	365.12
422.24	395.55
422.43	451.72
422.61	390.87
422.80	379.17
422.99	442.36
423.18	353.42
423.37	463.43
423.56	437.68
423.75	407.25
423.94	402.57
424.13	486.83
424.32	409.59
424.50	414.27
424.69	395.55
424.88	404.91
425.07	379.17
425.26	444.70
425.45	433.00
425.64	444.70
425.83	421.30
426.01	423.64
426.20	416.62
426.39	313.63
426.58	332.36
426.77	437.68
426.96	435.34
427.15	411.93
427.33	428.32
427.52	440.02
427.71	416.62
427.90	409.59
428.09	418.96
428.28	351.08
428.46	437.68
428.65	351.08
428.84	451.72
429.03	538.32
429.22	400.23
429.40	456.40
429.59	360.44
429.78	442.36
429.97	402.57
430.16	449.38
430.34	372.15
430.53	416.62
430.72	390.87
430.91	393.21
431.10	367.46
431.28	430.66
431.47	440.02
431.66	414.27
431.85	360.44
432.03	451.72
432.22	430.66
432.41	407.25
432.60	489.17
432.79	423.64
432.97	407.25
433.16	418.96
433.35	381.51
433.54	484.49
433.72	463.43
433.91	376.83
434.10	344.06
434.28	369.80
434.47	442.36
434.66	395.55
434.85	407.25
435.03	425.98
435.22	435.34
435.41	447.04
435.59	465.77
435.78	416.62
435.97	404.91
436.16	512.58
436.34	388.53
436.53	435.34
436.72	388.53
436.90	442.36
437.09	423.64
437.28	425.98
437.46	407.25
437.65	386.19
437.84	493.85
438.02	454.06
438.21	376.83
438.40	456.40
438.58	395.55
438.77	346.40
438.96	395.55
439.14	351.08
439.33	395.55
439.52	360.44
439.70	442.36
439.89	404.91
440.08	454.06
440.26	425.98
440.45	402.57
440.63	374.49
440.82	489.17
441.01	418.96
441.19	400.23
441.38	440.02
441.57	416.62
441.75	435.34
441.94	489.17
442.12	400.23
442.31	428.32
442.50	472.79
442.68	407.25
442.87	360.44
443.05	456.40
443.24	447.04
443.43	402.57
443.61	477.47
443.80	386.19
443.98	449.38
444.17	468.11
444.35	433.00
444.54	418.96
444.73	416.62
444.91	411.93
445.10	374.49
445.28	425.98
445.47	395.55
445.65	395.55
445.84	486.83
446.02	428.32
446.21	376.83
446.39	411.93
446.58	381.51
446.77	325.33
446.95	428.32
447.14	454.06
447.32	409.59
447.51	425.98
447.69	407.25
447.88	442.36
448.06	472.79
448.25	393.21
448.43	379.17
448.62	409.59
448.80	428.32
448.99	465.77
449.17	414.27
449.36	369.80
449.54	479.81
449.73	388.53
449.91	388.53
450.10	423.64
450.28	390.87
450.46	442.36
450.65	461.09
450.83	425.98
451.02	390.87
451.20	437.68
451.39	479.81
451.57	430.66
451.76	465.77
451.94	416.62
452.13	484.49
452.31	444.70
452.49	454.06
452.68	451.72
452.86	461.09
453.05	470.45
453.23	454.06
453.42	390.87
453.60	404.91
453.78	369.80
453.97	456.40
454.15	379.17
454.34	372.15
454.52	449.38
454.70	454.06
454.89	458.74
455.07	447.04
455.26	379.17
455.44	416.62
455.62	411.93
455.81	416.62
455.99	486.83
456.17	418.96
456.36	414.27
456.54	421.30
456.73	433.00
456.91	388.53
457.09	337.04
457.28	451.72
457.46	456.40
457.64	397.89
457.83	447.04
458.01	339.38
458.19	379.17
458.38	461.09
458.56	383.85
458.74	425.98
458.93	468.11
459.11	416.62
459.29	376.83
459.48	411.93
459.66	381.51
459.84	395.55
460.03	521.94
460.21	360.44
460.39	442.36
460.57	409.59
460.76	409.59
460.94	421.30
461.12	423.64
461.31	393.21
461.49	367.46
461.67	402.57
461.85	496.19
462.04	404.91
462.22	692.80
462.40	447.04
462.59	421.30
462.77	482.15
462.95	477.47
463.13	400.23
463.32	402.57
463.50	428.32
463.68	416.62
463.86	388.53
464.05	423.64
464.23	472.79
464.41	414.27
464.59	407.25
464.78	407.25
464.96	423.64
465.14	442.36
465.32	379.17
465.50	435.34
465.69	449.38
465.87	411.93
466.05	393.21
466.23	355.76
466.41	442.36
466.60	444.70
466.78	435.34
466.96	397.89
467.14	435.34
467.32	407.25
467.51	472.79
467.69	395.55
467.87	437.68
468.05	454.06
468.23	423.64
468.41	442.36
468.60	430.66
468.78	397.89
468.96	374.49
469.14	482.15
469.32	461.09
469.50	351.08
469.69	351.08
469.87	477.47
470.05	444.70
470.23	360.44
470.41	393.21
470.59	456.40
470.77	465.77
470.95	430.66
471.14	379.17
471.32	414.27
471.50	458.74
471.68	411.93
471.86	383.85
472.04	435.34
472.22	339.38
472.40	348.74
472.58	435.34
472.77	416.62
472.95	400.23
473.13	360.44
473.31	416.62
473.49	367.46
473.67	451.72
473.85	444.70
474.03	456.40
474.21	409.59
474.39	421.30
474.57	440.02
474.75	393.21
474.93	409.59
475.12	360.44
475.30	407.25
475.48	386.19
475.66	411.93
475.84	374.49
476.02	379.17
476.20	369.80
476.38	393.21
476.56	503.22
476.74	449.38
476.92	362.78
477.10	404.91
477.28	376.83
477.46	463.43
477.64	421.30
477.82	381.51
478.00	390.87
478.18	425.98
478.36	468.11
478.54	479.81
478.72	383.85
478.90	416.62
479.08	411.93
479.26	456.40
479.44	437.68
479.62	400.23
479.80	358.10
479.98	369.80
480.16	369.80
480.34	461.09
480.52	465.77
480.70	472.79
480.88	351.08
481.06	402.57
481.24	414.27
481.41	397.89
481.59	491.51
481.77	386.19
481.95	402.57
482.13	435.34
482.31	470.45
482.49	430.66
482.67	418.96
482.85	386.19
483.03	409.59
483.21	414.27
483.39	423.64
483.57	386.19
483.74	449.38
483.92	400.23
484.10	451.72
484.28	477.47
484.46	425.98
484.64	482.15
484.82	517.26
485.00	397.89
485.18	425.98
485.35	386.19
485.53	437.68
485.71	411.93
485.89	393.21
486.07	454.06
486.25	500.87
486.43	454.06
486.61	404.91
486.78	327.68
486.96	381.51
487.14	425.98
487.32	486.83
487.50	393.21
487.68	449.38
487.85	351.08
488.03	416.62
488.21	425.98
488.39	433.00
488.57	400.23
488.75	390.87
488.92	456.40
489.10	440.02
489.28	440.02
489.46	449.38
489.64	442.36
489.81	456.40
489.99	435.34
490.17	498.53
490.35	400.23
490.53	414.27
490.70	334.70
490.88	477.47
491.06	409.59
491.24	402.57
491.41	472.79
491.59	341.72
491.77	379.17
491.95	379.17
492.13	360.44
492.30	379.17
492.48	411.93
492.66	451.72
492.84	435.34
493.01	458.74
493.19	421.30
493.37	461.09
493.54	411.93
493.72	465.77
493.90	400.23
494.08	430.66
494.25	468.11
494.43	362.78
494.61	369.80
494.79	388.53
494.96	390.87
495.14	393.21
495.32	402.57
495.49	409.59
495.67	440.02
495.85	458.74
496.02	344.06
496.20	468.11
496.38	381.51
496.55	454.06
496.73	425.98
496.91	348.74
497.09	489.17
497.26	409.59
497.44	414.27
497.62	454.06
497.79	376.83
497.97	425.98
498.14	360.44
498.32	400.23
498.50	416.62
498.67	379.17
498.85	437.68
499.03	463.43
499.20	322.99
499.38	423.64
499.56	428.32
499.73	433.00
499.91	393.21
500.08	440.02
500.26	390.87
500.44	411.93
500.61	425.98
500.79	404.91
500.97	479.81
501.14	404.91
501.32	423.64
501.49	442.36
501.67	400.23
501.84	395.55
502.02	393.21
502.20	421.30
502.37	421.30
502.55	353.42
502.72	360.44
502.90	428.32
503.07	454.06
503.25	393.21
503.43	421.30
503.60	411.93
503.78	402.57
503.95	475.13
504.13	442.36
504.30	468.11
504.48	430.66
504.65	454.06
504.83	458.74
505.01	425.98
505.18	451.72
505.36	365.12
505.53	409.59
505.71	428.32
505.88	421.30
506.06	421.30
506.23	409.59
506.41	449.38
506.58	451.72
506.76	395.55
506.93	442.36
507.11	386.19
507.28	430.66
507.46	440.02
507.63	442.36
507.81	374.49
507.98	404.91
508.16	388.53
508.33	374.49
508.50	416.62
508.68	421.30
508.85	372.15
509.03	456.40
509.20	433.00
509.38	395.55
509.55	512.58
509.73	400.23
509.90	454.06
510.08	393.21
510.25	383.85
510.42	397.89
510.60	411.93
510.77	440.02
510.95	367.46
511.12	390.87
511.30	442.36
511.47	447.04
511.64	447.04
511.82	475.13
511.99	475.13
512.17	449.38
512.34	468.11
512.51	376.83
512.69	442.36
512.86	461.09
513.04	440.02
513.21	437.68
513.38	358.10
513.56	355.76
513.73	397.89
513.90	461.09
514.08	348.74
514.25	393.21
514.43	400.23
514.60	400.23
514.77	397.89
514.95	409.59
515.12	334.70
515.29	402.57
515.47	477.47
515.64	414.27
515.81	418.96
515.99	475.13
516.16	400.23
516.33	393.21
516.51	407.25
516.68	425.98
516.85	416.62
517.03	355.76
517.20	351.08
517.37	409.59
517.54	437.68
517.72	463.43
517.89	348.74
518.06	416.62
518.24	498.53
518.41	468.11
518.58	470.45
518.75	365.12
518.93	437.68
519.10	421.30
519.27	437.68
519.45	404.91
519.62	411.93
519.79	425.98
519.96	428.32
520.14	374.49
520.31	411.93
520.48	444.70
520.65	388.53
520.83	428.32
521.00	475.13
521.17	425.98
521.34	402.57
521.52	400.23
521.69	395.55
521.86	386.19
522.03	458.74
522.20	484.49
522.38	475.13
522.55	442.36
522.72	395.55
522.89	524.28
523.07	404.91
523.24	418.96
523.41	388.53
523.58	465.77
523.75	318.31
523.92	416.62
524.10	421.30
524.27	465.77
524.44	395.55
524.61	407.25
524.78	353.42
524.96	468.11
525.13	451.72
525.30	477.47
525.47	468.11
525.64	379.17
525.81	400.23
525.98	440.02
526.16	449.38
526.33	430.66
526.50	428.32
526.67	433.00
526.84	463.43
527.01	397.89
527.18	484.49
527.36	379.17
527.53	376.83
527.70	407.25
527.87	409.59
528.04	465.77
528.21	395.55
528.38	440.02
528.55	458.74
528.72	423.64
528.89	493.85
529.07	383.85
529.24	421.30
529.41	458.74
529.58	376.83
529.75	383.85
529.92	411.93
530.09	477.47
530.26	458.74
530.43	447.04
530.60	414.27
530.77	423.64
530.94	411.93
531.11	521.94
531.28	339.38
531.46	421.30
531.63	418.96
531.80	416.62
531.97	423.64
532.14	376.83
532.31	390.87
532.48	411.93
532.65	468.11
532.82	421.30
532.99	463.43
533.16	407.25
533.33	376.83
533.50	468.11
533.67	393.21
533.84	430.66
534.01	397.89
534.18	437.68
534.35	402.57
534.52	475.13
534.69	414.27
534.86	430.66
535.03	353.42
535.20	379.17
535.37	435.34
535.54	409.59
535.71	425.98
535.88	433.00
536.05	376.83
536.22	423.64
536.38	393.21
536.55	395.55
536.72	458.74
536.89	491.51
537.06	386.19
537.23	407.25
537.40	444.70
537.57	369.80
537.74	416.62
537.91	433.00
538.08	475.13
538.25	435.34
538.42	393.21
538.59	383.85
538.75	400.23
538.92	418.96
539.09	423.64
539.26	388.53
539.43	489.17
539.60	353.42
539.77	407.25
539.94	416.62
540.11	433.00
540.28	463.43
540.44	407.25
540.61	390.87
540.78	454.06
540.95	425.98
541.12	402.57
541.29	397.89
541.46	531.30
541.62	355.76
541.79	454.06
541.96	416.62
542.13	425.98
542.30	379.17
542.47	477.47
542.63	440.02
542.80	428.32
542.97	390.87
543.14	428.32
543.31	404.91
543.48	397.89
543.64	437.68
543.81	393.21
543.98	341.72
544.15	360.44
544.32	325.33
544.48	411.93
544.65	365.12
544.82	449.38
544.99	393.21
545.16	433.00
545.32	374.49
545.49	418.96
545.66	421.30
545.83	379.17
546.00	440.02
546.16	362.78
546.33	411.93
546.50	390.87
546.67	421.30
546.83	470.45
547.00	433.00
547.17	479.81
547.34	454.06
547.50	374.49
547.67	461.09
547.84	437.68
548.00	390.87
548.17	365.12
548.34	404.91
548.51	367.46
548.67	402.57
548.84	428.32
549.01	402.57
549.18	400.23
549.34	407.25
549.51	395.55
549.68	510.24
549.84	463.43
550.01	465.77
550.18	533.64
550.34	484.49
550.51	454.06
550.68	557.05
550.84	470.45
551.01	395.55
551.18	444.70
551.34	416.62
551.51	404.91
551.68	393.21
551.84	437.68
552.01	409.59
552.18	449.38
552.34	451.72
552.51	456.40
552.68	416.62
552.84	468.11
553.01	367.46
553.18	475.13
553.34	449.38
553.51	390.87
553.67	383.85
553.84	444.70
554.01	507.90
554.17	402.57
554.34	379.17
554.51	503.22
554.67	414.27
554.84	447.04
555.00	421.30
555.17	433.00
555.33	456.40
555.50	454.06
555.67	402.57
555.83	315.97
556.00	458.74
556.16	512.58
556.33	465.77
556.50	447.04
556.66	421.30
556.83	524.28
556.99	407.25
557.16	400.23
557.32	461.09
557.49	479.81
557.65	365.12
557.82	418.96
557.98	393.21
558.15	425.98
558.32	374.49
558.48	421.30
558.65	447.04
558.81	449.38
558.98	409.59
559.14	449.38
559.31	404.91
559.47	442.36
559.64	463.43
559.80	418.96
559.97	411.93
560.13	423.64
560.30	315.97
560.46	379.17
560.63	386.19
560.79	447.04
560.96	411.93
561.12	423.64
561.29	477.47
561.45	444.70
561.61	360.44
561.78	496.19
561.94	411.93
562.11	456.40
562.27	330.02
562.44	376.83
562.60	407.25
562.77	491.51
562.93	430.66
563.10	454.06
563.26	435.34
563.42	372.15
563.59	468.11
563.75	411.93
563.92	477.47
564.08	425.98
564.24	355.76
564.41	491.51
564.57	489.17
564.74	360.44
564.90	404.91
565.07	430.66
565.23	437.68
565.39	440.02
565.56	489.17
565.72	381.51
565.88	423.64
566.05	353.42
566.21	372.15
566.38	414.27
566.54	449.38
566.70	507.90
566.87	454.06
567.03	423.64
567.19	393.21
567.36	486.83
567.52	440.02
567.68	482.15
567.85	433.00
568.01	416.62
568.17	428.32
568.34	433.00
568.50	435.34
568.66	369.80
568.83	510.24
568.99	470.45
569.15	493.85
569.32	437.68
569.48	395.55
569.64	447.04
569.81	411.93
569.97	414.27
570.13	402.57
570.30	458.74
570.46	435.34
570.62	353.42
570.78	379.17
570.95	430.66
571.11	484.49
571.27	444.70
571.43	330.02
571.60	440.02
571.76	404.91
571.92	433.00
572.09	435.34
572.25	442.36
572.41	362.78
572.57	388.53
572.74	440.02
572.90	437.68
573.06	472.79
573.22	411.93
573.38	433.00
573.55	456.40
573.71	407.25
573.87	458.74
574.03	374.49
574.20	437.68
574.36	472.79
574.52	386.19
574.68	465.77
574.84	386.19
575.01	355.76
575.17	482.15
575.33	402.57
575.49	386.19
575.65	414.27
575.82	447.04
575.98	514.92
576.14	421.30
576.30	430.66
576.46	395.55
576.62	421.30
576.79	407.25
576.95	409.59
577.11	444.70
577.27	365.12
577.43	468.11
577.59	479.81
577.75	428.32
577.92	435.34
578.08	409.59
578.24	470.45
578.40	440.02
578.56	444.70
578.72	458.74
578.88	461.09
579.04	458.74
579.21	444.70
579.37	390.87
579.53	379.17
579.69	421.30
579.85	383.85
580.01	449.38
580.17	397.89
580.33	479.81
580.49	411.93
580.65	484.49
580.82	421.30
580.98	444.70
581.14	425.98
581.30	444.70
581.46	388.53
581.62	416.62
581.78	355.76
581.94	435.34
582.10	440.02
582.26	393.21
582.42	402.57
582.58	383.85
582.74	362.78
582.90	409.59
583.06	386.19
583.22	468.11
583.38	442.36
583.54	472.79
583.70	414.27
583.86	409.59
584.02	362.78
584.18	421.30
584.34	416.62
584.50	475.13
584.66	383.85
584.82	390.87
584.98	470.45
585.14	390.87
585.30	435.34
585.46	407.25
585.62	416.62
585.78	451.72
585.94	425.98
586.10	395.55
586.26	454.06
586.42	411.93
586.58	447.04
586.74	468.11
586.90	428.32
587.06	440.02
587.22	421.30
587.38	414.27
587.54	442.36
587.70	449.38
587.86	454.06
588.02	479.81
588.18	400.23
588.34	416.62
588.49	479.81
588.65	379.17
588.81	409.59
588.97	386.19
589.13	386.19
589.29	433.00
589.45	435.34
589.61	430.66
589.77	409.59
589.93	458.74
590.08	397.89
590.24	400.23
590.40	369.80
590.56	435.34
590.72	435.34
590.88	447.04
591.04	402.57
591.20	433.00
591.35	435.34
591.51	400.23
591.67	423.64
591.83	376.83
591.99	395.55
592.15	416.62
592.31	376.83
592.46	458.74
592.62	411.93
592.78	442.36
592.94	393.21
593.10	383.85
593.26	416.62
593.41	425.98
593.57	430.66
593.73	409.59
593.89	416.62
594.05	397.89
594.20	444.70
594.36	425.98
594.52	428.32
594.68	388.53
594.84	451.72
594.99	477.47
595.15	407.25
595.31	372.15
595.47	395.55
595.62	379.17
595.78	442.36
595.94	409.59
596.10	390.87
596.25	458.74
596.41	362.78
596.57	360.44
596.73	397.89
596.88	470.45
597.04	386.19
597.20	348.74
597.36	484.49
597.51	454.06
597.67	400.23
597.83	372.15
597.99	489.17
598.14	430.66
598.30	388.53
598.46	418.96
598.61	388.53
598.77	458.74
598.93	393.21
599.09	409.59
599.24	381.51
599.40	524.28
599.56	381.51
599.71	423.64
599.87	395.55
600.03	402.57
600.18	470.45
600.34	416.62
600.50	456.40
600.65	470.45
600.81	402.57
600.97	465.77
601.12	409.59
601.28	418.96
601.44	479.81
601.59	435.34
601.75	416.62
601.91	472.79
602.06	440.02
602.22	498.53
602.37	454.06
602.53	414.27
602.69	416.62
602.84	351.08
603.00	383.85
603.16	472.79
603.31	423.64
603.47	404.91
603.62	369.80
603.78	411.93
603.94	442.36
604.09	414.27
604.25	425.98
604.40	381.51
604.56	418.96
604.71	325.33
604.87	388.53
605.03	430.66
605.18	414.27
605.34	409.59
605.49	397.89
605.65	348.74
605.80	468.11
605.96	397.89
606.12	416.62
606.27	423.64
606.43	360.44
606.58	395.55
606.74	421.30
606.89	411.93
607.05	425.98
607.20	486.83
607.36	451.72
607.51	390.87
607.67	381.51
607.82	440.02
607.98	463.43
608.13	407.25
608.29	468.11
608.44	423.64
608.60	435.34
608.75	482.15
608.91	416.62
609.06	477.47
609.22	486.83
609.37	444.70
609.53	414.27
609.68	407.25
609.84	407.25
609.99	433.00
610.15	454.06
