SpectraSuite Data File
++++++++++++++++++++++++++++++++++++
Date: Fri Oct 25 12:11:00 EDT 2013
User: price-jones
Dark Spectrum Present: No
Reference Spectrum Present: No
Number of Sampled Component Spectra: 1
Spectrometers: USB2+H05261
Integration Time (usec): 100000 (USB2+H05261)
Spectra Averaged: 1 (USB2+H05261)
Boxcar Smoothing: 0 (USB2+H05261)
Correct for Electrical Dark: No (USB2+H05261)
Strobe/Lamp Enabled: No (USB2+H05261)
Correct for Detector Non-linearity: No (USB2+H05261)
Correct for Stray Light: No (USB2+H05261)
Number of Pixels in Processed Spectrum: 2048
>>>>>Begin Processed Spectral Data<<<<<
365.73	294.91
365.92	294.91
366.12	294.91
366.32	292.57
366.52	229.37
366.72	227.03
366.91	177.88
367.11	210.65
367.31	231.71
367.51	259.80
367.70	255.12
367.90	194.26
368.10	259.80
368.30	191.92
368.49	238.73
368.69	285.55
368.89	250.44
369.09	231.71
369.28	259.80
369.48	238.73
369.68	262.14
369.87	273.84
370.07	262.14
370.27	257.46
370.47	313.63
370.66	325.33
370.86	346.40
371.06	304.27
371.25	435.34
371.45	418.96
371.65	402.57
371.84	374.49
372.04	458.74
372.24	341.72
372.44	433.00
372.63	393.21
372.83	444.70
373.03	376.83
373.22	376.83
373.42	369.80
373.62	330.02
373.81	421.30
374.01	456.40
374.21	470.45
374.40	400.23
374.60	388.53
374.79	407.25
374.99	444.70
375.19	421.30
375.38	461.09
375.58	414.27
375.78	421.30
375.97	470.45
376.17	477.47
376.37	395.55
376.56	411.93
376.76	353.42
376.95	411.93
377.15	386.19
377.35	402.57
377.54	449.38
377.74	341.72
377.93	442.36
378.13	425.98
378.33	447.04
378.52	437.68
378.72	435.34
378.91	393.21
379.11	379.17
379.31	390.87
379.50	416.62
379.70	409.59
379.89	449.38
380.09	449.38
380.28	355.76
380.48	376.83
380.68	388.53
380.87	358.10
381.07	393.21
381.26	376.83
381.46	353.42
381.65	423.64
381.85	425.98
382.04	423.64
382.24	397.89
382.43	486.83
382.63	393.21
382.83	402.57
383.02	442.36
383.22	379.17
383.41	437.68
383.61	433.00
383.80	435.34
384.00	376.83
384.19	414.27
384.39	479.81
384.58	381.51
384.78	433.00
384.97	416.62
385.17	428.32
385.36	404.91
385.56	402.57
385.75	440.02
385.95	374.49
386.14	430.66
386.34	353.42
386.53	390.87
386.72	383.85
386.92	414.27
387.11	402.57
387.31	458.74
387.50	374.49
387.70	353.42
387.89	369.80
388.09	421.30
388.28	383.85
388.48	418.96
388.67	428.32
388.86	332.36
389.06	435.34
389.25	400.23
389.45	404.91
389.64	341.72
389.84	411.93
390.03	433.00
390.22	362.78
390.42	358.10
390.61	348.74
390.81	468.11
391.00	470.45
391.19	489.17
391.39	416.62
391.58	376.83
391.78	428.32
391.97	386.19
392.16	411.93
392.36	402.57
392.55	421.30
392.75	390.87
392.94	393.21
393.13	374.49
393.33	409.59
393.52	435.34
393.71	416.62
393.91	407.25
394.10	477.47
394.29	428.32
394.49	341.72
394.68	362.78
394.88	463.43
395.07	444.70
395.26	489.17
395.46	423.64
395.65	433.00
395.84	414.27
396.04	444.70
396.23	411.93
396.42	351.08
396.62	454.06
396.81	425.98
397.00	411.93
397.19	400.23
397.39	437.68
397.58	535.98
397.77	465.77
397.97	451.72
398.16	386.19
398.35	407.25
398.55	393.21
398.74	369.80
398.93	451.72
399.12	437.68
399.32	360.44
399.51	383.85
399.70	430.66
399.90	341.72
400.09	449.38
400.28	337.04
400.47	388.53
400.67	440.02
400.86	440.02
401.05	362.78
401.24	477.47
401.44	456.40
401.63	376.83
401.82	376.83
402.01	440.02
402.21	447.04
402.40	440.02
402.59	311.29
402.78	369.80
402.97	456.40
403.17	404.91
403.36	444.70
403.55	430.66
403.74	362.78
403.93	470.45
404.13	386.19
404.32	477.47
404.51	465.77
404.70	395.55
404.89	402.57
405.09	454.06
405.28	362.78
405.47	348.74
405.66	435.34
405.85	428.32
406.05	440.02
406.24	355.76
406.43	351.08
406.62	430.66
406.81	414.27
407.00	454.06
407.20	411.93
407.39	388.53
407.58	414.27
407.77	404.91
407.96	498.53
408.15	484.49
408.34	376.83
408.54	437.68
408.73	433.00
408.92	454.06
409.11	376.83
409.30	358.10
409.49	461.09
409.68	372.15
409.87	393.21
410.07	386.19
410.26	400.23
410.45	425.98
410.64	383.85
410.83	435.34
411.02	374.49
411.21	437.68
411.40	428.32
411.59	414.27
411.78	437.68
411.98	425.98
412.17	414.27
412.36	381.51
412.55	397.89
412.74	365.12
412.93	418.96
413.12	411.93
413.31	353.42
413.50	428.32
413.69	442.36
413.88	402.57
414.07	407.25
414.26	468.11
414.45	353.42
414.64	421.30
414.83	411.93
415.02	414.27
415.22	416.62
415.41	435.34
415.60	421.30
415.79	383.85
415.98	465.77
416.17	411.93
416.36	379.17
416.55	383.85
416.74	458.74
416.93	390.87
417.12	423.64
417.31	390.87
417.50	374.49
417.69	418.96
417.88	360.44
418.07	425.98
418.26	348.74
418.45	442.36
418.64	479.81
418.83	365.12
419.02	421.30
419.21	416.62
419.39	358.10
419.58	425.98
419.77	430.66
419.96	404.91
420.15	456.40
420.34	430.66
420.53	440.02
420.72	491.51
420.91	367.46
421.10	416.62
421.29	418.96
421.48	503.22
421.67	388.53
421.86	388.53
422.05	425.98
422.24	425.98
422.43	475.13
422.61	404.91
422.80	393.21
422.99	433.00
423.18	397.89
423.37	383.85
423.56	449.38
423.75	379.17
423.94	390.87
424.13	390.87
424.32	447.04
424.50	395.55
424.69	454.06
424.88	479.81
425.07	397.89
425.26	428.32
425.45	397.89
425.64	360.44
425.83	409.59
426.01	491.51
426.20	442.36
426.39	407.25
426.58	379.17
426.77	362.78
426.96	440.02
427.15	463.43
427.33	437.68
427.52	388.53
427.71	397.89
427.90	444.70
428.09	489.17
428.28	425.98
428.46	428.32
428.65	447.04
428.84	355.76
429.03	503.22
429.22	397.89
429.40	365.12
429.59	428.32
429.78	425.98
429.97	454.06
430.16	423.64
430.34	362.78
430.53	388.53
430.72	411.93
430.91	402.57
431.10	411.93
431.28	407.25
431.47	362.78
431.66	421.30
431.85	360.44
432.03	365.12
432.22	484.49
432.41	339.38
432.60	458.74
432.79	468.11
432.97	395.55
433.16	428.32
433.35	341.72
433.54	390.87
433.72	463.43
433.91	425.98
434.10	411.93
434.28	428.32
434.47	409.59
434.66	388.53
434.85	395.55
435.03	468.11
435.22	374.49
435.41	414.27
435.59	388.53
435.78	395.55
435.97	397.89
436.16	388.53
436.34	437.68
436.53	397.89
436.72	358.10
436.90	458.74
437.09	367.46
437.28	407.25
437.46	388.53
437.65	386.19
437.84	414.27
438.02	411.93
438.21	440.02
438.40	493.85
438.58	346.40
438.77	423.64
438.96	409.59
439.14	374.49
439.33	496.19
439.52	318.31
439.70	430.66
439.89	433.00
440.08	440.02
440.26	411.93
440.45	447.04
440.63	444.70
440.82	430.66
441.01	353.42
441.19	425.98
441.38	358.10
441.57	423.64
441.75	486.83
441.94	404.91
442.12	411.93
442.31	348.74
442.50	447.04
442.68	362.78
442.87	416.62
443.05	400.23
443.24	355.76
443.43	372.15
443.61	475.13
443.80	444.70
443.98	465.77
444.17	372.15
444.35	344.06
444.54	435.34
444.73	360.44
444.91	463.43
445.10	416.62
445.28	383.85
445.47	444.70
445.65	383.85
445.84	400.23
446.02	383.85
446.21	355.76
446.39	454.06
446.58	465.77
446.77	465.77
446.95	442.36
447.14	491.51
447.32	463.43
447.51	423.64
447.69	505.56
447.88	407.25
448.06	423.64
448.25	407.25
448.43	390.87
448.62	393.21
448.80	458.74
448.99	397.89
449.17	430.66
449.36	393.21
449.54	414.27
449.73	388.53
449.91	470.45
450.10	402.57
450.28	475.13
450.46	423.64
450.65	376.83
450.83	507.90
451.02	372.15
451.20	440.02
451.39	386.19
451.57	444.70
451.76	386.19
451.94	418.96
452.13	348.74
452.31	397.89
452.49	397.89
452.68	395.55
452.86	411.93
453.05	442.36
453.23	437.68
453.42	379.17
453.60	465.77
453.78	414.27
453.97	395.55
454.15	409.59
454.34	381.51
454.52	407.25
454.70	421.30
454.89	421.30
455.07	447.04
455.26	423.64
455.44	416.62
455.62	374.49
455.81	402.57
455.99	339.38
456.17	479.81
456.36	437.68
456.54	437.68
456.73	458.74
456.91	400.23
457.09	388.53
457.28	379.17
457.46	365.12
457.64	430.66
457.83	376.83
458.01	425.98
458.19	433.00
458.38	442.36
458.56	416.62
458.74	362.78
458.93	360.44
459.11	344.06
459.29	393.21
459.48	505.56
459.66	430.66
459.84	437.68
460.03	482.15
460.21	482.15
460.39	442.36
460.57	411.93
460.76	442.36
460.94	425.98
461.12	451.72
461.31	463.43
461.49	390.87
461.67	386.19
461.85	320.65
462.04	404.91
462.22	514.92
462.40	433.00
462.59	472.79
462.77	449.38
462.95	421.30
463.13	409.59
463.32	393.21
463.50	449.38
463.68	367.46
463.86	372.15
464.05	458.74
464.23	477.47
464.41	458.74
464.59	386.19
464.78	444.70
464.96	325.33
465.14	442.36
465.32	376.83
465.50	423.64
465.69	440.02
465.87	437.68
466.05	517.26
466.23	404.91
466.41	423.64
466.60	404.91
466.78	447.04
466.96	390.87
467.14	451.72
467.32	341.72
467.51	407.25
467.69	418.96
467.87	362.78
468.05	353.42
468.23	451.72
468.41	362.78
468.60	421.30
468.78	475.13
468.96	472.79
469.14	416.62
469.32	365.12
469.50	402.57
469.69	470.45
469.87	374.49
470.05	479.81
470.23	367.46
470.41	430.66
470.59	400.23
470.77	421.30
470.95	381.51
471.14	512.58
471.32	397.89
471.50	418.96
471.68	411.93
471.86	479.81
472.04	386.19
472.22	444.70
472.40	428.32
472.58	447.04
472.77	404.91
472.95	430.66
473.13	402.57
473.31	416.62
473.49	400.23
473.67	341.72
473.85	447.04
474.03	458.74
474.21	400.23
474.39	442.36
474.57	423.64
474.75	433.00
474.93	447.04
475.12	379.17
475.30	409.59
475.48	409.59
475.66	390.87
475.84	423.64
476.02	376.83
476.20	461.09
476.38	440.02
476.56	397.89
476.74	381.51
476.92	421.30
477.10	477.47
477.28	423.64
477.46	423.64
477.64	430.66
477.82	444.70
478.00	409.59
478.18	475.13
478.36	376.83
478.54	414.27
478.72	397.89
478.90	449.38
479.08	365.12
479.26	451.72
479.44	423.64
479.62	315.97
479.80	409.59
479.98	435.34
480.16	442.36
480.34	449.38
480.52	416.62
480.70	393.21
480.88	372.15
481.06	374.49
481.24	500.87
481.41	451.72
481.59	430.66
481.77	383.85
481.95	400.23
482.13	489.17
482.31	383.85
482.49	430.66
482.67	428.32
482.85	369.80
483.03	332.36
483.21	376.83
483.39	362.78
483.57	358.10
483.74	470.45
483.92	390.87
484.10	421.30
484.28	437.68
484.46	458.74
484.64	404.91
484.82	395.55
485.00	416.62
485.18	468.11
485.35	400.23
485.53	339.38
485.71	442.36
485.89	397.89
486.07	355.76
486.25	437.68
486.43	475.13
486.61	397.89
486.78	428.32
486.96	393.21
487.14	400.23
487.32	372.15
487.50	393.21
487.68	381.51
487.85	348.74
488.03	409.59
488.21	400.23
488.39	386.19
488.57	393.21
488.75	374.49
488.92	479.81
489.10	421.30
489.28	479.81
489.46	400.23
489.64	346.40
489.81	463.43
489.99	411.93
490.17	444.70
490.35	517.26
490.53	421.30
490.70	332.36
490.88	437.68
491.06	379.17
491.24	383.85
491.41	414.27
491.59	418.96
491.77	395.55
491.95	374.49
492.13	454.06
492.30	390.87
492.48	397.89
492.66	322.99
492.84	430.66
493.01	447.04
493.19	397.89
493.37	409.59
493.54	468.11
493.72	435.34
493.90	433.00
494.08	386.19
494.25	433.00
494.43	416.62
494.61	407.25
494.79	367.46
494.96	505.56
495.14	395.55
495.32	386.19
495.49	407.25
495.67	454.06
495.85	416.62
496.02	416.62
496.20	404.91
496.38	411.93
496.55	451.72
496.73	365.12
496.91	437.68
497.09	388.53
497.26	362.78
497.44	456.40
497.62	449.38
497.79	433.00
497.97	418.96
498.14	409.59
498.32	381.51
498.50	404.91
498.67	451.72
498.85	351.08
499.03	416.62
499.20	440.02
499.38	454.06
499.56	430.66
499.73	456.40
499.91	372.15
500.08	402.57
500.26	447.04
500.44	447.04
500.61	421.30
500.79	428.32
500.97	465.77
501.14	400.23
501.32	400.23
501.49	400.23
501.67	440.02
501.84	411.93
502.02	381.51
502.20	428.32
502.37	393.21
502.55	400.23
502.72	395.55
502.90	442.36
503.07	409.59
503.25	351.08
503.43	388.53
503.60	355.76
503.78	395.55
503.95	409.59
504.13	395.55
504.30	397.89
504.48	465.77
504.65	475.13
504.83	402.57
505.01	386.19
505.18	435.34
505.36	395.55
505.53	379.17
505.71	374.49
505.88	475.13
506.06	414.27
506.23	381.51
506.41	437.68
506.58	397.89
506.76	440.02
506.93	388.53
507.11	407.25
507.28	388.53
507.46	381.51
507.63	423.64
507.81	351.08
507.98	437.68
508.16	374.49
508.33	425.98
508.50	376.83
508.68	407.25
508.85	395.55
509.03	425.98
509.20	437.68
509.38	418.96
509.55	409.59
509.73	477.47
509.90	390.87
510.08	404.91
510.25	421.30
510.42	395.55
510.60	423.64
510.77	388.53
510.95	465.77
511.12	411.93
511.30	409.59
511.47	472.79
511.64	425.98
511.82	402.57
511.99	346.40
512.17	381.51
512.34	402.57
512.51	421.30
512.69	423.64
512.86	442.36
513.04	425.98
513.21	386.19
513.38	416.62
513.56	362.78
513.73	465.77
513.90	454.06
514.08	409.59
514.25	367.46
514.43	433.00
514.60	458.74
514.77	423.64
514.95	383.85
515.12	442.36
515.29	440.02
515.47	383.85
515.64	402.57
515.81	400.23
515.99	411.93
516.16	428.32
516.33	409.59
516.51	435.34
516.68	418.96
516.85	411.93
517.03	362.78
517.20	374.49
517.37	498.53
517.54	428.32
517.72	503.22
517.89	447.04
518.06	423.64
518.24	521.94
518.41	442.36
518.58	456.40
518.75	369.80
518.93	489.17
519.10	381.51
519.27	409.59
519.45	388.53
519.62	437.68
519.79	397.89
519.96	376.83
520.14	461.09
520.31	421.30
520.48	400.23
520.65	411.93
520.83	428.32
521.00	440.02
521.17	416.62
521.34	421.30
521.52	409.59
521.69	400.23
521.86	383.85
522.03	383.85
522.20	463.43
522.38	411.93
522.55	400.23
522.72	383.85
522.89	435.34
523.07	402.57
523.24	379.17
523.41	423.64
523.58	407.25
523.75	374.49
523.92	346.40
524.10	386.19
524.27	428.32
524.44	407.25
524.61	437.68
524.78	425.98
524.96	416.62
525.13	386.19
525.30	388.53
525.47	402.57
525.64	451.72
525.81	383.85
525.98	472.79
526.16	437.68
526.33	383.85
526.50	423.64
526.67	409.59
526.84	470.45
527.01	435.34
527.18	409.59
527.36	423.64
527.53	374.49
527.70	458.74
527.87	400.23
528.04	425.98
528.21	409.59
528.38	447.04
528.55	454.06
528.72	390.87
528.89	470.45
529.07	470.45
529.24	437.68
529.41	484.49
529.58	425.98
529.75	440.02
529.92	393.21
530.09	428.32
530.26	451.72
530.43	367.46
530.60	390.87
530.77	369.80
530.94	444.70
531.11	360.44
531.28	430.66
531.46	367.46
531.63	430.66
531.80	414.27
531.97	449.38
532.14	390.87
532.31	418.96
532.48	458.74
532.65	339.38
532.82	421.30
532.99	421.30
533.16	477.47
533.33	416.62
533.50	407.25
533.67	400.23
533.84	430.66
534.01	458.74
534.18	442.36
534.35	400.23
534.52	376.83
534.69	468.11
534.86	411.93
535.03	444.70
535.20	381.51
535.37	418.96
535.54	435.34
535.71	397.89
535.88	437.68
536.05	374.49
536.22	421.30
536.38	435.34
536.55	390.87
536.72	433.00
536.89	484.49
537.06	390.87
537.23	379.17
537.40	388.53
537.57	468.11
537.74	470.45
537.91	491.51
538.08	407.25
538.25	454.06
538.42	433.00
538.59	444.70
538.75	418.96
538.92	327.68
539.09	470.45
539.26	407.25
539.43	449.38
539.60	369.80
539.77	451.72
539.94	409.59
540.11	423.64
540.28	435.34
540.44	454.06
540.61	437.68
540.78	390.87
540.95	334.70
541.12	423.64
541.29	395.55
541.46	411.93
541.62	479.81
541.79	369.80
541.96	397.89
542.13	409.59
542.30	390.87
542.47	444.70
542.63	433.00
542.80	454.06
542.97	449.38
543.14	404.91
543.31	477.47
543.48	400.23
543.64	409.59
543.81	428.32
543.98	369.80
544.15	409.59
544.32	433.00
544.48	440.02
544.65	451.72
544.82	416.62
544.99	397.89
545.16	484.49
545.32	395.55
545.49	435.34
545.66	367.46
545.83	421.30
546.00	351.08
546.16	447.04
546.33	367.46
546.50	346.40
546.67	437.68
546.83	437.68
547.00	430.66
547.17	461.09
547.34	376.83
547.50	477.47
547.67	425.98
547.84	393.21
548.00	517.26
548.17	376.83
548.34	425.98
548.51	386.19
548.67	365.12
548.84	358.10
549.01	447.04
549.18	414.27
549.34	475.13
549.51	463.43
549.68	475.13
549.84	390.87
550.01	468.11
550.18	512.58
550.34	489.17
550.51	395.55
550.68	390.87
550.84	437.68
551.01	367.46
551.18	374.49
551.34	372.15
551.51	409.59
551.68	416.62
551.84	456.40
552.01	437.68
552.18	421.30
552.34	411.93
552.51	440.02
552.68	454.06
552.84	397.89
553.01	454.06
553.18	503.22
553.34	435.34
553.51	414.27
553.67	430.66
553.84	465.77
554.01	491.51
554.17	400.23
554.34	416.62
554.51	447.04
554.67	451.72
554.84	395.55
555.00	418.96
555.17	449.38
555.33	418.96
555.50	479.81
555.67	351.08
555.83	332.36
556.00	402.57
556.16	526.62
556.33	489.17
556.50	376.83
556.66	409.59
556.83	437.68
556.99	428.32
557.16	430.66
557.32	351.08
557.49	365.12
557.65	404.91
557.82	348.74
557.98	404.91
558.15	367.46
558.32	449.38
558.48	463.43
558.65	376.83
558.81	451.72
558.98	440.02
559.14	423.64
559.31	423.64
559.47	463.43
559.64	451.72
559.80	409.59
559.97	383.85
560.13	386.19
560.30	449.38
560.46	430.66
560.63	430.66
560.79	493.85
560.96	416.62
561.12	428.32
561.29	479.81
561.45	390.87
561.61	444.70
561.78	477.47
561.94	411.93
562.11	376.83
562.27	454.06
562.44	367.46
562.60	418.96
562.77	416.62
562.93	454.06
563.10	344.06
563.26	341.72
563.42	454.06
563.59	386.19
563.75	430.66
563.92	407.25
564.08	407.25
564.24	470.45
564.41	416.62
564.57	346.40
564.74	388.53
564.90	414.27
565.07	416.62
565.23	379.17
565.39	388.53
565.56	358.10
565.72	430.66
565.88	393.21
566.05	358.10
566.21	407.25
566.38	421.30
566.54	433.00
566.70	376.83
566.87	360.44
567.03	437.68
567.19	327.68
567.36	397.89
567.52	425.98
567.68	409.59
567.85	374.49
568.01	388.53
568.17	386.19
568.34	372.15
568.50	461.09
568.66	461.09
568.83	475.13
568.99	407.25
569.15	411.93
569.32	407.25
569.48	362.78
569.64	442.36
569.81	500.87
569.97	442.36
570.13	428.32
570.30	418.96
570.46	381.51
570.62	414.27
570.78	418.96
570.95	442.36
571.11	428.32
571.27	376.83
571.43	386.19
571.60	414.27
571.76	365.12
571.92	433.00
572.09	381.51
572.25	411.93
572.41	379.17
572.57	433.00
572.74	390.87
572.90	428.32
573.06	458.74
573.22	444.70
573.38	454.06
573.55	454.06
573.71	365.12
573.87	461.09
574.03	458.74
574.20	372.15
574.36	372.15
574.52	337.04
574.68	397.89
574.84	397.89
575.01	372.15
575.17	421.30
575.33	451.72
575.49	440.02
575.65	475.13
575.82	458.74
575.98	433.00
576.14	386.19
576.30	393.21
576.46	372.15
576.62	458.74
576.79	430.66
576.95	409.59
577.11	376.83
577.27	386.19
577.43	411.93
577.59	463.43
577.75	407.25
577.92	484.49
578.08	404.91
578.24	376.83
578.40	407.25
578.56	500.87
578.72	395.55
578.88	409.59
579.04	440.02
579.21	428.32
579.37	376.83
579.53	358.10
579.69	383.85
579.85	451.72
580.01	491.51
580.17	358.10
580.33	409.59
580.49	425.98
580.65	428.32
580.82	435.34
580.98	402.57
581.14	362.78
581.30	372.15
581.46	435.34
581.62	428.32
581.78	458.74
581.94	433.00
582.10	411.93
582.26	454.06
582.42	369.80
582.58	447.04
582.74	393.21
582.90	444.70
583.06	379.17
583.22	433.00
583.38	374.49
583.54	395.55
583.70	407.25
583.86	400.23
584.02	404.91
584.18	381.51
584.34	400.23
584.50	400.23
584.66	449.38
584.82	442.36
584.98	402.57
585.14	423.64
585.30	430.66
585.46	454.06
585.62	376.83
585.78	423.64
585.94	425.98
586.10	463.43
586.26	421.30
586.42	447.04
586.58	447.04
586.74	447.04
586.90	465.77
587.06	400.23
587.22	479.81
587.38	430.66
587.54	400.23
587.70	416.62
587.86	491.51
588.02	348.74
588.18	407.25
588.34	430.66
588.49	355.76
588.65	428.32
588.81	414.27
588.97	435.34
589.13	409.59
589.29	416.62
589.45	503.22
589.61	526.62
589.77	451.72
589.93	332.36
590.08	418.96
590.24	435.34
590.40	449.38
590.56	463.43
590.72	430.66
590.88	379.17
591.04	454.06
591.20	465.77
591.35	447.04
591.51	395.55
591.67	409.59
591.83	423.64
591.99	393.21
592.15	372.15
592.31	416.62
592.46	421.30
592.62	435.34
592.78	407.25
592.94	449.38
593.10	407.25
593.26	437.68
593.41	444.70
593.57	433.00
593.73	397.89
593.89	402.57
594.05	402.57
594.20	376.83
594.36	444.70
594.52	407.25
594.68	418.96
594.84	416.62
594.99	477.47
595.15	430.66
595.31	400.23
595.47	440.02
595.62	404.91
595.78	447.04
595.94	493.85
596.10	407.25
596.25	407.25
596.41	425.98
596.57	465.77
596.73	433.00
596.88	407.25
597.04	395.55
597.20	402.57
597.36	376.83
597.51	397.89
597.67	393.21
597.83	442.36
597.99	425.98
598.14	437.68
598.30	454.06
598.46	477.47
598.61	425.98
598.77	411.93
598.93	318.31
599.09	362.78
599.24	428.32
599.40	376.83
599.56	402.57
599.71	400.23
599.87	435.34
600.03	442.36
600.18	456.40
600.34	334.70
600.50	458.74
600.65	390.87
600.81	383.85
600.97	416.62
601.12	397.89
601.28	423.64
601.44	395.55
601.59	400.23
601.75	400.23
601.91	442.36
602.06	470.45
602.22	482.15
602.37	379.17
602.53	461.09
602.69	433.00
602.84	393.21
603.00	381.51
603.16	454.06
603.31	402.57
603.47	442.36
603.62	416.62
603.78	344.06
603.94	468.11
604.09	353.42
604.25	414.27
604.40	409.59
604.56	360.44
604.71	437.68
604.87	479.81
605.03	414.27
605.18	369.80
605.34	400.23
605.49	381.51
605.65	433.00
605.80	395.55
605.96	397.89
606.12	362.78
606.27	402.57
606.43	468.11
606.58	416.62
606.74	447.04
606.89	393.21
607.05	437.68
607.20	482.15
607.36	407.25
607.51	465.77
607.67	386.19
607.82	437.68
607.98	433.00
608.13	397.89
608.29	318.31
608.44	418.96
608.60	369.80
608.75	355.76
608.91	390.87
609.06	418.96
609.22	423.64
609.37	346.40
609.53	355.76
609.68	358.10
609.84	465.77
609.99	390.87
610.15	500.87
