SpectraSuite Data File
++++++++++++++++++++++++++++++++++++
Date: Fri Oct 25 12:10:27 EDT 2013
User: price-jones
Dark Spectrum Present: No
Reference Spectrum Present: No
Number of Sampled Component Spectra: 1
Spectrometers: USB2+H05261
Integration Time (usec): 100000 (USB2+H05261)
Spectra Averaged: 1 (USB2+H05261)
Boxcar Smoothing: 0 (USB2+H05261)
Correct for Electrical Dark: No (USB2+H05261)
Strobe/Lamp Enabled: No (USB2+H05261)
Correct for Detector Non-linearity: No (USB2+H05261)
Correct for Stray Light: No (USB2+H05261)
Number of Pixels in Processed Spectrum: 2048
>>>>>Begin Processed Spectral Data<<<<<
365.73	414.27
365.92	414.27
366.12	414.27
366.32	308.95
366.52	177.88
366.72	250.44
366.91	196.60
367.11	273.84
367.31	236.39
367.51	215.33
367.70	241.08
367.90	266.82
368.10	201.29
368.30	273.84
368.49	257.46
368.69	266.82
368.89	283.20
369.09	287.89
369.28	299.59
369.48	259.80
369.68	262.14
369.87	297.25
370.07	381.51
370.27	304.27
370.47	290.23
370.66	351.08
370.86	341.72
371.06	369.80
371.25	428.32
371.45	358.10
371.65	334.70
371.84	346.40
372.04	386.19
372.24	402.57
372.44	435.34
372.63	402.57
372.83	395.55
373.03	407.25
373.22	365.12
373.42	404.91
373.62	402.57
373.81	463.43
374.01	468.11
374.21	461.09
374.40	458.74
374.60	444.70
374.79	390.87
374.99	353.42
375.19	390.87
375.38	430.66
375.58	390.87
375.78	374.49
375.97	425.98
376.17	416.62
376.37	407.25
376.56	390.87
376.76	365.12
376.95	400.23
377.15	369.80
377.35	383.85
377.54	386.19
377.74	355.76
377.93	423.64
378.13	433.00
378.33	416.62
378.52	381.51
378.72	454.06
378.91	388.53
379.11	449.38
379.31	346.40
379.50	395.55
379.70	440.02
379.89	397.89
380.09	325.33
380.28	365.12
380.48	407.25
380.68	351.08
380.87	334.70
381.07	433.00
381.26	486.83
381.46	376.83
381.65	418.96
381.85	440.02
382.04	430.66
382.24	414.27
382.43	379.17
382.63	383.85
382.83	341.72
383.02	379.17
383.22	411.93
383.41	318.31
383.61	400.23
383.80	390.87
384.00	388.53
384.19	411.93
384.39	442.36
384.58	425.98
384.78	365.12
384.97	414.27
385.17	393.21
385.36	372.15
385.56	397.89
385.75	442.36
385.95	372.15
386.14	390.87
386.34	402.57
386.53	437.68
386.72	421.30
386.92	348.74
387.11	369.80
387.31	386.19
387.50	447.04
387.70	421.30
387.89	381.51
388.09	325.33
388.28	337.04
388.48	374.49
388.67	470.45
388.86	395.55
389.06	315.97
389.25	437.68
389.45	409.59
389.64	367.46
389.84	388.53
390.03	465.77
390.22	390.87
390.42	348.74
390.61	353.42
390.81	367.46
391.00	489.17
391.19	444.70
391.39	437.68
391.58	388.53
391.78	435.34
391.97	428.32
392.16	395.55
392.36	456.40
392.55	379.17
392.75	475.13
392.94	411.93
393.13	397.89
393.33	346.40
393.52	402.57
393.71	395.55
393.91	416.62
394.10	437.68
394.29	400.23
394.49	362.78
394.68	437.68
394.88	388.53
395.07	418.96
395.26	425.98
395.46	454.06
395.65	444.70
395.84	409.59
396.04	416.62
396.23	402.57
396.42	414.27
396.62	449.38
396.81	425.98
397.00	397.89
397.19	381.51
397.39	430.66
397.58	458.74
397.77	306.61
397.97	341.72
398.16	404.91
398.35	433.00
398.55	451.72
398.74	449.38
398.93	475.13
399.12	402.57
399.32	402.57
399.51	353.42
399.70	407.25
399.90	451.72
400.09	472.79
400.28	383.85
400.47	463.43
400.67	383.85
400.86	372.15
401.05	503.22
401.24	442.36
401.44	334.70
401.63	407.25
401.82	428.32
402.01	409.59
402.21	397.89
402.40	444.70
402.59	397.89
402.78	358.10
402.97	374.49
403.17	379.17
403.36	386.19
403.55	379.17
403.74	393.21
403.93	442.36
404.13	456.40
404.32	433.00
404.51	369.80
404.70	376.83
404.89	367.46
405.09	461.09
405.28	337.04
405.47	430.66
405.66	458.74
405.85	414.27
406.05	435.34
406.24	360.44
406.43	390.87
406.62	423.64
406.81	397.89
407.00	402.57
407.20	433.00
407.39	409.59
407.58	444.70
407.77	388.53
407.96	376.83
408.15	407.25
408.34	465.77
408.54	362.78
408.73	423.64
408.92	404.91
409.11	400.23
409.30	423.64
409.49	365.12
409.68	442.36
409.87	418.96
410.07	355.76
410.26	444.70
410.45	386.19
410.64	454.06
410.83	346.40
411.02	339.38
411.21	388.53
411.40	418.96
411.59	442.36
411.78	351.08
411.98	365.12
412.17	344.06
412.36	388.53
412.55	418.96
412.74	440.02
412.93	407.25
413.12	437.68
413.31	379.17
413.50	400.23
413.69	409.59
413.88	444.70
414.07	407.25
414.26	374.49
414.45	362.78
414.64	374.49
414.83	416.62
415.02	407.25
415.22	418.96
415.41	433.00
415.60	423.64
415.79	388.53
415.98	388.53
416.17	376.83
416.36	421.30
416.55	348.74
416.74	334.70
416.93	433.00
417.12	456.40
417.31	416.62
417.50	416.62
417.69	454.06
417.88	463.43
418.07	407.25
418.26	386.19
418.45	444.70
418.64	477.47
418.83	393.21
419.02	362.78
419.21	433.00
419.39	477.47
419.58	496.19
419.77	334.70
419.96	470.45
420.15	400.23
420.34	402.57
420.53	397.89
420.72	451.72
420.91	416.62
421.10	358.10
421.29	376.83
421.48	433.00
421.67	433.00
421.86	395.55
422.05	447.04
422.24	418.96
422.43	416.62
422.61	386.19
422.80	489.17
422.99	423.64
423.18	435.34
423.37	418.96
423.56	404.91
423.75	468.11
423.94	435.34
424.13	435.34
424.32	433.00
424.50	395.55
424.69	416.62
424.88	397.89
425.07	404.91
425.26	397.89
425.45	390.87
425.64	468.11
425.83	404.91
426.01	444.70
426.20	386.19
426.39	468.11
426.58	362.78
426.77	449.38
426.96	341.72
427.15	388.53
427.33	395.55
427.52	437.68
427.71	440.02
427.90	421.30
428.09	332.36
428.28	381.51
428.46	386.19
428.65	465.77
428.84	395.55
429.03	418.96
429.22	430.66
429.40	449.38
429.59	372.15
429.78	409.59
429.97	442.36
430.16	491.51
430.34	362.78
430.53	404.91
430.72	482.15
430.91	390.87
431.10	395.55
431.28	390.87
431.47	395.55
431.66	395.55
431.85	437.68
432.03	461.09
432.22	383.85
432.41	411.93
432.60	428.32
432.79	393.21
432.97	376.83
433.16	458.74
433.35	421.30
433.54	454.06
433.72	444.70
433.91	449.38
434.10	367.46
434.28	374.49
434.47	355.76
434.66	383.85
434.85	409.59
435.03	458.74
435.22	386.19
435.41	491.51
435.59	475.13
435.78	379.17
435.97	451.72
436.16	500.87
436.34	390.87
436.53	393.21
436.72	461.09
436.90	456.40
437.09	397.89
437.28	409.59
437.46	430.66
437.65	395.55
437.84	442.36
438.02	454.06
438.21	440.02
438.40	442.36
438.58	383.85
438.77	416.62
438.96	411.93
439.14	404.91
439.33	468.11
439.52	461.09
439.70	458.74
439.89	428.32
440.08	369.80
440.26	440.02
440.45	372.15
440.63	327.68
440.82	465.77
441.01	395.55
441.19	421.30
441.38	393.21
441.57	428.32
441.75	423.64
441.94	461.09
442.12	428.32
442.31	411.93
442.50	404.91
442.68	367.46
442.87	407.25
443.05	397.89
443.24	367.46
443.43	402.57
443.61	437.68
443.80	404.91
443.98	383.85
444.17	369.80
444.35	290.23
444.54	449.38
444.73	383.85
444.91	409.59
445.10	409.59
445.28	461.09
445.47	418.96
445.65	327.68
445.84	493.85
446.02	423.64
446.21	449.38
446.39	425.98
446.58	458.74
446.77	428.32
446.95	358.10
447.14	421.30
447.32	414.27
447.51	379.17
447.69	386.19
447.88	397.89
448.06	470.45
448.25	423.64
448.43	437.68
448.62	411.93
448.80	491.51
448.99	397.89
449.17	379.17
449.36	449.38
449.54	531.30
449.73	383.85
449.91	402.57
450.10	482.15
450.28	451.72
450.46	369.80
450.65	416.62
450.83	411.93
451.02	404.91
451.20	374.49
451.39	369.80
451.57	362.78
451.76	409.59
451.94	475.13
452.13	388.53
452.31	393.21
452.49	414.27
452.68	423.64
452.86	390.87
453.05	400.23
453.23	390.87
453.42	351.08
453.60	477.47
453.78	484.49
453.97	367.46
454.15	400.23
454.34	411.93
454.52	414.27
454.70	435.34
454.89	421.30
455.07	404.91
455.26	458.74
455.44	390.87
455.62	433.00
455.81	411.93
455.99	390.87
456.17	503.22
456.36	393.21
456.54	433.00
456.73	383.85
456.91	411.93
457.09	374.49
457.28	425.98
457.46	372.15
457.64	472.79
457.83	470.45
458.01	447.04
458.19	447.04
458.38	418.96
458.56	458.74
458.74	475.13
458.93	409.59
459.11	395.55
459.29	423.64
459.48	393.21
459.66	472.79
459.84	433.00
460.03	437.68
460.21	437.68
460.39	409.59
460.57	409.59
460.76	386.19
460.94	470.45
461.12	482.15
461.31	447.04
461.49	505.56
461.67	456.40
461.85	393.21
462.04	409.59
462.22	770.04
462.40	395.55
462.59	465.77
462.77	449.38
462.95	442.36
463.13	376.83
463.32	416.62
463.50	418.96
463.68	362.78
463.86	421.30
464.05	358.10
464.23	447.04
464.41	407.25
464.59	449.38
464.78	418.96
464.96	393.21
465.14	388.53
465.32	411.93
465.50	524.28
465.69	458.74
465.87	367.46
466.05	418.96
466.23	358.10
466.41	388.53
466.60	390.87
466.78	423.64
466.96	358.10
467.14	442.36
467.32	475.13
467.51	456.40
467.69	414.27
467.87	442.36
468.05	454.06
468.23	418.96
468.41	400.23
468.60	400.23
468.78	369.80
468.96	425.98
469.14	440.02
469.32	402.57
469.50	425.98
469.69	404.91
469.87	440.02
470.05	395.55
470.23	390.87
470.41	468.11
470.59	416.62
470.77	362.78
470.95	404.91
471.14	500.87
471.32	461.09
471.50	456.40
471.68	456.40
471.86	421.30
472.04	409.59
472.22	386.19
472.40	376.83
472.58	451.72
472.77	414.27
472.95	376.83
473.13	435.34
473.31	440.02
473.49	395.55
473.67	400.23
473.85	355.76
474.03	477.47
474.21	507.90
474.39	482.15
474.57	390.87
474.75	425.98
474.93	402.57
475.12	435.34
475.30	440.02
475.48	468.11
475.66	479.81
475.84	447.04
476.02	409.59
476.20	444.70
476.38	374.49
476.56	454.06
476.74	428.32
476.92	423.64
477.10	430.66
477.28	348.74
477.46	381.51
477.64	440.02
477.82	360.44
478.00	409.59
478.18	475.13
478.36	433.00
478.54	435.34
478.72	372.15
478.90	423.64
479.08	409.59
479.26	456.40
479.44	421.30
479.62	330.02
479.80	362.78
479.98	397.89
480.16	449.38
480.34	435.34
480.52	365.12
480.70	372.15
480.88	339.38
481.06	418.96
481.24	393.21
481.41	397.89
481.59	388.53
481.77	465.77
481.95	411.93
482.13	486.83
482.31	386.19
482.49	388.53
482.67	447.04
482.85	416.62
483.03	416.62
483.21	404.91
483.39	435.34
483.57	393.21
483.74	353.42
483.92	437.68
484.10	379.17
484.28	451.72
484.46	517.26
484.64	416.62
484.82	367.46
485.00	409.59
485.18	388.53
485.35	421.30
485.53	447.04
485.71	435.34
485.89	418.96
486.07	461.09
486.25	449.38
486.43	379.17
486.61	428.32
486.78	425.98
486.96	447.04
487.14	421.30
487.32	458.74
487.50	411.93
487.68	437.68
487.85	444.70
488.03	397.89
488.21	447.04
488.39	423.64
488.57	423.64
488.75	402.57
488.92	465.77
489.10	425.98
489.28	505.56
489.46	348.74
489.64	414.27
489.81	404.91
489.99	397.89
490.17	421.30
490.35	503.22
490.53	423.64
490.70	418.96
490.88	442.36
491.06	407.25
491.24	454.06
491.41	498.53
491.59	418.96
491.77	383.85
491.95	358.10
492.13	397.89
492.30	425.98
492.48	404.91
492.66	393.21
492.84	330.02
493.01	456.40
493.19	449.38
493.37	444.70
493.54	395.55
493.72	442.36
493.90	376.83
494.08	381.51
494.25	433.00
494.43	447.04
494.61	362.78
494.79	472.79
494.96	414.27
495.14	444.70
495.32	458.74
495.49	330.02
495.67	414.27
495.85	390.87
496.02	400.23
496.20	447.04
496.38	374.49
496.55	388.53
496.73	402.57
496.91	395.55
497.09	383.85
497.26	381.51
497.44	421.30
497.62	433.00
497.79	444.70
497.97	472.79
498.14	493.85
498.32	421.30
498.50	454.06
498.67	416.62
498.85	430.66
499.03	362.78
499.20	390.87
499.38	418.96
499.56	372.15
499.73	470.45
499.91	425.98
500.08	463.43
500.26	418.96
500.44	383.85
500.61	386.19
500.79	414.27
500.97	428.32
501.14	416.62
501.32	390.87
501.49	486.83
501.67	404.91
501.84	379.17
502.02	463.43
502.20	423.64
502.37	411.93
502.55	430.66
502.72	458.74
502.90	456.40
503.07	365.12
503.25	433.00
503.43	437.68
503.60	449.38
503.78	425.98
503.95	486.83
504.13	416.62
504.30	393.21
504.48	409.59
504.65	526.62
504.83	463.43
505.01	376.83
505.18	404.91
505.36	386.19
505.53	430.66
505.71	407.25
505.88	433.00
506.06	421.30
506.23	397.89
506.41	433.00
506.58	402.57
506.76	454.06
506.93	425.98
507.11	484.49
507.28	388.53
507.46	458.74
507.63	461.09
507.81	447.04
507.98	390.87
508.16	411.93
508.33	407.25
508.50	456.40
508.68	444.70
508.85	437.68
509.03	423.64
509.20	383.85
509.38	493.85
509.55	482.15
509.73	440.02
509.90	458.74
510.08	484.49
510.25	404.91
510.42	447.04
510.60	418.96
510.77	313.63
510.95	367.46
511.12	374.49
511.30	433.00
511.47	379.17
511.64	402.57
511.82	341.72
511.99	435.34
512.17	423.64
512.34	411.93
512.51	386.19
512.69	320.65
512.86	400.23
513.04	365.12
513.21	444.70
513.38	444.70
513.56	435.34
513.73	390.87
513.90	376.83
514.08	346.40
514.25	437.68
514.43	430.66
514.60	397.89
514.77	400.23
514.95	369.80
515.12	421.30
515.29	447.04
515.47	423.64
515.64	386.19
515.81	362.78
515.99	425.98
516.16	395.55
516.33	379.17
516.51	486.83
516.68	435.34
516.85	423.64
517.03	397.89
517.20	430.66
517.37	451.72
517.54	407.25
517.72	402.57
517.89	395.55
518.06	416.62
518.24	477.47
518.41	430.66
518.58	421.30
518.75	348.74
518.93	482.15
519.10	430.66
519.27	433.00
519.45	463.43
519.62	493.85
519.79	454.06
519.96	430.66
520.14	388.53
520.31	444.70
520.48	402.57
520.65	386.19
520.83	376.83
521.00	400.23
521.17	407.25
521.34	430.66
521.52	407.25
521.69	465.77
521.86	477.47
522.03	372.15
522.20	449.38
522.38	423.64
522.55	390.87
522.72	393.21
522.89	461.09
523.07	484.49
523.24	372.15
523.41	409.59
523.58	379.17
523.75	470.45
523.92	418.96
524.10	404.91
524.27	390.87
524.44	423.64
524.61	477.47
524.78	351.08
524.96	421.30
525.13	407.25
525.30	465.77
525.47	444.70
525.64	430.66
525.81	388.53
525.98	442.36
526.16	393.21
526.33	390.87
526.50	435.34
526.67	435.34
526.84	409.59
527.01	411.93
527.18	454.06
527.36	463.43
527.53	339.38
527.70	407.25
527.87	379.17
528.04	433.00
528.21	390.87
528.38	440.02
528.55	423.64
528.72	430.66
528.89	463.43
529.07	449.38
529.24	423.64
529.41	519.60
529.58	458.74
529.75	407.25
529.92	461.09
530.09	362.78
530.26	454.06
530.43	374.49
530.60	489.17
530.77	470.45
530.94	479.81
531.11	458.74
531.28	409.59
531.46	388.53
531.63	409.59
531.80	440.02
531.97	442.36
532.14	425.98
532.31	325.33
532.48	390.87
532.65	442.36
532.82	334.70
532.99	430.66
533.16	421.30
533.33	372.15
533.50	381.51
533.67	411.93
533.84	428.32
534.01	442.36
534.18	393.21
534.35	411.93
534.52	468.11
534.69	409.59
534.86	372.15
535.03	440.02
535.20	360.44
535.37	437.68
535.54	390.87
535.71	407.25
535.88	428.32
536.05	451.72
536.22	451.72
536.38	482.15
536.55	442.36
536.72	456.40
536.89	458.74
537.06	383.85
537.23	458.74
537.40	397.89
537.57	367.46
537.74	486.83
537.91	388.53
538.08	376.83
538.25	397.89
538.42	475.13
538.59	449.38
538.75	397.89
538.92	442.36
539.09	489.17
539.26	393.21
539.43	447.04
539.60	416.62
539.77	449.38
539.94	402.57
540.11	463.43
540.28	390.87
540.44	463.43
540.61	421.30
540.78	388.53
540.95	393.21
541.12	437.68
541.29	376.83
541.46	454.06
541.62	472.79
541.79	435.34
541.96	505.56
542.13	337.04
542.30	365.12
542.47	447.04
542.63	416.62
542.80	510.24
542.97	442.36
543.14	400.23
543.31	423.64
543.48	425.98
543.64	376.83
543.81	374.49
543.98	402.57
544.15	390.87
544.32	362.78
544.48	344.06
544.65	360.44
544.82	386.19
544.99	416.62
545.16	383.85
545.32	407.25
545.49	437.68
545.66	418.96
545.83	379.17
546.00	491.51
546.16	400.23
546.33	397.89
546.50	383.85
546.67	458.74
546.83	449.38
547.00	388.53
547.17	376.83
547.34	404.91
547.50	390.87
547.67	451.72
547.84	402.57
548.00	393.21
548.17	430.66
548.34	454.06
548.51	383.85
548.67	489.17
548.84	437.68
549.01	407.25
549.18	386.19
549.34	381.51
549.51	437.68
549.68	416.62
549.84	423.64
550.01	423.64
550.18	430.66
550.34	472.79
550.51	517.26
550.68	451.72
550.84	430.66
551.01	449.38
551.18	409.59
551.34	397.89
551.51	379.17
551.68	374.49
551.84	484.49
552.01	407.25
552.18	468.11
552.34	430.66
552.51	418.96
552.68	418.96
552.84	479.81
553.01	472.79
553.18	411.93
553.34	409.59
553.51	390.87
553.67	400.23
553.84	465.77
554.01	365.12
554.17	461.09
554.34	367.46
554.51	440.02
554.67	433.00
554.84	468.11
555.00	395.55
555.17	440.02
555.33	386.19
555.50	397.89
555.67	440.02
555.83	372.15
556.00	465.77
556.16	503.22
556.33	449.38
556.50	407.25
556.66	416.62
556.83	440.02
556.99	425.98
557.16	414.27
557.32	428.32
557.49	360.44
557.65	334.70
557.82	428.32
557.98	395.55
558.15	435.34
558.32	458.74
558.48	411.93
558.65	400.23
558.81	388.53
558.98	414.27
559.14	472.79
559.31	416.62
559.47	386.19
559.64	449.38
559.80	404.91
559.97	442.36
560.13	402.57
560.30	376.83
560.46	423.64
560.63	402.57
560.79	374.49
560.96	425.98
561.12	449.38
561.29	454.06
561.45	421.30
561.61	404.91
561.78	507.90
561.94	407.25
562.11	395.55
562.27	447.04
562.44	416.62
562.60	521.94
562.77	470.45
562.93	423.64
563.10	404.91
563.26	386.19
563.42	409.59
563.59	449.38
563.75	374.49
563.92	442.36
564.08	479.81
564.24	414.27
564.41	486.83
564.57	456.40
564.74	440.02
564.90	458.74
565.07	428.32
565.23	442.36
565.39	402.57
565.56	430.66
565.72	404.91
565.88	374.49
566.05	425.98
566.21	402.57
566.38	447.04
566.54	435.34
566.70	395.55
566.87	322.99
567.03	395.55
567.19	414.27
567.36	407.25
567.52	411.93
567.68	425.98
567.85	409.59
568.01	376.83
568.17	386.19
568.34	444.70
568.50	451.72
568.66	411.93
568.83	538.32
568.99	435.34
569.15	423.64
569.32	444.70
569.48	463.43
569.64	353.42
569.81	397.89
569.97	458.74
570.13	451.72
570.30	407.25
570.46	418.96
570.62	374.49
570.78	430.66
570.95	421.30
571.11	458.74
571.27	533.64
571.43	423.64
571.60	393.21
571.76	430.66
571.92	449.38
572.09	503.22
572.25	322.99
572.41	425.98
572.57	430.66
572.74	461.09
572.90	379.17
573.06	444.70
573.22	365.12
573.38	388.53
573.55	416.62
573.71	390.87
573.87	435.34
574.03	456.40
574.20	465.77
574.36	386.19
574.52	437.68
574.68	386.19
574.84	339.38
575.01	423.64
575.17	465.77
575.33	348.74
575.49	404.91
575.65	388.53
575.82	423.64
575.98	416.62
576.14	454.06
576.30	360.44
576.46	400.23
576.62	374.49
576.79	428.32
576.95	390.87
577.11	430.66
577.27	425.98
577.43	418.96
577.59	514.92
577.75	468.11
577.92	402.57
578.08	416.62
578.24	451.72
578.40	395.55
578.56	379.17
578.72	421.30
578.88	423.64
579.04	421.30
579.21	379.17
579.37	440.02
579.53	409.59
579.69	369.80
579.85	393.21
580.01	465.77
580.17	449.38
580.33	433.00
580.49	402.57
580.65	388.53
580.82	407.25
580.98	409.59
581.14	409.59
581.30	475.13
581.46	430.66
581.62	435.34
581.78	447.04
581.94	425.98
582.10	400.23
582.26	409.59
582.42	404.91
582.58	372.15
582.74	458.74
582.90	381.51
583.06	470.45
583.22	353.42
583.38	416.62
583.54	395.55
583.70	388.53
583.86	451.72
584.02	416.62
584.18	440.02
584.34	402.57
584.50	346.40
584.66	383.85
584.82	416.62
584.98	437.68
585.14	395.55
585.30	369.80
585.46	358.10
585.62	423.64
585.78	409.59
585.94	409.59
586.10	421.30
586.26	369.80
586.42	440.02
586.58	411.93
586.74	421.30
586.90	423.64
587.06	386.19
587.22	423.64
587.38	360.44
587.54	397.89
587.70	390.87
587.86	447.04
588.02	447.04
588.18	435.34
588.34	397.89
588.49	369.80
588.65	400.23
588.81	414.27
588.97	395.55
589.13	458.74
589.29	367.46
589.45	397.89
589.61	400.23
589.77	449.38
589.93	390.87
590.08	444.70
590.24	430.66
590.40	344.06
590.56	437.68
590.72	409.59
590.88	411.93
591.04	411.93
591.20	360.44
591.35	395.55
591.51	416.62
591.67	386.19
591.83	433.00
591.99	458.74
592.15	418.96
592.31	400.23
592.46	489.17
592.62	475.13
592.78	418.96
592.94	421.30
593.10	409.59
593.26	367.46
593.41	348.74
593.57	421.30
593.73	421.30
593.89	475.13
594.05	360.44
594.20	374.49
594.36	404.91
594.52	386.19
594.68	425.98
594.84	428.32
594.99	404.91
595.15	407.25
595.31	451.72
595.47	468.11
595.62	409.59
595.78	423.64
595.94	397.89
596.10	423.64
596.25	416.62
596.41	353.42
596.57	447.04
596.73	407.25
596.88	390.87
597.04	402.57
597.20	355.76
597.36	458.74
597.51	409.59
597.67	409.59
597.83	411.93
597.99	428.32
598.14	386.19
598.30	461.09
598.46	456.40
598.61	470.45
598.77	409.59
598.93	409.59
599.09	388.53
599.24	411.93
599.40	437.68
599.56	416.62
599.71	386.19
599.87	381.51
600.03	414.27
600.18	442.36
600.34	411.93
600.50	372.15
600.65	465.77
600.81	411.93
600.97	360.44
601.12	421.30
601.28	409.59
601.44	369.80
601.59	404.91
601.75	325.33
601.91	395.55
602.06	379.17
602.22	435.34
602.37	458.74
602.53	407.25
602.69	428.32
602.84	468.11
603.00	414.27
603.16	428.32
603.31	444.70
603.47	444.70
603.62	418.96
603.78	416.62
603.94	465.77
604.09	421.30
604.25	449.38
604.40	383.85
604.56	372.15
604.71	416.62
604.87	433.00
605.03	433.00
605.18	339.38
605.34	423.64
605.49	428.32
605.65	418.96
605.80	433.00
605.96	397.89
606.12	402.57
606.27	416.62
606.43	395.55
606.58	423.64
606.74	461.09
606.89	365.12
607.05	451.72
607.20	381.51
607.36	470.45
607.51	409.59
607.67	390.87
607.82	442.36
607.98	500.87
608.13	442.36
608.29	430.66
608.44	456.40
608.60	409.59
608.75	414.27
608.91	461.09
609.06	447.04
609.22	411.93
609.37	297.25
609.53	447.04
609.68	409.59
609.84	482.15
609.99	454.06
610.15	430.66
