SpectraSuite Data File
++++++++++++++++++++++++++++++++++++
Date: Fri Oct 25 12:11:27 EDT 2013
User: price-jones
Dark Spectrum Present: No
Reference Spectrum Present: No
Number of Sampled Component Spectra: 1
Spectrometers: USB2+H05261
Integration Time (usec): 100000 (USB2+H05261)
Spectra Averaged: 1 (USB2+H05261)
Boxcar Smoothing: 0 (USB2+H05261)
Correct for Electrical Dark: No (USB2+H05261)
Strobe/Lamp Enabled: No (USB2+H05261)
Correct for Detector Non-linearity: No (USB2+H05261)
Correct for Stray Light: No (USB2+H05261)
Number of Pixels in Processed Spectrum: 2048
>>>>>Begin Processed Spectral Data<<<<<
365.73	355.76
365.92	355.76
366.12	355.76
366.32	276.18
366.52	264.48
366.72	292.57
366.91	243.42
367.11	203.63
367.31	220.01
367.51	231.71
367.70	259.80
367.90	259.80
368.10	250.44
368.30	227.03
368.49	217.67
368.69	283.20
368.89	259.80
369.09	245.76
369.28	285.55
369.48	266.82
369.68	252.78
369.87	294.91
370.07	334.70
370.27	383.85
370.47	276.18
370.66	337.04
370.86	332.36
371.06	472.79
371.25	425.98
371.45	320.65
371.65	388.53
371.84	386.19
372.04	369.80
372.24	402.57
372.44	346.40
372.63	395.55
372.83	372.15
373.03	440.02
373.22	376.83
373.42	407.25
373.62	402.57
373.81	409.59
374.01	383.85
374.21	451.72
374.40	409.59
374.60	442.36
374.79	477.47
374.99	425.98
375.19	428.32
375.38	442.36
375.58	437.68
375.78	381.51
375.97	423.64
376.17	444.70
376.37	444.70
376.56	411.93
376.76	468.11
376.95	367.46
377.15	442.36
377.35	484.49
377.54	425.98
377.74	444.70
377.93	425.98
378.13	374.49
378.33	404.91
378.52	397.89
378.72	416.62
378.91	449.38
379.11	409.59
379.31	416.62
379.50	351.08
379.70	411.93
379.89	475.13
380.09	383.85
380.28	449.38
380.48	423.64
380.68	397.89
380.87	400.23
381.07	372.15
381.26	425.98
381.46	395.55
381.65	414.27
381.85	425.98
382.04	397.89
382.24	365.12
382.43	498.53
382.63	418.96
382.83	456.40
383.02	430.66
383.22	411.93
383.41	360.44
383.61	400.23
383.80	395.55
384.00	411.93
384.19	397.89
384.39	461.09
384.58	421.30
384.78	437.68
384.97	425.98
385.17	390.87
385.36	416.62
385.56	433.00
385.75	404.91
385.95	376.83
386.14	442.36
386.34	414.27
386.53	383.85
386.72	407.25
386.92	418.96
387.11	428.32
387.31	397.89
387.50	425.98
387.70	393.21
387.89	381.51
388.09	383.85
388.28	435.34
388.48	381.51
388.67	493.85
388.86	454.06
389.06	428.32
389.25	404.91
389.45	442.36
389.64	358.10
389.84	409.59
390.03	421.30
390.22	442.36
390.42	440.02
390.61	388.53
390.81	367.46
391.00	470.45
391.19	421.30
391.39	447.04
391.58	416.62
391.78	386.19
391.97	454.06
392.16	433.00
392.36	491.51
392.55	407.25
392.75	416.62
392.94	416.62
393.13	409.59
393.33	390.87
393.52	447.04
393.71	411.93
393.91	358.10
394.10	299.59
394.29	393.21
394.49	444.70
394.68	367.46
394.88	418.96
395.07	404.91
395.26	468.11
395.46	393.21
395.65	409.59
395.84	390.87
396.04	437.68
396.23	444.70
396.42	395.55
396.62	383.85
396.81	421.30
397.00	397.89
397.19	400.23
397.39	395.55
397.58	425.98
397.77	367.46
397.97	407.25
398.16	397.89
398.35	383.85
398.55	332.36
398.74	390.87
398.93	381.51
399.12	411.93
399.32	379.17
399.51	442.36
399.70	425.98
399.90	358.10
400.09	425.98
400.28	374.49
400.47	395.55
400.67	404.91
400.86	414.27
401.05	355.76
401.24	440.02
401.44	451.72
401.63	463.43
401.82	437.68
402.01	358.10
402.21	388.53
402.40	390.87
402.59	451.72
402.78	456.40
402.97	418.96
403.17	372.15
403.36	440.02
403.55	437.68
403.74	395.55
403.93	397.89
404.13	454.06
404.32	402.57
404.51	388.53
404.70	461.09
404.89	423.64
405.09	477.47
405.28	358.10
405.47	411.93
405.66	386.19
405.85	472.79
406.05	390.87
406.24	372.15
406.43	416.62
406.62	430.66
406.81	479.81
407.00	425.98
407.20	430.66
407.39	367.46
407.58	341.72
407.77	388.53
407.96	449.38
408.15	463.43
408.34	379.17
408.54	400.23
408.73	376.83
408.92	397.89
409.11	407.25
409.30	472.79
409.49	372.15
409.68	414.27
409.87	442.36
410.07	372.15
410.26	393.21
410.45	461.09
410.64	418.96
410.83	407.25
411.02	369.80
411.21	430.66
411.40	407.25
411.59	390.87
411.78	418.96
411.98	428.32
412.17	362.78
412.36	379.17
412.55	355.76
412.74	414.27
412.93	386.19
413.12	400.23
413.31	358.10
413.50	465.77
413.69	395.55
413.88	465.77
414.07	425.98
414.26	400.23
414.45	390.87
414.64	411.93
414.83	416.62
415.02	463.43
415.22	496.19
415.41	444.70
415.60	451.72
415.79	430.66
415.98	402.57
416.17	360.44
416.36	383.85
416.55	444.70
416.74	433.00
416.93	458.74
417.12	428.32
417.31	386.19
417.50	442.36
417.69	407.25
417.88	458.74
418.07	351.08
418.26	353.42
418.45	442.36
418.64	381.51
418.83	395.55
419.02	400.23
419.21	320.65
419.39	416.62
419.58	379.17
419.77	358.10
419.96	428.32
420.15	425.98
420.34	388.53
420.53	386.19
420.72	472.79
420.91	388.53
421.10	395.55
421.29	430.66
421.48	449.38
421.67	454.06
421.86	475.13
422.05	451.72
422.24	442.36
422.43	416.62
422.61	337.04
422.80	425.98
422.99	360.44
423.18	383.85
423.37	411.93
423.56	435.34
423.75	414.27
423.94	456.40
424.13	337.04
424.32	374.49
424.50	444.70
424.69	425.98
424.88	376.83
425.07	449.38
425.26	447.04
425.45	444.70
425.64	416.62
425.83	414.27
426.01	449.38
426.20	475.13
426.39	397.89
426.58	486.83
426.77	430.66
426.96	388.53
427.15	379.17
427.33	496.19
427.52	416.62
427.71	409.59
427.90	444.70
428.09	421.30
428.28	442.36
428.46	430.66
428.65	379.17
428.84	409.59
429.03	470.45
429.22	376.83
429.40	442.36
429.59	383.85
429.78	454.06
429.97	421.30
430.16	500.87
430.34	414.27
430.53	489.17
430.72	353.42
430.91	451.72
431.10	355.76
431.28	383.85
431.47	404.91
431.66	421.30
431.85	376.83
432.03	425.98
432.22	425.98
432.41	442.36
432.60	440.02
432.79	390.87
432.97	430.66
433.16	456.40
433.35	444.70
433.54	451.72
433.72	386.19
433.91	437.68
434.10	465.77
434.28	447.04
434.47	337.04
434.66	454.06
434.85	390.87
435.03	440.02
435.22	454.06
435.41	428.32
435.59	433.00
435.78	433.00
435.97	416.62
436.16	409.59
436.34	386.19
436.53	330.02
436.72	425.98
436.90	451.72
437.09	461.09
437.28	454.06
437.46	381.51
437.65	437.68
437.84	440.02
438.02	447.04
438.21	428.32
438.40	468.11
438.58	395.55
438.77	372.15
438.96	414.27
439.14	416.62
439.33	388.53
439.52	372.15
439.70	454.06
439.89	472.79
440.08	461.09
440.26	468.11
440.45	456.40
440.63	425.98
440.82	433.00
441.01	308.95
441.19	393.21
441.38	355.76
441.57	440.02
441.75	430.66
441.94	479.81
442.12	395.55
442.31	458.74
442.50	421.30
442.68	451.72
442.87	355.76
443.05	454.06
443.24	482.15
443.43	404.91
443.61	465.77
443.80	451.72
443.98	400.23
444.17	409.59
444.35	421.30
444.54	430.66
444.73	416.62
444.91	386.19
445.10	421.30
445.28	409.59
445.47	379.17
445.65	500.87
445.84	409.59
446.02	393.21
446.21	388.53
446.39	435.34
446.58	416.62
446.77	409.59
446.95	500.87
447.14	461.09
447.32	451.72
447.51	428.32
447.69	381.51
447.88	486.83
448.06	484.49
448.25	437.68
448.43	386.19
448.62	414.27
448.80	381.51
448.99	367.46
449.17	421.30
449.36	402.57
449.54	351.08
449.73	407.25
449.91	360.44
450.10	407.25
450.28	479.81
450.46	437.68
450.65	423.64
450.83	440.02
451.02	449.38
451.20	435.34
451.39	442.36
451.57	444.70
451.76	421.30
451.94	428.32
452.13	388.53
452.31	376.83
452.49	409.59
452.68	444.70
452.86	437.68
453.05	458.74
453.23	407.25
453.42	440.02
453.60	479.81
453.78	435.34
453.97	365.12
454.15	449.38
454.34	458.74
454.52	411.93
454.70	421.30
454.89	418.96
455.07	435.34
455.26	397.89
455.44	381.51
455.62	341.72
455.81	374.49
455.99	353.42
456.17	442.36
456.36	447.04
456.54	456.40
456.73	416.62
456.91	430.66
457.09	454.06
457.28	428.32
457.46	475.13
457.64	475.13
457.83	433.00
458.01	414.27
458.19	449.38
458.38	369.80
458.56	531.30
458.74	430.66
458.93	351.08
459.11	428.32
459.29	334.70
459.48	433.00
459.66	428.32
459.84	395.55
460.03	540.66
460.21	397.89
460.39	376.83
460.57	430.66
460.76	437.68
460.94	404.91
461.12	402.57
461.31	395.55
461.49	465.77
461.67	351.08
461.85	447.04
462.04	383.85
462.22	856.64
462.40	395.55
462.59	482.15
462.77	397.89
462.95	421.30
463.13	376.83
463.32	418.96
463.50	400.23
463.68	395.55
463.86	372.15
464.05	400.23
464.23	386.19
464.41	425.98
464.59	468.11
464.78	397.89
464.96	414.27
465.14	372.15
465.32	355.76
465.50	358.10
465.69	416.62
465.87	379.17
466.05	376.83
466.23	442.36
466.41	442.36
466.60	430.66
466.78	423.64
466.96	334.70
467.14	414.27
467.32	444.70
467.51	458.74
467.69	388.53
467.87	498.53
468.05	379.17
468.23	428.32
468.41	475.13
468.60	400.23
468.78	374.49
468.96	355.76
469.14	407.25
469.32	425.98
469.50	423.64
469.69	421.30
469.87	449.38
470.05	414.27
470.23	369.80
470.41	425.98
470.59	421.30
470.77	423.64
470.95	421.30
471.14	388.53
471.32	330.02
471.50	404.91
471.68	395.55
471.86	341.72
472.04	433.00
472.22	388.53
472.40	379.17
472.58	414.27
472.77	435.34
472.95	428.32
473.13	414.27
473.31	402.57
473.49	468.11
473.67	456.40
473.85	470.45
474.03	447.04
474.21	367.46
474.39	440.02
474.57	463.43
474.75	421.30
474.93	395.55
475.12	498.53
475.30	372.15
475.48	374.49
475.66	449.38
475.84	390.87
476.02	430.66
476.20	428.32
476.38	407.25
476.56	477.47
476.74	411.93
476.92	418.96
477.10	423.64
477.28	425.98
477.46	381.51
477.64	433.00
477.82	308.95
478.00	367.46
478.18	491.51
478.36	430.66
478.54	409.59
478.72	461.09
478.90	489.17
479.08	416.62
479.26	402.57
479.44	315.97
479.62	421.30
479.80	409.59
479.98	461.09
480.16	395.55
480.34	365.12
480.52	407.25
480.70	444.70
480.88	353.42
481.06	440.02
481.24	383.85
481.41	477.47
481.59	447.04
481.77	358.10
481.95	433.00
482.13	435.34
482.31	358.10
482.49	395.55
482.67	407.25
482.85	461.09
483.03	346.40
483.21	402.57
483.39	397.89
483.57	381.51
483.74	425.98
483.92	486.83
484.10	418.96
484.28	433.00
484.46	507.90
484.64	449.38
484.82	379.17
485.00	447.04
485.18	428.32
485.35	454.06
485.53	308.95
485.71	418.96
485.89	421.30
486.07	407.25
486.25	440.02
486.43	421.30
486.61	477.47
486.78	428.32
486.96	334.70
487.14	367.46
487.32	433.00
487.50	444.70
487.68	503.22
487.85	411.93
488.03	444.70
488.21	475.13
488.39	411.93
488.57	456.40
488.75	430.66
488.92	514.92
489.10	376.83
489.28	461.09
489.46	360.44
489.64	428.32
489.81	355.76
489.99	388.53
490.17	341.72
490.35	416.62
490.53	423.64
490.70	416.62
490.88	425.98
491.06	482.15
491.24	486.83
491.41	404.91
491.59	421.30
491.77	435.34
491.95	421.30
492.13	409.59
492.30	400.23
492.48	404.91
492.66	484.49
492.84	369.80
493.01	451.72
493.19	442.36
493.37	477.47
493.54	411.93
493.72	425.98
493.90	416.62
494.08	402.57
494.25	512.58
494.43	400.23
494.61	430.66
494.79	500.87
494.96	437.68
495.14	360.44
495.32	402.57
495.49	400.23
495.67	430.66
495.85	369.80
496.02	428.32
496.20	463.43
496.38	407.25
496.55	395.55
496.73	428.32
496.91	369.80
497.09	376.83
497.26	411.93
497.44	458.74
497.62	421.30
497.79	409.59
497.97	386.19
498.14	404.91
498.32	425.98
498.50	416.62
498.67	369.80
498.85	477.47
499.03	472.79
499.20	454.06
499.38	409.59
499.56	367.46
499.73	505.56
499.91	416.62
500.08	507.90
500.26	428.32
500.44	376.83
500.61	372.15
500.79	397.89
500.97	470.45
501.14	461.09
501.32	381.51
501.49	421.30
501.67	379.17
501.84	442.36
502.02	358.10
502.20	440.02
502.37	390.87
502.55	423.64
502.72	435.34
502.90	489.17
503.07	381.51
503.25	437.68
503.43	454.06
503.60	428.32
503.78	414.27
503.95	472.79
504.13	449.38
504.30	449.38
504.48	444.70
504.65	440.02
504.83	360.44
505.01	428.32
505.18	421.30
505.36	437.68
505.53	334.70
505.71	472.79
505.88	428.32
506.06	379.17
506.23	435.34
506.41	444.70
506.58	470.45
506.76	425.98
506.93	404.91
507.11	470.45
507.28	402.57
507.46	397.89
507.63	461.09
507.81	437.68
507.98	444.70
508.16	430.66
508.33	341.72
508.50	379.17
508.68	367.46
508.85	388.53
509.03	390.87
509.20	397.89
509.38	407.25
509.55	433.00
509.73	543.00
509.90	465.77
510.08	442.36
510.25	456.40
510.42	407.25
510.60	383.85
510.77	475.13
510.95	407.25
511.12	442.36
511.30	475.13
511.47	369.80
511.64	449.38
511.82	388.53
511.99	379.17
512.17	458.74
512.34	437.68
512.51	402.57
512.69	449.38
512.86	444.70
513.04	379.17
513.21	327.68
513.38	458.74
513.56	440.02
513.73	341.72
513.90	475.13
514.08	322.99
514.25	435.34
514.43	517.26
514.60	433.00
514.77	402.57
514.95	440.02
515.12	318.31
515.29	397.89
515.47	404.91
515.64	463.43
515.81	421.30
515.99	435.34
516.16	468.11
516.33	447.04
516.51	442.36
516.68	454.06
516.85	402.57
517.03	444.70
517.20	404.91
517.37	465.77
517.54	456.40
517.72	416.62
517.89	393.21
518.06	447.04
518.24	477.47
518.41	444.70
518.58	433.00
518.75	416.62
518.93	393.21
519.10	414.27
519.27	390.87
519.45	402.57
519.62	379.17
519.79	421.30
519.96	400.23
520.14	383.85
520.31	463.43
520.48	442.36
520.65	435.34
520.83	451.72
521.00	397.89
521.17	442.36
521.34	482.15
521.52	393.21
521.69	407.25
521.86	514.92
522.03	482.15
522.20	393.21
522.38	416.62
522.55	435.34
522.72	334.70
522.89	407.25
523.07	444.70
523.24	475.13
523.41	379.17
523.58	367.46
523.75	374.49
523.92	383.85
524.10	444.70
524.27	355.76
524.44	353.42
524.61	449.38
524.78	456.40
524.96	395.55
525.13	355.76
525.30	376.83
525.47	423.64
525.64	451.72
525.81	407.25
525.98	425.98
526.16	393.21
526.33	367.46
526.50	374.49
526.67	390.87
526.84	367.46
527.01	444.70
527.18	456.40
527.36	386.19
527.53	390.87
527.70	442.36
527.87	416.62
528.04	451.72
528.21	433.00
528.38	430.66
528.55	454.06
528.72	400.23
528.89	491.51
529.07	454.06
529.24	411.93
529.41	454.06
529.58	458.74
529.75	433.00
529.92	470.45
530.09	383.85
530.26	397.89
530.43	463.43
530.60	437.68
530.77	393.21
530.94	393.21
531.11	416.62
531.28	449.38
531.46	409.59
531.63	339.38
531.80	409.59
531.97	458.74
532.14	369.80
532.31	388.53
532.48	425.98
532.65	425.98
532.82	411.93
532.99	383.85
533.16	433.00
533.33	362.78
533.50	486.83
533.67	461.09
533.84	409.59
534.01	416.62
534.18	393.21
534.35	404.91
534.52	407.25
534.69	348.74
534.86	376.83
535.03	423.64
535.20	423.64
535.37	416.62
535.54	435.34
535.71	435.34
535.88	435.34
536.05	404.91
536.22	416.62
536.38	404.91
536.55	339.38
536.72	365.12
536.89	407.25
537.06	437.68
537.23	393.21
537.40	442.36
537.57	376.83
537.74	451.72
537.91	440.02
538.08	397.89
538.25	400.23
538.42	353.42
538.59	386.19
538.75	383.85
538.92	433.00
539.09	402.57
539.26	440.02
539.43	463.43
539.60	379.17
539.77	449.38
539.94	458.74
540.11	477.47
540.28	440.02
540.44	433.00
540.61	341.72
540.78	418.96
540.95	374.49
541.12	383.85
541.29	456.40
541.46	400.23
541.62	437.68
541.79	428.32
541.96	444.70
542.13	404.91
542.30	418.96
542.47	416.62
542.63	451.72
542.80	400.23
542.97	512.58
543.14	411.93
543.31	379.17
543.48	374.49
543.64	393.21
543.81	421.30
543.98	374.49
544.15	402.57
544.32	360.44
544.48	423.64
544.65	376.83
544.82	423.64
544.99	414.27
545.16	440.02
545.32	376.83
545.49	407.25
545.66	433.00
545.83	390.87
546.00	449.38
546.16	374.49
546.33	409.59
546.50	514.92
546.67	425.98
546.83	442.36
547.00	379.17
547.17	458.74
547.34	386.19
547.50	433.00
547.67	365.12
547.84	353.42
548.00	407.25
548.17	435.34
548.34	365.12
548.51	407.25
548.67	365.12
548.84	416.62
549.01	428.32
549.18	433.00
549.34	442.36
549.51	437.68
549.68	425.98
549.84	411.93
550.01	430.66
550.18	465.77
550.34	493.85
550.51	423.64
550.68	496.19
550.84	447.04
551.01	449.38
551.18	402.57
551.34	360.44
551.51	390.87
551.68	388.53
551.84	348.74
552.01	397.89
552.18	400.23
552.34	442.36
552.51	362.78
552.68	435.34
552.84	505.56
553.01	397.89
553.18	440.02
553.34	386.19
553.51	430.66
553.67	496.19
553.84	477.47
554.01	447.04
554.17	463.43
554.34	423.64
554.51	409.59
554.67	379.17
554.84	379.17
555.00	416.62
555.17	418.96
555.33	449.38
555.50	411.93
555.67	411.93
555.83	402.57
556.00	381.51
556.16	571.09
556.33	444.70
556.50	444.70
556.66	428.32
556.83	435.34
556.99	383.85
557.16	376.83
557.32	433.00
557.49	416.62
557.65	447.04
557.82	479.81
557.98	449.38
558.15	418.96
558.32	475.13
558.48	400.23
558.65	437.68
558.81	428.32
558.98	388.53
559.14	388.53
559.31	402.57
559.47	388.53
559.64	444.70
559.80	430.66
559.97	416.62
560.13	414.27
560.30	498.53
560.46	393.21
560.63	393.21
560.79	428.32
560.96	416.62
561.12	407.25
561.29	402.57
561.45	390.87
561.61	435.34
561.78	475.13
561.94	400.23
562.11	400.23
562.27	451.72
562.44	428.32
562.60	444.70
562.77	407.25
562.93	404.91
563.10	337.04
563.26	409.59
563.42	442.36
563.59	421.30
563.75	447.04
563.92	433.00
564.08	433.00
564.24	414.27
564.41	475.13
564.57	367.46
564.74	325.33
564.90	383.85
565.07	451.72
565.23	416.62
565.39	461.09
565.56	482.15
565.72	470.45
565.88	372.15
566.05	379.17
566.21	425.98
566.38	428.32
566.54	423.64
566.70	346.40
566.87	334.70
567.03	376.83
567.19	428.32
567.36	524.28
567.52	447.04
567.68	498.53
567.85	402.57
568.01	423.64
568.17	484.49
568.34	414.27
568.50	320.65
568.66	433.00
568.83	475.13
568.99	451.72
569.15	425.98
569.32	430.66
569.48	400.23
569.64	409.59
569.81	435.34
569.97	440.02
570.13	482.15
570.30	379.17
570.46	430.66
570.62	388.53
570.78	442.36
570.95	477.47
571.11	425.98
571.27	435.34
571.43	395.55
571.60	390.87
571.76	386.19
571.92	397.89
572.09	456.40
572.25	421.30
572.41	369.80
572.57	454.06
572.74	395.55
572.90	428.32
573.06	428.32
573.22	486.83
573.38	360.44
573.55	390.87
573.71	416.62
573.87	360.44
574.03	456.40
574.20	397.89
574.36	411.93
574.52	341.72
574.68	440.02
574.84	416.62
575.01	496.19
575.17	435.34
575.33	376.83
575.49	484.49
575.65	414.27
575.82	451.72
575.98	421.30
576.14	454.06
576.30	383.85
576.46	383.85
576.62	440.02
576.79	416.62
576.95	423.64
577.11	414.27
577.27	440.02
577.43	458.74
577.59	503.22
577.75	491.51
577.92	414.27
578.08	421.30
578.24	388.53
578.40	407.25
578.56	456.40
578.72	428.32
578.88	449.38
579.04	447.04
579.21	416.62
579.37	468.11
579.53	423.64
579.69	418.96
579.85	407.25
580.01	339.38
580.17	472.79
580.33	435.34
580.49	374.49
580.65	433.00
580.82	393.21
580.98	404.91
581.14	367.46
581.30	489.17
581.46	444.70
581.62	449.38
581.78	369.80
581.94	360.44
582.10	369.80
582.26	423.64
582.42	428.32
582.58	388.53
582.74	411.93
582.90	395.55
583.06	416.62
583.22	362.78
583.38	362.78
583.54	411.93
583.70	381.51
583.86	355.76
584.02	344.06
584.18	414.27
584.34	374.49
584.50	440.02
584.66	351.08
584.82	442.36
584.98	390.87
585.14	339.38
585.30	493.85
585.46	491.51
585.62	351.08
585.78	428.32
585.94	430.66
586.10	489.17
586.26	449.38
586.42	444.70
586.58	393.21
586.74	416.62
586.90	400.23
587.06	430.66
587.22	409.59
587.38	397.89
587.54	411.93
587.70	355.76
587.86	407.25
588.02	458.74
588.18	411.93
588.34	428.32
588.49	372.15
588.65	458.74
588.81	430.66
588.97	395.55
589.13	369.80
589.29	411.93
589.45	468.11
589.61	369.80
589.77	341.72
589.93	372.15
590.08	451.72
590.24	416.62
590.40	395.55
590.56	402.57
590.72	482.15
590.88	358.10
591.04	414.27
591.20	435.34
591.35	505.56
591.51	423.64
591.67	433.00
591.83	414.27
591.99	451.72
592.15	496.19
592.31	477.47
592.46	475.13
592.62	409.59
592.78	407.25
592.94	404.91
593.10	430.66
593.26	397.89
593.41	465.77
593.57	372.15
593.73	390.87
593.89	489.17
594.05	458.74
594.20	390.87
594.36	425.98
594.52	365.12
594.68	381.51
594.84	461.09
594.99	351.08
595.15	444.70
595.31	414.27
595.47	402.57
595.62	402.57
595.78	369.80
595.94	423.64
596.10	428.32
596.25	496.19
596.41	444.70
596.57	463.43
596.73	395.55
596.88	409.59
597.04	454.06
597.20	423.64
597.36	456.40
597.51	451.72
597.67	374.49
597.83	463.43
597.99	477.47
598.14	374.49
598.30	442.36
598.46	416.62
598.61	449.38
598.77	416.62
598.93	402.57
599.09	449.38
599.24	390.87
599.40	404.91
599.56	390.87
599.71	397.89
599.87	437.68
600.03	411.93
600.18	404.91
600.34	376.83
600.50	440.02
600.65	423.64
600.81	442.36
600.97	411.93
601.12	440.02
601.28	416.62
601.44	379.17
601.59	428.32
601.75	358.10
601.91	463.43
602.06	379.17
602.22	421.30
602.37	414.27
602.53	414.27
602.69	430.66
602.84	388.53
603.00	386.19
603.16	442.36
603.31	458.74
603.47	425.98
603.62	306.61
603.78	334.70
603.94	369.80
604.09	386.19
604.25	458.74
604.40	421.30
604.56	411.93
604.71	388.53
604.87	390.87
605.03	355.76
605.18	449.38
605.34	425.98
605.49	369.80
605.65	428.32
605.80	428.32
605.96	376.83
606.12	463.43
606.27	444.70
606.43	409.59
606.58	428.32
606.74	425.98
606.89	456.40
607.05	402.57
607.20	360.44
607.36	430.66
607.51	421.30
607.67	418.96
607.82	435.34
607.98	517.26
608.13	447.04
608.29	425.98
608.44	470.45
608.60	484.49
608.75	428.32
608.91	444.70
609.06	449.38
609.22	430.66
609.37	369.80
609.53	341.72
609.68	379.17
609.84	451.72
609.99	351.08
610.15	433.00
