SpectraSuite Data File
++++++++++++++++++++++++++++++++++++
Date: Fri Oct 25 12:10:28 EDT 2013
User: price-jones
Dark Spectrum Present: No
Reference Spectrum Present: No
Number of Sampled Component Spectra: 1
Spectrometers: USB2+H05261
Integration Time (usec): 100000 (USB2+H05261)
Spectra Averaged: 1 (USB2+H05261)
Boxcar Smoothing: 0 (USB2+H05261)
Correct for Electrical Dark: No (USB2+H05261)
Strobe/Lamp Enabled: No (USB2+H05261)
Correct for Detector Non-linearity: No (USB2+H05261)
Correct for Stray Light: No (USB2+H05261)
Number of Pixels in Processed Spectrum: 2048
>>>>>Begin Processed Spectral Data<<<<<
365.73	320.65
365.92	320.65
366.12	320.65
366.32	229.37
366.52	210.65
366.72	273.84
366.91	159.16
367.11	266.82
367.31	201.29
367.51	215.33
367.70	215.33
367.90	262.14
368.10	241.08
368.30	224.69
368.49	257.46
368.69	241.08
368.89	229.37
369.09	271.50
369.28	259.80
369.48	212.99
369.68	210.65
369.87	313.63
370.07	367.46
370.27	330.02
370.47	320.65
370.66	341.72
370.86	358.10
371.06	397.89
371.25	388.53
371.45	407.25
371.65	414.27
371.84	365.12
372.04	393.21
372.24	402.57
372.44	376.83
372.63	418.96
372.83	395.55
373.03	402.57
373.22	386.19
373.42	411.93
373.62	447.04
373.81	430.66
374.01	425.98
374.21	447.04
374.40	484.49
374.60	423.64
374.79	423.64
374.99	416.62
375.19	388.53
375.38	395.55
375.58	425.98
375.78	498.53
375.97	407.25
376.17	475.13
376.37	414.27
376.56	416.62
376.76	362.78
376.95	454.06
377.15	397.89
377.35	463.43
377.54	421.30
377.74	486.83
377.93	381.51
378.13	397.89
378.33	400.23
378.52	440.02
378.72	503.22
378.91	376.83
379.11	456.40
379.31	451.72
379.50	393.21
379.70	407.25
379.89	433.00
380.09	409.59
380.28	402.57
380.48	421.30
380.68	362.78
380.87	404.91
381.07	376.83
381.26	451.72
381.46	430.66
381.65	418.96
381.85	465.77
382.04	454.06
382.24	409.59
382.43	327.68
382.63	402.57
382.83	442.36
383.02	390.87
383.22	428.32
383.41	409.59
383.61	376.83
383.80	463.43
384.00	468.11
384.19	397.89
384.39	374.49
384.58	374.49
384.78	402.57
384.97	402.57
385.17	395.55
385.36	430.66
385.56	351.08
385.75	421.30
385.95	484.49
386.14	411.93
386.34	351.08
386.53	409.59
386.72	449.38
386.92	442.36
387.11	418.96
387.31	423.64
387.50	383.85
387.70	301.93
387.89	425.98
388.09	348.74
388.28	440.02
388.48	437.68
388.67	477.47
388.86	451.72
389.06	374.49
389.25	386.19
389.45	407.25
389.64	365.12
389.84	435.34
390.03	393.21
390.22	414.27
390.42	369.80
390.61	447.04
390.81	393.21
391.00	404.91
391.19	409.59
391.39	358.10
391.58	423.64
391.78	395.55
391.97	315.97
392.16	367.46
392.36	449.38
392.55	418.96
392.75	421.30
392.94	428.32
393.13	447.04
393.33	402.57
393.52	402.57
393.71	463.43
393.91	404.91
394.10	409.59
394.29	360.44
394.49	355.76
394.68	409.59
394.88	402.57
395.07	416.62
395.26	423.64
395.46	449.38
395.65	456.40
395.84	400.23
396.04	468.11
396.23	437.68
396.42	423.64
396.62	367.46
396.81	411.93
397.00	409.59
397.19	360.44
397.39	348.74
397.58	435.34
397.77	355.76
397.97	383.85
398.16	407.25
398.35	428.32
398.55	416.62
398.74	447.04
398.93	411.93
399.12	416.62
399.32	388.53
399.51	397.89
399.70	381.51
399.90	339.38
400.09	376.83
400.28	339.38
400.47	411.93
400.67	458.74
400.86	362.78
401.05	442.36
401.24	381.51
401.44	367.46
401.63	397.89
401.82	369.80
402.01	428.32
402.21	395.55
402.40	381.51
402.59	365.12
402.78	404.91
402.97	308.95
403.17	444.70
403.36	428.32
403.55	381.51
403.74	374.49
403.93	423.64
404.13	355.76
404.32	369.80
404.51	318.31
404.70	482.15
404.89	369.80
405.09	458.74
405.28	327.68
405.47	393.21
405.66	437.68
405.85	486.83
406.05	475.13
406.24	395.55
406.43	475.13
406.62	465.77
406.81	433.00
407.00	423.64
407.20	437.68
407.39	353.42
407.58	390.87
407.77	383.85
407.96	433.00
408.15	402.57
408.34	456.40
408.54	390.87
408.73	393.21
408.92	367.46
409.11	386.19
409.30	383.85
409.49	416.62
409.68	376.83
409.87	458.74
410.07	339.38
410.26	381.51
410.45	477.47
410.64	379.17
410.83	379.17
411.02	423.64
411.21	416.62
411.40	397.89
411.59	360.44
411.78	411.93
411.98	348.74
412.17	416.62
412.36	468.11
412.55	358.10
412.74	404.91
412.93	437.68
413.12	379.17
413.31	447.04
413.50	430.66
413.69	440.02
413.88	489.17
414.07	437.68
414.26	351.08
414.45	390.87
414.64	362.78
414.83	442.36
415.02	472.79
415.22	451.72
415.41	470.45
415.60	418.96
415.79	395.55
415.98	421.30
416.17	393.21
416.36	407.25
416.55	404.91
416.74	451.72
416.93	442.36
417.12	404.91
417.31	433.00
417.50	388.53
417.69	442.36
417.88	379.17
418.07	379.17
418.26	416.62
418.45	416.62
418.64	404.91
418.83	360.44
419.02	358.10
419.21	421.30
419.39	369.80
419.58	411.93
419.77	430.66
419.96	379.17
420.15	500.87
420.34	477.47
420.53	404.91
420.72	362.78
420.91	374.49
421.10	440.02
421.29	505.56
421.48	348.74
421.67	360.44
421.86	428.32
422.05	411.93
422.24	404.91
422.43	449.38
422.61	388.53
422.80	416.62
422.99	390.87
423.18	430.66
423.37	425.98
423.56	379.17
423.75	411.93
423.94	407.25
424.13	435.34
424.32	397.89
424.50	411.93
424.69	414.27
424.88	428.32
425.07	395.55
425.26	421.30
425.45	468.11
425.64	421.30
425.83	425.98
426.01	484.49
426.20	428.32
426.39	437.68
426.58	353.42
426.77	414.27
426.96	388.53
427.15	418.96
427.33	402.57
427.52	388.53
427.71	421.30
427.90	407.25
428.09	458.74
428.28	379.17
428.46	355.76
428.65	472.79
428.84	400.23
429.03	447.04
429.22	313.63
429.40	421.30
429.59	395.55
429.78	372.15
429.97	463.43
430.16	428.32
430.34	463.43
430.53	442.36
430.72	430.66
430.91	440.02
431.10	435.34
431.28	383.85
431.47	484.49
431.66	428.32
431.85	388.53
432.03	400.23
432.22	416.62
432.41	404.91
432.60	381.51
432.79	411.93
432.97	425.98
433.16	362.78
433.35	374.49
433.54	397.89
433.72	442.36
433.91	444.70
434.10	444.70
434.28	297.25
434.47	383.85
434.66	388.53
434.85	355.76
435.03	440.02
435.22	407.25
435.41	428.32
435.59	447.04
435.78	475.13
435.97	416.62
436.16	472.79
436.34	491.51
436.53	379.17
436.72	463.43
436.90	423.64
437.09	437.68
437.28	395.55
437.46	404.91
437.65	479.81
437.84	456.40
438.02	383.85
438.21	407.25
438.40	355.76
438.58	437.68
438.77	332.36
438.96	379.17
439.14	496.19
439.33	386.19
439.52	442.36
439.70	381.51
439.89	418.96
440.08	428.32
440.26	407.25
440.45	444.70
440.63	367.46
440.82	411.93
441.01	367.46
441.19	393.21
441.38	458.74
441.57	430.66
441.75	449.38
441.94	430.66
442.12	475.13
442.31	372.15
442.50	393.21
442.68	353.42
442.87	421.30
443.05	461.09
443.24	435.34
443.43	442.36
443.61	454.06
443.80	423.64
443.98	381.51
444.17	402.57
444.35	369.80
444.54	468.11
444.73	409.59
444.91	456.40
445.10	395.55
445.28	404.91
445.47	418.96
445.65	365.12
445.84	444.70
446.02	400.23
446.21	449.38
446.39	447.04
446.58	442.36
446.77	409.59
446.95	465.77
447.14	454.06
447.32	442.36
447.51	381.51
447.69	355.76
447.88	442.36
448.06	393.21
448.25	409.59
448.43	407.25
448.62	404.91
448.80	341.72
448.99	418.96
449.17	341.72
449.36	414.27
449.54	383.85
449.73	388.53
449.91	400.23
450.10	433.00
450.28	465.77
450.46	437.68
450.65	447.04
450.83	346.40
451.02	423.64
451.20	386.19
451.39	351.08
451.57	386.19
451.76	386.19
451.94	461.09
452.13	395.55
452.31	463.43
452.49	430.66
452.68	393.21
452.86	425.98
453.05	425.98
453.23	425.98
453.42	423.64
453.60	437.68
453.78	374.49
453.97	351.08
454.15	374.49
454.34	362.78
454.52	397.89
454.70	407.25
454.89	393.21
455.07	425.98
455.26	444.70
455.44	458.74
455.62	332.36
455.81	442.36
455.99	386.19
456.17	444.70
456.36	351.08
456.54	449.38
456.73	409.59
456.91	430.66
457.09	416.62
457.28	477.47
457.46	411.93
457.64	388.53
457.83	489.17
458.01	416.62
458.19	468.11
458.38	393.21
458.56	358.10
458.74	341.72
458.93	489.17
459.11	386.19
459.29	372.15
459.48	414.27
459.66	425.98
459.84	470.45
460.03	479.81
460.21	437.68
460.39	367.46
460.57	503.22
460.76	430.66
460.94	423.64
461.12	442.36
461.31	493.85
461.49	407.25
461.67	411.93
461.85	386.19
462.04	428.32
462.22	734.93
462.40	433.00
462.59	379.17
462.77	435.34
462.95	353.42
463.13	341.72
463.32	416.62
463.50	435.34
463.68	491.51
463.86	440.02
464.05	397.89
464.23	395.55
464.41	428.32
464.59	418.96
464.78	458.74
464.96	461.09
465.14	416.62
465.32	447.04
465.50	386.19
465.69	397.89
465.87	383.85
466.05	390.87
466.23	507.90
466.41	367.46
466.60	372.15
466.78	461.09
466.96	418.96
467.14	433.00
467.32	423.64
467.51	416.62
467.69	402.57
467.87	442.36
468.05	425.98
468.23	451.72
468.41	341.72
468.60	397.89
468.78	407.25
468.96	454.06
469.14	393.21
469.32	355.76
469.50	416.62
469.69	393.21
469.87	418.96
470.05	437.68
470.23	388.53
470.41	402.57
470.59	437.68
470.77	454.06
470.95	454.06
471.14	435.34
471.32	433.00
471.50	440.02
471.68	381.51
471.86	425.98
472.04	421.30
472.22	414.27
472.40	367.46
472.58	383.85
472.77	468.11
472.95	418.96
473.13	435.34
473.31	411.93
473.49	334.70
473.67	339.38
473.85	430.66
474.03	416.62
474.21	454.06
474.39	421.30
474.57	425.98
474.75	369.80
474.93	458.74
475.12	400.23
475.30	358.10
475.48	402.57
475.66	393.21
475.84	428.32
476.02	418.96
476.20	451.72
476.38	407.25
476.56	475.13
476.74	414.27
476.92	404.91
477.10	425.98
477.28	458.74
477.46	390.87
477.64	383.85
477.82	379.17
478.00	425.98
478.18	423.64
478.36	390.87
478.54	442.36
478.72	376.83
478.90	414.27
479.08	407.25
479.26	430.66
479.44	449.38
479.62	362.78
479.80	379.17
479.98	402.57
480.16	393.21
480.34	449.38
480.52	348.74
480.70	407.25
480.88	407.25
481.06	374.49
481.24	407.25
481.41	447.04
481.59	404.91
481.77	402.57
481.95	416.62
482.13	458.74
482.31	423.64
482.49	341.72
482.67	400.23
482.85	418.96
483.03	458.74
483.21	374.49
483.39	456.40
483.57	444.70
483.74	444.70
483.92	418.96
484.10	390.87
484.28	449.38
484.46	437.68
484.64	369.80
484.82	414.27
485.00	374.49
485.18	428.32
485.35	365.12
485.53	372.15
485.71	402.57
485.89	461.09
486.07	440.02
486.25	449.38
486.43	355.76
486.61	411.93
486.78	409.59
486.96	388.53
487.14	404.91
487.32	442.36
487.50	395.55
487.68	442.36
487.85	423.64
488.03	418.96
488.21	435.34
488.39	390.87
488.57	428.32
488.75	386.19
488.92	444.70
489.10	395.55
489.28	383.85
489.46	409.59
489.64	475.13
489.81	428.32
489.99	374.49
490.17	440.02
490.35	458.74
490.53	393.21
490.70	358.10
490.88	416.62
491.06	374.49
491.24	414.27
491.41	393.21
491.59	421.30
491.77	425.98
491.95	358.10
492.13	393.21
492.30	388.53
492.48	355.76
492.66	454.06
492.84	351.08
493.01	423.64
493.19	395.55
493.37	491.51
493.54	430.66
493.72	442.36
493.90	367.46
494.08	393.21
494.25	449.38
494.43	433.00
494.61	435.34
494.79	397.89
494.96	390.87
495.14	451.72
495.32	379.17
495.49	477.47
495.67	369.80
495.85	374.49
496.02	447.04
496.20	416.62
496.38	465.77
496.55	386.19
496.73	414.27
496.91	407.25
497.09	362.78
497.26	397.89
497.44	383.85
497.62	454.06
497.79	311.29
497.97	447.04
498.14	411.93
498.32	470.45
498.50	402.57
498.67	400.23
498.85	386.19
499.03	423.64
499.20	430.66
499.38	409.59
499.56	423.64
499.73	320.65
499.91	397.89
500.08	470.45
500.26	411.93
500.44	463.43
500.61	458.74
500.79	430.66
500.97	400.23
501.14	369.80
501.32	390.87
501.49	463.43
501.67	414.27
501.84	395.55
502.02	458.74
502.20	421.30
502.37	395.55
502.55	348.74
502.72	409.59
502.90	416.62
503.07	397.89
503.25	337.04
503.43	433.00
503.60	425.98
503.78	393.21
503.95	407.25
504.13	465.77
504.30	421.30
504.48	468.11
504.65	437.68
504.83	341.72
505.01	369.80
505.18	444.70
505.36	418.96
505.53	454.06
505.71	418.96
505.88	442.36
506.06	463.43
506.23	416.62
506.41	456.40
506.58	418.96
506.76	397.89
506.93	423.64
507.11	423.64
507.28	397.89
507.46	393.21
507.63	444.70
507.81	423.64
507.98	388.53
508.16	383.85
508.33	414.27
508.50	465.77
508.68	425.98
508.85	447.04
509.03	395.55
509.20	416.62
509.38	425.98
509.55	465.77
509.73	430.66
509.90	465.77
510.08	388.53
510.25	393.21
510.42	337.04
510.60	423.64
510.77	435.34
510.95	463.43
511.12	334.70
511.30	397.89
511.47	397.89
511.64	444.70
511.82	404.91
511.99	442.36
512.17	435.34
512.34	334.70
512.51	393.21
512.69	433.00
512.86	407.25
513.04	346.40
513.21	383.85
513.38	351.08
513.56	477.47
513.73	400.23
513.90	425.98
514.08	353.42
514.25	503.22
514.43	393.21
514.60	421.30
514.77	367.46
514.95	395.55
515.12	444.70
515.29	425.98
515.47	442.36
515.64	454.06
515.81	414.27
515.99	440.02
516.16	463.43
516.33	468.11
516.51	428.32
516.68	395.55
516.85	374.49
517.03	428.32
517.20	458.74
517.37	440.02
517.54	428.32
517.72	416.62
517.89	421.30
518.06	507.90
518.24	456.40
518.41	540.66
518.58	514.92
518.75	374.49
518.93	454.06
519.10	372.15
519.27	402.57
519.45	360.44
519.62	411.93
519.79	388.53
519.96	440.02
520.14	416.62
520.31	402.57
520.48	390.87
520.65	397.89
520.83	381.51
521.00	451.72
521.17	458.74
521.34	351.08
521.52	360.44
521.69	435.34
521.86	393.21
522.03	475.13
522.20	489.17
522.38	400.23
522.55	449.38
522.72	344.06
522.89	383.85
523.07	433.00
523.24	381.51
523.41	383.85
523.58	332.36
523.75	374.49
523.92	393.21
524.10	397.89
524.27	402.57
524.44	449.38
524.61	407.25
524.78	440.02
524.96	402.57
525.13	433.00
525.30	451.72
525.47	416.62
525.64	418.96
525.81	458.74
525.98	395.55
526.16	521.94
526.33	465.77
526.50	435.34
526.67	414.27
526.84	421.30
527.01	472.79
527.18	454.06
527.36	447.04
527.53	376.83
527.70	444.70
527.87	416.62
528.04	484.49
528.21	449.38
528.38	489.17
528.55	484.49
528.72	458.74
528.89	409.59
529.07	425.98
529.24	393.21
529.41	433.00
529.58	346.40
529.75	388.53
529.92	416.62
530.09	435.34
530.26	425.98
530.43	454.06
530.60	449.38
530.77	358.10
530.94	451.72
531.11	360.44
531.28	428.32
531.46	386.19
531.63	393.21
531.80	449.38
531.97	463.43
532.14	395.55
532.31	442.36
532.48	418.96
532.65	393.21
532.82	404.91
532.99	393.21
533.16	437.68
533.33	374.49
533.50	484.49
533.67	440.02
533.84	444.70
534.01	425.98
534.18	390.87
534.35	353.42
534.52	374.49
534.69	430.66
534.86	454.06
535.03	433.00
535.20	428.32
535.37	468.11
535.54	458.74
535.71	395.55
535.88	381.51
536.05	479.81
536.22	428.32
536.38	383.85
536.55	411.93
536.72	414.27
536.89	397.89
537.06	470.45
537.23	418.96
537.40	423.64
537.57	381.51
537.74	435.34
537.91	454.06
538.08	454.06
538.25	348.74
538.42	388.53
538.59	423.64
538.75	351.08
538.92	381.51
539.09	383.85
539.26	367.46
539.43	421.30
539.60	444.70
539.77	430.66
539.94	416.62
540.11	461.09
540.28	463.43
540.44	472.79
540.61	444.70
540.78	470.45
540.95	428.32
541.12	416.62
541.29	374.49
541.46	463.43
541.62	386.19
541.79	393.21
541.96	402.57
542.13	372.15
542.30	381.51
542.47	472.79
542.63	435.34
542.80	461.09
542.97	407.25
543.14	395.55
543.31	428.32
543.48	402.57
543.64	395.55
543.81	465.77
543.98	407.25
544.15	430.66
544.32	372.15
544.48	362.78
544.65	435.34
544.82	458.74
544.99	416.62
545.16	397.89
545.32	362.78
545.49	447.04
545.66	358.10
545.83	430.66
546.00	400.23
546.16	425.98
546.33	470.45
546.50	348.74
546.67	430.66
546.83	507.90
547.00	456.40
547.17	388.53
547.34	362.78
547.50	388.53
547.67	456.40
547.84	386.19
548.00	444.70
548.17	395.55
548.34	479.81
548.51	428.32
548.67	435.34
548.84	397.89
549.01	440.02
549.18	447.04
549.34	379.17
549.51	440.02
549.68	449.38
549.84	430.66
550.01	355.76
550.18	456.40
550.34	489.17
550.51	351.08
550.68	503.22
550.84	372.15
551.01	430.66
551.18	440.02
551.34	353.42
551.51	414.27
551.68	458.74
551.84	435.34
552.01	447.04
552.18	404.91
552.34	475.13
552.51	472.79
552.68	390.87
552.84	437.68
553.01	416.62
553.18	484.49
553.34	423.64
553.51	482.15
553.67	449.38
553.84	465.77
554.01	461.09
554.17	416.62
554.34	409.59
554.51	430.66
554.67	402.57
554.84	402.57
555.00	465.77
555.17	468.11
555.33	472.79
555.50	479.81
555.67	376.83
555.83	400.23
556.00	416.62
556.16	507.90
556.33	444.70
556.50	365.12
556.66	360.44
556.83	383.85
556.99	458.74
557.16	468.11
557.32	393.21
557.49	395.55
557.65	313.63
557.82	437.68
557.98	449.38
558.15	411.93
558.32	428.32
558.48	416.62
558.65	437.68
558.81	463.43
558.98	428.32
559.14	437.68
559.31	355.76
559.47	388.53
559.64	428.32
559.80	418.96
559.97	449.38
560.13	355.76
560.30	407.25
560.46	400.23
560.63	477.47
560.79	376.83
560.96	360.44
561.12	397.89
561.29	461.09
561.45	407.25
561.61	430.66
561.78	430.66
561.94	440.02
562.11	395.55
562.27	315.97
562.44	369.80
562.60	400.23
562.77	407.25
562.93	493.85
563.10	407.25
563.26	414.27
563.42	484.49
563.59	470.45
563.75	425.98
563.92	493.85
564.08	402.57
564.24	367.46
564.41	514.92
564.57	381.51
564.74	451.72
564.90	379.17
565.07	411.93
565.23	442.36
565.39	411.93
565.56	456.40
565.72	393.21
565.88	475.13
566.05	475.13
566.21	482.15
566.38	500.87
566.54	440.02
566.70	379.17
566.87	379.17
567.03	411.93
567.19	421.30
567.36	402.57
567.52	376.83
567.68	400.23
567.85	465.77
568.01	489.17
568.17	451.72
568.34	383.85
568.50	493.85
568.66	404.91
568.83	477.47
568.99	425.98
569.15	428.32
569.32	428.32
569.48	449.38
569.64	348.74
569.81	491.51
569.97	388.53
570.13	407.25
570.30	416.62
570.46	472.79
570.62	393.21
570.78	486.83
570.95	374.49
571.11	414.27
571.27	470.45
571.43	414.27
571.60	397.89
571.76	449.38
571.92	341.72
572.09	379.17
572.25	393.21
572.41	472.79
572.57	451.72
572.74	472.79
572.90	468.11
573.06	411.93
573.22	397.89
573.38	421.30
573.55	458.74
573.71	425.98
573.87	423.64
574.03	418.96
574.20	470.45
574.36	409.59
574.52	437.68
574.68	479.81
574.84	407.25
575.01	379.17
575.17	388.53
575.33	400.23
575.49	404.91
575.65	376.83
575.82	447.04
575.98	416.62
576.14	454.06
576.30	369.80
576.46	402.57
576.62	423.64
576.79	456.40
576.95	365.12
577.11	479.81
577.27	383.85
577.43	461.09
577.59	383.85
577.75	423.64
577.92	430.66
578.08	440.02
578.24	402.57
578.40	435.34
578.56	430.66
578.72	479.81
578.88	383.85
579.04	444.70
579.21	425.98
579.37	468.11
579.53	456.40
579.69	449.38
579.85	454.06
580.01	454.06
580.17	400.23
580.33	425.98
580.49	451.72
580.65	414.27
580.82	416.62
580.98	381.51
581.14	346.40
581.30	491.51
581.46	409.59
581.62	374.49
581.78	449.38
581.94	411.93
582.10	372.15
582.26	421.30
582.42	383.85
582.58	393.21
582.74	433.00
582.90	395.55
583.06	409.59
583.22	386.19
583.38	402.57
583.54	409.59
583.70	395.55
583.86	463.43
584.02	461.09
584.18	372.15
584.34	337.04
584.50	496.19
584.66	365.12
584.82	493.85
584.98	447.04
585.14	395.55
585.30	442.36
585.46	397.89
585.62	409.59
585.78	510.24
585.94	442.36
586.10	442.36
586.26	435.34
586.42	456.40
586.58	454.06
586.74	421.30
586.90	416.62
587.06	411.93
587.22	409.59
587.38	454.06
587.54	435.34
587.70	402.57
587.86	449.38
588.02	425.98
588.18	411.93
588.34	425.98
588.49	383.85
588.65	425.98
588.81	404.91
588.97	421.30
589.13	425.98
589.29	337.04
589.45	402.57
589.61	468.11
589.77	454.06
589.93	355.76
590.08	421.30
590.24	454.06
590.40	500.87
590.56	475.13
590.72	404.91
590.88	433.00
591.04	423.64
591.20	477.47
591.35	463.43
591.51	416.62
591.67	376.83
591.83	435.34
591.99	482.15
592.15	472.79
592.31	440.02
592.46	372.15
592.62	465.77
592.78	402.57
592.94	367.46
593.10	362.78
593.26	463.43
593.41	545.34
593.57	437.68
593.73	379.17
593.89	362.78
594.05	465.77
594.20	454.06
594.36	510.24
594.52	454.06
594.68	491.51
594.84	461.09
594.99	463.43
595.15	414.27
595.31	470.45
595.47	442.36
595.62	430.66
595.78	407.25
595.94	444.70
596.10	456.40
596.25	414.27
596.41	493.85
596.57	400.23
596.73	341.72
596.88	414.27
597.04	372.15
597.20	344.06
597.36	489.17
597.51	428.32
597.67	442.36
597.83	444.70
597.99	430.66
598.14	479.81
598.30	428.32
598.46	484.49
598.61	456.40
598.77	472.79
598.93	447.04
599.09	423.64
599.24	416.62
599.40	393.21
599.56	475.13
599.71	433.00
599.87	414.27
600.03	465.77
600.18	475.13
600.34	416.62
600.50	437.68
600.65	327.68
600.81	400.23
600.97	407.25
601.12	411.93
601.28	461.09
601.44	418.96
601.59	454.06
601.75	376.83
601.91	435.34
602.06	472.79
602.22	456.40
602.37	437.68
602.53	428.32
602.69	393.21
602.84	365.12
603.00	465.77
603.16	416.62
603.31	449.38
603.47	470.45
603.62	437.68
603.78	444.70
603.94	416.62
604.09	395.55
604.25	444.70
604.40	362.78
604.56	341.72
604.71	397.89
604.87	388.53
605.03	418.96
605.18	388.53
605.34	458.74
605.49	461.09
605.65	386.19
605.80	402.57
605.96	430.66
606.12	393.21
606.27	388.53
606.43	498.53
606.58	500.87
606.74	437.68
606.89	435.34
607.05	404.91
607.20	496.19
607.36	395.55
607.51	355.76
607.67	447.04
607.82	369.80
607.98	369.80
608.13	393.21
608.29	437.68
608.44	418.96
608.60	421.30
608.75	454.06
608.91	334.70
609.06	461.09
609.22	367.46
609.37	376.83
609.53	400.23
609.68	425.98
609.84	365.12
609.99	393.21
610.15	383.85
