SpectraSuite Data File
++++++++++++++++++++++++++++++++++++
Date: Fri Oct 25 12:11:32 EDT 2013
User: price-jones
Dark Spectrum Present: No
Reference Spectrum Present: No
Number of Sampled Component Spectra: 1
Spectrometers: USB2+H05261
Integration Time (usec): 100000 (USB2+H05261)
Spectra Averaged: 1 (USB2+H05261)
Boxcar Smoothing: 0 (USB2+H05261)
Correct for Electrical Dark: No (USB2+H05261)
Strobe/Lamp Enabled: No (USB2+H05261)
Correct for Detector Non-linearity: No (USB2+H05261)
Correct for Stray Light: No (USB2+H05261)
Number of Pixels in Processed Spectrum: 2048
>>>>>Begin Processed Spectral Data<<<<<
365.73	348.74
365.92	348.74
366.12	348.74
366.32	227.03
366.52	311.29
366.72	287.89
366.91	241.08
367.11	257.46
367.31	208.31
367.51	212.99
367.70	222.35
367.90	236.39
368.10	201.29
368.30	290.23
368.49	280.86
368.69	269.16
368.89	276.18
369.09	245.76
369.28	238.73
369.48	220.01
369.68	259.80
369.87	285.55
370.07	315.97
370.27	325.33
370.47	330.02
370.66	278.52
370.86	421.30
371.06	400.23
371.25	379.17
371.45	386.19
371.65	421.30
371.84	369.80
372.04	395.55
372.24	423.64
372.44	402.57
372.63	458.74
372.83	458.74
373.03	376.83
373.22	437.68
373.42	400.23
373.62	451.72
373.81	393.21
374.01	400.23
374.21	451.72
374.40	383.85
374.60	388.53
374.79	442.36
374.99	486.83
375.19	425.98
375.38	430.66
375.58	400.23
375.78	470.45
375.97	454.06
376.17	360.44
376.37	372.15
376.56	449.38
376.76	468.11
376.95	418.96
377.15	451.72
377.35	461.09
377.54	552.37
377.74	451.72
377.93	397.89
378.13	395.55
378.33	383.85
378.52	355.76
378.72	425.98
378.91	433.00
379.11	346.40
379.31	414.27
379.50	353.42
379.70	430.66
379.89	451.72
380.09	423.64
380.28	418.96
380.48	414.27
380.68	348.74
380.87	390.87
381.07	395.55
381.26	425.98
381.46	486.83
381.65	505.56
381.85	461.09
382.04	479.81
382.24	344.06
382.43	421.30
382.63	418.96
382.83	456.40
383.02	451.72
383.22	470.45
383.41	374.49
383.61	496.19
383.80	440.02
384.00	402.57
384.19	409.59
384.39	449.38
384.58	386.19
384.78	433.00
384.97	430.66
385.17	381.51
385.36	383.85
385.56	411.93
385.75	423.64
385.95	449.38
386.14	465.77
386.34	440.02
386.53	409.59
386.72	402.57
386.92	402.57
387.11	468.11
387.31	449.38
387.50	458.74
387.70	362.78
387.89	463.43
388.09	416.62
388.28	416.62
388.48	411.93
388.67	435.34
388.86	376.83
389.06	381.51
389.25	360.44
389.45	322.99
389.64	440.02
389.84	521.94
390.03	479.81
390.22	388.53
390.42	376.83
390.61	379.17
390.81	447.04
391.00	395.55
391.19	407.25
391.39	402.57
391.58	430.66
391.78	414.27
391.97	430.66
392.16	372.15
392.36	451.72
392.55	479.81
392.75	416.62
392.94	425.98
393.13	404.91
393.33	418.96
393.52	332.36
393.71	486.83
393.91	428.32
394.10	369.80
394.29	444.70
394.49	393.21
394.68	404.91
394.88	442.36
395.07	433.00
395.26	332.36
395.46	418.96
395.65	367.46
395.84	444.70
396.04	444.70
396.23	433.00
396.42	402.57
396.62	423.64
396.81	390.87
397.00	451.72
397.19	465.77
397.39	454.06
397.58	463.43
397.77	332.36
397.97	458.74
398.16	407.25
398.35	395.55
398.55	404.91
398.74	442.36
398.93	390.87
399.12	414.27
399.32	334.70
399.51	402.57
399.70	489.17
399.90	395.55
400.09	407.25
400.28	440.02
400.47	468.11
400.67	472.79
400.86	428.32
401.05	421.30
401.24	369.80
401.44	365.12
401.63	365.12
401.82	355.76
402.01	386.19
402.21	430.66
402.40	454.06
402.59	409.59
402.78	421.30
402.97	397.89
403.17	472.79
403.36	442.36
403.55	341.72
403.74	397.89
403.93	397.89
404.13	470.45
404.32	442.36
404.51	435.34
404.70	418.96
404.89	390.87
405.09	440.02
405.28	355.76
405.47	360.44
405.66	400.23
405.85	388.53
406.05	400.23
406.24	447.04
406.43	456.40
406.62	351.08
406.81	400.23
407.00	423.64
407.20	456.40
407.39	414.27
407.58	365.12
407.77	421.30
407.96	447.04
408.15	428.32
408.34	407.25
408.54	383.85
408.73	484.49
408.92	362.78
409.11	411.93
409.30	503.22
409.49	411.93
409.68	435.34
409.87	423.64
410.07	414.27
410.26	379.17
410.45	416.62
410.64	442.36
410.83	395.55
411.02	411.93
411.21	404.91
411.40	491.51
411.59	442.36
411.78	351.08
411.98	381.51
412.17	322.99
412.36	362.78
412.55	395.55
412.74	465.77
412.93	463.43
413.12	425.98
413.31	425.98
413.50	425.98
413.69	393.21
413.88	456.40
414.07	397.89
414.26	423.64
414.45	365.12
414.64	402.57
414.83	388.53
415.02	402.57
415.22	397.89
415.41	416.62
415.60	379.17
415.79	404.91
415.98	430.66
416.17	430.66
416.36	358.10
416.55	308.95
416.74	475.13
416.93	479.81
417.12	447.04
417.31	367.46
417.50	421.30
417.69	435.34
417.88	428.32
418.07	332.36
418.26	397.89
418.45	381.51
418.64	449.38
418.83	372.15
419.02	454.06
419.21	390.87
419.39	454.06
419.58	477.47
419.77	390.87
419.96	360.44
420.15	454.06
420.34	407.25
420.53	444.70
420.72	339.38
420.91	418.96
421.10	444.70
421.29	395.55
421.48	381.51
421.67	400.23
421.86	468.11
422.05	388.53
422.24	428.32
422.43	435.34
422.61	433.00
422.80	381.51
422.99	437.68
423.18	386.19
423.37	397.89
423.56	409.59
423.75	362.78
423.94	428.32
424.13	449.38
424.32	425.98
424.50	383.85
424.69	428.32
424.88	468.11
425.07	395.55
425.26	470.45
425.45	407.25
425.64	374.49
425.83	353.42
426.01	416.62
426.20	337.04
426.39	372.15
426.58	393.21
426.77	449.38
426.96	341.72
427.15	332.36
427.33	421.30
427.52	411.93
427.71	456.40
427.90	421.30
428.09	360.44
428.28	376.83
428.46	393.21
428.65	372.15
428.84	362.78
429.03	500.87
429.22	376.83
429.40	397.89
429.59	463.43
429.78	461.09
429.97	379.17
430.16	386.19
430.34	362.78
430.53	444.70
430.72	435.34
430.91	496.19
431.10	395.55
431.28	348.74
431.47	482.15
431.66	421.30
431.85	425.98
432.03	435.34
432.22	479.81
432.41	383.85
432.60	440.02
432.79	383.85
432.97	411.93
433.16	407.25
433.35	390.87
433.54	498.53
433.72	386.19
433.91	437.68
434.10	479.81
434.28	435.34
434.47	423.64
434.66	416.62
434.85	351.08
435.03	442.36
435.22	402.57
435.41	433.00
435.59	440.02
435.78	414.27
435.97	393.21
436.16	397.89
436.34	447.04
436.53	383.85
436.72	433.00
436.90	491.51
437.09	425.98
437.28	411.93
437.46	400.23
437.65	411.93
437.84	484.49
438.02	404.91
438.21	409.59
438.40	404.91
438.58	402.57
438.77	454.06
438.96	484.49
439.14	407.25
439.33	433.00
439.52	433.00
439.70	423.64
439.89	416.62
440.08	407.25
440.26	437.68
440.45	416.62
440.63	402.57
440.82	423.64
441.01	472.79
441.19	465.77
441.38	402.57
441.57	428.32
441.75	428.32
441.94	395.55
442.12	418.96
442.31	395.55
442.50	402.57
442.68	393.21
442.87	358.10
443.05	430.66
443.24	404.91
443.43	397.89
443.61	482.15
443.80	379.17
443.98	397.89
444.17	365.12
444.35	435.34
444.54	374.49
444.73	362.78
444.91	454.06
445.10	437.68
445.28	440.02
445.47	430.66
445.65	447.04
445.84	440.02
446.02	388.53
446.21	491.51
446.39	404.91
446.58	461.09
446.77	418.96
446.95	470.45
447.14	433.00
447.32	418.96
447.51	416.62
447.69	444.70
447.88	353.42
448.06	482.15
448.25	475.13
448.43	433.00
448.62	332.36
448.80	390.87
448.99	454.06
449.17	407.25
449.36	372.15
449.54	404.91
449.73	346.40
449.91	400.23
450.10	386.19
450.28	498.53
450.46	477.47
450.65	433.00
450.83	404.91
451.02	421.30
451.20	444.70
451.39	362.78
451.57	362.78
451.76	365.12
451.94	430.66
452.13	428.32
452.31	447.04
452.49	433.00
452.68	411.93
452.86	512.58
453.05	416.62
453.23	358.10
453.42	383.85
453.60	351.08
453.78	381.51
453.97	433.00
454.15	346.40
454.34	456.40
454.52	390.87
454.70	409.59
454.89	404.91
455.07	414.27
455.26	388.53
455.44	416.62
455.62	442.36
455.81	421.30
455.99	447.04
456.17	355.76
456.36	444.70
456.54	390.87
456.73	416.62
456.91	409.59
457.09	404.91
457.28	440.02
457.46	400.23
457.64	367.46
457.83	451.72
458.01	418.96
458.19	409.59
458.38	463.43
458.56	468.11
458.74	381.51
458.93	411.93
459.11	414.27
459.29	402.57
459.48	442.36
459.66	465.77
459.84	390.87
460.03	428.32
460.21	421.30
460.39	435.34
460.57	381.51
460.76	381.51
460.94	454.06
461.12	414.27
461.31	428.32
461.49	348.74
461.67	416.62
461.85	411.93
462.04	444.70
462.22	828.55
462.40	496.19
462.59	404.91
462.77	372.15
462.95	381.51
463.13	411.93
463.32	456.40
463.50	418.96
463.68	402.57
463.86	344.06
464.05	437.68
464.23	440.02
464.41	475.13
464.59	411.93
464.78	376.83
464.96	395.55
465.14	425.98
465.32	402.57
465.50	447.04
465.69	463.43
465.87	402.57
466.05	416.62
466.23	369.80
466.41	395.55
466.60	418.96
466.78	428.32
466.96	447.04
467.14	369.80
467.32	458.74
467.51	404.91
467.69	386.19
467.87	442.36
468.05	330.02
468.23	421.30
468.41	381.51
468.60	425.98
468.78	430.66
468.96	425.98
469.14	451.72
469.32	334.70
469.50	358.10
469.69	421.30
469.87	395.55
470.05	425.98
470.23	388.53
470.41	379.17
470.59	433.00
470.77	414.27
470.95	414.27
471.14	402.57
471.32	376.83
471.50	409.59
471.68	360.44
471.86	435.34
472.04	437.68
472.22	325.33
472.40	365.12
472.58	355.76
472.77	402.57
472.95	421.30
473.13	458.74
473.31	435.34
473.49	451.72
473.67	355.76
473.85	430.66
474.03	447.04
474.21	386.19
474.39	425.98
474.57	461.09
474.75	482.15
474.93	416.62
475.12	386.19
475.30	404.91
475.48	409.59
475.66	430.66
475.84	425.98
476.02	390.87
476.20	425.98
476.38	428.32
476.56	440.02
476.74	461.09
476.92	428.32
477.10	411.93
477.28	416.62
477.46	433.00
477.64	449.38
477.82	437.68
478.00	454.06
478.18	444.70
478.36	418.96
478.54	393.21
478.72	411.93
478.90	374.49
479.08	418.96
479.26	353.42
479.44	402.57
479.62	414.27
479.80	418.96
479.98	447.04
480.16	437.68
480.34	404.91
480.52	402.57
480.70	484.49
480.88	372.15
481.06	280.86
481.24	423.64
481.41	414.27
481.59	416.62
481.77	430.66
481.95	451.72
482.13	400.23
482.31	463.43
482.49	379.17
482.67	395.55
482.85	395.55
483.03	503.22
483.21	437.68
483.39	388.53
483.57	393.21
483.74	454.06
483.92	416.62
484.10	374.49
484.28	411.93
484.46	425.98
484.64	416.62
484.82	454.06
485.00	351.08
485.18	393.21
485.35	393.21
485.53	423.64
485.71	465.77
485.89	395.55
486.07	449.38
486.25	428.32
486.43	397.89
486.61	430.66
486.78	514.92
486.96	421.30
487.14	433.00
487.32	423.64
487.50	395.55
487.68	482.15
487.85	472.79
488.03	444.70
488.21	475.13
488.39	388.53
488.57	458.74
488.75	407.25
488.92	540.66
489.10	397.89
489.28	428.32
489.46	369.80
489.64	440.02
489.81	409.59
489.99	442.36
490.17	454.06
490.35	442.36
490.53	440.02
490.70	346.40
490.88	360.44
491.06	383.85
491.24	407.25
491.41	404.91
491.59	390.87
491.77	353.42
491.95	423.64
492.13	407.25
492.30	449.38
492.48	360.44
492.66	388.53
492.84	470.45
493.01	358.10
493.19	397.89
493.37	435.34
493.54	416.62
493.72	500.87
493.90	393.21
494.08	379.17
494.25	435.34
494.43	465.77
494.61	414.27
494.79	463.43
494.96	381.51
495.14	449.38
495.32	369.80
495.49	421.30
495.67	449.38
495.85	468.11
496.02	400.23
496.20	409.59
496.38	461.09
496.55	397.89
496.73	407.25
496.91	383.85
497.09	528.96
497.26	397.89
497.44	470.45
497.62	411.93
497.79	395.55
497.97	437.68
498.14	435.34
498.32	461.09
498.50	411.93
498.67	395.55
498.85	407.25
499.03	400.23
499.20	414.27
499.38	437.68
499.56	390.87
499.73	465.77
499.91	360.44
500.08	498.53
500.26	423.64
500.44	477.47
500.61	461.09
500.79	360.44
500.97	456.40
501.14	512.58
501.32	393.21
501.49	449.38
501.67	376.83
501.84	379.17
502.02	425.98
502.20	531.30
502.37	428.32
502.55	430.66
502.72	428.32
502.90	472.79
503.07	355.76
503.25	435.34
503.43	440.02
503.60	369.80
503.78	449.38
503.95	421.30
504.13	390.87
504.30	475.13
504.48	433.00
504.65	414.27
504.83	423.64
505.01	425.98
505.18	444.70
505.36	379.17
505.53	390.87
505.71	449.38
505.88	454.06
506.06	440.02
506.23	465.77
506.41	409.59
506.58	390.87
506.76	374.49
506.93	360.44
507.11	404.91
507.28	400.23
507.46	447.04
507.63	320.65
507.81	386.19
507.98	454.06
508.16	477.47
508.33	390.87
508.50	395.55
508.68	477.47
508.85	454.06
509.03	447.04
509.20	393.21
509.38	416.62
509.55	519.60
509.73	437.68
509.90	486.83
510.08	421.30
510.25	372.15
510.42	463.43
510.60	390.87
510.77	322.99
510.95	393.21
511.12	381.51
511.30	430.66
511.47	379.17
511.64	447.04
511.82	332.36
511.99	414.27
512.17	411.93
512.34	503.22
512.51	479.81
512.69	418.96
512.86	435.34
513.04	440.02
513.21	456.40
513.38	433.00
513.56	498.53
513.73	425.98
513.90	367.46
514.08	423.64
514.25	472.79
514.43	437.68
514.60	390.87
514.77	346.40
514.95	402.57
515.12	440.02
515.29	362.78
515.47	421.30
515.64	351.08
515.81	376.83
515.99	444.70
516.16	521.94
516.33	395.55
516.51	428.32
516.68	383.85
516.85	411.93
517.03	411.93
517.20	379.17
517.37	374.49
517.54	388.53
517.72	395.55
517.89	496.19
518.06	454.06
518.24	465.77
518.41	423.64
518.58	372.15
518.75	447.04
518.93	430.66
519.10	442.36
519.27	430.66
519.45	456.40
519.62	355.76
519.79	440.02
519.96	468.11
520.14	404.91
520.31	369.80
520.48	365.12
520.65	402.57
520.83	400.23
521.00	355.76
521.17	421.30
521.34	440.02
521.52	407.25
521.69	407.25
521.86	430.66
522.03	390.87
522.20	388.53
522.38	461.09
522.55	435.34
522.72	444.70
522.89	393.21
523.07	440.02
523.24	395.55
523.41	386.19
523.58	425.98
523.75	421.30
523.92	411.93
524.10	475.13
524.27	465.77
524.44	407.25
524.61	479.81
524.78	437.68
524.96	454.06
525.13	416.62
525.30	418.96
525.47	390.87
525.64	395.55
525.81	437.68
525.98	465.77
526.16	454.06
526.33	416.62
526.50	433.00
526.67	388.53
526.84	496.19
527.01	330.02
527.18	442.36
527.36	433.00
527.53	358.10
527.70	449.38
527.87	381.51
528.04	402.57
528.21	437.68
528.38	388.53
528.55	418.96
528.72	475.13
528.89	463.43
529.07	451.72
529.24	381.51
529.41	404.91
529.58	451.72
529.75	444.70
529.92	468.11
530.09	491.51
530.26	472.79
530.43	444.70
530.60	425.98
530.77	390.87
530.94	468.11
531.11	444.70
531.28	430.66
531.46	468.11
531.63	465.77
531.80	428.32
531.97	341.72
532.14	425.98
532.31	395.55
532.48	423.64
532.65	465.77
532.82	358.10
532.99	374.49
533.16	346.40
533.33	421.30
533.50	390.87
533.67	402.57
533.84	421.30
534.01	428.32
534.18	397.89
534.35	447.04
534.52	423.64
534.69	425.98
534.86	372.15
535.03	395.55
535.20	355.76
535.37	437.68
535.54	374.49
535.71	411.93
535.88	449.38
536.05	447.04
536.22	414.27
536.38	369.80
536.55	416.62
536.72	381.51
536.89	318.31
537.06	397.89
537.23	461.09
537.40	386.19
537.57	447.04
537.74	479.81
537.91	425.98
538.08	386.19
538.25	442.36
538.42	374.49
538.59	442.36
538.75	407.25
538.92	353.42
539.09	411.93
539.26	423.64
539.43	395.55
539.60	414.27
539.77	348.74
539.94	475.13
540.11	402.57
540.28	451.72
540.44	397.89
540.61	430.66
540.78	358.10
540.95	418.96
541.12	451.72
541.29	367.46
541.46	411.93
541.62	397.89
541.79	437.68
541.96	463.43
542.13	402.57
542.30	409.59
542.47	479.81
542.63	484.49
542.80	484.49
542.97	456.40
543.14	454.06
543.31	421.30
543.48	393.21
543.64	433.00
543.81	433.00
543.98	407.25
544.15	407.25
544.32	414.27
544.48	425.98
544.65	383.85
544.82	390.87
544.99	425.98
545.16	442.36
545.32	358.10
545.49	411.93
545.66	479.81
545.83	376.83
546.00	454.06
546.16	365.12
546.33	402.57
546.50	519.60
546.67	430.66
546.83	479.81
547.00	470.45
547.17	477.47
547.34	463.43
547.50	409.59
547.67	397.89
547.84	440.02
548.00	447.04
548.17	330.02
548.34	358.10
548.51	458.74
548.67	421.30
548.84	379.17
549.01	451.72
549.18	425.98
549.34	472.79
549.51	425.98
549.68	425.98
549.84	454.06
550.01	402.57
550.18	449.38
550.34	524.28
550.51	425.98
550.68	411.93
550.84	290.23
551.01	458.74
551.18	479.81
551.34	414.27
551.51	475.13
551.68	425.98
551.84	437.68
552.01	395.55
552.18	428.32
552.34	444.70
552.51	348.74
552.68	393.21
552.84	402.57
553.01	486.83
553.18	404.91
553.34	425.98
553.51	414.27
553.67	414.27
553.84	437.68
554.01	327.68
554.17	393.21
554.34	376.83
554.51	430.66
554.67	454.06
554.84	428.32
555.00	402.57
555.17	400.23
555.33	421.30
555.50	411.93
555.67	376.83
555.83	358.10
556.00	383.85
556.16	580.45
556.33	496.19
556.50	416.62
556.66	360.44
556.83	344.06
556.99	463.43
557.16	346.40
557.32	390.87
557.49	416.62
557.65	440.02
557.82	449.38
557.98	402.57
558.15	449.38
558.32	444.70
558.48	433.00
558.65	348.74
558.81	425.98
558.98	425.98
559.14	416.62
559.31	456.40
559.47	440.02
559.64	386.19
559.80	486.83
559.97	442.36
560.13	341.72
560.30	447.04
560.46	458.74
560.63	376.83
560.79	463.43
560.96	444.70
561.12	402.57
561.29	416.62
561.45	360.44
561.61	414.27
561.78	470.45
561.94	425.98
562.11	428.32
562.27	341.72
562.44	416.62
562.60	418.96
562.77	376.83
562.93	463.43
563.10	376.83
563.26	444.70
563.42	428.32
563.59	428.32
563.75	461.09
563.92	458.74
564.08	463.43
564.24	512.58
564.41	423.64
564.57	470.45
564.74	456.40
564.90	390.87
565.07	458.74
565.23	444.70
565.39	451.72
565.56	449.38
565.72	322.99
565.88	418.96
566.05	454.06
566.21	437.68
566.38	337.04
566.54	397.89
566.70	390.87
566.87	393.21
567.03	402.57
567.19	414.27
567.36	362.78
567.52	381.51
567.68	388.53
567.85	397.89
568.01	428.32
568.17	414.27
568.34	365.12
568.50	397.89
568.66	348.74
568.83	465.77
568.99	393.21
569.15	458.74
569.32	402.57
569.48	465.77
569.64	440.02
569.81	423.64
569.97	475.13
570.13	451.72
570.30	400.23
570.46	444.70
570.62	451.72
570.78	355.76
570.95	395.55
571.11	449.38
571.27	512.58
571.43	381.51
571.60	444.70
571.76	407.25
571.92	393.21
572.09	444.70
572.25	360.44
572.41	454.06
572.57	337.04
572.74	409.59
572.90	449.38
573.06	430.66
573.22	407.25
573.38	458.74
573.55	409.59
573.71	500.87
573.87	425.98
574.03	507.90
574.20	397.89
574.36	440.02
574.52	397.89
574.68	388.53
574.84	414.27
575.01	463.43
575.17	435.34
575.33	407.25
575.49	376.83
575.65	379.17
575.82	400.23
575.98	355.76
576.14	400.23
576.30	435.34
576.46	433.00
576.62	486.83
576.79	416.62
576.95	472.79
577.11	411.93
577.27	390.87
577.43	468.11
577.59	395.55
577.75	400.23
577.92	395.55
578.08	454.06
578.24	440.02
578.40	463.43
578.56	458.74
578.72	430.66
578.88	433.00
579.04	423.64
579.21	393.21
579.37	418.96
579.53	404.91
579.69	418.96
579.85	423.64
580.01	458.74
580.17	393.21
580.33	372.15
580.49	409.59
580.65	430.66
580.82	402.57
580.98	381.51
581.14	423.64
581.30	423.64
581.46	430.66
581.62	320.65
581.78	374.49
581.94	402.57
582.10	440.02
582.26	400.23
582.42	390.87
582.58	418.96
582.74	463.43
582.90	402.57
583.06	402.57
583.22	430.66
583.38	379.17
583.54	477.47
583.70	477.47
583.86	440.02
584.02	461.09
584.18	461.09
584.34	414.27
584.50	379.17
584.66	397.89
584.82	404.91
584.98	407.25
585.14	381.51
585.30	414.27
585.46	479.81
585.62	414.27
585.78	430.66
585.94	486.83
586.10	447.04
586.26	472.79
586.42	425.98
586.58	395.55
586.74	447.04
586.90	390.87
587.06	383.85
587.22	449.38
587.38	367.46
587.54	388.53
587.70	468.11
587.86	418.96
588.02	416.62
588.18	430.66
588.34	454.06
588.49	430.66
588.65	428.32
588.81	465.77
588.97	369.80
589.13	437.68
589.29	423.64
589.45	416.62
589.61	498.53
589.77	447.04
589.93	454.06
590.08	374.49
590.24	454.06
590.40	346.40
590.56	374.49
590.72	367.46
590.88	440.02
591.04	381.51
591.20	397.89
591.35	418.96
591.51	416.62
591.67	376.83
591.83	416.62
591.99	388.53
592.15	463.43
592.31	449.38
592.46	346.40
592.62	379.17
592.78	379.17
592.94	393.21
593.10	416.62
593.26	404.91
593.41	463.43
593.57	365.12
593.73	416.62
593.89	362.78
594.05	451.72
594.20	421.30
594.36	451.72
594.52	418.96
594.68	423.64
594.84	379.17
594.99	447.04
595.15	433.00
595.31	433.00
595.47	477.47
595.62	402.57
595.78	393.21
595.94	402.57
596.10	409.59
596.25	388.53
596.41	400.23
596.57	416.62
596.73	414.27
596.88	456.40
597.04	470.45
597.20	409.59
597.36	411.93
597.51	344.06
597.67	414.27
597.83	496.19
597.99	435.34
598.14	430.66
598.30	470.45
598.46	475.13
598.61	444.70
598.77	437.68
598.93	428.32
599.09	390.87
599.24	444.70
599.40	486.83
599.56	437.68
599.71	421.30
599.87	355.76
600.03	365.12
600.18	447.04
600.34	437.68
600.50	395.55
600.65	491.51
600.81	489.17
600.97	472.79
601.12	430.66
601.28	442.36
601.44	362.78
601.59	416.62
601.75	409.59
601.91	390.87
602.06	411.93
602.22	463.43
602.37	397.89
602.53	372.15
602.69	358.10
602.84	411.93
603.00	397.89
603.16	486.83
603.31	526.62
603.47	416.62
603.62	409.59
603.78	423.64
603.94	454.06
604.09	425.98
604.25	355.76
604.40	472.79
604.56	416.62
604.71	367.46
604.87	409.59
605.03	447.04
605.18	463.43
605.34	388.53
605.49	423.64
605.65	486.83
605.80	414.27
605.96	444.70
606.12	404.91
606.27	449.38
606.43	374.49
606.58	386.19
606.74	451.72
606.89	414.27
607.05	461.09
607.20	442.36
607.36	449.38
607.51	414.27
607.67	383.85
607.82	409.59
607.98	418.96
608.13	433.00
608.29	414.27
608.44	440.02
608.60	390.87
608.75	479.81
608.91	428.32
609.06	472.79
609.22	442.36
609.37	433.00
609.53	430.66
609.68	411.93
609.84	411.93
609.99	404.91
610.15	456.40
