SpectraSuite Data File
++++++++++++++++++++++++++++++++++++
Date: Fri Oct 25 12:11:32 EDT 2013
User: price-jones
Dark Spectrum Present: No
Reference Spectrum Present: No
Number of Sampled Component Spectra: 1
Spectrometers: USB2+H05261
Integration Time (usec): 100000 (USB2+H05261)
Spectra Averaged: 1 (USB2+H05261)
Boxcar Smoothing: 0 (USB2+H05261)
Correct for Electrical Dark: No (USB2+H05261)
Strobe/Lamp Enabled: No (USB2+H05261)
Correct for Detector Non-linearity: No (USB2+H05261)
Correct for Stray Light: No (USB2+H05261)
Number of Pixels in Processed Spectrum: 2048
>>>>>Begin Processed Spectral Data<<<<<
365.73	369.80
365.92	369.80
366.12	369.80
366.32	285.55
366.52	238.73
366.72	264.48
366.91	229.37
367.11	224.69
367.31	234.05
367.51	203.63
367.70	201.29
367.90	220.01
368.10	212.99
368.30	273.84
368.49	243.42
368.69	269.16
368.89	243.42
369.09	205.97
369.28	201.29
369.48	250.44
369.68	262.14
369.87	318.31
370.07	304.27
370.27	369.80
370.47	311.29
370.66	304.27
370.86	381.51
371.06	421.30
371.25	393.21
371.45	383.85
371.65	416.62
371.84	365.12
372.04	365.12
372.24	428.32
372.44	362.78
372.63	486.83
372.83	468.11
373.03	451.72
373.22	430.66
373.42	407.25
373.62	416.62
373.81	388.53
374.01	425.98
374.21	477.47
374.40	454.06
374.60	397.89
374.79	308.95
374.99	449.38
375.19	423.64
375.38	358.10
375.58	465.77
375.78	479.81
375.97	393.21
376.17	428.32
376.37	383.85
376.56	372.15
376.76	400.23
376.95	381.51
377.15	400.23
377.35	451.72
377.54	458.74
377.74	388.53
377.93	411.93
378.13	353.42
378.33	390.87
378.52	442.36
378.72	393.21
378.91	433.00
379.11	395.55
379.31	362.78
379.50	381.51
379.70	451.72
379.89	388.53
380.09	355.76
380.28	386.19
380.48	337.04
380.68	344.06
380.87	407.25
381.07	381.51
381.26	339.38
381.46	447.04
381.65	421.30
381.85	409.59
382.04	505.56
382.24	330.02
382.43	330.02
382.63	351.08
382.83	404.91
383.02	482.15
383.22	435.34
383.41	400.23
383.61	428.32
383.80	440.02
384.00	433.00
384.19	425.98
384.39	428.32
384.58	362.78
384.78	433.00
384.97	404.91
385.17	430.66
385.36	400.23
385.56	475.13
385.75	393.21
385.95	388.53
386.14	461.09
386.34	489.17
386.53	390.87
386.72	404.91
386.92	458.74
387.11	423.64
387.31	355.76
387.50	409.59
387.70	421.30
387.89	376.83
388.09	411.93
388.28	430.66
388.48	381.51
388.67	379.17
388.86	372.15
389.06	339.38
389.25	365.12
389.45	358.10
389.64	407.25
389.84	414.27
390.03	381.51
390.22	414.27
390.42	376.83
390.61	416.62
390.81	433.00
391.00	400.23
391.19	451.72
391.39	416.62
391.58	423.64
391.78	421.30
391.97	454.06
392.16	376.83
392.36	442.36
392.55	496.19
392.75	393.21
392.94	414.27
393.13	416.62
393.33	325.33
393.52	395.55
393.71	393.21
393.91	414.27
394.10	278.52
394.29	379.17
394.49	428.32
394.68	374.49
394.88	404.91
395.07	454.06
395.26	437.68
395.46	374.49
395.65	458.74
395.84	341.72
396.04	454.06
396.23	346.40
396.42	433.00
396.62	402.57
396.81	418.96
397.00	407.25
397.19	369.80
397.39	386.19
397.58	435.34
397.77	409.59
397.97	449.38
398.16	451.72
398.35	449.38
398.55	411.93
398.74	402.57
398.93	428.32
399.12	411.93
399.32	423.64
399.51	388.53
399.70	430.66
399.90	437.68
400.09	458.74
400.28	423.64
400.47	369.80
400.67	390.87
400.86	409.59
401.05	425.98
401.24	353.42
401.44	386.19
401.63	428.32
401.82	428.32
402.01	400.23
402.21	430.66
402.40	395.55
402.59	397.89
402.78	341.72
402.97	416.62
403.17	369.80
403.36	451.72
403.55	411.93
403.74	353.42
403.93	470.45
404.13	404.91
404.32	421.30
404.51	414.27
404.70	418.96
404.89	407.25
405.09	449.38
405.28	372.15
405.47	390.87
405.66	386.19
405.85	447.04
406.05	379.17
406.24	442.36
406.43	400.23
406.62	414.27
406.81	423.64
407.00	414.27
407.20	428.32
407.39	435.34
407.58	463.43
407.77	451.72
407.96	430.66
408.15	463.43
408.34	423.64
408.54	489.17
408.73	400.23
408.92	400.23
409.11	454.06
409.30	456.40
409.49	454.06
409.68	393.21
409.87	433.00
410.07	388.53
410.26	353.42
410.45	388.53
410.64	351.08
410.83	301.93
411.02	367.46
411.21	400.23
411.40	421.30
411.59	362.78
411.78	360.44
411.98	397.89
412.17	440.02
412.36	393.21
412.55	376.83
412.74	404.91
412.93	484.49
413.12	411.93
413.31	454.06
413.50	449.38
413.69	458.74
413.88	383.85
414.07	390.87
414.26	411.93
414.45	388.53
414.64	360.44
414.83	428.32
415.02	440.02
415.22	414.27
415.41	369.80
415.60	374.49
415.79	447.04
415.98	383.85
416.17	351.08
416.36	454.06
416.55	425.98
416.74	449.38
416.93	486.83
417.12	451.72
417.31	482.15
417.50	444.70
417.69	411.93
417.88	472.79
418.07	379.17
418.26	397.89
418.45	374.49
418.64	444.70
418.83	367.46
419.02	465.77
419.21	472.79
419.39	421.30
419.58	442.36
419.77	358.10
419.96	376.83
420.15	376.83
420.34	367.46
420.53	463.43
420.72	421.30
420.91	360.44
421.10	407.25
421.29	409.59
421.48	442.36
421.67	388.53
421.86	367.46
422.05	486.83
422.24	390.87
422.43	360.44
422.61	367.46
422.80	374.49
422.99	435.34
423.18	383.85
423.37	444.70
423.56	472.79
423.75	397.89
423.94	358.10
424.13	465.77
424.32	430.66
424.50	444.70
424.69	397.89
424.88	475.13
425.07	393.21
425.26	454.06
425.45	451.72
425.64	390.87
425.83	409.59
426.01	486.83
426.20	437.68
426.39	428.32
426.58	395.55
426.77	400.23
426.96	388.53
427.15	411.93
427.33	486.83
427.52	376.83
427.71	437.68
427.90	409.59
428.09	393.21
428.28	360.44
428.46	397.89
428.65	379.17
428.84	393.21
429.03	400.23
429.22	475.13
429.40	512.58
429.59	407.25
429.78	440.02
429.97	376.83
430.16	416.62
430.34	367.46
430.53	428.32
430.72	320.65
430.91	383.85
431.10	365.12
431.28	430.66
431.47	407.25
431.66	430.66
431.85	346.40
432.03	369.80
432.22	479.81
432.41	411.93
432.60	393.21
432.79	372.15
432.97	353.42
433.16	369.80
433.35	411.93
433.54	411.93
433.72	358.10
433.91	362.78
434.10	404.91
434.28	458.74
434.47	379.17
434.66	404.91
434.85	386.19
435.03	416.62
435.22	416.62
435.41	425.98
435.59	397.89
435.78	430.66
435.97	381.51
436.16	409.59
436.34	369.80
436.53	458.74
436.72	421.30
436.90	397.89
437.09	416.62
437.28	365.12
437.46	442.36
437.65	414.27
437.84	440.02
438.02	433.00
438.21	418.96
438.40	388.53
438.58	465.77
438.77	442.36
438.96	489.17
439.14	376.83
439.33	430.66
439.52	395.55
439.70	468.11
439.89	454.06
440.08	395.55
440.26	430.66
440.45	369.80
440.63	418.96
440.82	423.64
441.01	437.68
441.19	503.22
441.38	465.77
441.57	402.57
441.75	472.79
441.94	360.44
442.12	383.85
442.31	447.04
442.50	369.80
442.68	411.93
442.87	433.00
443.05	451.72
443.24	383.85
443.43	430.66
443.61	489.17
443.80	489.17
443.98	468.11
444.17	428.32
444.35	456.40
444.54	407.25
444.73	393.21
444.91	433.00
445.10	449.38
445.28	423.64
445.47	468.11
445.65	365.12
445.84	365.12
446.02	423.64
446.21	418.96
446.39	386.19
446.58	472.79
446.77	428.32
446.95	416.62
447.14	423.64
447.32	414.27
447.51	423.64
447.69	418.96
447.88	428.32
448.06	465.77
448.25	458.74
448.43	433.00
448.62	414.27
448.80	369.80
448.99	428.32
449.17	355.76
449.36	376.83
449.54	411.93
449.73	397.89
449.91	411.93
450.10	339.38
450.28	428.32
450.46	472.79
450.65	348.74
450.83	468.11
451.02	393.21
451.20	425.98
451.39	395.55
451.57	409.59
451.76	404.91
451.94	411.93
452.13	456.40
452.31	440.02
452.49	423.64
452.68	475.13
452.86	404.91
453.05	355.76
453.23	449.38
453.42	367.46
453.60	421.30
453.78	379.17
453.97	477.47
454.15	433.00
454.34	383.85
454.52	407.25
454.70	458.74
454.89	437.68
455.07	449.38
455.26	447.04
455.44	379.17
455.62	423.64
455.81	433.00
455.99	409.59
456.17	416.62
456.36	409.59
456.54	400.23
456.73	428.32
456.91	407.25
457.09	449.38
457.28	484.49
457.46	386.19
457.64	437.68
457.83	402.57
458.01	358.10
458.19	409.59
458.38	376.83
458.56	479.81
458.74	425.98
458.93	430.66
459.11	465.77
459.29	454.06
459.48	449.38
459.66	416.62
459.84	454.06
460.03	503.22
460.21	409.59
460.39	411.93
460.57	437.68
460.76	411.93
460.94	421.30
461.12	472.79
461.31	465.77
461.49	437.68
461.67	442.36
461.85	400.23
462.04	425.98
462.22	702.16
462.40	472.79
462.59	465.77
462.77	489.17
462.95	442.36
463.13	337.04
463.32	433.00
463.50	393.21
463.68	456.40
463.86	451.72
464.05	379.17
464.23	400.23
464.41	423.64
464.59	341.72
464.78	372.15
464.96	440.02
465.14	425.98
465.32	451.72
465.50	428.32
465.69	458.74
465.87	407.25
466.05	454.06
466.23	411.93
466.41	442.36
466.60	456.40
466.78	367.46
466.96	372.15
467.14	437.68
467.32	458.74
467.51	482.15
467.69	470.45
467.87	451.72
468.05	423.64
468.23	482.15
468.41	407.25
468.60	428.32
468.78	379.17
468.96	395.55
469.14	447.04
469.32	442.36
469.50	390.87
469.69	472.79
469.87	482.15
470.05	423.64
470.23	355.76
470.41	440.02
470.59	372.15
470.77	407.25
470.95	414.27
471.14	383.85
471.32	421.30
471.50	475.13
471.68	423.64
471.86	383.85
472.04	468.11
472.22	372.15
472.40	435.34
472.58	376.83
472.77	383.85
472.95	428.32
473.13	507.90
473.31	444.70
473.49	390.87
473.67	454.06
473.85	393.21
474.03	416.62
474.21	437.68
474.39	447.04
474.57	386.19
474.75	444.70
474.93	414.27
475.12	416.62
475.30	423.64
475.48	461.09
475.66	449.38
475.84	468.11
476.02	383.85
476.20	414.27
476.38	386.19
476.56	365.12
476.74	404.91
476.92	379.17
477.10	421.30
477.28	430.66
477.46	411.93
477.64	409.59
477.82	428.32
478.00	435.34
478.18	435.34
478.36	440.02
478.54	379.17
478.72	409.59
478.90	425.98
479.08	395.55
479.26	397.89
479.44	362.78
479.62	351.08
479.80	400.23
479.98	437.68
480.16	400.23
480.34	402.57
480.52	437.68
480.70	390.87
480.88	451.72
481.06	409.59
481.24	425.98
481.41	360.44
481.59	425.98
481.77	390.87
481.95	372.15
482.13	421.30
482.31	381.51
482.49	435.34
482.67	493.85
482.85	500.87
483.03	386.19
483.21	407.25
483.39	475.13
483.57	425.98
483.74	461.09
483.92	423.64
484.10	416.62
484.28	388.53
484.46	482.15
484.64	437.68
484.82	407.25
485.00	433.00
485.18	386.19
485.35	404.91
485.53	381.51
485.71	472.79
485.89	418.96
486.07	397.89
486.25	479.81
486.43	334.70
486.61	383.85
486.78	433.00
486.96	435.34
487.14	447.04
487.32	433.00
487.50	353.42
487.68	402.57
487.85	372.15
488.03	400.23
488.21	360.44
488.39	386.19
488.57	430.66
488.75	416.62
488.92	519.60
489.10	414.27
489.28	381.51
489.46	433.00
489.64	416.62
489.81	404.91
489.99	381.51
490.17	433.00
490.35	442.36
490.53	458.74
490.70	367.46
490.88	437.68
491.06	421.30
491.24	533.64
491.41	421.30
491.59	409.59
491.77	360.44
491.95	376.83
492.13	449.38
492.30	395.55
492.48	374.49
492.66	430.66
492.84	376.83
493.01	397.89
493.19	365.12
493.37	458.74
493.54	418.96
493.72	414.27
493.90	313.63
494.08	409.59
494.25	442.36
494.43	472.79
494.61	409.59
494.79	418.96
494.96	374.49
495.14	465.77
495.32	407.25
495.49	381.51
495.67	407.25
495.85	421.30
496.02	484.49
496.20	454.06
496.38	337.04
496.55	440.02
496.73	404.91
496.91	388.53
497.09	362.78
497.26	411.93
497.44	402.57
497.62	475.13
497.79	306.61
497.97	454.06
498.14	407.25
498.32	484.49
498.50	383.85
498.67	444.70
498.85	393.21
499.03	381.51
499.20	423.64
499.38	463.43
499.56	435.34
499.73	423.64
499.91	416.62
500.08	430.66
500.26	479.81
500.44	430.66
500.61	468.11
500.79	365.12
500.97	407.25
501.14	400.23
501.32	404.91
501.49	358.10
501.67	433.00
501.84	458.74
502.02	465.77
502.20	428.32
502.37	362.78
502.55	393.21
502.72	407.25
502.90	430.66
503.07	423.64
503.25	437.68
503.43	433.00
503.60	395.55
503.78	379.17
503.95	444.70
504.13	458.74
504.30	451.72
504.48	346.40
504.65	500.87
504.83	418.96
505.01	322.99
505.18	489.17
505.36	425.98
505.53	400.23
505.71	362.78
505.88	463.43
506.06	402.57
506.23	421.30
506.41	411.93
506.58	376.83
506.76	418.96
506.93	423.64
507.11	458.74
507.28	444.70
507.46	440.02
507.63	390.87
507.81	418.96
507.98	425.98
508.16	407.25
508.33	428.32
508.50	409.59
508.68	383.85
508.85	322.99
509.03	418.96
509.20	390.87
509.38	416.62
509.55	440.02
509.73	484.49
509.90	414.27
510.08	411.93
510.25	416.62
510.42	402.57
510.60	383.85
510.77	421.30
510.95	407.25
511.12	372.15
511.30	393.21
511.47	486.83
511.64	519.60
511.82	390.87
511.99	369.80
512.17	437.68
512.34	332.36
512.51	390.87
512.69	411.93
512.86	447.04
513.04	395.55
513.21	397.89
513.38	393.21
513.56	421.30
513.73	400.23
513.90	444.70
514.08	397.89
514.25	400.23
514.43	407.25
514.60	442.36
514.77	402.57
514.95	393.21
515.12	318.31
515.29	388.53
515.47	449.38
515.64	395.55
515.81	388.53
515.99	397.89
516.16	433.00
516.33	416.62
516.51	463.43
516.68	381.51
516.85	400.23
517.03	360.44
517.20	414.27
517.37	468.11
517.54	418.96
517.72	414.27
517.89	449.38
518.06	461.09
518.24	421.30
518.41	442.36
518.58	454.06
518.75	372.15
518.93	423.64
519.10	442.36
519.27	390.87
519.45	454.06
519.62	390.87
519.79	493.85
519.96	365.12
520.14	451.72
520.31	454.06
520.48	407.25
520.65	397.89
520.83	425.98
521.00	351.08
521.17	435.34
521.34	353.42
521.52	435.34
521.69	486.83
521.86	428.32
522.03	362.78
522.20	496.19
522.38	381.51
522.55	414.27
522.72	444.70
522.89	482.15
523.07	458.74
523.24	395.55
523.41	383.85
523.58	430.66
523.75	379.17
523.92	383.85
524.10	435.34
524.27	339.38
524.44	435.34
524.61	444.70
524.78	402.57
524.96	477.47
525.13	393.21
525.30	437.68
525.47	458.74
525.64	418.96
525.81	407.25
525.98	428.32
526.16	463.43
526.33	353.42
526.50	358.10
526.67	428.32
526.84	491.51
527.01	383.85
527.18	472.79
527.36	416.62
527.53	454.06
527.70	409.59
527.87	383.85
528.04	407.25
528.21	425.98
528.38	437.68
528.55	456.40
528.72	491.51
528.89	416.62
529.07	374.49
529.24	437.68
529.41	397.89
529.58	411.93
529.75	421.30
529.92	425.98
530.09	435.34
530.26	395.55
530.43	383.85
530.60	360.44
530.77	381.51
530.94	428.32
531.11	425.98
531.28	463.43
531.46	440.02
531.63	437.68
531.80	402.57
531.97	428.32
532.14	472.79
532.31	461.09
532.48	365.12
532.65	449.38
532.82	451.72
532.99	428.32
533.16	379.17
533.33	458.74
533.50	428.32
533.67	423.64
533.84	381.51
534.01	421.30
534.18	393.21
534.35	372.15
534.52	402.57
534.69	369.80
534.86	393.21
535.03	388.53
535.20	454.06
535.37	367.46
535.54	365.12
535.71	411.93
535.88	407.25
536.05	489.17
536.22	486.83
536.38	416.62
536.55	381.51
536.72	475.13
536.89	376.83
537.06	435.34
537.23	393.21
537.40	463.43
537.57	409.59
537.74	463.43
537.91	430.66
538.08	421.30
538.25	435.34
538.42	486.83
538.59	414.27
538.75	362.78
538.92	400.23
539.09	390.87
539.26	379.17
539.43	433.00
539.60	365.12
539.77	383.85
539.94	393.21
540.11	414.27
540.28	489.17
540.44	465.77
540.61	416.62
540.78	454.06
540.95	388.53
541.12	482.15
541.29	355.76
541.46	447.04
541.62	428.32
541.79	489.17
541.96	435.34
542.13	395.55
542.30	372.15
542.47	479.81
542.63	372.15
542.80	325.33
542.97	451.72
543.14	372.15
543.31	442.36
543.48	437.68
543.64	383.85
543.81	383.85
543.98	393.21
544.15	390.87
544.32	449.38
544.48	482.15
544.65	430.66
544.82	404.91
544.99	383.85
545.16	475.13
545.32	383.85
545.49	428.32
545.66	444.70
545.83	369.80
546.00	418.96
546.16	355.76
546.33	407.25
546.50	458.74
546.67	496.19
546.83	423.64
547.00	409.59
547.17	447.04
547.34	404.91
547.50	386.19
547.67	376.83
547.84	451.72
548.00	407.25
548.17	390.87
548.34	393.21
548.51	447.04
548.67	437.68
548.84	414.27
549.01	465.77
549.18	400.23
549.34	433.00
549.51	447.04
549.68	421.30
549.84	409.59
550.01	388.53
550.18	489.17
550.34	454.06
550.51	454.06
550.68	449.38
550.84	407.25
551.01	416.62
551.18	465.77
551.34	409.59
551.51	404.91
551.68	442.36
551.84	388.53
552.01	440.02
552.18	451.72
552.34	409.59
552.51	386.19
552.68	400.23
552.84	337.04
553.01	437.68
553.18	367.46
553.34	447.04
553.51	365.12
553.67	510.24
553.84	477.47
554.01	425.98
554.17	409.59
554.34	468.11
554.51	475.13
554.67	425.98
554.84	353.42
555.00	465.77
555.17	390.87
555.33	503.22
555.50	454.06
555.67	409.59
555.83	418.96
556.00	433.00
556.16	489.17
556.33	512.58
556.50	400.23
556.66	407.25
556.83	428.32
556.99	423.64
557.16	388.53
557.32	362.78
557.49	395.55
557.65	360.44
557.82	421.30
557.98	470.45
558.15	411.93
558.32	468.11
558.48	421.30
558.65	454.06
558.81	435.34
558.98	395.55
559.14	517.26
559.31	479.81
559.47	383.85
559.64	397.89
559.80	400.23
559.97	482.15
560.13	376.83
560.30	362.78
560.46	430.66
560.63	379.17
560.79	376.83
560.96	498.53
561.12	409.59
561.29	433.00
561.45	383.85
561.61	369.80
561.78	475.13
561.94	383.85
562.11	365.12
562.27	517.26
562.44	475.13
562.60	376.83
562.77	463.43
562.93	430.66
563.10	507.90
563.26	414.27
563.42	449.38
563.59	437.68
563.75	444.70
563.92	435.34
564.08	442.36
564.24	493.85
564.41	437.68
564.57	411.93
564.74	423.64
564.90	402.57
565.07	472.79
565.23	383.85
565.39	414.27
565.56	416.62
565.72	418.96
565.88	468.11
566.05	320.65
566.21	397.89
566.38	433.00
566.54	411.93
566.70	411.93
566.87	397.89
567.03	411.93
567.19	388.53
567.36	395.55
567.52	430.66
567.68	475.13
567.85	465.77
568.01	449.38
568.17	416.62
568.34	402.57
568.50	400.23
568.66	400.23
568.83	468.11
568.99	402.57
569.15	447.04
569.32	435.34
569.48	491.51
569.64	381.51
569.81	451.72
569.97	447.04
570.13	374.49
570.30	425.98
570.46	400.23
570.62	454.06
570.78	411.93
570.95	360.44
571.11	463.43
571.27	440.02
571.43	538.32
571.60	454.06
571.76	416.62
571.92	404.91
572.09	390.87
572.25	491.51
572.41	484.49
572.57	428.32
572.74	496.19
572.90	477.47
573.06	447.04
573.22	400.23
573.38	458.74
573.55	437.68
573.71	400.23
573.87	456.40
574.03	440.02
574.20	379.17
574.36	470.45
574.52	461.09
574.68	407.25
574.84	374.49
575.01	418.96
575.17	411.93
575.33	444.70
575.49	416.62
575.65	407.25
575.82	489.17
575.98	425.98
576.14	414.27
576.30	402.57
576.46	409.59
576.62	411.93
576.79	369.80
576.95	416.62
577.11	440.02
577.27	390.87
577.43	489.17
577.59	437.68
577.75	447.04
577.92	397.89
578.08	379.17
578.24	444.70
578.40	360.44
578.56	486.83
578.72	442.36
578.88	437.68
579.04	465.77
579.21	395.55
579.37	442.36
579.53	379.17
579.69	447.04
579.85	388.53
580.01	409.59
580.17	470.45
580.33	404.91
580.49	463.43
580.65	430.66
580.82	376.83
580.98	379.17
581.14	402.57
581.30	451.72
581.46	430.66
581.62	440.02
581.78	369.80
581.94	353.42
582.10	372.15
582.26	454.06
582.42	397.89
582.58	346.40
582.74	461.09
582.90	397.89
583.06	493.85
583.22	367.46
583.38	344.06
583.54	341.72
583.70	430.66
583.86	386.19
584.02	393.21
584.18	430.66
584.34	423.64
584.50	428.32
584.66	383.85
584.82	358.10
584.98	409.59
585.14	355.76
585.30	393.21
585.46	435.34
585.62	393.21
585.78	379.17
585.94	409.59
586.10	409.59
586.26	388.53
586.42	423.64
586.58	421.30
586.74	421.30
586.90	440.02
587.06	456.40
587.22	444.70
587.38	454.06
587.54	414.27
587.70	458.74
587.86	456.40
588.02	346.40
588.18	407.25
588.34	362.78
588.49	402.57
588.65	418.96
588.81	395.55
588.97	374.49
589.13	400.23
589.29	416.62
589.45	397.89
589.61	428.32
589.77	475.13
589.93	442.36
590.08	425.98
590.24	348.74
590.40	402.57
590.56	400.23
590.72	379.17
590.88	379.17
591.04	447.04
591.20	442.36
591.35	374.49
591.51	402.57
591.67	381.51
591.83	447.04
591.99	433.00
592.15	372.15
592.31	421.30
592.46	381.51
592.62	463.43
592.78	463.43
592.94	383.85
593.10	341.72
593.26	416.62
593.41	428.32
593.57	514.92
593.73	379.17
593.89	404.91
594.05	404.91
594.20	360.44
594.36	437.68
594.52	381.51
594.68	461.09
594.84	346.40
594.99	440.02
595.15	458.74
595.31	433.00
595.47	402.57
595.62	402.57
595.78	425.98
595.94	437.68
596.10	468.11
596.25	465.77
596.41	482.15
596.57	388.53
596.73	365.12
596.88	395.55
597.04	414.27
597.20	423.64
597.36	468.11
597.51	355.76
597.67	400.23
597.83	346.40
597.99	447.04
598.14	435.34
598.30	512.58
598.46	402.57
598.61	470.45
598.77	428.32
598.93	402.57
599.09	334.70
599.24	447.04
599.40	484.49
599.56	372.15
599.71	294.91
599.87	465.77
600.03	465.77
600.18	397.89
600.34	449.38
600.50	512.58
600.65	360.44
600.81	407.25
600.97	400.23
601.12	386.19
601.28	477.47
601.44	374.49
601.59	414.27
601.75	409.59
601.91	479.81
602.06	456.40
602.22	442.36
602.37	407.25
602.53	437.68
602.69	411.93
602.84	348.74
603.00	418.96
603.16	428.32
603.31	383.85
603.47	414.27
603.62	425.98
603.78	454.06
603.94	444.70
604.09	482.15
604.25	528.96
604.40	454.06
604.56	433.00
604.71	402.57
604.87	479.81
605.03	440.02
605.18	437.68
605.34	416.62
605.49	428.32
605.65	372.15
605.80	386.19
605.96	402.57
606.12	468.11
606.27	475.13
606.43	418.96
606.58	468.11
606.74	433.00
606.89	444.70
607.05	428.32
607.20	428.32
607.36	458.74
607.51	402.57
607.67	414.27
607.82	346.40
607.98	449.38
608.13	449.38
608.29	397.89
608.44	470.45
608.60	440.02
608.75	477.47
608.91	461.09
609.06	451.72
609.22	407.25
609.37	461.09
609.53	479.81
609.68	397.89
609.84	376.83
609.99	421.30
610.15	465.77
