SpectraSuite Data File
++++++++++++++++++++++++++++++++++++
Date: Fri Oct 25 12:11:24 EDT 2013
User: price-jones
Dark Spectrum Present: No
Reference Spectrum Present: No
Number of Sampled Component Spectra: 1
Spectrometers: USB2+H05261
Integration Time (usec): 100000 (USB2+H05261)
Spectra Averaged: 1 (USB2+H05261)
Boxcar Smoothing: 0 (USB2+H05261)
Correct for Electrical Dark: No (USB2+H05261)
Strobe/Lamp Enabled: No (USB2+H05261)
Correct for Detector Non-linearity: No (USB2+H05261)
Correct for Stray Light: No (USB2+H05261)
Number of Pixels in Processed Spectrum: 2048
>>>>>Begin Processed Spectral Data<<<<<
365.73	423.64
365.92	423.64
366.12	423.64
366.32	234.05
366.52	236.39
366.72	337.04
366.91	252.78
367.11	198.95
367.31	248.10
367.51	264.48
367.70	294.91
367.90	269.16
368.10	191.92
368.30	337.04
368.49	320.65
368.69	315.97
368.89	250.44
369.09	245.76
369.28	248.10
369.48	337.04
369.68	255.12
369.87	320.65
370.07	208.31
370.27	365.12
370.47	330.02
370.66	332.36
370.86	397.89
371.06	395.55
371.25	383.85
371.45	381.51
371.65	416.62
371.84	376.83
372.04	337.04
372.24	362.78
372.44	407.25
372.63	395.55
372.83	428.32
373.03	449.38
373.22	418.96
373.42	425.98
373.62	482.15
373.81	414.27
374.01	395.55
374.21	451.72
374.40	465.77
374.60	444.70
374.79	430.66
374.99	374.49
375.19	444.70
375.38	444.70
375.58	456.40
375.78	489.17
375.97	400.23
376.17	447.04
376.37	454.06
376.56	402.57
376.76	348.74
376.95	379.17
377.15	479.81
377.35	372.15
377.54	437.68
377.74	407.25
377.93	407.25
378.13	425.98
378.33	503.22
378.52	475.13
378.72	381.51
378.91	425.98
379.11	355.76
379.31	376.83
379.50	367.46
379.70	407.25
379.89	454.06
380.09	409.59
380.28	416.62
380.48	402.57
380.68	465.77
380.87	416.62
381.07	454.06
381.26	400.23
381.46	369.80
381.65	315.97
381.85	379.17
382.04	383.85
382.24	418.96
382.43	451.72
382.63	421.30
382.83	351.08
383.02	470.45
383.22	482.15
383.41	362.78
383.61	428.32
383.80	414.27
384.00	334.70
384.19	344.06
384.39	395.55
384.58	365.12
384.78	400.23
384.97	430.66
385.17	416.62
385.36	386.19
385.56	355.76
385.75	407.25
385.95	355.76
386.14	454.06
386.34	365.12
386.53	418.96
386.72	449.38
386.92	435.34
387.11	472.79
387.31	395.55
387.50	400.23
387.70	381.51
387.89	423.64
388.09	402.57
388.28	409.59
388.48	379.17
388.67	409.59
388.86	362.78
389.06	454.06
389.25	416.62
389.45	393.21
389.64	421.30
389.84	411.93
390.03	414.27
390.22	344.06
390.42	393.21
390.61	311.29
390.81	334.70
391.00	351.08
391.19	454.06
391.39	393.21
391.58	334.70
391.78	461.09
391.97	433.00
392.16	404.91
392.36	386.19
392.55	442.36
392.75	351.08
392.94	447.04
393.13	456.40
393.33	351.08
393.52	407.25
393.71	470.45
393.91	393.21
394.10	468.11
394.29	383.85
394.49	383.85
394.68	388.53
394.88	430.66
395.07	362.78
395.26	407.25
395.46	393.21
395.65	430.66
395.84	407.25
396.04	447.04
396.23	402.57
396.42	381.51
396.62	332.36
396.81	388.53
397.00	421.30
397.19	390.87
397.39	409.59
397.58	393.21
397.77	428.32
397.97	379.17
398.16	430.66
398.35	444.70
398.55	358.10
398.74	334.70
398.93	409.59
399.12	386.19
399.32	402.57
399.51	444.70
399.70	484.49
399.90	411.93
400.09	430.66
400.28	360.44
400.47	372.15
400.67	440.02
400.86	402.57
401.05	414.27
401.24	397.89
401.44	407.25
401.63	404.91
401.82	367.46
402.01	421.30
402.21	421.30
402.40	369.80
402.59	442.36
402.78	379.17
402.97	435.34
403.17	451.72
403.36	437.68
403.55	433.00
403.74	320.65
403.93	433.00
404.13	461.09
404.32	320.65
404.51	411.93
404.70	393.21
404.89	379.17
405.09	440.02
405.28	395.55
405.47	416.62
405.66	390.87
405.85	418.96
406.05	428.32
406.24	454.06
406.43	353.42
406.62	425.98
406.81	451.72
407.00	388.53
407.20	313.63
407.39	372.15
407.58	376.83
407.77	430.66
407.96	451.72
408.15	400.23
408.34	322.99
408.54	409.59
408.73	423.64
408.92	402.57
409.11	451.72
409.30	433.00
409.49	388.53
409.68	409.59
409.87	400.23
410.07	463.43
410.26	411.93
410.45	486.83
410.64	400.23
410.83	409.59
411.02	383.85
411.21	388.53
411.40	393.21
411.59	376.83
411.78	451.72
411.98	365.12
412.17	421.30
412.36	442.36
412.55	383.85
412.74	440.02
412.93	397.89
413.12	409.59
413.31	404.91
413.50	337.04
413.69	348.74
413.88	411.93
414.07	414.27
414.26	402.57
414.45	397.89
414.64	388.53
414.83	400.23
415.02	395.55
415.22	465.77
415.41	435.34
415.60	440.02
415.79	442.36
415.98	437.68
416.17	498.53
416.36	465.77
416.55	407.25
416.74	454.06
416.93	449.38
417.12	390.87
417.31	386.19
417.50	449.38
417.69	491.51
417.88	463.43
418.07	374.49
418.26	404.91
418.45	381.51
418.64	435.34
418.83	425.98
419.02	379.17
419.21	416.62
419.39	400.23
419.58	360.44
419.77	407.25
419.96	430.66
420.15	409.59
420.34	449.38
420.53	482.15
420.72	447.04
420.91	414.27
421.10	454.06
421.29	437.68
421.48	397.89
421.67	397.89
421.86	440.02
422.05	383.85
422.24	498.53
422.43	442.36
422.61	444.70
422.80	402.57
422.99	365.12
423.18	388.53
423.37	440.02
423.56	435.34
423.75	463.43
423.94	376.83
424.13	369.80
424.32	402.57
424.50	393.21
424.69	348.74
424.88	491.51
425.07	418.96
425.26	358.10
425.45	430.66
425.64	369.80
425.83	409.59
426.01	407.25
426.20	479.81
426.39	423.64
426.58	423.64
426.77	428.32
426.96	365.12
427.15	421.30
427.33	404.91
427.52	379.17
427.71	351.08
427.90	425.98
428.09	418.96
428.28	428.32
428.46	437.68
428.65	477.47
428.84	454.06
429.03	416.62
429.22	442.36
429.40	402.57
429.59	355.76
429.78	379.17
429.97	444.70
430.16	416.62
430.34	435.34
430.53	425.98
430.72	372.15
430.91	397.89
431.10	409.59
431.28	411.93
431.47	369.80
431.66	404.91
431.85	416.62
432.03	365.12
432.22	472.79
432.41	425.98
432.60	409.59
432.79	386.19
432.97	428.32
433.16	465.77
433.35	369.80
433.54	451.72
433.72	503.22
433.91	423.64
434.10	362.78
434.28	409.59
434.47	402.57
434.66	454.06
434.85	379.17
435.03	400.23
435.22	447.04
435.41	451.72
435.59	411.93
435.78	463.43
435.97	409.59
436.16	430.66
436.34	489.17
436.53	369.80
436.72	484.49
436.90	379.17
437.09	435.34
437.28	468.11
437.46	409.59
437.65	440.02
437.84	486.83
438.02	414.27
438.21	486.83
438.40	430.66
438.58	407.25
438.77	484.49
438.96	404.91
439.14	433.00
439.33	433.00
439.52	447.04
439.70	437.68
439.89	423.64
440.08	416.62
440.26	416.62
440.45	388.53
440.63	393.21
440.82	390.87
441.01	440.02
441.19	374.49
441.38	440.02
441.57	451.72
441.75	411.93
441.94	468.11
442.12	451.72
442.31	435.34
442.50	337.04
442.68	390.87
442.87	407.25
443.05	468.11
443.24	461.09
443.43	444.70
443.61	463.43
443.80	355.76
443.98	383.85
444.17	411.93
444.35	465.77
444.54	416.62
444.73	433.00
444.91	468.11
445.10	379.17
445.28	447.04
445.47	440.02
445.65	395.55
445.84	423.64
446.02	367.46
446.21	433.00
446.39	362.78
446.58	444.70
446.77	421.30
446.95	442.36
447.14	447.04
447.32	414.27
447.51	416.62
447.69	397.89
447.88	407.25
448.06	458.74
448.25	472.79
448.43	465.77
448.62	322.99
448.80	414.27
448.99	425.98
449.17	388.53
449.36	388.53
449.54	418.96
449.73	334.70
449.91	433.00
450.10	433.00
450.28	425.98
450.46	447.04
450.65	428.32
450.83	477.47
451.02	416.62
451.20	362.78
451.39	388.53
451.57	407.25
451.76	376.83
451.94	435.34
452.13	381.51
452.31	456.40
452.49	344.06
452.68	297.25
452.86	388.53
453.05	465.77
453.23	458.74
453.42	414.27
453.60	428.32
453.78	395.55
453.97	423.64
454.15	428.32
454.34	465.77
454.52	402.57
454.70	411.93
454.89	423.64
455.07	379.17
455.26	381.51
455.44	407.25
455.62	425.98
455.81	451.72
455.99	425.98
456.17	390.87
456.36	449.38
456.54	395.55
456.73	351.08
456.91	397.89
457.09	397.89
457.28	418.96
457.46	383.85
457.64	400.23
457.83	404.91
458.01	344.06
458.19	454.06
458.38	444.70
458.56	390.87
458.74	407.25
458.93	440.02
459.11	388.53
459.29	369.80
459.48	353.42
459.66	428.32
459.84	381.51
460.03	454.06
460.21	435.34
460.39	428.32
460.57	416.62
460.76	421.30
460.94	458.74
461.12	484.49
461.31	437.68
461.49	486.83
461.67	416.62
461.85	416.62
462.04	376.83
462.22	847.27
462.40	465.77
462.59	444.70
462.77	395.55
462.95	407.25
463.13	400.23
463.32	414.27
463.50	416.62
463.68	512.58
463.86	407.25
464.05	372.15
464.23	463.43
464.41	400.23
464.59	341.72
464.78	404.91
464.96	472.79
465.14	465.77
465.32	404.91
465.50	386.19
465.69	463.43
465.87	358.10
466.05	465.77
466.23	444.70
466.41	470.45
466.60	477.47
466.78	397.89
466.96	437.68
467.14	351.08
467.32	388.53
467.51	468.11
467.69	435.34
467.87	447.04
468.05	437.68
468.23	444.70
468.41	369.80
468.60	344.06
468.78	451.72
468.96	393.21
469.14	437.68
469.32	397.89
469.50	458.74
469.69	479.81
469.87	470.45
470.05	402.57
470.23	397.89
470.41	435.34
470.59	465.77
470.77	397.89
470.95	421.30
471.14	477.47
471.32	425.98
471.50	531.30
471.68	395.55
471.86	365.12
472.04	379.17
472.22	353.42
472.40	379.17
472.58	402.57
472.77	339.38
472.95	407.25
473.13	493.85
473.31	433.00
473.49	433.00
473.67	379.17
473.85	423.64
474.03	447.04
474.21	374.49
474.39	428.32
474.57	414.27
474.75	451.72
474.93	447.04
475.12	451.72
475.30	383.85
475.48	386.19
475.66	404.91
475.84	458.74
476.02	477.47
476.20	472.79
476.38	402.57
476.56	533.64
476.74	383.85
476.92	421.30
477.10	451.72
477.28	388.53
477.46	397.89
477.64	486.83
477.82	479.81
478.00	386.19
478.18	433.00
478.36	425.98
478.54	418.96
478.72	440.02
478.90	381.51
479.08	418.96
479.26	376.83
479.44	423.64
479.62	400.23
479.80	451.72
479.98	400.23
480.16	418.96
480.34	430.66
480.52	388.53
480.70	388.53
480.88	400.23
481.06	341.72
481.24	400.23
481.41	416.62
481.59	468.11
481.77	430.66
481.95	428.32
482.13	421.30
482.31	388.53
482.49	411.93
482.67	449.38
482.85	423.64
483.03	367.46
483.21	505.56
483.39	463.43
483.57	461.09
483.74	411.93
483.92	367.46
484.10	409.59
484.28	493.85
484.46	433.00
484.64	433.00
484.82	444.70
485.00	442.36
485.18	451.72
485.35	388.53
485.53	482.15
485.71	500.87
485.89	374.49
486.07	386.19
486.25	395.55
486.43	388.53
486.61	386.19
486.78	416.62
486.96	414.27
487.14	397.89
487.32	390.87
487.50	383.85
487.68	461.09
487.85	425.98
488.03	325.33
488.21	414.27
488.39	465.77
488.57	423.64
488.75	393.21
488.92	442.36
489.10	486.83
489.28	430.66
489.46	362.78
489.64	407.25
489.81	362.78
489.99	442.36
490.17	369.80
490.35	519.60
490.53	435.34
490.70	395.55
490.88	418.96
491.06	400.23
491.24	451.72
491.41	423.64
491.59	528.96
491.77	456.40
491.95	400.23
492.13	414.27
492.30	458.74
492.48	442.36
492.66	367.46
492.84	397.89
493.01	442.36
493.19	386.19
493.37	456.40
493.54	475.13
493.72	435.34
493.90	334.70
494.08	447.04
494.25	472.79
494.43	435.34
494.61	397.89
494.79	360.44
494.96	449.38
495.14	397.89
495.32	390.87
495.49	491.51
495.67	449.38
495.85	428.32
496.02	407.25
496.20	500.87
496.38	414.27
496.55	402.57
496.73	425.98
496.91	330.02
497.09	435.34
497.26	463.43
497.44	465.77
497.62	411.93
497.79	393.21
497.97	421.30
498.14	402.57
498.32	414.27
498.50	409.59
498.67	430.66
498.85	435.34
499.03	358.10
499.20	458.74
499.38	407.25
499.56	411.93
499.73	451.72
499.91	430.66
500.08	479.81
500.26	388.53
500.44	374.49
500.61	463.43
500.79	383.85
500.97	479.81
501.14	362.78
501.32	442.36
501.49	440.02
501.67	360.44
501.84	451.72
502.02	397.89
502.20	435.34
502.37	351.08
502.55	346.40
502.72	416.62
502.90	458.74
503.07	404.91
503.25	414.27
503.43	390.87
503.60	411.93
503.78	437.68
503.95	358.10
504.13	433.00
504.30	402.57
504.48	425.98
504.65	421.30
504.83	461.09
505.01	301.93
505.18	362.78
505.36	379.17
505.53	444.70
505.71	365.12
505.88	397.89
506.06	435.34
506.23	381.51
506.41	346.40
506.58	433.00
506.76	435.34
506.93	402.57
507.11	404.91
507.28	358.10
507.46	437.68
507.63	418.96
507.81	437.68
507.98	425.98
508.16	346.40
508.33	414.27
508.50	362.78
508.68	407.25
508.85	440.02
509.03	409.59
509.20	470.45
509.38	425.98
509.55	421.30
509.73	393.21
509.90	416.62
510.08	479.81
510.25	395.55
510.42	440.02
510.60	440.02
510.77	416.62
510.95	386.19
511.12	362.78
511.30	428.32
511.47	372.15
511.64	454.06
511.82	447.04
511.99	402.57
512.17	411.93
512.34	418.96
512.51	416.62
512.69	430.66
512.86	458.74
513.04	521.94
513.21	421.30
513.38	374.49
513.56	425.98
513.73	409.59
513.90	395.55
514.08	390.87
514.25	390.87
514.43	397.89
514.60	433.00
514.77	386.19
514.95	381.51
515.12	416.62
515.29	397.89
515.47	414.27
515.64	484.49
515.81	411.93
515.99	418.96
516.16	425.98
516.33	390.87
516.51	423.64
516.68	442.36
516.85	409.59
517.03	475.13
517.20	334.70
517.37	390.87
517.54	383.85
517.72	435.34
517.89	339.38
518.06	365.12
518.24	456.40
518.41	416.62
518.58	418.96
518.75	425.98
518.93	397.89
519.10	503.22
519.27	386.19
519.45	444.70
519.62	451.72
519.79	360.44
519.96	402.57
520.14	400.23
520.31	416.62
520.48	470.45
520.65	409.59
520.83	395.55
521.00	442.36
521.17	463.43
521.34	341.72
521.52	418.96
521.69	428.32
521.86	421.30
522.03	386.19
522.20	505.56
522.38	414.27
522.55	440.02
522.72	437.68
522.89	465.77
523.07	489.17
523.24	407.25
523.41	472.79
523.58	454.06
523.75	402.57
523.92	327.68
524.10	430.66
524.27	465.77
524.44	440.02
524.61	458.74
524.78	337.04
524.96	447.04
525.13	430.66
525.30	433.00
525.47	447.04
525.64	442.36
525.81	486.83
525.98	454.06
526.16	425.98
526.33	400.23
526.50	407.25
526.67	358.10
526.84	393.21
527.01	346.40
527.18	465.77
527.36	425.98
527.53	451.72
527.70	433.00
527.87	428.32
528.04	409.59
528.21	400.23
528.38	435.34
528.55	402.57
528.72	449.38
528.89	430.66
529.07	428.32
529.24	393.21
529.41	400.23
529.58	400.23
529.75	435.34
529.92	407.25
530.09	435.34
530.26	393.21
530.43	306.61
530.60	351.08
530.77	344.06
530.94	369.80
531.11	503.22
531.28	428.32
531.46	395.55
531.63	428.32
531.80	440.02
531.97	358.10
532.14	362.78
532.31	397.89
532.48	505.56
532.65	418.96
532.82	400.23
532.99	393.21
533.16	407.25
533.33	458.74
533.50	390.87
533.67	388.53
533.84	440.02
534.01	479.81
534.18	386.19
534.35	433.00
534.52	414.27
534.69	458.74
534.86	482.15
535.03	397.89
535.20	444.70
535.37	437.68
535.54	386.19
535.71	404.91
535.88	409.59
536.05	409.59
536.22	388.53
536.38	367.46
536.55	414.27
536.72	477.47
536.89	386.19
537.06	400.23
537.23	444.70
537.40	369.80
537.57	414.27
537.74	461.09
537.91	449.38
538.08	341.72
538.25	348.74
538.42	414.27
538.59	351.08
538.75	346.40
538.92	449.38
539.09	428.32
539.26	430.66
539.43	428.32
539.60	451.72
539.77	393.21
539.94	437.68
540.11	479.81
540.28	393.21
540.44	414.27
540.61	447.04
540.78	435.34
540.95	479.81
541.12	470.45
541.29	395.55
541.46	477.47
541.62	397.89
541.79	381.51
541.96	351.08
542.13	449.38
542.30	454.06
542.47	425.98
542.63	397.89
542.80	390.87
542.97	442.36
543.14	447.04
543.31	381.51
543.48	421.30
543.64	454.06
543.81	360.44
543.98	454.06
544.15	442.36
544.32	355.76
544.48	440.02
544.65	442.36
544.82	407.25
544.99	369.80
545.16	376.83
545.32	404.91
545.49	475.13
545.66	409.59
545.83	484.49
546.00	461.09
546.16	409.59
546.33	449.38
546.50	376.83
546.67	416.62
546.83	407.25
547.00	388.53
547.17	435.34
547.34	470.45
547.50	397.89
547.67	507.90
547.84	421.30
548.00	425.98
548.17	416.62
548.34	409.59
548.51	444.70
548.67	468.11
548.84	440.02
549.01	376.83
549.18	407.25
549.34	447.04
549.51	458.74
549.68	428.32
549.84	374.49
550.01	395.55
550.18	463.43
550.34	444.70
550.51	440.02
550.68	479.81
550.84	367.46
551.01	461.09
551.18	463.43
551.34	428.32
551.51	421.30
551.68	449.38
551.84	435.34
552.01	421.30
552.18	390.87
552.34	430.66
552.51	395.55
552.68	390.87
552.84	447.04
553.01	369.80
553.18	458.74
553.34	444.70
553.51	369.80
553.67	521.94
553.84	447.04
554.01	451.72
554.17	379.17
554.34	397.89
554.51	447.04
554.67	407.25
554.84	372.15
555.00	433.00
555.17	449.38
555.33	425.98
555.50	514.92
555.67	454.06
555.83	437.68
556.00	451.72
556.16	552.37
556.33	500.87
556.50	465.77
556.66	428.32
556.83	414.27
556.99	409.59
557.16	416.62
557.32	374.49
557.49	397.89
557.65	451.72
557.82	404.91
557.98	514.92
558.15	351.08
558.32	367.46
558.48	379.17
558.65	451.72
558.81	402.57
558.98	423.64
559.14	369.80
559.31	414.27
559.47	367.46
559.64	400.23
559.80	465.77
559.97	444.70
560.13	472.79
560.30	407.25
560.46	365.12
560.63	395.55
560.79	430.66
560.96	437.68
561.12	454.06
561.29	402.57
561.45	397.89
561.61	421.30
561.78	526.62
561.94	414.27
562.11	437.68
562.27	449.38
562.44	383.85
562.60	425.98
562.77	447.04
562.93	472.79
563.10	484.49
563.26	491.51
563.42	475.13
563.59	442.36
563.75	484.49
563.92	388.53
564.08	416.62
564.24	442.36
564.41	433.00
564.57	437.68
564.74	407.25
564.90	402.57
565.07	393.21
565.23	414.27
565.39	374.49
565.56	451.72
565.72	416.62
565.88	465.77
566.05	447.04
566.21	414.27
566.38	428.32
566.54	479.81
566.70	458.74
566.87	437.68
567.03	454.06
567.19	465.77
567.36	402.57
567.52	393.21
567.68	447.04
567.85	447.04
568.01	454.06
568.17	355.76
568.34	402.57
568.50	477.47
568.66	386.19
568.83	472.79
568.99	442.36
569.15	468.11
569.32	355.76
569.48	404.91
569.64	395.55
569.81	397.89
569.97	435.34
570.13	451.72
570.30	482.15
570.46	433.00
570.62	388.53
570.78	348.74
570.95	423.64
571.11	458.74
571.27	447.04
571.43	440.02
571.60	425.98
571.76	369.80
571.92	449.38
572.09	428.32
572.25	456.40
572.41	468.11
572.57	479.81
572.74	468.11
572.90	425.98
573.06	379.17
573.22	458.74
573.38	404.91
573.55	451.72
573.71	402.57
573.87	449.38
574.03	383.85
574.20	372.15
574.36	479.81
574.52	409.59
574.68	440.02
574.84	454.06
575.01	484.49
575.17	463.43
575.33	447.04
575.49	444.70
575.65	395.55
575.82	390.87
575.98	400.23
576.14	486.83
576.30	365.12
576.46	428.32
576.62	421.30
576.79	383.85
576.95	456.40
577.11	395.55
577.27	423.64
577.43	433.00
577.59	404.91
577.75	435.34
577.92	369.80
578.08	461.09
578.24	449.38
578.40	388.53
578.56	433.00
578.72	346.40
578.88	447.04
579.04	447.04
579.21	456.40
579.37	437.68
579.53	430.66
579.69	496.19
579.85	383.85
580.01	461.09
580.17	409.59
580.33	369.80
580.49	397.89
580.65	463.43
580.82	404.91
580.98	386.19
581.14	423.64
581.30	395.55
581.46	411.93
581.62	444.70
581.78	411.93
581.94	437.68
582.10	372.15
582.26	421.30
582.42	374.49
582.58	475.13
582.74	362.78
582.90	461.09
583.06	365.12
583.22	388.53
583.38	393.21
583.54	390.87
583.70	365.12
583.86	507.90
584.02	376.83
584.18	472.79
584.34	454.06
584.50	456.40
584.66	372.15
584.82	414.27
584.98	395.55
585.14	510.24
585.30	423.64
585.46	444.70
585.62	437.68
585.78	442.36
585.94	351.08
586.10	411.93
586.26	437.68
586.42	458.74
586.58	388.53
586.74	367.46
586.90	421.30
587.06	491.51
587.22	418.96
587.38	360.44
587.54	421.30
587.70	418.96
587.86	475.13
588.02	414.27
588.18	425.98
588.34	472.79
588.49	435.34
588.65	386.19
588.81	388.53
588.97	386.19
589.13	409.59
589.29	407.25
589.45	440.02
589.61	468.11
589.77	451.72
589.93	393.21
590.08	425.98
590.24	433.00
590.40	428.32
590.56	472.79
590.72	430.66
590.88	418.96
591.04	425.98
591.20	308.95
591.35	510.24
591.51	395.55
591.67	379.17
591.83	503.22
591.99	428.32
592.15	444.70
592.31	360.44
592.46	404.91
592.62	402.57
592.78	369.80
592.94	402.57
593.10	332.36
593.26	400.23
593.41	362.78
593.57	348.74
593.73	358.10
593.89	449.38
594.05	418.96
594.20	416.62
594.36	440.02
594.52	360.44
594.68	465.77
594.84	421.30
594.99	486.83
595.15	440.02
595.31	454.06
595.47	425.98
595.62	418.96
595.78	468.11
595.94	400.23
596.10	451.72
596.25	477.47
596.41	425.98
596.57	498.53
596.73	428.32
596.88	428.32
597.04	470.45
597.20	362.78
597.36	341.72
597.51	416.62
597.67	407.25
597.83	358.10
597.99	379.17
598.14	395.55
598.30	379.17
598.46	430.66
598.61	400.23
598.77	456.40
598.93	456.40
599.09	372.15
599.24	381.51
599.40	390.87
599.56	372.15
599.71	409.59
599.87	379.17
600.03	430.66
600.18	440.02
600.34	402.57
600.50	425.98
600.65	341.72
600.81	400.23
600.97	383.85
601.12	449.38
601.28	486.83
601.44	428.32
601.59	379.17
601.75	414.27
601.91	468.11
602.06	430.66
602.22	437.68
602.37	400.23
602.53	402.57
602.69	442.36
602.84	428.32
603.00	411.93
603.16	327.68
603.31	390.87
603.47	425.98
603.62	402.57
603.78	430.66
603.94	451.72
604.09	339.38
604.25	416.62
604.40	430.66
604.56	381.51
604.71	383.85
604.87	409.59
605.03	374.49
605.18	409.59
605.34	458.74
605.49	365.12
605.65	351.08
605.80	346.40
605.96	423.64
606.12	456.40
606.27	421.30
606.43	411.93
606.58	461.09
606.74	447.04
606.89	437.68
607.05	402.57
607.20	416.62
607.36	442.36
607.51	416.62
607.67	416.62
607.82	393.21
607.98	421.30
608.13	425.98
608.29	430.66
608.44	475.13
608.60	435.34
608.75	475.13
608.91	442.36
609.06	447.04
609.22	447.04
609.37	454.06
609.53	447.04
609.68	402.57
609.84	360.44
609.99	362.78
610.15	449.38
