SpectraSuite Data File
++++++++++++++++++++++++++++++++++++
Date: Fri Oct 25 12:10:43 EDT 2013
User: price-jones
Dark Spectrum Present: No
Reference Spectrum Present: No
Number of Sampled Component Spectra: 1
Spectrometers: USB2+H05261
Integration Time (usec): 100000 (USB2+H05261)
Spectra Averaged: 1 (USB2+H05261)
Boxcar Smoothing: 0 (USB2+H05261)
Correct for Electrical Dark: No (USB2+H05261)
Strobe/Lamp Enabled: No (USB2+H05261)
Correct for Detector Non-linearity: No (USB2+H05261)
Correct for Stray Light: No (USB2+H05261)
Number of Pixels in Processed Spectrum: 2048
>>>>>Begin Processed Spectral Data<<<<<
365.73	322.99
365.92	322.99
366.12	322.99
366.32	203.63
366.52	189.58
366.72	234.05
366.91	234.05
367.11	238.73
367.31	177.88
367.51	184.90
367.70	273.84
367.90	304.27
368.10	229.37
368.30	173.20
368.49	229.37
368.69	299.59
368.89	231.71
369.09	290.23
369.28	306.61
369.48	337.04
369.68	276.18
369.87	248.10
370.07	318.31
370.27	311.29
370.47	304.27
370.66	290.23
370.86	362.78
371.06	395.55
371.25	390.87
371.45	355.76
371.65	428.32
371.84	334.70
372.04	313.63
372.24	440.02
372.44	435.34
372.63	414.27
372.83	423.64
373.03	400.23
373.22	409.59
373.42	397.89
373.62	330.02
373.81	346.40
374.01	404.91
374.21	407.25
374.40	404.91
374.60	489.17
374.79	447.04
374.99	344.06
375.19	411.93
375.38	395.55
375.58	402.57
375.78	379.17
375.97	416.62
376.17	449.38
376.37	433.00
376.56	397.89
376.76	440.02
376.95	379.17
377.15	472.79
377.35	414.27
377.54	496.19
377.74	395.55
377.93	472.79
378.13	430.66
378.33	447.04
378.52	409.59
378.72	435.34
378.91	360.44
379.11	425.98
379.31	433.00
379.50	304.27
379.70	418.96
379.89	449.38
380.09	395.55
380.28	348.74
380.48	456.40
380.68	451.72
380.87	383.85
381.07	393.21
381.26	409.59
381.46	339.38
381.65	358.10
381.85	400.23
382.04	325.33
382.24	362.78
382.43	383.85
382.63	472.79
382.83	383.85
383.02	353.42
383.22	367.46
383.41	376.83
383.61	440.02
383.80	395.55
384.00	402.57
384.19	435.34
384.39	376.83
384.58	390.87
384.78	386.19
384.97	374.49
385.17	393.21
385.36	374.49
385.56	444.70
385.75	461.09
385.95	416.62
386.14	416.62
386.34	449.38
386.53	374.49
386.72	404.91
386.92	374.49
387.11	351.08
387.31	433.00
387.50	379.17
387.70	386.19
387.89	397.89
388.09	397.89
388.28	393.21
388.48	376.83
388.67	430.66
388.86	367.46
389.06	456.40
389.25	388.53
389.45	496.19
389.64	425.98
389.84	428.32
390.03	428.32
390.22	421.30
390.42	355.76
390.61	374.49
390.81	418.96
391.00	440.02
391.19	400.23
391.39	400.23
391.58	454.06
391.78	393.21
391.97	390.87
392.16	421.30
392.36	407.25
392.55	379.17
392.75	397.89
392.94	379.17
393.13	388.53
393.33	383.85
393.52	393.21
393.71	428.32
393.91	425.98
394.10	425.98
394.29	374.49
394.49	362.78
394.68	407.25
394.88	388.53
395.07	393.21
395.26	388.53
395.46	362.78
395.65	447.04
395.84	444.70
396.04	416.62
396.23	425.98
396.42	428.32
396.62	374.49
396.81	397.89
397.00	418.96
397.19	547.69
397.39	376.83
397.58	421.30
397.77	463.43
397.97	430.66
398.16	468.11
398.35	383.85
398.55	409.59
398.74	365.12
398.93	409.59
399.12	402.57
399.32	418.96
399.51	395.55
399.70	358.10
399.90	449.38
400.09	365.12
400.28	449.38
400.47	346.40
400.67	437.68
400.86	437.68
401.05	346.40
401.24	355.76
401.44	386.19
401.63	418.96
401.82	482.15
402.01	395.55
402.21	444.70
402.40	461.09
402.59	404.91
402.78	393.21
402.97	367.46
403.17	388.53
403.36	383.85
403.55	360.44
403.74	425.98
403.93	454.06
404.13	461.09
404.32	416.62
404.51	404.91
404.70	372.15
404.89	362.78
405.09	444.70
405.28	365.12
405.47	327.68
405.66	341.72
405.85	447.04
406.05	381.51
406.24	299.59
406.43	383.85
406.62	402.57
406.81	418.96
407.00	386.19
407.20	400.23
407.39	414.27
407.58	374.49
407.77	388.53
407.96	395.55
408.15	416.62
408.34	458.74
408.54	435.34
408.73	397.89
408.92	482.15
409.11	383.85
409.30	454.06
409.49	325.33
409.68	386.19
409.87	470.45
410.07	395.55
410.26	409.59
410.45	379.17
410.64	332.36
410.83	362.78
411.02	418.96
411.21	465.77
411.40	355.76
411.59	449.38
411.78	414.27
411.98	402.57
412.17	386.19
412.36	404.91
412.55	376.83
412.74	339.38
412.93	334.70
413.12	416.62
413.31	404.91
413.50	390.87
413.69	435.34
413.88	369.80
414.07	337.04
414.26	341.72
414.45	428.32
414.64	388.53
414.83	423.64
415.02	447.04
415.22	386.19
415.41	433.00
415.60	433.00
415.79	430.66
415.98	416.62
416.17	418.96
416.36	372.15
416.55	435.34
416.74	411.93
416.93	442.36
417.12	409.59
417.31	334.70
417.50	456.40
417.69	437.68
417.88	372.15
418.07	433.00
418.26	418.96
418.45	447.04
418.64	463.43
418.83	383.85
419.02	376.83
419.21	433.00
419.39	379.17
419.58	374.49
419.77	411.93
419.96	451.72
420.15	463.43
420.34	297.25
420.53	367.46
420.72	425.98
420.91	400.23
421.10	451.72
421.29	407.25
421.48	407.25
421.67	451.72
421.86	390.87
422.05	320.65
422.24	386.19
422.43	465.77
422.61	411.93
422.80	353.42
422.99	400.23
423.18	362.78
423.37	388.53
423.56	374.49
423.75	400.23
423.94	393.21
424.13	418.96
424.32	369.80
424.50	397.89
424.69	386.19
424.88	348.74
425.07	388.53
425.26	409.59
425.45	416.62
425.64	337.04
425.83	421.30
426.01	435.34
426.20	491.51
426.39	355.76
426.58	407.25
426.77	397.89
426.96	463.43
427.15	409.59
427.33	383.85
427.52	404.91
427.71	416.62
427.90	498.53
428.09	376.83
428.28	358.10
428.46	411.93
428.65	428.32
428.84	425.98
429.03	447.04
429.22	409.59
429.40	376.83
429.59	454.06
429.78	472.79
429.97	454.06
430.16	407.25
430.34	346.40
430.53	388.53
430.72	404.91
430.91	505.56
431.10	416.62
431.28	444.70
431.47	414.27
431.66	386.19
431.85	388.53
432.03	444.70
432.22	507.90
432.41	416.62
432.60	493.85
432.79	365.12
432.97	421.30
433.16	337.04
433.35	376.83
433.54	390.87
433.72	475.13
433.91	447.04
434.10	381.51
434.28	465.77
434.47	449.38
434.66	411.93
434.85	407.25
435.03	423.64
435.22	395.55
435.41	482.15
435.59	395.55
435.78	449.38
435.97	322.99
436.16	404.91
436.34	395.55
436.53	451.72
436.72	482.15
436.90	388.53
437.09	435.34
437.28	470.45
437.46	423.64
437.65	418.96
437.84	440.02
438.02	449.38
438.21	423.64
438.40	428.32
438.58	472.79
438.77	388.53
438.96	404.91
439.14	433.00
439.33	409.59
439.52	376.83
439.70	423.64
439.89	447.04
440.08	414.27
440.26	500.87
440.45	461.09
440.63	496.19
440.82	369.80
441.01	463.43
441.19	425.98
441.38	411.93
441.57	390.87
441.75	425.98
441.94	477.47
442.12	404.91
442.31	395.55
442.50	351.08
442.68	421.30
442.87	411.93
443.05	374.49
443.24	416.62
443.43	362.78
443.61	463.43
443.80	327.68
443.98	418.96
444.17	442.36
444.35	418.96
444.54	388.53
444.73	365.12
444.91	437.68
445.10	409.59
445.28	411.93
445.47	430.66
445.65	437.68
445.84	351.08
446.02	500.87
446.21	330.02
446.39	416.62
446.58	390.87
446.77	374.49
446.95	376.83
447.14	372.15
447.32	447.04
447.51	421.30
447.69	440.02
447.88	393.21
448.06	425.98
448.25	393.21
448.43	409.59
448.62	440.02
448.80	397.89
448.99	447.04
449.17	411.93
449.36	400.23
449.54	400.23
449.73	355.76
449.91	402.57
450.10	428.32
450.28	475.13
450.46	458.74
450.65	496.19
450.83	482.15
451.02	409.59
451.20	437.68
451.39	386.19
451.57	428.32
451.76	414.27
451.94	409.59
452.13	414.27
452.31	482.15
452.49	472.79
452.68	421.30
452.86	461.09
453.05	470.45
453.23	362.78
453.42	418.96
453.60	479.81
453.78	409.59
453.97	341.72
454.15	388.53
454.34	407.25
454.52	451.72
454.70	437.68
454.89	486.83
455.07	411.93
455.26	407.25
455.44	423.64
455.62	388.53
455.81	383.85
455.99	400.23
456.17	456.40
456.36	381.51
456.54	447.04
456.73	365.12
456.91	386.19
457.09	404.91
457.28	351.08
457.46	381.51
457.64	418.96
457.83	416.62
458.01	430.66
458.19	393.21
458.38	409.59
458.56	482.15
458.74	440.02
458.93	402.57
459.11	463.43
459.29	458.74
459.48	440.02
459.66	418.96
459.84	407.25
460.03	489.17
460.21	425.98
460.39	407.25
460.57	423.64
460.76	465.77
460.94	454.06
461.12	421.30
461.31	482.15
461.49	475.13
461.67	444.70
461.85	395.55
462.04	482.15
462.22	755.99
462.40	430.66
462.59	468.11
462.77	437.68
462.95	440.02
463.13	362.78
463.32	390.87
463.50	362.78
463.68	433.00
463.86	416.62
464.05	404.91
464.23	379.17
464.41	449.38
464.59	423.64
464.78	311.29
464.96	372.15
465.14	402.57
465.32	407.25
465.50	468.11
465.69	451.72
465.87	381.51
466.05	409.59
466.23	397.89
466.41	383.85
466.60	425.98
466.78	423.64
466.96	416.62
467.14	449.38
467.32	472.79
467.51	482.15
467.69	470.45
467.87	407.25
468.05	402.57
468.23	465.77
468.41	479.81
468.60	423.64
468.78	454.06
468.96	416.62
469.14	421.30
469.32	367.46
469.50	533.64
469.69	351.08
469.87	402.57
470.05	402.57
470.23	402.57
470.41	397.89
470.59	390.87
470.77	388.53
470.95	400.23
471.14	383.85
471.32	381.51
471.50	423.64
471.68	379.17
471.86	444.70
472.04	430.66
472.22	489.17
472.40	400.23
472.58	365.12
472.77	456.40
472.95	437.68
473.13	451.72
473.31	442.36
473.49	390.87
473.67	437.68
473.85	362.78
474.03	407.25
474.21	440.02
474.39	402.57
474.57	500.87
474.75	463.43
474.93	334.70
475.12	397.89
475.30	468.11
475.48	376.83
475.66	395.55
475.84	334.70
476.02	411.93
476.20	465.77
476.38	442.36
476.56	423.64
476.74	362.78
476.92	346.40
477.10	433.00
477.28	444.70
477.46	327.68
477.64	435.34
477.82	470.45
478.00	400.23
478.18	477.47
478.36	468.11
478.54	425.98
478.72	496.19
478.90	486.83
479.08	433.00
479.26	458.74
479.44	358.10
479.62	362.78
479.80	397.89
479.98	381.51
480.16	372.15
480.34	437.68
480.52	433.00
480.70	493.85
480.88	400.23
481.06	325.33
481.24	423.64
481.41	498.53
481.59	447.04
481.77	437.68
481.95	421.30
482.13	435.34
482.31	388.53
482.49	358.10
482.67	454.06
482.85	428.32
483.03	454.06
483.21	475.13
483.39	407.25
483.57	376.83
483.74	489.17
483.92	423.64
484.10	393.21
484.28	407.25
484.46	475.13
484.64	369.80
484.82	379.17
485.00	451.72
485.18	437.68
485.35	383.85
485.53	418.96
485.71	430.66
485.89	386.19
486.07	395.55
486.25	468.11
486.43	433.00
486.61	379.17
486.78	482.15
486.96	430.66
487.14	437.68
487.32	428.32
487.50	414.27
487.68	454.06
487.85	327.68
488.03	449.38
488.21	407.25
488.39	465.77
488.57	421.30
488.75	337.04
488.92	538.32
489.10	433.00
489.28	442.36
489.46	451.72
489.64	423.64
489.81	449.38
489.99	404.91
490.17	451.72
490.35	496.19
490.53	454.06
490.70	376.83
490.88	454.06
491.06	409.59
491.24	414.27
491.41	390.87
491.59	386.19
491.77	442.36
491.95	358.10
492.13	416.62
492.30	442.36
492.48	376.83
492.66	479.81
492.84	418.96
493.01	411.93
493.19	388.53
493.37	421.30
493.54	379.17
493.72	404.91
493.90	418.96
494.08	386.19
494.25	315.97
494.43	362.78
494.61	376.83
494.79	381.51
494.96	425.98
495.14	411.93
495.32	355.76
495.49	449.38
495.67	407.25
495.85	430.66
496.02	388.53
496.20	411.93
496.38	365.12
496.55	376.83
496.73	308.95
496.91	430.66
497.09	416.62
497.26	360.44
497.44	423.64
497.62	395.55
497.79	360.44
497.97	475.13
498.14	393.21
498.32	456.40
498.50	409.59
498.67	465.77
498.85	395.55
499.03	339.38
499.20	411.93
499.38	325.33
499.56	440.02
499.73	409.59
499.91	442.36
500.08	437.68
500.26	337.04
500.44	451.72
500.61	400.23
500.79	428.32
500.97	418.96
501.14	456.40
501.32	414.27
501.49	393.21
501.67	430.66
501.84	393.21
502.02	458.74
502.20	379.17
502.37	489.17
502.55	418.96
502.72	411.93
502.90	374.49
503.07	444.70
503.25	442.36
503.43	444.70
503.60	390.87
503.78	475.13
503.95	369.80
504.13	393.21
504.30	409.59
504.48	507.90
504.65	423.64
504.83	440.02
505.01	418.96
505.18	383.85
505.36	395.55
505.53	454.06
505.71	444.70
505.88	503.22
506.06	393.21
506.23	402.57
506.41	454.06
506.58	374.49
506.76	355.76
506.93	435.34
507.11	381.51
507.28	367.46
507.46	367.46
507.63	372.15
507.81	390.87
507.98	381.51
508.16	437.68
508.33	437.68
508.50	374.49
508.68	381.51
508.85	390.87
509.03	393.21
509.20	472.79
509.38	493.85
509.55	388.53
509.73	388.53
509.90	423.64
510.08	372.15
510.25	440.02
510.42	428.32
510.60	433.00
510.77	472.79
510.95	397.89
511.12	404.91
511.30	498.53
511.47	447.04
511.64	400.23
511.82	421.30
511.99	437.68
512.17	430.66
512.34	409.59
512.51	404.91
512.69	416.62
512.86	430.66
513.04	400.23
513.21	428.32
513.38	383.85
513.56	393.21
513.73	397.89
513.90	390.87
514.08	395.55
514.25	456.40
514.43	449.38
514.60	472.79
514.77	414.27
514.95	416.62
515.12	414.27
515.29	418.96
515.47	379.17
515.64	421.30
515.81	454.06
515.99	449.38
516.16	409.59
516.33	496.19
516.51	456.40
516.68	367.46
516.85	365.12
517.03	475.13
517.20	447.04
517.37	449.38
517.54	472.79
517.72	397.89
517.89	449.38
518.06	397.89
518.24	402.57
518.41	456.40
518.58	433.00
518.75	440.02
518.93	411.93
519.10	383.85
519.27	416.62
519.45	369.80
519.62	507.90
519.79	470.45
519.96	475.13
520.14	444.70
520.31	458.74
520.48	437.68
520.65	451.72
520.83	416.62
521.00	388.53
521.17	435.34
521.34	374.49
521.52	447.04
521.69	449.38
521.86	414.27
522.03	498.53
522.20	496.19
522.38	353.42
522.55	437.68
522.72	386.19
522.89	416.62
523.07	524.28
523.24	411.93
523.41	425.98
523.58	425.98
523.75	418.96
523.92	468.11
524.10	395.55
524.27	447.04
524.44	491.51
524.61	409.59
524.78	348.74
524.96	468.11
525.13	463.43
525.30	435.34
525.47	428.32
525.64	407.25
525.81	395.55
525.98	423.64
526.16	379.17
526.33	404.91
526.50	423.64
526.67	381.51
526.84	360.44
527.01	423.64
527.18	386.19
527.36	369.80
527.53	425.98
527.70	390.87
527.87	430.66
528.04	402.57
528.21	428.32
528.38	395.55
528.55	428.32
528.72	437.68
528.89	386.19
529.07	447.04
529.24	402.57
529.41	397.89
529.58	383.85
529.75	484.49
529.92	425.98
530.09	407.25
530.26	400.23
530.43	386.19
530.60	402.57
530.77	456.40
530.94	454.06
531.11	456.40
531.28	365.12
531.46	442.36
531.63	493.85
531.80	404.91
531.97	400.23
532.14	372.15
532.31	386.19
532.48	360.44
532.65	376.83
532.82	409.59
532.99	416.62
533.16	402.57
533.33	402.57
533.50	414.27
533.67	440.02
533.84	355.76
534.01	416.62
534.18	397.89
534.35	421.30
534.52	402.57
534.69	386.19
534.86	390.87
535.03	414.27
535.20	346.40
535.37	430.66
535.54	493.85
535.71	414.27
535.88	409.59
536.05	479.81
536.22	400.23
536.38	416.62
536.55	440.02
536.72	395.55
536.89	472.79
537.06	367.46
537.23	341.72
537.40	416.62
537.57	365.12
537.74	454.06
537.91	486.83
538.08	379.17
538.25	442.36
538.42	411.93
538.59	386.19
538.75	379.17
538.92	330.02
539.09	411.93
539.26	393.21
539.43	454.06
539.60	388.53
539.77	470.45
539.94	475.13
540.11	454.06
540.28	465.77
540.44	395.55
540.61	372.15
540.78	421.30
540.95	418.96
541.12	425.98
541.29	383.85
541.46	414.27
541.62	482.15
541.79	390.87
541.96	402.57
542.13	360.44
542.30	397.89
542.47	416.62
542.63	444.70
542.80	416.62
542.97	440.02
543.14	374.49
543.31	402.57
543.48	341.72
543.64	451.72
543.81	374.49
543.98	409.59
544.15	414.27
544.32	430.66
544.48	454.06
544.65	465.77
544.82	442.36
544.99	484.49
545.16	428.32
545.32	416.62
545.49	477.47
545.66	404.91
545.83	397.89
546.00	376.83
546.16	425.98
546.33	388.53
546.50	337.04
546.67	416.62
546.83	381.51
547.00	451.72
547.17	386.19
547.34	388.53
547.50	376.83
547.67	416.62
547.84	362.78
548.00	451.72
548.17	442.36
548.34	444.70
548.51	489.17
548.67	430.66
548.84	353.42
549.01	376.83
549.18	411.93
549.34	365.12
549.51	454.06
549.68	369.80
549.84	372.15
550.01	395.55
550.18	477.47
550.34	351.08
550.51	421.30
550.68	486.83
550.84	397.89
551.01	421.30
551.18	435.34
551.34	393.21
551.51	381.51
551.68	381.51
551.84	411.93
552.01	472.79
552.18	463.43
552.34	404.91
552.51	475.13
552.68	440.02
552.84	433.00
553.01	383.85
553.18	409.59
553.34	374.49
553.51	346.40
553.67	344.06
553.84	498.53
554.01	341.72
554.17	393.21
554.34	472.79
554.51	430.66
554.67	395.55
554.84	423.64
555.00	421.30
555.17	418.96
555.33	454.06
555.50	440.02
555.67	393.21
555.83	423.64
556.00	428.32
556.16	505.56
556.33	514.92
556.50	444.70
556.66	437.68
556.83	402.57
556.99	437.68
557.16	437.68
557.32	397.89
557.49	418.96
557.65	468.11
557.82	447.04
557.98	381.51
558.15	444.70
558.32	334.70
558.48	393.21
558.65	458.74
558.81	402.57
558.98	381.51
559.14	416.62
559.31	416.62
559.47	374.49
559.64	344.06
559.80	397.89
559.97	358.10
560.13	409.59
560.30	393.21
560.46	447.04
560.63	381.51
560.79	425.98
560.96	430.66
561.12	470.45
561.29	440.02
561.45	376.83
561.61	564.07
561.78	430.66
561.94	386.19
562.11	472.79
562.27	425.98
562.44	484.49
562.60	381.51
562.77	428.32
562.93	517.26
563.10	449.38
563.26	369.80
563.42	440.02
563.59	425.98
563.75	421.30
563.92	454.06
564.08	425.98
564.24	437.68
564.41	458.74
564.57	362.78
564.74	393.21
564.90	404.91
565.07	454.06
565.23	444.70
565.39	395.55
565.56	411.93
565.72	414.27
565.88	454.06
566.05	346.40
566.21	461.09
566.38	472.79
566.54	411.93
566.70	414.27
566.87	358.10
567.03	479.81
567.19	365.12
567.36	458.74
567.52	425.98
567.68	379.17
567.85	423.64
568.01	414.27
568.17	351.08
568.34	409.59
568.50	381.51
568.66	407.25
568.83	435.34
568.99	374.49
569.15	435.34
569.32	383.85
569.48	416.62
569.64	482.15
569.81	465.77
569.97	369.80
570.13	486.83
570.30	404.91
570.46	344.06
570.62	395.55
570.78	353.42
570.95	437.68
571.11	468.11
571.27	507.90
571.43	404.91
571.60	421.30
571.76	409.59
571.92	430.66
572.09	409.59
572.25	395.55
572.41	395.55
572.57	400.23
572.74	449.38
572.90	433.00
573.06	500.87
573.22	468.11
573.38	397.89
573.55	475.13
573.71	421.30
573.87	383.85
574.03	425.98
574.20	393.21
574.36	435.34
574.52	421.30
574.68	404.91
574.84	374.49
575.01	447.04
575.17	493.85
575.33	332.36
575.49	428.32
575.65	449.38
575.82	332.36
575.98	418.96
576.14	423.64
576.30	435.34
576.46	386.19
576.62	435.34
576.79	390.87
576.95	447.04
577.11	355.76
577.27	372.15
577.43	397.89
577.59	416.62
577.75	407.25
577.92	407.25
578.08	367.46
578.24	341.72
578.40	477.47
578.56	418.96
578.72	423.64
578.88	442.36
579.04	418.96
579.21	454.06
579.37	442.36
579.53	393.21
579.69	447.04
579.85	346.40
580.01	454.06
580.17	407.25
580.33	475.13
580.49	484.49
580.65	449.38
580.82	330.02
580.98	367.46
581.14	390.87
581.30	451.72
581.46	376.83
581.62	449.38
581.78	397.89
581.94	440.02
582.10	322.99
582.26	395.55
582.42	393.21
582.58	433.00
582.74	386.19
582.90	400.23
583.06	447.04
583.22	369.80
583.38	379.17
583.54	365.12
583.70	500.87
583.86	447.04
584.02	383.85
584.18	475.13
584.34	421.30
584.50	472.79
584.66	418.96
584.82	395.55
584.98	440.02
585.14	400.23
585.30	372.15
585.46	344.06
585.62	468.11
585.78	397.89
585.94	505.56
586.10	444.70
586.26	442.36
586.42	400.23
586.58	379.17
586.74	416.62
586.90	402.57
587.06	425.98
587.22	372.15
587.38	376.83
587.54	390.87
587.70	423.64
587.86	400.23
588.02	409.59
588.18	470.45
588.34	470.45
588.49	334.70
588.65	456.40
588.81	430.66
588.97	379.17
589.13	404.91
589.29	433.00
589.45	442.36
589.61	407.25
589.77	362.78
589.93	397.89
590.08	388.53
590.24	360.44
590.40	383.85
590.56	379.17
590.72	388.53
590.88	470.45
591.04	449.38
591.20	458.74
591.35	437.68
591.51	428.32
591.67	437.68
591.83	404.91
591.99	442.36
592.15	418.96
592.31	433.00
592.46	461.09
592.62	411.93
592.78	393.21
592.94	409.59
593.10	369.80
593.26	414.27
593.41	437.68
593.57	463.43
593.73	442.36
593.89	414.27
594.05	430.66
594.20	463.43
594.36	400.23
594.52	418.96
594.68	444.70
594.84	421.30
594.99	484.49
595.15	521.94
595.31	458.74
595.47	425.98
595.62	461.09
595.78	430.66
595.94	458.74
596.10	435.34
596.25	440.02
596.41	461.09
596.57	482.15
596.73	458.74
596.88	447.04
597.04	423.64
597.20	418.96
597.36	425.98
597.51	484.49
597.67	437.68
597.83	461.09
597.99	386.19
598.14	437.68
598.30	496.19
598.46	369.80
598.61	454.06
598.77	421.30
598.93	376.83
599.09	454.06
599.24	479.81
599.40	440.02
599.56	372.15
599.71	372.15
599.87	430.66
600.03	447.04
600.18	374.49
600.34	421.30
600.50	372.15
600.65	433.00
600.81	444.70
600.97	433.00
601.12	468.11
601.28	468.11
601.44	346.40
601.59	362.78
601.75	376.83
601.91	435.34
602.06	386.19
602.22	367.46
602.37	475.13
602.53	447.04
602.69	393.21
602.84	400.23
603.00	397.89
603.16	463.43
603.31	372.15
603.47	418.96
603.62	355.76
603.78	374.49
603.94	416.62
604.09	402.57
604.25	437.68
604.40	409.59
604.56	425.98
604.71	395.55
604.87	428.32
605.03	381.51
605.18	351.08
605.34	442.36
605.49	383.85
605.65	337.04
605.80	395.55
605.96	430.66
606.12	409.59
606.27	372.15
606.43	353.42
606.58	435.34
606.74	428.32
606.89	435.34
607.05	461.09
607.20	435.34
607.36	404.91
607.51	400.23
607.67	521.94
607.82	479.81
607.98	409.59
608.13	482.15
608.29	418.96
608.44	472.79
608.60	433.00
608.75	503.22
608.91	461.09
609.06	416.62
609.22	425.98
609.37	374.49
609.53	390.87
609.68	409.59
609.84	362.78
609.99	383.85
610.15	477.47
