SpectraSuite Data File
++++++++++++++++++++++++++++++++++++
Date: Fri Oct 25 12:10:22 EDT 2013
User: price-jones
Dark Spectrum Present: No
Reference Spectrum Present: No
Number of Sampled Component Spectra: 1
Spectrometers: USB2+H05261
Integration Time (usec): 100000 (USB2+H05261)
Spectra Averaged: 1 (USB2+H05261)
Boxcar Smoothing: 0 (USB2+H05261)
Correct for Electrical Dark: No (USB2+H05261)
Strobe/Lamp Enabled: No (USB2+H05261)
Correct for Detector Non-linearity: No (USB2+H05261)
Correct for Stray Light: No (USB2+H05261)
Number of Pixels in Processed Spectrum: 2048
>>>>>Begin Processed Spectral Data<<<<<
365.73	397.89
365.92	397.89
366.12	397.89
366.32	227.03
366.52	280.86
366.72	294.91
366.91	334.70
367.11	248.10
367.31	234.05
367.51	299.59
367.70	241.08
367.90	285.55
368.10	224.69
368.30	194.26
368.49	180.22
368.69	280.86
368.89	276.18
369.09	269.16
369.28	224.69
369.48	236.39
369.68	325.33
369.87	255.12
370.07	280.86
370.27	355.76
370.47	341.72
370.66	271.50
370.86	367.46
371.06	353.42
371.25	379.17
371.45	402.57
371.65	416.62
371.84	418.96
372.04	360.44
372.24	358.10
372.44	411.93
372.63	332.36
372.83	381.51
373.03	433.00
373.22	327.68
373.42	395.55
373.62	463.43
373.81	379.17
374.01	367.46
374.21	440.02
374.40	355.76
374.60	416.62
374.79	386.19
374.99	475.13
375.19	442.36
375.38	463.43
375.58	454.06
375.78	475.13
375.97	402.57
376.17	414.27
376.37	383.85
376.56	407.25
376.76	362.78
376.95	433.00
377.15	376.83
377.35	463.43
377.54	475.13
377.74	425.98
377.93	376.83
378.13	330.02
378.33	493.85
378.52	454.06
378.72	421.30
378.91	409.59
379.11	339.38
379.31	390.87
379.50	362.78
379.70	416.62
379.89	454.06
380.09	430.66
380.28	440.02
380.48	369.80
380.68	393.21
380.87	402.57
381.07	433.00
381.26	348.74
381.46	416.62
381.65	376.83
381.85	433.00
382.04	351.08
382.24	409.59
382.43	428.32
382.63	447.04
382.83	425.98
383.02	395.55
383.22	374.49
383.41	369.80
383.61	386.19
383.80	397.89
384.00	421.30
384.19	400.23
384.39	393.21
384.58	390.87
384.78	379.17
384.97	407.25
385.17	447.04
385.36	416.62
385.56	442.36
385.75	393.21
385.95	407.25
386.14	418.96
386.34	400.23
386.53	334.70
386.72	332.36
386.92	386.19
387.11	414.27
387.31	381.51
387.50	418.96
387.70	358.10
387.89	421.30
388.09	400.23
388.28	397.89
388.48	395.55
388.67	418.96
388.86	358.10
389.06	407.25
389.25	442.36
389.45	379.17
389.64	402.57
389.84	433.00
390.03	358.10
390.22	433.00
390.42	418.96
390.61	423.64
390.81	400.23
391.00	437.68
391.19	430.66
391.39	390.87
391.58	400.23
391.78	388.53
391.97	330.02
392.16	393.21
392.36	402.57
392.55	458.74
392.75	400.23
392.94	376.83
393.13	397.89
393.33	315.97
393.52	458.74
393.71	390.87
393.91	325.33
394.10	381.51
394.29	470.45
394.49	397.89
394.68	411.93
394.88	442.36
395.07	346.40
395.26	414.27
395.46	353.42
395.65	404.91
395.84	402.57
396.04	447.04
396.23	440.02
396.42	451.72
396.62	421.30
396.81	437.68
397.00	346.40
397.19	351.08
397.39	404.91
397.58	423.64
397.77	330.02
397.97	397.89
398.16	470.45
398.35	355.76
398.55	442.36
398.74	400.23
398.93	400.23
399.12	365.12
399.32	458.74
399.51	395.55
399.70	411.93
399.90	372.15
400.09	376.83
400.28	447.04
400.47	425.98
400.67	334.70
400.86	482.15
401.05	409.59
401.24	339.38
401.44	367.46
401.63	395.55
401.82	346.40
402.01	362.78
402.21	454.06
402.40	376.83
402.59	388.53
402.78	414.27
402.97	433.00
403.17	418.96
403.36	489.17
403.55	388.53
403.74	376.83
403.93	411.93
404.13	475.13
404.32	374.49
404.51	484.49
404.70	414.27
404.89	341.72
405.09	440.02
405.28	433.00
405.47	379.17
405.66	442.36
405.85	369.80
406.05	388.53
406.24	386.19
406.43	447.04
406.62	407.25
406.81	388.53
407.00	458.74
407.20	404.91
407.39	386.19
407.58	400.23
407.77	421.30
407.96	423.64
408.15	376.83
408.34	374.49
408.54	404.91
408.73	383.85
408.92	395.55
409.11	367.46
409.30	407.25
409.49	395.55
409.68	402.57
409.87	470.45
410.07	372.15
410.26	416.62
410.45	397.89
410.64	388.53
410.83	346.40
411.02	330.02
411.21	454.06
411.40	440.02
411.59	411.93
411.78	449.38
411.98	402.57
412.17	423.64
412.36	409.59
412.55	423.64
412.74	418.96
412.93	423.64
413.12	440.02
413.31	428.32
413.50	374.49
413.69	418.96
413.88	423.64
414.07	369.80
414.26	414.27
414.45	299.59
414.64	411.93
414.83	381.51
415.02	428.32
415.22	444.70
415.41	437.68
415.60	421.30
415.79	404.91
415.98	383.85
416.17	379.17
416.36	353.42
416.55	381.51
416.74	390.87
416.93	386.19
417.12	397.89
417.31	369.80
417.50	418.96
417.69	447.04
417.88	358.10
418.07	479.81
418.26	454.06
418.45	400.23
418.64	416.62
418.83	486.83
419.02	463.43
419.21	418.96
419.39	430.66
419.58	280.86
419.77	325.33
419.96	454.06
420.15	440.02
420.34	433.00
420.53	414.27
420.72	409.59
420.91	381.51
421.10	458.74
421.29	379.17
421.48	433.00
421.67	383.85
421.86	379.17
422.05	430.66
422.24	470.45
422.43	416.62
422.61	440.02
422.80	395.55
422.99	461.09
423.18	369.80
423.37	461.09
423.56	402.57
423.75	348.74
423.94	395.55
424.13	451.72
424.32	425.98
424.50	449.38
424.69	451.72
424.88	489.17
425.07	397.89
425.26	437.68
425.45	491.51
425.64	353.42
425.83	395.55
426.01	362.78
426.20	393.21
426.39	409.59
426.58	435.34
426.77	444.70
426.96	397.89
427.15	397.89
427.33	433.00
427.52	409.59
427.71	402.57
427.90	376.83
428.09	386.19
428.28	425.98
428.46	430.66
428.65	358.10
428.84	475.13
429.03	465.77
429.22	379.17
429.40	428.32
429.59	425.98
429.78	407.25
429.97	322.99
430.16	386.19
430.34	414.27
430.53	397.89
430.72	421.30
430.91	411.93
431.10	409.59
431.28	327.68
431.47	388.53
431.66	447.04
431.85	477.47
432.03	337.04
432.22	498.53
432.41	414.27
432.60	437.68
432.79	465.77
432.97	440.02
433.16	393.21
433.35	318.31
433.54	479.81
433.72	449.38
433.91	372.15
434.10	365.12
434.28	458.74
434.47	400.23
434.66	423.64
434.85	505.56
435.03	379.17
435.22	365.12
435.41	376.83
435.59	411.93
435.78	416.62
435.97	449.38
436.16	449.38
436.34	395.55
436.53	451.72
436.72	428.32
436.90	465.77
437.09	379.17
437.28	393.21
437.46	421.30
437.65	409.59
437.84	421.30
438.02	425.98
438.21	461.09
438.40	339.38
438.58	360.44
438.77	388.53
438.96	442.36
439.14	411.93
439.33	355.76
439.52	379.17
439.70	407.25
439.89	397.89
440.08	430.66
440.26	360.44
440.45	353.42
440.63	369.80
440.82	369.80
441.01	456.40
441.19	404.91
441.38	397.89
441.57	423.64
441.75	414.27
441.94	414.27
442.12	484.49
442.31	418.96
442.50	404.91
442.68	358.10
442.87	414.27
443.05	397.89
443.24	358.10
443.43	397.89
443.61	472.79
443.80	425.98
443.98	411.93
444.17	411.93
444.35	418.96
444.54	381.51
444.73	416.62
444.91	360.44
445.10	512.58
445.28	404.91
445.47	393.21
445.65	444.70
445.84	374.49
446.02	404.91
446.21	416.62
446.39	393.21
446.58	428.32
446.77	355.76
446.95	449.38
447.14	463.43
447.32	425.98
447.51	463.43
447.69	472.79
447.88	470.45
448.06	510.24
448.25	475.13
448.43	416.62
448.62	475.13
448.80	414.27
448.99	411.93
449.17	374.49
449.36	337.04
449.54	393.21
449.73	442.36
449.91	440.02
450.10	414.27
450.28	475.13
450.46	456.40
450.65	416.62
450.83	414.27
451.02	468.11
451.20	425.98
451.39	369.80
451.57	388.53
451.76	325.33
451.94	393.21
452.13	393.21
452.31	451.72
452.49	449.38
452.68	416.62
452.86	428.32
453.05	435.34
453.23	393.21
453.42	421.30
453.60	388.53
453.78	435.34
453.97	484.49
454.15	337.04
454.34	442.36
454.52	449.38
454.70	447.04
454.89	379.17
455.07	369.80
455.26	404.91
455.44	468.11
455.62	367.46
455.81	421.30
455.99	449.38
456.17	374.49
456.36	423.64
456.54	351.08
456.73	381.51
456.91	402.57
457.09	423.64
457.28	351.08
457.46	360.44
457.64	418.96
457.83	381.51
458.01	381.51
458.19	409.59
458.38	369.80
458.56	404.91
458.74	402.57
458.93	437.68
459.11	400.23
459.29	383.85
459.48	388.53
459.66	395.55
459.84	386.19
460.03	435.34
460.21	414.27
460.39	447.04
460.57	397.89
460.76	397.89
460.94	423.64
461.12	470.45
461.31	496.19
461.49	358.10
461.67	449.38
461.85	433.00
462.04	390.87
462.22	767.70
462.40	444.70
462.59	463.43
462.77	393.21
462.95	397.89
463.13	372.15
463.32	440.02
463.50	393.21
463.68	390.87
463.86	470.45
464.05	428.32
464.23	320.65
464.41	407.25
464.59	386.19
464.78	409.59
464.96	367.46
465.14	395.55
465.32	418.96
465.50	435.34
465.69	404.91
465.87	374.49
466.05	479.81
466.23	409.59
466.41	400.23
466.60	447.04
466.78	430.66
466.96	465.77
467.14	416.62
467.32	435.34
467.51	442.36
467.69	468.11
467.87	456.40
468.05	360.44
468.23	397.89
468.41	440.02
468.60	334.70
468.78	407.25
468.96	444.70
469.14	470.45
469.32	409.59
469.50	447.04
469.69	397.89
469.87	320.65
470.05	353.42
470.23	428.32
470.41	388.53
470.59	447.04
470.77	428.32
470.95	440.02
471.14	528.96
471.32	470.45
471.50	477.47
471.68	376.83
471.86	397.89
472.04	388.53
472.22	383.85
472.40	411.93
472.58	376.83
472.77	369.80
472.95	423.64
473.13	514.92
473.31	425.98
473.49	386.19
473.67	320.65
473.85	421.30
474.03	421.30
474.21	425.98
474.39	442.36
474.57	510.24
474.75	381.51
474.93	425.98
475.12	381.51
475.30	386.19
475.48	397.89
475.66	393.21
475.84	402.57
476.02	425.98
476.20	339.38
476.38	440.02
476.56	475.13
476.74	355.76
476.92	430.66
477.10	379.17
477.28	484.49
477.46	365.12
477.64	383.85
477.82	411.93
478.00	372.15
478.18	374.49
478.36	435.34
478.54	444.70
478.72	365.12
478.90	407.25
479.08	414.27
479.26	390.87
479.44	411.93
479.62	447.04
479.80	393.21
479.98	400.23
480.16	402.57
480.34	388.53
480.52	454.06
480.70	367.46
480.88	348.74
481.06	362.78
481.24	395.55
481.41	423.64
481.59	447.04
481.77	430.66
481.95	330.02
482.13	416.62
482.31	468.11
482.49	367.46
482.67	374.49
482.85	454.06
483.03	397.89
483.21	390.87
483.39	379.17
483.57	423.64
483.74	482.15
483.92	388.53
484.10	423.64
484.28	418.96
484.46	461.09
484.64	416.62
484.82	489.17
485.00	332.36
485.18	414.27
485.35	327.68
485.53	388.53
485.71	390.87
485.89	447.04
486.07	351.08
486.25	402.57
486.43	447.04
486.61	409.59
486.78	428.32
486.96	320.65
487.14	428.32
487.32	430.66
487.50	400.23
487.68	451.72
487.85	369.80
488.03	454.06
488.21	454.06
488.39	386.19
488.57	383.85
488.75	425.98
488.92	557.05
489.10	379.17
489.28	533.64
489.46	369.80
489.64	418.96
489.81	465.77
489.99	423.64
490.17	423.64
490.35	454.06
490.53	421.30
490.70	400.23
490.88	477.47
491.06	372.15
491.24	367.46
491.41	461.09
491.59	449.38
491.77	414.27
491.95	407.25
492.13	383.85
492.30	463.43
492.48	344.06
492.66	341.72
492.84	433.00
493.01	437.68
493.19	435.34
493.37	486.83
493.54	479.81
493.72	437.68
493.90	393.21
494.08	360.44
494.25	456.40
494.43	444.70
494.61	440.02
494.79	374.49
494.96	411.93
495.14	430.66
495.32	393.21
495.49	456.40
495.67	381.51
495.85	454.06
496.02	376.83
496.20	395.55
496.38	440.02
496.55	409.59
496.73	440.02
496.91	421.30
497.09	433.00
497.26	465.77
497.44	454.06
497.62	468.11
497.79	400.23
497.97	440.02
498.14	493.85
498.32	475.13
498.50	421.30
498.67	430.66
498.85	437.68
499.03	435.34
499.20	458.74
499.38	440.02
499.56	369.80
499.73	440.02
499.91	507.90
500.08	463.43
500.26	393.21
500.44	425.98
500.61	397.89
500.79	386.19
500.97	484.49
501.14	372.15
501.32	390.87
501.49	421.30
501.67	428.32
501.84	400.23
502.02	386.19
502.20	388.53
502.37	421.30
502.55	433.00
502.72	397.89
502.90	423.64
503.07	409.59
503.25	435.34
503.43	395.55
503.60	360.44
503.78	397.89
503.95	428.32
504.13	346.40
504.30	402.57
504.48	383.85
504.65	407.25
504.83	435.34
505.01	337.04
505.18	402.57
505.36	447.04
505.53	433.00
505.71	393.21
505.88	428.32
506.06	421.30
506.23	428.32
506.41	372.15
506.58	428.32
506.76	433.00
506.93	397.89
507.11	346.40
507.28	416.62
507.46	411.93
507.63	423.64
507.81	447.04
507.98	411.93
508.16	388.53
508.33	383.85
508.50	369.80
508.68	440.02
508.85	449.38
509.03	411.93
509.20	423.64
509.38	386.19
509.55	423.64
509.73	376.83
509.90	428.32
510.08	353.42
510.25	376.83
510.42	404.91
510.60	416.62
510.77	379.17
510.95	404.91
511.12	430.66
511.30	486.83
511.47	418.96
511.64	437.68
511.82	493.85
511.99	381.51
512.17	407.25
512.34	341.72
512.51	388.53
512.69	395.55
512.86	449.38
513.04	374.49
513.21	386.19
513.38	418.96
513.56	369.80
513.73	332.36
513.90	374.49
514.08	409.59
514.25	456.40
514.43	475.13
514.60	425.98
514.77	353.42
514.95	376.83
515.12	393.21
515.29	442.36
515.47	440.02
515.64	416.62
515.81	456.40
515.99	393.21
516.16	421.30
516.33	472.79
516.51	475.13
516.68	388.53
516.85	381.51
517.03	440.02
517.20	388.53
517.37	409.59
517.54	416.62
517.72	418.96
517.89	414.27
518.06	374.49
518.24	484.49
518.41	461.09
518.58	409.59
518.75	421.30
518.93	465.77
519.10	400.23
519.27	430.66
519.45	402.57
519.62	428.32
519.79	526.62
519.96	346.40
520.14	374.49
520.31	435.34
520.48	369.80
520.65	383.85
520.83	418.96
521.00	379.17
521.17	491.51
521.34	390.87
521.52	416.62
521.69	428.32
521.86	428.32
522.03	372.15
522.20	475.13
522.38	353.42
522.55	423.64
522.72	444.70
522.89	407.25
523.07	444.70
523.24	461.09
523.41	381.51
523.58	451.72
523.75	454.06
523.92	376.83
524.10	402.57
524.27	339.38
524.44	430.66
524.61	421.30
524.78	395.55
524.96	397.89
525.13	351.08
525.30	447.04
525.47	388.53
525.64	442.36
525.81	440.02
525.98	355.76
526.16	463.43
526.33	407.25
526.50	475.13
526.67	367.46
526.84	444.70
527.01	421.30
527.18	444.70
527.36	416.62
527.53	489.17
527.70	402.57
527.87	355.76
528.04	479.81
528.21	416.62
528.38	402.57
528.55	449.38
528.72	414.27
528.89	470.45
529.07	409.59
529.24	374.49
529.41	454.06
529.58	400.23
529.75	442.36
529.92	444.70
530.09	440.02
530.26	414.27
530.43	351.08
530.60	308.95
530.77	435.34
530.94	433.00
531.11	465.77
531.28	376.83
531.46	334.70
531.63	425.98
531.80	414.27
531.97	456.40
532.14	362.78
532.31	447.04
532.48	407.25
532.65	416.62
532.82	465.77
532.99	440.02
533.16	383.85
533.33	442.36
533.50	437.68
533.67	454.06
533.84	433.00
534.01	430.66
534.18	369.80
534.35	447.04
534.52	416.62
534.69	402.57
534.86	379.17
535.03	411.93
535.20	433.00
535.37	409.59
535.54	442.36
535.71	402.57
535.88	447.04
536.05	437.68
536.22	386.19
536.38	430.66
536.55	493.85
536.72	362.78
536.89	395.55
537.06	477.47
537.23	367.46
537.40	425.98
537.57	449.38
537.74	454.06
537.91	465.77
538.08	393.21
538.25	449.38
538.42	390.87
538.59	395.55
538.75	425.98
538.92	388.53
539.09	414.27
539.26	393.21
539.43	465.77
539.60	418.96
539.77	477.47
539.94	475.13
540.11	496.19
540.28	430.66
540.44	463.43
540.61	456.40
540.78	482.15
540.95	381.51
541.12	454.06
541.29	447.04
541.46	430.66
541.62	423.64
541.79	393.21
541.96	369.80
542.13	346.40
542.30	379.17
542.47	402.57
542.63	388.53
542.80	458.74
542.97	437.68
543.14	358.10
543.31	383.85
543.48	435.34
543.64	404.91
543.81	390.87
543.98	493.85
544.15	411.93
544.32	423.64
544.48	390.87
544.65	435.34
544.82	386.19
544.99	456.40
545.16	461.09
545.32	395.55
545.49	402.57
545.66	409.59
545.83	390.87
546.00	362.78
546.16	416.62
546.33	376.83
546.50	451.72
546.67	451.72
546.83	449.38
547.00	435.34
547.17	390.87
547.34	435.34
547.50	402.57
547.67	416.62
547.84	393.21
548.00	423.64
548.17	400.23
548.34	416.62
548.51	425.98
548.67	493.85
548.84	376.83
549.01	435.34
549.18	447.04
549.34	444.70
549.51	425.98
549.68	390.87
549.84	383.85
550.01	447.04
550.18	484.49
550.34	423.64
550.51	414.27
550.68	503.22
550.84	433.00
551.01	402.57
551.18	437.68
551.34	421.30
551.51	447.04
551.68	404.91
551.84	456.40
552.01	449.38
552.18	449.38
552.34	444.70
552.51	425.98
552.68	402.57
552.84	437.68
553.01	407.25
553.18	390.87
553.34	472.79
553.51	463.43
553.67	425.98
553.84	519.60
554.01	411.93
554.17	514.92
554.34	414.27
554.51	486.83
554.67	390.87
554.84	376.83
555.00	414.27
555.17	395.55
555.33	475.13
555.50	435.34
555.67	402.57
555.83	451.72
556.00	395.55
556.16	538.32
556.33	425.98
556.50	437.68
556.66	393.21
556.83	430.66
556.99	400.23
557.16	442.36
557.32	337.04
557.49	365.12
557.65	388.53
557.82	418.96
557.98	383.85
558.15	383.85
558.32	393.21
558.48	369.80
558.65	430.66
558.81	456.40
558.98	374.49
559.14	388.53
559.31	400.23
559.47	437.68
559.64	381.51
559.80	465.77
559.97	435.34
560.13	442.36
560.30	390.87
560.46	416.62
560.63	374.49
560.79	430.66
560.96	409.59
561.12	376.83
561.29	416.62
561.45	451.72
561.61	393.21
561.78	526.62
561.94	369.80
562.11	325.33
562.27	400.23
562.44	376.83
562.60	409.59
562.77	433.00
562.93	517.26
563.10	451.72
563.26	351.08
563.42	482.15
563.59	381.51
563.75	393.21
563.92	437.68
564.08	414.27
564.24	447.04
564.41	407.25
564.57	449.38
564.74	428.32
564.90	463.43
565.07	425.98
565.23	393.21
565.39	435.34
565.56	503.22
565.72	390.87
565.88	369.80
566.05	421.30
566.21	444.70
566.38	409.59
566.54	360.44
566.70	397.89
566.87	397.89
567.03	355.76
567.19	374.49
567.36	447.04
567.52	433.00
567.68	440.02
567.85	353.42
568.01	388.53
568.17	435.34
568.34	411.93
568.50	428.32
568.66	449.38
568.83	491.51
568.99	407.25
569.15	386.19
569.32	376.83
569.48	449.38
569.64	440.02
569.81	388.53
569.97	411.93
570.13	414.27
570.30	433.00
570.46	355.76
570.62	383.85
570.78	397.89
570.95	425.98
571.11	437.68
571.27	442.36
571.43	409.59
571.60	414.27
571.76	393.21
571.92	369.80
572.09	376.83
572.25	402.57
572.41	440.02
572.57	393.21
572.74	435.34
572.90	400.23
573.06	355.76
573.22	433.00
573.38	425.98
573.55	388.53
573.71	374.49
573.87	353.42
574.03	381.51
574.20	430.66
574.36	404.91
574.52	381.51
574.68	418.96
574.84	386.19
575.01	407.25
575.17	353.42
575.33	519.60
575.49	402.57
575.65	475.13
575.82	400.23
575.98	512.58
576.14	416.62
576.30	397.89
576.46	369.80
576.62	379.17
576.79	449.38
576.95	414.27
577.11	437.68
577.27	397.89
577.43	458.74
577.59	423.64
577.75	440.02
577.92	404.91
578.08	463.43
578.24	374.49
578.40	334.70
578.56	430.66
578.72	444.70
578.88	381.51
579.04	395.55
579.21	388.53
579.37	374.49
579.53	430.66
579.69	440.02
579.85	444.70
580.01	369.80
580.17	503.22
580.33	332.36
580.49	344.06
580.65	437.68
580.82	374.49
580.98	437.68
581.14	484.49
581.30	353.42
581.46	433.00
581.62	437.68
581.78	374.49
581.94	425.98
582.10	348.74
582.26	374.49
582.42	451.72
582.58	444.70
582.74	475.13
582.90	315.97
583.06	458.74
583.22	414.27
583.38	341.72
583.54	379.17
583.70	500.87
583.86	414.27
584.02	393.21
584.18	468.11
584.34	390.87
584.50	409.59
584.66	390.87
584.82	411.93
584.98	358.10
585.14	430.66
585.30	322.99
585.46	433.00
585.62	484.49
585.78	454.06
585.94	421.30
586.10	437.68
586.26	449.38
586.42	407.25
586.58	430.66
586.74	402.57
586.90	444.70
587.06	423.64
587.22	440.02
587.38	388.53
587.54	463.43
587.70	362.78
587.86	418.96
588.02	395.55
588.18	437.68
588.34	397.89
588.49	276.18
588.65	465.77
588.81	376.83
588.97	379.17
589.13	423.64
589.29	381.51
589.45	491.51
589.61	362.78
589.77	465.77
589.93	463.43
590.08	440.02
590.24	454.06
590.40	463.43
590.56	409.59
590.72	381.51
590.88	386.19
591.04	376.83
591.20	418.96
591.35	528.96
591.51	482.15
591.67	365.12
591.83	367.46
591.99	433.00
592.15	442.36
592.31	491.51
592.46	407.25
592.62	430.66
592.78	383.85
592.94	339.38
593.10	433.00
593.26	330.02
593.41	407.25
593.57	414.27
593.73	433.00
593.89	402.57
594.05	351.08
594.20	346.40
594.36	411.93
594.52	383.85
594.68	472.79
594.84	421.30
594.99	390.87
595.15	425.98
595.31	337.04
595.47	524.28
595.62	428.32
595.78	454.06
595.94	390.87
596.10	404.91
596.25	444.70
596.41	386.19
596.57	404.91
596.73	433.00
596.88	383.85
597.04	416.62
597.20	433.00
597.36	423.64
597.51	414.27
597.67	458.74
597.83	407.25
597.99	477.47
598.14	486.83
598.30	433.00
598.46	463.43
598.61	393.21
598.77	421.30
598.93	369.80
599.09	374.49
599.24	358.10
599.40	449.38
599.56	402.57
599.71	463.43
599.87	416.62
600.03	414.27
600.18	447.04
600.34	468.11
600.50	388.53
600.65	379.17
600.81	430.66
600.97	381.51
601.12	430.66
601.28	486.83
601.44	383.85
601.59	386.19
601.75	379.17
601.91	430.66
602.06	449.38
602.22	437.68
602.37	444.70
602.53	440.02
602.69	407.25
602.84	386.19
603.00	444.70
603.16	428.32
603.31	386.19
603.47	390.87
603.62	330.02
603.78	449.38
603.94	444.70
604.09	430.66
604.25	416.62
604.40	444.70
604.56	402.57
604.71	435.34
604.87	386.19
605.03	451.72
605.18	416.62
605.34	383.85
605.49	454.06
605.65	372.15
605.80	367.46
605.96	409.59
606.12	425.98
606.27	409.59
606.43	437.68
606.58	484.49
606.74	430.66
606.89	437.68
607.05	374.49
607.20	407.25
607.36	379.17
607.51	421.30
607.67	407.25
607.82	425.98
607.98	468.11
608.13	505.56
608.29	421.30
608.44	407.25
608.60	369.80
608.75	428.32
608.91	388.53
609.06	449.38
609.22	386.19
609.37	411.93
609.53	404.91
609.68	465.77
609.84	409.59
609.99	306.61
610.15	381.51
