SpectraSuite Data File
++++++++++++++++++++++++++++++++++++
Date: Fri Oct 25 12:11:15 EDT 2013
User: price-jones
Dark Spectrum Present: No
Reference Spectrum Present: No
Number of Sampled Component Spectra: 1
Spectrometers: USB2+H05261
Integration Time (usec): 100000 (USB2+H05261)
Spectra Averaged: 1 (USB2+H05261)
Boxcar Smoothing: 0 (USB2+H05261)
Correct for Electrical Dark: No (USB2+H05261)
Strobe/Lamp Enabled: No (USB2+H05261)
Correct for Detector Non-linearity: No (USB2+H05261)
Correct for Stray Light: No (USB2+H05261)
Number of Pixels in Processed Spectrum: 2048
>>>>>Begin Processed Spectral Data<<<<<
365.73	428.32
365.92	428.32
366.12	428.32
366.32	271.50
366.52	208.31
366.72	271.50
366.91	217.67
367.11	229.37
367.31	198.95
367.51	266.82
367.70	196.60
367.90	351.08
368.10	217.67
368.30	280.86
368.49	269.16
368.69	217.67
368.89	283.20
369.09	290.23
369.28	318.31
369.48	290.23
369.68	252.78
369.87	304.27
370.07	341.72
370.27	320.65
370.47	292.57
370.66	351.08
370.86	390.87
371.06	390.87
371.25	440.02
371.45	435.34
371.65	407.25
371.84	404.91
372.04	376.83
372.24	435.34
372.44	416.62
372.63	418.96
372.83	440.02
373.03	430.66
373.22	360.44
373.42	386.19
373.62	423.64
373.81	404.91
374.01	430.66
374.21	433.00
374.40	440.02
374.60	454.06
374.79	400.23
374.99	428.32
375.19	465.77
375.38	435.34
375.58	433.00
375.78	482.15
375.97	433.00
376.17	468.11
376.37	425.98
376.56	397.89
376.76	372.15
376.95	416.62
377.15	458.74
377.35	442.36
377.54	367.46
377.74	407.25
377.93	440.02
378.13	369.80
378.33	428.32
378.52	411.93
378.72	479.81
378.91	388.53
379.11	332.36
379.31	346.40
379.50	381.51
379.70	409.59
379.89	437.68
380.09	358.10
380.28	374.49
380.48	447.04
380.68	365.12
380.87	351.08
381.07	404.91
381.26	484.49
381.46	383.85
381.65	482.15
381.85	383.85
382.04	435.34
382.24	442.36
382.43	400.23
382.63	332.36
382.83	442.36
383.02	435.34
383.22	397.89
383.41	404.91
383.61	435.34
383.80	414.27
384.00	435.34
384.19	395.55
384.39	477.47
384.58	344.06
384.78	397.89
384.97	409.59
385.17	383.85
385.36	402.57
385.56	393.21
385.75	444.70
385.95	433.00
386.14	409.59
386.34	437.68
386.53	440.02
386.72	425.98
386.92	341.72
387.11	430.66
387.31	433.00
387.50	470.45
387.70	360.44
387.89	484.49
388.09	383.85
388.28	395.55
388.48	381.51
388.67	423.64
388.86	418.96
389.06	402.57
389.25	372.15
389.45	421.30
389.64	388.53
389.84	409.59
390.03	430.66
390.22	433.00
390.42	440.02
390.61	393.21
390.81	430.66
391.00	418.96
391.19	430.66
391.39	418.96
391.58	395.55
391.78	393.21
391.97	369.80
392.16	430.66
392.36	449.38
392.55	465.77
392.75	472.79
392.94	332.36
393.13	465.77
393.33	425.98
393.52	442.36
393.71	404.91
393.91	421.30
394.10	404.91
394.29	393.21
394.49	395.55
394.68	411.93
394.88	367.46
395.07	379.17
395.26	407.25
395.46	421.30
395.65	400.23
395.84	418.96
396.04	425.98
396.23	346.40
396.42	435.34
396.62	397.89
396.81	428.32
397.00	421.30
397.19	428.32
397.39	400.23
397.58	428.32
397.77	348.74
397.97	404.91
398.16	430.66
398.35	425.98
398.55	344.06
398.74	421.30
398.93	381.51
399.12	395.55
399.32	409.59
399.51	463.43
399.70	402.57
399.90	423.64
400.09	346.40
400.28	374.49
400.47	383.85
400.67	402.57
400.86	397.89
401.05	318.31
401.24	409.59
401.44	411.93
401.63	442.36
401.82	454.06
402.01	386.19
402.21	442.36
402.40	433.00
402.59	367.46
402.78	388.53
402.97	315.97
403.17	418.96
403.36	423.64
403.55	433.00
403.74	435.34
403.93	395.55
404.13	447.04
404.32	383.85
404.51	346.40
404.70	402.57
404.89	435.34
405.09	411.93
405.28	372.15
405.47	339.38
405.66	404.91
405.85	400.23
406.05	411.93
406.24	454.06
406.43	489.17
406.62	463.43
406.81	428.32
407.00	393.21
407.20	416.62
407.39	393.21
407.58	339.38
407.77	430.66
407.96	407.25
408.15	407.25
408.34	388.53
408.54	491.51
408.73	409.59
408.92	390.87
409.11	379.17
409.30	440.02
409.49	409.59
409.68	337.04
409.87	381.51
410.07	393.21
410.26	433.00
410.45	400.23
410.64	386.19
410.83	409.59
411.02	386.19
411.21	444.70
411.40	430.66
411.59	367.46
411.78	369.80
411.98	386.19
412.17	402.57
412.36	447.04
412.55	423.64
412.74	404.91
412.93	425.98
413.12	353.42
413.31	407.25
413.50	334.70
413.69	393.21
413.88	451.72
414.07	440.02
414.26	442.36
414.45	451.72
414.64	404.91
414.83	465.77
415.02	407.25
415.22	440.02
415.41	447.04
415.60	360.44
415.79	393.21
415.98	456.40
416.17	395.55
416.36	395.55
416.55	468.11
416.74	393.21
416.93	402.57
417.12	374.49
417.31	367.46
417.50	351.08
417.69	444.70
417.88	414.27
418.07	400.23
418.26	397.89
418.45	337.04
418.64	416.62
418.83	421.30
419.02	400.23
419.21	390.87
419.39	435.34
419.58	430.66
419.77	367.46
419.96	388.53
420.15	442.36
420.34	423.64
420.53	379.17
420.72	428.32
420.91	376.83
421.10	402.57
421.29	421.30
421.48	454.06
421.67	402.57
421.86	397.89
422.05	393.21
422.24	451.72
422.43	395.55
422.61	414.27
422.80	458.74
422.99	435.34
423.18	344.06
423.37	440.02
423.56	409.59
423.75	423.64
423.94	477.47
424.13	395.55
424.32	435.34
424.50	381.51
424.69	416.62
424.88	425.98
425.07	416.62
425.26	395.55
425.45	416.62
425.64	465.77
425.83	341.72
426.01	479.81
426.20	414.27
426.39	433.00
426.58	458.74
426.77	428.32
426.96	402.57
427.15	407.25
427.33	444.70
427.52	418.96
427.71	393.21
427.90	421.30
428.09	376.83
428.28	411.93
428.46	390.87
428.65	411.93
428.84	411.93
429.03	430.66
429.22	421.30
429.40	423.64
429.59	376.83
429.78	416.62
429.97	397.89
430.16	376.83
430.34	458.74
430.53	416.62
430.72	428.32
430.91	397.89
431.10	440.02
431.28	416.62
431.47	416.62
431.66	465.77
431.85	409.59
432.03	409.59
432.22	571.09
432.41	411.93
432.60	514.92
432.79	341.72
432.97	423.64
433.16	395.55
433.35	397.89
433.54	463.43
433.72	421.30
433.91	428.32
434.10	388.53
434.28	393.21
434.47	418.96
434.66	358.10
434.85	411.93
435.03	421.30
435.22	437.68
435.41	454.06
435.59	440.02
435.78	433.00
435.97	440.02
436.16	423.64
436.34	416.62
436.53	430.66
436.72	425.98
436.90	421.30
437.09	423.64
437.28	367.46
437.46	388.53
437.65	477.47
437.84	465.77
438.02	306.61
438.21	442.36
438.40	465.77
438.58	435.34
438.77	369.80
438.96	367.46
439.14	374.49
439.33	362.78
439.52	400.23
439.70	425.98
439.89	472.79
440.08	472.79
440.26	472.79
440.45	482.15
440.63	411.93
440.82	423.64
441.01	400.23
441.19	423.64
441.38	379.17
441.57	442.36
441.75	447.04
441.94	430.66
442.12	365.12
442.31	374.49
442.50	430.66
442.68	395.55
442.87	456.40
443.05	423.64
443.24	348.74
443.43	365.12
443.61	486.83
443.80	468.11
443.98	397.89
444.17	414.27
444.35	397.89
444.54	418.96
444.73	463.43
444.91	437.68
445.10	386.19
445.28	383.85
445.47	444.70
445.65	433.00
445.84	393.21
446.02	395.55
446.21	456.40
446.39	416.62
446.58	395.55
446.77	451.72
446.95	381.51
447.14	423.64
447.32	388.53
447.51	400.23
447.69	461.09
447.88	388.53
448.06	407.25
448.25	458.74
448.43	339.38
448.62	395.55
448.80	454.06
448.99	395.55
449.17	428.32
449.36	374.49
449.54	461.09
449.73	386.19
449.91	395.55
450.10	353.42
450.28	423.64
450.46	416.62
450.65	440.02
450.83	390.87
451.02	479.81
451.20	442.36
451.39	374.49
451.57	472.79
451.76	367.46
451.94	374.49
452.13	428.32
452.31	463.43
452.49	414.27
452.68	358.10
452.86	444.70
453.05	489.17
453.23	407.25
453.42	451.72
453.60	402.57
453.78	447.04
453.97	383.85
454.15	388.53
454.34	428.32
454.52	428.32
454.70	418.96
454.89	411.93
455.07	386.19
455.26	379.17
455.44	449.38
455.62	397.89
455.81	376.83
455.99	477.47
456.17	409.59
456.36	388.53
456.54	477.47
456.73	351.08
456.91	430.66
457.09	381.51
457.28	400.23
457.46	425.98
457.64	430.66
457.83	402.57
458.01	454.06
458.19	418.96
458.38	334.70
458.56	425.98
458.74	351.08
458.93	407.25
459.11	367.46
459.29	372.15
459.48	449.38
459.66	470.45
459.84	486.83
460.03	465.77
460.21	437.68
460.39	428.32
460.57	388.53
460.76	444.70
460.94	447.04
461.12	479.81
461.31	442.36
461.49	397.89
461.67	400.23
461.85	383.85
462.04	388.53
462.22	823.87
462.40	425.98
462.59	447.04
462.77	440.02
462.95	344.06
463.13	351.08
463.32	414.27
463.50	425.98
463.68	425.98
463.86	454.06
464.05	407.25
464.23	397.89
464.41	437.68
464.59	437.68
464.78	416.62
464.96	397.89
465.14	397.89
465.32	404.91
465.50	409.59
465.69	397.89
465.87	325.33
466.05	383.85
466.23	435.34
466.41	430.66
466.60	416.62
466.78	374.49
466.96	475.13
467.14	425.98
467.32	418.96
467.51	388.53
467.69	383.85
467.87	425.98
468.05	435.34
468.23	414.27
468.41	458.74
468.60	414.27
468.78	437.68
468.96	489.17
469.14	451.72
469.32	379.17
469.50	374.49
469.69	393.21
469.87	404.91
470.05	433.00
470.23	379.17
470.41	468.11
470.59	341.72
470.77	447.04
470.95	444.70
471.14	418.96
471.32	369.80
471.50	484.49
471.68	416.62
471.86	461.09
472.04	397.89
472.22	374.49
472.40	425.98
472.58	395.55
472.77	416.62
472.95	367.46
473.13	430.66
473.31	421.30
473.49	327.68
473.67	374.49
473.85	470.45
474.03	428.32
474.21	367.46
474.39	468.11
474.57	463.43
474.75	477.47
474.93	440.02
475.12	430.66
475.30	358.10
475.48	376.83
475.66	421.30
475.84	411.93
476.02	411.93
476.20	447.04
476.38	435.34
476.56	475.13
476.74	388.53
476.92	437.68
477.10	437.68
477.28	414.27
477.46	388.53
477.64	472.79
477.82	395.55
478.00	397.89
478.18	447.04
478.36	444.70
478.54	393.21
478.72	447.04
478.90	397.89
479.08	411.93
479.26	411.93
479.44	407.25
479.62	423.64
479.80	367.46
479.98	386.19
480.16	353.42
480.34	479.81
480.52	447.04
480.70	451.72
480.88	404.91
481.06	421.30
481.24	393.21
481.41	411.93
481.59	339.38
481.77	447.04
481.95	437.68
482.13	409.59
482.31	414.27
482.49	407.25
482.67	390.87
482.85	425.98
483.03	365.12
483.21	404.91
483.39	383.85
483.57	348.74
483.74	418.96
483.92	414.27
484.10	425.98
484.28	528.96
484.46	444.70
484.64	395.55
484.82	475.13
485.00	421.30
485.18	440.02
485.35	390.87
485.53	395.55
485.71	498.53
485.89	383.85
486.07	395.55
486.25	404.91
486.43	330.02
486.61	376.83
486.78	475.13
486.96	306.61
487.14	456.40
487.32	425.98
487.50	440.02
487.68	400.23
487.85	306.61
488.03	421.30
488.21	491.51
488.39	430.66
488.57	379.17
488.75	325.33
488.92	517.26
489.10	442.36
489.28	437.68
489.46	404.91
489.64	456.40
489.81	416.62
489.99	451.72
490.17	409.59
490.35	498.53
490.53	411.93
490.70	409.59
490.88	451.72
491.06	468.11
491.24	500.87
491.41	416.62
491.59	416.62
491.77	362.78
491.95	358.10
492.13	416.62
492.30	430.66
492.48	463.43
492.66	454.06
492.84	355.76
493.01	414.27
493.19	365.12
493.37	454.06
493.54	402.57
493.72	433.00
493.90	376.83
494.08	393.21
494.25	458.74
494.43	463.43
494.61	470.45
494.79	374.49
494.96	369.80
495.14	444.70
495.32	376.83
495.49	376.83
495.67	346.40
495.85	395.55
496.02	395.55
496.20	454.06
496.38	397.89
496.55	465.77
496.73	435.34
496.91	407.25
497.09	409.59
497.26	390.87
497.44	449.38
497.62	407.25
497.79	411.93
497.97	402.57
498.14	428.32
498.32	545.34
498.50	421.30
498.67	404.91
498.85	383.85
499.03	397.89
499.20	440.02
499.38	418.96
499.56	332.36
499.73	454.06
499.91	503.22
500.08	458.74
500.26	421.30
500.44	428.32
500.61	383.85
500.79	404.91
500.97	444.70
501.14	411.93
501.32	437.68
501.49	400.23
501.67	475.13
501.84	407.25
502.02	358.10
502.20	484.49
502.37	425.98
502.55	463.43
502.72	374.49
502.90	423.64
503.07	372.15
503.25	442.36
503.43	393.21
503.60	367.46
503.78	444.70
503.95	381.51
504.13	367.46
504.30	449.38
504.48	472.79
504.65	407.25
504.83	402.57
505.01	360.44
505.18	376.83
505.36	437.68
505.53	409.59
505.71	379.17
505.88	447.04
506.06	355.76
506.23	442.36
506.41	435.34
506.58	402.57
506.76	496.19
506.93	395.55
507.11	470.45
507.28	404.91
507.46	332.36
507.63	339.38
507.81	421.30
507.98	395.55
508.16	433.00
508.33	418.96
508.50	437.68
508.68	374.49
508.85	409.59
509.03	470.45
509.20	414.27
509.38	428.32
509.55	411.93
509.73	477.47
509.90	407.25
510.08	444.70
510.25	442.36
510.42	430.66
510.60	395.55
510.77	437.68
510.95	411.93
511.12	400.23
511.30	484.49
511.47	465.77
511.64	428.32
511.82	355.76
511.99	437.68
512.17	407.25
512.34	430.66
512.51	369.80
512.69	393.21
512.86	496.19
513.04	463.43
513.21	376.83
513.38	465.77
513.56	402.57
513.73	383.85
513.90	477.47
514.08	423.64
514.25	376.83
514.43	465.77
514.60	395.55
514.77	451.72
514.95	395.55
515.12	337.04
515.29	423.64
515.47	447.04
515.64	444.70
515.81	388.53
515.99	383.85
516.16	386.19
516.33	379.17
516.51	407.25
516.68	409.59
516.85	416.62
517.03	418.96
517.20	390.87
517.37	437.68
517.54	456.40
517.72	374.49
517.89	395.55
518.06	442.36
518.24	423.64
518.41	458.74
518.58	421.30
518.75	402.57
518.93	458.74
519.10	388.53
519.27	355.76
519.45	545.34
519.62	400.23
519.79	416.62
519.96	423.64
520.14	381.51
520.31	407.25
520.48	400.23
520.65	430.66
520.83	430.66
521.00	433.00
521.17	407.25
521.34	440.02
521.52	435.34
521.69	355.76
521.86	437.68
522.03	472.79
522.20	465.77
522.38	409.59
522.55	437.68
522.72	355.76
522.89	468.11
523.07	484.49
523.24	428.32
523.41	425.98
523.58	400.23
523.75	409.59
523.92	444.70
524.10	475.13
524.27	425.98
524.44	451.72
524.61	428.32
524.78	393.21
524.96	505.56
525.13	358.10
525.30	461.09
525.47	381.51
525.64	461.09
525.81	411.93
525.98	465.77
526.16	416.62
526.33	486.83
526.50	383.85
526.67	428.32
526.84	362.78
527.01	409.59
527.18	461.09
527.36	423.64
527.53	414.27
527.70	428.32
527.87	390.87
528.04	519.60
528.21	461.09
528.38	430.66
528.55	444.70
528.72	388.53
528.89	465.77
529.07	397.89
529.24	423.64
529.41	458.74
529.58	393.21
529.75	428.32
529.92	465.77
530.09	397.89
530.26	376.83
530.43	414.27
530.60	411.93
530.77	365.12
530.94	454.06
531.11	433.00
531.28	435.34
531.46	428.32
531.63	358.10
531.80	369.80
531.97	454.06
532.14	521.94
532.31	451.72
532.48	470.45
532.65	411.93
532.82	437.68
532.99	418.96
533.16	376.83
533.33	379.17
533.50	322.99
533.67	353.42
533.84	386.19
534.01	381.51
534.18	500.87
534.35	381.51
534.52	407.25
534.69	409.59
534.86	435.34
535.03	388.53
535.20	449.38
535.37	430.66
535.54	428.32
535.71	395.55
535.88	433.00
536.05	425.98
536.22	397.89
536.38	372.15
536.55	512.58
536.72	437.68
536.89	404.91
537.06	407.25
537.23	393.21
537.40	407.25
537.57	358.10
537.74	433.00
537.91	414.27
538.08	456.40
538.25	440.02
538.42	402.57
538.59	454.06
538.75	433.00
538.92	407.25
539.09	433.00
539.26	421.30
539.43	390.87
539.60	477.47
539.77	465.77
539.94	470.45
540.11	404.91
540.28	442.36
540.44	423.64
540.61	388.53
540.78	425.98
540.95	442.36
541.12	372.15
541.29	376.83
541.46	353.42
541.62	479.81
541.79	465.77
541.96	397.89
542.13	351.08
542.30	451.72
542.47	428.32
542.63	437.68
542.80	454.06
542.97	344.06
543.14	402.57
543.31	411.93
543.48	414.27
543.64	369.80
543.81	383.85
543.98	423.64
544.15	468.11
544.32	393.21
544.48	372.15
544.65	407.25
544.82	449.38
544.99	468.11
545.16	402.57
545.32	407.25
545.49	456.40
545.66	416.62
545.83	454.06
546.00	374.49
546.16	421.30
546.33	479.81
546.50	477.47
546.67	402.57
546.83	489.17
547.00	418.96
547.17	369.80
547.34	306.61
547.50	447.04
547.67	362.78
547.84	362.78
548.00	479.81
548.17	484.49
548.34	458.74
548.51	500.87
548.67	393.21
548.84	425.98
549.01	367.46
549.18	400.23
549.34	482.15
549.51	465.77
549.68	409.59
549.84	449.38
550.01	428.32
550.18	383.85
550.34	454.06
550.51	433.00
550.68	451.72
550.84	428.32
551.01	444.70
551.18	449.38
551.34	388.53
551.51	348.74
551.68	421.30
551.84	421.30
552.01	468.11
552.18	411.93
552.34	360.44
552.51	416.62
552.68	383.85
552.84	388.53
553.01	461.09
553.18	411.93
553.34	418.96
553.51	386.19
553.67	388.53
553.84	505.56
554.01	367.46
554.17	425.98
554.34	339.38
554.51	407.25
554.67	437.68
554.84	407.25
555.00	442.36
555.17	425.98
555.33	507.90
555.50	386.19
555.67	463.43
555.83	440.02
556.00	407.25
556.16	589.82
556.33	435.34
556.50	437.68
556.66	383.85
556.83	397.89
556.99	402.57
557.16	425.98
557.32	407.25
557.49	425.98
557.65	344.06
557.82	456.40
557.98	435.34
558.15	430.66
558.32	451.72
558.48	339.38
558.65	461.09
558.81	411.93
558.98	421.30
559.14	449.38
559.31	397.89
559.47	390.87
559.64	381.51
559.80	440.02
559.97	395.55
560.13	517.26
560.30	451.72
560.46	425.98
560.63	367.46
560.79	451.72
560.96	461.09
561.12	421.30
561.29	454.06
561.45	433.00
561.61	451.72
561.78	491.51
561.94	402.57
562.11	442.36
562.27	451.72
562.44	454.06
562.60	430.66
562.77	379.17
562.93	458.74
563.10	365.12
563.26	428.32
563.42	425.98
563.59	449.38
563.75	386.19
563.92	381.51
564.08	414.27
564.24	418.96
564.41	468.11
564.57	449.38
564.74	442.36
564.90	418.96
565.07	383.85
565.23	451.72
565.39	365.12
565.56	423.64
565.72	393.21
565.88	360.44
566.05	414.27
566.21	390.87
566.38	395.55
566.54	367.46
566.70	397.89
566.87	379.17
567.03	430.66
567.19	423.64
567.36	435.34
567.52	428.32
567.68	444.70
567.85	393.21
568.01	411.93
568.17	407.25
568.34	376.83
568.50	507.90
568.66	437.68
568.83	566.41
568.99	360.44
569.15	404.91
569.32	416.62
569.48	388.53
569.64	404.91
569.81	456.40
569.97	430.66
570.13	397.89
570.30	313.63
570.46	376.83
570.62	440.02
570.78	411.93
570.95	454.06
571.11	393.21
571.27	447.04
571.43	433.00
571.60	500.87
571.76	393.21
571.92	465.77
572.09	435.34
572.25	428.32
572.41	393.21
572.57	388.53
572.74	428.32
572.90	437.68
573.06	461.09
573.22	444.70
573.38	423.64
573.55	461.09
573.71	348.74
573.87	374.49
574.03	435.34
574.20	411.93
574.36	442.36
574.52	435.34
574.68	353.42
574.84	358.10
575.01	390.87
575.17	407.25
575.33	414.27
575.49	444.70
575.65	505.56
575.82	388.53
575.98	430.66
576.14	388.53
576.30	409.59
576.46	334.70
576.62	465.77
576.79	421.30
576.95	440.02
577.11	400.23
577.27	402.57
577.43	444.70
577.59	458.74
577.75	404.91
577.92	383.85
578.08	400.23
578.24	463.43
578.40	423.64
578.56	510.24
578.72	496.19
578.88	440.02
579.04	402.57
579.21	425.98
579.37	447.04
579.53	390.87
579.69	454.06
579.85	425.98
580.01	456.40
580.17	383.85
580.33	397.89
580.49	428.32
580.65	341.72
580.82	423.64
580.98	435.34
581.14	463.43
581.30	414.27
581.46	416.62
581.62	442.36
581.78	376.83
581.94	402.57
582.10	433.00
582.26	411.93
582.42	393.21
582.58	407.25
582.74	353.42
582.90	393.21
583.06	358.10
583.22	442.36
583.38	486.83
583.54	360.44
583.70	437.68
583.86	409.59
584.02	465.77
584.18	472.79
584.34	454.06
584.50	465.77
584.66	440.02
584.82	407.25
584.98	472.79
585.14	339.38
585.30	440.02
585.46	421.30
585.62	381.51
585.78	437.68
585.94	440.02
586.10	414.27
586.26	393.21
586.42	451.72
586.58	388.53
586.74	395.55
586.90	440.02
587.06	358.10
587.22	381.51
587.38	430.66
587.54	365.12
587.70	449.38
587.86	428.32
588.02	425.98
588.18	360.44
588.34	435.34
588.49	369.80
588.65	365.12
588.81	414.27
588.97	437.68
589.13	402.57
589.29	496.19
589.45	458.74
589.61	454.06
589.77	404.91
589.93	435.34
590.08	430.66
590.24	383.85
590.40	475.13
590.56	383.85
590.72	451.72
590.88	339.38
591.04	444.70
591.20	397.89
591.35	407.25
591.51	456.40
591.67	393.21
591.83	416.62
591.99	440.02
592.15	402.57
592.31	440.02
592.46	379.17
592.62	362.78
592.78	461.09
592.94	390.87
593.10	381.51
593.26	365.12
593.41	425.98
593.57	416.62
593.73	395.55
593.89	423.64
594.05	376.83
594.20	449.38
594.36	430.66
594.52	395.55
594.68	400.23
594.84	430.66
594.99	472.79
595.15	367.46
595.31	418.96
595.47	521.94
595.62	475.13
595.78	374.49
595.94	423.64
596.10	428.32
596.25	465.77
596.41	468.11
596.57	435.34
596.73	409.59
596.88	437.68
597.04	390.87
597.20	425.98
597.36	414.27
597.51	358.10
597.67	444.70
597.83	433.00
597.99	475.13
598.14	444.70
598.30	397.89
598.46	444.70
598.61	440.02
598.77	337.04
598.93	435.34
599.09	407.25
599.24	409.59
599.40	437.68
599.56	409.59
599.71	454.06
599.87	388.53
600.03	430.66
600.18	388.53
600.34	397.89
600.50	379.17
600.65	393.21
600.81	374.49
600.97	341.72
601.12	390.87
601.28	465.77
601.44	409.59
601.59	409.59
601.75	379.17
601.91	409.59
602.06	437.68
602.22	456.40
602.37	390.87
602.53	458.74
602.69	416.62
602.84	421.30
603.00	409.59
603.16	411.93
603.31	428.32
603.47	421.30
603.62	330.02
603.78	430.66
603.94	367.46
604.09	416.62
604.25	451.72
604.40	395.55
604.56	381.51
604.71	325.33
604.87	444.70
605.03	433.00
605.18	423.64
605.34	442.36
605.49	442.36
605.65	395.55
605.80	421.30
605.96	449.38
606.12	416.62
606.27	465.77
606.43	372.15
606.58	428.32
606.74	339.38
606.89	404.91
607.05	423.64
607.20	421.30
607.36	416.62
607.51	393.21
607.67	500.87
607.82	407.25
607.98	437.68
608.13	400.23
608.29	393.21
608.44	435.34
608.60	407.25
608.75	489.17
608.91	416.62
609.06	416.62
609.22	414.27
609.37	393.21
609.53	348.74
609.68	451.72
609.84	463.43
609.99	393.21
610.15	428.32
