SpectraSuite Data File
++++++++++++++++++++++++++++++++++++
Date: Fri Oct 25 12:10:16 EDT 2013
User: price-jones
Dark Spectrum Present: No
Reference Spectrum Present: No
Number of Sampled Component Spectra: 1
Spectrometers: USB2+H05261
Integration Time (usec): 100000 (USB2+H05261)
Spectra Averaged: 1 (USB2+H05261)
Boxcar Smoothing: 0 (USB2+H05261)
Correct for Electrical Dark: No (USB2+H05261)
Strobe/Lamp Enabled: No (USB2+H05261)
Correct for Detector Non-linearity: No (USB2+H05261)
Correct for Stray Light: No (USB2+H05261)
Number of Pixels in Processed Spectrum: 2048
>>>>>Begin Processed Spectral Data<<<<<
365.73	358.10
365.92	358.10
366.12	358.10
366.32	304.27
366.52	280.86
366.72	245.76
366.91	257.46
367.11	238.73
367.31	168.52
367.51	236.39
367.70	262.14
367.90	346.40
368.10	205.97
368.30	266.82
368.49	332.36
368.69	332.36
368.89	262.14
369.09	243.42
369.28	287.89
369.48	257.46
369.68	283.20
369.87	250.44
370.07	315.97
370.27	360.44
370.47	353.42
370.66	388.53
370.86	292.57
371.06	365.12
371.25	369.80
371.45	327.68
371.65	440.02
371.84	388.53
372.04	407.25
372.24	353.42
372.44	367.46
372.63	353.42
372.83	402.57
373.03	400.23
373.22	337.04
373.42	407.25
373.62	444.70
373.81	390.87
374.01	496.19
374.21	440.02
374.40	407.25
374.60	348.74
374.79	416.62
374.99	397.89
375.19	383.85
375.38	482.15
375.58	437.68
375.78	440.02
375.97	374.49
376.17	430.66
376.37	421.30
376.56	414.27
376.76	365.12
376.95	430.66
377.15	440.02
377.35	404.91
377.54	456.40
377.74	362.78
377.93	416.62
378.13	381.51
378.33	397.89
378.52	372.15
378.72	381.51
378.91	465.77
379.11	486.83
379.31	402.57
379.50	423.64
379.70	388.53
379.89	362.78
380.09	449.38
380.28	425.98
380.48	437.68
380.68	444.70
380.87	386.19
381.07	372.15
381.26	379.17
381.46	374.49
381.65	444.70
381.85	390.87
382.04	369.80
382.24	421.30
382.43	404.91
382.63	409.59
382.83	353.42
383.02	449.38
383.22	397.89
383.41	374.49
383.61	360.44
383.80	379.17
384.00	449.38
384.19	404.91
384.39	344.06
384.58	374.49
384.78	409.59
384.97	376.83
385.17	320.65
385.36	411.93
385.56	390.87
385.75	379.17
385.95	421.30
386.14	463.43
386.34	367.46
386.53	367.46
386.72	444.70
386.92	425.98
387.11	440.02
387.31	482.15
387.50	376.83
387.70	447.04
387.89	397.89
388.09	421.30
388.28	330.02
388.48	325.33
388.67	421.30
388.86	374.49
389.06	376.83
389.25	437.68
389.45	327.68
389.64	369.80
389.84	390.87
390.03	486.83
390.22	423.64
390.42	416.62
390.61	351.08
390.81	388.53
391.00	393.21
391.19	433.00
391.39	416.62
391.58	348.74
391.78	418.96
391.97	456.40
392.16	409.59
392.36	435.34
392.55	456.40
392.75	444.70
392.94	397.89
393.13	388.53
393.33	372.15
393.52	425.98
393.71	353.42
393.91	423.64
394.10	383.85
394.29	409.59
394.49	308.95
394.68	402.57
394.88	442.36
395.07	402.57
395.26	425.98
395.46	442.36
395.65	414.27
395.84	395.55
396.04	463.43
396.23	388.53
396.42	374.49
396.62	409.59
396.81	435.34
397.00	372.15
397.19	355.76
397.39	367.46
397.58	458.74
397.77	430.66
397.97	388.53
398.16	351.08
398.35	376.83
398.55	416.62
398.74	353.42
398.93	484.49
399.12	433.00
399.32	421.30
399.51	409.59
399.70	418.96
399.90	451.72
400.09	461.09
400.28	477.47
400.47	470.45
400.67	404.91
400.86	372.15
401.05	428.32
401.24	428.32
401.44	407.25
401.63	428.32
401.82	475.13
402.01	425.98
402.21	372.15
402.40	411.93
402.59	425.98
402.78	351.08
402.97	437.68
403.17	355.76
403.36	458.74
403.55	425.98
403.74	376.83
403.93	386.19
404.13	388.53
404.32	454.06
404.51	325.33
404.70	367.46
404.89	425.98
405.09	451.72
405.28	376.83
405.47	379.17
405.66	353.42
405.85	454.06
406.05	437.68
406.24	362.78
406.43	454.06
406.62	454.06
406.81	486.83
407.00	482.15
407.20	461.09
407.39	379.17
407.58	407.25
407.77	374.49
407.96	472.79
408.15	360.44
408.34	430.66
408.54	440.02
408.73	470.45
408.92	449.38
409.11	437.68
409.30	407.25
409.49	433.00
409.68	353.42
409.87	416.62
410.07	341.72
410.26	393.21
410.45	341.72
410.64	423.64
410.83	449.38
411.02	301.93
411.21	393.21
411.40	498.53
411.59	425.98
411.78	463.43
411.98	393.21
412.17	332.36
412.36	386.19
412.55	376.83
412.74	395.55
412.93	461.09
413.12	458.74
413.31	484.49
413.50	411.93
413.69	360.44
413.88	407.25
414.07	376.83
414.26	411.93
414.45	440.02
414.64	404.91
414.83	400.23
415.02	358.10
415.22	472.79
415.41	418.96
415.60	395.55
415.79	454.06
415.98	416.62
416.17	416.62
416.36	393.21
416.55	386.19
416.74	454.06
416.93	411.93
417.12	397.89
417.31	416.62
417.50	416.62
417.69	442.36
417.88	475.13
418.07	313.63
418.26	353.42
418.45	393.21
418.64	395.55
418.83	421.30
419.02	440.02
419.21	447.04
419.39	461.09
419.58	404.91
419.77	475.13
419.96	402.57
420.15	425.98
420.34	442.36
420.53	376.83
420.72	449.38
420.91	433.00
421.10	339.38
421.29	383.85
421.48	428.32
421.67	416.62
421.86	407.25
422.05	493.85
422.24	395.55
422.43	456.40
422.61	369.80
422.80	393.21
422.99	433.00
423.18	339.38
423.37	409.59
423.56	386.19
423.75	451.72
423.94	367.46
424.13	395.55
424.32	367.46
424.50	365.12
424.69	395.55
424.88	411.93
425.07	477.47
425.26	358.10
425.45	381.51
425.64	383.85
425.83	414.27
426.01	404.91
426.20	447.04
426.39	390.87
426.58	355.76
426.77	393.21
426.96	430.66
427.15	425.98
427.33	400.23
427.52	372.15
427.71	409.59
427.90	407.25
428.09	339.38
428.28	425.98
428.46	458.74
428.65	517.26
428.84	454.06
429.03	376.83
429.22	388.53
429.40	395.55
429.59	440.02
429.78	437.68
429.97	365.12
430.16	404.91
430.34	390.87
430.53	353.42
430.72	409.59
430.91	428.32
431.10	411.93
431.28	433.00
431.47	400.23
431.66	428.32
431.85	463.43
432.03	442.36
432.22	526.62
432.41	409.59
432.60	435.34
432.79	444.70
432.97	358.10
433.16	369.80
433.35	411.93
433.54	409.59
433.72	437.68
433.91	390.87
434.10	435.34
434.28	421.30
434.47	416.62
434.66	393.21
434.85	348.74
435.03	369.80
435.22	411.93
435.41	442.36
435.59	465.77
435.78	411.93
435.97	390.87
436.16	472.79
436.34	383.85
436.53	444.70
436.72	442.36
436.90	421.30
437.09	425.98
437.28	416.62
437.46	486.83
437.65	409.59
437.84	418.96
438.02	491.51
438.21	423.64
438.40	454.06
438.58	386.19
438.77	395.55
438.96	407.25
439.14	365.12
439.33	381.51
439.52	334.70
439.70	477.47
439.89	383.85
440.08	407.25
440.26	423.64
440.45	372.15
440.63	411.93
440.82	404.91
441.01	386.19
441.19	465.77
441.38	376.83
441.57	369.80
441.75	449.38
441.94	435.34
442.12	397.89
442.31	386.19
442.50	416.62
442.68	404.91
442.87	348.74
443.05	388.53
443.24	428.32
443.43	479.81
443.61	437.68
443.80	428.32
443.98	430.66
444.17	404.91
444.35	393.21
444.54	351.08
444.73	411.93
444.91	397.89
445.10	341.72
445.28	414.27
445.47	407.25
445.65	367.46
445.84	409.59
446.02	449.38
446.21	383.85
446.39	388.53
446.58	470.45
446.77	372.15
446.95	430.66
447.14	397.89
447.32	416.62
447.51	393.21
447.69	496.19
447.88	425.98
448.06	463.43
448.25	397.89
448.43	409.59
448.62	379.17
448.80	395.55
448.99	407.25
449.17	393.21
449.36	388.53
449.54	479.81
449.73	393.21
449.91	454.06
450.10	433.00
450.28	470.45
450.46	414.27
450.65	414.27
450.83	423.64
451.02	339.38
451.20	444.70
451.39	400.23
451.57	416.62
451.76	400.23
451.94	430.66
452.13	407.25
452.31	383.85
452.49	496.19
452.68	400.23
452.86	430.66
453.05	458.74
453.23	468.11
453.42	386.19
453.60	388.53
453.78	400.23
453.97	444.70
454.15	418.96
454.34	425.98
454.52	451.72
454.70	468.11
454.89	472.79
455.07	404.91
455.26	381.51
455.44	493.85
455.62	393.21
455.81	402.57
455.99	437.68
456.17	437.68
456.36	433.00
456.54	346.40
456.73	407.25
456.91	461.09
457.09	442.36
457.28	365.12
457.46	400.23
457.64	400.23
457.83	348.74
458.01	428.32
458.19	400.23
458.38	416.62
458.56	358.10
458.74	400.23
458.93	423.64
459.11	407.25
459.29	461.09
459.48	411.93
459.66	456.40
459.84	409.59
460.03	498.53
460.21	402.57
460.39	421.30
460.57	498.53
460.76	414.27
460.94	425.98
461.12	447.04
461.31	346.40
461.49	390.87
461.67	360.44
461.85	409.59
462.04	416.62
462.22	856.64
462.40	505.56
462.59	395.55
462.77	322.99
462.95	421.30
463.13	416.62
463.32	390.87
463.50	430.66
463.68	397.89
463.86	447.04
464.05	472.79
464.23	437.68
464.41	367.46
464.59	374.49
464.78	351.08
464.96	407.25
465.14	435.34
465.32	339.38
465.50	400.23
465.69	430.66
465.87	442.36
466.05	411.93
466.23	407.25
466.41	344.06
466.60	400.23
466.78	433.00
466.96	402.57
467.14	433.00
467.32	425.98
467.51	482.15
467.69	379.17
467.87	456.40
468.05	411.93
468.23	367.46
468.41	428.32
468.60	381.51
468.78	437.68
468.96	463.43
469.14	390.87
469.32	400.23
469.50	386.19
469.69	409.59
469.87	463.43
470.05	369.80
470.23	475.13
470.41	418.96
470.59	362.78
470.77	414.27
470.95	418.96
471.14	402.57
471.32	451.72
471.50	428.32
471.68	409.59
471.86	376.83
472.04	381.51
472.22	416.62
472.40	367.46
472.58	365.12
472.77	468.11
472.95	442.36
473.13	461.09
473.31	486.83
473.49	362.78
473.67	482.15
473.85	397.89
474.03	479.81
474.21	402.57
474.39	472.79
474.57	416.62
474.75	444.70
474.93	433.00
475.12	360.44
475.30	430.66
475.48	475.13
475.66	358.10
475.84	435.34
476.02	379.17
476.20	458.74
476.38	372.15
476.56	470.45
476.74	327.68
476.92	348.74
477.10	365.12
477.28	458.74
477.46	423.64
477.64	430.66
477.82	428.32
478.00	425.98
478.18	437.68
478.36	390.87
478.54	425.98
478.72	404.91
478.90	407.25
479.08	355.76
479.26	411.93
479.44	376.83
479.62	383.85
479.80	393.21
479.98	404.91
480.16	376.83
480.34	414.27
480.52	360.44
480.70	430.66
480.88	423.64
481.06	409.59
481.24	374.49
481.41	407.25
481.59	442.36
481.77	395.55
481.95	512.58
482.13	510.24
482.31	430.66
482.49	447.04
482.67	454.06
482.85	456.40
483.03	435.34
483.21	376.83
483.39	381.51
483.57	367.46
483.74	400.23
483.92	491.51
484.10	381.51
484.28	442.36
484.46	390.87
484.64	353.42
484.82	388.53
485.00	423.64
485.18	383.85
485.35	402.57
485.53	428.32
485.71	393.21
485.89	395.55
486.07	430.66
486.25	470.45
486.43	409.59
486.61	416.62
486.78	435.34
486.96	433.00
487.14	477.47
487.32	409.59
487.50	435.34
487.68	386.19
487.85	397.89
488.03	397.89
488.21	461.09
488.39	416.62
488.57	554.71
488.75	442.36
488.92	512.58
489.10	479.81
489.28	491.51
489.46	400.23
489.64	414.27
489.81	421.30
489.99	369.80
490.17	397.89
490.35	470.45
490.53	465.77
490.70	367.46
490.88	379.17
491.06	461.09
491.24	470.45
491.41	444.70
491.59	465.77
491.77	372.15
491.95	330.02
492.13	402.57
492.30	477.47
492.48	440.02
492.66	421.30
492.84	346.40
493.01	484.49
493.19	388.53
493.37	465.77
493.54	444.70
493.72	388.53
493.90	372.15
494.08	456.40
494.25	393.21
494.43	493.85
494.61	351.08
494.79	369.80
494.96	395.55
495.14	430.66
495.32	421.30
495.49	444.70
495.67	423.64
495.85	388.53
496.02	423.64
496.20	477.47
496.38	409.59
496.55	388.53
496.73	435.34
496.91	397.89
497.09	449.38
497.26	383.85
497.44	421.30
497.62	346.40
497.79	418.96
497.97	475.13
498.14	482.15
498.32	409.59
498.50	379.17
498.67	346.40
498.85	397.89
499.03	383.85
499.20	351.08
499.38	388.53
499.56	400.23
499.73	477.47
499.91	463.43
500.08	435.34
500.26	484.49
500.44	374.49
500.61	440.02
500.79	404.91
500.97	458.74
501.14	451.72
501.32	367.46
501.49	444.70
501.67	414.27
501.84	470.45
502.02	435.34
502.20	461.09
502.37	449.38
502.55	402.57
502.72	463.43
502.90	454.06
503.07	440.02
503.25	351.08
503.43	369.80
503.60	376.83
503.78	465.77
503.95	386.19
504.13	425.98
504.30	390.87
504.48	397.89
504.65	472.79
504.83	374.49
505.01	388.53
505.18	390.87
505.36	353.42
505.53	463.43
505.71	440.02
505.88	383.85
506.06	470.45
506.23	437.68
506.41	472.79
506.58	484.49
506.76	416.62
506.93	393.21
507.11	461.09
507.28	435.34
507.46	418.96
507.63	479.81
507.81	397.89
507.98	400.23
508.16	404.91
508.33	379.17
508.50	418.96
508.68	425.98
508.85	449.38
509.03	449.38
509.20	404.91
509.38	482.15
509.55	458.74
509.73	444.70
509.90	454.06
510.08	383.85
510.25	442.36
510.42	397.89
510.60	418.96
510.77	458.74
510.95	484.49
511.12	430.66
511.30	428.32
511.47	489.17
511.64	447.04
511.82	418.96
511.99	482.15
512.17	421.30
512.34	400.23
512.51	428.32
512.69	491.51
512.86	447.04
513.04	470.45
513.21	395.55
513.38	386.19
513.56	461.09
513.73	433.00
513.90	339.38
514.08	437.68
514.25	411.93
514.43	360.44
514.60	397.89
514.77	418.96
514.95	461.09
515.12	440.02
515.29	397.89
515.47	362.78
515.64	395.55
515.81	430.66
515.99	482.15
516.16	386.19
516.33	423.64
516.51	376.83
516.68	440.02
516.85	428.32
517.03	433.00
517.20	409.59
517.37	409.59
517.54	435.34
517.72	456.40
517.89	360.44
518.06	411.93
518.24	465.77
518.41	433.00
518.58	381.51
518.75	320.65
518.93	416.62
519.10	414.27
519.27	447.04
519.45	425.98
519.62	425.98
519.79	430.66
519.96	372.15
520.14	423.64
520.31	421.30
520.48	433.00
520.65	416.62
520.83	421.30
521.00	479.81
521.17	442.36
521.34	416.62
521.52	337.04
521.69	414.27
521.86	407.25
522.03	461.09
522.20	456.40
522.38	430.66
522.55	414.27
522.72	421.30
522.89	477.47
523.07	425.98
523.24	465.77
523.41	414.27
523.58	339.38
523.75	369.80
523.92	444.70
524.10	458.74
524.27	440.02
524.44	407.25
524.61	334.70
524.78	430.66
524.96	475.13
525.13	386.19
525.30	425.98
525.47	479.81
525.64	517.26
525.81	433.00
525.98	433.00
526.16	510.24
526.33	411.93
526.50	418.96
526.67	386.19
526.84	458.74
527.01	372.15
527.18	489.17
527.36	475.13
527.53	386.19
527.70	400.23
527.87	418.96
528.04	498.53
528.21	402.57
528.38	400.23
528.55	449.38
528.72	475.13
528.89	451.72
529.07	458.74
529.24	407.25
529.41	479.81
529.58	374.49
529.75	404.91
529.92	416.62
530.09	423.64
530.26	369.80
530.43	404.91
530.60	395.55
530.77	442.36
530.94	414.27
531.11	383.85
531.28	404.91
531.46	379.17
531.63	461.09
531.80	454.06
531.97	458.74
532.14	400.23
532.31	402.57
532.48	470.45
532.65	491.51
532.82	409.59
532.99	400.23
533.16	465.77
533.33	461.09
533.50	440.02
533.67	435.34
533.84	390.87
534.01	458.74
534.18	414.27
534.35	402.57
534.52	447.04
534.69	374.49
534.86	369.80
535.03	402.57
535.20	454.06
535.37	470.45
535.54	400.23
535.71	418.96
535.88	447.04
536.05	435.34
536.22	348.74
536.38	402.57
536.55	458.74
536.72	383.85
536.89	372.15
537.06	365.12
537.23	379.17
537.40	353.42
537.57	409.59
537.74	477.47
537.91	454.06
538.08	484.49
538.25	374.49
538.42	418.96
538.59	479.81
538.75	418.96
538.92	376.83
539.09	449.38
539.26	369.80
539.43	425.98
539.60	404.91
539.77	414.27
539.94	444.70
540.11	421.30
540.28	449.38
540.44	425.98
540.61	489.17
540.78	386.19
540.95	397.89
541.12	442.36
541.29	407.25
541.46	472.79
541.62	421.30
541.79	411.93
541.96	433.00
542.13	484.49
542.30	435.34
542.47	444.70
542.63	416.62
542.80	395.55
542.97	390.87
543.14	423.64
543.31	414.27
543.48	482.15
543.64	442.36
543.81	423.64
543.98	418.96
544.15	395.55
544.32	418.96
544.48	440.02
544.65	397.89
544.82	456.40
544.99	416.62
545.16	407.25
545.32	367.46
545.49	425.98
545.66	374.49
545.83	411.93
546.00	386.19
546.16	433.00
546.33	409.59
546.50	423.64
546.67	411.93
546.83	339.38
547.00	435.34
547.17	397.89
547.34	409.59
547.50	386.19
547.67	447.04
547.84	456.40
548.00	360.44
548.17	353.42
548.34	435.34
548.51	407.25
548.67	442.36
548.84	470.45
549.01	465.77
549.18	402.57
549.34	407.25
549.51	477.47
549.68	444.70
549.84	437.68
550.01	416.62
550.18	454.06
550.34	425.98
550.51	351.08
550.68	486.83
550.84	395.55
551.01	386.19
551.18	404.91
551.34	395.55
551.51	470.45
551.68	430.66
551.84	397.89
552.01	393.21
552.18	404.91
552.34	383.85
552.51	451.72
552.68	430.66
552.84	444.70
553.01	428.32
553.18	482.15
553.34	442.36
553.51	376.83
553.67	479.81
553.84	514.92
554.01	461.09
554.17	348.74
554.34	402.57
554.51	468.11
554.67	458.74
554.84	444.70
555.00	372.15
555.17	416.62
555.33	486.83
555.50	379.17
555.67	451.72
555.83	444.70
556.00	449.38
556.16	580.45
556.33	388.53
556.50	416.62
556.66	414.27
556.83	409.59
556.99	367.46
557.16	355.76
557.32	433.00
557.49	421.30
557.65	451.72
557.82	386.19
557.98	379.17
558.15	418.96
558.32	437.68
558.48	416.62
558.65	409.59
558.81	360.44
558.98	383.85
559.14	416.62
559.31	418.96
559.47	447.04
559.64	386.19
559.80	411.93
559.97	346.40
560.13	388.53
560.30	425.98
560.46	407.25
560.63	470.45
560.79	440.02
560.96	433.00
561.12	362.78
561.29	435.34
561.45	376.83
561.61	425.98
561.78	442.36
561.94	454.06
562.11	376.83
562.27	404.91
562.44	416.62
562.60	437.68
562.77	407.25
562.93	468.11
563.10	447.04
563.26	383.85
563.42	430.66
563.59	416.62
563.75	402.57
563.92	442.36
564.08	407.25
564.24	451.72
564.41	470.45
564.57	379.17
564.74	369.80
564.90	358.10
565.07	369.80
565.23	416.62
565.39	388.53
565.56	386.19
565.72	381.51
565.88	402.57
566.05	425.98
566.21	416.62
566.38	374.49
566.54	454.06
566.70	334.70
566.87	390.87
567.03	433.00
567.19	477.47
567.36	479.81
567.52	414.27
567.68	397.89
567.85	437.68
568.01	418.96
568.17	437.68
568.34	421.30
568.50	451.72
568.66	374.49
568.83	425.98
568.99	430.66
569.15	468.11
569.32	444.70
569.48	337.04
569.64	447.04
569.81	376.83
569.97	442.36
570.13	381.51
570.30	351.08
570.46	388.53
570.62	425.98
570.78	425.98
570.95	404.91
571.11	470.45
571.27	505.56
571.43	376.83
571.60	362.78
571.76	409.59
571.92	461.09
572.09	421.30
572.25	386.19
572.41	411.93
572.57	447.04
572.74	416.62
572.90	414.27
573.06	437.68
573.22	393.21
573.38	423.64
573.55	425.98
573.71	470.45
573.87	470.45
574.03	409.59
574.20	416.62
574.36	482.15
574.52	440.02
574.68	348.74
574.84	409.59
575.01	355.76
575.17	468.11
575.33	444.70
575.49	454.06
575.65	440.02
575.82	416.62
575.98	400.23
576.14	440.02
576.30	418.96
576.46	435.34
576.62	423.64
576.79	353.42
576.95	491.51
577.11	411.93
577.27	440.02
577.43	465.77
577.59	447.04
577.75	402.57
577.92	425.98
578.08	390.87
578.24	358.10
578.40	395.55
578.56	465.77
578.72	484.49
578.88	407.25
579.04	421.30
579.21	433.00
579.37	433.00
579.53	461.09
579.69	444.70
579.85	444.70
580.01	475.13
580.17	442.36
580.33	428.32
580.49	458.74
580.65	437.68
580.82	404.91
580.98	477.47
581.14	393.21
581.30	430.66
581.46	421.30
581.62	418.96
581.78	390.87
581.94	386.19
582.10	393.21
582.26	362.78
582.42	456.40
582.58	367.46
582.74	395.55
582.90	477.47
583.06	409.59
583.22	430.66
583.38	390.87
583.54	411.93
583.70	411.93
583.86	400.23
584.02	414.27
584.18	454.06
584.34	416.62
584.50	491.51
584.66	404.91
584.82	479.81
584.98	463.43
585.14	402.57
585.30	449.38
585.46	449.38
585.62	376.83
585.78	409.59
585.94	397.89
586.10	428.32
586.26	411.93
586.42	486.83
586.58	372.15
586.74	400.23
586.90	442.36
587.06	341.72
587.22	402.57
587.38	362.78
587.54	372.15
587.70	440.02
587.86	423.64
588.02	381.51
588.18	451.72
588.34	407.25
588.49	475.13
588.65	411.93
588.81	395.55
588.97	348.74
589.13	400.23
589.29	425.98
589.45	402.57
589.61	388.53
589.77	451.72
589.93	372.15
590.08	390.87
590.24	409.59
590.40	430.66
590.56	372.15
590.72	400.23
590.88	463.43
591.04	440.02
591.20	416.62
591.35	428.32
591.51	388.53
591.67	444.70
591.83	358.10
591.99	409.59
592.15	344.06
592.31	454.06
592.46	379.17
592.62	461.09
592.78	407.25
592.94	451.72
593.10	390.87
593.26	388.53
593.41	500.87
593.57	414.27
593.73	423.64
593.89	430.66
594.05	393.21
594.20	433.00
594.36	409.59
594.52	418.96
594.68	397.89
594.84	461.09
594.99	433.00
595.15	404.91
595.31	353.42
595.47	465.77
595.62	451.72
595.78	451.72
595.94	416.62
596.10	376.83
596.25	395.55
596.41	428.32
596.57	397.89
596.73	472.79
596.88	456.40
597.04	472.79
597.20	397.89
597.36	477.47
597.51	404.91
597.67	451.72
597.83	397.89
597.99	374.49
598.14	456.40
598.30	486.83
598.46	400.23
598.61	465.77
598.77	400.23
598.93	395.55
599.09	458.74
599.24	404.91
599.40	433.00
599.56	416.62
599.71	383.85
599.87	416.62
600.03	393.21
600.18	418.96
600.34	433.00
600.50	433.00
600.65	444.70
600.81	449.38
600.97	440.02
601.12	409.59
601.28	409.59
601.44	477.47
601.59	493.85
601.75	461.09
601.91	435.34
602.06	489.17
602.22	472.79
602.37	407.25
602.53	397.89
602.69	379.17
602.84	376.83
603.00	409.59
603.16	435.34
603.31	454.06
603.47	449.38
603.62	465.77
603.78	440.02
603.94	404.91
604.09	414.27
604.25	407.25
604.40	360.44
604.56	433.00
604.71	435.34
604.87	440.02
605.03	451.72
605.18	407.25
605.34	493.85
605.49	442.36
605.65	299.59
605.80	390.87
605.96	416.62
606.12	482.15
606.27	411.93
606.43	414.27
606.58	433.00
606.74	395.55
606.89	468.11
607.05	454.06
607.20	381.51
607.36	491.51
607.51	404.91
607.67	461.09
607.82	414.27
607.98	421.30
608.13	442.36
608.29	477.47
608.44	411.93
608.60	430.66
608.75	430.66
608.91	484.49
609.06	400.23
609.22	447.04
609.37	411.93
609.53	409.59
609.68	425.98
609.84	425.98
609.99	433.00
610.15	400.23
