SpectraSuite Data File
++++++++++++++++++++++++++++++++++++
Date: Fri Oct 25 12:10:18 EDT 2013
User: price-jones
Dark Spectrum Present: No
Reference Spectrum Present: No
Number of Sampled Component Spectra: 1
Spectrometers: USB2+H05261
Integration Time (usec): 100000 (USB2+H05261)
Spectra Averaged: 1 (USB2+H05261)
Boxcar Smoothing: 0 (USB2+H05261)
Correct for Electrical Dark: No (USB2+H05261)
Strobe/Lamp Enabled: No (USB2+H05261)
Correct for Detector Non-linearity: No (USB2+H05261)
Correct for Stray Light: No (USB2+H05261)
Number of Pixels in Processed Spectrum: 2048
>>>>>Begin Processed Spectral Data<<<<<
365.73	297.25
365.92	297.25
366.12	297.25
366.32	257.46
366.52	355.76
366.72	210.65
366.91	215.33
367.11	152.13
367.31	238.73
367.51	283.20
367.70	168.52
367.90	184.90
368.10	266.82
368.30	175.54
368.49	259.80
368.69	273.84
368.89	276.18
369.09	280.86
369.28	334.70
369.48	205.97
369.68	241.08
369.87	273.84
370.07	287.89
370.27	360.44
370.47	285.55
370.66	294.91
370.86	334.70
371.06	369.80
371.25	397.89
371.45	386.19
371.65	407.25
371.84	325.33
372.04	365.12
372.24	433.00
372.44	458.74
372.63	440.02
372.83	351.08
373.03	362.78
373.22	376.83
373.42	468.11
373.62	372.15
373.81	519.60
374.01	477.47
374.21	472.79
374.40	404.91
374.60	449.38
374.79	395.55
374.99	461.09
375.19	386.19
375.38	407.25
375.58	390.87
375.78	428.32
375.97	416.62
376.17	475.13
376.37	374.49
376.56	393.21
376.76	418.96
376.95	395.55
377.15	416.62
377.35	393.21
377.54	386.19
377.74	416.62
377.93	355.76
378.13	442.36
378.33	360.44
378.52	409.59
378.72	428.32
378.91	433.00
379.11	418.96
379.31	346.40
379.50	407.25
379.70	416.62
379.89	440.02
380.09	423.64
380.28	397.89
380.48	353.42
380.68	397.89
380.87	428.32
381.07	456.40
381.26	447.04
381.46	402.57
381.65	430.66
381.85	437.68
382.04	381.51
382.24	393.21
382.43	400.23
382.63	404.91
382.83	367.46
383.02	444.70
383.22	404.91
383.41	337.04
383.61	423.64
383.80	442.36
384.00	334.70
384.19	404.91
384.39	444.70
384.58	355.76
384.78	440.02
384.97	388.53
385.17	374.49
385.36	421.30
385.56	442.36
385.75	362.78
385.95	472.79
386.14	395.55
386.34	362.78
386.53	470.45
386.72	386.19
386.92	383.85
387.11	486.83
387.31	421.30
387.50	418.96
387.70	318.31
387.89	397.89
388.09	355.76
388.28	332.36
388.48	400.23
388.67	411.93
388.86	418.96
389.06	425.98
389.25	440.02
389.45	386.19
389.64	449.38
389.84	447.04
390.03	414.27
390.22	444.70
390.42	463.43
390.61	442.36
390.81	454.06
391.00	449.38
391.19	449.38
391.39	400.23
391.58	411.93
391.78	425.98
391.97	444.70
392.16	388.53
392.36	444.70
392.55	479.81
392.75	442.36
392.94	379.17
393.13	418.96
393.33	407.25
393.52	400.23
393.71	423.64
393.91	355.76
394.10	362.78
394.29	374.49
394.49	407.25
394.68	449.38
394.88	411.93
395.07	362.78
395.26	383.85
395.46	440.02
395.65	411.93
395.84	362.78
396.04	524.28
396.23	383.85
396.42	379.17
396.62	388.53
396.81	381.51
397.00	367.46
397.19	386.19
397.39	402.57
397.58	449.38
397.77	393.21
397.97	411.93
398.16	435.34
398.35	362.78
398.55	470.45
398.74	421.30
398.93	402.57
399.12	374.49
399.32	395.55
399.51	365.12
399.70	308.95
399.90	456.40
400.09	379.17
400.28	362.78
400.47	414.27
400.67	374.49
400.86	369.80
401.05	411.93
401.24	416.62
401.44	313.63
401.63	409.59
401.82	425.98
402.01	423.64
402.21	381.51
402.40	418.96
402.59	351.08
402.78	330.02
402.97	416.62
403.17	365.12
403.36	428.32
403.55	444.70
403.74	404.91
403.93	332.36
404.13	383.85
404.32	341.72
404.51	381.51
404.70	404.91
404.89	390.87
405.09	388.53
405.28	411.93
405.47	332.36
405.66	477.47
405.85	383.85
406.05	308.95
406.24	407.25
406.43	386.19
406.62	358.10
406.81	524.28
407.00	421.30
407.20	428.32
407.39	358.10
407.58	430.66
407.77	421.30
407.96	428.32
408.15	367.46
408.34	456.40
408.54	388.53
408.73	407.25
408.92	365.12
409.11	390.87
409.30	423.64
409.49	337.04
409.68	440.02
409.87	395.55
410.07	477.47
410.26	437.68
410.45	379.17
410.64	358.10
410.83	402.57
411.02	414.27
411.21	322.99
411.40	437.68
411.59	407.25
411.78	463.43
411.98	416.62
412.17	437.68
412.36	381.51
412.55	435.34
412.74	400.23
412.93	496.19
413.12	386.19
413.31	447.04
413.50	355.76
413.69	458.74
413.88	365.12
414.07	409.59
414.26	404.91
414.45	390.87
414.64	341.72
414.83	454.06
415.02	346.40
415.22	470.45
415.41	468.11
415.60	411.93
415.79	383.85
415.98	400.23
416.17	416.62
416.36	440.02
416.55	383.85
416.74	423.64
416.93	388.53
417.12	381.51
417.31	381.51
417.50	404.91
417.69	423.64
417.88	407.25
418.07	344.06
418.26	381.51
418.45	395.55
418.64	404.91
418.83	447.04
419.02	369.80
419.21	447.04
419.39	430.66
419.58	435.34
419.77	355.76
419.96	351.08
420.15	435.34
420.34	423.64
420.53	447.04
420.72	463.43
420.91	472.79
421.10	430.66
421.29	407.25
421.48	425.98
421.67	411.93
421.86	369.80
422.05	451.72
422.24	400.23
422.43	337.04
422.61	339.38
422.80	442.36
422.99	423.64
423.18	341.72
423.37	402.57
423.56	437.68
423.75	407.25
423.94	383.85
424.13	421.30
424.32	411.93
424.50	409.59
424.69	423.64
424.88	428.32
425.07	404.91
425.26	369.80
425.45	477.47
425.64	362.78
425.83	393.21
426.01	433.00
426.20	430.66
426.39	407.25
426.58	355.76
426.77	500.87
426.96	461.09
427.15	442.36
427.33	374.49
427.52	393.21
427.71	381.51
427.90	423.64
428.09	404.91
428.28	400.23
428.46	362.78
428.65	463.43
428.84	423.64
429.03	472.79
429.22	433.00
429.40	360.44
429.59	428.32
429.78	496.19
429.97	397.89
430.16	416.62
430.34	421.30
430.53	372.15
430.72	332.36
430.91	414.27
431.10	379.17
431.28	404.91
431.47	395.55
431.66	475.13
431.85	409.59
432.03	383.85
432.22	456.40
432.41	435.34
432.60	454.06
432.79	491.51
432.97	400.23
433.16	449.38
433.35	393.21
433.54	393.21
433.72	458.74
433.91	421.30
434.10	404.91
434.28	428.32
434.47	409.59
434.66	418.96
434.85	390.87
435.03	379.17
435.22	425.98
435.41	461.09
435.59	430.66
435.78	367.46
435.97	484.49
436.16	458.74
436.34	390.87
436.53	451.72
436.72	465.77
436.90	376.83
437.09	397.89
437.28	402.57
437.46	362.78
437.65	404.91
437.84	395.55
438.02	510.24
438.21	423.64
438.40	402.57
438.58	365.12
438.77	362.78
438.96	418.96
439.14	374.49
439.33	351.08
439.52	358.10
439.70	381.51
439.89	351.08
440.08	484.49
440.26	407.25
440.45	421.30
440.63	470.45
440.82	465.77
441.01	423.64
441.19	379.17
441.38	311.29
441.57	315.97
441.75	440.02
441.94	477.47
442.12	486.83
442.31	430.66
442.50	491.51
442.68	430.66
442.87	397.89
443.05	435.34
443.24	381.51
443.43	402.57
443.61	486.83
443.80	433.00
443.98	395.55
444.17	358.10
444.35	461.09
444.54	397.89
444.73	463.43
444.91	409.59
445.10	444.70
445.28	449.38
445.47	461.09
445.65	428.32
445.84	407.25
446.02	400.23
446.21	404.91
446.39	489.17
446.58	463.43
446.77	472.79
446.95	397.89
447.14	454.06
447.32	437.68
447.51	411.93
447.69	393.21
447.88	484.49
448.06	486.83
448.25	409.59
448.43	407.25
448.62	400.23
448.80	411.93
448.99	416.62
449.17	346.40
449.36	372.15
449.54	351.08
449.73	416.62
449.91	414.27
450.10	442.36
450.28	465.77
450.46	442.36
450.65	383.85
450.83	390.87
451.02	414.27
451.20	362.78
451.39	411.93
451.57	440.02
451.76	404.91
451.94	376.83
452.13	344.06
452.31	407.25
452.49	486.83
452.68	397.89
452.86	397.89
453.05	414.27
453.23	423.64
453.42	393.21
453.60	423.64
453.78	402.57
453.97	402.57
454.15	404.91
454.34	397.89
454.52	407.25
454.70	411.93
454.89	465.77
455.07	416.62
455.26	447.04
455.44	390.87
455.62	407.25
455.81	444.70
455.99	493.85
456.17	435.34
456.36	308.95
456.54	425.98
456.73	414.27
456.91	430.66
457.09	411.93
457.28	414.27
457.46	386.19
457.64	484.49
457.83	444.70
458.01	435.34
458.19	470.45
458.38	386.19
458.56	423.64
458.74	442.36
458.93	425.98
459.11	367.46
459.29	428.32
459.48	355.76
459.66	402.57
459.84	421.30
460.03	512.58
460.21	390.87
460.39	423.64
460.57	458.74
460.76	411.93
460.94	367.46
461.12	395.55
461.31	489.17
461.49	404.91
461.67	358.10
461.85	430.66
462.04	358.10
462.22	723.23
462.40	477.47
462.59	458.74
462.77	355.76
462.95	397.89
463.13	484.49
463.32	489.17
463.50	374.49
463.68	482.15
463.86	421.30
464.05	397.89
464.23	463.43
464.41	428.32
464.59	369.80
464.78	409.59
464.96	404.91
465.14	397.89
465.32	397.89
465.50	362.78
465.69	414.27
465.87	397.89
466.05	425.98
466.23	355.76
466.41	421.30
466.60	404.91
466.78	498.53
466.96	425.98
467.14	425.98
467.32	484.49
467.51	423.64
467.69	430.66
467.87	416.62
468.05	404.91
468.23	402.57
468.41	421.30
468.60	423.64
468.78	461.09
468.96	484.49
469.14	393.21
469.32	407.25
469.50	418.96
469.69	416.62
469.87	418.96
470.05	449.38
470.23	334.70
470.41	414.27
470.59	353.42
470.77	367.46
470.95	395.55
471.14	447.04
471.32	442.36
471.50	444.70
471.68	425.98
471.86	421.30
472.04	376.83
472.22	367.46
472.40	428.32
472.58	322.99
472.77	472.79
472.95	397.89
473.13	482.15
473.31	400.23
473.49	456.40
473.67	414.27
473.85	454.06
474.03	358.10
474.21	379.17
474.39	425.98
474.57	397.89
474.75	444.70
474.93	390.87
475.12	358.10
475.30	400.23
475.48	430.66
475.66	332.36
475.84	454.06
476.02	386.19
476.20	409.59
476.38	440.02
476.56	425.98
476.74	365.12
476.92	351.08
477.10	407.25
477.28	458.74
477.46	430.66
477.64	423.64
477.82	425.98
478.00	418.96
478.18	423.64
478.36	348.74
478.54	397.89
478.72	418.96
478.90	416.62
479.08	400.23
479.26	390.87
479.44	395.55
479.62	341.72
479.80	411.93
479.98	404.91
480.16	372.15
480.34	468.11
480.52	472.79
480.70	423.64
480.88	416.62
481.06	351.08
481.24	404.91
481.41	411.93
481.59	437.68
481.77	447.04
481.95	393.21
482.13	390.87
482.31	402.57
482.49	416.62
482.67	475.13
482.85	442.36
483.03	421.30
483.21	425.98
483.39	337.04
483.57	355.76
483.74	463.43
483.92	348.74
484.10	411.93
484.28	468.11
484.46	463.43
484.64	423.64
484.82	411.93
485.00	463.43
485.18	477.47
485.35	423.64
485.53	433.00
485.71	418.96
485.89	339.38
486.07	442.36
486.25	465.77
486.43	430.66
486.61	470.45
486.78	388.53
486.96	416.62
487.14	353.42
487.32	402.57
487.50	393.21
487.68	346.40
487.85	390.87
488.03	425.98
488.21	374.49
488.39	362.78
488.57	447.04
488.75	358.10
488.92	514.92
489.10	388.53
489.28	489.17
489.46	437.68
489.64	428.32
489.81	379.17
489.99	414.27
490.17	353.42
490.35	498.53
490.53	472.79
490.70	353.42
490.88	372.15
491.06	315.97
491.24	435.34
491.41	390.87
491.59	411.93
491.77	402.57
491.95	400.23
492.13	390.87
492.30	411.93
492.48	411.93
492.66	421.30
492.84	400.23
493.01	390.87
493.19	416.62
493.37	458.74
493.54	407.25
493.72	393.21
493.90	407.25
494.08	344.06
494.25	458.74
494.43	433.00
494.61	440.02
494.79	404.91
494.96	386.19
495.14	489.17
495.32	440.02
495.49	423.64
495.67	397.89
495.85	428.32
496.02	379.17
496.20	421.30
496.38	425.98
496.55	355.76
496.73	433.00
496.91	386.19
497.09	447.04
497.26	381.51
497.44	458.74
497.62	404.91
497.79	447.04
497.97	374.49
498.14	397.89
498.32	451.72
498.50	489.17
498.67	456.40
498.85	351.08
499.03	430.66
499.20	421.30
499.38	367.46
499.56	330.02
499.73	458.74
499.91	402.57
500.08	402.57
500.26	475.13
500.44	423.64
500.61	379.17
500.79	444.70
500.97	393.21
501.14	379.17
501.32	411.93
501.49	447.04
501.67	430.66
501.84	369.80
502.02	393.21
502.20	379.17
502.37	421.30
502.55	437.68
502.72	449.38
502.90	360.44
503.07	393.21
503.25	365.12
503.43	334.70
503.60	416.62
503.78	358.10
503.95	362.78
504.13	402.57
504.30	423.64
504.48	449.38
504.65	397.89
504.83	435.34
505.01	390.87
505.18	397.89
505.36	393.21
505.53	365.12
505.71	390.87
505.88	472.79
506.06	482.15
506.23	372.15
506.41	447.04
506.58	416.62
506.76	411.93
506.93	362.78
507.11	376.83
507.28	435.34
507.46	463.43
507.63	470.45
507.81	365.12
507.98	447.04
508.16	362.78
508.33	416.62
508.50	423.64
508.68	379.17
508.85	360.44
509.03	416.62
509.20	407.25
509.38	414.27
509.55	409.59
509.73	454.06
509.90	463.43
510.08	425.98
510.25	519.60
510.42	372.15
510.60	383.85
510.77	388.53
510.95	463.43
511.12	433.00
511.30	423.64
511.47	472.79
511.64	411.93
511.82	430.66
511.99	393.21
512.17	393.21
512.34	449.38
512.51	374.49
512.69	292.57
512.86	479.81
513.04	402.57
513.21	369.80
513.38	365.12
513.56	369.80
513.73	379.17
513.90	386.19
514.08	409.59
514.25	440.02
514.43	421.30
514.60	351.08
514.77	390.87
514.95	383.85
515.12	458.74
515.29	418.96
515.47	381.51
515.64	416.62
515.81	362.78
515.99	383.85
516.16	397.89
516.33	463.43
516.51	360.44
516.68	423.64
516.85	496.19
517.03	423.64
517.20	397.89
517.37	383.85
517.54	337.04
517.72	355.76
517.89	372.15
518.06	402.57
518.24	475.13
518.41	430.66
518.58	409.59
518.75	372.15
518.93	414.27
519.10	493.85
519.27	411.93
519.45	479.81
519.62	407.25
519.79	367.46
519.96	407.25
520.14	404.91
520.31	430.66
520.48	461.09
520.65	482.15
520.83	510.24
521.00	407.25
521.17	454.06
521.34	407.25
521.52	404.91
521.69	404.91
521.86	414.27
522.03	465.77
522.20	496.19
522.38	367.46
522.55	421.30
522.72	411.93
522.89	477.47
523.07	465.77
523.24	433.00
523.41	395.55
523.58	425.98
523.75	442.36
523.92	397.89
524.10	369.80
524.27	428.32
524.44	397.89
524.61	379.17
524.78	411.93
524.96	383.85
525.13	404.91
525.30	449.38
525.47	386.19
525.64	397.89
525.81	376.83
525.98	435.34
526.16	498.53
526.33	423.64
526.50	421.30
526.67	351.08
526.84	411.93
527.01	365.12
527.18	358.10
527.36	461.09
527.53	416.62
527.70	362.78
527.87	390.87
528.04	507.90
528.21	454.06
528.38	376.83
528.55	360.44
528.72	423.64
528.89	397.89
529.07	390.87
529.24	411.93
529.41	421.30
529.58	421.30
529.75	395.55
529.92	468.11
530.09	369.80
530.26	442.36
530.43	425.98
530.60	440.02
530.77	440.02
530.94	430.66
531.11	407.25
531.28	400.23
531.46	416.62
531.63	360.44
531.80	418.96
531.97	435.34
532.14	456.40
532.31	454.06
532.48	425.98
532.65	449.38
532.82	484.49
532.99	374.49
533.16	390.87
533.33	444.70
533.50	418.96
533.67	425.98
533.84	447.04
534.01	414.27
534.18	423.64
534.35	353.42
534.52	421.30
534.69	491.51
534.86	414.27
535.03	395.55
535.20	400.23
535.37	425.98
535.54	404.91
535.71	465.77
535.88	411.93
536.05	390.87
536.22	386.19
536.38	491.51
536.55	386.19
536.72	423.64
536.89	454.06
537.06	451.72
537.23	463.43
537.40	435.34
537.57	393.21
537.74	468.11
537.91	449.38
538.08	397.89
538.25	411.93
538.42	404.91
538.59	468.11
538.75	418.96
538.92	416.62
539.09	390.87
539.26	409.59
539.43	388.53
539.60	372.15
539.77	428.32
539.94	423.64
540.11	433.00
540.28	458.74
540.44	425.98
540.61	416.62
540.78	369.80
540.95	395.55
541.12	500.87
541.29	395.55
541.46	458.74
541.62	381.51
541.79	416.62
541.96	402.57
542.13	447.04
542.30	425.98
542.47	421.30
542.63	411.93
542.80	418.96
542.97	456.40
543.14	458.74
543.31	404.91
543.48	360.44
543.64	430.66
543.81	404.91
543.98	365.12
544.15	475.13
544.32	421.30
544.48	475.13
544.65	421.30
544.82	411.93
544.99	339.38
545.16	444.70
545.32	456.40
545.49	407.25
545.66	454.06
545.83	414.27
546.00	397.89
546.16	409.59
546.33	430.66
546.50	365.12
546.67	425.98
546.83	440.02
547.00	433.00
547.17	386.19
547.34	393.21
547.50	404.91
547.67	416.62
547.84	433.00
548.00	416.62
548.17	390.87
548.34	348.74
548.51	411.93
548.67	447.04
548.84	425.98
549.01	386.19
549.18	430.66
549.34	440.02
549.51	477.47
549.68	400.23
549.84	461.09
550.01	404.91
550.18	442.36
550.34	477.47
550.51	418.96
550.68	442.36
550.84	456.40
551.01	437.68
551.18	503.22
551.34	430.66
551.51	346.40
551.68	468.11
551.84	456.40
552.01	351.08
552.18	402.57
552.34	500.87
552.51	458.74
552.68	416.62
552.84	435.34
553.01	449.38
553.18	411.93
553.34	430.66
553.51	381.51
553.67	409.59
553.84	535.98
554.01	449.38
554.17	433.00
554.34	409.59
554.51	397.89
554.67	456.40
554.84	430.66
555.00	421.30
555.17	372.15
555.33	421.30
555.50	358.10
555.67	435.34
555.83	449.38
556.00	430.66
556.16	524.28
556.33	411.93
556.50	407.25
556.66	470.45
556.83	374.49
556.99	435.34
557.16	444.70
557.32	397.89
557.49	423.64
557.65	407.25
557.82	423.64
557.98	383.85
558.15	367.46
558.32	395.55
558.48	433.00
558.65	468.11
558.81	360.44
558.98	414.27
559.14	425.98
559.31	395.55
559.47	407.25
559.64	390.87
559.80	423.64
559.97	390.87
560.13	454.06
560.30	395.55
560.46	423.64
560.63	411.93
560.79	404.91
560.96	402.57
561.12	414.27
561.29	425.98
561.45	390.87
561.61	489.17
561.78	503.22
561.94	402.57
562.11	440.02
562.27	411.93
562.44	397.89
562.60	301.93
562.77	358.10
562.93	458.74
563.10	449.38
563.26	486.83
563.42	484.49
563.59	484.49
563.75	447.04
563.92	407.25
564.08	444.70
564.24	430.66
564.41	425.98
564.57	423.64
564.74	435.34
564.90	444.70
565.07	423.64
565.23	386.19
565.39	353.42
565.56	442.36
565.72	404.91
565.88	404.91
566.05	407.25
566.21	465.77
566.38	395.55
566.54	425.98
566.70	395.55
566.87	386.19
567.03	444.70
567.19	402.57
567.36	465.77
567.52	358.10
567.68	411.93
567.85	402.57
568.01	409.59
568.17	421.30
568.34	418.96
568.50	386.19
568.66	411.93
568.83	503.22
568.99	411.93
569.15	489.17
569.32	411.93
569.48	416.62
569.64	437.68
569.81	372.15
569.97	468.11
570.13	430.66
570.30	395.55
570.46	425.98
570.62	475.13
570.78	428.32
570.95	379.17
571.11	437.68
571.27	535.98
571.43	430.66
571.60	388.53
571.76	409.59
571.92	423.64
572.09	351.08
572.25	358.10
572.41	388.53
572.57	351.08
572.74	435.34
572.90	395.55
573.06	461.09
573.22	416.62
573.38	479.81
573.55	411.93
573.71	451.72
573.87	346.40
574.03	421.30
574.20	463.43
574.36	454.06
574.52	395.55
574.68	414.27
574.84	402.57
575.01	393.21
575.17	393.21
575.33	442.36
575.49	409.59
575.65	465.77
575.82	449.38
575.98	423.64
576.14	332.36
576.30	395.55
576.46	393.21
576.62	416.62
576.79	414.27
576.95	493.85
577.11	367.46
577.27	433.00
577.43	423.64
577.59	416.62
577.75	454.06
577.92	388.53
578.08	411.93
578.24	437.68
578.40	400.23
578.56	526.62
578.72	491.51
578.88	430.66
579.04	451.72
579.21	475.13
579.37	388.53
579.53	451.72
579.69	390.87
579.85	358.10
580.01	414.27
580.17	418.96
580.33	433.00
580.49	355.76
580.65	442.36
580.82	372.15
580.98	428.32
581.14	379.17
581.30	430.66
581.46	409.59
581.62	498.53
581.78	407.25
581.94	461.09
582.10	407.25
582.26	411.93
582.42	346.40
582.58	421.30
582.74	444.70
582.90	418.96
583.06	444.70
583.22	374.49
583.38	425.98
583.54	390.87
583.70	437.68
583.86	442.36
584.02	430.66
584.18	388.53
584.34	428.32
584.50	456.40
584.66	407.25
584.82	374.49
584.98	311.29
585.14	367.46
585.30	383.85
585.46	465.77
585.62	397.89
585.78	395.55
585.94	376.83
586.10	395.55
586.26	421.30
586.42	442.36
586.58	421.30
586.74	433.00
586.90	449.38
587.06	407.25
587.22	498.53
587.38	390.87
587.54	409.59
587.70	470.45
587.86	404.91
588.02	447.04
588.18	372.15
588.34	423.64
588.49	463.43
588.65	451.72
588.81	346.40
588.97	376.83
589.13	440.02
589.29	388.53
589.45	456.40
589.61	351.08
589.77	521.94
589.93	411.93
590.08	365.12
590.24	454.06
590.40	407.25
590.56	442.36
590.72	360.44
590.88	409.59
591.04	442.36
591.20	402.57
591.35	428.32
591.51	362.78
591.67	400.23
591.83	404.91
591.99	416.62
592.15	458.74
592.31	465.77
592.46	479.81
592.62	437.68
592.78	440.02
592.94	346.40
593.10	383.85
593.26	395.55
593.41	416.62
593.57	425.98
593.73	472.79
593.89	489.17
594.05	454.06
594.20	374.49
594.36	468.11
594.52	440.02
594.68	400.23
594.84	428.32
594.99	465.77
595.15	437.68
595.31	381.51
595.47	423.64
595.62	437.68
595.78	421.30
595.94	430.66
596.10	390.87
596.25	461.09
596.41	489.17
596.57	360.44
596.73	421.30
596.88	407.25
597.04	376.83
597.20	475.13
597.36	402.57
597.51	428.32
597.67	358.10
597.83	351.08
597.99	390.87
598.14	374.49
598.30	393.21
598.46	465.77
598.61	507.90
598.77	472.79
598.93	418.96
599.09	397.89
599.24	386.19
599.40	463.43
599.56	322.99
599.71	414.27
599.87	409.59
600.03	449.38
600.18	463.43
600.34	428.32
600.50	379.17
600.65	383.85
600.81	383.85
600.97	442.36
601.12	463.43
601.28	435.34
601.44	409.59
601.59	418.96
601.75	411.93
601.91	449.38
602.06	393.21
602.22	461.09
602.37	421.30
602.53	461.09
602.69	393.21
602.84	381.51
603.00	351.08
603.16	402.57
603.31	435.34
603.47	409.59
603.62	379.17
603.78	444.70
603.94	433.00
604.09	397.89
604.25	440.02
604.40	400.23
604.56	423.64
604.71	411.93
604.87	383.85
605.03	376.83
605.18	404.91
605.34	449.38
605.49	465.77
605.65	404.91
605.80	423.64
605.96	400.23
606.12	472.79
606.27	526.62
606.43	383.85
606.58	461.09
606.74	379.17
606.89	451.72
607.05	505.56
607.20	325.33
607.36	400.23
607.51	458.74
607.67	393.21
607.82	407.25
607.98	514.92
608.13	416.62
608.29	402.57
608.44	456.40
608.60	407.25
608.75	463.43
608.91	418.96
609.06	456.40
609.22	404.91
609.37	444.70
609.53	430.66
609.68	428.32
609.84	376.83
609.99	425.98
610.15	528.96
