SpectraSuite Data File
++++++++++++++++++++++++++++++++++++
Date: Fri Oct 25 12:11:20 EDT 2013
User: price-jones
Dark Spectrum Present: No
Reference Spectrum Present: No
Number of Sampled Component Spectra: 1
Spectrometers: USB2+H05261
Integration Time (usec): 100000 (USB2+H05261)
Spectra Averaged: 1 (USB2+H05261)
Boxcar Smoothing: 0 (USB2+H05261)
Correct for Electrical Dark: No (USB2+H05261)
Strobe/Lamp Enabled: No (USB2+H05261)
Correct for Detector Non-linearity: No (USB2+H05261)
Correct for Stray Light: No (USB2+H05261)
Number of Pixels in Processed Spectrum: 2048
>>>>>Begin Processed Spectral Data<<<<<
365.73	334.70
365.92	334.70
366.12	334.70
366.32	224.69
366.52	273.84
366.72	257.46
366.91	269.16
367.11	177.88
367.31	234.05
367.51	278.52
367.70	248.10
367.90	346.40
368.10	241.08
368.30	177.88
368.49	259.80
368.69	243.42
368.89	248.10
369.09	229.37
369.28	325.33
369.48	243.42
369.68	337.04
369.87	341.72
370.07	351.08
370.27	353.42
370.47	362.78
370.66	308.95
370.86	367.46
371.06	402.57
371.25	444.70
371.45	362.78
371.65	351.08
371.84	337.04
372.04	280.86
372.24	353.42
372.44	423.64
372.63	442.36
372.83	447.04
373.03	360.44
373.22	362.78
373.42	355.76
373.62	411.93
373.81	503.22
374.01	447.04
374.21	423.64
374.40	414.27
374.60	435.34
374.79	489.17
374.99	507.90
375.19	379.17
375.38	376.83
375.58	376.83
375.78	440.02
375.97	454.06
376.17	465.77
376.37	393.21
376.56	423.64
376.76	397.89
376.95	409.59
377.15	411.93
377.35	355.76
377.54	456.40
377.74	344.06
377.93	390.87
378.13	390.87
378.33	409.59
378.52	409.59
378.72	397.89
378.91	409.59
379.11	407.25
379.31	390.87
379.50	362.78
379.70	451.72
379.89	383.85
380.09	383.85
380.28	376.83
380.48	397.89
380.68	393.21
380.87	390.87
381.07	395.55
381.26	435.34
381.46	418.96
381.65	376.83
381.85	421.30
382.04	430.66
382.24	442.36
382.43	416.62
382.63	386.19
382.83	395.55
383.02	435.34
383.22	433.00
383.41	402.57
383.61	393.21
383.80	447.04
384.00	348.74
384.19	437.68
384.39	425.98
384.58	339.38
384.78	390.87
384.97	362.78
385.17	353.42
385.36	407.25
385.56	402.57
385.75	496.19
385.95	404.91
386.14	411.93
386.34	383.85
386.53	442.36
386.72	348.74
386.92	444.70
387.11	407.25
387.31	388.53
387.50	423.64
387.70	372.15
387.89	409.59
388.09	358.10
388.28	393.21
388.48	337.04
388.67	402.57
388.86	337.04
389.06	367.46
389.25	423.64
389.45	409.59
389.64	416.62
389.84	418.96
390.03	416.62
390.22	344.06
390.42	409.59
390.61	348.74
390.81	351.08
391.00	404.91
391.19	437.68
391.39	454.06
391.58	379.17
391.78	402.57
391.97	397.89
392.16	388.53
392.36	376.83
392.55	346.40
392.75	374.49
392.94	381.51
393.13	383.85
393.33	425.98
393.52	472.79
393.71	395.55
393.91	409.59
394.10	463.43
394.29	355.76
394.49	388.53
394.68	440.02
394.88	444.70
395.07	484.49
395.26	393.21
395.46	447.04
395.65	433.00
395.84	430.66
396.04	430.66
396.23	397.89
396.42	463.43
396.62	421.30
396.81	360.44
397.00	353.42
397.19	433.00
397.39	404.91
397.58	393.21
397.77	346.40
397.97	421.30
398.16	376.83
398.35	411.93
398.55	369.80
398.74	402.57
398.93	407.25
399.12	362.78
399.32	425.98
399.51	393.21
399.70	414.27
399.90	458.74
400.09	411.93
400.28	470.45
400.47	416.62
400.67	486.83
400.86	416.62
401.05	428.32
401.24	442.36
401.44	353.42
401.63	355.76
401.82	447.04
402.01	433.00
402.21	435.34
402.40	468.11
402.59	397.89
402.78	433.00
402.97	435.34
403.17	372.15
403.36	397.89
403.55	360.44
403.74	393.21
403.93	388.53
404.13	425.98
404.32	362.78
404.51	423.64
404.70	482.15
404.89	404.91
405.09	470.45
405.28	402.57
405.47	402.57
405.66	388.53
405.85	358.10
406.05	418.96
406.24	372.15
406.43	454.06
406.62	484.49
406.81	484.49
407.00	411.93
407.20	451.72
407.39	397.89
407.58	351.08
407.77	442.36
407.96	404.91
408.15	416.62
408.34	409.59
408.54	437.68
408.73	395.55
408.92	414.27
409.11	444.70
409.30	395.55
409.49	367.46
409.68	339.38
409.87	397.89
410.07	362.78
410.26	404.91
410.45	433.00
410.64	468.11
410.83	407.25
411.02	360.44
411.21	435.34
411.40	433.00
411.59	421.30
411.78	404.91
411.98	374.49
412.17	449.38
412.36	402.57
412.55	430.66
412.74	374.49
412.93	409.59
413.12	507.90
413.31	440.02
413.50	360.44
413.69	454.06
413.88	372.15
414.07	407.25
414.26	444.70
414.45	390.87
414.64	372.15
414.83	395.55
415.02	430.66
415.22	507.90
415.41	386.19
415.60	367.46
415.79	423.64
415.98	449.38
416.17	435.34
416.36	454.06
416.55	374.49
416.74	402.57
416.93	390.87
417.12	351.08
417.31	351.08
417.50	402.57
417.69	449.38
417.88	421.30
418.07	400.23
418.26	425.98
418.45	388.53
418.64	428.32
418.83	404.91
419.02	407.25
419.21	451.72
419.39	461.09
419.58	351.08
419.77	404.91
419.96	390.87
420.15	479.81
420.34	400.23
420.53	463.43
420.72	421.30
420.91	423.64
421.10	407.25
421.29	400.23
421.48	418.96
421.67	428.32
421.86	395.55
422.05	339.38
422.24	374.49
422.43	425.98
422.61	374.49
422.80	390.87
422.99	470.45
423.18	379.17
423.37	423.64
423.56	454.06
423.75	339.38
423.94	327.68
424.13	433.00
424.32	358.10
424.50	395.55
424.69	379.17
424.88	458.74
425.07	428.32
425.26	414.27
425.45	393.21
425.64	320.65
425.83	341.72
426.01	435.34
426.20	369.80
426.39	369.80
426.58	482.15
426.77	437.68
426.96	390.87
427.15	381.51
427.33	437.68
427.52	458.74
427.71	425.98
427.90	418.96
428.09	381.51
428.28	400.23
428.46	421.30
428.65	365.12
428.84	470.45
429.03	451.72
429.22	402.57
429.40	416.62
429.59	507.90
429.78	437.68
429.97	411.93
430.16	440.02
430.34	484.49
430.53	404.91
430.72	339.38
430.91	404.91
431.10	367.46
431.28	400.23
431.47	428.32
431.66	435.34
431.85	461.09
432.03	383.85
432.22	482.15
432.41	400.23
432.60	505.56
432.79	404.91
432.97	383.85
433.16	433.00
433.35	463.43
433.54	395.55
433.72	489.17
433.91	425.98
434.10	397.89
434.28	447.04
434.47	433.00
434.66	353.42
434.85	409.59
435.03	454.06
435.22	428.32
435.41	477.47
435.59	416.62
435.78	451.72
435.97	397.89
436.16	390.87
436.34	393.21
436.53	498.53
436.72	379.17
436.90	400.23
437.09	489.17
437.28	395.55
437.46	407.25
437.65	428.32
437.84	428.32
438.02	346.40
438.21	433.00
438.40	388.53
438.58	379.17
438.77	425.98
438.96	435.34
439.14	404.91
439.33	346.40
439.52	440.02
439.70	388.53
439.89	423.64
440.08	425.98
440.26	468.11
440.45	433.00
440.63	367.46
440.82	472.79
441.01	470.45
441.19	435.34
441.38	437.68
441.57	362.78
441.75	407.25
441.94	360.44
442.12	444.70
442.31	451.72
442.50	454.06
442.68	414.27
442.87	390.87
443.05	454.06
443.24	433.00
443.43	449.38
443.61	386.19
443.80	442.36
443.98	491.51
444.17	512.58
444.35	477.47
444.54	381.51
444.73	376.83
444.91	365.12
445.10	360.44
445.28	444.70
445.47	374.49
445.65	451.72
445.84	430.66
446.02	451.72
446.21	379.17
446.39	470.45
446.58	463.43
446.77	383.85
446.95	447.04
447.14	444.70
447.32	477.47
447.51	444.70
447.69	463.43
447.88	407.25
448.06	510.24
448.25	372.15
448.43	444.70
448.62	421.30
448.80	411.93
448.99	421.30
449.17	423.64
449.36	379.17
449.54	425.98
449.73	430.66
449.91	477.47
450.10	411.93
450.28	418.96
450.46	479.81
450.65	442.36
450.83	440.02
451.02	437.68
451.20	369.80
451.39	425.98
451.57	388.53
451.76	395.55
451.94	458.74
452.13	442.36
452.31	355.76
452.49	402.57
452.68	386.19
452.86	456.40
453.05	470.45
453.23	346.40
453.42	395.55
453.60	425.98
453.78	440.02
453.97	440.02
454.15	500.87
454.34	409.59
454.52	409.59
454.70	386.19
454.89	496.19
455.07	433.00
455.26	428.32
455.44	402.57
455.62	372.15
455.81	414.27
455.99	395.55
456.17	463.43
456.36	400.23
456.54	451.72
456.73	411.93
456.91	475.13
457.09	425.98
457.28	369.80
457.46	430.66
457.64	418.96
457.83	470.45
458.01	411.93
458.19	390.87
458.38	397.89
458.56	404.91
458.74	388.53
458.93	386.19
459.11	444.70
459.29	458.74
459.48	430.66
459.66	477.47
459.84	407.25
460.03	472.79
460.21	414.27
460.39	428.32
460.57	484.49
460.76	379.17
460.94	416.62
461.12	468.11
461.31	390.87
461.49	376.83
461.67	411.93
461.85	425.98
462.04	379.17
462.22	807.48
462.40	395.55
462.59	423.64
462.77	395.55
462.95	447.04
463.13	435.34
463.32	416.62
463.50	367.46
463.68	383.85
463.86	397.89
464.05	400.23
464.23	425.98
464.41	465.77
464.59	449.38
464.78	433.00
464.96	400.23
465.14	454.06
465.32	330.02
465.50	454.06
465.69	463.43
465.87	435.34
466.05	416.62
466.23	376.83
466.41	428.32
466.60	397.89
466.78	425.98
466.96	451.72
467.14	365.12
467.32	484.49
467.51	496.19
467.69	435.34
467.87	454.06
468.05	374.49
468.23	444.70
468.41	447.04
468.60	433.00
468.78	440.02
468.96	402.57
469.14	423.64
469.32	388.53
469.50	416.62
469.69	428.32
469.87	416.62
470.05	393.21
470.23	440.02
470.41	376.83
470.59	461.09
470.77	421.30
470.95	409.59
471.14	447.04
471.32	388.53
471.50	477.47
471.68	456.40
471.86	355.76
472.04	397.89
472.22	404.91
472.40	381.51
472.58	428.32
472.77	358.10
472.95	414.27
473.13	475.13
473.31	437.68
473.49	442.36
473.67	393.21
473.85	421.30
474.03	414.27
474.21	411.93
474.39	444.70
474.57	402.57
474.75	379.17
474.93	411.93
475.12	390.87
475.30	404.91
475.48	346.40
475.66	416.62
475.84	433.00
476.02	437.68
476.20	407.25
476.38	297.25
476.56	458.74
476.74	397.89
476.92	402.57
477.10	430.66
477.28	416.62
477.46	416.62
477.64	414.27
477.82	444.70
478.00	409.59
478.18	404.91
478.36	390.87
478.54	451.72
478.72	372.15
478.90	383.85
479.08	404.91
479.26	496.19
479.44	386.19
479.62	404.91
479.80	369.80
479.98	330.02
480.16	456.40
480.34	374.49
480.52	414.27
480.70	425.98
480.88	461.09
481.06	433.00
481.24	404.91
481.41	393.21
481.59	433.00
481.77	447.04
481.95	397.89
482.13	409.59
482.31	404.91
482.49	365.12
482.67	402.57
482.85	416.62
483.03	418.96
483.21	416.62
483.39	472.79
483.57	411.93
483.74	414.27
483.92	444.70
484.10	416.62
484.28	395.55
484.46	470.45
484.64	402.57
484.82	369.80
485.00	379.17
485.18	411.93
485.35	463.43
485.53	477.47
485.71	430.66
485.89	402.57
486.07	411.93
486.25	465.77
486.43	458.74
486.61	430.66
486.78	468.11
486.96	440.02
487.14	463.43
487.32	351.08
487.50	407.25
487.68	517.26
487.85	465.77
488.03	479.81
488.21	369.80
488.39	461.09
488.57	334.70
488.75	444.70
488.92	538.32
489.10	400.23
489.28	332.36
489.46	484.49
489.64	535.98
489.81	472.79
489.99	468.11
490.17	411.93
490.35	411.93
490.53	435.34
490.70	402.57
490.88	463.43
491.06	388.53
491.24	531.30
491.41	390.87
491.59	390.87
491.77	395.55
491.95	376.83
492.13	428.32
492.30	451.72
492.48	425.98
492.66	395.55
492.84	386.19
493.01	430.66
493.19	397.89
493.37	386.19
493.54	428.32
493.72	433.00
493.90	411.93
494.08	358.10
494.25	414.27
494.43	411.93
494.61	411.93
494.79	353.42
494.96	386.19
495.14	351.08
495.32	475.13
495.49	454.06
495.67	376.83
495.85	428.32
496.02	409.59
496.20	458.74
496.38	437.68
496.55	465.77
496.73	437.68
496.91	367.46
497.09	383.85
497.26	468.11
497.44	386.19
497.62	360.44
497.79	447.04
497.97	472.79
498.14	444.70
498.32	421.30
498.50	409.59
498.67	402.57
498.85	344.06
499.03	374.49
499.20	416.62
499.38	374.49
499.56	409.59
499.73	454.06
499.91	425.98
500.08	463.43
500.26	411.93
500.44	379.17
500.61	407.25
500.79	313.63
500.97	486.83
501.14	468.11
501.32	493.85
501.49	496.19
501.67	365.12
501.84	433.00
502.02	411.93
502.20	379.17
502.37	486.83
502.55	451.72
502.72	395.55
502.90	395.55
503.07	414.27
503.25	348.74
503.43	414.27
503.60	409.59
503.78	374.49
503.95	386.19
504.13	376.83
504.30	381.51
504.48	372.15
504.65	407.25
504.83	353.42
505.01	444.70
505.18	470.45
505.36	402.57
505.53	404.91
505.71	358.10
505.88	458.74
506.06	397.89
506.23	414.27
506.41	421.30
506.58	390.87
506.76	421.30
506.93	379.17
507.11	337.04
507.28	404.91
507.46	425.98
507.63	416.62
507.81	353.42
507.98	433.00
508.16	397.89
508.33	416.62
508.50	435.34
508.68	369.80
508.85	400.23
509.03	346.40
509.20	409.59
509.38	435.34
509.55	454.06
509.73	416.62
509.90	454.06
510.08	397.89
510.25	472.79
510.42	402.57
510.60	407.25
510.77	414.27
510.95	454.06
511.12	470.45
511.30	388.53
511.47	411.93
511.64	418.96
511.82	376.83
511.99	479.81
512.17	456.40
512.34	358.10
512.51	421.30
512.69	400.23
512.86	442.36
513.04	404.91
513.21	400.23
513.38	400.23
513.56	454.06
513.73	407.25
513.90	451.72
514.08	451.72
514.25	433.00
514.43	430.66
514.60	383.85
514.77	465.77
514.95	437.68
515.12	423.64
515.29	435.34
515.47	442.36
515.64	400.23
515.81	428.32
515.99	383.85
516.16	444.70
516.33	451.72
516.51	346.40
516.68	423.64
516.85	395.55
517.03	386.19
517.20	461.09
517.37	456.40
517.54	468.11
517.72	463.43
517.89	393.21
518.06	388.53
518.24	449.38
518.41	475.13
518.58	440.02
518.75	390.87
518.93	369.80
519.10	433.00
519.27	367.46
519.45	409.59
519.62	395.55
519.79	404.91
519.96	390.87
520.14	416.62
520.31	449.38
520.48	416.62
520.65	428.32
520.83	454.06
521.00	449.38
521.17	435.34
521.34	395.55
521.52	463.43
521.69	402.57
521.86	456.40
522.03	421.30
522.20	425.98
522.38	470.45
522.55	440.02
522.72	463.43
522.89	507.90
523.07	444.70
523.24	411.93
523.41	362.78
523.58	388.53
523.75	449.38
523.92	407.25
524.10	418.96
524.27	463.43
524.44	456.40
524.61	451.72
524.78	425.98
524.96	372.15
525.13	397.89
525.30	444.70
525.47	351.08
525.64	374.49
525.81	355.76
525.98	447.04
526.16	409.59
526.33	393.21
526.50	386.19
526.67	337.04
526.84	425.98
527.01	390.87
527.18	379.17
527.36	386.19
527.53	421.30
527.70	411.93
527.87	437.68
528.04	449.38
528.21	381.51
528.38	433.00
528.55	463.43
528.72	496.19
528.89	404.91
529.07	402.57
529.24	390.87
529.41	416.62
529.58	435.34
529.75	423.64
529.92	367.46
530.09	379.17
530.26	442.36
530.43	416.62
530.60	381.51
530.77	379.17
530.94	425.98
531.11	447.04
531.28	458.74
531.46	346.40
531.63	437.68
531.80	482.15
531.97	381.51
532.14	425.98
532.31	414.27
532.48	428.32
532.65	475.13
532.82	393.21
532.99	327.68
533.16	416.62
533.33	414.27
533.50	395.55
533.67	423.64
533.84	437.68
534.01	388.53
534.18	440.02
534.35	395.55
534.52	423.64
534.69	454.06
534.86	468.11
535.03	423.64
535.20	430.66
535.37	465.77
535.54	414.27
535.71	454.06
535.88	451.72
536.05	454.06
536.22	376.83
536.38	409.59
536.55	409.59
536.72	512.58
536.89	393.21
537.06	416.62
537.23	355.76
537.40	416.62
537.57	379.17
537.74	465.77
537.91	491.51
538.08	376.83
538.25	360.44
538.42	404.91
538.59	442.36
538.75	388.53
538.92	402.57
539.09	425.98
539.26	416.62
539.43	498.53
539.60	390.87
539.77	407.25
539.94	444.70
540.11	362.78
540.28	423.64
540.44	442.36
540.61	414.27
540.78	440.02
540.95	353.42
541.12	461.09
541.29	386.19
541.46	383.85
541.62	409.59
541.79	397.89
541.96	388.53
542.13	416.62
542.30	444.70
542.47	454.06
542.63	444.70
542.80	442.36
542.97	479.81
543.14	402.57
543.31	423.64
543.48	390.87
543.64	381.51
543.81	463.43
543.98	383.85
544.15	348.74
544.32	435.34
544.48	388.53
544.65	362.78
544.82	383.85
544.99	346.40
545.16	465.77
545.32	383.85
545.49	376.83
545.66	341.72
545.83	393.21
546.00	402.57
546.16	388.53
546.33	388.53
546.50	486.83
546.67	475.13
546.83	388.53
547.00	290.23
547.17	463.43
547.34	449.38
547.50	451.72
547.67	383.85
547.84	369.80
548.00	383.85
548.17	383.85
548.34	379.17
548.51	411.93
548.67	362.78
548.84	402.57
549.01	416.62
549.18	433.00
549.34	402.57
549.51	423.64
549.68	414.27
549.84	433.00
550.01	402.57
550.18	521.94
550.34	489.17
550.51	440.02
550.68	416.62
550.84	416.62
551.01	397.89
551.18	428.32
551.34	418.96
551.51	388.53
551.68	463.43
551.84	454.06
552.01	411.93
552.18	390.87
552.34	456.40
552.51	421.30
552.68	458.74
552.84	454.06
553.01	433.00
553.18	395.55
553.34	491.51
553.51	416.62
553.67	383.85
553.84	470.45
554.01	465.77
554.17	395.55
554.34	402.57
554.51	423.64
554.67	411.93
554.84	421.30
555.00	428.32
555.17	465.77
555.33	458.74
555.50	402.57
555.67	425.98
555.83	379.17
556.00	374.49
556.16	571.09
556.33	428.32
556.50	447.04
556.66	444.70
556.83	451.72
556.99	437.68
557.16	458.74
557.32	423.64
557.49	355.76
557.65	458.74
557.82	393.21
557.98	451.72
558.15	395.55
558.32	379.17
558.48	409.59
558.65	477.47
558.81	440.02
558.98	428.32
559.14	437.68
559.31	447.04
559.47	486.83
559.64	430.66
559.80	437.68
559.97	379.17
560.13	418.96
560.30	425.98
560.46	454.06
560.63	337.04
560.79	437.68
560.96	433.00
561.12	411.93
561.29	435.34
561.45	444.70
561.61	400.23
561.78	458.74
561.94	500.87
562.11	365.12
562.27	407.25
562.44	510.24
562.60	461.09
562.77	437.68
562.93	489.17
563.10	470.45
563.26	404.91
563.42	386.19
563.59	414.27
563.75	493.85
563.92	447.04
564.08	451.72
564.24	479.81
564.41	433.00
564.57	409.59
564.74	367.46
564.90	461.09
565.07	365.12
565.23	470.45
565.39	383.85
565.56	477.47
565.72	369.80
565.88	440.02
566.05	442.36
566.21	390.87
566.38	425.98
566.54	468.11
566.70	358.10
566.87	500.87
567.03	407.25
567.19	461.09
567.36	351.08
567.52	402.57
567.68	500.87
567.85	447.04
568.01	423.64
568.17	458.74
568.34	365.12
568.50	477.47
568.66	472.79
568.83	470.45
568.99	425.98
569.15	444.70
569.32	376.83
569.48	458.74
569.64	428.32
569.81	449.38
569.97	400.23
570.13	454.06
570.30	458.74
570.46	440.02
570.62	423.64
570.78	360.44
570.95	418.96
571.11	409.59
571.27	451.72
571.43	411.93
571.60	519.60
571.76	463.43
571.92	430.66
572.09	418.96
572.25	442.36
572.41	411.93
572.57	461.09
572.74	421.30
572.90	409.59
573.06	418.96
573.22	376.83
573.38	456.40
573.55	470.45
573.71	395.55
573.87	379.17
574.03	353.42
574.20	393.21
574.36	433.00
574.52	479.81
574.68	367.46
574.84	372.15
575.01	411.93
575.17	428.32
575.33	442.36
575.49	451.72
575.65	489.17
575.82	456.40
575.98	503.22
576.14	449.38
576.30	433.00
576.46	418.96
576.62	421.30
576.79	409.59
576.95	449.38
577.11	454.06
577.27	407.25
577.43	442.36
577.59	435.34
577.75	449.38
577.92	395.55
578.08	425.98
578.24	430.66
578.40	440.02
578.56	493.85
578.72	414.27
578.88	486.83
579.04	433.00
579.21	449.38
579.37	402.57
579.53	486.83
579.69	444.70
579.85	362.78
580.01	458.74
580.17	358.10
580.33	362.78
580.49	461.09
580.65	482.15
580.82	465.77
580.98	393.21
581.14	400.23
581.30	470.45
581.46	337.04
581.62	442.36
581.78	351.08
581.94	418.96
582.10	374.49
582.26	346.40
582.42	451.72
582.58	437.68
582.74	383.85
582.90	433.00
583.06	442.36
583.22	379.17
583.38	287.89
583.54	451.72
583.70	468.11
583.86	388.53
584.02	409.59
584.18	414.27
584.34	477.47
584.50	449.38
584.66	400.23
584.82	486.83
584.98	416.62
585.14	477.47
585.30	463.43
585.46	423.64
585.62	411.93
585.78	428.32
585.94	451.72
586.10	482.15
586.26	383.85
586.42	435.34
586.58	468.11
586.74	465.77
586.90	461.09
587.06	461.09
587.22	381.51
587.38	365.12
587.54	379.17
587.70	369.80
587.86	451.72
588.02	390.87
588.18	440.02
588.34	435.34
588.49	423.64
588.65	451.72
588.81	404.91
588.97	379.17
589.13	440.02
589.29	454.06
589.45	479.81
589.61	458.74
589.77	447.04
589.93	402.57
590.08	372.15
590.24	451.72
590.40	433.00
590.56	456.40
590.72	442.36
590.88	423.64
591.04	425.98
591.20	411.93
591.35	472.79
591.51	444.70
591.67	449.38
591.83	390.87
591.99	507.90
592.15	442.36
592.31	449.38
592.46	386.19
592.62	376.83
592.78	402.57
592.94	414.27
593.10	454.06
593.26	379.17
593.41	444.70
593.57	472.79
593.73	365.12
593.89	400.23
594.05	404.91
594.20	395.55
594.36	423.64
594.52	379.17
594.68	390.87
594.84	503.22
594.99	386.19
595.15	477.47
595.31	428.32
595.47	418.96
595.62	404.91
595.78	507.90
595.94	404.91
596.10	395.55
596.25	390.87
596.41	517.26
596.57	416.62
596.73	421.30
596.88	440.02
597.04	454.06
597.20	465.77
597.36	470.45
597.51	463.43
597.67	463.43
597.83	395.55
597.99	456.40
598.14	442.36
598.30	484.49
598.46	454.06
598.61	390.87
598.77	440.02
598.93	344.06
599.09	468.11
599.24	400.23
599.40	475.13
599.56	414.27
599.71	444.70
599.87	386.19
600.03	395.55
600.18	390.87
600.34	477.47
600.50	404.91
600.65	400.23
600.81	395.55
600.97	454.06
601.12	414.27
601.28	376.83
601.44	376.83
601.59	421.30
601.75	402.57
601.91	442.36
602.06	440.02
602.22	409.59
602.37	416.62
602.53	440.02
602.69	411.93
602.84	404.91
603.00	346.40
603.16	414.27
603.31	383.85
603.47	444.70
603.62	496.19
603.78	477.47
603.94	416.62
604.09	383.85
604.25	430.66
604.40	430.66
604.56	418.96
604.71	409.59
604.87	402.57
605.03	395.55
605.18	428.32
605.34	414.27
605.49	435.34
605.65	397.89
605.80	404.91
605.96	449.38
606.12	442.36
606.27	447.04
606.43	444.70
606.58	402.57
606.74	393.21
606.89	386.19
607.05	425.98
607.20	411.93
607.36	435.34
607.51	458.74
607.67	362.78
607.82	449.38
607.98	449.38
608.13	454.06
608.29	526.62
608.44	433.00
608.60	421.30
608.75	463.43
608.91	397.89
609.06	479.81
609.22	381.51
609.37	388.53
609.53	440.02
609.68	423.64
609.84	409.59
609.99	360.44
610.15	421.30
