SpectraSuite Data File
++++++++++++++++++++++++++++++++++++
Date: Fri Oct 25 12:11:03 EDT 2013
User: price-jones
Dark Spectrum Present: No
Reference Spectrum Present: No
Number of Sampled Component Spectra: 1
Spectrometers: USB2+H05261
Integration Time (usec): 100000 (USB2+H05261)
Spectra Averaged: 1 (USB2+H05261)
Boxcar Smoothing: 0 (USB2+H05261)
Correct for Electrical Dark: No (USB2+H05261)
Strobe/Lamp Enabled: No (USB2+H05261)
Correct for Detector Non-linearity: No (USB2+H05261)
Correct for Stray Light: No (USB2+H05261)
Number of Pixels in Processed Spectrum: 2048
>>>>>Begin Processed Spectral Data<<<<<
365.73	369.80
365.92	369.80
366.12	369.80
366.32	250.44
366.52	257.46
366.72	290.23
366.91	231.71
367.11	250.44
367.31	227.03
367.51	264.48
367.70	217.67
367.90	320.65
368.10	259.80
368.30	182.56
368.49	194.26
368.69	229.37
368.89	259.80
369.09	236.39
369.28	217.67
369.48	266.82
369.68	280.86
369.87	308.95
370.07	322.99
370.27	365.12
370.47	339.38
370.66	311.29
370.86	311.29
371.06	332.36
371.25	353.42
371.45	362.78
371.65	339.38
371.84	297.25
372.04	308.95
372.24	407.25
372.44	404.91
372.63	383.85
372.83	531.30
373.03	381.51
373.22	421.30
373.42	430.66
373.62	425.98
373.81	430.66
374.01	468.11
374.21	409.59
374.40	482.15
374.60	402.57
374.79	440.02
374.99	374.49
375.19	383.85
375.38	423.64
375.58	437.68
375.78	337.04
375.97	367.46
376.17	407.25
376.37	449.38
376.56	404.91
376.76	393.21
376.95	416.62
377.15	449.38
377.35	428.32
377.54	451.72
377.74	369.80
377.93	344.06
378.13	421.30
378.33	435.34
378.52	386.19
378.72	390.87
378.91	423.64
379.11	332.36
379.31	421.30
379.50	341.72
379.70	449.38
379.89	433.00
380.09	386.19
380.28	362.78
380.48	393.21
380.68	376.83
380.87	397.89
381.07	430.66
381.26	458.74
381.46	346.40
381.65	465.77
381.85	353.42
382.04	472.79
382.24	411.93
382.43	407.25
382.63	447.04
382.83	395.55
383.02	400.23
383.22	444.70
383.41	337.04
383.61	376.83
383.80	395.55
384.00	437.68
384.19	383.85
384.39	395.55
384.58	386.19
384.78	418.96
384.97	402.57
385.17	437.68
385.36	449.38
385.56	496.19
385.75	362.78
385.95	440.02
386.14	472.79
386.34	383.85
386.53	414.27
386.72	411.93
386.92	418.96
387.11	484.49
387.31	496.19
387.50	411.93
387.70	322.99
387.89	400.23
388.09	400.23
388.28	418.96
388.48	428.32
388.67	461.09
388.86	346.40
389.06	470.45
389.25	400.23
389.45	351.08
389.64	358.10
389.84	369.80
390.03	414.27
390.22	355.76
390.42	383.85
390.61	381.51
390.81	433.00
391.00	423.64
391.19	388.53
391.39	430.66
391.58	454.06
391.78	433.00
391.97	435.34
392.16	372.15
392.36	437.68
392.55	482.15
392.75	404.91
392.94	442.36
393.13	440.02
393.33	423.64
393.52	472.79
393.71	365.12
393.91	416.62
394.10	428.32
394.29	395.55
394.49	397.89
394.68	435.34
394.88	440.02
395.07	468.11
395.26	393.21
395.46	395.55
395.65	430.66
395.84	388.53
396.04	489.17
396.23	510.24
396.42	400.23
396.62	402.57
396.81	428.32
397.00	374.49
397.19	472.79
397.39	454.06
397.58	440.02
397.77	397.89
397.97	449.38
398.16	458.74
398.35	390.87
398.55	400.23
398.74	365.12
398.93	449.38
399.12	402.57
399.32	430.66
399.51	330.02
399.70	433.00
399.90	442.36
400.09	486.83
400.28	414.27
400.47	369.80
400.67	402.57
400.86	416.62
401.05	365.12
401.24	386.19
401.44	383.85
401.63	402.57
401.82	409.59
402.01	454.06
402.21	381.51
402.40	430.66
402.59	351.08
402.78	400.23
402.97	465.77
403.17	498.53
403.36	390.87
403.55	348.74
403.74	435.34
403.93	437.68
404.13	358.10
404.32	423.64
404.51	407.25
404.70	430.66
404.89	376.83
405.09	397.89
405.28	461.09
405.47	423.64
405.66	388.53
405.85	400.23
406.05	435.34
406.24	423.64
406.43	346.40
406.62	376.83
406.81	458.74
407.00	454.06
407.20	409.59
407.39	400.23
407.58	376.83
407.77	376.83
407.96	409.59
408.15	383.85
408.34	395.55
408.54	423.64
408.73	505.56
408.92	456.40
409.11	379.17
409.30	386.19
409.49	447.04
409.68	351.08
409.87	416.62
410.07	409.59
410.26	367.46
410.45	428.32
410.64	400.23
410.83	430.66
411.02	411.93
411.21	388.53
411.40	416.62
411.59	472.79
411.78	402.57
411.98	465.77
412.17	327.68
412.36	400.23
412.55	400.23
412.74	433.00
412.93	475.13
413.12	348.74
413.31	379.17
413.50	383.85
413.69	433.00
413.88	409.59
414.07	393.21
414.26	425.98
414.45	362.78
414.64	388.53
414.83	475.13
415.02	454.06
415.22	435.34
415.41	344.06
415.60	334.70
415.79	465.77
415.98	369.80
416.17	386.19
416.36	428.32
416.55	360.44
416.74	369.80
416.93	393.21
417.12	430.66
417.31	374.49
417.50	411.93
417.69	442.36
417.88	425.98
418.07	362.78
418.26	386.19
418.45	414.27
418.64	472.79
418.83	458.74
419.02	496.19
419.21	397.89
419.39	428.32
419.58	383.85
419.77	416.62
419.96	404.91
420.15	461.09
420.34	416.62
420.53	383.85
420.72	362.78
420.91	402.57
421.10	425.98
421.29	475.13
421.48	388.53
421.67	388.53
421.86	348.74
422.05	367.46
422.24	355.76
422.43	390.87
422.61	395.55
422.80	414.27
422.99	418.96
423.18	390.87
423.37	421.30
423.56	358.10
423.75	454.06
423.94	449.38
424.13	348.74
424.32	351.08
424.50	344.06
424.69	365.12
424.88	442.36
425.07	414.27
425.26	433.00
425.45	332.36
425.64	383.85
425.83	374.49
426.01	451.72
426.20	437.68
426.39	355.76
426.58	421.30
426.77	444.70
426.96	491.51
427.15	444.70
427.33	458.74
427.52	388.53
427.71	383.85
427.90	449.38
428.09	411.93
428.28	442.36
428.46	468.11
428.65	404.91
428.84	395.55
429.03	395.55
429.22	402.57
429.40	482.15
429.59	353.42
429.78	390.87
429.97	435.34
430.16	367.46
430.34	428.32
430.53	447.04
430.72	381.51
430.91	463.43
431.10	383.85
431.28	388.53
431.47	428.32
431.66	458.74
431.85	376.83
432.03	409.59
432.22	440.02
432.41	482.15
432.60	414.27
432.79	395.55
432.97	421.30
433.16	414.27
433.35	358.10
433.54	395.55
433.72	449.38
433.91	423.64
434.10	423.64
434.28	383.85
434.47	423.64
434.66	393.21
434.85	344.06
435.03	404.91
435.22	451.72
435.41	440.02
435.59	430.66
435.78	407.25
435.97	355.76
436.16	428.32
436.34	430.66
436.53	493.85
436.72	433.00
436.90	423.64
437.09	379.17
437.28	344.06
437.46	362.78
437.65	428.32
437.84	437.68
438.02	437.68
438.21	423.64
438.40	337.04
438.58	421.30
438.77	400.23
438.96	409.59
439.14	411.93
439.33	451.72
439.52	402.57
439.70	381.51
439.89	440.02
440.08	411.93
440.26	416.62
440.45	451.72
440.63	425.98
440.82	418.96
441.01	428.32
441.19	461.09
441.38	428.32
441.57	320.65
441.75	456.40
441.94	362.78
442.12	414.27
442.31	404.91
442.50	386.19
442.68	428.32
442.87	395.55
443.05	435.34
443.24	472.79
443.43	444.70
443.61	409.59
443.80	404.91
443.98	444.70
444.17	425.98
444.35	418.96
444.54	334.70
444.73	341.72
444.91	470.45
445.10	411.93
445.28	435.34
445.47	421.30
445.65	393.21
445.84	484.49
446.02	411.93
446.21	407.25
446.39	379.17
446.58	407.25
446.77	461.09
446.95	355.76
447.14	397.89
447.32	454.06
447.51	360.44
447.69	444.70
447.88	463.43
448.06	409.59
448.25	465.77
448.43	355.76
448.62	411.93
448.80	381.51
448.99	381.51
449.17	327.68
449.36	388.53
449.54	451.72
449.73	393.21
449.91	449.38
450.10	442.36
450.28	451.72
450.46	379.17
450.65	397.89
450.83	479.81
451.02	484.49
451.20	404.91
451.39	409.59
451.57	374.49
451.76	418.96
451.94	486.83
452.13	449.38
452.31	423.64
452.49	479.81
452.68	454.06
452.86	418.96
453.05	507.90
453.23	428.32
453.42	416.62
453.60	390.87
453.78	482.15
453.97	388.53
454.15	376.83
454.34	376.83
454.52	365.12
454.70	484.49
454.89	381.51
455.07	337.04
455.26	353.42
455.44	482.15
455.62	414.27
455.81	456.40
455.99	430.66
456.17	411.93
456.36	454.06
456.54	397.89
456.73	423.64
456.91	423.64
457.09	437.68
457.28	367.46
457.46	421.30
457.64	393.21
457.83	386.19
458.01	393.21
458.19	440.02
458.38	367.46
458.56	461.09
458.74	351.08
458.93	418.96
459.11	421.30
459.29	360.44
459.48	386.19
459.66	428.32
459.84	411.93
460.03	404.91
460.21	461.09
460.39	425.98
460.57	409.59
460.76	430.66
460.94	395.55
461.12	484.49
461.31	390.87
461.49	451.72
461.67	379.17
461.85	374.49
462.04	381.51
462.22	784.08
462.40	409.59
462.59	449.38
462.77	472.79
462.95	346.40
463.13	416.62
463.32	423.64
463.50	365.12
463.68	372.15
463.86	390.87
464.05	444.70
464.23	468.11
464.41	376.83
464.59	447.04
464.78	372.15
464.96	360.44
465.14	411.93
465.32	395.55
465.50	409.59
465.69	404.91
465.87	346.40
466.05	463.43
466.23	414.27
466.41	388.53
466.60	393.21
466.78	423.64
466.96	337.04
467.14	433.00
467.32	461.09
467.51	451.72
467.69	407.25
467.87	407.25
468.05	440.02
468.23	486.83
468.41	425.98
468.60	351.08
468.78	425.98
468.96	433.00
469.14	374.49
469.32	358.10
469.50	381.51
469.69	369.80
469.87	472.79
470.05	484.49
470.23	465.77
470.41	409.59
470.59	341.72
470.77	402.57
470.95	400.23
471.14	381.51
471.32	397.89
471.50	477.47
471.68	404.91
471.86	444.70
472.04	381.51
472.22	355.76
472.40	390.87
472.58	425.98
472.77	418.96
472.95	308.95
473.13	451.72
473.31	451.72
473.49	360.44
473.67	318.31
473.85	400.23
474.03	397.89
474.21	414.27
474.39	409.59
474.57	442.36
474.75	402.57
474.93	416.62
475.12	381.51
475.30	390.87
475.48	390.87
475.66	367.46
475.84	414.27
476.02	358.10
476.20	442.36
476.38	400.23
476.56	451.72
476.74	458.74
476.92	416.62
477.10	390.87
477.28	454.06
477.46	393.21
477.64	458.74
477.82	365.12
478.00	423.64
478.18	404.91
478.36	491.51
478.54	428.32
478.72	416.62
478.90	402.57
479.08	407.25
479.26	451.72
479.44	449.38
479.62	400.23
479.80	409.59
479.98	437.68
480.16	390.87
480.34	454.06
480.52	395.55
480.70	376.83
480.88	437.68
481.06	409.59
481.24	374.49
481.41	351.08
481.59	428.32
481.77	367.46
481.95	411.93
482.13	454.06
482.31	395.55
482.49	369.80
482.67	449.38
482.85	409.59
483.03	372.15
483.21	379.17
483.39	442.36
483.57	386.19
483.74	503.22
483.92	393.21
484.10	418.96
484.28	433.00
484.46	489.17
484.64	369.80
484.82	437.68
485.00	411.93
485.18	400.23
485.35	482.15
485.53	334.70
485.71	440.02
485.89	437.68
486.07	330.02
486.25	449.38
486.43	435.34
486.61	404.91
486.78	423.64
486.96	465.77
487.14	341.72
487.32	451.72
487.50	397.89
487.68	421.30
487.85	383.85
488.03	416.62
488.21	421.30
488.39	454.06
488.57	456.40
488.75	393.21
488.92	507.90
489.10	400.23
489.28	372.15
489.46	461.09
489.64	425.98
489.81	393.21
489.99	407.25
490.17	407.25
490.35	486.83
490.53	383.85
490.70	418.96
490.88	425.98
491.06	358.10
491.24	454.06
491.41	454.06
491.59	404.91
491.77	390.87
491.95	379.17
492.13	470.45
492.30	402.57
492.48	318.31
492.66	404.91
492.84	409.59
493.01	442.36
493.19	358.10
493.37	519.60
493.54	465.77
493.72	484.49
493.90	416.62
494.08	409.59
494.25	416.62
494.43	435.34
494.61	489.17
494.79	440.02
494.96	365.12
495.14	496.19
495.32	423.64
495.49	379.17
495.67	484.49
495.85	425.98
496.02	418.96
496.20	440.02
496.38	456.40
496.55	491.51
496.73	428.32
496.91	425.98
497.09	482.15
497.26	404.91
497.44	430.66
497.62	393.21
497.79	414.27
497.97	472.79
498.14	435.34
498.32	421.30
498.50	416.62
498.67	409.59
498.85	416.62
499.03	470.45
499.20	463.43
499.38	322.99
499.56	416.62
499.73	463.43
499.91	409.59
500.08	428.32
500.26	369.80
500.44	388.53
500.61	468.11
500.79	475.13
500.97	451.72
501.14	484.49
501.32	458.74
501.49	435.34
501.67	461.09
501.84	470.45
502.02	437.68
502.20	468.11
502.37	461.09
502.55	397.89
502.72	482.15
502.90	444.70
503.07	388.53
503.25	407.25
503.43	433.00
503.60	395.55
503.78	418.96
503.95	416.62
504.13	407.25
504.30	440.02
504.48	383.85
504.65	421.30
504.83	435.34
505.01	372.15
505.18	461.09
505.36	470.45
505.53	433.00
505.71	390.87
505.88	437.68
506.06	404.91
506.23	341.72
506.41	479.81
506.58	449.38
506.76	374.49
506.93	463.43
507.11	393.21
507.28	442.36
507.46	327.68
507.63	397.89
507.81	423.64
507.98	479.81
508.16	414.27
508.33	346.40
508.50	400.23
508.68	552.37
508.85	390.87
509.03	397.89
509.20	430.66
509.38	479.81
509.55	425.98
509.73	442.36
509.90	465.77
510.08	463.43
510.25	444.70
510.42	435.34
510.60	416.62
510.77	458.74
510.95	482.15
511.12	379.17
511.30	397.89
511.47	418.96
511.64	454.06
511.82	402.57
511.99	421.30
512.17	400.23
512.34	351.08
512.51	416.62
512.69	425.98
512.86	409.59
513.04	376.83
513.21	369.80
513.38	414.27
513.56	407.25
513.73	430.66
513.90	404.91
514.08	376.83
514.25	400.23
514.43	430.66
514.60	400.23
514.77	367.46
514.95	428.32
515.12	379.17
515.29	456.40
515.47	456.40
515.64	374.49
515.81	362.78
515.99	425.98
516.16	498.53
516.33	440.02
516.51	475.13
516.68	442.36
516.85	404.91
517.03	416.62
517.20	388.53
517.37	402.57
517.54	430.66
517.72	416.62
517.89	428.32
518.06	383.85
518.24	442.36
518.41	477.47
518.58	400.23
518.75	395.55
518.93	454.06
519.10	440.02
519.27	360.44
519.45	416.62
519.62	383.85
519.79	456.40
519.96	381.51
520.14	390.87
520.31	461.09
520.48	456.40
520.65	325.33
520.83	472.79
521.00	402.57
521.17	472.79
521.34	458.74
521.52	423.64
521.69	449.38
521.86	477.47
522.03	444.70
522.20	397.89
522.38	451.72
522.55	428.32
522.72	470.45
522.89	491.51
523.07	475.13
523.24	346.40
523.41	308.95
523.58	465.77
523.75	376.83
523.92	430.66
524.10	407.25
524.27	379.17
524.44	425.98
524.61	414.27
524.78	386.19
524.96	472.79
525.13	360.44
525.30	421.30
525.47	430.66
525.64	470.45
525.81	428.32
525.98	463.43
526.16	388.53
526.33	463.43
526.50	358.10
526.67	395.55
526.84	362.78
527.01	404.91
527.18	409.59
527.36	444.70
527.53	383.85
527.70	416.62
527.87	498.53
528.04	526.62
528.21	411.93
528.38	383.85
528.55	465.77
528.72	421.30
528.89	409.59
529.07	367.46
529.24	449.38
529.41	400.23
529.58	379.17
529.75	407.25
529.92	425.98
530.09	421.30
530.26	430.66
530.43	472.79
530.60	374.49
530.77	423.64
530.94	416.62
531.11	442.36
531.28	351.08
531.46	461.09
531.63	388.53
531.80	404.91
531.97	470.45
532.14	482.15
532.31	320.65
532.48	437.68
532.65	407.25
532.82	435.34
532.99	407.25
533.16	433.00
533.33	355.76
533.50	421.30
533.67	451.72
533.84	437.68
534.01	351.08
534.18	470.45
534.35	465.77
534.52	435.34
534.69	428.32
534.86	461.09
535.03	416.62
535.20	447.04
535.37	423.64
535.54	400.23
535.71	416.62
535.88	447.04
536.05	442.36
536.22	388.53
536.38	437.68
536.55	437.68
536.72	428.32
536.89	374.49
537.06	395.55
537.23	369.80
537.40	447.04
537.57	358.10
537.74	444.70
537.91	437.68
538.08	472.79
538.25	402.57
538.42	425.98
538.59	351.08
538.75	414.27
538.92	388.53
539.09	433.00
539.26	369.80
539.43	388.53
539.60	418.96
539.77	428.32
539.94	425.98
540.11	465.77
540.28	390.87
540.44	437.68
540.61	435.34
540.78	416.62
540.95	428.32
541.12	423.64
541.29	374.49
541.46	489.17
541.62	407.25
541.79	442.36
541.96	421.30
542.13	437.68
542.30	383.85
542.47	433.00
542.63	425.98
542.80	449.38
542.97	440.02
543.14	407.25
543.31	411.93
543.48	437.68
543.64	458.74
543.81	416.62
543.98	409.59
544.15	395.55
544.32	386.19
544.48	442.36
544.65	447.04
544.82	379.17
544.99	414.27
545.16	435.34
545.32	447.04
545.49	348.74
545.66	411.93
545.83	458.74
546.00	390.87
546.16	346.40
546.33	454.06
546.50	437.68
546.67	379.17
546.83	447.04
547.00	381.51
547.17	388.53
547.34	454.06
547.50	407.25
547.67	409.59
547.84	451.72
548.00	414.27
548.17	407.25
548.34	409.59
548.51	472.79
548.67	400.23
548.84	404.91
549.01	447.04
549.18	507.90
549.34	404.91
549.51	411.93
549.68	365.12
549.84	463.43
550.01	379.17
550.18	461.09
550.34	449.38
550.51	423.64
550.68	451.72
550.84	411.93
551.01	381.51
551.18	388.53
551.34	444.70
551.51	416.62
551.68	454.06
551.84	449.38
552.01	327.68
552.18	421.30
552.34	444.70
552.51	437.68
552.68	461.09
552.84	390.87
553.01	465.77
553.18	451.72
553.34	425.98
553.51	362.78
553.67	470.45
553.84	503.22
554.01	414.27
554.17	374.49
554.34	449.38
554.51	430.66
554.67	470.45
554.84	367.46
555.00	428.32
555.17	369.80
555.33	402.57
555.50	388.53
555.67	470.45
555.83	479.81
556.00	416.62
556.16	566.41
556.33	447.04
556.50	416.62
556.66	449.38
556.83	353.42
556.99	369.80
557.16	437.68
557.32	397.89
557.49	402.57
557.65	374.49
557.82	421.30
557.98	402.57
558.15	423.64
558.32	486.83
558.48	433.00
558.65	440.02
558.81	484.49
558.98	421.30
559.14	535.98
559.31	428.32
559.47	470.45
559.64	414.27
559.80	461.09
559.97	418.96
560.13	470.45
560.30	400.23
560.46	358.10
560.63	386.19
560.79	416.62
560.96	374.49
561.12	477.47
561.29	409.59
561.45	430.66
561.61	337.04
561.78	433.00
561.94	428.32
562.11	362.78
562.27	470.45
562.44	320.65
562.60	414.27
562.77	358.10
562.93	468.11
563.10	386.19
563.26	381.51
563.42	498.53
563.59	414.27
563.75	402.57
563.92	395.55
564.08	435.34
564.24	428.32
564.41	458.74
564.57	454.06
564.74	365.12
564.90	388.53
565.07	425.98
565.23	395.55
565.39	400.23
565.56	372.15
565.72	414.27
565.88	369.80
566.05	409.59
566.21	388.53
566.38	461.09
566.54	390.87
566.70	428.32
566.87	425.98
567.03	458.74
567.19	404.91
567.36	472.79
567.52	390.87
567.68	465.77
567.85	409.59
568.01	397.89
568.17	470.45
568.34	414.27
568.50	360.44
568.66	306.61
568.83	449.38
568.99	451.72
569.15	461.09
569.32	416.62
569.48	393.21
569.64	442.36
569.81	402.57
569.97	402.57
570.13	550.03
570.30	444.70
570.46	348.74
570.62	472.79
570.78	362.78
570.95	461.09
571.11	470.45
571.27	334.70
571.43	379.17
571.60	477.47
571.76	430.66
571.92	383.85
572.09	414.27
572.25	400.23
572.41	367.46
572.57	414.27
572.74	425.98
572.90	482.15
573.06	414.27
573.22	421.30
573.38	500.87
573.55	507.90
573.71	461.09
573.87	376.83
574.03	428.32
574.20	435.34
574.36	458.74
574.52	444.70
574.68	418.96
574.84	435.34
575.01	461.09
575.17	449.38
575.33	468.11
575.49	416.62
575.65	402.57
575.82	388.53
575.98	423.64
576.14	407.25
576.30	489.17
576.46	425.98
576.62	477.47
576.79	484.49
576.95	463.43
577.11	416.62
577.27	383.85
577.43	393.21
577.59	449.38
577.75	442.36
577.92	400.23
578.08	386.19
578.24	416.62
578.40	442.36
578.56	440.02
578.72	390.87
578.88	400.23
579.04	404.91
579.21	440.02
579.37	475.13
579.53	411.93
579.69	430.66
579.85	468.11
580.01	440.02
580.17	397.89
580.33	404.91
580.49	456.40
580.65	437.68
580.82	404.91
580.98	437.68
581.14	503.22
581.30	484.49
581.46	472.79
581.62	468.11
581.78	407.25
581.94	447.04
582.10	430.66
582.26	421.30
582.42	433.00
582.58	454.06
582.74	390.87
582.90	379.17
583.06	416.62
583.22	456.40
583.38	381.51
583.54	449.38
583.70	416.62
583.86	496.19
584.02	409.59
584.18	456.40
584.34	447.04
584.50	414.27
584.66	407.25
584.82	421.30
584.98	404.91
585.14	425.98
585.30	383.85
585.46	360.44
585.62	393.21
585.78	390.87
585.94	451.72
586.10	493.85
586.26	428.32
586.42	479.81
586.58	372.15
586.74	414.27
586.90	390.87
587.06	411.93
587.22	428.32
587.38	475.13
587.54	381.51
587.70	472.79
587.86	468.11
588.02	430.66
588.18	386.19
588.34	400.23
588.49	327.68
588.65	423.64
588.81	379.17
588.97	411.93
589.13	444.70
589.29	425.98
589.45	479.81
589.61	454.06
589.77	407.25
589.93	477.47
590.08	374.49
590.24	388.53
590.40	489.17
590.56	423.64
590.72	465.77
590.88	411.93
591.04	456.40
591.20	383.85
591.35	500.87
591.51	353.42
591.67	393.21
591.83	348.74
591.99	381.51
592.15	428.32
592.31	430.66
592.46	362.78
592.62	379.17
592.78	379.17
592.94	386.19
593.10	376.83
593.26	390.87
593.41	475.13
593.57	351.08
593.73	383.85
593.89	444.70
594.05	388.53
594.20	393.21
594.36	491.51
594.52	484.49
594.68	358.10
594.84	430.66
594.99	475.13
595.15	411.93
595.31	407.25
595.47	458.74
595.62	468.11
595.78	400.23
595.94	447.04
596.10	418.96
596.25	397.89
596.41	447.04
596.57	425.98
596.73	402.57
596.88	372.15
597.04	346.40
597.20	360.44
597.36	407.25
597.51	433.00
597.67	362.78
597.83	407.25
597.99	449.38
598.14	393.21
598.30	449.38
598.46	437.68
598.61	400.23
598.77	407.25
598.93	444.70
599.09	447.04
599.24	470.45
599.40	442.36
599.56	477.47
599.71	395.55
599.87	451.72
600.03	444.70
600.18	444.70
600.34	454.06
600.50	414.27
600.65	411.93
600.81	447.04
600.97	472.79
601.12	348.74
601.28	421.30
601.44	449.38
601.59	433.00
601.75	444.70
601.91	404.91
602.06	386.19
602.22	458.74
602.37	442.36
602.53	383.85
602.69	320.65
602.84	404.91
603.00	437.68
603.16	416.62
603.31	404.91
603.47	442.36
603.62	407.25
603.78	458.74
603.94	409.59
604.09	376.83
604.25	409.59
604.40	437.68
604.56	327.68
604.71	395.55
604.87	376.83
605.03	388.53
605.18	407.25
605.34	442.36
605.49	435.34
605.65	355.76
605.80	379.17
605.96	383.85
606.12	468.11
606.27	367.46
606.43	435.34
606.58	395.55
606.74	395.55
606.89	435.34
607.05	440.02
607.20	449.38
607.36	442.36
607.51	428.32
607.67	414.27
607.82	411.93
607.98	468.11
608.13	362.78
608.29	367.46
608.44	393.21
608.60	444.70
608.75	411.93
608.91	400.23
609.06	407.25
609.22	486.83
609.37	351.08
609.53	468.11
609.68	367.46
609.84	334.70
609.99	393.21
610.15	414.27
