SpectraSuite Data File
++++++++++++++++++++++++++++++++++++
Date: Fri Oct 25 12:11:11 EDT 2013
User: price-jones
Dark Spectrum Present: No
Reference Spectrum Present: No
Number of Sampled Component Spectra: 1
Spectrometers: USB2+H05261
Integration Time (usec): 100000 (USB2+H05261)
Spectra Averaged: 1 (USB2+H05261)
Boxcar Smoothing: 0 (USB2+H05261)
Correct for Electrical Dark: No (USB2+H05261)
Strobe/Lamp Enabled: No (USB2+H05261)
Correct for Detector Non-linearity: No (USB2+H05261)
Correct for Stray Light: No (USB2+H05261)
Number of Pixels in Processed Spectrum: 2048
>>>>>Begin Processed Spectral Data<<<<<
365.73	374.49
365.92	374.49
366.12	374.49
366.32	236.39
366.52	182.56
366.72	276.18
366.91	215.33
367.11	229.37
367.31	264.48
367.51	259.80
367.70	306.61
367.90	257.46
368.10	220.01
368.30	203.63
368.49	231.71
368.69	205.97
368.89	353.42
369.09	252.78
369.28	276.18
369.48	259.80
369.68	306.61
369.87	351.08
370.07	320.65
370.27	404.91
370.47	283.20
370.66	311.29
370.86	407.25
371.06	372.15
371.25	428.32
371.45	376.83
371.65	465.77
371.84	360.44
372.04	414.27
372.24	325.33
372.44	470.45
372.63	409.59
372.83	409.59
373.03	402.57
373.22	379.17
373.42	418.96
373.62	402.57
373.81	409.59
374.01	479.81
374.21	390.87
374.40	411.93
374.60	414.27
374.79	435.34
374.99	372.15
375.19	407.25
375.38	465.77
375.58	395.55
375.78	433.00
375.97	442.36
376.17	447.04
376.37	372.15
376.56	386.19
376.76	388.53
376.95	433.00
377.15	486.83
377.35	379.17
377.54	390.87
377.74	386.19
377.93	353.42
378.13	402.57
378.33	442.36
378.52	425.98
378.72	418.96
378.91	402.57
379.11	430.66
379.31	416.62
379.50	411.93
379.70	390.87
379.89	442.36
380.09	351.08
380.28	416.62
380.48	454.06
380.68	337.04
380.87	346.40
381.07	407.25
381.26	465.77
381.46	433.00
381.65	393.21
381.85	463.43
382.04	409.59
382.24	332.36
382.43	365.12
382.63	433.00
382.83	393.21
383.02	430.66
383.22	465.77
383.41	409.59
383.61	437.68
383.80	449.38
384.00	400.23
384.19	433.00
384.39	411.93
384.58	414.27
384.78	447.04
384.97	383.85
385.17	374.49
385.36	358.10
385.56	393.21
385.75	416.62
385.95	346.40
386.14	351.08
386.34	428.32
386.53	344.06
386.72	341.72
386.92	397.89
387.11	379.17
387.31	407.25
387.50	297.25
387.70	332.36
387.89	414.27
388.09	447.04
388.28	397.89
388.48	411.93
388.67	341.72
388.86	395.55
389.06	318.31
389.25	440.02
389.45	484.49
389.64	355.76
389.84	358.10
390.03	451.72
390.22	374.49
390.42	454.06
390.61	388.53
390.81	458.74
391.00	374.49
391.19	440.02
391.39	411.93
391.58	433.00
391.78	418.96
391.97	353.42
392.16	425.98
392.36	372.15
392.55	411.93
392.75	451.72
392.94	425.98
393.13	430.66
393.33	379.17
393.52	383.85
393.71	367.46
393.91	409.59
394.10	383.85
394.29	442.36
394.49	479.81
394.68	430.66
394.88	477.47
395.07	381.51
395.26	351.08
395.46	475.13
395.65	379.17
395.84	421.30
396.04	381.51
396.23	344.06
396.42	418.96
396.62	461.09
396.81	404.91
397.00	433.00
397.19	393.21
397.39	433.00
397.58	390.87
397.77	339.38
397.97	416.62
398.16	407.25
398.35	379.17
398.55	411.93
398.74	386.19
398.93	505.56
399.12	360.44
399.32	400.23
399.51	402.57
399.70	451.72
399.90	376.83
400.09	360.44
400.28	339.38
400.47	437.68
400.67	444.70
400.86	423.64
401.05	421.30
401.24	386.19
401.44	379.17
401.63	411.93
401.82	442.36
402.01	404.91
402.21	411.93
402.40	404.91
402.59	418.96
402.78	468.11
402.97	425.98
403.17	379.17
403.36	416.62
403.55	437.68
403.74	435.34
403.93	444.70
404.13	449.38
404.32	376.83
404.51	369.80
404.70	428.32
404.89	367.46
405.09	442.36
405.28	461.09
405.47	397.89
405.66	402.57
405.85	423.64
406.05	423.64
406.24	383.85
406.43	418.96
406.62	388.53
406.81	475.13
407.00	468.11
407.20	447.04
407.39	358.10
407.58	421.30
407.77	407.25
407.96	407.25
408.15	395.55
408.34	430.66
408.54	372.15
408.73	409.59
408.92	456.40
409.11	330.02
409.30	430.66
409.49	437.68
409.68	400.23
409.87	454.06
410.07	414.27
410.26	433.00
410.45	386.19
410.64	381.51
410.83	376.83
411.02	433.00
411.21	390.87
411.40	444.70
411.59	425.98
411.78	388.53
411.98	435.34
412.17	430.66
412.36	411.93
412.55	416.62
412.74	449.38
412.93	456.40
413.12	411.93
413.31	447.04
413.50	407.25
413.69	400.23
413.88	477.47
414.07	390.87
414.26	402.57
414.45	423.64
414.64	477.47
414.83	449.38
415.02	421.30
415.22	423.64
415.41	440.02
415.60	379.17
415.79	365.12
415.98	491.51
416.17	395.55
416.36	393.21
416.55	388.53
416.74	397.89
416.93	451.72
417.12	409.59
417.31	402.57
417.50	383.85
417.69	458.74
417.88	411.93
418.07	437.68
418.26	383.85
418.45	369.80
418.64	461.09
418.83	416.62
419.02	456.40
419.21	379.17
419.39	381.51
419.58	402.57
419.77	395.55
419.96	416.62
420.15	430.66
420.34	400.23
420.53	414.27
420.72	442.36
420.91	416.62
421.10	428.32
421.29	437.68
421.48	489.17
421.67	372.15
421.86	390.87
422.05	514.92
422.24	491.51
422.43	430.66
422.61	383.85
422.80	397.89
422.99	411.93
423.18	475.13
423.37	486.83
423.56	409.59
423.75	393.21
423.94	442.36
424.13	337.04
424.32	355.76
424.50	409.59
424.69	416.62
424.88	458.74
425.07	346.40
425.26	423.64
425.45	425.98
425.64	425.98
425.83	402.57
426.01	479.81
426.20	451.72
426.39	297.25
426.58	414.27
426.77	411.93
426.96	404.91
427.15	386.19
427.33	428.32
427.52	449.38
427.71	423.64
427.90	402.57
428.09	393.21
428.28	334.70
428.46	360.44
428.65	395.55
428.84	428.32
429.03	379.17
429.22	425.98
429.40	383.85
429.59	358.10
429.78	407.25
429.97	400.23
430.16	486.83
430.34	486.83
430.53	421.30
430.72	388.53
430.91	421.30
431.10	425.98
431.28	402.57
431.47	404.91
431.66	433.00
431.85	362.78
432.03	395.55
432.22	463.43
432.41	400.23
432.60	456.40
432.79	393.21
432.97	458.74
433.16	402.57
433.35	393.21
433.54	423.64
433.72	440.02
433.91	456.40
434.10	440.02
434.28	442.36
434.47	421.30
434.66	435.34
434.85	390.87
435.03	444.70
435.22	461.09
435.41	418.96
435.59	395.55
435.78	477.47
435.97	383.85
436.16	395.55
436.34	475.13
436.53	397.89
436.72	390.87
436.90	435.34
437.09	440.02
437.28	444.70
437.46	388.53
437.65	404.91
437.84	388.53
438.02	428.32
438.21	409.59
438.40	376.83
438.58	365.12
438.77	423.64
438.96	423.64
439.14	409.59
439.33	393.21
439.52	372.15
439.70	477.47
439.89	409.59
440.08	440.02
440.26	407.25
440.45	395.55
440.63	402.57
440.82	470.45
441.01	496.19
441.19	425.98
441.38	360.44
441.57	404.91
441.75	449.38
441.94	418.96
442.12	358.10
442.31	397.89
442.50	409.59
442.68	465.77
442.87	503.22
443.05	451.72
443.24	456.40
443.43	369.80
443.61	447.04
443.80	397.89
443.98	465.77
444.17	435.34
444.35	386.19
444.54	397.89
444.73	423.64
444.91	507.90
445.10	442.36
445.28	400.23
445.47	435.34
445.65	430.66
445.84	369.80
446.02	404.91
446.21	374.49
446.39	444.70
446.58	458.74
446.77	454.06
446.95	381.51
447.14	456.40
447.32	421.30
447.51	367.46
447.69	376.83
447.88	475.13
448.06	435.34
448.25	381.51
448.43	411.93
448.62	376.83
448.80	433.00
448.99	433.00
449.17	472.79
449.36	449.38
449.54	430.66
449.73	372.15
449.91	421.30
450.10	383.85
450.28	470.45
450.46	411.93
450.65	351.08
450.83	423.64
451.02	442.36
451.20	409.59
451.39	421.30
451.57	479.81
451.76	337.04
451.94	346.40
452.13	482.15
452.31	484.49
452.49	433.00
452.68	477.47
452.86	423.64
453.05	477.47
453.23	411.93
453.42	402.57
453.60	409.59
453.78	444.70
453.97	411.93
454.15	423.64
454.34	411.93
454.52	369.80
454.70	493.85
454.89	496.19
455.07	381.51
455.26	442.36
455.44	360.44
455.62	418.96
455.81	449.38
455.99	351.08
456.17	386.19
456.36	409.59
456.54	388.53
456.73	390.87
456.91	395.55
457.09	367.46
457.28	402.57
457.46	400.23
457.64	416.62
457.83	400.23
458.01	386.19
458.19	404.91
458.38	411.93
458.56	388.53
458.74	498.53
458.93	451.72
459.11	435.34
459.29	425.98
459.48	533.64
459.66	454.06
459.84	388.53
460.03	430.66
460.21	369.80
460.39	409.59
460.57	475.13
460.76	458.74
460.94	435.34
461.12	418.96
461.31	472.79
461.49	463.43
461.67	339.38
461.85	449.38
462.04	428.32
462.22	748.97
462.40	379.17
462.59	440.02
462.77	397.89
462.95	433.00
463.13	320.65
463.32	353.42
463.50	409.59
463.68	430.66
463.86	433.00
464.05	444.70
464.23	430.66
464.41	423.64
464.59	421.30
464.78	400.23
464.96	379.17
465.14	353.42
465.32	430.66
465.50	440.02
465.69	411.93
465.87	468.11
466.05	440.02
466.23	409.59
466.41	418.96
466.60	388.53
466.78	383.85
466.96	421.30
467.14	388.53
467.32	400.23
467.51	416.62
467.69	404.91
467.87	475.13
468.05	465.77
468.23	463.43
468.41	470.45
468.60	402.57
468.78	325.33
468.96	416.62
469.14	411.93
469.32	386.19
469.50	414.27
469.69	440.02
469.87	475.13
470.05	477.47
470.23	461.09
470.41	388.53
470.59	341.72
470.77	425.98
470.95	416.62
471.14	454.06
471.32	421.30
471.50	425.98
471.68	421.30
471.86	374.49
472.04	465.77
472.22	468.11
472.40	386.19
472.58	376.83
472.77	414.27
472.95	376.83
473.13	461.09
473.31	423.64
473.49	400.23
473.67	433.00
473.85	393.21
474.03	456.40
474.21	400.23
474.39	386.19
474.57	491.51
474.75	379.17
474.93	381.51
475.12	393.21
475.30	365.12
475.48	407.25
475.66	421.30
475.84	451.72
476.02	404.91
476.20	390.87
476.38	472.79
476.56	404.91
476.74	393.21
476.92	447.04
477.10	449.38
477.28	435.34
477.46	400.23
477.64	388.53
477.82	411.93
478.00	416.62
478.18	440.02
478.36	402.57
478.54	500.87
478.72	447.04
478.90	411.93
479.08	433.00
479.26	388.53
479.44	428.32
479.62	388.53
479.80	397.89
479.98	386.19
480.16	428.32
480.34	428.32
480.52	435.34
480.70	397.89
480.88	433.00
481.06	374.49
481.24	348.74
481.41	367.46
481.59	402.57
481.77	454.06
481.95	393.21
482.13	510.24
482.31	409.59
482.49	395.55
482.67	442.36
482.85	421.30
483.03	482.15
483.21	365.12
483.39	414.27
483.57	423.64
483.74	503.22
483.92	355.76
484.10	435.34
484.28	451.72
484.46	468.11
484.64	414.27
484.82	381.51
485.00	482.15
485.18	400.23
485.35	437.68
485.53	437.68
485.71	447.04
485.89	313.63
486.07	449.38
486.25	404.91
486.43	423.64
486.61	503.22
486.78	416.62
486.96	344.06
487.14	470.45
487.32	411.93
487.50	442.36
487.68	451.72
487.85	435.34
488.03	369.80
488.21	395.55
488.39	402.57
488.57	458.74
488.75	416.62
488.92	454.06
489.10	400.23
489.28	456.40
489.46	381.51
489.64	379.17
489.81	461.09
489.99	433.00
490.17	437.68
490.35	479.81
490.53	400.23
490.70	351.08
490.88	397.89
491.06	360.44
491.24	449.38
491.41	479.81
491.59	395.55
491.77	428.32
491.95	351.08
492.13	393.21
492.30	416.62
492.48	334.70
492.66	416.62
492.84	479.81
493.01	444.70
493.19	374.49
493.37	362.78
493.54	435.34
493.72	339.38
493.90	341.72
494.08	430.66
494.25	418.96
494.43	423.64
494.61	425.98
494.79	351.08
494.96	496.19
495.14	454.06
495.32	381.51
495.49	383.85
495.67	447.04
495.85	355.76
496.02	337.04
496.20	388.53
496.38	477.47
496.55	463.43
496.73	454.06
496.91	428.32
497.09	486.83
497.26	470.45
497.44	395.55
497.62	416.62
497.79	463.43
497.97	440.02
498.14	402.57
498.32	458.74
498.50	360.44
498.67	402.57
498.85	458.74
499.03	395.55
499.20	402.57
499.38	402.57
499.56	397.89
499.73	447.04
499.91	458.74
500.08	404.91
500.26	418.96
500.44	421.30
500.61	440.02
500.79	397.89
500.97	386.19
501.14	381.51
501.32	383.85
501.49	475.13
501.67	418.96
501.84	430.66
502.02	372.15
502.20	372.15
502.37	465.77
502.55	341.72
502.72	365.12
502.90	355.76
503.07	477.47
503.25	397.89
503.43	479.81
503.60	451.72
503.78	383.85
503.95	397.89
504.13	344.06
504.30	442.36
504.48	444.70
504.65	465.77
504.83	390.87
505.01	388.53
505.18	414.27
505.36	367.46
505.53	397.89
505.71	416.62
505.88	493.85
506.06	397.89
506.23	407.25
506.41	425.98
506.58	463.43
506.76	411.93
506.93	395.55
507.11	367.46
507.28	425.98
507.46	409.59
507.63	440.02
507.81	540.66
507.98	456.40
508.16	367.46
508.33	393.21
508.50	433.00
508.68	416.62
508.85	376.83
509.03	440.02
509.20	416.62
509.38	383.85
509.55	416.62
509.73	451.72
509.90	517.26
510.08	367.46
510.25	386.19
510.42	416.62
510.60	395.55
510.77	379.17
510.95	416.62
511.12	393.21
511.30	444.70
511.47	425.98
511.64	400.23
511.82	421.30
511.99	416.62
512.17	435.34
512.34	369.80
512.51	442.36
512.69	358.10
512.86	479.81
513.04	437.68
513.21	447.04
513.38	461.09
513.56	440.02
513.73	440.02
513.90	372.15
514.08	440.02
514.25	428.32
514.43	381.51
514.60	447.04
514.77	447.04
514.95	386.19
515.12	360.44
515.29	433.00
515.47	433.00
515.64	404.91
515.81	440.02
515.99	374.49
516.16	416.62
516.33	421.30
516.51	449.38
516.68	409.59
516.85	414.27
517.03	440.02
517.20	458.74
517.37	355.76
517.54	493.85
517.72	500.87
517.89	437.68
518.06	418.96
518.24	468.11
518.41	463.43
518.58	433.00
518.75	437.68
518.93	454.06
519.10	451.72
519.27	440.02
519.45	454.06
519.62	449.38
519.79	449.38
519.96	360.44
520.14	482.15
520.31	386.19
520.48	437.68
520.65	414.27
520.83	437.68
521.00	362.78
521.17	458.74
521.34	383.85
521.52	383.85
521.69	458.74
521.86	409.59
522.03	379.17
522.20	498.53
522.38	430.66
522.55	425.98
522.72	407.25
522.89	435.34
523.07	449.38
523.24	404.91
523.41	393.21
523.58	409.59
523.75	386.19
523.92	367.46
524.10	442.36
524.27	386.19
524.44	421.30
524.61	400.23
524.78	428.32
524.96	416.62
525.13	461.09
525.30	484.49
525.47	456.40
525.64	407.25
525.81	418.96
525.98	482.15
526.16	440.02
526.33	472.79
526.50	465.77
526.67	386.19
526.84	418.96
527.01	365.12
527.18	395.55
527.36	442.36
527.53	430.66
527.70	416.62
527.87	372.15
528.04	393.21
528.21	390.87
528.38	447.04
528.55	395.55
528.72	425.98
528.89	365.12
529.07	425.98
529.24	411.93
529.41	468.11
529.58	374.49
529.75	451.72
529.92	444.70
530.09	463.43
530.26	421.30
530.43	411.93
530.60	402.57
530.77	407.25
530.94	423.64
531.11	379.17
531.28	379.17
531.46	428.32
531.63	451.72
531.80	421.30
531.97	458.74
532.14	451.72
532.31	512.58
532.48	463.43
532.65	388.53
532.82	435.34
532.99	430.66
533.16	425.98
533.33	418.96
533.50	362.78
533.67	367.46
533.84	442.36
534.01	397.89
534.18	482.15
534.35	360.44
534.52	416.62
534.69	437.68
534.86	346.40
535.03	430.66
535.20	386.19
535.37	372.15
535.54	397.89
535.71	442.36
535.88	470.45
536.05	376.83
536.22	404.91
536.38	461.09
536.55	447.04
536.72	451.72
536.89	416.62
537.06	393.21
537.23	388.53
537.40	376.83
537.57	425.98
537.74	491.51
537.91	418.96
538.08	360.44
538.25	456.40
538.42	461.09
538.59	425.98
538.75	425.98
538.92	463.43
539.09	383.85
539.26	402.57
539.43	463.43
539.60	442.36
539.77	388.53
539.94	383.85
540.11	388.53
540.28	500.87
540.44	414.27
540.61	423.64
540.78	430.66
540.95	414.27
541.12	500.87
541.29	346.40
541.46	444.70
541.62	428.32
541.79	381.51
541.96	409.59
542.13	400.23
542.30	430.66
542.47	475.13
542.63	327.68
542.80	388.53
542.97	388.53
543.14	409.59
543.31	400.23
543.48	397.89
543.64	418.96
543.81	393.21
543.98	409.59
544.15	416.62
544.32	423.64
544.48	402.57
544.65	388.53
544.82	416.62
544.99	388.53
545.16	393.21
545.32	433.00
545.49	407.25
545.66	414.27
545.83	369.80
546.00	344.06
546.16	390.87
546.33	461.09
546.50	416.62
546.67	400.23
546.83	458.74
547.00	421.30
547.17	313.63
547.34	379.17
547.50	433.00
547.67	395.55
547.84	437.68
548.00	444.70
548.17	404.91
548.34	463.43
548.51	374.49
548.67	414.27
548.84	423.64
549.01	393.21
549.18	440.02
549.34	461.09
549.51	451.72
549.68	442.36
549.84	486.83
550.01	365.12
550.18	423.64
550.34	451.72
550.51	367.46
550.68	411.93
550.84	402.57
551.01	381.51
551.18	346.40
551.34	362.78
551.51	353.42
551.68	400.23
551.84	407.25
552.01	423.64
552.18	404.91
552.34	421.30
552.51	475.13
552.68	402.57
552.84	428.32
553.01	418.96
553.18	393.21
553.34	442.36
553.51	388.53
553.67	411.93
553.84	353.42
554.01	433.00
554.17	475.13
554.34	411.93
554.51	402.57
554.67	418.96
554.84	461.09
555.00	505.56
555.17	486.83
555.33	468.11
555.50	400.23
555.67	388.53
555.83	372.15
556.00	404.91
556.16	561.73
556.33	489.17
556.50	315.97
556.66	430.66
556.83	386.19
556.99	367.46
557.16	400.23
557.32	409.59
557.49	442.36
557.65	437.68
557.82	470.45
557.98	379.17
558.15	433.00
558.32	472.79
558.48	393.21
558.65	388.53
558.81	411.93
558.98	463.43
559.14	416.62
559.31	411.93
559.47	449.38
559.64	456.40
559.80	388.53
559.97	437.68
560.13	362.78
560.30	374.49
560.46	409.59
560.63	416.62
560.79	390.87
560.96	369.80
561.12	421.30
561.29	360.44
561.45	376.83
561.61	468.11
561.78	475.13
561.94	442.36
562.11	372.15
562.27	348.74
562.44	456.40
562.60	402.57
562.77	470.45
562.93	498.53
563.10	465.77
563.26	465.77
563.42	484.49
563.59	358.10
563.75	470.45
563.92	414.27
564.08	409.59
564.24	393.21
564.41	430.66
564.57	404.91
564.74	444.70
564.90	416.62
565.07	454.06
565.23	400.23
565.39	393.21
565.56	433.00
565.72	423.64
565.88	433.00
566.05	346.40
566.21	418.96
566.38	472.79
566.54	444.70
566.70	379.17
566.87	458.74
567.03	367.46
567.19	456.40
567.36	376.83
567.52	496.19
567.68	425.98
567.85	449.38
568.01	390.87
568.17	369.80
568.34	425.98
568.50	402.57
568.66	421.30
568.83	493.85
568.99	479.81
569.15	477.47
569.32	379.17
569.48	416.62
569.64	393.21
569.81	383.85
569.97	411.93
570.13	465.77
570.30	393.21
570.46	449.38
570.62	423.64
570.78	348.74
570.95	351.08
571.11	444.70
571.27	402.57
571.43	346.40
571.60	411.93
571.76	397.89
571.92	463.43
572.09	418.96
572.25	447.04
572.41	440.02
572.57	418.96
572.74	435.34
572.90	458.74
573.06	355.76
573.22	381.51
573.38	440.02
573.55	440.02
573.71	465.77
573.87	451.72
574.03	411.93
574.20	433.00
574.36	447.04
574.52	461.09
574.68	433.00
574.84	489.17
575.01	437.68
575.17	468.11
575.33	411.93
575.49	416.62
575.65	383.85
575.82	470.45
575.98	414.27
576.14	407.25
576.30	440.02
576.46	440.02
576.62	383.85
576.79	463.43
576.95	491.51
577.11	423.64
577.27	407.25
577.43	430.66
577.59	440.02
577.75	390.87
577.92	449.38
578.08	435.34
578.24	386.19
578.40	421.30
578.56	463.43
578.72	456.40
578.88	491.51
579.04	451.72
579.21	402.57
579.37	444.70
579.53	376.83
579.69	395.55
579.85	416.62
580.01	440.02
580.17	360.44
580.33	421.30
580.49	341.72
580.65	372.15
580.82	456.40
580.98	444.70
581.14	451.72
581.30	372.15
581.46	430.66
581.62	381.51
581.78	447.04
581.94	383.85
582.10	421.30
582.26	447.04
582.42	421.30
582.58	430.66
582.74	463.43
582.90	475.13
583.06	379.17
583.22	475.13
583.38	404.91
583.54	409.59
583.70	468.11
583.86	348.74
584.02	435.34
584.18	353.42
584.34	425.98
584.50	402.57
584.66	369.80
584.82	437.68
584.98	461.09
585.14	414.27
585.30	437.68
585.46	376.83
585.62	411.93
585.78	411.93
585.94	463.43
586.10	414.27
586.26	400.23
586.42	433.00
586.58	423.64
586.74	442.36
586.90	465.77
587.06	500.87
587.22	447.04
587.38	409.59
587.54	425.98
587.70	470.45
587.86	379.17
588.02	514.92
588.18	461.09
588.34	477.47
588.49	400.23
588.65	407.25
588.81	435.34
588.97	374.49
589.13	416.62
589.29	463.43
589.45	351.08
589.61	390.87
589.77	440.02
589.93	386.19
590.08	407.25
590.24	388.53
590.40	395.55
590.56	353.42
590.72	358.10
590.88	411.93
591.04	447.04
591.20	402.57
591.35	437.68
591.51	418.96
591.67	362.78
591.83	374.49
591.99	400.23
592.15	367.46
592.31	421.30
592.46	418.96
592.62	440.02
592.78	433.00
592.94	372.15
593.10	461.09
593.26	414.27
593.41	458.74
593.57	411.93
593.73	418.96
593.89	423.64
594.05	451.72
594.20	421.30
594.36	454.06
594.52	360.44
594.68	383.85
594.84	400.23
594.99	444.70
595.15	461.09
595.31	435.34
595.47	447.04
595.62	440.02
595.78	390.87
595.94	435.34
596.10	423.64
596.25	411.93
596.41	468.11
596.57	416.62
596.73	440.02
596.88	369.80
597.04	444.70
597.20	367.46
597.36	402.57
597.51	348.74
597.67	360.44
597.83	411.93
597.99	442.36
598.14	404.91
598.30	451.72
598.46	395.55
598.61	465.77
598.77	437.68
598.93	468.11
599.09	454.06
599.24	437.68
599.40	388.53
599.56	423.64
599.71	407.25
599.87	425.98
600.03	411.93
600.18	393.21
600.34	404.91
600.50	440.02
600.65	365.12
600.81	376.83
600.97	367.46
601.12	442.36
601.28	428.32
601.44	383.85
601.59	414.27
601.75	461.09
601.91	393.21
602.06	470.45
602.22	507.90
602.37	437.68
602.53	404.91
602.69	468.11
602.84	416.62
603.00	475.13
603.16	421.30
603.31	444.70
603.47	482.15
603.62	369.80
603.78	390.87
603.94	470.45
604.09	409.59
604.25	390.87
604.40	425.98
604.56	421.30
604.71	407.25
604.87	491.51
605.03	416.62
605.18	423.64
605.34	346.40
605.49	433.00
605.65	325.33
605.80	393.21
605.96	358.10
606.12	376.83
606.27	369.80
606.43	425.98
606.58	409.59
606.74	402.57
606.89	416.62
607.05	360.44
607.20	447.04
607.36	491.51
607.51	379.17
607.67	449.38
607.82	423.64
607.98	421.30
608.13	435.34
608.29	386.19
608.44	442.36
608.60	416.62
608.75	393.21
608.91	428.32
609.06	400.23
609.22	397.89
609.37	416.62
609.53	402.57
609.68	440.02
609.84	447.04
609.99	334.70
610.15	367.46
