SpectraSuite Data File
++++++++++++++++++++++++++++++++++++
Date: Fri Oct 25 12:11:36 EDT 2013
User: price-jones
Dark Spectrum Present: No
Reference Spectrum Present: No
Number of Sampled Component Spectra: 1
Spectrometers: USB2+H05261
Integration Time (usec): 100000 (USB2+H05261)
Spectra Averaged: 1 (USB2+H05261)
Boxcar Smoothing: 0 (USB2+H05261)
Correct for Electrical Dark: No (USB2+H05261)
Strobe/Lamp Enabled: No (USB2+H05261)
Correct for Detector Non-linearity: No (USB2+H05261)
Correct for Stray Light: No (USB2+H05261)
Number of Pixels in Processed Spectrum: 2048
>>>>>Begin Processed Spectral Data<<<<<
365.73	397.89
365.92	397.89
366.12	397.89
366.32	271.50
366.52	215.33
366.72	262.14
366.91	241.08
367.11	229.37
367.31	259.80
367.51	196.60
367.70	203.63
367.90	222.35
368.10	212.99
368.30	252.78
368.49	238.73
368.69	229.37
368.89	238.73
369.09	252.78
369.28	294.91
369.48	313.63
369.68	287.89
369.87	276.18
370.07	308.95
370.27	322.99
370.47	337.04
370.66	294.91
370.86	362.78
371.06	376.83
371.25	381.51
371.45	299.59
371.65	365.12
371.84	355.76
372.04	393.21
372.24	311.29
372.44	463.43
372.63	447.04
372.83	348.74
373.03	414.27
373.22	430.66
373.42	465.77
373.62	376.83
373.81	477.47
374.01	425.98
374.21	458.74
374.40	463.43
374.60	454.06
374.79	444.70
374.99	472.79
375.19	433.00
375.38	355.76
375.58	365.12
375.78	458.74
375.97	395.55
376.17	524.28
376.37	351.08
376.56	388.53
376.76	465.77
376.95	353.42
377.15	404.91
377.35	379.17
377.54	386.19
377.74	456.40
377.93	418.96
378.13	360.44
378.33	409.59
378.52	411.93
378.72	489.17
378.91	409.59
379.11	430.66
379.31	393.21
379.50	332.36
379.70	489.17
379.89	433.00
380.09	390.87
380.28	362.78
380.48	355.76
380.68	433.00
380.87	414.27
381.07	414.27
381.26	465.77
381.46	393.21
381.65	393.21
381.85	369.80
382.04	458.74
382.24	505.56
382.43	421.30
382.63	489.17
382.83	416.62
383.02	428.32
383.22	421.30
383.41	395.55
383.61	313.63
383.80	379.17
384.00	365.12
384.19	397.89
384.39	433.00
384.58	416.62
384.78	346.40
384.97	407.25
385.17	407.25
385.36	369.80
385.56	477.47
385.75	386.19
385.95	372.15
386.14	397.89
386.34	348.74
386.53	332.36
386.72	477.47
386.92	444.70
387.11	407.25
387.31	425.98
387.50	397.89
387.70	411.93
387.89	393.21
388.09	425.98
388.28	437.68
388.48	341.72
388.67	470.45
388.86	428.32
389.06	400.23
389.25	411.93
389.45	390.87
389.64	411.93
389.84	425.98
390.03	374.49
390.22	266.82
390.42	435.34
390.61	383.85
390.81	463.43
391.00	374.49
391.19	390.87
391.39	463.43
391.58	411.93
391.78	383.85
391.97	402.57
392.16	407.25
392.36	407.25
392.55	425.98
392.75	437.68
392.94	430.66
393.13	411.93
393.33	395.55
393.52	362.78
393.71	435.34
393.91	451.72
394.10	407.25
394.29	393.21
394.49	299.59
394.68	362.78
394.88	442.36
395.07	402.57
395.26	320.65
395.46	379.17
395.65	451.72
395.84	442.36
396.04	491.51
396.23	440.02
396.42	430.66
396.62	430.66
396.81	400.23
397.00	311.29
397.19	423.64
397.39	362.78
397.58	442.36
397.77	393.21
397.97	395.55
398.16	395.55
398.35	339.38
398.55	409.59
398.74	414.27
398.93	402.57
399.12	381.51
399.32	355.76
399.51	416.62
399.70	416.62
399.90	421.30
400.09	470.45
400.28	369.80
400.47	388.53
400.67	430.66
400.86	400.23
401.05	315.97
401.24	402.57
401.44	435.34
401.63	442.36
401.82	414.27
402.01	404.91
402.21	311.29
402.40	372.15
402.59	409.59
402.78	355.76
402.97	475.13
403.17	355.76
403.36	390.87
403.55	404.91
403.74	411.93
403.93	468.11
404.13	414.27
404.32	383.85
404.51	360.44
404.70	360.44
404.89	369.80
405.09	381.51
405.28	348.74
405.47	433.00
405.66	472.79
405.85	369.80
406.05	400.23
406.24	404.91
406.43	414.27
406.62	444.70
406.81	533.64
407.00	404.91
407.20	397.89
407.39	449.38
407.58	416.62
407.77	428.32
407.96	369.80
408.15	395.55
408.34	416.62
408.54	430.66
408.73	433.00
408.92	346.40
409.11	367.46
409.30	461.09
409.49	369.80
409.68	388.53
409.87	353.42
410.07	423.64
410.26	451.72
410.45	456.40
410.64	411.93
410.83	428.32
411.02	383.85
411.21	416.62
411.40	423.64
411.59	418.96
411.78	404.91
411.98	418.96
412.17	353.42
412.36	386.19
412.55	365.12
412.74	418.96
412.93	440.02
413.12	372.15
413.31	334.70
413.50	400.23
413.69	430.66
413.88	463.43
414.07	404.91
414.26	416.62
414.45	411.93
414.64	409.59
414.83	500.87
415.02	388.53
415.22	435.34
415.41	374.49
415.60	425.98
415.79	358.10
415.98	369.80
416.17	351.08
416.36	425.98
416.55	428.32
416.74	430.66
416.93	440.02
417.12	388.53
417.31	437.68
417.50	369.80
417.69	451.72
417.88	369.80
418.07	369.80
418.26	447.04
418.45	369.80
418.64	388.53
418.83	416.62
419.02	393.21
419.21	383.85
419.39	355.76
419.58	362.78
419.77	386.19
419.96	458.74
420.15	456.40
420.34	409.59
420.53	351.08
420.72	461.09
420.91	451.72
421.10	334.70
421.29	404.91
421.48	463.43
421.67	430.66
421.86	362.78
422.05	425.98
422.24	379.17
422.43	365.12
422.61	348.74
422.80	365.12
422.99	416.62
423.18	454.06
423.37	421.30
423.56	353.42
423.75	393.21
423.94	465.77
424.13	442.36
424.32	379.17
424.50	402.57
424.69	400.23
424.88	423.64
425.07	402.57
425.26	402.57
425.45	409.59
425.64	390.87
425.83	407.25
426.01	390.87
426.20	418.96
426.39	369.80
426.58	365.12
426.77	400.23
426.96	362.78
427.15	330.02
427.33	402.57
427.52	461.09
427.71	440.02
427.90	411.93
428.09	486.83
428.28	369.80
428.46	477.47
428.65	376.83
428.84	458.74
429.03	409.59
429.22	430.66
429.40	355.76
429.59	461.09
429.78	461.09
429.97	367.46
430.16	461.09
430.34	393.21
430.53	330.02
430.72	507.90
430.91	463.43
431.10	430.66
431.28	400.23
431.47	360.44
431.66	468.11
431.85	402.57
432.03	400.23
432.22	388.53
432.41	465.77
432.60	397.89
432.79	383.85
432.97	430.66
433.16	397.89
433.35	454.06
433.54	411.93
433.72	395.55
433.91	418.96
434.10	409.59
434.28	388.53
434.47	454.06
434.66	440.02
434.85	437.68
435.03	449.38
435.22	428.32
435.41	477.47
435.59	402.57
435.78	400.23
435.97	416.62
436.16	496.19
436.34	428.32
436.53	376.83
436.72	498.53
436.90	425.98
437.09	376.83
437.28	447.04
437.46	367.46
437.65	421.30
437.84	381.51
438.02	451.72
438.21	367.46
438.40	386.19
438.58	330.02
438.77	425.98
438.96	435.34
439.14	440.02
439.33	451.72
439.52	379.17
439.70	461.09
439.89	400.23
440.08	437.68
440.26	475.13
440.45	421.30
440.63	358.10
440.82	414.27
441.01	393.21
441.19	451.72
441.38	381.51
441.57	421.30
441.75	407.25
441.94	409.59
442.12	379.17
442.31	449.38
442.50	430.66
442.68	379.17
442.87	383.85
443.05	449.38
443.24	425.98
443.43	440.02
443.61	442.36
443.80	526.62
443.98	456.40
444.17	285.55
444.35	397.89
444.54	393.21
444.73	381.51
444.91	421.30
445.10	414.27
445.28	297.25
445.47	395.55
445.65	451.72
445.84	386.19
446.02	390.87
446.21	416.62
446.39	381.51
446.58	388.53
446.77	421.30
446.95	428.32
447.14	418.96
447.32	472.79
447.51	414.27
447.69	402.57
447.88	400.23
448.06	379.17
448.25	369.80
448.43	421.30
448.62	423.64
448.80	369.80
448.99	372.15
449.17	435.34
449.36	416.62
449.54	456.40
449.73	444.70
449.91	440.02
450.10	402.57
450.28	503.22
450.46	449.38
450.65	442.36
450.83	372.15
451.02	409.59
451.20	409.59
451.39	433.00
451.57	449.38
451.76	327.68
451.94	437.68
452.13	416.62
452.31	449.38
452.49	437.68
452.68	355.76
452.86	395.55
453.05	381.51
453.23	346.40
453.42	442.36
453.60	397.89
453.78	440.02
453.97	425.98
454.15	397.89
454.34	456.40
454.52	435.34
454.70	526.62
454.89	421.30
455.07	444.70
455.26	461.09
455.44	472.79
455.62	454.06
455.81	449.38
455.99	423.64
456.17	404.91
456.36	416.62
456.54	430.66
456.73	402.57
456.91	400.23
457.09	374.49
457.28	407.25
457.46	416.62
457.64	458.74
457.83	388.53
458.01	369.80
458.19	430.66
458.38	367.46
458.56	367.46
458.74	365.12
458.93	479.81
459.11	367.46
459.29	463.43
459.48	475.13
459.66	465.77
459.84	407.25
460.03	430.66
460.21	461.09
460.39	379.17
460.57	390.87
460.76	461.09
460.94	395.55
461.12	409.59
461.31	353.42
461.49	416.62
461.67	440.02
461.85	402.57
462.04	383.85
462.22	741.95
462.40	414.27
462.59	440.02
462.77	449.38
462.95	437.68
463.13	301.93
463.32	479.81
463.50	470.45
463.68	379.17
463.86	397.89
464.05	365.12
464.23	456.40
464.41	428.32
464.59	404.91
464.78	411.93
464.96	376.83
465.14	449.38
465.32	374.49
465.50	447.04
465.69	449.38
465.87	449.38
466.05	416.62
466.23	374.49
466.41	386.19
466.60	414.27
466.78	421.30
466.96	411.93
467.14	477.47
467.32	383.85
467.51	409.59
467.69	402.57
467.87	418.96
468.05	409.59
468.23	461.09
468.41	461.09
468.60	381.51
468.78	468.11
468.96	414.27
469.14	393.21
469.32	430.66
469.50	393.21
469.69	400.23
469.87	421.30
470.05	425.98
470.23	435.34
470.41	416.62
470.59	376.83
470.77	433.00
470.95	421.30
471.14	421.30
471.32	409.59
471.50	433.00
471.68	454.06
471.86	379.17
472.04	437.68
472.22	390.87
472.40	395.55
472.58	390.87
472.77	444.70
472.95	433.00
473.13	482.15
473.31	400.23
473.49	477.47
473.67	397.89
473.85	404.91
474.03	444.70
474.21	449.38
474.39	444.70
474.57	374.49
474.75	416.62
474.93	414.27
475.12	379.17
475.30	327.68
475.48	428.32
475.66	456.40
475.84	458.74
476.02	486.83
476.20	414.27
476.38	416.62
476.56	477.47
476.74	514.92
476.92	341.72
477.10	386.19
477.28	484.49
477.46	437.68
477.64	411.93
477.82	407.25
478.00	404.91
478.18	447.04
478.36	437.68
478.54	381.51
478.72	433.00
478.90	463.43
479.08	411.93
479.26	472.79
479.44	388.53
479.62	421.30
479.80	369.80
479.98	454.06
480.16	414.27
480.34	414.27
480.52	500.87
480.70	491.51
480.88	461.09
481.06	369.80
481.24	400.23
481.41	414.27
481.59	383.85
481.77	447.04
481.95	468.11
482.13	503.22
482.31	365.12
482.49	433.00
482.67	428.32
482.85	517.26
483.03	468.11
483.21	425.98
483.39	369.80
483.57	428.32
483.74	475.13
483.92	442.36
484.10	421.30
484.28	430.66
484.46	489.17
484.64	447.04
484.82	402.57
485.00	416.62
485.18	374.49
485.35	449.38
485.53	400.23
485.71	423.64
485.89	379.17
486.07	484.49
486.25	472.79
486.43	430.66
486.61	425.98
486.78	472.79
486.96	479.81
487.14	376.83
487.32	433.00
487.50	475.13
487.68	433.00
487.85	437.68
488.03	388.53
488.21	425.98
488.39	374.49
488.57	428.32
488.75	407.25
488.92	496.19
489.10	463.43
489.28	393.21
489.46	430.66
489.64	454.06
489.81	374.49
489.99	351.08
490.17	472.79
490.35	493.85
490.53	454.06
490.70	414.27
490.88	442.36
491.06	428.32
491.24	435.34
491.41	430.66
491.59	482.15
491.77	458.74
491.95	407.25
492.13	365.12
492.30	369.80
492.48	393.21
492.66	414.27
492.84	381.51
493.01	430.66
493.19	388.53
493.37	418.96
493.54	402.57
493.72	484.49
493.90	416.62
494.08	355.76
494.25	416.62
494.43	411.93
494.61	376.83
494.79	416.62
494.96	379.17
495.14	402.57
495.32	449.38
495.49	428.32
495.67	395.55
495.85	365.12
496.02	344.06
496.20	428.32
496.38	388.53
496.55	461.09
496.73	447.04
496.91	482.15
497.09	407.25
497.26	400.23
497.44	423.64
497.62	435.34
497.79	348.74
497.97	444.70
498.14	465.77
498.32	421.30
498.50	402.57
498.67	402.57
498.85	374.49
499.03	407.25
499.20	381.51
499.38	390.87
499.56	367.46
499.73	486.83
499.91	472.79
500.08	482.15
500.26	423.64
500.44	397.89
500.61	411.93
500.79	449.38
500.97	465.77
501.14	465.77
501.32	447.04
501.49	428.32
501.67	376.83
501.84	388.53
502.02	367.46
502.20	468.11
502.37	407.25
502.55	430.66
502.72	435.34
502.90	449.38
503.07	451.72
503.25	425.98
503.43	397.89
503.60	390.87
503.78	435.34
503.95	374.49
504.13	315.97
504.30	428.32
504.48	498.53
504.65	433.00
504.83	442.36
505.01	435.34
505.18	440.02
505.36	451.72
505.53	449.38
505.71	374.49
505.88	468.11
506.06	444.70
506.23	475.13
506.41	423.64
506.58	393.21
506.76	444.70
506.93	430.66
507.11	435.34
507.28	482.15
507.46	440.02
507.63	449.38
507.81	397.89
507.98	440.02
508.16	400.23
508.33	421.30
508.50	404.91
508.68	369.80
508.85	362.78
509.03	400.23
509.20	496.19
509.38	472.79
509.55	414.27
509.73	409.59
509.90	470.45
510.08	409.59
510.25	395.55
510.42	404.91
510.60	393.21
510.77	451.72
510.95	447.04
511.12	440.02
511.30	477.47
511.47	400.23
511.64	477.47
511.82	407.25
511.99	400.23
512.17	461.09
512.34	416.62
512.51	402.57
512.69	440.02
512.86	482.15
513.04	383.85
513.21	393.21
513.38	365.12
513.56	425.98
513.73	500.87
513.90	416.62
514.08	418.96
514.25	416.62
514.43	442.36
514.60	348.74
514.77	390.87
514.95	430.66
515.12	451.72
515.29	416.62
515.47	365.12
515.64	379.17
515.81	458.74
515.99	486.83
516.16	332.36
516.33	496.19
516.51	423.64
516.68	386.19
516.85	341.72
517.03	447.04
517.20	451.72
517.37	447.04
517.54	414.27
517.72	374.49
517.89	423.64
518.06	468.11
518.24	407.25
518.41	484.49
518.58	418.96
518.75	386.19
518.93	437.68
519.10	395.55
519.27	381.51
519.45	428.32
519.62	416.62
519.79	404.91
519.96	402.57
520.14	461.09
520.31	353.42
520.48	423.64
520.65	430.66
520.83	491.51
521.00	482.15
521.17	463.43
521.34	425.98
521.52	423.64
521.69	449.38
521.86	388.53
522.03	393.21
522.20	547.69
522.38	423.64
522.55	341.72
522.72	348.74
522.89	433.00
523.07	470.45
523.24	444.70
523.41	374.49
523.58	397.89
523.75	386.19
523.92	435.34
524.10	454.06
524.27	353.42
524.44	390.87
524.61	400.23
524.78	397.89
524.96	397.89
525.13	372.15
525.30	449.38
525.47	444.70
525.64	407.25
525.81	376.83
525.98	482.15
526.16	498.53
526.33	437.68
526.50	395.55
526.67	383.85
526.84	386.19
527.01	470.45
527.18	414.27
527.36	407.25
527.53	386.19
527.70	416.62
527.87	416.62
528.04	489.17
528.21	472.79
528.38	430.66
528.55	444.70
528.72	425.98
528.89	379.17
529.07	449.38
529.24	440.02
529.41	395.55
529.58	470.45
529.75	468.11
529.92	416.62
530.09	404.91
530.26	435.34
530.43	430.66
530.60	414.27
530.77	416.62
530.94	423.64
531.11	393.21
531.28	463.43
531.46	425.98
531.63	390.87
531.80	409.59
531.97	433.00
532.14	367.46
532.31	500.87
532.48	418.96
532.65	458.74
532.82	337.04
532.99	433.00
533.16	315.97
533.33	393.21
533.50	369.80
533.67	346.40
533.84	355.76
534.01	428.32
534.18	423.64
534.35	404.91
534.52	463.43
534.69	395.55
534.86	395.55
535.03	421.30
535.20	376.83
535.37	360.44
535.54	444.70
535.71	390.87
535.88	477.47
536.05	444.70
536.22	472.79
536.38	463.43
536.55	451.72
536.72	465.77
536.89	390.87
537.06	404.91
537.23	395.55
537.40	442.36
537.57	416.62
537.74	524.28
537.91	449.38
538.08	390.87
538.25	444.70
538.42	444.70
538.59	479.81
538.75	358.10
538.92	407.25
539.09	442.36
539.26	423.64
539.43	440.02
539.60	358.10
539.77	355.76
539.94	416.62
540.11	472.79
540.28	442.36
540.44	496.19
540.61	425.98
540.78	407.25
540.95	421.30
541.12	482.15
541.29	418.96
541.46	479.81
541.62	512.58
541.79	390.87
541.96	400.23
542.13	374.49
542.30	381.51
542.47	421.30
542.63	519.60
542.80	498.53
542.97	425.98
543.14	437.68
543.31	418.96
543.48	416.62
543.64	409.59
543.81	400.23
543.98	400.23
544.15	447.04
544.32	440.02
544.48	482.15
544.65	381.51
544.82	337.04
544.99	322.99
545.16	355.76
545.32	395.55
545.49	472.79
545.66	400.23
545.83	444.70
546.00	358.10
546.16	372.15
546.33	461.09
546.50	440.02
546.67	414.27
546.83	369.80
547.00	374.49
547.17	393.21
547.34	414.27
547.50	416.62
547.67	388.53
547.84	404.91
548.00	395.55
548.17	409.59
548.34	379.17
548.51	367.46
548.67	479.81
548.84	437.68
549.01	447.04
549.18	486.83
549.34	458.74
549.51	353.42
549.68	393.21
549.84	479.81
550.01	425.98
550.18	433.00
550.34	442.36
550.51	430.66
550.68	454.06
550.84	430.66
551.01	428.32
551.18	388.53
551.34	423.64
551.51	463.43
551.68	428.32
551.84	491.51
552.01	433.00
552.18	379.17
552.34	433.00
552.51	479.81
552.68	472.79
552.84	444.70
553.01	458.74
553.18	416.62
553.34	463.43
553.51	397.89
553.67	470.45
553.84	486.83
554.01	484.49
554.17	404.91
554.34	489.17
554.51	395.55
554.67	416.62
554.84	498.53
555.00	451.72
555.17	397.89
555.33	514.92
555.50	400.23
555.67	449.38
555.83	407.25
556.00	341.72
556.16	465.77
556.33	454.06
556.50	454.06
556.66	388.53
556.83	465.77
556.99	402.57
557.16	447.04
557.32	332.36
557.49	414.27
557.65	393.21
557.82	442.36
557.98	425.98
558.15	402.57
558.32	381.51
558.48	397.89
558.65	369.80
558.81	444.70
558.98	393.21
559.14	468.11
559.31	397.89
559.47	524.28
559.64	468.11
559.80	414.27
559.97	440.02
560.13	447.04
560.30	437.68
560.46	444.70
560.63	425.98
560.79	456.40
560.96	358.10
561.12	379.17
561.29	402.57
561.45	493.85
561.61	365.12
561.78	465.77
561.94	376.83
562.11	381.51
562.27	393.21
562.44	404.91
562.60	393.21
562.77	425.98
562.93	512.58
563.10	395.55
563.26	376.83
563.42	470.45
563.59	421.30
563.75	458.74
563.92	500.87
564.08	503.22
564.24	472.79
564.41	402.57
564.57	393.21
564.74	411.93
564.90	444.70
565.07	456.40
565.23	440.02
565.39	418.96
565.56	379.17
565.72	400.23
565.88	383.85
566.05	421.30
566.21	421.30
566.38	407.25
566.54	358.10
566.70	400.23
566.87	353.42
567.03	395.55
567.19	407.25
567.36	421.30
567.52	358.10
567.68	402.57
567.85	447.04
568.01	425.98
568.17	341.72
568.34	428.32
568.50	435.34
568.66	458.74
568.83	428.32
568.99	440.02
569.15	379.17
569.32	395.55
569.48	421.30
569.64	381.51
569.81	400.23
569.97	433.00
570.13	400.23
570.30	418.96
570.46	461.09
570.62	433.00
570.78	421.30
570.95	404.91
571.11	411.93
571.27	428.32
571.43	355.76
571.60	402.57
571.76	344.06
571.92	468.11
572.09	437.68
572.25	353.42
572.41	376.83
572.57	409.59
572.74	465.77
572.90	477.47
573.06	428.32
573.22	465.77
573.38	376.83
573.55	393.21
573.71	475.13
573.87	407.25
574.03	477.47
574.20	381.51
574.36	437.68
574.52	470.45
574.68	374.49
574.84	447.04
575.01	374.49
575.17	444.70
575.33	437.68
575.49	418.96
575.65	409.59
575.82	414.27
575.98	423.64
576.14	433.00
576.30	404.91
576.46	393.21
576.62	411.93
576.79	468.11
576.95	421.30
577.11	451.72
577.27	365.12
577.43	390.87
577.59	425.98
577.75	395.55
577.92	440.02
578.08	404.91
578.24	376.83
578.40	475.13
578.56	447.04
578.72	447.04
578.88	411.93
579.04	395.55
579.21	437.68
579.37	355.76
579.53	418.96
579.69	372.15
579.85	468.11
580.01	404.91
580.17	463.43
580.33	418.96
580.49	479.81
580.65	407.25
580.82	386.19
580.98	418.96
581.14	374.49
581.30	411.93
581.46	456.40
581.62	451.72
581.78	449.38
581.94	425.98
582.10	423.64
582.26	414.27
582.42	367.46
582.58	468.11
582.74	386.19
582.90	456.40
583.06	454.06
583.22	332.36
583.38	421.30
583.54	409.59
583.70	435.34
583.86	444.70
584.02	418.96
584.18	437.68
584.34	428.32
584.50	428.32
584.66	346.40
584.82	475.13
584.98	388.53
585.14	407.25
585.30	332.36
585.46	437.68
585.62	475.13
585.78	444.70
585.94	468.11
586.10	470.45
586.26	449.38
586.42	411.93
586.58	374.49
586.74	451.72
586.90	369.80
587.06	423.64
587.22	465.77
587.38	414.27
587.54	409.59
587.70	463.43
587.86	451.72
588.02	411.93
588.18	482.15
588.34	444.70
588.49	393.21
588.65	416.62
588.81	390.87
588.97	381.51
589.13	381.51
589.29	388.53
589.45	440.02
589.61	404.91
589.77	437.68
589.93	416.62
590.08	442.36
590.24	435.34
590.40	409.59
590.56	402.57
590.72	402.57
590.88	418.96
591.04	344.06
591.20	367.46
591.35	486.83
591.51	486.83
591.67	395.55
591.83	416.62
591.99	402.57
592.15	435.34
592.31	355.76
592.46	454.06
592.62	435.34
592.78	362.78
592.94	425.98
593.10	407.25
593.26	440.02
593.41	423.64
593.57	477.47
593.73	374.49
593.89	404.91
594.05	454.06
594.20	355.76
594.36	461.09
594.52	383.85
594.68	409.59
594.84	496.19
594.99	435.34
595.15	409.59
595.31	418.96
595.47	451.72
595.62	456.40
595.78	402.57
595.94	369.80
596.10	388.53
596.25	428.32
596.41	376.83
596.57	411.93
596.73	475.13
596.88	421.30
597.04	444.70
597.20	435.34
597.36	400.23
597.51	458.74
597.67	437.68
597.83	344.06
597.99	458.74
598.14	430.66
598.30	461.09
598.46	475.13
598.61	447.04
598.77	498.53
598.93	418.96
599.09	421.30
599.24	425.98
599.40	440.02
599.56	477.47
599.71	388.53
599.87	447.04
600.03	461.09
600.18	409.59
600.34	388.53
600.50	362.78
600.65	407.25
600.81	433.00
600.97	430.66
601.12	463.43
601.28	440.02
601.44	458.74
601.59	397.89
601.75	407.25
601.91	402.57
602.06	341.72
602.22	486.83
602.37	402.57
602.53	388.53
602.69	404.91
602.84	365.12
603.00	402.57
603.16	442.36
603.31	414.27
603.47	388.53
603.62	454.06
603.78	472.79
603.94	416.62
604.09	500.87
604.25	409.59
604.40	423.64
604.56	395.55
604.71	456.40
604.87	442.36
605.03	383.85
605.18	372.15
605.34	465.77
605.49	418.96
605.65	341.72
605.80	400.23
605.96	390.87
606.12	390.87
606.27	407.25
606.43	395.55
606.58	475.13
606.74	425.98
606.89	346.40
607.05	433.00
607.20	421.30
607.36	423.64
607.51	337.04
607.67	454.06
607.82	418.96
607.98	472.79
608.13	421.30
608.29	383.85
608.44	428.32
608.60	395.55
608.75	512.58
608.91	491.51
609.06	475.13
609.22	411.93
609.37	465.77
609.53	409.59
609.68	423.64
609.84	465.77
609.99	402.57
610.15	425.98
