SpectraSuite Data File
++++++++++++++++++++++++++++++++++++
Date: Fri Oct 25 12:10:55 EDT 2013
User: price-jones
Dark Spectrum Present: No
Reference Spectrum Present: No
Number of Sampled Component Spectra: 1
Spectrometers: USB2+H05261
Integration Time (usec): 100000 (USB2+H05261)
Spectra Averaged: 1 (USB2+H05261)
Boxcar Smoothing: 0 (USB2+H05261)
Correct for Electrical Dark: No (USB2+H05261)
Strobe/Lamp Enabled: No (USB2+H05261)
Correct for Detector Non-linearity: No (USB2+H05261)
Correct for Stray Light: No (USB2+H05261)
Number of Pixels in Processed Spectrum: 2048
>>>>>Begin Processed Spectral Data<<<<<
365.73	339.38
365.92	339.38
366.12	339.38
366.32	257.46
366.52	280.86
366.72	269.16
366.91	252.78
367.11	311.29
367.31	276.18
367.51	278.52
367.70	236.39
367.90	224.69
368.10	259.80
368.30	269.16
368.49	280.86
368.69	308.95
368.89	243.42
369.09	308.95
369.28	271.50
369.48	248.10
369.68	278.52
369.87	311.29
370.07	306.61
370.27	358.10
370.47	360.44
370.66	348.74
370.86	330.02
371.06	430.66
371.25	369.80
371.45	393.21
371.65	353.42
371.84	341.72
372.04	400.23
372.24	397.89
372.44	341.72
372.63	435.34
372.83	409.59
373.03	369.80
373.22	428.32
373.42	428.32
373.62	454.06
373.81	449.38
374.01	414.27
374.21	442.36
374.40	393.21
374.60	447.04
374.79	395.55
374.99	393.21
375.19	367.46
375.38	442.36
375.58	397.89
375.78	437.68
375.97	414.27
376.17	440.02
376.37	395.55
376.56	393.21
376.76	411.93
376.95	416.62
377.15	409.59
377.35	437.68
377.54	397.89
377.74	374.49
377.93	381.51
378.13	451.72
378.33	367.46
378.52	369.80
378.72	449.38
378.91	397.89
379.11	367.46
379.31	442.36
379.50	437.68
379.70	409.59
379.89	397.89
380.09	332.36
380.28	409.59
380.48	367.46
380.68	430.66
380.87	355.76
381.07	449.38
381.26	404.91
381.46	376.83
381.65	463.43
381.85	341.72
382.04	416.62
382.24	458.74
382.43	353.42
382.63	332.36
382.83	393.21
383.02	379.17
383.22	479.81
383.41	393.21
383.61	409.59
383.80	444.70
384.00	463.43
384.19	341.72
384.39	428.32
384.58	437.68
384.78	418.96
384.97	383.85
385.17	390.87
385.36	381.51
385.56	372.15
385.75	397.89
385.95	400.23
386.14	411.93
386.34	362.78
386.53	402.57
386.72	374.49
386.92	437.68
387.11	404.91
387.31	430.66
387.50	400.23
387.70	397.89
387.89	421.30
388.09	404.91
388.28	421.30
388.48	416.62
388.67	421.30
388.86	468.11
389.06	388.53
389.25	409.59
389.45	409.59
389.64	365.12
389.84	416.62
390.03	355.76
390.22	440.02
390.42	383.85
390.61	416.62
390.81	362.78
391.00	425.98
391.19	486.83
391.39	416.62
391.58	451.72
391.78	404.91
391.97	416.62
392.16	425.98
392.36	393.21
392.55	421.30
392.75	400.23
392.94	433.00
393.13	484.49
393.33	433.00
393.52	362.78
393.71	404.91
393.91	369.80
394.10	374.49
394.29	393.21
394.49	390.87
394.68	437.68
394.88	404.91
395.07	482.15
395.26	400.23
395.46	435.34
395.65	421.30
395.84	435.34
396.04	409.59
396.23	388.53
396.42	411.93
396.62	339.38
396.81	425.98
397.00	386.19
397.19	458.74
397.39	395.55
397.58	433.00
397.77	372.15
397.97	390.87
398.16	395.55
398.35	411.93
398.55	404.91
398.74	367.46
398.93	362.78
399.12	390.87
399.32	374.49
399.51	367.46
399.70	386.19
399.90	402.57
400.09	367.46
400.28	400.23
400.47	351.08
400.67	372.15
400.86	374.49
401.05	416.62
401.24	423.64
401.44	351.08
401.63	433.00
401.82	454.06
402.01	437.68
402.21	379.17
402.40	472.79
402.59	428.32
402.78	388.53
402.97	414.27
403.17	374.49
403.36	386.19
403.55	365.12
403.74	428.32
403.93	418.96
404.13	369.80
404.32	397.89
404.51	397.89
404.70	440.02
404.89	393.21
405.09	409.59
405.28	381.51
405.47	435.34
405.66	484.49
405.85	437.68
406.05	397.89
406.24	418.96
406.43	383.85
406.62	411.93
406.81	418.96
407.00	402.57
407.20	393.21
407.39	425.98
407.58	409.59
407.77	400.23
407.96	423.64
408.15	372.15
408.34	421.30
408.54	430.66
408.73	358.10
408.92	430.66
409.11	416.62
409.30	390.87
409.49	367.46
409.68	421.30
409.87	383.85
410.07	386.19
410.26	395.55
410.45	402.57
410.64	386.19
410.83	458.74
411.02	395.55
411.21	369.80
411.40	470.45
411.59	402.57
411.78	390.87
411.98	388.53
412.17	393.21
412.36	414.27
412.55	355.76
412.74	440.02
412.93	400.23
413.12	365.12
413.31	456.40
413.50	425.98
413.69	306.61
413.88	407.25
414.07	395.55
414.26	442.36
414.45	447.04
414.64	393.21
414.83	353.42
415.02	409.59
415.22	425.98
415.41	421.30
415.60	318.31
415.79	421.30
415.98	456.40
416.17	358.10
416.36	407.25
416.55	397.89
416.74	369.80
416.93	428.32
417.12	493.85
417.31	437.68
417.50	454.06
417.69	482.15
417.88	404.91
418.07	397.89
418.26	390.87
418.45	404.91
418.64	390.87
418.83	404.91
419.02	390.87
419.21	414.27
419.39	416.62
419.58	325.33
419.77	388.53
419.96	407.25
420.15	400.23
420.34	418.96
420.53	430.66
420.72	447.04
420.91	479.81
421.10	383.85
421.29	381.51
421.48	428.32
421.67	437.68
421.86	400.23
422.05	404.91
422.24	353.42
422.43	383.85
422.61	379.17
422.80	409.59
422.99	367.46
423.18	407.25
423.37	435.34
423.56	416.62
423.75	461.09
423.94	404.91
424.13	395.55
424.32	301.93
424.50	477.47
424.69	430.66
424.88	440.02
425.07	407.25
425.26	400.23
425.45	386.19
425.64	369.80
425.83	402.57
426.01	454.06
426.20	440.02
426.39	477.47
426.58	360.44
426.77	416.62
426.96	355.76
427.15	442.36
427.33	435.34
427.52	355.76
427.71	489.17
427.90	395.55
428.09	374.49
428.28	353.42
428.46	409.59
428.65	493.85
428.84	425.98
429.03	376.83
429.22	407.25
429.40	465.77
429.59	351.08
429.78	397.89
429.97	390.87
430.16	402.57
430.34	400.23
430.53	383.85
430.72	414.27
430.91	465.77
431.10	407.25
431.28	411.93
431.47	423.64
431.66	390.87
431.85	407.25
432.03	451.72
432.22	442.36
432.41	404.91
432.60	461.09
432.79	402.57
432.97	390.87
433.16	411.93
433.35	379.17
433.54	416.62
433.72	435.34
433.91	458.74
434.10	397.89
434.28	411.93
434.47	418.96
434.66	421.30
434.85	435.34
435.03	404.91
435.22	454.06
435.41	456.40
435.59	339.38
435.78	463.43
435.97	407.25
436.16	517.26
436.34	442.36
436.53	381.51
436.72	404.91
436.90	465.77
437.09	416.62
437.28	404.91
437.46	423.64
437.65	400.23
437.84	344.06
438.02	451.72
438.21	423.64
438.40	332.36
438.58	407.25
438.77	425.98
438.96	442.36
439.14	386.19
439.33	381.51
439.52	400.23
439.70	421.30
439.89	423.64
440.08	374.49
440.26	402.57
440.45	425.98
440.63	397.89
440.82	397.89
441.01	444.70
441.19	390.87
441.38	442.36
441.57	344.06
441.75	379.17
441.94	430.66
442.12	414.27
442.31	390.87
442.50	421.30
442.68	435.34
442.87	444.70
443.05	390.87
443.24	383.85
443.43	423.64
443.61	367.46
443.80	353.42
443.98	440.02
444.17	388.53
444.35	425.98
444.54	374.49
444.73	372.15
444.91	411.93
445.10	395.55
445.28	447.04
445.47	470.45
445.65	447.04
445.84	433.00
446.02	454.06
446.21	425.98
446.39	353.42
446.58	418.96
446.77	397.89
446.95	411.93
447.14	416.62
447.32	475.13
447.51	374.49
447.69	362.78
447.88	486.83
448.06	433.00
448.25	402.57
448.43	358.10
448.62	365.12
448.80	367.46
448.99	393.21
449.17	407.25
449.36	390.87
449.54	421.30
449.73	482.15
449.91	489.17
450.10	430.66
450.28	482.15
450.46	425.98
450.65	390.87
450.83	458.74
451.02	407.25
451.20	475.13
451.39	397.89
451.57	524.28
451.76	404.91
451.94	407.25
452.13	416.62
452.31	449.38
452.49	456.40
452.68	430.66
452.86	447.04
453.05	430.66
453.23	468.11
453.42	425.98
453.60	376.83
453.78	444.70
453.97	388.53
454.15	393.21
454.34	360.44
454.52	390.87
454.70	463.43
454.89	454.06
455.07	397.89
455.26	404.91
455.44	433.00
455.62	404.91
455.81	407.25
455.99	395.55
456.17	358.10
456.36	402.57
456.54	395.55
456.73	428.32
456.91	465.77
457.09	425.98
457.28	475.13
457.46	449.38
457.64	390.87
457.83	369.80
458.01	409.59
458.19	411.93
458.38	454.06
458.56	395.55
458.74	360.44
458.93	388.53
459.11	440.02
459.29	362.78
459.48	425.98
459.66	376.83
459.84	470.45
460.03	404.91
460.21	395.55
460.39	435.34
460.57	397.89
460.76	402.57
460.94	369.80
461.12	465.77
461.31	510.24
461.49	456.40
461.67	332.36
461.85	360.44
462.04	430.66
462.22	751.31
462.40	435.34
462.59	435.34
462.77	395.55
462.95	472.79
463.13	449.38
463.32	393.21
463.50	402.57
463.68	407.25
463.86	348.74
464.05	381.51
464.23	404.91
464.41	435.34
464.59	472.79
464.78	449.38
464.96	327.68
465.14	463.43
465.32	425.98
465.50	367.46
465.69	299.59
465.87	440.02
466.05	376.83
466.23	454.06
466.41	383.85
466.60	458.74
466.78	461.09
466.96	440.02
467.14	402.57
467.32	451.72
467.51	353.42
467.69	465.77
467.87	472.79
468.05	433.00
468.23	470.45
468.41	458.74
468.60	423.64
468.78	395.55
468.96	400.23
469.14	425.98
469.32	407.25
469.50	383.85
469.69	409.59
469.87	407.25
470.05	397.89
470.23	479.81
470.41	444.70
470.59	372.15
470.77	463.43
470.95	362.78
471.14	409.59
471.32	362.78
471.50	414.27
471.68	395.55
471.86	414.27
472.04	428.32
472.22	400.23
472.40	402.57
472.58	477.47
472.77	390.87
472.95	390.87
473.13	468.11
473.31	451.72
473.49	372.15
473.67	444.70
473.85	463.43
474.03	463.43
474.21	393.21
474.39	484.49
474.57	397.89
474.75	430.66
474.93	390.87
475.12	423.64
475.30	402.57
475.48	325.33
475.66	365.12
475.84	407.25
476.02	454.06
476.20	463.43
476.38	456.40
476.56	470.45
476.74	397.89
476.92	503.22
477.10	362.78
477.28	367.46
477.46	440.02
477.64	355.76
477.82	383.85
478.00	397.89
478.18	454.06
478.36	369.80
478.54	456.40
478.72	393.21
478.90	339.38
479.08	395.55
479.26	433.00
479.44	365.12
479.62	383.85
479.80	479.81
479.98	458.74
480.16	374.49
480.34	351.08
480.52	402.57
480.70	454.06
480.88	418.96
481.06	388.53
481.24	365.12
481.41	386.19
481.59	444.70
481.77	421.30
481.95	463.43
482.13	454.06
482.31	362.78
482.49	414.27
482.67	451.72
482.85	435.34
483.03	381.51
483.21	451.72
483.39	425.98
483.57	390.87
483.74	444.70
483.92	407.25
484.10	430.66
484.28	400.23
484.46	489.17
484.64	465.77
484.82	447.04
485.00	388.53
485.18	425.98
485.35	451.72
485.53	407.25
485.71	433.00
485.89	379.17
486.07	369.80
486.25	440.02
486.43	423.64
486.61	458.74
486.78	451.72
486.96	449.38
487.14	376.83
487.32	339.38
487.50	461.09
487.68	407.25
487.85	437.68
488.03	449.38
488.21	421.30
488.39	461.09
488.57	433.00
488.75	400.23
488.92	503.22
489.10	400.23
489.28	454.06
489.46	388.53
489.64	397.89
489.81	449.38
489.99	379.17
490.17	435.34
490.35	472.79
490.53	362.78
490.70	470.45
490.88	496.19
491.06	365.12
491.24	418.96
491.41	465.77
491.59	411.93
491.77	409.59
491.95	390.87
492.13	334.70
492.30	421.30
492.48	381.51
492.66	374.49
492.84	390.87
493.01	454.06
493.19	435.34
493.37	428.32
493.54	407.25
493.72	435.34
493.90	463.43
494.08	332.36
494.25	400.23
494.43	390.87
494.61	367.46
494.79	397.89
494.96	374.49
495.14	421.30
495.32	428.32
495.49	376.83
495.67	414.27
495.85	402.57
496.02	390.87
496.20	444.70
496.38	440.02
496.55	493.85
496.73	447.04
496.91	283.20
497.09	381.51
497.26	468.11
497.44	411.93
497.62	456.40
497.79	465.77
497.97	449.38
498.14	454.06
498.32	409.59
498.50	475.13
498.67	440.02
498.85	407.25
499.03	395.55
499.20	397.89
499.38	442.36
499.56	402.57
499.73	440.02
499.91	449.38
500.08	435.34
500.26	421.30
500.44	437.68
500.61	372.15
500.79	388.53
500.97	379.17
501.14	437.68
501.32	425.98
501.49	428.32
501.67	428.32
501.84	409.59
502.02	376.83
502.20	397.89
502.37	428.32
502.55	404.91
502.72	463.43
502.90	376.83
503.07	397.89
503.25	404.91
503.43	430.66
503.60	379.17
503.78	374.49
503.95	423.64
504.13	367.46
504.30	425.98
504.48	407.25
504.65	428.32
504.83	416.62
505.01	421.30
505.18	409.59
505.36	379.17
505.53	369.80
505.71	423.64
505.88	425.98
506.06	428.32
506.23	409.59
506.41	475.13
506.58	400.23
506.76	423.64
506.93	376.83
507.11	428.32
507.28	407.25
507.46	393.21
507.63	367.46
507.81	400.23
507.98	383.85
508.16	456.40
508.33	409.59
508.50	395.55
508.68	433.00
508.85	386.19
509.03	418.96
509.20	381.51
509.38	479.81
509.55	400.23
509.73	383.85
509.90	491.51
510.08	404.91
510.25	458.74
510.42	411.93
510.60	418.96
510.77	397.89
510.95	428.32
511.12	362.78
511.30	400.23
511.47	376.83
511.64	418.96
511.82	353.42
511.99	430.66
512.17	411.93
512.34	390.87
512.51	383.85
512.69	461.09
512.86	423.64
513.04	369.80
513.21	381.51
513.38	447.04
513.56	355.76
513.73	395.55
513.90	388.53
514.08	393.21
514.25	421.30
514.43	449.38
514.60	376.83
514.77	379.17
514.95	454.06
515.12	409.59
515.29	437.68
515.47	423.64
515.64	433.00
515.81	440.02
515.99	517.26
516.16	442.36
516.33	395.55
516.51	428.32
516.68	433.00
516.85	402.57
517.03	503.22
517.20	433.00
517.37	451.72
517.54	444.70
517.72	423.64
517.89	367.46
518.06	365.12
518.24	425.98
518.41	512.58
518.58	402.57
518.75	390.87
518.93	461.09
519.10	360.44
519.27	397.89
519.45	437.68
519.62	407.25
519.79	444.70
519.96	386.19
520.14	393.21
520.31	463.43
520.48	367.46
520.65	393.21
520.83	479.81
521.00	493.85
521.17	374.49
521.34	425.98
521.52	409.59
521.69	411.93
521.86	437.68
522.03	440.02
522.20	435.34
522.38	397.89
522.55	400.23
522.72	411.93
522.89	472.79
523.07	566.41
523.24	397.89
523.41	369.80
523.58	402.57
523.75	386.19
523.92	346.40
524.10	421.30
524.27	402.57
524.44	449.38
524.61	379.17
524.78	400.23
524.96	461.09
525.13	465.77
525.30	430.66
525.47	390.87
525.64	376.83
525.81	444.70
525.98	414.27
526.16	407.25
526.33	369.80
526.50	461.09
526.67	416.62
526.84	414.27
527.01	348.74
527.18	451.72
527.36	423.64
527.53	449.38
527.70	447.04
527.87	428.32
528.04	475.13
528.21	322.99
528.38	442.36
528.55	454.06
528.72	421.30
528.89	428.32
529.07	430.66
529.24	414.27
529.41	425.98
529.58	444.70
529.75	355.76
529.92	447.04
530.09	444.70
530.26	411.93
530.43	435.34
530.60	402.57
530.77	383.85
530.94	447.04
531.11	475.13
531.28	416.62
531.46	456.40
531.63	390.87
531.80	346.40
531.97	393.21
532.14	404.91
532.31	416.62
532.48	379.17
532.65	423.64
532.82	409.59
532.99	332.36
533.16	318.31
533.33	454.06
533.50	374.49
533.67	407.25
533.84	437.68
534.01	358.10
534.18	367.46
534.35	390.87
534.52	353.42
534.69	456.40
534.86	428.32
535.03	400.23
535.20	367.46
535.37	440.02
535.54	397.89
535.71	440.02
535.88	461.09
536.05	423.64
536.22	463.43
536.38	374.49
536.55	461.09
536.72	430.66
536.89	423.64
537.06	414.27
537.23	435.34
537.40	395.55
537.57	470.45
537.74	447.04
537.91	461.09
538.08	404.91
538.25	376.83
538.42	402.57
538.59	416.62
538.75	393.21
538.92	409.59
539.09	369.80
539.26	376.83
539.43	409.59
539.60	360.44
539.77	388.53
539.94	428.32
540.11	395.55
540.28	449.38
540.44	472.79
540.61	402.57
540.78	416.62
540.95	362.78
541.12	423.64
541.29	362.78
541.46	423.64
541.62	362.78
541.79	386.19
541.96	393.21
542.13	407.25
542.30	351.08
542.47	402.57
542.63	397.89
542.80	430.66
542.97	430.66
543.14	409.59
543.31	465.77
543.48	447.04
543.64	482.15
543.81	477.47
543.98	358.10
544.15	423.64
544.32	390.87
544.48	407.25
544.65	334.70
544.82	461.09
544.99	353.42
545.16	423.64
545.32	461.09
545.49	423.64
545.66	332.36
545.83	404.91
546.00	379.17
546.16	367.46
546.33	409.59
546.50	369.80
546.67	421.30
546.83	507.90
547.00	456.40
547.17	390.87
547.34	365.12
547.50	397.89
547.67	498.53
547.84	454.06
548.00	423.64
548.17	388.53
548.34	496.19
548.51	418.96
548.67	395.55
548.84	416.62
549.01	388.53
549.18	409.59
549.34	430.66
549.51	463.43
549.68	454.06
549.84	379.17
550.01	418.96
550.18	388.53
550.34	423.64
550.51	397.89
550.68	397.89
550.84	395.55
551.01	400.23
551.18	395.55
551.34	416.62
551.51	418.96
551.68	355.76
551.84	465.77
552.01	388.53
552.18	372.15
552.34	414.27
552.51	430.66
552.68	397.89
552.84	381.51
553.01	454.06
553.18	409.59
553.34	414.27
553.51	407.25
553.67	381.51
553.84	512.58
554.01	390.87
554.17	404.91
554.34	346.40
554.51	461.09
554.67	444.70
554.84	430.66
555.00	381.51
555.17	409.59
555.33	360.44
555.50	435.34
555.67	435.34
555.83	484.49
556.00	379.17
556.16	498.53
556.33	449.38
556.50	472.79
556.66	400.23
556.83	418.96
556.99	458.74
557.16	353.42
557.32	393.21
557.49	482.15
557.65	393.21
557.82	365.12
557.98	390.87
558.15	341.72
558.32	372.15
558.48	444.70
558.65	374.49
558.81	440.02
558.98	397.89
559.14	477.47
559.31	369.80
559.47	484.49
559.64	440.02
559.80	437.68
559.97	411.93
560.13	425.98
560.30	393.21
560.46	369.80
560.63	339.38
560.79	416.62
560.96	498.53
561.12	463.43
561.29	341.72
561.45	447.04
561.61	461.09
561.78	447.04
561.94	411.93
562.11	433.00
562.27	423.64
562.44	425.98
562.60	322.99
562.77	395.55
562.93	447.04
563.10	440.02
563.26	447.04
563.42	440.02
563.59	393.21
563.75	353.42
563.92	421.30
564.08	447.04
564.24	507.90
564.41	468.11
564.57	386.19
564.74	456.40
564.90	456.40
565.07	414.27
565.23	468.11
565.39	421.30
565.56	374.49
565.72	397.89
565.88	346.40
566.05	465.77
566.21	411.93
566.38	423.64
566.54	435.34
566.70	395.55
566.87	397.89
567.03	437.68
567.19	430.66
567.36	479.81
567.52	395.55
567.68	360.44
567.85	404.91
568.01	456.40
568.17	430.66
568.34	351.08
568.50	440.02
568.66	456.40
568.83	505.56
568.99	407.25
569.15	402.57
569.32	458.74
569.48	479.81
569.64	404.91
569.81	430.66
569.97	416.62
570.13	491.51
570.30	440.02
570.46	440.02
570.62	367.46
570.78	330.02
570.95	437.68
571.11	498.53
571.27	425.98
571.43	374.49
571.60	411.93
571.76	433.00
571.92	433.00
572.09	428.32
572.25	484.49
572.41	411.93
572.57	393.21
572.74	425.98
572.90	475.13
573.06	360.44
573.22	449.38
573.38	444.70
573.55	442.36
573.71	482.15
573.87	416.62
574.03	428.32
574.20	388.53
574.36	428.32
574.52	437.68
574.68	425.98
574.84	390.87
575.01	421.30
575.17	449.38
575.33	388.53
575.49	397.89
575.65	421.30
575.82	381.51
575.98	498.53
576.14	390.87
576.30	376.83
576.46	393.21
576.62	454.06
576.79	477.47
576.95	463.43
577.11	381.51
577.27	428.32
577.43	435.34
577.59	402.57
577.75	444.70
577.92	404.91
578.08	440.02
578.24	414.27
578.40	404.91
578.56	449.38
578.72	482.15
578.88	472.79
579.04	440.02
579.21	458.74
579.37	395.55
579.53	315.97
579.69	411.93
579.85	313.63
580.01	465.77
580.17	390.87
580.33	369.80
580.49	367.46
580.65	449.38
580.82	435.34
580.98	437.68
581.14	444.70
581.30	404.91
581.46	437.68
581.62	477.47
581.78	496.19
581.94	395.55
582.10	397.89
582.26	456.40
582.42	414.27
582.58	456.40
582.74	393.21
582.90	442.36
583.06	407.25
583.22	404.91
583.38	437.68
583.54	484.49
583.70	418.96
583.86	472.79
584.02	498.53
584.18	404.91
584.34	395.55
584.50	447.04
584.66	379.17
584.82	376.83
584.98	468.11
585.14	440.02
585.30	416.62
585.46	430.66
585.62	383.85
585.78	390.87
585.94	411.93
586.10	388.53
586.26	430.66
586.42	482.15
586.58	395.55
586.74	388.53
586.90	407.25
587.06	365.12
587.22	423.64
587.38	465.77
587.54	447.04
587.70	416.62
587.86	468.11
588.02	362.78
588.18	468.11
588.34	454.06
588.49	428.32
588.65	372.15
588.81	461.09
588.97	395.55
589.13	433.00
589.29	435.34
589.45	454.06
589.61	330.02
589.77	458.74
589.93	505.56
590.08	458.74
590.24	435.34
590.40	423.64
590.56	472.79
590.72	486.83
590.88	456.40
591.04	423.64
591.20	390.87
591.35	428.32
591.51	414.27
591.67	477.47
591.83	409.59
591.99	409.59
592.15	418.96
592.31	346.40
592.46	395.55
592.62	430.66
592.78	423.64
592.94	421.30
593.10	379.17
593.26	402.57
593.41	447.04
593.57	372.15
593.73	372.15
593.89	440.02
594.05	409.59
594.20	479.81
594.36	435.34
594.52	451.72
594.68	451.72
594.84	454.06
594.99	447.04
595.15	409.59
595.31	479.81
595.47	433.00
595.62	477.47
595.78	416.62
595.94	407.25
596.10	440.02
596.25	416.62
596.41	428.32
596.57	358.10
596.73	383.85
596.88	411.93
597.04	465.77
597.20	411.93
597.36	435.34
597.51	444.70
597.67	381.51
597.83	416.62
597.99	400.23
598.14	437.68
598.30	425.98
598.46	437.68
598.61	421.30
598.77	465.77
598.93	416.62
599.09	411.93
599.24	428.32
599.40	418.96
599.56	404.91
599.71	428.32
599.87	447.04
600.03	367.46
600.18	395.55
600.34	388.53
600.50	444.70
600.65	402.57
600.81	409.59
600.97	425.98
601.12	383.85
601.28	428.32
601.44	404.91
601.59	402.57
601.75	411.93
601.91	402.57
602.06	418.96
602.22	477.47
602.37	395.55
602.53	463.43
602.69	376.83
602.84	411.93
603.00	390.87
603.16	437.68
603.31	463.43
603.47	400.23
603.62	435.34
603.78	381.51
603.94	416.62
604.09	444.70
604.25	433.00
604.40	433.00
604.56	411.93
604.71	390.87
604.87	428.32
605.03	517.26
605.18	376.83
605.34	447.04
605.49	395.55
605.65	440.02
605.80	458.74
605.96	337.04
606.12	388.53
606.27	390.87
606.43	388.53
606.58	388.53
606.74	407.25
606.89	379.17
607.05	397.89
607.20	355.76
607.36	411.93
607.51	458.74
607.67	381.51
607.82	477.47
607.98	477.47
608.13	393.21
608.29	489.17
608.44	428.32
608.60	379.17
608.75	414.27
608.91	395.55
609.06	407.25
609.22	465.77
609.37	416.62
609.53	337.04
609.68	442.36
609.84	500.87
609.99	402.57
610.15	418.96
