SpectraSuite Data File
++++++++++++++++++++++++++++++++++++
Date: Fri Oct 25 12:10:30 EDT 2013
User: price-jones
Dark Spectrum Present: No
Reference Spectrum Present: No
Number of Sampled Component Spectra: 1
Spectrometers: USB2+H05261
Integration Time (usec): 100000 (USB2+H05261)
Spectra Averaged: 1 (USB2+H05261)
Boxcar Smoothing: 0 (USB2+H05261)
Correct for Electrical Dark: No (USB2+H05261)
Strobe/Lamp Enabled: No (USB2+H05261)
Correct for Detector Non-linearity: No (USB2+H05261)
Correct for Stray Light: No (USB2+H05261)
Number of Pixels in Processed Spectrum: 2048
>>>>>Begin Processed Spectral Data<<<<<
365.73	339.38
365.92	339.38
366.12	339.38
366.32	266.82
366.52	198.95
366.72	245.76
366.91	229.37
367.11	269.16
367.31	102.98
367.51	168.52
367.70	266.82
367.90	217.67
368.10	194.26
368.30	269.16
368.49	308.95
368.69	201.29
368.89	205.97
369.09	243.42
369.28	320.65
369.48	285.55
369.68	322.99
369.87	339.38
370.07	297.25
370.27	301.93
370.47	337.04
370.66	397.89
370.86	325.33
371.06	397.89
371.25	409.59
371.45	414.27
371.65	388.53
371.84	411.93
372.04	372.15
372.24	386.19
372.44	397.89
372.63	353.42
372.83	470.45
373.03	437.68
373.22	393.21
373.42	416.62
373.62	505.56
373.81	386.19
374.01	489.17
374.21	440.02
374.40	411.93
374.60	400.23
374.79	407.25
374.99	379.17
375.19	423.64
375.38	409.59
375.58	402.57
375.78	397.89
375.97	465.77
376.17	437.68
376.37	437.68
376.56	400.23
376.76	425.98
376.95	433.00
377.15	444.70
377.35	484.49
377.54	437.68
377.74	418.96
377.93	430.66
378.13	428.32
378.33	437.68
378.52	416.62
378.72	390.87
378.91	444.70
379.11	463.43
379.31	425.98
379.50	472.79
379.70	388.53
379.89	393.21
380.09	402.57
380.28	351.08
380.48	372.15
380.68	383.85
380.87	411.93
381.07	397.89
381.26	351.08
381.46	351.08
381.65	351.08
381.85	411.93
382.04	435.34
382.24	491.51
382.43	414.27
382.63	372.15
382.83	402.57
383.02	423.64
383.22	435.34
383.41	444.70
383.61	465.77
383.80	369.80
384.00	379.17
384.19	400.23
384.39	442.36
384.58	397.89
384.78	418.96
384.97	444.70
385.17	388.53
385.36	393.21
385.56	435.34
385.75	334.70
385.95	444.70
386.14	435.34
386.34	463.43
386.53	407.25
386.72	421.30
386.92	411.93
387.11	414.27
387.31	458.74
387.50	435.34
387.70	454.06
387.89	409.59
388.09	491.51
388.28	367.46
388.48	416.62
388.67	433.00
388.86	458.74
389.06	433.00
389.25	395.55
389.45	367.46
389.64	397.89
389.84	461.09
390.03	440.02
390.22	447.04
390.42	330.02
390.61	367.46
390.81	421.30
391.00	407.25
391.19	433.00
391.39	437.68
391.58	411.93
391.78	388.53
391.97	418.96
392.16	365.12
392.36	479.81
392.55	437.68
392.75	440.02
392.94	397.89
393.13	397.89
393.33	388.53
393.52	395.55
393.71	447.04
393.91	458.74
394.10	341.72
394.29	470.45
394.49	358.10
394.68	388.53
394.88	454.06
395.07	451.72
395.26	456.40
395.46	418.96
395.65	454.06
395.84	393.21
396.04	437.68
396.23	458.74
396.42	444.70
396.62	411.93
396.81	447.04
397.00	374.49
397.19	421.30
397.39	330.02
397.58	388.53
397.77	463.43
397.97	425.98
398.16	402.57
398.35	425.98
398.55	346.40
398.74	397.89
398.93	440.02
399.12	397.89
399.32	374.49
399.51	400.23
399.70	416.62
399.90	463.43
400.09	397.89
400.28	468.11
400.47	374.49
400.67	411.93
400.86	383.85
401.05	372.15
401.24	376.83
401.44	428.32
401.63	479.81
401.82	388.53
402.01	381.51
402.21	437.68
402.40	360.44
402.59	369.80
402.78	390.87
402.97	376.83
403.17	425.98
403.36	442.36
403.55	428.32
403.74	388.53
403.93	430.66
404.13	369.80
404.32	372.15
404.51	379.17
404.70	404.91
404.89	442.36
405.09	519.60
405.28	414.27
405.47	400.23
405.66	397.89
405.85	463.43
406.05	425.98
406.24	456.40
406.43	353.42
406.62	395.55
406.81	442.36
407.00	416.62
407.20	351.08
407.39	381.51
407.58	355.76
407.77	414.27
407.96	397.89
408.15	409.59
408.34	388.53
408.54	433.00
408.73	353.42
408.92	400.23
409.11	444.70
409.30	428.32
409.49	355.76
409.68	435.34
409.87	379.17
410.07	355.76
410.26	344.06
410.45	454.06
410.64	383.85
410.83	407.25
411.02	360.44
411.21	400.23
411.40	402.57
411.59	458.74
411.78	463.43
411.98	461.09
412.17	414.27
412.36	465.77
412.55	407.25
412.74	423.64
412.93	472.79
413.12	430.66
413.31	421.30
413.50	472.79
413.69	414.27
413.88	440.02
414.07	414.27
414.26	421.30
414.45	425.98
414.64	334.70
414.83	404.91
415.02	353.42
415.22	458.74
415.41	447.04
415.60	388.53
415.79	395.55
415.98	353.42
416.17	407.25
416.36	407.25
416.55	334.70
416.74	360.44
416.93	449.38
417.12	421.30
417.31	423.64
417.50	381.51
417.69	461.09
417.88	447.04
418.07	451.72
418.26	449.38
418.45	334.70
418.64	402.57
418.83	402.57
419.02	418.96
419.21	386.19
419.39	407.25
419.58	402.57
419.77	388.53
419.96	388.53
420.15	449.38
420.34	362.78
420.53	444.70
420.72	411.93
420.91	451.72
421.10	397.89
421.29	383.85
421.48	484.49
421.67	442.36
421.86	365.12
422.05	421.30
422.24	416.62
422.43	383.85
422.61	358.10
422.80	451.72
422.99	390.87
423.18	463.43
423.37	472.79
423.56	341.72
423.75	404.91
423.94	386.19
424.13	437.68
424.32	404.91
424.50	381.51
424.69	425.98
424.88	404.91
425.07	435.34
425.26	390.87
425.45	451.72
425.64	397.89
425.83	435.34
426.01	425.98
426.20	397.89
426.39	449.38
426.58	353.42
426.77	397.89
426.96	421.30
427.15	372.15
427.33	301.93
427.52	435.34
427.71	386.19
427.90	381.51
428.09	416.62
428.28	362.78
428.46	393.21
428.65	423.64
428.84	320.65
429.03	386.19
429.22	393.21
429.40	376.83
429.59	433.00
429.78	404.91
429.97	393.21
430.16	381.51
430.34	374.49
430.53	433.00
430.72	402.57
430.91	496.19
431.10	428.32
431.28	418.96
431.47	400.23
431.66	416.62
431.85	348.74
432.03	390.87
432.22	451.72
432.41	423.64
432.60	477.47
432.79	402.57
432.97	416.62
433.16	463.43
433.35	442.36
433.54	348.74
433.72	442.36
433.91	470.45
434.10	393.21
434.28	411.93
434.47	344.06
434.66	397.89
434.85	433.00
435.03	421.30
435.22	421.30
435.41	423.64
435.59	409.59
435.78	437.68
435.97	381.51
436.16	458.74
436.34	374.49
436.53	437.68
436.72	425.98
436.90	402.57
437.09	386.19
437.28	411.93
437.46	348.74
437.65	367.46
437.84	451.72
438.02	400.23
438.21	397.89
438.40	414.27
438.58	341.72
438.77	379.17
438.96	454.06
439.14	379.17
439.33	442.36
439.52	444.70
439.70	337.04
439.89	447.04
440.08	348.74
440.26	362.78
440.45	369.80
440.63	372.15
440.82	451.72
441.01	454.06
441.19	409.59
441.38	404.91
441.57	348.74
441.75	510.24
441.94	489.17
442.12	421.30
442.31	372.15
442.50	379.17
442.68	390.87
442.87	320.65
443.05	472.79
443.24	386.19
443.43	465.77
443.61	498.53
443.80	379.17
443.98	437.68
444.17	425.98
444.35	435.34
444.54	454.06
444.73	360.44
444.91	454.06
445.10	402.57
445.28	411.93
445.47	425.98
445.65	388.53
445.84	430.66
446.02	414.27
446.21	472.79
446.39	423.64
446.58	404.91
446.77	397.89
446.95	400.23
447.14	430.66
447.32	435.34
447.51	454.06
447.69	411.93
447.88	484.49
448.06	472.79
448.25	388.53
448.43	416.62
448.62	376.83
448.80	402.57
448.99	465.77
449.17	383.85
449.36	423.64
449.54	407.25
449.73	433.00
449.91	425.98
450.10	461.09
450.28	418.96
450.46	404.91
450.65	390.87
450.83	440.02
451.02	416.62
451.20	386.19
451.39	423.64
451.57	362.78
451.76	428.32
451.94	407.25
452.13	390.87
452.31	440.02
452.49	390.87
452.68	414.27
452.86	374.49
453.05	472.79
453.23	411.93
453.42	344.06
453.60	372.15
453.78	444.70
453.97	383.85
454.15	404.91
454.34	400.23
454.52	433.00
454.70	397.89
454.89	472.79
455.07	435.34
455.26	383.85
455.44	407.25
455.62	433.00
455.81	447.04
455.99	458.74
456.17	416.62
456.36	400.23
456.54	477.47
456.73	400.23
456.91	383.85
457.09	353.42
457.28	402.57
457.46	444.70
457.64	454.06
457.83	407.25
458.01	386.19
458.19	479.81
458.38	397.89
458.56	418.96
458.74	414.27
458.93	433.00
459.11	407.25
459.29	395.55
459.48	491.51
459.66	381.51
459.84	519.60
460.03	496.19
460.21	498.53
460.39	388.53
460.57	468.11
460.76	444.70
460.94	351.08
461.12	383.85
461.31	430.66
461.49	416.62
461.67	442.36
461.85	397.89
462.04	425.98
462.22	741.95
462.40	512.58
462.59	458.74
462.77	449.38
462.95	409.59
463.13	397.89
463.32	428.32
463.50	381.51
463.68	390.87
463.86	372.15
464.05	369.80
464.23	348.74
464.41	404.91
464.59	322.99
464.78	430.66
464.96	393.21
465.14	330.02
465.32	416.62
465.50	383.85
465.69	404.91
465.87	397.89
466.05	458.74
466.23	440.02
466.41	472.79
466.60	414.27
466.78	414.27
466.96	470.45
467.14	435.34
467.32	433.00
467.51	407.25
467.69	341.72
467.87	470.45
468.05	416.62
468.23	444.70
468.41	409.59
468.60	507.90
468.78	414.27
468.96	447.04
469.14	409.59
469.32	360.44
469.50	414.27
469.69	388.53
469.87	348.74
470.05	395.55
470.23	442.36
470.41	351.08
470.59	374.49
470.77	381.51
470.95	404.91
471.14	465.77
471.32	379.17
471.50	397.89
471.68	430.66
471.86	322.99
472.04	388.53
472.22	425.98
472.40	454.06
472.58	437.68
472.77	386.19
472.95	407.25
473.13	451.72
473.31	451.72
473.49	393.21
473.67	409.59
473.85	458.74
474.03	479.81
474.21	379.17
474.39	393.21
474.57	498.53
474.75	472.79
474.93	416.62
475.12	369.80
475.30	449.38
475.48	360.44
475.66	407.25
475.84	318.31
476.02	306.61
476.20	454.06
476.38	400.23
476.56	442.36
476.74	416.62
476.92	369.80
477.10	404.91
477.28	454.06
477.46	407.25
477.64	402.57
477.82	411.93
478.00	388.53
478.18	325.33
478.36	416.62
478.54	379.17
478.72	397.89
478.90	505.56
479.08	456.40
479.26	447.04
479.44	433.00
479.62	440.02
479.80	334.70
479.98	411.93
480.16	454.06
480.34	430.66
480.52	311.29
480.70	505.56
480.88	472.79
481.06	418.96
481.24	430.66
481.41	381.51
481.59	374.49
481.77	416.62
481.95	418.96
482.13	465.77
482.31	383.85
482.49	355.76
482.67	393.21
482.85	425.98
483.03	362.78
483.21	421.30
483.39	351.08
483.57	407.25
483.74	461.09
483.92	346.40
484.10	430.66
484.28	409.59
484.46	489.17
484.64	404.91
484.82	451.72
485.00	395.55
485.18	479.81
485.35	355.76
485.53	416.62
485.71	472.79
485.89	409.59
486.07	498.53
486.25	430.66
486.43	468.11
486.61	411.93
486.78	414.27
486.96	407.25
487.14	397.89
487.32	402.57
487.50	388.53
487.68	433.00
487.85	381.51
488.03	440.02
488.21	381.51
488.39	421.30
488.57	456.40
488.75	395.55
488.92	470.45
489.10	362.78
489.28	447.04
489.46	444.70
489.64	315.97
489.81	477.47
489.99	404.91
490.17	418.96
490.35	414.27
490.53	430.66
490.70	395.55
490.88	411.93
491.06	376.83
491.24	411.93
491.41	416.62
491.59	414.27
491.77	482.15
491.95	386.19
492.13	407.25
492.30	447.04
492.48	461.09
492.66	428.32
492.84	416.62
493.01	433.00
493.19	454.06
493.37	404.91
493.54	414.27
493.72	409.59
493.90	411.93
494.08	397.89
494.25	430.66
494.43	465.77
494.61	397.89
494.79	383.85
494.96	409.59
495.14	430.66
495.32	449.38
495.49	465.77
495.67	372.15
495.85	353.42
496.02	433.00
496.20	372.15
496.38	404.91
496.55	425.98
496.73	470.45
496.91	421.30
497.09	376.83
497.26	402.57
497.44	383.85
497.62	397.89
497.79	428.32
497.97	472.79
498.14	397.89
498.32	428.32
498.50	463.43
498.67	397.89
498.85	374.49
499.03	358.10
499.20	456.40
499.38	372.15
499.56	397.89
499.73	383.85
499.91	425.98
500.08	451.72
500.26	416.62
500.44	482.15
500.61	409.59
500.79	374.49
500.97	409.59
501.14	430.66
501.32	407.25
501.49	395.55
501.67	395.55
501.84	395.55
502.02	367.46
502.20	479.81
502.37	463.43
502.55	386.19
502.72	362.78
502.90	374.49
503.07	425.98
503.25	440.02
503.43	437.68
503.60	383.85
503.78	362.78
503.95	407.25
504.13	407.25
504.30	491.51
504.48	482.15
504.65	437.68
504.83	491.51
505.01	416.62
505.18	484.49
505.36	416.62
505.53	430.66
505.71	395.55
505.88	482.15
506.06	435.34
506.23	407.25
506.41	365.12
506.58	376.83
506.76	376.83
506.93	409.59
507.11	388.53
507.28	381.51
507.46	428.32
507.63	355.76
507.81	440.02
507.98	416.62
508.16	411.93
508.33	388.53
508.50	475.13
508.68	444.70
508.85	402.57
509.03	456.40
509.20	404.91
509.38	458.74
509.55	376.83
509.73	416.62
509.90	402.57
510.08	390.87
510.25	479.81
510.42	381.51
510.60	376.83
510.77	463.43
510.95	428.32
511.12	381.51
511.30	358.10
511.47	351.08
511.64	423.64
511.82	444.70
511.99	414.27
512.17	430.66
512.34	334.70
512.51	411.93
512.69	437.68
512.86	465.77
513.04	442.36
513.21	468.11
513.38	383.85
513.56	379.17
513.73	353.42
513.90	397.89
514.08	411.93
514.25	425.98
514.43	397.89
514.60	397.89
514.77	367.46
514.95	430.66
515.12	374.49
515.29	386.19
515.47	433.00
515.64	433.00
515.81	393.21
515.99	447.04
516.16	423.64
516.33	444.70
516.51	390.87
516.68	315.97
516.85	400.23
517.03	358.10
517.20	397.89
517.37	458.74
517.54	407.25
517.72	461.09
517.89	430.66
518.06	393.21
518.24	395.55
518.41	423.64
518.58	477.47
518.75	409.59
518.93	383.85
519.10	421.30
519.27	423.64
519.45	407.25
519.62	393.21
519.79	458.74
519.96	390.87
520.14	425.98
520.31	416.62
520.48	411.93
520.65	351.08
520.83	404.91
521.00	468.11
521.17	409.59
521.34	421.30
521.52	435.34
521.69	351.08
521.86	325.33
522.03	451.72
522.20	465.77
522.38	400.23
522.55	442.36
522.72	407.25
522.89	461.09
523.07	433.00
523.24	404.91
523.41	423.64
523.58	372.15
523.75	472.79
523.92	463.43
524.10	411.93
524.27	409.59
524.44	404.91
524.61	425.98
524.78	386.19
524.96	430.66
525.13	379.17
525.30	416.62
525.47	458.74
525.64	449.38
525.81	400.23
525.98	409.59
526.16	421.30
526.33	397.89
526.50	472.79
526.67	423.64
526.84	440.02
527.01	383.85
527.18	514.92
527.36	409.59
527.53	402.57
527.70	437.68
527.87	421.30
528.04	489.17
528.21	395.55
528.38	442.36
528.55	367.46
528.72	430.66
528.89	449.38
529.07	402.57
529.24	447.04
529.41	428.32
529.58	507.90
529.75	393.21
529.92	411.93
530.09	388.53
530.26	388.53
530.43	418.96
530.60	414.27
530.77	407.25
530.94	421.30
531.11	451.72
531.28	461.09
531.46	435.34
531.63	440.02
531.80	442.36
531.97	463.43
532.14	531.30
532.31	451.72
532.48	400.23
532.65	442.36
532.82	397.89
532.99	393.21
533.16	381.51
533.33	433.00
533.50	367.46
533.67	416.62
533.84	379.17
534.01	423.64
534.18	397.89
534.35	442.36
534.52	440.02
534.69	395.55
534.86	381.51
535.03	404.91
535.20	348.74
535.37	404.91
535.54	388.53
535.71	440.02
535.88	386.19
536.05	393.21
536.22	496.19
536.38	435.34
536.55	414.27
536.72	444.70
536.89	376.83
537.06	348.74
537.23	447.04
537.40	346.40
537.57	393.21
537.74	428.32
537.91	411.93
538.08	472.79
538.25	388.53
538.42	360.44
538.59	470.45
538.75	365.12
538.92	433.00
539.09	449.38
539.26	395.55
539.43	454.06
539.60	425.98
539.77	468.11
539.94	393.21
540.11	395.55
540.28	433.00
540.44	472.79
540.61	395.55
540.78	339.38
540.95	397.89
541.12	519.60
541.29	418.96
541.46	435.34
541.62	376.83
541.79	437.68
541.96	428.32
542.13	393.21
542.30	388.53
542.47	388.53
542.63	423.64
542.80	416.62
542.97	381.51
543.14	470.45
543.31	411.93
543.48	374.49
543.64	437.68
543.81	374.49
543.98	440.02
544.15	414.27
544.32	322.99
544.48	365.12
544.65	461.09
544.82	475.13
544.99	348.74
545.16	425.98
545.32	465.77
545.49	433.00
545.66	397.89
545.83	351.08
546.00	423.64
546.16	365.12
546.33	430.66
546.50	423.64
546.67	521.94
546.83	414.27
547.00	411.93
547.17	414.27
547.34	351.08
547.50	458.74
547.67	383.85
547.84	400.23
548.00	418.96
548.17	465.77
548.34	430.66
548.51	461.09
548.67	414.27
548.84	402.57
549.01	479.81
549.18	461.09
549.34	390.87
549.51	472.79
549.68	407.25
549.84	428.32
550.01	449.38
550.18	496.19
550.34	486.83
550.51	470.45
550.68	454.06
550.84	402.57
551.01	400.23
551.18	498.53
551.34	395.55
551.51	407.25
551.68	404.91
551.84	428.32
552.01	458.74
552.18	418.96
552.34	416.62
552.51	437.68
552.68	414.27
552.84	383.85
553.01	440.02
553.18	416.62
553.34	400.23
553.51	430.66
553.67	440.02
553.84	465.77
554.01	505.56
554.17	454.06
554.34	381.51
554.51	477.47
554.67	440.02
554.84	449.38
555.00	379.17
555.17	435.34
555.33	414.27
555.50	425.98
555.67	451.72
555.83	428.32
556.00	433.00
556.16	521.94
556.33	489.17
556.50	435.34
556.66	425.98
556.83	444.70
556.99	416.62
557.16	365.12
557.32	428.32
557.49	454.06
557.65	416.62
557.82	365.12
557.98	390.87
558.15	456.40
558.32	337.04
558.48	390.87
558.65	444.70
558.81	465.77
558.98	388.53
559.14	407.25
559.31	416.62
559.47	355.76
559.64	414.27
559.80	395.55
559.97	397.89
560.13	442.36
560.30	369.80
560.46	433.00
560.63	440.02
560.79	425.98
560.96	454.06
561.12	449.38
561.29	463.43
561.45	416.62
561.61	416.62
561.78	479.81
561.94	407.25
562.11	472.79
562.27	348.74
562.44	411.93
562.60	521.94
562.77	376.83
562.93	479.81
563.10	388.53
563.26	442.36
563.42	379.17
563.59	395.55
563.75	421.30
563.92	447.04
564.08	397.89
564.24	463.43
564.41	451.72
564.57	489.17
564.74	404.91
564.90	435.34
565.07	543.00
565.23	402.57
565.39	367.46
565.56	430.66
565.72	395.55
565.88	498.53
566.05	390.87
566.21	449.38
566.38	402.57
566.54	444.70
566.70	433.00
566.87	407.25
567.03	390.87
567.19	318.31
567.36	418.96
567.52	409.59
567.68	437.68
567.85	468.11
568.01	435.34
568.17	437.68
568.34	395.55
568.50	437.68
568.66	404.91
568.83	500.87
568.99	372.15
569.15	367.46
569.32	341.72
569.48	395.55
569.64	395.55
569.81	461.09
569.97	414.27
570.13	386.19
570.30	404.91
570.46	411.93
570.62	491.51
570.78	388.53
570.95	447.04
571.11	472.79
571.27	444.70
571.43	428.32
571.60	362.78
571.76	447.04
571.92	388.53
572.09	440.02
572.25	482.15
572.41	418.96
572.57	339.38
572.74	486.83
572.90	435.34
573.06	402.57
573.22	470.45
573.38	397.89
573.55	428.32
573.71	386.19
573.87	421.30
574.03	374.49
574.20	393.21
574.36	369.80
574.52	414.27
574.68	402.57
574.84	379.17
575.01	444.70
575.17	496.19
575.33	451.72
575.49	454.06
575.65	418.96
575.82	379.17
575.98	442.36
576.14	437.68
576.30	437.68
576.46	407.25
576.62	418.96
576.79	449.38
576.95	451.72
577.11	411.93
577.27	390.87
577.43	510.24
577.59	482.15
577.75	397.89
577.92	402.57
578.08	390.87
578.24	358.10
578.40	383.85
578.56	383.85
578.72	404.91
578.88	472.79
579.04	393.21
579.21	447.04
579.37	484.49
579.53	496.19
579.69	517.26
579.85	397.89
580.01	400.23
580.17	407.25
580.33	444.70
580.49	465.77
580.65	463.43
580.82	379.17
580.98	353.42
581.14	423.64
581.30	414.27
581.46	379.17
581.62	498.53
581.78	372.15
581.94	456.40
582.10	369.80
582.26	395.55
582.42	414.27
582.58	362.78
582.74	442.36
582.90	461.09
583.06	447.04
583.22	379.17
583.38	332.36
583.54	416.62
583.70	423.64
583.86	463.43
584.02	442.36
584.18	444.70
584.34	360.44
584.50	430.66
584.66	362.78
584.82	360.44
584.98	372.15
585.14	402.57
585.30	454.06
585.46	421.30
585.62	379.17
585.78	372.15
585.94	390.87
586.10	348.74
586.26	423.64
586.42	435.34
586.58	421.30
586.74	444.70
586.90	414.27
587.06	425.98
587.22	358.10
587.38	407.25
587.54	369.80
587.70	440.02
587.86	458.74
588.02	456.40
588.18	369.80
588.34	463.43
588.49	367.46
588.65	449.38
588.81	451.72
588.97	416.62
589.13	437.68
589.29	475.13
589.45	447.04
589.61	458.74
589.77	365.12
589.93	400.23
590.08	470.45
590.24	458.74
590.40	454.06
590.56	395.55
590.72	433.00
590.88	348.74
591.04	414.27
591.20	362.78
591.35	496.19
591.51	411.93
591.67	407.25
591.83	404.91
591.99	440.02
592.15	407.25
592.31	440.02
592.46	395.55
592.62	482.15
592.78	425.98
592.94	442.36
593.10	437.68
593.26	379.17
593.41	472.79
593.57	423.64
593.73	409.59
593.89	397.89
594.05	414.27
594.20	374.49
594.36	355.76
594.52	442.36
594.68	449.38
594.84	463.43
594.99	440.02
595.15	397.89
595.31	351.08
595.47	477.47
595.62	358.10
595.78	458.74
595.94	390.87
596.10	374.49
596.25	414.27
596.41	435.34
596.57	407.25
596.73	400.23
596.88	437.68
597.04	428.32
597.20	390.87
597.36	437.68
597.51	418.96
597.67	353.42
597.83	416.62
597.99	395.55
598.14	444.70
598.30	454.06
598.46	402.57
598.61	376.83
598.77	458.74
598.93	339.38
599.09	468.11
599.24	428.32
599.40	447.04
599.56	435.34
599.71	486.83
599.87	440.02
600.03	362.78
600.18	393.21
600.34	390.87
600.50	447.04
600.65	393.21
600.81	477.47
600.97	395.55
601.12	454.06
601.28	386.19
601.44	521.94
601.59	381.51
601.75	465.77
601.91	379.17
602.06	458.74
602.22	465.77
602.37	475.13
602.53	454.06
602.69	341.72
602.84	297.25
603.00	402.57
603.16	425.98
603.31	435.34
603.47	461.09
603.62	423.64
603.78	418.96
603.94	470.45
604.09	547.69
604.25	411.93
604.40	428.32
604.56	437.68
604.71	369.80
604.87	435.34
605.03	461.09
605.18	381.51
605.34	461.09
605.49	421.30
605.65	514.92
605.80	407.25
605.96	409.59
606.12	407.25
606.27	362.78
606.43	365.12
606.58	372.15
606.74	395.55
606.89	407.25
607.05	456.40
607.20	327.68
607.36	437.68
607.51	418.96
607.67	390.87
607.82	390.87
607.98	491.51
608.13	440.02
608.29	355.76
608.44	360.44
608.60	397.89
608.75	461.09
608.91	388.53
609.06	428.32
609.22	404.91
609.37	358.10
609.53	379.17
609.68	395.55
609.84	327.68
609.99	430.66
610.15	435.34
