SpectraSuite Data File
++++++++++++++++++++++++++++++++++++
Date: Fri Oct 25 12:10:55 EDT 2013
User: price-jones
Dark Spectrum Present: No
Reference Spectrum Present: No
Number of Sampled Component Spectra: 1
Spectrometers: USB2+H05261
Integration Time (usec): 100000 (USB2+H05261)
Spectra Averaged: 1 (USB2+H05261)
Boxcar Smoothing: 0 (USB2+H05261)
Correct for Electrical Dark: No (USB2+H05261)
Strobe/Lamp Enabled: No (USB2+H05261)
Correct for Detector Non-linearity: No (USB2+H05261)
Correct for Stray Light: No (USB2+H05261)
Number of Pixels in Processed Spectrum: 2048
>>>>>Begin Processed Spectral Data<<<<<
365.73	313.63
365.92	313.63
366.12	313.63
366.32	325.33
366.52	215.33
366.72	243.42
366.91	271.50
367.11	273.84
367.31	271.50
367.51	161.50
367.70	241.08
367.90	266.82
368.10	234.05
368.30	220.01
368.49	257.46
368.69	243.42
368.89	266.82
369.09	262.14
369.28	210.65
369.48	278.52
369.68	285.55
369.87	308.95
370.07	358.10
370.27	318.31
370.47	344.06
370.66	339.38
370.86	376.83
371.06	346.40
371.25	362.78
371.45	376.83
371.65	379.17
371.84	367.46
372.04	372.15
372.24	351.08
372.44	393.21
372.63	411.93
372.83	435.34
373.03	376.83
373.22	416.62
373.42	393.21
373.62	449.38
373.81	430.66
374.01	376.83
374.21	428.32
374.40	425.98
374.60	393.21
374.79	404.91
374.99	421.30
375.19	360.44
375.38	418.96
375.58	433.00
375.78	400.23
375.97	414.27
376.17	463.43
376.37	440.02
376.56	362.78
376.76	365.12
376.95	421.30
377.15	449.38
377.35	411.93
377.54	421.30
377.74	372.15
377.93	458.74
378.13	451.72
378.33	418.96
378.52	353.42
378.72	367.46
378.91	414.27
379.11	430.66
379.31	388.53
379.50	393.21
379.70	449.38
379.89	369.80
380.09	388.53
380.28	369.80
380.48	461.09
380.68	386.19
380.87	355.76
381.07	470.45
381.26	365.12
381.46	367.46
381.65	418.96
381.85	407.25
382.04	369.80
382.24	423.64
382.43	386.19
382.63	414.27
382.83	327.68
383.02	440.02
383.22	468.11
383.41	337.04
383.61	339.38
383.80	451.72
384.00	355.76
384.19	505.56
384.39	433.00
384.58	440.02
384.78	425.98
384.97	390.87
385.17	451.72
385.36	390.87
385.56	388.53
385.75	358.10
385.95	400.23
386.14	425.98
386.34	360.44
386.53	402.57
386.72	351.08
386.92	379.17
387.11	475.13
387.31	414.27
387.50	386.19
387.70	447.04
387.89	393.21
388.09	451.72
388.28	465.77
388.48	376.83
388.67	479.81
388.86	388.53
389.06	435.34
389.25	409.59
389.45	411.93
389.64	437.68
389.84	423.64
390.03	440.02
390.22	428.32
390.42	390.87
390.61	430.66
390.81	346.40
391.00	397.89
391.19	435.34
391.39	442.36
391.58	454.06
391.78	433.00
391.97	409.59
392.16	395.55
392.36	418.96
392.55	500.87
392.75	379.17
392.94	374.49
393.13	397.89
393.33	386.19
393.52	311.29
393.71	435.34
393.91	470.45
394.10	447.04
394.29	451.72
394.49	393.21
394.68	369.80
394.88	447.04
395.07	369.80
395.26	409.59
395.46	374.49
395.65	330.02
395.84	433.00
396.04	493.85
396.23	418.96
396.42	395.55
396.62	428.32
396.81	367.46
397.00	327.68
397.19	393.21
397.39	407.25
397.58	493.85
397.77	367.46
397.97	395.55
398.16	418.96
398.35	421.30
398.55	416.62
398.74	388.53
398.93	440.02
399.12	409.59
399.32	444.70
399.51	388.53
399.70	393.21
399.90	348.74
400.09	393.21
400.28	376.83
400.47	367.46
400.67	437.68
400.86	404.91
401.05	425.98
401.24	440.02
401.44	428.32
401.63	365.12
401.82	444.70
402.01	425.98
402.21	421.30
402.40	435.34
402.59	379.17
402.78	383.85
402.97	409.59
403.17	381.51
403.36	440.02
403.55	388.53
403.74	344.06
403.93	416.62
404.13	407.25
404.32	365.12
404.51	339.38
404.70	409.59
404.89	423.64
405.09	491.51
405.28	456.40
405.47	355.76
405.66	442.36
405.85	423.64
406.05	442.36
406.24	390.87
406.43	395.55
406.62	416.62
406.81	475.13
407.00	409.59
407.20	442.36
407.39	386.19
407.58	337.04
407.77	400.23
407.96	416.62
408.15	456.40
408.34	470.45
408.54	428.32
408.73	430.66
408.92	418.96
409.11	386.19
409.30	423.64
409.49	379.17
409.68	365.12
409.87	409.59
410.07	348.74
410.26	416.62
410.45	428.32
410.64	400.23
410.83	468.11
411.02	425.98
411.21	425.98
411.40	383.85
411.59	390.87
411.78	379.17
411.98	430.66
412.17	393.21
412.36	449.38
412.55	344.06
412.74	402.57
412.93	454.06
413.12	470.45
413.31	470.45
413.50	393.21
413.69	425.98
413.88	386.19
414.07	447.04
414.26	404.91
414.45	344.06
414.64	421.30
414.83	423.64
415.02	400.23
415.22	451.72
415.41	416.62
415.60	421.30
415.79	339.38
415.98	428.32
416.17	404.91
416.36	381.51
416.55	369.80
416.74	386.19
416.93	440.02
417.12	444.70
417.31	414.27
417.50	407.25
417.69	444.70
417.88	449.38
418.07	397.89
418.26	416.62
418.45	472.79
418.64	374.49
418.83	423.64
419.02	416.62
419.21	376.83
419.39	395.55
419.58	393.21
419.77	376.83
419.96	437.68
420.15	390.87
420.34	407.25
420.53	411.93
420.72	435.34
420.91	367.46
421.10	435.34
421.29	421.30
421.48	400.23
421.67	404.91
421.86	372.15
422.05	416.62
422.24	397.89
422.43	416.62
422.61	402.57
422.80	362.78
422.99	442.36
423.18	362.78
423.37	372.15
423.56	430.66
423.75	402.57
423.94	395.55
424.13	400.23
424.32	407.25
424.50	374.49
424.69	330.02
424.88	449.38
425.07	381.51
425.26	374.49
425.45	383.85
425.64	369.80
425.83	440.02
426.01	355.76
426.20	493.85
426.39	416.62
426.58	437.68
426.77	423.64
426.96	407.25
427.15	423.64
427.33	411.93
427.52	386.19
427.71	402.57
427.90	451.72
428.09	386.19
428.28	470.45
428.46	379.17
428.65	423.64
428.84	332.36
429.03	425.98
429.22	369.80
429.40	475.13
429.59	475.13
429.78	472.79
429.97	423.64
430.16	416.62
430.34	390.87
430.53	416.62
430.72	381.51
430.91	418.96
431.10	376.83
431.28	423.64
431.47	365.12
431.66	395.55
431.85	397.89
432.03	425.98
432.22	444.70
432.41	395.55
432.60	458.74
432.79	346.40
432.97	407.25
433.16	465.77
433.35	479.81
433.54	365.12
433.72	404.91
433.91	395.55
434.10	433.00
434.28	416.62
434.47	386.19
434.66	458.74
434.85	414.27
435.03	407.25
435.22	407.25
435.41	444.70
435.59	458.74
435.78	376.83
435.97	386.19
436.16	355.76
436.34	428.32
436.53	332.36
436.72	458.74
436.90	433.00
437.09	407.25
437.28	442.36
437.46	416.62
437.65	416.62
437.84	388.53
438.02	402.57
438.21	421.30
438.40	465.77
438.58	416.62
438.77	433.00
438.96	463.43
439.14	353.42
439.33	388.53
439.52	418.96
439.70	407.25
439.89	423.64
440.08	430.66
440.26	428.32
440.45	440.02
440.63	346.40
440.82	355.76
441.01	404.91
441.19	465.77
441.38	397.89
441.57	414.27
441.75	369.80
441.94	320.65
442.12	456.40
442.31	351.08
442.50	379.17
442.68	451.72
442.87	482.15
443.05	451.72
443.24	435.34
443.43	372.15
443.61	437.68
443.80	386.19
443.98	395.55
444.17	421.30
444.35	360.44
444.54	470.45
444.73	418.96
444.91	425.98
445.10	395.55
445.28	348.74
445.47	421.30
445.65	458.74
445.84	489.17
446.02	383.85
446.21	425.98
446.39	367.46
446.58	407.25
446.77	451.72
446.95	454.06
447.14	411.93
447.32	512.58
447.51	444.70
447.69	437.68
447.88	442.36
448.06	449.38
448.25	465.77
448.43	421.30
448.62	348.74
448.80	390.87
448.99	500.87
449.17	454.06
449.36	451.72
449.54	468.11
449.73	383.85
449.91	407.25
450.10	404.91
450.28	477.47
450.46	395.55
450.65	400.23
450.83	451.72
451.02	411.93
451.20	475.13
451.39	404.91
451.57	365.12
451.76	365.12
451.94	397.89
452.13	482.15
452.31	393.21
452.49	402.57
452.68	507.90
452.86	400.23
453.05	400.23
453.23	400.23
453.42	376.83
453.60	449.38
453.78	388.53
453.97	379.17
454.15	393.21
454.34	407.25
454.52	409.59
454.70	449.38
454.89	402.57
455.07	383.85
455.26	409.59
455.44	381.51
455.62	383.85
455.81	425.98
455.99	397.89
456.17	435.34
456.36	447.04
456.54	388.53
456.73	393.21
456.91	435.34
457.09	514.92
457.28	465.77
457.46	433.00
457.64	447.04
457.83	442.36
458.01	437.68
458.19	365.12
458.38	414.27
458.56	418.96
458.74	355.76
458.93	421.30
459.11	404.91
459.29	491.51
459.48	435.34
459.66	484.49
459.84	447.04
460.03	477.47
460.21	383.85
460.39	400.23
460.57	440.02
460.76	468.11
460.94	435.34
461.12	479.81
461.31	465.77
461.49	374.49
461.67	376.83
461.85	444.70
462.04	425.98
462.22	772.38
462.40	468.11
462.59	414.27
462.77	423.64
462.95	435.34
463.13	433.00
463.32	451.72
463.50	430.66
463.68	390.87
463.86	442.36
464.05	482.15
464.23	358.10
464.41	477.47
464.59	416.62
464.78	346.40
464.96	360.44
465.14	458.74
465.32	418.96
465.50	411.93
465.69	416.62
465.87	430.66
466.05	369.80
466.23	461.09
466.41	456.40
466.60	435.34
466.78	416.62
466.96	383.85
467.14	397.89
467.32	390.87
467.51	514.92
467.69	454.06
467.87	433.00
468.05	411.93
468.23	468.11
468.41	435.34
468.60	430.66
468.78	440.02
468.96	402.57
469.14	409.59
469.32	440.02
469.50	381.51
469.69	444.70
469.87	472.79
470.05	442.36
470.23	461.09
470.41	369.80
470.59	404.91
470.77	440.02
470.95	449.38
471.14	407.25
471.32	482.15
471.50	449.38
471.68	383.85
471.86	430.66
472.04	428.32
472.22	402.57
472.40	414.27
472.58	456.40
472.77	376.83
472.95	458.74
473.13	491.51
473.31	421.30
473.49	430.66
473.67	358.10
473.85	397.89
474.03	435.34
474.21	444.70
474.39	372.15
474.57	479.81
474.75	423.64
474.93	456.40
475.12	409.59
475.30	402.57
475.48	348.74
475.66	404.91
475.84	505.56
476.02	402.57
476.20	482.15
476.38	365.12
476.56	470.45
476.74	355.76
476.92	449.38
477.10	411.93
477.28	505.56
477.46	451.72
477.64	493.85
477.82	395.55
478.00	465.77
478.18	470.45
478.36	425.98
478.54	402.57
478.72	454.06
478.90	381.51
479.08	442.36
479.26	411.93
479.44	470.45
479.62	358.10
479.80	400.23
479.98	388.53
480.16	411.93
480.34	407.25
480.52	428.32
480.70	449.38
480.88	423.64
481.06	376.83
481.24	409.59
481.41	386.19
481.59	346.40
481.77	416.62
481.95	514.92
482.13	348.74
482.31	461.09
482.49	416.62
482.67	435.34
482.85	421.30
483.03	395.55
483.21	372.15
483.39	404.91
483.57	393.21
483.74	386.19
483.92	369.80
484.10	383.85
484.28	381.51
484.46	498.53
484.64	440.02
484.82	383.85
485.00	379.17
485.18	458.74
485.35	386.19
485.53	430.66
485.71	409.59
485.89	425.98
486.07	383.85
486.25	475.13
486.43	407.25
486.61	451.72
486.78	458.74
486.96	414.27
487.14	425.98
487.32	418.96
487.50	358.10
487.68	440.02
487.85	393.21
488.03	433.00
488.21	390.87
488.39	430.66
488.57	477.47
488.75	400.23
488.92	521.94
489.10	376.83
489.28	435.34
489.46	425.98
489.64	484.49
489.81	442.36
489.99	409.59
490.17	400.23
490.35	407.25
490.53	475.13
490.70	393.21
490.88	421.30
491.06	414.27
491.24	390.87
491.41	411.93
491.59	428.32
491.77	395.55
491.95	465.77
492.13	402.57
492.30	447.04
492.48	407.25
492.66	456.40
492.84	468.11
493.01	397.89
493.19	461.09
493.37	486.83
493.54	355.76
493.72	409.59
493.90	484.49
494.08	442.36
494.25	433.00
494.43	458.74
494.61	367.46
494.79	390.87
494.96	454.06
495.14	379.17
495.32	433.00
495.49	444.70
495.67	395.55
495.85	440.02
496.02	444.70
496.20	437.68
496.38	414.27
496.55	428.32
496.73	411.93
496.91	390.87
497.09	440.02
497.26	411.93
497.44	355.76
497.62	381.51
497.79	407.25
497.97	435.34
498.14	365.12
498.32	395.55
498.50	428.32
498.67	428.32
498.85	407.25
499.03	379.17
499.20	428.32
499.38	360.44
499.56	344.06
499.73	456.40
499.91	425.98
500.08	365.12
500.26	369.80
500.44	404.91
500.61	416.62
500.79	418.96
500.97	451.72
501.14	423.64
501.32	425.98
501.49	433.00
501.67	358.10
501.84	402.57
502.02	379.17
502.20	484.49
502.37	425.98
502.55	433.00
502.72	367.46
502.90	444.70
503.07	404.91
503.25	449.38
503.43	372.15
503.60	376.83
503.78	454.06
503.95	390.87
504.13	435.34
504.30	379.17
504.48	395.55
504.65	449.38
504.83	444.70
505.01	416.62
505.18	383.85
505.36	414.27
505.53	407.25
505.71	440.02
505.88	418.96
506.06	339.38
506.23	507.90
506.41	428.32
506.58	477.47
506.76	451.72
506.93	369.80
507.11	360.44
507.28	355.76
507.46	376.83
507.63	372.15
507.81	390.87
507.98	447.04
508.16	442.36
508.33	463.43
508.50	395.55
508.68	437.68
508.85	327.68
509.03	411.93
509.20	433.00
509.38	440.02
509.55	435.34
509.73	449.38
509.90	440.02
510.08	418.96
510.25	456.40
510.42	468.11
510.60	433.00
510.77	395.55
510.95	409.59
511.12	440.02
511.30	440.02
511.47	351.08
511.64	461.09
511.82	425.98
511.99	358.10
512.17	402.57
512.34	458.74
512.51	409.59
512.69	458.74
512.86	367.46
513.04	486.83
513.21	411.93
513.38	404.91
513.56	409.59
513.73	456.40
513.90	458.74
514.08	362.78
514.25	447.04
514.43	400.23
514.60	383.85
514.77	428.32
514.95	435.34
515.12	393.21
515.29	442.36
515.47	379.17
515.64	421.30
515.81	400.23
515.99	386.19
516.16	411.93
516.33	414.27
516.51	458.74
516.68	397.89
516.85	465.77
517.03	437.68
517.20	418.96
517.37	418.96
517.54	440.02
517.72	374.49
517.89	397.89
518.06	430.66
518.24	454.06
518.41	341.72
518.58	430.66
518.75	430.66
518.93	463.43
519.10	444.70
519.27	341.72
519.45	390.87
519.62	395.55
519.79	372.15
519.96	379.17
520.14	430.66
520.31	423.64
520.48	475.13
520.65	486.83
520.83	397.89
521.00	463.43
521.17	458.74
521.34	367.46
521.52	496.19
521.69	397.89
521.86	418.96
522.03	365.12
522.20	507.90
522.38	379.17
522.55	407.25
522.72	451.72
522.89	430.66
523.07	479.81
523.24	386.19
523.41	468.11
523.58	393.21
523.75	489.17
523.92	472.79
524.10	468.11
524.27	360.44
524.44	425.98
524.61	428.32
524.78	383.85
524.96	402.57
525.13	447.04
525.30	477.47
525.47	440.02
525.64	425.98
525.81	463.43
525.98	423.64
526.16	456.40
526.33	297.25
526.50	395.55
526.67	383.85
526.84	435.34
527.01	409.59
527.18	369.80
527.36	411.93
527.53	425.98
527.70	418.96
527.87	430.66
528.04	430.66
528.21	482.15
528.38	433.00
528.55	470.45
528.72	468.11
528.89	451.72
529.07	433.00
529.24	418.96
529.41	500.87
529.58	397.89
529.75	358.10
529.92	425.98
530.09	449.38
530.26	461.09
530.43	393.21
530.60	390.87
530.77	458.74
530.94	425.98
531.11	477.47
531.28	451.72
531.46	311.29
531.63	365.12
531.80	400.23
531.97	416.62
532.14	322.99
532.31	411.93
532.48	484.49
532.65	461.09
532.82	393.21
532.99	397.89
533.16	463.43
533.33	402.57
533.50	409.59
533.67	414.27
533.84	367.46
534.01	348.74
534.18	430.66
534.35	454.06
534.52	465.77
534.69	407.25
534.86	454.06
535.03	442.36
535.20	407.25
535.37	440.02
535.54	463.43
535.71	423.64
535.88	409.59
536.05	456.40
536.22	397.89
536.38	423.64
536.55	433.00
536.72	475.13
536.89	411.93
537.06	374.49
537.23	433.00
537.40	409.59
537.57	369.80
537.74	470.45
537.91	437.68
538.08	477.47
538.25	402.57
538.42	365.12
538.59	402.57
538.75	428.32
538.92	463.43
539.09	404.91
539.26	416.62
539.43	468.11
539.60	374.49
539.77	355.76
539.94	433.00
540.11	428.32
540.28	348.74
540.44	369.80
540.61	395.55
540.78	344.06
540.95	395.55
541.12	428.32
541.29	433.00
541.46	447.04
541.62	390.87
541.79	372.15
541.96	369.80
542.13	367.46
542.30	458.74
542.47	416.62
542.63	468.11
542.80	416.62
542.97	484.49
543.14	463.43
543.31	404.91
543.48	376.83
543.64	461.09
543.81	458.74
543.98	407.25
544.15	440.02
544.32	379.17
544.48	395.55
544.65	395.55
544.82	404.91
544.99	451.72
545.16	489.17
545.32	430.66
545.49	393.21
545.66	369.80
545.83	369.80
546.00	430.66
546.16	407.25
546.33	379.17
546.50	409.59
546.67	386.19
546.83	482.15
547.00	416.62
547.17	393.21
547.34	461.09
547.50	360.44
547.67	365.12
547.84	386.19
548.00	465.77
548.17	465.77
548.34	414.27
548.51	388.53
548.67	393.21
548.84	372.15
549.01	416.62
549.18	425.98
549.34	360.44
549.51	407.25
549.68	374.49
549.84	435.34
550.01	447.04
550.18	458.74
550.34	496.19
550.51	465.77
550.68	475.13
550.84	454.06
551.01	390.87
551.18	395.55
551.34	430.66
551.51	440.02
551.68	418.96
551.84	404.91
552.01	430.66
552.18	397.89
552.34	383.85
552.51	451.72
552.68	411.93
552.84	435.34
553.01	383.85
553.18	430.66
553.34	418.96
553.51	425.98
553.67	449.38
553.84	526.62
554.01	454.06
554.17	421.30
554.34	423.64
554.51	486.83
554.67	454.06
554.84	470.45
555.00	442.36
555.17	383.85
555.33	435.34
555.50	374.49
555.67	433.00
555.83	383.85
556.00	414.27
556.16	561.73
556.33	472.79
556.50	381.51
556.66	374.49
556.83	428.32
556.99	423.64
557.16	416.62
557.32	400.23
557.49	472.79
557.65	400.23
557.82	404.91
557.98	360.44
558.15	404.91
558.32	388.53
558.48	383.85
558.65	360.44
558.81	374.49
558.98	437.68
559.14	454.06
559.31	390.87
559.47	344.06
559.64	470.45
559.80	402.57
559.97	433.00
560.13	397.89
560.30	393.21
560.46	404.91
560.63	428.32
560.79	397.89
560.96	514.92
561.12	386.19
561.29	421.30
561.45	400.23
561.61	440.02
561.78	477.47
561.94	407.25
562.11	388.53
562.27	430.66
562.44	404.91
562.60	458.74
562.77	440.02
562.93	479.81
563.10	425.98
563.26	437.68
563.42	477.47
563.59	437.68
563.75	416.62
563.92	468.11
564.08	461.09
564.24	433.00
564.41	433.00
564.57	421.30
564.74	365.12
564.90	437.68
565.07	458.74
565.23	475.13
565.39	365.12
565.56	374.49
565.72	402.57
565.88	404.91
566.05	400.23
566.21	430.66
566.38	395.55
566.54	390.87
566.70	374.49
566.87	428.32
567.03	447.04
567.19	489.17
567.36	423.64
567.52	395.55
567.68	510.24
567.85	461.09
568.01	372.15
568.17	418.96
568.34	376.83
568.50	402.57
568.66	395.55
568.83	404.91
568.99	397.89
569.15	449.38
569.32	449.38
569.48	451.72
569.64	388.53
569.81	430.66
569.97	442.36
570.13	458.74
570.30	416.62
570.46	454.06
570.62	433.00
570.78	388.53
570.95	444.70
571.11	510.24
571.27	479.81
571.43	442.36
571.60	440.02
571.76	372.15
571.92	374.49
572.09	402.57
572.25	376.83
572.41	355.76
572.57	428.32
572.74	463.43
572.90	425.98
573.06	390.87
573.22	437.68
573.38	496.19
573.55	500.87
573.71	472.79
573.87	505.56
574.03	416.62
574.20	423.64
574.36	463.43
574.52	442.36
574.68	400.23
574.84	472.79
575.01	437.68
575.17	367.46
575.33	416.62
575.49	461.09
575.65	435.34
575.82	404.91
575.98	437.68
576.14	386.19
576.30	414.27
576.46	381.51
576.62	437.68
576.79	458.74
576.95	451.72
577.11	428.32
577.27	430.66
577.43	442.36
577.59	395.55
577.75	386.19
577.92	390.87
578.08	395.55
578.24	447.04
578.40	430.66
578.56	423.64
578.72	430.66
578.88	456.40
579.04	442.36
579.21	465.77
579.37	465.77
579.53	409.59
579.69	440.02
579.85	376.83
580.01	416.62
580.17	423.64
580.33	447.04
580.49	472.79
580.65	444.70
580.82	386.19
580.98	428.32
581.14	472.79
581.30	344.06
581.46	421.30
581.62	414.27
581.78	418.96
581.94	472.79
582.10	416.62
582.26	367.46
582.42	388.53
582.58	430.66
582.74	430.66
582.90	402.57
583.06	418.96
583.22	440.02
583.38	433.00
583.54	416.62
583.70	454.06
583.86	444.70
584.02	397.89
584.18	458.74
584.34	388.53
584.50	372.15
584.66	414.27
584.82	400.23
584.98	400.23
585.14	374.49
585.30	472.79
585.46	416.62
585.62	386.19
585.78	362.78
585.94	379.17
586.10	411.93
586.26	348.74
586.42	484.49
586.58	409.59
586.74	418.96
586.90	418.96
587.06	386.19
587.22	442.36
587.38	362.78
587.54	425.98
587.70	393.21
587.86	418.96
588.02	442.36
588.18	404.91
588.34	402.57
588.49	402.57
588.65	416.62
588.81	475.13
588.97	418.96
589.13	418.96
589.29	451.72
589.45	440.02
589.61	414.27
589.77	435.34
589.93	440.02
590.08	369.80
590.24	404.91
590.40	456.40
590.56	409.59
590.72	388.53
590.88	423.64
591.04	404.91
591.20	395.55
591.35	463.43
591.51	397.89
591.67	442.36
591.83	344.06
591.99	437.68
592.15	411.93
592.31	437.68
592.46	409.59
592.62	402.57
592.78	376.83
592.94	409.59
593.10	437.68
593.26	423.64
593.41	376.83
593.57	449.38
593.73	367.46
593.89	430.66
594.05	358.10
594.20	369.80
594.36	395.55
594.52	407.25
594.68	442.36
594.84	461.09
594.99	414.27
595.15	376.83
595.31	355.76
595.47	456.40
595.62	374.49
595.78	395.55
595.94	400.23
596.10	381.51
596.25	367.46
596.41	468.11
596.57	404.91
596.73	472.79
596.88	428.32
597.04	388.53
597.20	425.98
597.36	397.89
597.51	430.66
597.67	416.62
597.83	390.87
597.99	397.89
598.14	381.51
598.30	465.77
598.46	491.51
598.61	418.96
598.77	425.98
598.93	437.68
599.09	435.34
599.24	465.77
599.40	376.83
599.56	397.89
599.71	365.12
599.87	397.89
600.03	451.72
600.18	456.40
600.34	402.57
600.50	465.77
600.65	395.55
600.81	414.27
600.97	411.93
601.12	379.17
601.28	451.72
601.44	411.93
601.59	383.85
601.75	388.53
601.91	407.25
602.06	451.72
602.22	447.04
602.37	449.38
602.53	411.93
602.69	400.23
602.84	461.09
603.00	411.93
603.16	472.79
603.31	428.32
603.47	442.36
603.62	407.25
603.78	444.70
603.94	418.96
604.09	348.74
604.25	407.25
604.40	376.83
604.56	386.19
604.71	397.89
604.87	367.46
605.03	416.62
605.18	379.17
605.34	468.11
605.49	358.10
605.65	437.68
605.80	397.89
605.96	461.09
606.12	444.70
606.27	458.74
606.43	442.36
606.58	418.96
606.74	381.51
606.89	334.70
607.05	435.34
607.20	425.98
607.36	430.66
607.51	468.11
607.67	425.98
607.82	435.34
607.98	486.83
608.13	435.34
608.29	407.25
608.44	461.09
608.60	341.72
608.75	430.66
608.91	440.02
609.06	404.91
609.22	388.53
609.37	374.49
609.53	456.40
609.68	383.85
609.84	463.43
609.99	404.91
610.15	451.72
