SpectraSuite Data File
++++++++++++++++++++++++++++++++++++
Date: Fri Oct 25 12:11:08 EDT 2013
User: price-jones
Dark Spectrum Present: No
Reference Spectrum Present: No
Number of Sampled Component Spectra: 1
Spectrometers: USB2+H05261
Integration Time (usec): 100000 (USB2+H05261)
Spectra Averaged: 1 (USB2+H05261)
Boxcar Smoothing: 0 (USB2+H05261)
Correct for Electrical Dark: No (USB2+H05261)
Strobe/Lamp Enabled: No (USB2+H05261)
Correct for Detector Non-linearity: No (USB2+H05261)
Correct for Stray Light: No (USB2+H05261)
Number of Pixels in Processed Spectrum: 2048
>>>>>Begin Processed Spectral Data<<<<<
365.73	327.68
365.92	327.68
366.12	327.68
366.32	224.69
366.52	224.69
366.72	318.31
366.91	255.12
367.11	234.05
367.31	187.24
367.51	238.73
367.70	287.89
367.90	313.63
368.10	224.69
368.30	222.35
368.49	301.93
368.69	217.67
368.89	234.05
369.09	299.59
369.28	341.72
369.48	245.76
369.68	285.55
369.87	201.29
370.07	266.82
370.27	287.89
370.47	315.97
370.66	334.70
370.86	327.68
371.06	325.33
371.25	458.74
371.45	383.85
371.65	360.44
371.84	344.06
372.04	393.21
372.24	456.40
372.44	353.42
372.63	416.62
372.83	411.93
373.03	440.02
373.22	458.74
373.42	454.06
373.62	383.85
373.81	491.51
374.01	447.04
374.21	463.43
374.40	456.40
374.60	447.04
374.79	409.59
374.99	381.51
375.19	339.38
375.38	449.38
375.58	430.66
375.78	447.04
375.97	393.21
376.17	411.93
376.37	381.51
376.56	461.09
376.76	397.89
376.95	360.44
377.15	435.34
377.35	386.19
377.54	388.53
377.74	388.53
377.93	351.08
378.13	395.55
378.33	386.19
378.52	416.62
378.72	407.25
378.91	369.80
379.11	484.49
379.31	390.87
379.50	395.55
379.70	402.57
379.89	355.76
380.09	454.06
380.28	383.85
380.48	444.70
380.68	381.51
380.87	390.87
381.07	327.68
381.26	390.87
381.46	395.55
381.65	379.17
381.85	367.46
382.04	418.96
382.24	360.44
382.43	437.68
382.63	458.74
382.83	433.00
383.02	472.79
383.22	386.19
383.41	362.78
383.61	433.00
383.80	496.19
384.00	428.32
384.19	428.32
384.39	402.57
384.58	400.23
384.78	334.70
384.97	395.55
385.17	433.00
385.36	430.66
385.56	409.59
385.75	451.72
385.95	308.95
386.14	372.15
386.34	444.70
386.53	411.93
386.72	472.79
386.92	440.02
387.11	428.32
387.31	358.10
387.50	447.04
387.70	433.00
387.89	397.89
388.09	395.55
388.28	425.98
388.48	369.80
388.67	362.78
388.86	430.66
389.06	418.96
389.25	451.72
389.45	416.62
389.64	374.49
389.84	435.34
390.03	397.89
390.22	388.53
390.42	454.06
390.61	397.89
390.81	365.12
391.00	393.21
391.19	414.27
391.39	437.68
391.58	447.04
391.78	400.23
391.97	390.87
392.16	372.15
392.36	465.77
392.55	395.55
392.75	390.87
392.94	372.15
393.13	402.57
393.33	362.78
393.52	355.76
393.71	430.66
393.91	475.13
394.10	360.44
394.29	397.89
394.49	463.43
394.68	311.29
394.88	425.98
395.07	477.47
395.26	374.49
395.46	397.89
395.65	372.15
395.84	386.19
396.04	381.51
396.23	400.23
396.42	407.25
396.62	477.47
396.81	465.77
397.00	409.59
397.19	397.89
397.39	468.11
397.58	442.36
397.77	423.64
397.97	400.23
398.16	397.89
398.35	388.53
398.55	425.98
398.74	451.72
398.93	390.87
399.12	404.91
399.32	372.15
399.51	367.46
399.70	414.27
399.90	379.17
400.09	440.02
400.28	435.34
400.47	360.44
400.67	444.70
400.86	489.17
401.05	416.62
401.24	456.40
401.44	416.62
401.63	365.12
401.82	388.53
402.01	409.59
402.21	386.19
402.40	414.27
402.59	407.25
402.78	414.27
402.97	416.62
403.17	456.40
403.36	414.27
403.55	388.53
403.74	402.57
403.93	402.57
404.13	390.87
404.32	435.34
404.51	451.72
404.70	402.57
404.89	379.17
405.09	397.89
405.28	381.51
405.47	355.76
405.66	400.23
405.85	365.12
406.05	414.27
406.24	428.32
406.43	397.89
406.62	388.53
406.81	433.00
407.00	500.87
407.20	475.13
407.39	393.21
407.58	404.91
407.77	449.38
407.96	435.34
408.15	416.62
408.34	404.91
408.54	397.89
408.73	379.17
408.92	339.38
409.11	456.40
409.30	402.57
409.49	425.98
409.68	404.91
409.87	344.06
410.07	367.46
410.26	437.68
410.45	458.74
410.64	376.83
410.83	355.76
411.02	353.42
411.21	381.51
411.40	430.66
411.59	404.91
411.78	383.85
411.98	404.91
412.17	362.78
412.36	416.62
412.55	411.93
412.74	416.62
412.93	456.40
413.12	444.70
413.31	428.32
413.50	402.57
413.69	322.99
413.88	440.02
414.07	475.13
414.26	330.02
414.45	360.44
414.64	479.81
414.83	409.59
415.02	397.89
415.22	409.59
415.41	362.78
415.60	409.59
415.79	428.32
415.98	423.64
416.17	355.76
416.36	416.62
416.55	360.44
416.74	379.17
416.93	440.02
417.12	360.44
417.31	351.08
417.50	428.32
417.69	404.91
417.88	330.02
418.07	395.55
418.26	500.87
418.45	428.32
418.64	423.64
418.83	409.59
419.02	470.45
419.21	404.91
419.39	421.30
419.58	418.96
419.77	383.85
419.96	388.53
420.15	411.93
420.34	402.57
420.53	482.15
420.72	358.10
420.91	428.32
421.10	358.10
421.29	414.27
421.48	418.96
421.67	362.78
421.86	325.33
422.05	367.46
422.24	376.83
422.43	395.55
422.61	461.09
422.80	428.32
422.99	449.38
423.18	397.89
423.37	461.09
423.56	458.74
423.75	440.02
423.94	374.49
424.13	484.49
424.32	341.72
424.50	386.19
424.69	402.57
424.88	421.30
425.07	390.87
425.26	404.91
425.45	418.96
425.64	358.10
425.83	465.77
426.01	477.47
426.20	423.64
426.39	435.34
426.58	372.15
426.77	393.21
426.96	430.66
427.15	381.51
427.33	376.83
427.52	414.27
427.71	332.36
427.90	374.49
428.09	369.80
428.28	346.40
428.46	372.15
428.65	482.15
428.84	386.19
429.03	475.13
429.22	416.62
429.40	397.89
429.59	437.68
429.78	461.09
429.97	414.27
430.16	449.38
430.34	433.00
430.53	360.44
430.72	379.17
430.91	365.12
431.10	423.64
431.28	386.19
431.47	383.85
431.66	376.83
431.85	414.27
432.03	395.55
432.22	414.27
432.41	425.98
432.60	372.15
432.79	362.78
432.97	421.30
433.16	465.77
433.35	351.08
433.54	395.55
433.72	430.66
433.91	416.62
434.10	395.55
434.28	360.44
434.47	449.38
434.66	374.49
434.85	418.96
435.03	407.25
435.22	454.06
435.41	414.27
435.59	393.21
435.78	465.77
435.97	447.04
436.16	503.22
436.34	421.30
436.53	456.40
436.72	390.87
436.90	468.11
437.09	456.40
437.28	351.08
437.46	362.78
437.65	482.15
437.84	418.96
438.02	458.74
438.21	447.04
438.40	411.93
438.58	421.30
438.77	465.77
438.96	395.55
439.14	411.93
439.33	407.25
439.52	498.53
439.70	381.51
439.89	416.62
440.08	395.55
440.26	367.46
440.45	425.98
440.63	390.87
440.82	390.87
441.01	414.27
441.19	428.32
441.38	423.64
441.57	458.74
441.75	493.85
441.94	418.96
442.12	337.04
442.31	454.06
442.50	383.85
442.68	449.38
442.87	414.27
443.05	374.49
443.24	388.53
443.43	444.70
443.61	475.13
443.80	390.87
443.98	440.02
444.17	444.70
444.35	475.13
444.54	367.46
444.73	421.30
444.91	374.49
445.10	423.64
445.28	411.93
445.47	477.47
445.65	437.68
445.84	404.91
446.02	444.70
446.21	395.55
446.39	341.72
446.58	418.96
446.77	440.02
446.95	372.15
447.14	421.30
447.32	409.59
447.51	428.32
447.69	430.66
447.88	397.89
448.06	461.09
448.25	461.09
448.43	379.17
448.62	414.27
448.80	425.98
448.99	407.25
449.17	414.27
449.36	468.11
449.54	388.53
449.73	491.51
449.91	461.09
450.10	381.51
450.28	435.34
450.46	449.38
450.65	409.59
450.83	386.19
451.02	397.89
451.20	372.15
451.39	407.25
451.57	372.15
451.76	402.57
451.94	404.91
452.13	409.59
452.31	414.27
452.49	409.59
452.68	397.89
452.86	383.85
453.05	430.66
453.23	430.66
453.42	433.00
453.60	454.06
453.78	456.40
453.97	404.91
454.15	440.02
454.34	360.44
454.52	365.12
454.70	362.78
454.89	383.85
455.07	437.68
455.26	489.17
455.44	454.06
455.62	449.38
455.81	449.38
455.99	395.55
456.17	414.27
456.36	390.87
456.54	402.57
456.73	437.68
456.91	428.32
457.09	397.89
457.28	402.57
457.46	433.00
457.64	409.59
457.83	447.04
458.01	390.87
458.19	395.55
458.38	449.38
458.56	379.17
458.74	379.17
458.93	367.46
459.11	433.00
459.29	421.30
459.48	444.70
459.66	418.96
459.84	418.96
460.03	447.04
460.21	414.27
460.39	386.19
460.57	458.74
460.76	346.40
460.94	491.51
461.12	402.57
461.31	400.23
461.49	404.91
461.67	379.17
461.85	397.89
462.04	393.21
462.22	734.93
462.40	421.30
462.59	449.38
462.77	397.89
462.95	402.57
463.13	386.19
463.32	444.70
463.50	435.34
463.68	477.47
463.86	440.02
464.05	463.43
464.23	440.02
464.41	475.13
464.59	341.72
464.78	437.68
464.96	407.25
465.14	374.49
465.32	372.15
465.50	428.32
465.69	397.89
465.87	463.43
466.05	482.15
466.23	388.53
466.41	376.83
466.60	456.40
466.78	430.66
466.96	423.64
467.14	444.70
467.32	449.38
467.51	409.59
467.69	451.72
467.87	484.49
468.05	409.59
468.23	433.00
468.41	400.23
468.60	435.34
468.78	433.00
468.96	489.17
469.14	390.87
469.32	416.62
469.50	437.68
469.69	397.89
469.87	447.04
470.05	418.96
470.23	470.45
470.41	360.44
470.59	428.32
470.77	402.57
470.95	386.19
471.14	489.17
471.32	437.68
471.50	358.10
471.68	365.12
471.86	393.21
472.04	365.12
472.22	407.25
472.40	346.40
472.58	358.10
472.77	465.77
472.95	442.36
473.13	454.06
473.31	409.59
473.49	393.21
473.67	400.23
473.85	484.49
474.03	435.34
474.21	402.57
474.39	451.72
474.57	414.27
474.75	458.74
474.93	416.62
475.12	440.02
475.30	381.51
475.48	440.02
475.66	411.93
475.84	430.66
476.02	423.64
476.20	423.64
476.38	407.25
476.56	461.09
476.74	451.72
476.92	381.51
477.10	400.23
477.28	507.90
477.46	367.46
477.64	486.83
477.82	500.87
478.00	449.38
478.18	444.70
478.36	465.77
478.54	400.23
478.72	458.74
478.90	421.30
479.08	444.70
479.26	447.04
479.44	353.42
479.62	393.21
479.80	404.91
479.98	400.23
480.16	397.89
480.34	421.30
480.52	440.02
480.70	484.49
480.88	411.93
481.06	433.00
481.24	449.38
481.41	416.62
481.59	475.13
481.77	386.19
481.95	383.85
482.13	468.11
482.31	374.49
482.49	472.79
482.67	496.19
482.85	381.51
483.03	470.45
483.21	376.83
483.39	332.36
483.57	388.53
483.74	418.96
483.92	435.34
484.10	421.30
484.28	498.53
484.46	447.04
484.64	374.49
484.82	397.89
485.00	397.89
485.18	381.51
485.35	433.00
485.53	414.27
485.71	390.87
485.89	416.62
486.07	440.02
486.25	491.51
486.43	365.12
486.61	433.00
486.78	461.09
486.96	397.89
487.14	376.83
487.32	409.59
487.50	379.17
487.68	456.40
487.85	383.85
488.03	456.40
488.21	528.96
488.39	482.15
488.57	477.47
488.75	440.02
488.92	554.71
489.10	351.08
489.28	381.51
489.46	451.72
489.64	414.27
489.81	402.57
489.99	414.27
490.17	400.23
490.35	519.60
490.53	440.02
490.70	428.32
490.88	430.66
491.06	456.40
491.24	409.59
491.41	416.62
491.59	498.53
491.77	414.27
491.95	344.06
492.13	437.68
492.30	402.57
492.48	433.00
492.66	430.66
492.84	362.78
493.01	414.27
493.19	451.72
493.37	360.44
493.54	472.79
493.72	442.36
493.90	351.08
494.08	355.76
494.25	379.17
494.43	402.57
494.61	318.31
494.79	367.46
494.96	435.34
495.14	397.89
495.32	311.29
495.49	411.93
495.67	400.23
495.85	379.17
496.02	423.64
496.20	496.19
496.38	395.55
496.55	353.42
496.73	416.62
496.91	294.91
497.09	449.38
497.26	463.43
497.44	421.30
497.62	444.70
497.79	367.46
497.97	416.62
498.14	388.53
498.32	449.38
498.50	491.51
498.67	489.17
498.85	388.53
499.03	451.72
499.20	402.57
499.38	437.68
499.56	414.27
499.73	381.51
499.91	395.55
500.08	414.27
500.26	425.98
500.44	358.10
500.61	344.06
500.79	369.80
500.97	461.09
501.14	458.74
501.32	435.34
501.49	458.74
501.67	397.89
501.84	393.21
502.02	376.83
502.20	526.62
502.37	458.74
502.55	449.38
502.72	395.55
502.90	421.30
503.07	428.32
503.25	367.46
503.43	362.78
503.60	486.83
503.78	409.59
503.95	395.55
504.13	423.64
504.30	491.51
504.48	433.00
504.65	458.74
504.83	414.27
505.01	435.34
505.18	379.17
505.36	456.40
505.53	428.32
505.71	416.62
505.88	440.02
506.06	379.17
506.23	383.85
506.41	409.59
506.58	454.06
506.76	423.64
506.93	425.98
507.11	454.06
507.28	421.30
507.46	404.91
507.63	365.12
507.81	461.09
507.98	451.72
508.16	348.74
508.33	416.62
508.50	402.57
508.68	456.40
508.85	435.34
509.03	458.74
509.20	393.21
509.38	418.96
509.55	437.68
509.73	461.09
509.90	444.70
510.08	418.96
510.25	379.17
510.42	404.91
510.60	397.89
510.77	456.40
510.95	400.23
511.12	416.62
511.30	351.08
511.47	404.91
511.64	461.09
511.82	421.30
511.99	463.43
512.17	390.87
512.34	451.72
512.51	484.49
512.69	451.72
512.86	428.32
513.04	395.55
513.21	463.43
513.38	414.27
513.56	416.62
513.73	491.51
513.90	404.91
514.08	369.80
514.25	355.76
514.43	440.02
514.60	435.34
514.77	414.27
514.95	395.55
515.12	383.85
515.29	400.23
515.47	411.93
515.64	461.09
515.81	482.15
515.99	458.74
516.16	393.21
516.33	475.13
516.51	428.32
516.68	395.55
516.85	376.83
517.03	440.02
517.20	383.85
517.37	374.49
517.54	449.38
517.72	367.46
517.89	400.23
518.06	355.76
518.24	409.59
518.41	470.45
518.58	486.83
518.75	421.30
518.93	379.17
519.10	421.30
519.27	421.30
519.45	390.87
519.62	407.25
519.79	418.96
519.96	402.57
520.14	362.78
520.31	451.72
520.48	430.66
520.65	442.36
520.83	430.66
521.00	393.21
521.17	372.15
521.34	365.12
521.52	416.62
521.69	411.93
521.86	393.21
522.03	482.15
522.20	458.74
522.38	414.27
522.55	425.98
522.72	407.25
522.89	390.87
523.07	409.59
523.24	463.43
523.41	456.40
523.58	519.60
523.75	397.89
523.92	404.91
524.10	409.59
524.27	456.40
524.44	360.44
524.61	358.10
524.78	369.80
524.96	458.74
525.13	491.51
525.30	428.32
525.47	418.96
525.64	390.87
525.81	393.21
525.98	383.85
526.16	414.27
526.33	505.56
526.50	433.00
526.67	337.04
526.84	407.25
527.01	388.53
527.18	393.21
527.36	472.79
527.53	430.66
527.70	465.77
527.87	411.93
528.04	475.13
528.21	397.89
528.38	397.89
528.55	526.62
528.72	404.91
528.89	425.98
529.07	430.66
529.24	402.57
529.41	400.23
529.58	339.38
529.75	433.00
529.92	449.38
530.09	435.34
530.26	418.96
530.43	393.21
530.60	430.66
530.77	416.62
530.94	428.32
531.11	407.25
531.28	381.51
531.46	353.42
531.63	411.93
531.80	397.89
531.97	442.36
532.14	404.91
532.31	482.15
532.48	428.32
532.65	442.36
532.82	475.13
532.99	425.98
533.16	465.77
533.33	383.85
533.50	367.46
533.67	337.04
533.84	425.98
534.01	416.62
534.18	472.79
534.35	440.02
534.52	404.91
534.69	444.70
534.86	482.15
535.03	440.02
535.20	355.76
535.37	440.02
535.54	416.62
535.71	442.36
535.88	456.40
536.05	451.72
536.22	475.13
536.38	365.12
536.55	411.93
536.72	444.70
536.89	447.04
537.06	444.70
537.23	388.53
537.40	397.89
537.57	435.34
537.74	472.79
537.91	430.66
538.08	444.70
538.25	440.02
538.42	437.68
538.59	409.59
538.75	381.51
538.92	395.55
539.09	479.81
539.26	400.23
539.43	451.72
539.60	358.10
539.77	395.55
539.94	435.34
540.11	461.09
540.28	428.32
540.44	451.72
540.61	458.74
540.78	428.32
540.95	355.76
541.12	482.15
541.29	383.85
541.46	440.02
541.62	421.30
541.79	416.62
541.96	425.98
542.13	397.89
542.30	442.36
542.47	395.55
542.63	383.85
542.80	404.91
542.97	428.32
543.14	440.02
543.31	416.62
543.48	428.32
543.64	435.34
543.81	416.62
543.98	451.72
544.15	376.83
544.32	395.55
544.48	369.80
544.65	376.83
544.82	390.87
544.99	344.06
545.16	500.87
545.32	440.02
545.49	383.85
545.66	360.44
545.83	411.93
546.00	353.42
546.16	353.42
546.33	395.55
546.50	423.64
546.67	386.19
546.83	411.93
547.00	430.66
547.17	519.60
547.34	425.98
547.50	381.51
547.67	411.93
547.84	491.51
548.00	393.21
548.17	369.80
548.34	386.19
548.51	402.57
548.67	411.93
548.84	458.74
549.01	425.98
549.18	442.36
549.34	442.36
549.51	416.62
549.68	479.81
549.84	470.45
550.01	451.72
550.18	421.30
550.34	442.36
550.51	358.10
550.68	454.06
550.84	369.80
551.01	397.89
551.18	472.79
551.34	416.62
551.51	402.57
551.68	388.53
551.84	447.04
552.01	425.98
552.18	407.25
552.34	388.53
552.51	409.59
552.68	402.57
552.84	463.43
553.01	470.45
553.18	514.92
553.34	468.11
553.51	407.25
553.67	430.66
553.84	521.94
554.01	484.49
554.17	390.87
554.34	423.64
554.51	393.21
554.67	475.13
554.84	447.04
555.00	440.02
555.17	397.89
555.33	423.64
555.50	393.21
555.67	404.91
555.83	465.77
556.00	425.98
556.16	566.41
556.33	479.81
556.50	372.15
556.66	442.36
556.83	404.91
556.99	437.68
557.16	423.64
557.32	414.27
557.49	395.55
557.65	411.93
557.82	313.63
557.98	428.32
558.15	353.42
558.32	409.59
558.48	330.02
558.65	395.55
558.81	428.32
558.98	454.06
559.14	383.85
559.31	430.66
559.47	472.79
559.64	433.00
559.80	372.15
559.97	353.42
560.13	362.78
560.30	440.02
560.46	383.85
560.63	404.91
560.79	395.55
560.96	433.00
561.12	409.59
561.29	365.12
561.45	334.70
561.61	404.91
561.78	493.85
561.94	365.12
562.11	451.72
562.27	388.53
562.44	390.87
562.60	367.46
562.77	397.89
562.93	507.90
563.10	423.64
563.26	437.68
563.42	479.81
563.59	397.89
563.75	339.38
563.92	489.17
564.08	435.34
564.24	451.72
564.41	433.00
564.57	369.80
564.74	437.68
564.90	428.32
565.07	386.19
565.23	390.87
565.39	407.25
565.56	486.83
565.72	397.89
565.88	374.49
566.05	393.21
566.21	414.27
566.38	411.93
566.54	454.06
566.70	447.04
566.87	395.55
567.03	374.49
567.19	496.19
567.36	430.66
567.52	454.06
567.68	461.09
567.85	416.62
568.01	421.30
568.17	418.96
568.34	442.36
568.50	458.74
568.66	407.25
568.83	458.74
568.99	421.30
569.15	451.72
569.32	475.13
569.48	449.38
569.64	416.62
569.81	521.94
569.97	402.57
570.13	447.04
570.30	386.19
570.46	411.93
570.62	435.34
570.78	454.06
570.95	369.80
571.11	463.43
571.27	395.55
571.43	428.32
571.60	437.68
571.76	451.72
571.92	390.87
572.09	472.79
572.25	477.47
572.41	437.68
572.57	421.30
572.74	482.15
572.90	379.17
573.06	414.27
573.22	365.12
573.38	463.43
573.55	372.15
573.71	442.36
573.87	404.91
574.03	365.12
574.20	411.93
574.36	428.32
574.52	402.57
574.68	437.68
574.84	454.06
575.01	451.72
575.17	393.21
575.33	407.25
575.49	376.83
575.65	402.57
575.82	332.36
575.98	423.64
576.14	376.83
576.30	388.53
576.46	430.66
576.62	418.96
576.79	430.66
576.95	463.43
577.11	388.53
577.27	404.91
577.43	418.96
577.59	463.43
577.75	451.72
577.92	383.85
578.08	465.77
578.24	388.53
578.40	411.93
578.56	458.74
578.72	418.96
578.88	390.87
579.04	449.38
579.21	449.38
579.37	444.70
579.53	393.21
579.69	477.47
579.85	430.66
580.01	411.93
580.17	407.25
580.33	444.70
580.49	416.62
580.65	447.04
580.82	409.59
580.98	465.77
581.14	416.62
581.30	449.38
581.46	430.66
581.62	407.25
581.78	388.53
581.94	430.66
582.10	430.66
582.26	372.15
582.42	411.93
582.58	451.72
582.74	416.62
582.90	444.70
583.06	402.57
583.22	393.21
583.38	381.51
583.54	365.12
583.70	411.93
583.86	482.15
584.02	402.57
584.18	411.93
584.34	428.32
584.50	374.49
584.66	409.59
584.82	390.87
584.98	458.74
585.14	404.91
585.30	423.64
585.46	411.93
585.62	388.53
585.78	411.93
585.94	390.87
586.10	358.10
586.26	421.30
586.42	463.43
586.58	416.62
586.74	449.38
586.90	444.70
587.06	451.72
587.22	442.36
587.38	404.91
587.54	425.98
587.70	393.21
587.86	334.70
588.02	414.27
588.18	397.89
588.34	435.34
588.49	414.27
588.65	435.34
588.81	404.91
588.97	379.17
589.13	418.96
589.29	486.83
589.45	484.49
589.61	440.02
589.77	383.85
589.93	409.59
590.08	320.65
590.24	346.40
590.40	477.47
590.56	416.62
590.72	358.10
590.88	339.38
591.04	400.23
591.20	461.09
591.35	456.40
591.51	458.74
591.67	344.06
591.83	435.34
591.99	421.30
592.15	458.74
592.31	463.43
592.46	444.70
592.62	435.34
592.78	418.96
592.94	348.74
593.10	444.70
593.26	395.55
593.41	416.62
593.57	423.64
593.73	421.30
593.89	454.06
594.05	430.66
594.20	447.04
594.36	475.13
594.52	388.53
594.68	390.87
594.84	442.36
594.99	447.04
595.15	390.87
595.31	468.11
595.47	468.11
595.62	425.98
595.78	437.68
595.94	414.27
596.10	400.23
596.25	449.38
596.41	477.47
596.57	348.74
596.73	423.64
596.88	435.34
597.04	493.85
597.20	388.53
597.36	468.11
597.51	383.85
597.67	379.17
597.83	444.70
597.99	395.55
598.14	393.21
598.30	411.93
598.46	390.87
598.61	414.27
598.77	477.47
598.93	416.62
599.09	376.83
599.24	397.89
599.40	454.06
599.56	425.98
599.71	358.10
599.87	423.64
600.03	383.85
600.18	358.10
600.34	395.55
600.50	404.91
600.65	358.10
600.81	468.11
600.97	428.32
601.12	447.04
601.28	482.15
601.44	456.40
601.59	465.77
601.75	416.62
601.91	400.23
602.06	425.98
602.22	442.36
602.37	397.89
602.53	397.89
602.69	463.43
602.84	409.59
603.00	470.45
603.16	440.02
603.31	409.59
603.47	416.62
603.62	447.04
603.78	425.98
603.94	475.13
604.09	428.32
604.25	421.30
604.40	374.49
604.56	362.78
604.71	425.98
604.87	418.96
605.03	376.83
605.18	351.08
605.34	447.04
605.49	428.32
605.65	425.98
605.80	475.13
605.96	404.91
606.12	437.68
606.27	461.09
606.43	416.62
606.58	435.34
606.74	407.25
606.89	369.80
607.05	414.27
607.20	404.91
607.36	411.93
607.51	362.78
607.67	416.62
607.82	461.09
607.98	351.08
608.13	444.70
608.29	442.36
608.44	475.13
608.60	390.87
608.75	395.55
608.91	397.89
609.06	411.93
609.22	468.11
609.37	421.30
609.53	449.38
609.68	423.64
609.84	325.33
609.99	376.83
610.15	437.68
