SpectraSuite Data File
++++++++++++++++++++++++++++++++++++
Date: Fri Oct 25 12:11:14 EDT 2013
User: price-jones
Dark Spectrum Present: No
Reference Spectrum Present: No
Number of Sampled Component Spectra: 1
Spectrometers: USB2+H05261
Integration Time (usec): 100000 (USB2+H05261)
Spectra Averaged: 1 (USB2+H05261)
Boxcar Smoothing: 0 (USB2+H05261)
Correct for Electrical Dark: No (USB2+H05261)
Strobe/Lamp Enabled: No (USB2+H05261)
Correct for Detector Non-linearity: No (USB2+H05261)
Correct for Stray Light: No (USB2+H05261)
Number of Pixels in Processed Spectrum: 2048
>>>>>Begin Processed Spectral Data<<<<<
365.73	358.10
365.92	358.10
366.12	358.10
366.32	271.50
366.52	236.39
366.72	217.67
366.91	203.63
367.11	234.05
367.31	259.80
367.51	227.03
367.70	191.92
367.90	224.69
368.10	175.54
368.30	248.10
368.49	208.31
368.69	259.80
368.89	269.16
369.09	273.84
369.28	264.48
369.48	292.57
369.68	269.16
369.87	311.29
370.07	259.80
370.27	341.72
370.47	311.29
370.66	325.33
370.86	348.74
371.06	404.91
371.25	397.89
371.45	353.42
371.65	430.66
371.84	390.87
372.04	416.62
372.24	465.77
372.44	381.51
372.63	383.85
372.83	388.53
373.03	362.78
373.22	390.87
373.42	381.51
373.62	353.42
373.81	407.25
374.01	411.93
374.21	456.40
374.40	362.78
374.60	402.57
374.79	402.57
374.99	465.77
375.19	425.98
375.38	414.27
375.58	390.87
375.78	425.98
375.97	311.29
376.17	449.38
376.37	449.38
376.56	409.59
376.76	402.57
376.95	411.93
377.15	411.93
377.35	400.23
377.54	421.30
377.74	507.90
377.93	465.77
378.13	411.93
378.33	423.64
378.52	404.91
378.72	461.09
378.91	451.72
379.11	360.44
379.31	423.64
379.50	353.42
379.70	421.30
379.89	416.62
380.09	390.87
380.28	397.89
380.48	369.80
380.68	376.83
380.87	397.89
381.07	379.17
381.26	404.91
381.46	301.93
381.65	379.17
381.85	400.23
382.04	390.87
382.24	428.32
382.43	367.46
382.63	369.80
382.83	376.83
383.02	416.62
383.22	428.32
383.41	362.78
383.61	407.25
383.80	433.00
384.00	402.57
384.19	428.32
384.39	421.30
384.58	433.00
384.78	330.02
384.97	425.98
385.17	435.34
385.36	437.68
385.56	327.68
385.75	425.98
385.95	337.04
386.14	395.55
386.34	402.57
386.53	348.74
386.72	388.53
386.92	482.15
387.11	365.12
387.31	463.43
387.50	395.55
387.70	367.46
387.89	437.68
388.09	386.19
388.28	390.87
388.48	444.70
388.67	423.64
388.86	320.65
389.06	388.53
389.25	425.98
389.45	423.64
389.64	374.49
389.84	430.66
390.03	414.27
390.22	442.36
390.42	320.65
390.61	411.93
390.81	362.78
391.00	425.98
391.19	447.04
391.39	369.80
391.58	379.17
391.78	428.32
391.97	381.51
392.16	400.23
392.36	409.59
392.55	425.98
392.75	386.19
392.94	458.74
393.13	425.98
393.33	425.98
393.52	430.66
393.71	425.98
393.91	428.32
394.10	372.15
394.29	360.44
394.49	386.19
394.68	374.49
394.88	418.96
395.07	437.68
395.26	409.59
395.46	510.24
395.65	437.68
395.84	470.45
396.04	550.03
396.23	395.55
396.42	381.51
396.62	421.30
396.81	430.66
397.00	470.45
397.19	421.30
397.39	402.57
397.58	383.85
397.77	425.98
397.97	372.15
398.16	458.74
398.35	407.25
398.55	430.66
398.74	358.10
398.93	395.55
399.12	447.04
399.32	491.51
399.51	428.32
399.70	409.59
399.90	451.72
400.09	344.06
400.28	418.96
400.47	362.78
400.67	400.23
400.86	344.06
401.05	433.00
401.24	379.17
401.44	411.93
401.63	428.32
401.82	428.32
402.01	397.89
402.21	386.19
402.40	360.44
402.59	409.59
402.78	477.47
402.97	430.66
403.17	428.32
403.36	428.32
403.55	409.59
403.74	409.59
403.93	353.42
404.13	393.21
404.32	358.10
404.51	400.23
404.70	386.19
404.89	374.49
405.09	491.51
405.28	430.66
405.47	381.51
405.66	414.27
405.85	440.02
406.05	521.94
406.24	416.62
406.43	421.30
406.62	435.34
406.81	447.04
407.00	493.85
407.20	409.59
407.39	440.02
407.58	372.15
407.77	425.98
407.96	416.62
408.15	447.04
408.34	428.32
408.54	339.38
408.73	376.83
408.92	362.78
409.11	404.91
409.30	444.70
409.49	367.46
409.68	386.19
409.87	358.10
410.07	400.23
410.26	433.00
410.45	369.80
410.64	358.10
410.83	411.93
411.02	414.27
411.21	402.57
411.40	407.25
411.59	407.25
411.78	425.98
411.98	369.80
412.17	416.62
412.36	468.11
412.55	374.49
412.74	512.58
412.93	475.13
413.12	344.06
413.31	435.34
413.50	400.23
413.69	379.17
413.88	437.68
414.07	423.64
414.26	351.08
414.45	418.96
414.64	465.77
414.83	400.23
415.02	447.04
415.22	428.32
415.41	407.25
415.60	386.19
415.79	407.25
415.98	433.00
416.17	402.57
416.36	428.32
416.55	390.87
416.74	315.97
416.93	430.66
417.12	433.00
417.31	372.15
417.50	437.68
417.69	437.68
417.88	390.87
418.07	437.68
418.26	425.98
418.45	287.89
418.64	458.74
418.83	372.15
419.02	400.23
419.21	409.59
419.39	360.44
419.58	367.46
419.77	386.19
419.96	442.36
420.15	416.62
420.34	449.38
420.53	379.17
420.72	353.42
420.91	395.55
421.10	402.57
421.29	454.06
421.48	465.77
421.67	423.64
421.86	390.87
422.05	383.85
422.24	411.93
422.43	496.19
422.61	416.62
422.80	358.10
422.99	416.62
423.18	404.91
423.37	463.43
423.56	369.80
423.75	461.09
423.94	442.36
424.13	430.66
424.32	393.21
424.50	416.62
424.69	463.43
424.88	418.96
425.07	430.66
425.26	390.87
425.45	458.74
425.64	451.72
425.83	383.85
426.01	376.83
426.20	393.21
426.39	440.02
426.58	425.98
426.77	369.80
426.96	425.98
427.15	404.91
427.33	402.57
427.52	454.06
427.71	372.15
427.90	437.68
428.09	421.30
428.28	374.49
428.46	402.57
428.65	425.98
428.84	482.15
429.03	468.11
429.22	383.85
429.40	386.19
429.59	376.83
429.78	472.79
429.97	428.32
430.16	423.64
430.34	437.68
430.53	414.27
430.72	322.99
430.91	449.38
431.10	418.96
431.28	351.08
431.47	521.94
431.66	344.06
431.85	416.62
432.03	458.74
432.22	489.17
432.41	428.32
432.60	442.36
432.79	409.59
432.97	397.89
433.16	435.34
433.35	433.00
433.54	421.30
433.72	447.04
433.91	449.38
434.10	444.70
434.28	449.38
434.47	381.51
434.66	388.53
434.85	367.46
435.03	428.32
435.22	465.77
435.41	425.98
435.59	339.38
435.78	416.62
435.97	376.83
436.16	437.68
436.34	379.17
436.53	440.02
436.72	493.85
436.90	449.38
437.09	465.77
437.28	379.17
437.46	402.57
437.65	341.72
437.84	418.96
438.02	411.93
438.21	444.70
438.40	402.57
438.58	353.42
438.77	402.57
438.96	388.53
439.14	402.57
439.33	440.02
439.52	437.68
439.70	463.43
439.89	477.47
440.08	407.25
440.26	430.66
440.45	425.98
440.63	458.74
440.82	449.38
441.01	451.72
441.19	372.15
441.38	442.36
441.57	486.83
441.75	444.70
441.94	433.00
442.12	435.34
442.31	376.83
442.50	381.51
442.68	463.43
442.87	383.85
443.05	411.93
443.24	423.64
443.43	430.66
443.61	425.98
443.80	390.87
443.98	383.85
444.17	388.53
444.35	402.57
444.54	437.68
444.73	393.21
444.91	447.04
445.10	463.43
445.28	421.30
445.47	433.00
445.65	388.53
445.84	421.30
446.02	400.23
446.21	358.10
446.39	449.38
446.58	400.23
446.77	348.74
446.95	393.21
447.14	416.62
447.32	416.62
447.51	409.59
447.69	351.08
447.88	449.38
448.06	390.87
448.25	404.91
448.43	440.02
448.62	346.40
448.80	411.93
448.99	451.72
449.17	404.91
449.36	341.72
449.54	414.27
449.73	397.89
449.91	444.70
450.10	472.79
450.28	463.43
450.46	365.12
450.65	524.28
450.83	425.98
451.02	449.38
451.20	496.19
451.39	421.30
451.57	374.49
451.76	440.02
451.94	374.49
452.13	404.91
452.31	456.40
452.49	418.96
452.68	386.19
452.86	484.49
453.05	465.77
453.23	390.87
453.42	390.87
453.60	397.89
453.78	440.02
453.97	409.59
454.15	369.80
454.34	411.93
454.52	386.19
454.70	514.92
454.89	416.62
455.07	425.98
455.26	388.53
455.44	383.85
455.62	411.93
455.81	418.96
455.99	430.66
456.17	397.89
456.36	404.91
456.54	381.51
456.73	393.21
456.91	402.57
457.09	437.68
457.28	440.02
457.46	400.23
457.64	404.91
457.83	470.45
458.01	402.57
458.19	461.09
458.38	435.34
458.56	440.02
458.74	372.15
458.93	416.62
459.11	369.80
459.29	386.19
459.48	433.00
459.66	407.25
459.84	390.87
460.03	472.79
460.21	454.06
460.39	449.38
460.57	421.30
460.76	369.80
460.94	411.93
461.12	409.59
461.31	404.91
461.49	400.23
461.67	411.93
461.85	458.74
462.04	435.34
462.22	753.65
462.40	461.09
462.59	479.81
462.77	393.21
462.95	386.19
463.13	409.59
463.32	383.85
463.50	358.10
463.68	414.27
463.86	442.36
464.05	374.49
464.23	400.23
464.41	440.02
464.59	442.36
464.78	383.85
464.96	381.51
465.14	404.91
465.32	456.40
465.50	400.23
465.69	428.32
465.87	456.40
466.05	416.62
466.23	402.57
466.41	428.32
466.60	374.49
466.78	521.94
466.96	435.34
467.14	425.98
467.32	514.92
467.51	409.59
467.69	428.32
467.87	388.53
468.05	430.66
468.23	341.72
468.41	374.49
468.60	393.21
468.78	458.74
468.96	491.51
469.14	416.62
469.32	430.66
469.50	402.57
469.69	425.98
469.87	383.85
470.05	449.38
470.23	400.23
470.41	433.00
470.59	437.68
470.77	456.40
470.95	411.93
471.14	470.45
471.32	348.74
471.50	465.77
471.68	402.57
471.86	409.59
472.04	388.53
472.22	486.83
472.40	395.55
472.58	421.30
472.77	414.27
472.95	397.89
473.13	353.42
473.31	423.64
473.49	454.06
473.67	421.30
473.85	416.62
474.03	402.57
474.21	411.93
474.39	482.15
474.57	451.72
474.75	454.06
474.93	360.44
475.12	451.72
475.30	447.04
475.48	402.57
475.66	416.62
475.84	418.96
476.02	491.51
476.20	496.19
476.38	358.10
476.56	440.02
476.74	486.83
476.92	472.79
477.10	430.66
477.28	500.87
477.46	407.25
477.64	407.25
477.82	376.83
478.00	404.91
478.18	428.32
478.36	447.04
478.54	390.87
478.72	430.66
478.90	451.72
479.08	409.59
479.26	468.11
479.44	411.93
479.62	365.12
479.80	475.13
479.98	390.87
480.16	411.93
480.34	388.53
480.52	395.55
480.70	418.96
480.88	409.59
481.06	404.91
481.24	430.66
481.41	409.59
481.59	381.51
481.77	423.64
481.95	414.27
482.13	416.62
482.31	454.06
482.49	397.89
482.67	400.23
482.85	482.15
483.03	418.96
483.21	440.02
483.39	367.46
483.57	383.85
483.74	416.62
483.92	390.87
484.10	458.74
484.28	428.32
484.46	463.43
484.64	393.21
484.82	390.87
485.00	402.57
485.18	360.44
485.35	369.80
485.53	339.38
485.71	423.64
485.89	428.32
486.07	379.17
486.25	407.25
486.43	454.06
486.61	404.91
486.78	395.55
486.96	428.32
487.14	491.51
487.32	381.51
487.50	409.59
487.68	428.32
487.85	362.78
488.03	468.11
488.21	503.22
488.39	379.17
488.57	344.06
488.75	381.51
488.92	505.56
489.10	444.70
489.28	454.06
489.46	437.68
489.64	395.55
489.81	386.19
489.99	463.43
490.17	390.87
490.35	514.92
490.53	365.12
490.70	407.25
490.88	491.51
491.06	346.40
491.24	386.19
491.41	435.34
491.59	456.40
491.77	404.91
491.95	388.53
492.13	458.74
492.30	414.27
492.48	379.17
492.66	411.93
492.84	372.15
493.01	374.49
493.19	390.87
493.37	435.34
493.54	421.30
493.72	440.02
493.90	425.98
494.08	390.87
494.25	367.46
494.43	421.30
494.61	435.34
494.79	390.87
494.96	365.12
495.14	411.93
495.32	386.19
495.49	421.30
495.67	503.22
495.85	388.53
496.02	437.68
496.20	454.06
496.38	360.44
496.55	344.06
496.73	472.79
496.91	376.83
497.09	463.43
497.26	390.87
497.44	369.80
497.62	414.27
497.79	458.74
497.97	463.43
498.14	449.38
498.32	353.42
498.50	430.66
498.67	320.65
498.85	388.53
499.03	458.74
499.20	397.89
499.38	461.09
499.56	416.62
499.73	493.85
499.91	489.17
500.08	454.06
500.26	437.68
500.44	315.97
500.61	458.74
500.79	402.57
500.97	421.30
501.14	383.85
501.32	489.17
501.49	425.98
501.67	383.85
501.84	430.66
502.02	400.23
502.20	482.15
502.37	402.57
502.55	470.45
502.72	456.40
502.90	423.64
503.07	517.26
503.25	491.51
503.43	449.38
503.60	400.23
503.78	407.25
503.95	456.40
504.13	372.15
504.30	386.19
504.48	463.43
504.65	470.45
504.83	461.09
505.01	390.87
505.18	435.34
505.36	404.91
505.53	395.55
505.71	360.44
505.88	428.32
506.06	463.43
506.23	433.00
506.41	416.62
506.58	447.04
506.76	374.49
506.93	390.87
507.11	418.96
507.28	402.57
507.46	386.19
507.63	428.32
507.81	442.36
507.98	355.76
508.16	397.89
508.33	327.68
508.50	486.83
508.68	444.70
508.85	465.77
509.03	475.13
509.20	437.68
509.38	409.59
509.55	435.34
509.73	404.91
509.90	402.57
510.08	369.80
510.25	407.25
510.42	383.85
510.60	393.21
510.77	407.25
510.95	470.45
511.12	409.59
511.30	425.98
511.47	447.04
511.64	454.06
511.82	421.30
511.99	442.36
512.17	374.49
512.34	346.40
512.51	339.38
512.69	472.79
512.86	411.93
513.04	397.89
513.21	386.19
513.38	418.96
513.56	402.57
513.73	411.93
513.90	388.53
514.08	388.53
514.25	409.59
514.43	421.30
514.60	397.89
514.77	358.10
514.95	411.93
515.12	414.27
515.29	437.68
515.47	411.93
515.64	484.49
515.81	393.21
515.99	404.91
516.16	416.62
516.33	444.70
516.51	353.42
516.68	458.74
516.85	390.87
517.03	346.40
517.20	458.74
517.37	430.66
517.54	372.15
517.72	409.59
517.89	461.09
518.06	397.89
518.24	456.40
518.41	500.87
518.58	425.98
518.75	369.80
518.93	437.68
519.10	458.74
519.27	351.08
519.45	442.36
519.62	376.83
519.79	397.89
519.96	470.45
520.14	418.96
520.31	451.72
520.48	379.17
520.65	397.89
520.83	465.77
521.00	447.04
521.17	425.98
521.34	362.78
521.52	337.04
521.69	362.78
521.86	390.87
522.03	484.49
522.20	472.79
522.38	428.32
522.55	404.91
522.72	376.83
522.89	400.23
523.07	465.77
523.24	430.66
523.41	365.12
523.58	430.66
523.75	362.78
523.92	456.40
524.10	416.62
524.27	463.43
524.44	416.62
524.61	383.85
524.78	447.04
524.96	367.46
525.13	369.80
525.30	416.62
525.47	430.66
525.64	313.63
525.81	390.87
525.98	447.04
526.16	386.19
526.33	348.74
526.50	358.10
526.67	411.93
526.84	362.78
527.01	418.96
527.18	386.19
527.36	374.49
527.53	402.57
527.70	411.93
527.87	454.06
528.04	388.53
528.21	421.30
528.38	362.78
528.55	379.17
528.72	444.70
528.89	512.58
529.07	407.25
529.24	442.36
529.41	423.64
529.58	409.59
529.75	379.17
529.92	435.34
530.09	390.87
530.26	468.11
530.43	400.23
530.60	425.98
530.77	409.59
530.94	470.45
531.11	444.70
531.28	337.04
531.46	381.51
531.63	388.53
531.80	369.80
531.97	358.10
532.14	437.68
532.31	414.27
532.48	435.34
532.65	519.60
532.82	418.96
532.99	383.85
533.16	411.93
533.33	367.46
533.50	381.51
533.67	360.44
533.84	386.19
534.01	397.89
534.18	381.51
534.35	440.02
534.52	421.30
534.69	423.64
534.86	430.66
535.03	447.04
535.20	358.10
535.37	388.53
535.54	482.15
535.71	388.53
535.88	402.57
536.05	348.74
536.22	393.21
536.38	418.96
536.55	444.70
536.72	463.43
536.89	409.59
537.06	393.21
537.23	367.46
537.40	362.78
537.57	423.64
537.74	397.89
537.91	418.96
538.08	416.62
538.25	489.17
538.42	386.19
538.59	458.74
538.75	496.19
538.92	416.62
539.09	461.09
539.26	390.87
539.43	400.23
539.60	337.04
539.77	416.62
539.94	425.98
540.11	400.23
540.28	437.68
540.44	454.06
540.61	451.72
540.78	327.68
540.95	383.85
541.12	421.30
541.29	407.25
541.46	482.15
541.62	444.70
541.79	414.27
541.96	376.83
542.13	402.57
542.30	388.53
542.47	444.70
542.63	386.19
542.80	418.96
542.97	477.47
543.14	386.19
543.31	348.74
543.48	440.02
543.64	414.27
543.81	397.89
543.98	372.15
544.15	451.72
544.32	425.98
544.48	449.38
544.65	402.57
544.82	334.70
544.99	463.43
545.16	479.81
545.32	390.87
545.49	451.72
545.66	456.40
545.83	311.29
546.00	369.80
546.16	383.85
546.33	400.23
546.50	358.10
546.67	440.02
546.83	393.21
547.00	402.57
547.17	374.49
547.34	519.60
547.50	421.30
547.67	402.57
547.84	400.23
548.00	414.27
548.17	376.83
548.34	456.40
548.51	512.58
548.67	423.64
548.84	411.93
549.01	418.96
549.18	379.17
549.34	416.62
549.51	369.80
549.68	425.98
549.84	465.77
550.01	409.59
550.18	449.38
550.34	479.81
550.51	411.93
550.68	383.85
550.84	463.43
551.01	379.17
551.18	402.57
551.34	388.53
551.51	414.27
551.68	425.98
551.84	400.23
552.01	456.40
552.18	402.57
552.34	461.09
552.51	456.40
552.68	447.04
552.84	435.34
553.01	442.36
553.18	433.00
553.34	388.53
553.51	414.27
553.67	416.62
553.84	395.55
554.01	500.87
554.17	440.02
554.34	397.89
554.51	425.98
554.67	386.19
554.84	433.00
555.00	451.72
555.17	421.30
555.33	547.69
555.50	498.53
555.67	444.70
555.83	407.25
556.00	524.28
556.16	517.26
556.33	411.93
556.50	404.91
556.66	404.91
556.83	383.85
556.99	442.36
557.16	458.74
557.32	421.30
557.49	383.85
557.65	411.93
557.82	381.51
557.98	416.62
558.15	414.27
558.32	451.72
558.48	395.55
558.65	433.00
558.81	479.81
558.98	433.00
559.14	376.83
559.31	430.66
559.47	416.62
559.64	418.96
559.80	367.46
559.97	433.00
560.13	407.25
560.30	430.66
560.46	402.57
560.63	390.87
560.79	395.55
560.96	435.34
561.12	409.59
561.29	463.43
561.45	414.27
561.61	451.72
561.78	470.45
561.94	442.36
562.11	372.15
562.27	397.89
562.44	409.59
562.60	416.62
562.77	418.96
562.93	479.81
563.10	489.17
563.26	428.32
563.42	463.43
563.59	489.17
563.75	362.78
563.92	423.64
564.08	416.62
564.24	402.57
564.41	407.25
564.57	409.59
564.74	365.12
564.90	444.70
565.07	486.83
565.23	397.89
565.39	463.43
565.56	451.72
565.72	386.19
565.88	425.98
566.05	423.64
566.21	400.23
566.38	437.68
566.54	465.77
566.70	390.87
566.87	428.32
567.03	416.62
567.19	456.40
567.36	404.91
567.52	388.53
567.68	397.89
567.85	390.87
568.01	374.49
568.17	491.51
568.34	421.30
568.50	395.55
568.66	367.46
568.83	472.79
568.99	334.70
569.15	404.91
569.32	496.19
569.48	470.45
569.64	451.72
569.81	393.21
569.97	456.40
570.13	414.27
570.30	386.19
570.46	442.36
570.62	428.32
570.78	369.80
570.95	451.72
571.11	414.27
571.27	496.19
571.43	416.62
571.60	367.46
571.76	421.30
571.92	433.00
572.09	442.36
572.25	374.49
572.41	442.36
572.57	367.46
572.74	407.25
572.90	519.60
573.06	451.72
573.22	472.79
573.38	449.38
573.55	400.23
573.71	411.93
573.87	442.36
574.03	381.51
574.20	400.23
574.36	421.30
574.52	383.85
574.68	437.68
574.84	379.17
575.01	409.59
575.17	435.34
575.33	409.59
575.49	498.53
575.65	447.04
575.82	374.49
575.98	418.96
576.14	468.11
576.30	496.19
576.46	416.62
576.62	416.62
576.79	449.38
576.95	451.72
577.11	386.19
577.27	442.36
577.43	416.62
577.59	402.57
577.75	449.38
577.92	341.72
578.08	454.06
578.24	388.53
578.40	507.90
578.56	425.98
578.72	428.32
578.88	400.23
579.04	372.15
579.21	381.51
579.37	393.21
579.53	428.32
579.69	416.62
579.85	425.98
580.01	428.32
580.17	393.21
580.33	425.98
580.49	486.83
580.65	383.85
580.82	400.23
580.98	416.62
581.14	458.74
581.30	433.00
581.46	383.85
581.62	479.81
581.78	390.87
581.94	456.40
582.10	381.51
582.26	404.91
582.42	418.96
582.58	470.45
582.74	407.25
582.90	369.80
583.06	376.83
583.22	402.57
583.38	383.85
583.54	440.02
583.70	444.70
583.86	449.38
584.02	416.62
584.18	395.55
584.34	407.25
584.50	407.25
584.66	346.40
584.82	456.40
584.98	440.02
585.14	475.13
585.30	358.10
585.46	418.96
585.62	442.36
585.78	430.66
585.94	334.70
586.10	428.32
586.26	418.96
586.42	449.38
586.58	390.87
586.74	362.78
586.90	381.51
587.06	416.62
587.22	447.04
587.38	379.17
587.54	407.25
587.70	402.57
587.86	440.02
588.02	395.55
588.18	421.30
588.34	435.34
588.49	418.96
588.65	397.89
588.81	365.12
588.97	306.61
589.13	428.32
589.29	411.93
589.45	390.87
589.61	468.11
589.77	503.22
589.93	404.91
590.08	430.66
590.24	437.68
590.40	423.64
590.56	489.17
590.72	416.62
590.88	376.83
591.04	447.04
591.20	397.89
591.35	498.53
591.51	477.47
591.67	433.00
591.83	397.89
591.99	353.42
592.15	395.55
592.31	376.83
592.46	416.62
592.62	409.59
592.78	339.38
592.94	409.59
593.10	433.00
593.26	386.19
593.41	379.17
593.57	421.30
593.73	376.83
593.89	367.46
594.05	430.66
594.20	404.91
594.36	435.34
594.52	465.77
594.68	390.87
594.84	369.80
594.99	390.87
595.15	435.34
595.31	479.81
595.47	444.70
595.62	341.72
595.78	418.96
595.94	475.13
596.10	454.06
596.25	381.51
596.41	440.02
596.57	444.70
596.73	402.57
596.88	407.25
597.04	365.12
597.20	346.40
597.36	423.64
597.51	444.70
597.67	449.38
597.83	465.77
597.99	423.64
598.14	381.51
598.30	505.56
598.46	416.62
598.61	440.02
598.77	390.87
598.93	369.80
599.09	414.27
599.24	369.80
599.40	423.64
599.56	386.19
599.71	379.17
599.87	393.21
600.03	435.34
600.18	414.27
600.34	468.11
600.50	339.38
600.65	428.32
600.81	482.15
600.97	393.21
601.12	510.24
601.28	461.09
601.44	414.27
601.59	362.78
601.75	400.23
601.91	397.89
602.06	337.04
602.22	475.13
602.37	388.53
602.53	407.25
602.69	444.70
602.84	433.00
603.00	423.64
603.16	397.89
603.31	472.79
603.47	428.32
603.62	407.25
603.78	414.27
603.94	468.11
604.09	411.93
604.25	402.57
604.40	451.72
604.56	472.79
604.71	447.04
604.87	404.91
605.03	369.80
605.18	447.04
605.34	449.38
605.49	397.89
605.65	379.17
605.80	351.08
605.96	388.53
606.12	402.57
606.27	362.78
606.43	477.47
606.58	397.89
606.74	454.06
606.89	440.02
607.05	423.64
607.20	456.40
607.36	458.74
607.51	418.96
607.67	433.00
607.82	402.57
607.98	458.74
608.13	407.25
608.29	435.34
608.44	428.32
608.60	381.51
608.75	397.89
608.91	386.19
609.06	404.91
609.22	418.96
609.37	440.02
609.53	407.25
609.68	437.68
609.84	374.49
609.99	362.78
610.15	411.93
