SpectraSuite Data File
++++++++++++++++++++++++++++++++++++
Date: Fri Oct 25 12:11:26 EDT 2013
User: price-jones
Dark Spectrum Present: No
Reference Spectrum Present: No
Number of Sampled Component Spectra: 1
Spectrometers: USB2+H05261
Integration Time (usec): 100000 (USB2+H05261)
Spectra Averaged: 1 (USB2+H05261)
Boxcar Smoothing: 0 (USB2+H05261)
Correct for Electrical Dark: No (USB2+H05261)
Strobe/Lamp Enabled: No (USB2+H05261)
Correct for Detector Non-linearity: No (USB2+H05261)
Correct for Stray Light: No (USB2+H05261)
Number of Pixels in Processed Spectrum: 2048
>>>>>Begin Processed Spectral Data<<<<<
365.73	376.83
365.92	376.83
366.12	376.83
366.32	262.14
366.52	287.89
366.72	325.33
366.91	304.27
367.11	294.91
367.31	201.29
367.51	159.16
367.70	196.60
367.90	196.60
368.10	222.35
368.30	220.01
368.49	222.35
368.69	266.82
368.89	196.60
369.09	252.78
369.28	311.29
369.48	243.42
369.68	212.99
369.87	315.97
370.07	315.97
370.27	276.18
370.47	311.29
370.66	297.25
370.86	351.08
371.06	409.59
371.25	386.19
371.45	372.15
371.65	437.68
371.84	346.40
372.04	390.87
372.24	407.25
372.44	423.64
372.63	423.64
372.83	351.08
373.03	411.93
373.22	379.17
373.42	381.51
373.62	423.64
373.81	386.19
374.01	465.77
374.21	409.59
374.40	402.57
374.60	379.17
374.79	400.23
374.99	421.30
375.19	433.00
375.38	411.93
375.58	402.57
375.78	369.80
375.97	465.77
376.17	411.93
376.37	475.13
376.56	376.83
376.76	423.64
376.95	369.80
377.15	444.70
377.35	414.27
377.54	423.64
377.74	390.87
377.93	456.40
378.13	386.19
378.33	477.47
378.52	383.85
378.72	376.83
378.91	428.32
379.11	369.80
379.31	425.98
379.50	388.53
379.70	423.64
379.89	442.36
380.09	362.78
380.28	360.44
380.48	386.19
380.68	435.34
380.87	386.19
381.07	421.30
381.26	414.27
381.46	367.46
381.65	351.08
381.85	400.23
382.04	344.06
382.24	416.62
382.43	400.23
382.63	393.21
382.83	390.87
383.02	418.96
383.22	433.00
383.41	374.49
383.61	404.91
383.80	435.34
384.00	355.76
384.19	393.21
384.39	379.17
384.58	390.87
384.78	444.70
384.97	339.38
385.17	461.09
385.36	477.47
385.56	404.91
385.75	416.62
385.95	395.55
386.14	365.12
386.34	397.89
386.53	372.15
386.72	421.30
386.92	437.68
387.11	472.79
387.31	402.57
387.50	444.70
387.70	421.30
387.89	416.62
388.09	334.70
388.28	362.78
388.48	461.09
388.67	428.32
388.86	400.23
389.06	374.49
389.25	348.74
389.45	482.15
389.64	395.55
389.84	425.98
390.03	449.38
390.22	383.85
390.42	341.72
390.61	407.25
390.81	360.44
391.00	449.38
391.19	484.49
391.39	433.00
391.58	449.38
391.78	365.12
391.97	414.27
392.16	358.10
392.36	451.72
392.55	442.36
392.75	437.68
392.94	402.57
393.13	353.42
393.33	472.79
393.52	397.89
393.71	411.93
393.91	458.74
394.10	444.70
394.29	353.42
394.49	416.62
394.68	341.72
394.88	472.79
395.07	388.53
395.26	411.93
395.46	395.55
395.65	435.34
395.84	400.23
396.04	362.78
396.23	423.64
396.42	386.19
396.62	374.49
396.81	456.40
397.00	461.09
397.19	393.21
397.39	372.15
397.58	416.62
397.77	425.98
397.97	355.76
398.16	379.17
398.35	470.45
398.55	372.15
398.74	379.17
398.93	365.12
399.12	449.38
399.32	447.04
399.51	292.57
399.70	404.91
399.90	411.93
400.09	414.27
400.28	423.64
400.47	332.36
400.67	353.42
400.86	437.68
401.05	421.30
401.24	418.96
401.44	409.59
401.63	418.96
401.82	362.78
402.01	400.23
402.21	418.96
402.40	386.19
402.59	411.93
402.78	404.91
402.97	372.15
403.17	416.62
403.36	423.64
403.55	430.66
403.74	383.85
403.93	442.36
404.13	402.57
404.32	353.42
404.51	411.93
404.70	388.53
404.89	395.55
405.09	465.77
405.28	435.34
405.47	381.51
405.66	348.74
405.85	418.96
406.05	404.91
406.24	400.23
406.43	454.06
406.62	407.25
406.81	365.12
407.00	435.34
407.20	418.96
407.39	376.83
407.58	404.91
407.77	409.59
407.96	423.64
408.15	395.55
408.34	433.00
408.54	437.68
408.73	411.93
408.92	433.00
409.11	390.87
409.30	418.96
409.49	404.91
409.68	486.83
409.87	465.77
410.07	360.44
410.26	435.34
410.45	430.66
410.64	374.49
410.83	376.83
411.02	379.17
411.21	472.79
411.40	440.02
411.59	425.98
411.78	451.72
411.98	425.98
412.17	346.40
412.36	353.42
412.55	393.21
412.74	437.68
412.93	383.85
413.12	411.93
413.31	407.25
413.50	421.30
413.69	355.76
413.88	409.59
414.07	425.98
414.26	374.49
414.45	472.79
414.64	367.46
414.83	435.34
415.02	425.98
415.22	353.42
415.41	414.27
415.60	369.80
415.79	393.21
415.98	390.87
416.17	304.27
416.36	390.87
416.55	374.49
416.74	512.58
416.93	393.21
417.12	381.51
417.31	407.25
417.50	388.53
417.69	440.02
417.88	337.04
418.07	456.40
418.26	428.32
418.45	435.34
418.64	461.09
418.83	411.93
419.02	411.93
419.21	390.87
419.39	435.34
419.58	367.46
419.77	423.64
419.96	456.40
420.15	416.62
420.34	411.93
420.53	433.00
420.72	430.66
420.91	433.00
421.10	409.59
421.29	404.91
421.48	442.36
421.67	407.25
421.86	348.74
422.05	409.59
422.24	346.40
422.43	442.36
422.61	463.43
422.80	430.66
422.99	451.72
423.18	330.02
423.37	397.89
423.56	416.62
423.75	447.04
423.94	418.96
424.13	470.45
424.32	348.74
424.50	416.62
424.69	433.00
424.88	411.93
425.07	386.19
425.26	386.19
425.45	372.15
425.64	416.62
425.83	414.27
426.01	400.23
426.20	433.00
426.39	447.04
426.58	430.66
426.77	402.57
426.96	358.10
427.15	379.17
427.33	404.91
427.52	397.89
427.71	463.43
427.90	435.34
428.09	383.85
428.28	479.81
428.46	465.77
428.65	425.98
428.84	381.51
429.03	468.11
429.22	397.89
429.40	351.08
429.59	416.62
429.78	456.40
429.97	334.70
430.16	344.06
430.34	348.74
430.53	423.64
430.72	454.06
430.91	374.49
431.10	374.49
431.28	437.68
431.47	444.70
431.66	425.98
431.85	365.12
432.03	397.89
432.22	428.32
432.41	418.96
432.60	423.64
432.79	411.93
432.97	416.62
433.16	447.04
433.35	451.72
433.54	442.36
433.72	428.32
433.91	414.27
434.10	470.45
434.28	362.78
434.47	421.30
434.66	470.45
434.85	390.87
435.03	444.70
435.22	414.27
435.41	411.93
435.59	388.53
435.78	362.78
435.97	433.00
436.16	409.59
436.34	337.04
436.53	496.19
436.72	402.57
436.90	395.55
437.09	458.74
437.28	423.64
437.46	425.98
437.65	395.55
437.84	465.77
438.02	454.06
438.21	489.17
438.40	437.68
438.58	332.36
438.77	465.77
438.96	418.96
439.14	456.40
439.33	414.27
439.52	416.62
439.70	440.02
439.89	388.53
440.08	428.32
440.26	463.43
440.45	367.46
440.63	418.96
440.82	472.79
441.01	477.47
441.19	423.64
441.38	430.66
441.57	383.85
441.75	423.64
441.94	470.45
442.12	416.62
442.31	383.85
442.50	430.66
442.68	425.98
442.87	402.57
443.05	437.68
443.24	381.51
443.43	339.38
443.61	379.17
443.80	440.02
443.98	421.30
444.17	402.57
444.35	440.02
444.54	388.53
444.73	397.89
444.91	437.68
445.10	414.27
445.28	400.23
445.47	465.77
445.65	388.53
445.84	423.64
446.02	425.98
446.21	395.55
446.39	484.49
446.58	442.36
446.77	395.55
446.95	404.91
447.14	395.55
447.32	451.72
447.51	416.62
447.69	386.19
447.88	372.15
448.06	475.13
448.25	395.55
448.43	430.66
448.62	414.27
448.80	440.02
448.99	395.55
449.17	479.81
449.36	393.21
449.54	400.23
449.73	444.70
449.91	458.74
450.10	423.64
450.28	482.15
450.46	428.32
450.65	428.32
450.83	416.62
451.02	449.38
451.20	444.70
451.39	353.42
451.57	416.62
451.76	440.02
451.94	416.62
452.13	383.85
452.31	402.57
452.49	423.64
452.68	486.83
452.86	388.53
453.05	372.15
453.23	386.19
453.42	372.15
453.60	425.98
453.78	451.72
453.97	376.83
454.15	388.53
454.34	444.70
454.52	355.76
454.70	407.25
454.89	442.36
455.07	451.72
455.26	461.09
455.44	360.44
455.62	383.85
455.81	397.89
455.99	435.34
456.17	393.21
456.36	402.57
456.54	430.66
456.73	437.68
456.91	468.11
457.09	388.53
457.28	465.77
457.46	397.89
457.64	315.97
457.83	402.57
458.01	411.93
458.19	423.64
458.38	491.51
458.56	425.98
458.74	444.70
458.93	456.40
459.11	418.96
459.29	451.72
459.48	425.98
459.66	472.79
459.84	449.38
460.03	519.60
460.21	386.19
460.39	411.93
460.57	454.06
460.76	463.43
460.94	374.49
461.12	393.21
461.31	437.68
461.49	383.85
461.67	358.10
461.85	402.57
462.04	449.38
462.22	732.59
462.40	421.30
462.59	440.02
462.77	362.78
462.95	390.87
463.13	379.17
463.32	414.27
463.50	421.30
463.68	468.11
463.86	472.79
464.05	411.93
464.23	442.36
464.41	409.59
464.59	442.36
464.78	447.04
464.96	442.36
465.14	409.59
465.32	454.06
465.50	423.64
465.69	449.38
465.87	409.59
466.05	400.23
466.23	402.57
466.41	430.66
466.60	482.15
466.78	409.59
466.96	421.30
467.14	444.70
467.32	435.34
467.51	461.09
467.69	465.77
467.87	496.19
468.05	479.81
468.23	493.85
468.41	463.43
468.60	407.25
468.78	433.00
468.96	423.64
469.14	395.55
469.32	383.85
469.50	407.25
469.69	428.32
469.87	425.98
470.05	458.74
470.23	379.17
470.41	404.91
470.59	430.66
470.77	365.12
470.95	435.34
471.14	538.32
471.32	390.87
471.50	409.59
471.68	425.98
471.86	451.72
472.04	400.23
472.22	414.27
472.40	381.51
472.58	409.59
472.77	425.98
472.95	402.57
473.13	425.98
473.31	409.59
473.49	344.06
473.67	369.80
473.85	421.30
474.03	444.70
474.21	383.85
474.39	454.06
474.57	498.53
474.75	421.30
474.93	409.59
475.12	397.89
475.30	451.72
475.48	458.74
475.66	390.87
475.84	444.70
476.02	351.08
476.20	430.66
476.38	416.62
476.56	475.13
476.74	409.59
476.92	425.98
477.10	428.32
477.28	454.06
477.46	430.66
477.64	447.04
477.82	416.62
478.00	386.19
478.18	442.36
478.36	465.77
478.54	423.64
478.72	369.80
478.90	376.83
479.08	442.36
479.26	465.77
479.44	496.19
479.62	449.38
479.80	423.64
479.98	468.11
480.16	372.15
480.34	489.17
480.52	383.85
480.70	447.04
480.88	393.21
481.06	465.77
481.24	390.87
481.41	414.27
481.59	461.09
481.77	397.89
481.95	386.19
482.13	514.92
482.31	404.91
482.49	388.53
482.67	491.51
482.85	341.72
483.03	355.76
483.21	393.21
483.39	416.62
483.57	395.55
483.74	528.96
483.92	409.59
484.10	409.59
484.28	510.24
484.46	454.06
484.64	383.85
484.82	416.62
485.00	430.66
485.18	444.70
485.35	468.11
485.53	414.27
485.71	484.49
485.89	430.66
486.07	421.30
486.25	465.77
486.43	463.43
486.61	498.53
486.78	397.89
486.96	482.15
487.14	365.12
487.32	440.02
487.50	386.19
487.68	421.30
487.85	344.06
488.03	414.27
488.21	423.64
488.39	390.87
488.57	374.49
488.75	414.27
488.92	500.87
489.10	437.68
489.28	409.59
489.46	447.04
489.64	435.34
489.81	397.89
489.99	414.27
490.17	449.38
490.35	519.60
490.53	433.00
490.70	397.89
490.88	444.70
491.06	409.59
491.24	475.13
491.41	381.51
491.59	465.77
491.77	416.62
491.95	402.57
492.13	475.13
492.30	383.85
492.48	449.38
492.66	435.34
492.84	409.59
493.01	400.23
493.19	409.59
493.37	428.32
493.54	489.17
493.72	444.70
493.90	395.55
494.08	360.44
494.25	463.43
494.43	468.11
494.61	428.32
494.79	425.98
494.96	400.23
495.14	428.32
495.32	447.04
495.49	397.89
495.67	430.66
495.85	421.30
496.02	386.19
496.20	456.40
496.38	428.32
496.55	428.32
496.73	383.85
496.91	425.98
497.09	433.00
497.26	470.45
497.44	421.30
497.62	428.32
497.79	376.83
497.97	486.83
498.14	397.89
498.32	423.64
498.50	456.40
498.67	337.04
498.85	472.79
499.03	383.85
499.20	409.59
499.38	397.89
499.56	358.10
499.73	449.38
499.91	404.91
500.08	400.23
500.26	407.25
500.44	458.74
500.61	390.87
500.79	414.27
500.97	353.42
501.14	440.02
501.32	440.02
501.49	451.72
501.67	334.70
501.84	479.81
502.02	409.59
502.20	418.96
502.37	376.83
502.55	372.15
502.72	482.15
502.90	388.53
503.07	351.08
503.25	437.68
503.43	463.43
503.60	447.04
503.78	393.21
503.95	395.55
504.13	369.80
504.30	404.91
504.48	503.22
504.65	386.19
504.83	411.93
505.01	381.51
505.18	400.23
505.36	451.72
505.53	402.57
505.71	404.91
505.88	437.68
506.06	435.34
506.23	425.98
506.41	355.76
506.58	458.74
506.76	376.83
506.93	404.91
507.11	465.77
507.28	397.89
507.46	404.91
507.63	386.19
507.81	421.30
507.98	416.62
508.16	362.78
508.33	470.45
508.50	470.45
508.68	430.66
508.85	372.15
509.03	381.51
509.20	381.51
509.38	442.36
509.55	440.02
509.73	362.78
509.90	447.04
510.08	397.89
510.25	404.91
510.42	386.19
510.60	390.87
510.77	465.77
510.95	449.38
511.12	404.91
511.30	456.40
511.47	404.91
511.64	482.15
511.82	440.02
511.99	395.55
512.17	395.55
512.34	400.23
512.51	409.59
512.69	437.68
512.86	470.45
513.04	409.59
513.21	390.87
513.38	411.93
513.56	383.85
513.73	444.70
513.90	400.23
514.08	437.68
514.25	463.43
514.43	526.62
514.60	421.30
514.77	395.55
514.95	421.30
515.12	393.21
515.29	379.17
515.47	407.25
515.64	411.93
515.81	381.51
515.99	428.32
516.16	416.62
516.33	447.04
516.51	416.62
516.68	409.59
516.85	423.64
517.03	416.62
517.20	440.02
517.37	386.19
517.54	365.12
517.72	404.91
517.89	360.44
518.06	390.87
518.24	491.51
518.41	477.47
518.58	383.85
518.75	397.89
518.93	421.30
519.10	461.09
519.27	386.19
519.45	447.04
519.62	449.38
519.79	367.46
519.96	433.00
520.14	411.93
520.31	393.21
520.48	411.93
520.65	362.78
520.83	435.34
521.00	425.98
521.17	461.09
521.34	404.91
521.52	381.51
521.69	425.98
521.86	411.93
522.03	411.93
522.20	428.32
522.38	454.06
522.55	442.36
522.72	388.53
522.89	421.30
523.07	414.27
523.24	461.09
523.41	348.74
523.58	390.87
523.75	409.59
523.92	423.64
524.10	404.91
524.27	421.30
524.44	404.91
524.61	390.87
524.78	442.36
524.96	437.68
525.13	386.19
525.30	379.17
525.47	425.98
525.64	433.00
525.81	482.15
525.98	440.02
526.16	386.19
526.33	372.15
526.50	400.23
526.67	418.96
526.84	484.49
527.01	362.78
527.18	381.51
527.36	404.91
527.53	416.62
527.70	468.11
527.87	475.13
528.04	454.06
528.21	458.74
528.38	360.44
528.55	503.22
528.72	341.72
528.89	437.68
529.07	444.70
529.24	395.55
529.41	458.74
529.58	451.72
529.75	430.66
529.92	458.74
530.09	461.09
530.26	456.40
530.43	447.04
530.60	400.23
530.77	416.62
530.94	449.38
531.11	458.74
531.28	437.68
531.46	440.02
531.63	379.17
531.80	430.66
531.97	388.53
532.14	367.46
532.31	425.98
532.48	414.27
532.65	402.57
532.82	383.85
532.99	430.66
533.16	425.98
533.33	421.30
533.50	418.96
533.67	409.59
533.84	425.98
534.01	435.34
534.18	416.62
534.35	472.79
534.52	372.15
534.69	416.62
534.86	407.25
535.03	414.27
535.20	423.64
535.37	444.70
535.54	433.00
535.71	482.15
535.88	437.68
536.05	454.06
536.22	491.51
536.38	409.59
536.55	402.57
536.72	402.57
536.89	383.85
537.06	386.19
537.23	362.78
537.40	322.99
537.57	435.34
537.74	500.87
537.91	400.23
538.08	444.70
538.25	451.72
538.42	416.62
538.59	458.74
538.75	447.04
538.92	449.38
539.09	421.30
539.26	351.08
539.43	430.66
539.60	428.32
539.77	468.11
539.94	409.59
540.11	423.64
540.28	381.51
540.44	416.62
540.61	404.91
540.78	430.66
540.95	393.21
541.12	500.87
541.29	404.91
541.46	440.02
541.62	409.59
541.79	395.55
541.96	442.36
542.13	418.96
542.30	416.62
542.47	442.36
542.63	409.59
542.80	397.89
542.97	456.40
543.14	454.06
543.31	374.49
543.48	414.27
543.64	423.64
543.81	437.68
543.98	369.80
544.15	346.40
544.32	390.87
544.48	423.64
544.65	423.64
544.82	463.43
544.99	451.72
545.16	435.34
545.32	395.55
545.49	404.91
545.66	393.21
545.83	458.74
546.00	444.70
546.16	444.70
546.33	421.30
546.50	430.66
546.67	449.38
546.83	411.93
547.00	418.96
547.17	425.98
547.34	447.04
547.50	491.51
547.67	390.87
547.84	465.77
548.00	493.85
548.17	397.89
548.34	402.57
548.51	505.56
548.67	451.72
548.84	416.62
549.01	428.32
549.18	407.25
549.34	407.25
549.51	395.55
549.68	425.98
549.84	383.85
550.01	440.02
550.18	472.79
550.34	470.45
550.51	451.72
550.68	507.90
550.84	433.00
551.01	510.24
551.18	461.09
551.34	477.47
551.51	423.64
551.68	435.34
551.84	463.43
552.01	393.21
552.18	407.25
552.34	447.04
552.51	386.19
552.68	435.34
552.84	381.51
553.01	393.21
553.18	458.74
553.34	421.30
553.51	451.72
553.67	489.17
553.84	372.15
554.01	409.59
554.17	444.70
554.34	341.72
554.51	383.85
554.67	524.28
554.84	374.49
555.00	388.53
555.17	358.10
555.33	411.93
555.50	355.76
555.67	428.32
555.83	444.70
556.00	430.66
556.16	500.87
556.33	433.00
556.50	423.64
556.66	449.38
556.83	369.80
556.99	381.51
557.16	397.89
557.32	330.02
557.49	379.17
557.65	454.06
557.82	390.87
557.98	362.78
558.15	477.47
558.32	440.02
558.48	477.47
558.65	388.53
558.81	409.59
558.98	482.15
559.14	491.51
559.31	461.09
559.47	456.40
559.64	369.80
559.80	425.98
559.97	416.62
560.13	400.23
560.30	500.87
560.46	404.91
560.63	425.98
560.79	463.43
560.96	435.34
561.12	411.93
561.29	379.17
561.45	425.98
561.61	397.89
561.78	458.74
561.94	442.36
562.11	456.40
562.27	486.83
562.44	503.22
562.60	404.91
562.77	421.30
562.93	458.74
563.10	461.09
563.26	416.62
563.42	393.21
563.59	454.06
563.75	482.15
563.92	449.38
564.08	449.38
564.24	416.62
564.41	414.27
564.57	430.66
564.74	428.32
564.90	372.15
565.07	449.38
565.23	430.66
565.39	451.72
565.56	395.55
565.72	430.66
565.88	390.87
566.05	433.00
566.21	468.11
566.38	456.40
566.54	411.93
566.70	486.83
566.87	442.36
567.03	482.15
567.19	418.96
567.36	418.96
567.52	386.19
567.68	362.78
567.85	404.91
568.01	393.21
568.17	374.49
568.34	421.30
568.50	386.19
568.66	344.06
568.83	458.74
568.99	395.55
569.15	355.76
569.32	428.32
569.48	404.91
569.64	423.64
569.81	428.32
569.97	334.70
570.13	409.59
570.30	379.17
570.46	433.00
570.62	470.45
570.78	404.91
570.95	435.34
571.11	503.22
571.27	484.49
571.43	388.53
571.60	465.77
571.76	416.62
571.92	411.93
572.09	465.77
572.25	430.66
572.41	369.80
572.57	433.00
572.74	456.40
572.90	411.93
573.06	374.49
573.22	388.53
573.38	414.27
573.55	458.74
573.71	400.23
573.87	374.49
574.03	433.00
574.20	433.00
574.36	388.53
574.52	397.89
574.68	383.85
574.84	409.59
575.01	404.91
575.17	418.96
575.33	477.47
575.49	496.19
575.65	440.02
575.82	444.70
575.98	416.62
576.14	425.98
576.30	465.77
576.46	449.38
576.62	437.68
576.79	465.77
576.95	498.53
577.11	327.68
577.27	395.55
577.43	402.57
577.59	468.11
577.75	475.13
577.92	421.30
578.08	397.89
578.24	430.66
578.40	449.38
578.56	484.49
578.72	402.57
578.88	470.45
579.04	440.02
579.21	390.87
579.37	355.76
579.53	411.93
579.69	397.89
579.85	465.77
580.01	456.40
580.17	372.15
580.33	423.64
580.49	454.06
580.65	423.64
580.82	386.19
580.98	423.64
581.14	449.38
581.30	442.36
581.46	362.78
581.62	400.23
581.78	421.30
581.94	397.89
582.10	402.57
582.26	477.47
582.42	463.43
582.58	395.55
582.74	442.36
582.90	425.98
583.06	470.45
583.22	360.44
583.38	414.27
583.54	397.89
583.70	390.87
583.86	404.91
584.02	503.22
584.18	493.85
584.34	407.25
584.50	444.70
584.66	428.32
584.82	433.00
584.98	423.64
585.14	374.49
585.30	416.62
585.46	447.04
585.62	400.23
585.78	388.53
585.94	482.15
586.10	301.93
586.26	379.17
586.42	444.70
586.58	456.40
586.74	393.21
586.90	442.36
587.06	388.53
587.22	409.59
587.38	395.55
587.54	428.32
587.70	458.74
587.86	355.76
588.02	486.83
588.18	416.62
588.34	327.68
588.49	374.49
588.65	390.87
588.81	411.93
588.97	407.25
589.13	379.17
589.29	454.06
589.45	360.44
589.61	447.04
589.77	482.15
589.93	440.02
590.08	456.40
590.24	440.02
590.40	407.25
590.56	416.62
590.72	463.43
590.88	367.46
591.04	440.02
591.20	393.21
591.35	477.47
591.51	484.49
591.67	468.11
591.83	482.15
591.99	409.59
592.15	440.02
592.31	472.79
592.46	442.36
592.62	379.17
592.78	486.83
592.94	395.55
593.10	442.36
593.26	346.40
593.41	468.11
593.57	416.62
593.73	421.30
593.89	435.34
594.05	447.04
594.20	409.59
594.36	402.57
594.52	397.89
594.68	468.11
594.84	416.62
594.99	414.27
595.15	454.06
595.31	414.27
595.47	451.72
595.62	423.64
595.78	423.64
595.94	362.78
596.10	545.34
596.25	423.64
596.41	451.72
596.57	400.23
596.73	472.79
596.88	390.87
597.04	477.47
597.20	404.91
597.36	376.83
597.51	444.70
597.67	468.11
597.83	435.34
597.99	395.55
598.14	451.72
598.30	330.02
598.46	475.13
598.61	451.72
598.77	449.38
598.93	372.15
599.09	433.00
599.24	454.06
599.40	430.66
599.56	442.36
599.71	325.33
599.87	409.59
600.03	411.93
600.18	390.87
600.34	472.79
600.50	470.45
600.65	433.00
600.81	418.96
600.97	421.30
601.12	440.02
601.28	393.21
601.44	433.00
601.59	463.43
601.75	407.25
601.91	421.30
602.06	470.45
602.22	456.40
602.37	442.36
602.53	454.06
602.69	437.68
602.84	404.91
603.00	397.89
603.16	390.87
603.31	447.04
603.47	463.43
603.62	411.93
603.78	395.55
603.94	456.40
604.09	477.47
604.25	390.87
604.40	425.98
604.56	414.27
604.71	411.93
604.87	341.72
605.03	388.53
605.18	407.25
605.34	470.45
605.49	433.00
605.65	437.68
605.80	416.62
605.96	388.53
606.12	397.89
606.27	355.76
606.43	479.81
606.58	416.62
606.74	386.19
606.89	411.93
607.05	475.13
607.20	444.70
607.36	472.79
607.51	390.87
607.67	386.19
607.82	374.49
607.98	458.74
608.13	414.27
608.29	374.49
608.44	379.17
608.60	383.85
608.75	437.68
608.91	491.51
609.06	468.11
609.22	484.49
609.37	482.15
609.53	437.68
609.68	411.93
609.84	416.62
609.99	379.17
610.15	447.04
