SpectraSuite Data File
++++++++++++++++++++++++++++++++++++
Date: Fri Oct 25 12:10:53 EDT 2013
User: price-jones
Dark Spectrum Present: No
Reference Spectrum Present: No
Number of Sampled Component Spectra: 1
Spectrometers: USB2+H05261
Integration Time (usec): 100000 (USB2+H05261)
Spectra Averaged: 1 (USB2+H05261)
Boxcar Smoothing: 0 (USB2+H05261)
Correct for Electrical Dark: No (USB2+H05261)
Strobe/Lamp Enabled: No (USB2+H05261)
Correct for Detector Non-linearity: No (USB2+H05261)
Correct for Stray Light: No (USB2+H05261)
Number of Pixels in Processed Spectrum: 2048
>>>>>Begin Processed Spectral Data<<<<<
365.73	360.44
365.92	360.44
366.12	360.44
366.32	325.33
366.52	250.44
366.72	292.57
366.91	308.95
367.11	259.80
367.31	142.77
367.51	198.95
367.70	252.78
367.90	287.89
368.10	173.20
368.30	217.67
368.49	273.84
368.69	250.44
368.89	257.46
369.09	276.18
369.28	283.20
369.48	278.52
369.68	315.97
369.87	315.97
370.07	229.37
370.27	353.42
370.47	301.93
370.66	330.02
370.86	374.49
371.06	428.32
371.25	351.08
371.45	325.33
371.65	444.70
371.84	339.38
372.04	367.46
372.24	388.53
372.44	327.68
372.63	372.15
372.83	397.89
373.03	456.40
373.22	475.13
373.42	341.72
373.62	428.32
373.81	386.19
374.01	430.66
374.21	414.27
374.40	472.79
374.60	423.64
374.79	437.68
374.99	423.64
375.19	468.11
375.38	447.04
375.58	430.66
375.78	437.68
375.97	418.96
376.17	435.34
376.37	404.91
376.56	458.74
376.76	409.59
376.95	386.19
377.15	407.25
377.35	447.04
377.54	409.59
377.74	346.40
377.93	486.83
378.13	407.25
378.33	472.79
378.52	388.53
378.72	416.62
378.91	400.23
379.11	404.91
379.31	381.51
379.50	381.51
379.70	428.32
379.89	498.53
380.09	456.40
380.28	404.91
380.48	355.76
380.68	404.91
380.87	414.27
381.07	486.83
381.26	447.04
381.46	358.10
381.65	423.64
381.85	404.91
382.04	428.32
382.24	421.30
382.43	425.98
382.63	346.40
382.83	425.98
383.02	500.87
383.22	425.98
383.41	372.15
383.61	383.85
383.80	430.66
384.00	348.74
384.19	402.57
384.39	390.87
384.58	418.96
384.78	390.87
384.97	437.68
385.17	376.83
385.36	437.68
385.56	407.25
385.75	430.66
385.95	418.96
386.14	379.17
386.34	390.87
386.53	423.64
386.72	355.76
386.92	442.36
387.11	470.45
387.31	430.66
387.50	351.08
387.70	416.62
387.89	463.43
388.09	374.49
388.28	341.72
388.48	433.00
388.67	311.29
388.86	421.30
389.06	404.91
389.25	409.59
389.45	386.19
389.64	374.49
389.84	334.70
390.03	465.77
390.22	409.59
390.42	425.98
390.61	407.25
390.81	369.80
391.00	411.93
391.19	491.51
391.39	390.87
391.58	456.40
391.78	425.98
391.97	414.27
392.16	440.02
392.36	393.21
392.55	411.93
392.75	444.70
392.94	409.59
393.13	418.96
393.33	379.17
393.52	472.79
393.71	416.62
393.91	451.72
394.10	411.93
394.29	365.12
394.49	362.78
394.68	379.17
394.88	440.02
395.07	400.23
395.26	388.53
395.46	449.38
395.65	418.96
395.84	386.19
396.04	447.04
396.23	301.93
396.42	346.40
396.62	430.66
396.81	367.46
397.00	283.20
397.19	430.66
397.39	386.19
397.58	386.19
397.77	390.87
397.97	421.30
398.16	425.98
398.35	433.00
398.55	379.17
398.74	411.93
398.93	376.83
399.12	402.57
399.32	447.04
399.51	409.59
399.70	355.76
399.90	423.64
400.09	374.49
400.28	404.91
400.47	447.04
400.67	440.02
400.86	423.64
401.05	400.23
401.24	362.78
401.44	416.62
401.63	400.23
401.82	390.87
402.01	304.27
402.21	461.09
402.40	447.04
402.59	402.57
402.78	404.91
402.97	386.19
403.17	346.40
403.36	435.34
403.55	348.74
403.74	395.55
403.93	348.74
404.13	465.77
404.32	414.27
404.51	407.25
404.70	444.70
404.89	386.19
405.09	397.89
405.28	425.98
405.47	388.53
405.66	390.87
405.85	421.30
406.05	369.80
406.24	400.23
406.43	423.64
406.62	358.10
406.81	433.00
407.00	407.25
407.20	313.63
407.39	390.87
407.58	346.40
407.77	390.87
407.96	456.40
408.15	451.72
408.34	397.89
408.54	402.57
408.73	435.34
408.92	404.91
409.11	388.53
409.30	465.77
409.49	358.10
409.68	341.72
409.87	369.80
410.07	421.30
410.26	339.38
410.45	477.47
410.64	376.83
410.83	397.89
411.02	318.31
411.21	477.47
411.40	365.12
411.59	449.38
411.78	402.57
411.98	407.25
412.17	444.70
412.36	447.04
412.55	330.02
412.74	390.87
412.93	442.36
413.12	311.29
413.31	468.11
413.50	484.49
413.69	470.45
413.88	388.53
414.07	395.55
414.26	388.53
414.45	400.23
414.64	440.02
414.83	358.10
415.02	444.70
415.22	367.46
415.41	404.91
415.60	332.36
415.79	404.91
415.98	400.23
416.17	433.00
416.36	433.00
416.55	376.83
416.74	423.64
416.93	451.72
417.12	447.04
417.31	379.17
417.50	421.30
417.69	428.32
417.88	409.59
418.07	353.42
418.26	390.87
418.45	418.96
418.64	463.43
418.83	400.23
419.02	430.66
419.21	430.66
419.39	332.36
419.58	393.21
419.77	355.76
419.96	411.93
420.15	383.85
420.34	400.23
420.53	449.38
420.72	346.40
420.91	437.68
421.10	414.27
421.29	327.68
421.48	458.74
421.67	423.64
421.86	409.59
422.05	430.66
422.24	465.77
422.43	367.46
422.61	463.43
422.80	437.68
422.99	334.70
423.18	372.15
423.37	442.36
423.56	421.30
423.75	433.00
423.94	449.38
424.13	393.21
424.32	397.89
424.50	315.97
424.69	491.51
424.88	454.06
425.07	400.23
425.26	425.98
425.45	465.77
425.64	386.19
425.83	402.57
426.01	440.02
426.20	374.49
426.39	461.09
426.58	379.17
426.77	444.70
426.96	477.47
427.15	376.83
427.33	454.06
427.52	451.72
427.71	397.89
427.90	386.19
428.09	435.34
428.28	344.06
428.46	379.17
428.65	388.53
428.84	456.40
429.03	421.30
429.22	411.93
429.40	397.89
429.59	435.34
429.78	496.19
429.97	404.91
430.16	437.68
430.34	379.17
430.53	383.85
430.72	491.51
430.91	454.06
431.10	397.89
431.28	379.17
431.47	423.64
431.66	491.51
431.85	351.08
432.03	468.11
432.22	433.00
432.41	374.49
432.60	440.02
432.79	425.98
432.97	407.25
433.16	418.96
433.35	353.42
433.54	416.62
433.72	451.72
433.91	411.93
434.10	395.55
434.28	416.62
434.47	411.93
434.66	400.23
434.85	418.96
435.03	447.04
435.22	468.11
435.41	470.45
435.59	386.19
435.78	397.89
435.97	367.46
436.16	458.74
436.34	381.51
436.53	367.46
436.72	447.04
436.90	442.36
437.09	367.46
437.28	486.83
437.46	409.59
437.65	379.17
437.84	454.06
438.02	418.96
438.21	458.74
438.40	425.98
438.58	348.74
438.77	395.55
438.96	414.27
439.14	430.66
439.33	486.83
439.52	409.59
439.70	411.93
439.89	402.57
440.08	418.96
440.26	379.17
440.45	402.57
440.63	397.89
440.82	400.23
441.01	458.74
441.19	449.38
441.38	418.96
441.57	315.97
441.75	402.57
441.94	458.74
442.12	428.32
442.31	423.64
442.50	437.68
442.68	416.62
442.87	451.72
443.05	416.62
443.24	379.17
443.43	430.66
443.61	383.85
443.80	421.30
443.98	407.25
444.17	421.30
444.35	496.19
444.54	376.83
444.73	407.25
444.91	388.53
445.10	360.44
445.28	376.83
445.47	367.46
445.65	358.10
445.84	414.27
446.02	395.55
446.21	402.57
446.39	386.19
446.58	421.30
446.77	435.34
446.95	423.64
447.14	355.76
447.32	500.87
447.51	383.85
447.69	421.30
447.88	372.15
448.06	383.85
448.25	423.64
448.43	367.46
448.62	421.30
448.80	400.23
448.99	369.80
449.17	397.89
449.36	411.93
449.54	444.70
449.73	393.21
449.91	383.85
450.10	428.32
450.28	440.02
450.46	447.04
450.65	449.38
450.83	367.46
451.02	397.89
451.20	379.17
451.39	416.62
451.57	428.32
451.76	425.98
451.94	440.02
452.13	461.09
452.31	416.62
452.49	386.19
452.68	416.62
452.86	425.98
453.05	475.13
453.23	496.19
453.42	440.02
453.60	440.02
453.78	475.13
453.97	372.15
454.15	402.57
454.34	425.98
454.52	362.78
454.70	475.13
454.89	512.58
455.07	386.19
455.26	433.00
455.44	425.98
455.62	404.91
455.81	465.77
455.99	421.30
456.17	348.74
456.36	369.80
456.54	442.36
456.73	369.80
456.91	449.38
457.09	344.06
457.28	358.10
457.46	421.30
457.64	428.32
457.83	395.55
458.01	383.85
458.19	379.17
458.38	425.98
458.56	428.32
458.74	376.83
458.93	348.74
459.11	402.57
459.29	353.42
459.48	369.80
459.66	407.25
459.84	493.85
460.03	528.96
460.21	407.25
460.39	402.57
460.57	465.77
460.76	482.15
460.94	400.23
461.12	491.51
461.31	491.51
461.49	400.23
461.67	423.64
461.85	393.21
462.04	421.30
462.22	767.70
462.40	493.85
462.59	479.81
462.77	418.96
462.95	365.12
463.13	454.06
463.32	456.40
463.50	414.27
463.68	425.98
463.86	461.09
464.05	369.80
464.23	395.55
464.41	456.40
464.59	442.36
464.78	397.89
464.96	402.57
465.14	369.80
465.32	430.66
465.50	463.43
465.69	458.74
465.87	435.34
466.05	454.06
466.23	395.55
466.41	423.64
466.60	369.80
466.78	440.02
466.96	493.85
467.14	411.93
467.32	463.43
467.51	416.62
467.69	444.70
467.87	400.23
468.05	437.68
468.23	461.09
468.41	425.98
468.60	418.96
468.78	454.06
468.96	486.83
469.14	381.51
469.32	346.40
469.50	360.44
469.69	428.32
469.87	449.38
470.05	414.27
470.23	400.23
470.41	409.59
470.59	369.80
470.77	369.80
470.95	402.57
471.14	435.34
471.32	425.98
471.50	465.77
471.68	402.57
471.86	407.25
472.04	400.23
472.22	444.70
472.40	430.66
472.58	376.83
472.77	351.08
472.95	411.93
473.13	435.34
473.31	433.00
473.49	414.27
473.67	409.59
473.85	421.30
474.03	407.25
474.21	440.02
474.39	447.04
474.57	425.98
474.75	447.04
474.93	400.23
475.12	435.34
475.30	374.49
475.48	402.57
475.66	409.59
475.84	397.89
476.02	348.74
476.20	442.36
476.38	458.74
476.56	486.83
476.74	407.25
476.92	425.98
477.10	484.49
477.28	397.89
477.46	393.21
477.64	519.60
477.82	393.21
478.00	510.24
478.18	517.26
478.36	369.80
478.54	315.97
478.72	381.51
478.90	425.98
479.08	447.04
479.26	404.91
479.44	447.04
479.62	449.38
479.80	468.11
479.98	414.27
480.16	308.95
480.34	437.68
480.52	397.89
480.70	425.98
480.88	337.04
481.06	344.06
481.24	360.44
481.41	407.25
481.59	447.04
481.77	411.93
481.95	395.55
482.13	444.70
482.31	449.38
482.49	416.62
482.67	393.21
482.85	383.85
483.03	454.06
483.21	416.62
483.39	435.34
483.57	402.57
483.74	442.36
483.92	433.00
484.10	400.23
484.28	411.93
484.46	472.79
484.64	393.21
484.82	437.68
485.00	461.09
485.18	489.17
485.35	404.91
485.53	454.06
485.71	369.80
485.89	458.74
486.07	433.00
486.25	430.66
486.43	386.19
486.61	425.98
486.78	505.56
486.96	458.74
487.14	404.91
487.32	362.78
487.50	376.83
487.68	475.13
487.85	386.19
488.03	386.19
488.21	437.68
488.39	402.57
488.57	402.57
488.75	409.59
488.92	456.40
489.10	437.68
489.28	461.09
489.46	388.53
489.64	435.34
489.81	451.72
489.99	456.40
490.17	372.15
490.35	465.77
490.53	416.62
490.70	451.72
490.88	437.68
491.06	332.36
491.24	437.68
491.41	449.38
491.59	430.66
491.77	355.76
491.95	425.98
492.13	425.98
492.30	414.27
492.48	365.12
492.66	388.53
492.84	458.74
493.01	409.59
493.19	379.17
493.37	393.21
493.54	472.79
493.72	360.44
493.90	435.34
494.08	407.25
494.25	381.51
494.43	374.49
494.61	440.02
494.79	381.51
494.96	395.55
495.14	486.83
495.32	383.85
495.49	479.81
495.67	402.57
495.85	414.27
496.02	409.59
496.20	440.02
496.38	437.68
496.55	369.80
496.73	402.57
496.91	421.30
497.09	433.00
497.26	428.32
497.44	383.85
497.62	404.91
497.79	402.57
497.97	428.32
498.14	416.62
498.32	454.06
498.50	362.78
498.67	414.27
498.85	381.51
499.03	447.04
499.20	458.74
499.38	379.17
499.56	435.34
499.73	486.83
499.91	425.98
500.08	414.27
500.26	435.34
500.44	351.08
500.61	414.27
500.79	337.04
500.97	470.45
501.14	449.38
501.32	416.62
501.49	402.57
501.67	379.17
501.84	425.98
502.02	435.34
502.20	440.02
502.37	411.93
502.55	320.65
502.72	491.51
502.90	442.36
503.07	444.70
503.25	404.91
503.43	414.27
503.60	456.40
503.78	423.64
503.95	423.64
504.13	397.89
504.30	444.70
504.48	425.98
504.65	395.55
504.83	404.91
505.01	390.87
505.18	404.91
505.36	482.15
505.53	348.74
505.71	411.93
505.88	393.21
506.06	414.27
506.23	362.78
506.41	369.80
506.58	433.00
506.76	414.27
506.93	402.57
507.11	454.06
507.28	423.64
507.46	362.78
507.63	414.27
507.81	402.57
507.98	423.64
508.16	423.64
508.33	390.87
508.50	360.44
508.68	414.27
508.85	395.55
509.03	379.17
509.20	486.83
509.38	414.27
509.55	456.40
509.73	407.25
509.90	402.57
510.08	458.74
510.25	433.00
510.42	433.00
510.60	383.85
510.77	414.27
510.95	437.68
511.12	416.62
511.30	379.17
511.47	440.02
511.64	496.19
511.82	433.00
511.99	390.87
512.17	404.91
512.34	355.76
512.51	433.00
512.69	383.85
512.86	367.46
513.04	430.66
513.21	423.64
513.38	365.12
513.56	468.11
513.73	381.51
513.90	447.04
514.08	374.49
514.25	449.38
514.43	404.91
514.60	367.46
514.77	425.98
514.95	365.12
515.12	411.93
515.29	416.62
515.47	472.79
515.64	461.09
515.81	390.87
515.99	400.23
516.16	362.78
516.33	418.96
516.51	402.57
516.68	416.62
516.85	425.98
517.03	358.10
517.20	496.19
517.37	454.06
517.54	447.04
517.72	407.25
517.89	447.04
518.06	379.17
518.24	444.70
518.41	418.96
518.58	440.02
518.75	456.40
518.93	425.98
519.10	358.10
519.27	402.57
519.45	379.17
519.62	388.53
519.79	327.68
519.96	414.27
520.14	395.55
520.31	421.30
520.48	367.46
520.65	433.00
520.83	430.66
521.00	416.62
521.17	407.25
521.34	421.30
521.52	458.74
521.69	444.70
521.86	402.57
522.03	418.96
522.20	421.30
522.38	395.55
522.55	433.00
522.72	428.32
522.89	472.79
523.07	444.70
523.24	407.25
523.41	404.91
523.58	383.85
523.75	381.51
523.92	416.62
524.10	402.57
524.27	458.74
524.44	404.91
524.61	433.00
524.78	430.66
524.96	369.80
525.13	365.12
525.30	421.30
525.47	416.62
525.64	348.74
525.81	470.45
525.98	437.68
526.16	390.87
526.33	437.68
526.50	397.89
526.67	458.74
526.84	465.77
527.01	409.59
527.18	376.83
527.36	418.96
527.53	332.36
527.70	409.59
527.87	397.89
528.04	409.59
528.21	381.51
528.38	428.32
528.55	402.57
528.72	397.89
528.89	468.11
529.07	400.23
529.24	395.55
529.41	470.45
529.58	372.15
529.75	348.74
529.92	454.06
530.09	425.98
530.26	418.96
530.43	425.98
530.60	484.49
530.77	447.04
530.94	461.09
531.11	465.77
531.28	484.49
531.46	395.55
531.63	496.19
531.80	372.15
531.97	407.25
532.14	418.96
532.31	458.74
532.48	521.94
532.65	360.44
532.82	407.25
532.99	402.57
533.16	397.89
533.33	390.87
533.50	416.62
533.67	404.91
533.84	461.09
534.01	461.09
534.18	341.72
534.35	402.57
534.52	440.02
534.69	416.62
534.86	482.15
535.03	449.38
535.20	393.21
535.37	409.59
535.54	379.17
535.71	386.19
535.88	458.74
536.05	442.36
536.22	463.43
536.38	428.32
536.55	402.57
536.72	433.00
536.89	362.78
537.06	468.11
537.23	428.32
537.40	463.43
537.57	437.68
537.74	404.91
537.91	423.64
538.08	440.02
538.25	442.36
538.42	437.68
538.59	416.62
538.75	433.00
538.92	458.74
539.09	416.62
539.26	362.78
539.43	407.25
539.60	362.78
539.77	433.00
539.94	393.21
540.11	407.25
540.28	430.66
540.44	381.51
540.61	402.57
540.78	475.13
540.95	381.51
541.12	379.17
541.29	404.91
541.46	519.60
541.62	458.74
541.79	421.30
541.96	430.66
542.13	372.15
542.30	404.91
542.47	421.30
542.63	400.23
542.80	440.02
542.97	449.38
543.14	344.06
543.31	475.13
543.48	348.74
543.64	395.55
543.81	386.19
543.98	400.23
544.15	418.96
544.32	416.62
544.48	407.25
544.65	379.17
544.82	390.87
544.99	418.96
545.16	440.02
545.32	374.49
545.49	428.32
545.66	524.28
545.83	428.32
546.00	351.08
546.16	421.30
546.33	365.12
546.50	423.64
546.67	404.91
546.83	428.32
547.00	435.34
547.17	393.21
547.34	414.27
547.50	418.96
547.67	388.53
547.84	376.83
548.00	463.43
548.17	447.04
548.34	369.80
548.51	454.06
548.67	425.98
548.84	414.27
549.01	407.25
549.18	407.25
549.34	421.30
549.51	440.02
549.68	393.21
549.84	395.55
550.01	454.06
550.18	540.66
550.34	463.43
550.51	477.47
550.68	479.81
550.84	365.12
551.01	409.59
551.18	428.32
551.34	416.62
551.51	402.57
551.68	395.55
551.84	444.70
552.01	372.15
552.18	416.62
552.34	393.21
552.51	404.91
552.68	435.34
552.84	456.40
553.01	428.32
553.18	451.72
553.34	414.27
553.51	369.80
553.67	430.66
553.84	409.59
554.01	416.62
554.17	407.25
554.34	421.30
554.51	498.53
554.67	463.43
554.84	407.25
555.00	425.98
555.17	400.23
555.33	402.57
555.50	433.00
555.67	416.62
555.83	341.72
556.00	461.09
556.16	526.62
556.33	484.49
556.50	376.83
556.66	416.62
556.83	400.23
556.99	376.83
557.16	454.06
557.32	320.65
557.49	407.25
557.65	404.91
557.82	442.36
557.98	374.49
558.15	407.25
558.32	407.25
558.48	414.27
558.65	458.74
558.81	395.55
558.98	337.04
559.14	447.04
559.31	430.66
559.47	388.53
559.64	435.34
559.80	463.43
559.97	365.12
560.13	418.96
560.30	423.64
560.46	440.02
560.63	442.36
560.79	418.96
560.96	383.85
561.12	447.04
561.29	423.64
561.45	414.27
561.61	409.59
561.78	491.51
561.94	330.02
562.11	409.59
562.27	451.72
562.44	437.68
562.60	454.06
562.77	486.83
562.93	407.25
563.10	437.68
563.26	386.19
563.42	465.77
563.59	440.02
563.75	414.27
563.92	362.78
564.08	430.66
564.24	428.32
564.41	435.34
564.57	344.06
564.74	327.68
564.90	442.36
565.07	381.51
565.23	472.79
565.39	374.49
565.56	409.59
565.72	416.62
565.88	447.04
566.05	482.15
566.21	428.32
566.38	414.27
566.54	435.34
566.70	442.36
566.87	461.09
567.03	416.62
567.19	423.64
567.36	414.27
567.52	510.24
567.68	472.79
567.85	423.64
568.01	468.11
568.17	465.77
568.34	404.91
568.50	437.68
568.66	397.89
568.83	407.25
568.99	470.45
569.15	477.47
569.32	442.36
569.48	411.93
569.64	423.64
569.81	461.09
569.97	428.32
570.13	468.11
570.30	355.76
570.46	461.09
570.62	393.21
570.78	414.27
570.95	409.59
571.11	348.74
571.27	390.87
571.43	351.08
571.60	428.32
571.76	407.25
571.92	355.76
572.09	435.34
572.25	407.25
572.41	430.66
572.57	454.06
572.74	505.56
572.90	463.43
573.06	344.06
573.22	390.87
573.38	468.11
573.55	440.02
573.71	423.64
573.87	454.06
574.03	402.57
574.20	376.83
574.36	421.30
574.52	435.34
574.68	358.10
574.84	379.17
575.01	470.45
575.17	440.02
575.33	449.38
575.49	447.04
575.65	390.87
575.82	425.98
575.98	393.21
576.14	400.23
576.30	414.27
576.46	397.89
576.62	440.02
576.79	456.40
576.95	418.96
577.11	414.27
577.27	372.15
577.43	388.53
577.59	411.93
577.75	484.49
577.92	386.19
578.08	433.00
578.24	390.87
578.40	458.74
578.56	358.10
578.72	379.17
578.88	468.11
579.04	425.98
579.21	430.66
579.37	379.17
579.53	388.53
579.69	447.04
579.85	355.76
580.01	425.98
580.17	414.27
580.33	409.59
580.49	407.25
580.65	362.78
580.82	428.32
580.98	498.53
581.14	503.22
581.30	423.64
581.46	358.10
581.62	461.09
581.78	390.87
581.94	414.27
582.10	425.98
582.26	404.91
582.42	416.62
582.58	369.80
582.74	404.91
582.90	411.93
583.06	444.70
583.22	461.09
583.38	461.09
583.54	461.09
583.70	463.43
583.86	360.44
584.02	440.02
584.18	381.51
584.34	407.25
584.50	367.46
584.66	337.04
584.82	390.87
584.98	477.47
585.14	404.91
585.30	454.06
585.46	433.00
585.62	433.00
585.78	416.62
585.94	320.65
586.10	397.89
586.26	395.55
586.42	440.02
586.58	461.09
586.74	353.42
586.90	386.19
587.06	451.72
587.22	425.98
587.38	397.89
587.54	451.72
587.70	358.10
587.86	454.06
588.02	367.46
588.18	404.91
588.34	425.98
588.49	447.04
588.65	440.02
588.81	463.43
588.97	484.49
589.13	454.06
589.29	402.57
589.45	491.51
589.61	341.72
589.77	482.15
589.93	435.34
590.08	367.46
590.24	451.72
590.40	423.64
590.56	395.55
590.72	428.32
590.88	470.45
591.04	449.38
591.20	400.23
591.35	425.98
591.51	433.00
591.67	346.40
591.83	430.66
591.99	454.06
592.15	372.15
592.31	402.57
592.46	358.10
592.62	423.64
592.78	402.57
592.94	435.34
593.10	351.08
593.26	442.36
593.41	360.44
593.57	425.98
593.73	465.77
593.89	437.68
594.05	416.62
594.20	414.27
594.36	430.66
594.52	449.38
594.68	386.19
594.84	517.26
594.99	409.59
595.15	425.98
595.31	493.85
595.47	472.79
595.62	386.19
595.78	393.21
595.94	409.59
596.10	510.24
596.25	447.04
596.41	437.68
596.57	390.87
596.73	414.27
596.88	465.77
597.04	428.32
597.20	430.66
597.36	425.98
597.51	386.19
597.67	498.53
597.83	475.13
597.99	395.55
598.14	437.68
598.30	465.77
598.46	503.22
598.61	332.36
598.77	351.08
598.93	451.72
599.09	477.47
599.24	465.77
599.40	421.30
599.56	461.09
599.71	381.51
599.87	407.25
600.03	381.51
600.18	428.32
600.34	433.00
600.50	381.51
600.65	330.02
600.81	400.23
600.97	423.64
601.12	463.43
601.28	463.43
601.44	393.21
601.59	418.96
601.75	454.06
601.91	390.87
602.06	444.70
602.22	517.26
602.37	414.27
602.53	423.64
602.69	430.66
602.84	425.98
603.00	468.11
603.16	470.45
603.31	421.30
603.47	421.30
603.62	472.79
603.78	348.74
603.94	414.27
604.09	454.06
604.25	430.66
604.40	458.74
604.56	404.91
604.71	374.49
604.87	386.19
605.03	351.08
605.18	454.06
605.34	512.58
605.49	411.93
605.65	362.78
605.80	379.17
605.96	491.51
606.12	367.46
606.27	330.02
606.43	390.87
606.58	531.30
606.74	418.96
606.89	367.46
607.05	416.62
607.20	372.15
607.36	374.49
607.51	383.85
607.67	425.98
607.82	428.32
607.98	519.60
608.13	383.85
608.29	400.23
608.44	489.17
608.60	386.19
608.75	447.04
608.91	456.40
609.06	404.91
609.22	449.38
609.37	449.38
609.53	332.36
609.68	440.02
609.84	374.49
609.99	379.17
610.15	428.32
