SpectraSuite Data File
++++++++++++++++++++++++++++++++++++
Date: Fri Oct 25 12:10:38 EDT 2013
User: price-jones
Dark Spectrum Present: No
Reference Spectrum Present: No
Number of Sampled Component Spectra: 1
Spectrometers: USB2+H05261
Integration Time (usec): 100000 (USB2+H05261)
Spectra Averaged: 1 (USB2+H05261)
Boxcar Smoothing: 0 (USB2+H05261)
Correct for Electrical Dark: No (USB2+H05261)
Strobe/Lamp Enabled: No (USB2+H05261)
Correct for Detector Non-linearity: No (USB2+H05261)
Correct for Stray Light: No (USB2+H05261)
Number of Pixels in Processed Spectrum: 2048
>>>>>Begin Processed Spectral Data<<<<<
365.73	360.44
365.92	360.44
366.12	360.44
366.32	271.50
366.52	196.60
366.72	283.20
366.91	217.67
367.11	191.92
367.31	231.71
367.51	285.55
367.70	301.93
367.90	238.73
368.10	290.23
368.30	243.42
368.49	271.50
368.69	248.10
368.89	283.20
369.09	243.42
369.28	297.25
369.48	266.82
369.68	278.52
369.87	259.80
370.07	308.95
370.27	294.91
370.47	341.72
370.66	311.29
370.86	346.40
371.06	379.17
371.25	400.23
371.45	334.70
371.65	390.87
371.84	423.64
372.04	388.53
372.24	477.47
372.44	341.72
372.63	374.49
372.83	381.51
373.03	376.83
373.22	379.17
373.42	402.57
373.62	451.72
373.81	367.46
374.01	393.21
374.21	447.04
374.40	386.19
374.60	425.98
374.79	435.34
374.99	374.49
375.19	470.45
375.38	393.21
375.58	456.40
375.78	456.40
375.97	447.04
376.17	409.59
376.37	348.74
376.56	369.80
376.76	404.91
376.95	418.96
377.15	447.04
377.35	486.83
377.54	465.77
377.74	358.10
377.93	409.59
378.13	421.30
378.33	461.09
378.52	414.27
378.72	411.93
378.91	470.45
379.11	402.57
379.31	355.76
379.50	430.66
379.70	440.02
379.89	447.04
380.09	451.72
380.28	409.59
380.48	414.27
380.68	362.78
380.87	348.74
381.07	418.96
381.26	440.02
381.46	367.46
381.65	454.06
381.85	379.17
382.04	372.15
382.24	390.87
382.43	351.08
382.63	423.64
382.83	400.23
383.02	390.87
383.22	482.15
383.41	416.62
383.61	423.64
383.80	447.04
384.00	428.32
384.19	414.27
384.39	393.21
384.58	369.80
384.78	430.66
384.97	430.66
385.17	351.08
385.36	395.55
385.56	409.59
385.75	365.12
385.95	351.08
386.14	409.59
386.34	386.19
386.53	421.30
386.72	369.80
386.92	407.25
387.11	435.34
387.31	449.38
387.50	393.21
387.70	386.19
387.89	379.17
388.09	407.25
388.28	409.59
388.48	418.96
388.67	367.46
388.86	393.21
389.06	477.47
389.25	390.87
389.45	416.62
389.64	433.00
389.84	484.49
390.03	379.17
390.22	437.68
390.42	416.62
390.61	418.96
390.81	388.53
391.00	425.98
391.19	407.25
391.39	388.53
391.58	416.62
391.78	423.64
391.97	418.96
392.16	407.25
392.36	416.62
392.55	425.98
392.75	435.34
392.94	414.27
393.13	425.98
393.33	407.25
393.52	449.38
393.71	416.62
393.91	500.87
394.10	409.59
394.29	421.30
394.49	395.55
394.68	379.17
394.88	374.49
395.07	400.23
395.26	472.79
395.46	400.23
395.65	327.68
395.84	409.59
396.04	428.32
396.23	423.64
396.42	423.64
396.62	393.21
396.81	447.04
397.00	358.10
397.19	428.32
397.39	404.91
397.58	428.32
397.77	402.57
397.97	423.64
398.16	456.40
398.35	407.25
398.55	390.87
398.74	404.91
398.93	461.09
399.12	472.79
399.32	407.25
399.51	416.62
399.70	493.85
399.90	376.83
400.09	428.32
400.28	383.85
400.47	372.15
400.67	425.98
400.86	418.96
401.05	449.38
401.24	428.32
401.44	423.64
401.63	444.70
401.82	390.87
402.01	372.15
402.21	362.78
402.40	421.30
402.59	411.93
402.78	383.85
402.97	414.27
403.17	451.72
403.36	437.68
403.55	390.87
403.74	379.17
403.93	468.11
404.13	463.43
404.32	435.34
404.51	444.70
404.70	449.38
404.89	416.62
405.09	472.79
405.28	414.27
405.47	407.25
405.66	425.98
405.85	330.02
406.05	386.19
406.24	369.80
406.43	379.17
406.62	390.87
406.81	454.06
407.00	367.46
407.20	470.45
407.39	379.17
407.58	397.89
407.77	369.80
407.96	372.15
408.15	411.93
408.34	440.02
408.54	379.17
408.73	404.91
408.92	421.30
409.11	376.83
409.30	397.89
409.49	367.46
409.68	428.32
409.87	376.83
410.07	383.85
410.26	360.44
410.45	407.25
410.64	414.27
410.83	379.17
411.02	435.34
411.21	402.57
411.40	376.83
411.59	407.25
411.78	451.72
411.98	435.34
412.17	407.25
412.36	390.87
412.55	332.36
412.74	411.93
412.93	423.64
413.12	463.43
413.31	397.89
413.50	386.19
413.69	341.72
413.88	395.55
414.07	372.15
414.26	400.23
414.45	374.49
414.64	381.51
414.83	360.44
415.02	344.06
415.22	386.19
415.41	411.93
415.60	360.44
415.79	379.17
415.98	423.64
416.17	416.62
416.36	428.32
416.55	402.57
416.74	360.44
416.93	430.66
417.12	362.78
417.31	463.43
417.50	341.72
417.69	425.98
417.88	433.00
418.07	383.85
418.26	374.49
418.45	454.06
418.64	423.64
418.83	454.06
419.02	428.32
419.21	421.30
419.39	409.59
419.58	442.36
419.77	344.06
419.96	404.91
420.15	414.27
420.34	390.87
420.53	390.87
420.72	383.85
420.91	374.49
421.10	393.21
421.29	425.98
421.48	404.91
421.67	430.66
421.86	337.04
422.05	341.72
422.24	407.25
422.43	409.59
422.61	374.49
422.80	425.98
422.99	381.51
423.18	428.32
423.37	463.43
423.56	383.85
423.75	444.70
423.94	463.43
424.13	311.29
424.32	409.59
424.50	449.38
424.69	365.12
424.88	425.98
425.07	367.46
425.26	400.23
425.45	397.89
425.64	393.21
425.83	409.59
426.01	435.34
426.20	411.93
426.39	421.30
426.58	400.23
426.77	411.93
426.96	451.72
427.15	447.04
427.33	407.25
427.52	393.21
427.71	379.17
427.90	402.57
428.09	414.27
428.28	376.83
428.46	390.87
428.65	376.83
428.84	440.02
429.03	437.68
429.22	388.53
429.40	407.25
429.59	360.44
429.78	397.89
429.97	444.70
430.16	383.85
430.34	477.47
430.53	353.42
430.72	456.40
430.91	458.74
431.10	358.10
431.28	395.55
431.47	374.49
431.66	416.62
431.85	425.98
432.03	393.21
432.22	500.87
432.41	491.51
432.60	442.36
432.79	388.53
432.97	381.51
433.16	414.27
433.35	418.96
433.54	390.87
433.72	397.89
433.91	390.87
434.10	404.91
434.28	383.85
434.47	367.46
434.66	376.83
434.85	348.74
435.03	418.96
435.22	477.47
435.41	400.23
435.59	386.19
435.78	463.43
435.97	381.51
436.16	451.72
436.34	376.83
436.53	290.23
436.72	365.12
436.90	421.30
437.09	430.66
437.28	355.76
437.46	374.49
437.65	468.11
437.84	400.23
438.02	414.27
438.21	454.06
438.40	475.13
438.58	416.62
438.77	358.10
438.96	374.49
439.14	327.68
439.33	409.59
439.52	360.44
439.70	369.80
439.89	383.85
440.08	400.23
440.26	440.02
440.45	351.08
440.63	477.47
440.82	416.62
441.01	346.40
441.19	330.02
441.38	409.59
441.57	397.89
441.75	430.66
441.94	407.25
442.12	442.36
442.31	477.47
442.50	397.89
442.68	402.57
442.87	456.40
443.05	428.32
443.24	433.00
443.43	433.00
443.61	433.00
443.80	484.49
443.98	386.19
444.17	437.68
444.35	404.91
444.54	442.36
444.73	454.06
444.91	470.45
445.10	334.70
445.28	409.59
445.47	435.34
445.65	421.30
445.84	397.89
446.02	400.23
446.21	421.30
446.39	402.57
446.58	428.32
446.77	421.30
446.95	353.42
447.14	440.02
447.32	479.81
447.51	440.02
447.69	400.23
447.88	423.64
448.06	402.57
448.25	337.04
448.43	395.55
448.62	421.30
448.80	397.89
448.99	437.68
449.17	421.30
449.36	423.64
449.54	348.74
449.73	458.74
449.91	381.51
450.10	358.10
450.28	465.77
450.46	433.00
450.65	447.04
450.83	414.27
451.02	386.19
451.20	393.21
451.39	383.85
451.57	414.27
451.76	379.17
451.94	421.30
452.13	390.87
452.31	437.68
452.49	430.66
452.68	404.91
452.86	360.44
453.05	472.79
453.23	461.09
453.42	444.70
453.60	468.11
453.78	526.62
453.97	379.17
454.15	402.57
454.34	447.04
454.52	510.24
454.70	470.45
454.89	346.40
455.07	355.76
455.26	468.11
455.44	430.66
455.62	428.32
455.81	421.30
455.99	400.23
456.17	351.08
456.36	369.80
456.54	437.68
456.73	430.66
456.91	379.17
457.09	388.53
457.28	411.93
457.46	369.80
457.64	381.51
457.83	362.78
458.01	433.00
458.19	395.55
458.38	461.09
458.56	411.93
458.74	400.23
458.93	475.13
459.11	454.06
459.29	440.02
459.48	402.57
459.66	339.38
459.84	444.70
460.03	433.00
460.21	388.53
460.39	395.55
460.57	395.55
460.76	421.30
460.94	428.32
461.12	454.06
461.31	449.38
461.49	369.80
461.67	332.36
461.85	428.32
462.04	423.64
462.22	837.91
462.40	372.15
462.59	411.93
462.77	374.49
462.95	433.00
463.13	409.59
463.32	383.85
463.50	489.17
463.68	447.04
463.86	367.46
464.05	433.00
464.23	423.64
464.41	454.06
464.59	451.72
464.78	318.31
464.96	360.44
465.14	367.46
465.32	470.45
465.50	454.06
465.69	411.93
465.87	414.27
466.05	369.80
466.23	337.04
466.41	386.19
466.60	393.21
466.78	463.43
466.96	418.96
467.14	400.23
467.32	430.66
467.51	470.45
467.69	463.43
467.87	442.36
468.05	414.27
468.23	407.25
468.41	425.98
468.60	430.66
468.78	395.55
468.96	402.57
469.14	369.80
469.32	337.04
469.50	409.59
469.69	360.44
469.87	374.49
470.05	437.68
470.23	425.98
470.41	442.36
470.59	409.59
470.77	346.40
470.95	440.02
471.14	482.15
471.32	437.68
471.50	416.62
471.68	369.80
471.86	404.91
472.04	428.32
472.22	477.47
472.40	332.36
472.58	433.00
472.77	400.23
472.95	376.83
473.13	505.56
473.31	395.55
473.49	344.06
473.67	491.51
473.85	437.68
474.03	458.74
474.21	374.49
474.39	379.17
474.57	456.40
474.75	433.00
474.93	390.87
475.12	458.74
475.30	442.36
475.48	430.66
475.66	479.81
475.84	393.21
476.02	425.98
476.20	402.57
476.38	433.00
476.56	458.74
476.74	414.27
476.92	390.87
477.10	360.44
477.28	435.34
477.46	418.96
477.64	454.06
477.82	440.02
478.00	416.62
478.18	334.70
478.36	334.70
478.54	334.70
478.72	367.46
478.90	400.23
479.08	414.27
479.26	400.23
479.44	461.09
479.62	372.15
479.80	416.62
479.98	402.57
480.16	355.76
480.34	428.32
480.52	400.23
480.70	449.38
480.88	393.21
481.06	348.74
481.24	444.70
481.41	479.81
481.59	512.58
481.77	425.98
481.95	468.11
482.13	475.13
482.31	411.93
482.49	442.36
482.67	416.62
482.85	395.55
483.03	397.89
483.21	421.30
483.39	341.72
483.57	362.78
483.74	393.21
483.92	393.21
484.10	369.80
484.28	390.87
484.46	463.43
484.64	353.42
484.82	402.57
485.00	437.68
485.18	416.62
485.35	402.57
485.53	390.87
485.71	451.72
485.89	461.09
486.07	400.23
486.25	517.26
486.43	395.55
486.61	475.13
486.78	355.76
486.96	519.60
487.14	437.68
487.32	381.51
487.50	409.59
487.68	383.85
487.85	416.62
488.03	451.72
488.21	409.59
488.39	416.62
488.57	430.66
488.75	379.17
488.92	482.15
489.10	440.02
489.28	547.69
489.46	407.25
489.64	425.98
489.81	475.13
489.99	402.57
490.17	435.34
490.35	505.56
490.53	447.04
490.70	400.23
490.88	353.42
491.06	381.51
491.24	423.64
491.41	404.91
491.59	425.98
491.77	362.78
491.95	414.27
492.13	397.89
492.30	395.55
492.48	454.06
492.66	353.42
492.84	442.36
493.01	463.43
493.19	414.27
493.37	404.91
493.54	414.27
493.72	416.62
493.90	390.87
494.08	395.55
494.25	444.70
494.43	407.25
494.61	411.93
494.79	367.46
494.96	407.25
495.14	437.68
495.32	409.59
495.49	393.21
495.67	430.66
495.85	379.17
496.02	468.11
496.20	461.09
496.38	411.93
496.55	416.62
496.73	414.27
496.91	360.44
497.09	407.25
497.26	447.04
497.44	379.17
497.62	348.74
497.79	402.57
497.97	433.00
498.14	440.02
498.32	498.53
498.50	402.57
498.67	421.30
498.85	437.68
499.03	451.72
499.20	423.64
499.38	451.72
499.56	390.87
499.73	444.70
499.91	440.02
500.08	442.36
500.26	351.08
500.44	437.68
500.61	372.15
500.79	428.32
500.97	470.45
501.14	400.23
501.32	411.93
501.49	404.91
501.67	355.76
501.84	402.57
502.02	355.76
502.20	433.00
502.37	428.32
502.55	388.53
502.72	400.23
502.90	475.13
503.07	402.57
503.25	440.02
503.43	400.23
503.60	447.04
503.78	418.96
503.95	451.72
504.13	440.02
504.30	435.34
504.48	393.21
504.65	416.62
504.83	404.91
505.01	393.21
505.18	437.68
505.36	461.09
505.53	423.64
505.71	400.23
505.88	475.13
506.06	418.96
506.23	430.66
506.41	433.00
506.58	514.92
506.76	428.32
506.93	442.36
507.11	416.62
507.28	402.57
507.46	458.74
507.63	444.70
507.81	372.15
507.98	400.23
508.16	454.06
508.33	458.74
508.50	470.45
508.68	428.32
508.85	475.13
509.03	411.93
509.20	442.36
509.38	430.66
509.55	390.87
509.73	440.02
509.90	397.89
510.08	444.70
510.25	400.23
510.42	437.68
510.60	482.15
510.77	468.11
510.95	327.68
511.12	362.78
511.30	470.45
511.47	418.96
511.64	482.15
511.82	463.43
511.99	433.00
512.17	397.89
512.34	393.21
512.51	442.36
512.69	456.40
512.86	386.19
513.04	388.53
513.21	397.89
513.38	374.49
513.56	425.98
513.73	447.04
513.90	470.45
514.08	355.76
514.25	404.91
514.43	397.89
514.60	428.32
514.77	414.27
514.95	337.04
515.12	341.72
515.29	379.17
515.47	498.53
515.64	386.19
515.81	423.64
515.99	428.32
516.16	411.93
516.33	449.38
516.51	486.83
516.68	404.91
516.85	423.64
517.03	369.80
517.20	440.02
517.37	369.80
517.54	416.62
517.72	344.06
517.89	386.19
518.06	444.70
518.24	477.47
518.41	414.27
518.58	437.68
518.75	409.59
518.93	482.15
519.10	425.98
519.27	409.59
519.45	458.74
519.62	442.36
519.79	421.30
519.96	404.91
520.14	409.59
520.31	456.40
520.48	393.21
520.65	421.30
520.83	381.51
521.00	386.19
521.17	437.68
521.34	454.06
521.52	425.98
521.69	404.91
521.86	325.33
522.03	430.66
522.20	465.77
522.38	411.93
522.55	454.06
522.72	379.17
522.89	437.68
523.07	521.94
523.24	435.34
523.41	383.85
523.58	402.57
523.75	414.27
523.92	470.45
524.10	388.53
524.27	458.74
524.44	414.27
524.61	397.89
524.78	393.21
524.96	383.85
525.13	423.64
525.30	463.43
525.47	423.64
525.64	409.59
525.81	470.45
525.98	456.40
526.16	358.10
526.33	372.15
526.50	407.25
526.67	374.49
526.84	416.62
527.01	358.10
527.18	440.02
527.36	395.55
527.53	451.72
527.70	484.49
527.87	362.78
528.04	442.36
528.21	407.25
528.38	381.51
528.55	397.89
528.72	367.46
528.89	449.38
529.07	393.21
529.24	437.68
529.41	411.93
529.58	355.76
529.75	341.72
529.92	423.64
530.09	388.53
530.26	447.04
530.43	428.32
530.60	461.09
530.77	404.91
530.94	411.93
531.11	421.30
531.28	451.72
531.46	440.02
531.63	397.89
531.80	397.89
531.97	372.15
532.14	334.70
532.31	416.62
532.48	360.44
532.65	430.66
532.82	367.46
532.99	381.51
533.16	388.53
533.33	440.02
533.50	374.49
533.67	416.62
533.84	472.79
534.01	390.87
534.18	407.25
534.35	479.81
534.52	367.46
534.69	456.40
534.86	451.72
535.03	444.70
535.20	397.89
535.37	454.06
535.54	397.89
535.71	414.27
535.88	425.98
536.05	489.17
536.22	421.30
536.38	428.32
536.55	409.59
536.72	414.27
536.89	461.09
537.06	388.53
537.23	486.83
537.40	372.15
537.57	421.30
537.74	510.24
537.91	416.62
538.08	379.17
538.25	388.53
538.42	395.55
538.59	372.15
538.75	393.21
538.92	393.21
539.09	475.13
539.26	372.15
539.43	325.33
539.60	479.81
539.77	430.66
539.94	435.34
540.11	362.78
540.28	423.64
540.44	442.36
540.61	444.70
540.78	437.68
540.95	400.23
541.12	435.34
541.29	416.62
541.46	442.36
541.62	433.00
541.79	425.98
541.96	383.85
542.13	411.93
542.30	393.21
542.47	472.79
542.63	475.13
542.80	444.70
542.97	404.91
543.14	353.42
543.31	454.06
543.48	418.96
543.64	421.30
543.81	451.72
543.98	418.96
544.15	414.27
544.32	423.64
544.48	456.40
544.65	447.04
544.82	447.04
544.99	475.13
545.16	407.25
545.32	395.55
545.49	362.78
545.66	442.36
545.83	404.91
546.00	430.66
546.16	367.46
546.33	360.44
546.50	416.62
546.67	407.25
546.83	418.96
547.00	491.51
547.17	315.97
547.34	386.19
547.50	416.62
547.67	379.17
547.84	353.42
548.00	407.25
548.17	344.06
548.34	351.08
548.51	447.04
548.67	435.34
548.84	491.51
549.01	430.66
549.18	435.34
549.34	456.40
549.51	393.21
549.68	402.57
549.84	440.02
550.01	386.19
550.18	475.13
550.34	442.36
550.51	456.40
550.68	451.72
550.84	486.83
551.01	447.04
551.18	425.98
551.34	463.43
551.51	451.72
551.68	449.38
551.84	400.23
552.01	444.70
552.18	451.72
552.34	379.17
552.51	437.68
552.68	362.78
552.84	379.17
553.01	353.42
553.18	454.06
553.34	390.87
553.51	390.87
553.67	449.38
553.84	433.00
554.01	491.51
554.17	351.08
554.34	416.62
554.51	358.10
554.67	411.93
554.84	365.12
555.00	358.10
555.17	468.11
555.33	414.27
555.50	512.58
555.67	341.72
555.83	383.85
556.00	458.74
556.16	491.51
556.33	470.45
556.50	470.45
556.66	374.49
556.83	414.27
556.99	390.87
557.16	421.30
557.32	351.08
557.49	414.27
557.65	409.59
557.82	440.02
557.98	428.32
558.15	449.38
558.32	458.74
558.48	472.79
558.65	418.96
558.81	362.78
558.98	425.98
559.14	430.66
559.31	496.19
559.47	430.66
559.64	433.00
559.80	390.87
559.97	465.77
560.13	421.30
560.30	341.72
560.46	381.51
560.63	447.04
560.79	430.66
560.96	416.62
561.12	411.93
561.29	463.43
561.45	433.00
561.61	390.87
561.78	491.51
561.94	386.19
562.11	367.46
562.27	433.00
562.44	360.44
562.60	404.91
562.77	430.66
562.93	454.06
563.10	351.08
563.26	433.00
563.42	440.02
563.59	421.30
563.75	374.49
563.92	472.79
564.08	411.93
564.24	353.42
564.41	498.53
564.57	409.59
564.74	444.70
564.90	433.00
565.07	421.30
565.23	414.27
565.39	381.51
565.56	397.89
565.72	386.19
565.88	454.06
566.05	369.80
566.21	416.62
566.38	484.49
566.54	498.53
566.70	421.30
566.87	435.34
567.03	395.55
567.19	351.08
567.36	418.96
567.52	449.38
567.68	463.43
567.85	404.91
568.01	395.55
568.17	449.38
568.34	372.15
568.50	423.64
568.66	418.96
568.83	472.79
568.99	414.27
569.15	491.51
569.32	435.34
569.48	351.08
569.64	407.25
569.81	475.13
569.97	400.23
570.13	484.49
570.30	444.70
570.46	386.19
570.62	430.66
570.78	425.98
570.95	365.12
571.11	444.70
571.27	458.74
571.43	440.02
571.60	365.12
571.76	358.10
571.92	440.02
572.09	447.04
572.25	425.98
572.41	390.87
572.57	414.27
572.74	449.38
572.90	461.09
573.06	400.23
573.22	440.02
573.38	425.98
573.55	468.11
573.71	510.24
573.87	425.98
574.03	482.15
574.20	374.49
574.36	472.79
574.52	330.02
574.68	374.49
574.84	475.13
575.01	351.08
575.17	465.77
575.33	440.02
575.49	430.66
575.65	454.06
575.82	393.21
575.98	407.25
576.14	344.06
576.30	318.31
576.46	463.43
576.62	444.70
576.79	463.43
576.95	442.36
577.11	409.59
577.27	435.34
577.43	475.13
577.59	465.77
577.75	386.19
577.92	381.51
578.08	472.79
578.24	376.83
578.40	442.36
578.56	383.85
578.72	477.47
578.88	362.78
579.04	404.91
579.21	433.00
579.37	444.70
579.53	353.42
579.69	454.06
579.85	463.43
580.01	454.06
580.17	341.72
580.33	397.89
580.49	388.53
580.65	402.57
580.82	404.91
580.98	393.21
581.14	372.15
581.30	454.06
581.46	395.55
581.62	437.68
581.78	409.59
581.94	458.74
582.10	444.70
582.26	374.49
582.42	376.83
582.58	411.93
582.74	423.64
582.90	435.34
583.06	407.25
583.22	395.55
583.38	351.08
583.54	454.06
583.70	428.32
583.86	489.17
584.02	437.68
584.18	451.72
584.34	442.36
584.50	411.93
584.66	402.57
584.82	440.02
584.98	468.11
585.14	454.06
585.30	442.36
585.46	351.08
585.62	418.96
585.78	388.53
585.94	362.78
586.10	456.40
586.26	407.25
586.42	444.70
586.58	421.30
586.74	435.34
586.90	428.32
587.06	444.70
587.22	372.15
587.38	395.55
587.54	367.46
587.70	489.17
587.86	425.98
588.02	461.09
588.18	421.30
588.34	440.02
588.49	372.15
588.65	442.36
588.81	437.68
588.97	397.89
589.13	444.70
589.29	489.17
589.45	475.13
589.61	381.51
589.77	430.66
589.93	379.17
590.08	397.89
590.24	425.98
590.40	444.70
590.56	416.62
590.72	437.68
590.88	428.32
591.04	425.98
591.20	376.83
591.35	416.62
591.51	404.91
591.67	390.87
591.83	395.55
591.99	470.45
592.15	454.06
592.31	447.04
592.46	369.80
592.62	372.15
592.78	358.10
592.94	383.85
593.10	383.85
593.26	367.46
593.41	535.98
593.57	461.09
593.73	383.85
593.89	423.64
594.05	386.19
594.20	433.00
594.36	435.34
594.52	407.25
594.68	395.55
594.84	437.68
594.99	440.02
595.15	454.06
595.31	433.00
595.47	505.56
595.62	404.91
595.78	428.32
595.94	362.78
596.10	435.34
596.25	416.62
596.41	409.59
596.57	416.62
596.73	421.30
596.88	404.91
597.04	416.62
597.20	430.66
597.36	491.51
597.51	400.23
597.67	418.96
597.83	468.11
597.99	489.17
598.14	479.81
598.30	402.57
598.46	374.49
598.61	416.62
598.77	433.00
598.93	360.44
599.09	388.53
599.24	379.17
599.40	489.17
599.56	442.36
599.71	458.74
599.87	358.10
600.03	421.30
600.18	421.30
600.34	383.85
600.50	374.49
600.65	362.78
600.81	428.32
600.97	409.59
601.12	489.17
601.28	498.53
601.44	440.02
601.59	430.66
601.75	353.42
601.91	374.49
602.06	451.72
602.22	531.30
602.37	414.27
602.53	376.83
602.69	437.68
602.84	362.78
603.00	440.02
603.16	465.77
603.31	390.87
603.47	435.34
603.62	411.93
603.78	479.81
603.94	472.79
604.09	411.93
604.25	484.49
604.40	451.72
604.56	344.06
604.71	397.89
604.87	390.87
605.03	383.85
605.18	360.44
605.34	440.02
605.49	395.55
605.65	376.83
605.80	444.70
605.96	482.15
606.12	442.36
606.27	402.57
606.43	418.96
606.58	503.22
606.74	456.40
606.89	383.85
607.05	468.11
607.20	381.51
607.36	437.68
607.51	358.10
607.67	388.53
607.82	496.19
607.98	465.77
608.13	414.27
608.29	447.04
608.44	433.00
608.60	409.59
608.75	369.80
608.91	418.96
609.06	421.30
609.22	390.87
609.37	388.53
609.53	404.91
609.68	435.34
609.84	435.34
609.99	440.02
610.15	430.66
