SpectraSuite Data File
++++++++++++++++++++++++++++++++++++
Date: Fri Oct 25 12:10:10 EDT 2013
User: price-jones
Dark Spectrum Present: No
Reference Spectrum Present: No
Number of Sampled Component Spectra: 1
Spectrometers: USB2+H05261
Integration Time (usec): 100000 (USB2+H05261)
Spectra Averaged: 1 (USB2+H05261)
Boxcar Smoothing: 0 (USB2+H05261)
Correct for Electrical Dark: No (USB2+H05261)
Strobe/Lamp Enabled: No (USB2+H05261)
Correct for Detector Non-linearity: No (USB2+H05261)
Correct for Stray Light: No (USB2+H05261)
Number of Pixels in Processed Spectrum: 2048
>>>>>Begin Processed Spectral Data<<<<<
365.73	395.55
365.92	395.55
366.12	395.55
366.32	238.73
366.52	273.84
366.72	266.82
366.91	245.76
367.11	255.12
367.31	208.31
367.51	205.97
367.70	278.52
367.90	255.12
368.10	241.08
368.30	273.84
368.49	257.46
368.69	236.39
368.89	266.82
369.09	208.31
369.28	238.73
369.48	196.60
369.68	280.86
369.87	259.80
370.07	348.74
370.27	292.57
370.47	297.25
370.66	315.97
370.86	344.06
371.06	332.36
371.25	311.29
371.45	330.02
371.65	421.30
371.84	344.06
372.04	404.91
372.24	360.44
372.44	395.55
372.63	390.87
372.83	463.43
373.03	402.57
373.22	304.27
373.42	360.44
373.62	472.79
373.81	472.79
374.01	402.57
374.21	435.34
374.40	369.80
374.60	379.17
374.79	388.53
374.99	477.47
375.19	397.89
375.38	411.93
375.58	430.66
375.78	425.98
375.97	400.23
376.17	416.62
376.37	381.51
376.56	423.64
376.76	344.06
376.95	425.98
377.15	411.93
377.35	365.12
377.54	449.38
377.74	402.57
377.93	418.96
378.13	414.27
378.33	376.83
378.52	386.19
378.72	409.59
378.91	461.09
379.11	400.23
379.31	397.89
379.50	428.32
379.70	437.68
379.89	458.74
380.09	414.27
380.28	355.76
380.48	416.62
380.68	421.30
380.87	433.00
381.07	397.89
381.26	383.85
381.46	372.15
381.65	416.62
381.85	388.53
382.04	463.43
382.24	409.59
382.43	379.17
382.63	477.47
382.83	425.98
383.02	407.25
383.22	479.81
383.41	362.78
383.61	428.32
383.80	454.06
384.00	468.11
384.19	372.15
384.39	374.49
384.58	383.85
384.78	421.30
384.97	334.70
385.17	346.40
385.36	416.62
385.56	381.51
385.75	379.17
385.95	444.70
386.14	435.34
386.34	393.21
386.53	360.44
386.72	397.89
386.92	383.85
387.11	411.93
387.31	421.30
387.50	383.85
387.70	376.83
387.89	416.62
388.09	386.19
388.28	416.62
388.48	376.83
388.67	566.41
388.86	374.49
389.06	367.46
389.25	407.25
389.45	381.51
389.64	416.62
389.84	393.21
390.03	442.36
390.22	486.83
390.42	362.78
390.61	367.46
390.81	393.21
391.00	344.06
391.19	447.04
391.39	423.64
391.58	332.36
391.78	360.44
391.97	404.91
392.16	337.04
392.36	386.19
392.55	482.15
392.75	425.98
392.94	372.15
393.13	416.62
393.33	402.57
393.52	414.27
393.71	369.80
393.91	402.57
394.10	409.59
394.29	362.78
394.49	395.55
394.68	327.68
394.88	430.66
395.07	498.53
395.26	383.85
395.46	437.68
395.65	463.43
395.84	383.85
396.04	482.15
396.23	430.66
396.42	416.62
396.62	435.34
396.81	484.49
397.00	458.74
397.19	414.27
397.39	435.34
397.58	440.02
397.77	411.93
397.97	437.68
398.16	433.00
398.35	376.83
398.55	360.44
398.74	404.91
398.93	440.02
399.12	407.25
399.32	402.57
399.51	486.83
399.70	442.36
399.90	346.40
400.09	416.62
400.28	414.27
400.47	409.59
400.67	386.19
400.86	395.55
401.05	440.02
401.24	414.27
401.44	404.91
401.63	404.91
401.82	447.04
402.01	351.08
402.21	454.06
402.40	381.51
402.59	409.59
402.78	411.93
402.97	409.59
403.17	407.25
403.36	381.51
403.55	381.51
403.74	418.96
403.93	475.13
404.13	484.49
404.32	351.08
404.51	339.38
404.70	440.02
404.89	425.98
405.09	456.40
405.28	397.89
405.47	437.68
405.66	428.32
405.85	402.57
406.05	444.70
406.24	395.55
406.43	465.77
406.62	456.40
406.81	486.83
407.00	407.25
407.20	407.25
407.39	360.44
407.58	414.27
407.77	404.91
407.96	458.74
408.15	479.81
408.34	444.70
408.54	407.25
408.73	397.89
408.92	451.72
409.11	465.77
409.30	484.49
409.49	435.34
409.68	386.19
409.87	402.57
410.07	404.91
410.26	397.89
410.45	440.02
410.64	386.19
410.83	390.87
411.02	304.27
411.21	390.87
411.40	339.38
411.59	411.93
411.78	353.42
411.98	369.80
412.17	381.51
412.36	447.04
412.55	425.98
412.74	442.36
412.93	461.09
413.12	404.91
413.31	449.38
413.50	397.89
413.69	421.30
413.88	402.57
414.07	454.06
414.26	456.40
414.45	395.55
414.64	472.79
414.83	390.87
415.02	407.25
415.22	353.42
415.41	437.68
415.60	416.62
415.79	477.47
415.98	418.96
416.17	440.02
416.36	454.06
416.55	400.23
416.74	435.34
416.93	444.70
417.12	440.02
417.31	402.57
417.50	360.44
417.69	416.62
417.88	372.15
418.07	472.79
418.26	369.80
418.45	435.34
418.64	428.32
418.83	435.34
419.02	379.17
419.21	425.98
419.39	372.15
419.58	407.25
419.77	390.87
419.96	428.32
420.15	477.47
420.34	372.15
420.53	416.62
420.72	397.89
420.91	428.32
421.10	386.19
421.29	386.19
421.48	461.09
421.67	367.46
421.86	379.17
422.05	468.11
422.24	397.89
422.43	404.91
422.61	409.59
422.80	374.49
422.99	369.80
423.18	437.68
423.37	463.43
423.56	416.62
423.75	386.19
423.94	360.44
424.13	454.06
424.32	454.06
424.50	456.40
424.69	421.30
424.88	430.66
425.07	440.02
425.26	386.19
425.45	362.78
425.64	409.59
425.83	421.30
426.01	437.68
426.20	404.91
426.39	365.12
426.58	322.99
426.77	423.64
426.96	386.19
427.15	379.17
427.33	414.27
427.52	346.40
427.71	437.68
427.90	433.00
428.09	386.19
428.28	353.42
428.46	409.59
428.65	390.87
428.84	404.91
429.03	402.57
429.22	437.68
429.40	444.70
429.59	390.87
429.78	411.93
429.97	496.19
430.16	407.25
430.34	442.36
430.53	365.12
430.72	496.19
430.91	421.30
431.10	437.68
431.28	442.36
431.47	407.25
431.66	409.59
431.85	358.10
432.03	372.15
432.22	470.45
432.41	414.27
432.60	409.59
432.79	386.19
432.97	423.64
433.16	409.59
433.35	425.98
433.54	437.68
433.72	418.96
433.91	423.64
434.10	433.00
434.28	418.96
434.47	411.93
434.66	423.64
434.85	332.36
435.03	463.43
435.22	423.64
435.41	503.22
435.59	395.55
435.78	397.89
435.97	383.85
436.16	353.42
436.34	428.32
436.53	454.06
436.72	456.40
436.90	468.11
437.09	440.02
437.28	386.19
437.46	461.09
437.65	449.38
437.84	428.32
438.02	437.68
438.21	447.04
438.40	451.72
438.58	433.00
438.77	442.36
438.96	404.91
439.14	423.64
439.33	400.23
439.52	454.06
439.70	416.62
439.89	386.19
440.08	414.27
440.26	458.74
440.45	393.21
440.63	423.64
440.82	454.06
441.01	430.66
441.19	421.30
441.38	409.59
441.57	416.62
441.75	437.68
441.94	442.36
442.12	367.46
442.31	451.72
442.50	416.62
442.68	395.55
442.87	465.77
443.05	379.17
443.24	472.79
443.43	433.00
443.61	404.91
443.80	486.83
443.98	407.25
444.17	372.15
444.35	468.11
444.54	458.74
444.73	447.04
444.91	517.26
445.10	458.74
445.28	402.57
445.47	407.25
445.65	444.70
445.84	416.62
446.02	395.55
446.21	465.77
446.39	411.93
446.58	411.93
446.77	400.23
446.95	348.74
447.14	381.51
447.32	421.30
447.51	461.09
447.69	379.17
447.88	449.38
448.06	498.53
448.25	402.57
448.43	351.08
448.62	423.64
448.80	458.74
448.99	472.79
449.17	433.00
449.36	437.68
449.54	393.21
449.73	414.27
449.91	423.64
450.10	397.89
450.28	454.06
450.46	390.87
450.65	458.74
450.83	433.00
451.02	414.27
451.20	423.64
451.39	395.55
451.57	437.68
451.76	496.19
451.94	346.40
452.13	381.51
452.31	409.59
452.49	465.77
452.68	414.27
452.86	425.98
453.05	402.57
453.23	444.70
453.42	365.12
453.60	383.85
453.78	433.00
453.97	362.78
454.15	337.04
454.34	456.40
454.52	411.93
454.70	435.34
454.89	435.34
455.07	414.27
455.26	393.21
455.44	407.25
455.62	374.49
455.81	390.87
455.99	337.04
456.17	404.91
456.36	456.40
456.54	449.38
456.73	334.70
456.91	313.63
457.09	447.04
457.28	505.56
457.46	435.34
457.64	437.68
457.83	454.06
458.01	332.36
458.19	383.85
458.38	372.15
458.56	433.00
458.74	404.91
458.93	393.21
459.11	444.70
459.29	376.83
459.48	407.25
459.66	386.19
459.84	435.34
460.03	521.94
460.21	433.00
460.39	407.25
460.57	407.25
460.76	348.74
460.94	388.53
461.12	493.85
461.31	395.55
461.49	353.42
461.67	444.70
461.85	411.93
462.04	451.72
462.22	704.50
462.40	372.15
462.59	425.98
462.77	430.66
462.95	442.36
463.13	341.72
463.32	421.30
463.50	463.43
463.68	433.00
463.86	409.59
464.05	425.98
464.23	440.02
464.41	428.32
464.59	430.66
464.78	362.78
464.96	409.59
465.14	425.98
465.32	409.59
465.50	500.87
465.69	407.25
465.87	433.00
466.05	444.70
466.23	353.42
466.41	456.40
466.60	376.83
466.78	407.25
466.96	388.53
467.14	395.55
467.32	379.17
467.51	397.89
467.69	355.76
467.87	435.34
468.05	386.19
468.23	425.98
468.41	496.19
468.60	425.98
468.78	421.30
468.96	465.77
469.14	468.11
469.32	346.40
469.50	402.57
469.69	325.33
469.87	451.72
470.05	447.04
470.23	500.87
470.41	435.34
470.59	322.99
470.77	341.72
470.95	400.23
471.14	468.11
471.32	416.62
471.50	428.32
471.68	442.36
471.86	421.30
472.04	346.40
472.22	409.59
472.40	344.06
472.58	395.55
472.77	425.98
472.95	395.55
473.13	447.04
473.31	484.49
473.49	374.49
473.67	374.49
473.85	470.45
474.03	367.46
474.21	374.49
474.39	407.25
474.57	489.17
474.75	409.59
474.93	449.38
475.12	395.55
475.30	393.21
475.48	440.02
475.66	383.85
475.84	344.06
476.02	400.23
476.20	454.06
476.38	383.85
476.56	479.81
476.74	411.93
476.92	447.04
477.10	397.89
477.28	449.38
477.46	437.68
477.64	437.68
477.82	351.08
478.00	425.98
478.18	486.83
478.36	383.85
478.54	486.83
478.72	409.59
478.90	423.64
479.08	428.32
479.26	400.23
479.44	360.44
479.62	395.55
479.80	395.55
479.98	425.98
480.16	393.21
480.34	339.38
480.52	353.42
480.70	397.89
480.88	425.98
481.06	433.00
481.24	449.38
481.41	407.25
481.59	437.68
481.77	418.96
481.95	435.34
482.13	400.23
482.31	435.34
482.49	390.87
482.67	383.85
482.85	472.79
483.03	360.44
483.21	482.15
483.39	421.30
483.57	472.79
483.74	428.32
483.92	437.68
484.10	369.80
484.28	430.66
484.46	475.13
484.64	379.17
484.82	409.59
485.00	397.89
485.18	322.99
485.35	395.55
485.53	447.04
485.71	423.64
485.89	388.53
486.07	463.43
486.25	433.00
486.43	463.43
486.61	423.64
486.78	475.13
486.96	369.80
487.14	390.87
487.32	383.85
487.50	435.34
487.68	437.68
487.85	397.89
488.03	374.49
488.21	491.51
488.39	360.44
488.57	435.34
488.75	404.91
488.92	472.79
489.10	376.83
489.28	390.87
489.46	472.79
489.64	383.85
489.81	416.62
489.99	435.34
490.17	449.38
490.35	454.06
490.53	503.22
490.70	433.00
490.88	507.90
491.06	440.02
491.24	470.45
491.41	411.93
491.59	444.70
491.77	423.64
491.95	332.36
492.13	425.98
492.30	400.23
492.48	365.12
492.66	407.25
492.84	390.87
493.01	421.30
493.19	430.66
493.37	458.74
493.54	402.57
493.72	402.57
493.90	372.15
494.08	435.34
494.25	404.91
494.43	393.21
494.61	428.32
494.79	421.30
494.96	411.93
495.14	444.70
495.32	362.78
495.49	470.45
495.67	430.66
495.85	362.78
496.02	374.49
496.20	367.46
496.38	430.66
496.55	397.89
496.73	421.30
496.91	334.70
497.09	461.09
497.26	393.21
497.44	379.17
497.62	355.76
497.79	383.85
497.97	503.22
498.14	411.93
498.32	411.93
498.50	468.11
498.67	397.89
498.85	423.64
499.03	339.38
499.20	388.53
499.38	369.80
499.56	390.87
499.73	500.87
499.91	433.00
500.08	381.51
500.26	386.19
500.44	430.66
500.61	430.66
500.79	362.78
500.97	421.30
501.14	423.64
501.32	458.74
501.49	514.92
501.67	451.72
501.84	477.47
502.02	393.21
502.20	519.60
502.37	491.51
502.55	428.32
502.72	451.72
502.90	517.26
503.07	428.32
503.25	404.91
503.43	449.38
503.60	397.89
503.78	386.19
503.95	425.98
504.13	451.72
504.30	369.80
504.48	465.77
504.65	367.46
504.83	440.02
505.01	383.85
505.18	416.62
505.36	418.96
505.53	395.55
505.71	372.15
505.88	425.98
506.06	414.27
506.23	425.98
506.41	376.83
506.58	411.93
506.76	388.53
506.93	379.17
507.11	498.53
507.28	418.96
507.46	421.30
507.63	381.51
507.81	463.43
507.98	489.17
508.16	381.51
508.33	390.87
508.50	454.06
508.68	362.78
508.85	400.23
509.03	351.08
509.20	451.72
509.38	407.25
509.55	418.96
509.73	418.96
509.90	411.93
510.08	372.15
510.25	447.04
510.42	395.55
510.60	451.72
510.77	381.51
510.95	433.00
511.12	395.55
511.30	430.66
511.47	435.34
511.64	510.24
511.82	339.38
511.99	423.64
512.17	442.36
512.34	421.30
512.51	411.93
512.69	313.63
512.86	416.62
513.04	344.06
513.21	407.25
513.38	449.38
513.56	447.04
513.73	397.89
513.90	369.80
514.08	397.89
514.25	395.55
514.43	393.21
514.60	430.66
514.77	411.93
514.95	409.59
515.12	411.93
515.29	407.25
515.47	416.62
515.64	421.30
515.81	430.66
515.99	409.59
516.16	463.43
516.33	400.23
516.51	416.62
516.68	383.85
516.85	484.49
517.03	402.57
517.20	409.59
517.37	493.85
517.54	425.98
517.72	390.87
517.89	395.55
518.06	425.98
518.24	414.27
518.41	507.90
518.58	421.30
518.75	369.80
518.93	421.30
519.10	449.38
519.27	423.64
519.45	451.72
519.62	376.83
519.79	423.64
519.96	374.49
520.14	456.40
520.31	479.81
520.48	482.15
520.65	433.00
520.83	372.15
521.00	444.70
521.17	433.00
521.34	346.40
521.52	418.96
521.69	411.93
521.86	435.34
522.03	383.85
522.20	379.17
522.38	400.23
522.55	404.91
522.72	475.13
522.89	435.34
523.07	407.25
523.24	362.78
523.41	388.53
523.58	409.59
523.75	400.23
523.92	414.27
524.10	388.53
524.27	421.30
524.44	353.42
524.61	435.34
524.78	461.09
524.96	388.53
525.13	381.51
525.30	442.36
525.47	362.78
525.64	435.34
525.81	428.32
525.98	369.80
526.16	416.62
526.33	430.66
526.50	393.21
526.67	341.72
526.84	421.30
527.01	334.70
527.18	358.10
527.36	372.15
527.53	379.17
527.70	421.30
527.87	472.79
528.04	425.98
528.21	393.21
528.38	479.81
528.55	428.32
528.72	444.70
528.89	435.34
529.07	404.91
529.24	507.90
529.41	437.68
529.58	442.36
529.75	418.96
529.92	407.25
530.09	411.93
530.26	395.55
530.43	395.55
530.60	369.80
530.77	475.13
530.94	395.55
531.11	465.77
531.28	369.80
531.46	484.49
531.63	512.58
531.80	454.06
531.97	468.11
532.14	493.85
532.31	411.93
532.48	454.06
532.65	383.85
532.82	376.83
532.99	395.55
533.16	414.27
533.33	404.91
533.50	437.68
533.67	435.34
533.84	428.32
534.01	440.02
534.18	358.10
534.35	360.44
534.52	388.53
534.69	416.62
534.86	400.23
535.03	433.00
535.20	423.64
535.37	458.74
535.54	428.32
535.71	423.64
535.88	428.32
536.05	428.32
536.22	374.49
536.38	390.87
536.55	447.04
536.72	479.81
536.89	451.72
537.06	433.00
537.23	395.55
537.40	388.53
537.57	390.87
537.74	421.30
537.91	388.53
538.08	440.02
538.25	437.68
538.42	379.17
538.59	416.62
538.75	388.53
538.92	402.57
539.09	550.03
539.26	440.02
539.43	416.62
539.60	425.98
539.77	451.72
539.94	491.51
540.11	360.44
540.28	440.02
540.44	381.51
540.61	395.55
540.78	402.57
540.95	437.68
541.12	428.32
541.29	437.68
541.46	449.38
541.62	393.21
541.79	435.34
541.96	386.19
542.13	386.19
542.30	360.44
542.47	433.00
542.63	388.53
542.80	400.23
542.97	482.15
543.14	463.43
543.31	395.55
543.48	458.74
543.64	414.27
543.81	390.87
543.98	430.66
544.15	400.23
544.32	386.19
544.48	500.87
544.65	365.12
544.82	433.00
544.99	388.53
545.16	416.62
545.32	369.80
545.49	425.98
545.66	388.53
545.83	423.64
546.00	458.74
546.16	433.00
546.33	433.00
546.50	379.17
546.67	475.13
546.83	444.70
547.00	449.38
547.17	393.21
547.34	383.85
547.50	383.85
547.67	395.55
547.84	411.93
548.00	425.98
548.17	372.15
548.34	437.68
548.51	388.53
548.67	442.36
548.84	484.49
549.01	425.98
549.18	416.62
549.34	421.30
549.51	447.04
549.68	407.25
549.84	397.89
550.01	369.80
550.18	437.68
550.34	547.69
550.51	400.23
550.68	465.77
550.84	430.66
551.01	374.49
551.18	423.64
551.34	449.38
551.51	381.51
551.68	334.70
551.84	440.02
552.01	411.93
552.18	423.64
552.34	407.25
552.51	390.87
552.68	416.62
552.84	418.96
553.01	435.34
553.18	437.68
553.34	369.80
553.51	435.34
553.67	430.66
553.84	477.47
554.01	435.34
554.17	416.62
554.34	390.87
554.51	470.45
554.67	423.64
554.84	376.83
555.00	447.04
555.17	465.77
555.33	444.70
555.50	425.98
555.67	425.98
555.83	381.51
556.00	447.04
556.16	500.87
556.33	409.59
556.50	437.68
556.66	404.91
556.83	463.43
556.99	421.30
557.16	430.66
557.32	353.42
557.49	407.25
557.65	372.15
557.82	411.93
557.98	447.04
558.15	404.91
558.32	477.47
558.48	386.19
558.65	346.40
558.81	477.47
558.98	418.96
559.14	449.38
559.31	397.89
559.47	365.12
559.64	472.79
559.80	465.77
559.97	379.17
560.13	395.55
560.30	425.98
560.46	423.64
560.63	461.09
560.79	425.98
560.96	402.57
561.12	397.89
561.29	458.74
561.45	498.53
561.61	526.62
561.78	491.51
561.94	437.68
562.11	447.04
562.27	458.74
562.44	404.91
562.60	442.36
562.77	489.17
562.93	449.38
563.10	454.06
563.26	367.46
563.42	383.85
563.59	449.38
563.75	411.93
563.92	468.11
564.08	461.09
564.24	411.93
564.41	479.81
564.57	411.93
564.74	437.68
564.90	510.24
565.07	440.02
565.23	355.76
565.39	416.62
565.56	372.15
565.72	404.91
565.88	397.89
566.05	440.02
566.21	433.00
566.38	416.62
566.54	463.43
566.70	369.80
566.87	397.89
567.03	416.62
567.19	409.59
567.36	430.66
567.52	360.44
567.68	442.36
567.85	388.53
568.01	447.04
568.17	388.53
568.34	503.22
568.50	402.57
568.66	440.02
568.83	440.02
568.99	440.02
569.15	402.57
569.32	397.89
569.48	437.68
569.64	421.30
569.81	395.55
569.97	449.38
570.13	388.53
570.30	393.21
570.46	428.32
570.62	395.55
570.78	456.40
570.95	451.72
571.11	451.72
571.27	510.24
571.43	407.25
571.60	355.76
571.76	491.51
571.92	332.36
572.09	358.10
572.25	428.32
572.41	447.04
572.57	397.89
572.74	458.74
572.90	493.85
573.06	400.23
573.22	479.81
573.38	437.68
573.55	411.93
573.71	437.68
573.87	358.10
574.03	365.12
574.20	435.34
574.36	531.30
574.52	454.06
574.68	421.30
574.84	479.81
575.01	397.89
575.17	437.68
575.33	430.66
575.49	393.21
575.65	416.62
575.82	390.87
575.98	397.89
576.14	376.83
576.30	400.23
576.46	444.70
576.62	433.00
576.79	463.43
576.95	447.04
577.11	367.46
577.27	435.34
577.43	493.85
577.59	409.59
577.75	454.06
577.92	449.38
578.08	369.80
578.24	400.23
578.40	486.83
578.56	430.66
578.72	423.64
578.88	437.68
579.04	397.89
579.21	449.38
579.37	416.62
579.53	351.08
579.69	376.83
579.85	440.02
580.01	447.04
580.17	383.85
580.33	428.32
580.49	454.06
580.65	468.11
580.82	397.89
580.98	414.27
581.14	400.23
581.30	433.00
581.46	477.47
581.62	463.43
581.78	418.96
581.94	444.70
582.10	477.47
582.26	372.15
582.42	390.87
582.58	402.57
582.74	393.21
582.90	425.98
583.06	402.57
583.22	475.13
583.38	484.49
583.54	397.89
583.70	472.79
583.86	374.49
584.02	390.87
584.18	470.45
584.34	470.45
584.50	395.55
584.66	425.98
584.82	409.59
584.98	411.93
585.14	388.53
585.30	465.77
585.46	421.30
585.62	381.51
585.78	344.06
585.94	404.91
586.10	423.64
586.26	444.70
586.42	430.66
586.58	407.25
586.74	367.46
586.90	468.11
587.06	397.89
587.22	486.83
587.38	418.96
587.54	435.34
587.70	409.59
587.86	395.55
588.02	451.72
588.18	447.04
588.34	470.45
588.49	451.72
588.65	330.02
588.81	430.66
588.97	402.57
589.13	379.17
589.29	423.64
589.45	447.04
589.61	435.34
589.77	395.55
589.93	454.06
590.08	421.30
590.24	416.62
590.40	407.25
590.56	409.59
590.72	442.36
590.88	454.06
591.04	458.74
591.20	374.49
591.35	451.72
591.51	418.96
591.67	411.93
591.83	381.51
591.99	440.02
592.15	435.34
592.31	381.51
592.46	449.38
592.62	470.45
592.78	353.42
592.94	388.53
593.10	423.64
593.26	381.51
593.41	447.04
593.57	421.30
593.73	376.83
593.89	407.25
594.05	395.55
594.20	444.70
594.36	498.53
594.52	407.25
594.68	472.79
594.84	327.68
594.99	437.68
595.15	421.30
595.31	414.27
595.47	414.27
595.62	411.93
595.78	327.68
595.94	451.72
596.10	430.66
596.25	397.89
596.41	372.15
596.57	367.46
596.73	393.21
596.88	369.80
597.04	428.32
597.20	416.62
597.36	393.21
597.51	503.22
597.67	393.21
597.83	397.89
597.99	425.98
598.14	475.13
598.30	479.81
598.46	484.49
598.61	475.13
598.77	535.98
598.93	376.83
599.09	454.06
599.24	449.38
599.40	423.64
599.56	409.59
599.71	397.89
599.87	418.96
600.03	451.72
600.18	341.72
600.34	423.64
600.50	400.23
600.65	437.68
600.81	411.93
600.97	404.91
601.12	358.10
601.28	386.19
601.44	421.30
601.59	402.57
601.75	430.66
601.91	395.55
602.06	416.62
602.22	454.06
602.37	372.15
602.53	386.19
602.69	404.91
602.84	444.70
603.00	435.34
603.16	440.02
603.31	393.21
603.47	332.36
603.62	416.62
603.78	388.53
603.94	447.04
604.09	379.17
604.25	449.38
604.40	390.87
604.56	390.87
604.71	383.85
604.87	409.59
605.03	493.85
605.18	489.17
605.34	440.02
605.49	383.85
605.65	428.32
605.80	360.44
605.96	421.30
606.12	411.93
606.27	447.04
606.43	484.49
606.58	447.04
606.74	395.55
606.89	381.51
607.05	409.59
607.20	416.62
607.36	393.21
607.51	383.85
607.67	428.32
607.82	470.45
607.98	451.72
608.13	451.72
608.29	461.09
608.44	423.64
608.60	484.49
608.75	367.46
608.91	425.98
609.06	472.79
609.22	437.68
609.37	372.15
609.53	365.12
609.68	411.93
609.84	433.00
609.99	369.80
610.15	449.38
