SpectraSuite Data File
++++++++++++++++++++++++++++++++++++
Date: Fri Oct 25 12:11:42 EDT 2013
User: price-jones
Dark Spectrum Present: No
Reference Spectrum Present: No
Number of Sampled Component Spectra: 1
Spectrometers: USB2+H05261
Integration Time (usec): 100000 (USB2+H05261)
Spectra Averaged: 1 (USB2+H05261)
Boxcar Smoothing: 0 (USB2+H05261)
Correct for Electrical Dark: No (USB2+H05261)
Strobe/Lamp Enabled: No (USB2+H05261)
Correct for Detector Non-linearity: No (USB2+H05261)
Correct for Stray Light: No (USB2+H05261)
Number of Pixels in Processed Spectrum: 2048
>>>>>Begin Processed Spectral Data<<<<<
365.73	292.57
365.92	292.57
366.12	292.57
366.32	215.33
366.52	236.39
366.72	215.33
366.91	220.01
367.11	255.12
367.31	210.65
367.51	280.86
367.70	222.35
367.90	315.97
368.10	205.97
368.30	252.78
368.49	231.71
368.69	276.18
368.89	280.86
369.09	248.10
369.28	280.86
369.48	297.25
369.68	294.91
369.87	278.52
370.07	322.99
370.27	269.16
370.47	346.40
370.66	409.59
370.86	334.70
371.06	351.08
371.25	390.87
371.45	308.95
371.65	428.32
371.84	386.19
372.04	322.99
372.24	393.21
372.44	409.59
372.63	388.53
372.83	397.89
373.03	400.23
373.22	402.57
373.42	397.89
373.62	411.93
373.81	397.89
374.01	411.93
374.21	414.27
374.40	400.23
374.60	458.74
374.79	423.64
374.99	416.62
375.19	440.02
375.38	404.91
375.58	505.56
375.78	451.72
375.97	404.91
376.17	402.57
376.37	421.30
376.56	430.66
376.76	393.21
376.95	330.02
377.15	322.99
377.35	454.06
377.54	454.06
377.74	367.46
377.93	421.30
378.13	397.89
378.33	456.40
378.52	334.70
378.72	433.00
378.91	383.85
379.11	414.27
379.31	449.38
379.50	367.46
379.70	433.00
379.89	437.68
380.09	372.15
380.28	468.11
380.48	397.89
380.68	367.46
380.87	339.38
381.07	479.81
381.26	458.74
381.46	421.30
381.65	411.93
381.85	440.02
382.04	365.12
382.24	418.96
382.43	381.51
382.63	344.06
382.83	341.72
383.02	421.30
383.22	472.79
383.41	360.44
383.61	470.45
383.80	428.32
384.00	322.99
384.19	360.44
384.39	449.38
384.58	416.62
384.78	381.51
384.97	456.40
385.17	423.64
385.36	411.93
385.56	358.10
385.75	395.55
385.95	456.40
386.14	414.27
386.34	379.17
386.53	418.96
386.72	390.87
386.92	440.02
387.11	376.83
387.31	402.57
387.50	411.93
387.70	381.51
387.89	360.44
388.09	400.23
388.28	372.15
388.48	428.32
388.67	388.53
388.86	393.21
389.06	416.62
389.25	493.85
389.45	435.34
389.64	388.53
389.84	353.42
390.03	390.87
390.22	440.02
390.42	360.44
390.61	358.10
390.81	355.76
391.00	400.23
391.19	395.55
391.39	404.91
391.58	341.72
391.78	402.57
391.97	458.74
392.16	376.83
392.36	416.62
392.55	425.98
392.75	386.19
392.94	386.19
393.13	440.02
393.33	411.93
393.52	454.06
393.71	435.34
393.91	454.06
394.10	414.27
394.29	418.96
394.49	390.87
394.68	444.70
394.88	362.78
395.07	372.15
395.26	379.17
395.46	376.83
395.65	465.77
395.84	355.76
396.04	505.56
396.23	444.70
396.42	365.12
396.62	395.55
396.81	409.59
397.00	423.64
397.19	444.70
397.39	428.32
397.58	430.66
397.77	430.66
397.97	477.47
398.16	388.53
398.35	416.62
398.55	416.62
398.74	404.91
398.93	369.80
399.12	374.49
399.32	400.23
399.51	395.55
399.70	454.06
399.90	379.17
400.09	461.09
400.28	489.17
400.47	470.45
400.67	339.38
400.86	421.30
401.05	447.04
401.24	456.40
401.44	358.10
401.63	374.49
401.82	388.53
402.01	348.74
402.21	383.85
402.40	409.59
402.59	360.44
402.78	383.85
402.97	362.78
403.17	287.89
403.36	416.62
403.55	386.19
403.74	304.27
403.93	411.93
404.13	463.43
404.32	421.30
404.51	402.57
404.70	402.57
404.89	414.27
405.09	442.36
405.28	411.93
405.47	393.21
405.66	395.55
405.85	463.43
406.05	437.68
406.24	397.89
406.43	379.17
406.62	440.02
406.81	505.56
407.00	390.87
407.20	503.22
407.39	421.30
407.58	430.66
407.77	416.62
407.96	404.91
408.15	482.15
408.34	414.27
408.54	430.66
408.73	463.43
408.92	414.27
409.11	351.08
409.30	421.30
409.49	376.83
409.68	416.62
409.87	425.98
410.07	383.85
410.26	409.59
410.45	444.70
410.64	372.15
410.83	395.55
411.02	433.00
411.21	468.11
411.40	355.76
411.59	437.68
411.78	416.62
411.98	416.62
412.17	376.83
412.36	355.76
412.55	353.42
412.74	423.64
412.93	430.66
413.12	402.57
413.31	468.11
413.50	440.02
413.69	376.83
413.88	507.90
414.07	393.21
414.26	440.02
414.45	418.96
414.64	411.93
414.83	381.51
415.02	423.64
415.22	465.77
415.41	433.00
415.60	416.62
415.79	449.38
415.98	437.68
416.17	400.23
416.36	322.99
416.55	414.27
416.74	428.32
416.93	435.34
417.12	407.25
417.31	390.87
417.50	362.78
417.69	440.02
417.88	437.68
418.07	388.53
418.26	393.21
418.45	449.38
418.64	489.17
418.83	409.59
419.02	440.02
419.21	461.09
419.39	428.32
419.58	322.99
419.77	353.42
419.96	447.04
420.15	390.87
420.34	425.98
420.53	425.98
420.72	428.32
420.91	355.76
421.10	447.04
421.29	423.64
421.48	451.72
421.67	484.49
421.86	355.76
422.05	404.91
422.24	449.38
422.43	360.44
422.61	386.19
422.80	348.74
422.99	400.23
423.18	411.93
423.37	428.32
423.56	383.85
423.75	416.62
423.94	444.70
424.13	461.09
424.32	435.34
424.50	355.76
424.69	360.44
424.88	458.74
425.07	418.96
425.26	393.21
425.45	332.36
425.64	379.17
425.83	404.91
426.01	451.72
426.20	411.93
426.39	372.15
426.58	397.89
426.77	404.91
426.96	383.85
427.15	435.34
427.33	489.17
427.52	411.93
427.71	407.25
427.90	372.15
428.09	444.70
428.28	407.25
428.46	379.17
428.65	414.27
428.84	409.59
429.03	444.70
429.22	402.57
429.40	425.98
429.59	344.06
429.78	393.21
429.97	491.51
430.16	376.83
430.34	444.70
430.53	414.27
430.72	423.64
430.91	430.66
431.10	390.87
431.28	437.68
431.47	500.87
431.66	397.89
431.85	425.98
432.03	341.72
432.22	500.87
432.41	402.57
432.60	423.64
432.79	435.34
432.97	365.12
433.16	322.99
433.35	383.85
433.54	379.17
433.72	423.64
433.91	437.68
434.10	360.44
434.28	449.38
434.47	381.51
434.66	491.51
434.85	383.85
435.03	339.38
435.22	414.27
435.41	421.30
435.59	442.36
435.78	397.89
435.97	381.51
436.16	386.19
436.34	379.17
436.53	428.32
436.72	437.68
436.90	428.32
437.09	425.98
437.28	416.62
437.46	379.17
437.65	381.51
437.84	404.91
438.02	479.81
438.21	416.62
438.40	447.04
438.58	376.83
438.77	423.64
438.96	388.53
439.14	393.21
439.33	416.62
439.52	421.30
439.70	449.38
439.89	449.38
440.08	376.83
440.26	449.38
440.45	440.02
440.63	456.40
440.82	454.06
441.01	374.49
441.19	318.31
441.38	425.98
441.57	423.64
441.75	407.25
441.94	411.93
442.12	444.70
442.31	447.04
442.50	400.23
442.68	475.13
442.87	498.53
443.05	414.27
443.24	451.72
443.43	395.55
443.61	437.68
443.80	461.09
443.98	407.25
444.17	447.04
444.35	374.49
444.54	411.93
444.73	379.17
444.91	409.59
445.10	421.30
445.28	456.40
445.47	440.02
445.65	409.59
445.84	433.00
446.02	409.59
446.21	386.19
446.39	400.23
446.58	468.11
446.77	423.64
446.95	454.06
447.14	409.59
447.32	393.21
447.51	449.38
447.69	451.72
447.88	388.53
448.06	374.49
448.25	449.38
448.43	449.38
448.62	430.66
448.80	341.72
448.99	360.44
449.17	425.98
449.36	423.64
449.54	421.30
449.73	430.66
449.91	500.87
450.10	449.38
450.28	435.34
450.46	451.72
450.65	461.09
450.83	402.57
451.02	423.64
451.20	440.02
451.39	416.62
451.57	418.96
451.76	346.40
451.94	390.87
452.13	404.91
452.31	421.30
452.49	428.32
452.68	322.99
452.86	447.04
453.05	404.91
453.23	351.08
453.42	383.85
453.60	395.55
453.78	498.53
453.97	468.11
454.15	365.12
454.34	470.45
454.52	444.70
454.70	411.93
454.89	444.70
455.07	411.93
455.26	456.40
455.44	409.59
455.62	430.66
455.81	447.04
455.99	468.11
456.17	414.27
456.36	449.38
456.54	388.53
456.73	402.57
456.91	418.96
457.09	407.25
457.28	402.57
457.46	449.38
457.64	472.79
457.83	402.57
458.01	421.30
458.19	430.66
458.38	437.68
458.56	381.51
458.74	381.51
458.93	402.57
459.11	409.59
459.29	421.30
459.48	407.25
459.66	507.90
459.84	369.80
460.03	447.04
460.21	484.49
460.39	428.32
460.57	367.46
460.76	388.53
460.94	465.77
461.12	433.00
461.31	428.32
461.49	362.78
461.67	428.32
461.85	416.62
462.04	376.83
462.22	723.23
462.40	372.15
462.59	311.29
462.77	433.00
462.95	404.91
463.13	390.87
463.32	421.30
463.50	437.68
463.68	440.02
463.86	402.57
464.05	369.80
464.23	430.66
464.41	383.85
464.59	444.70
464.78	470.45
464.96	428.32
465.14	416.62
465.32	402.57
465.50	409.59
465.69	423.64
465.87	400.23
466.05	465.77
466.23	428.32
466.41	395.55
466.60	437.68
466.78	411.93
466.96	456.40
467.14	437.68
467.32	463.43
467.51	411.93
467.69	411.93
467.87	428.32
468.05	407.25
468.23	428.32
468.41	465.77
468.60	402.57
468.78	514.92
468.96	447.04
469.14	400.23
469.32	372.15
469.50	372.15
469.69	386.19
469.87	472.79
470.05	475.13
470.23	430.66
470.41	416.62
470.59	376.83
470.77	430.66
470.95	407.25
471.14	484.49
471.32	451.72
471.50	411.93
471.68	367.46
471.86	414.27
472.04	423.64
472.22	444.70
472.40	402.57
472.58	416.62
472.77	482.15
472.95	421.30
473.13	435.34
473.31	472.79
473.49	390.87
473.67	409.59
473.85	388.53
474.03	442.36
474.21	402.57
474.39	407.25
474.57	475.13
474.75	397.89
474.93	400.23
475.12	351.08
475.30	393.21
475.48	411.93
475.66	433.00
475.84	421.30
476.02	372.15
476.20	348.74
476.38	390.87
476.56	505.56
476.74	458.74
476.92	447.04
477.10	402.57
477.28	411.93
477.46	477.47
477.64	465.77
477.82	482.15
478.00	447.04
478.18	458.74
478.36	472.79
478.54	337.04
478.72	386.19
478.90	355.76
479.08	390.87
479.26	397.89
479.44	388.53
479.62	456.40
479.80	402.57
479.98	409.59
480.16	365.12
480.34	411.93
480.52	322.99
480.70	414.27
480.88	330.02
481.06	465.77
481.24	414.27
481.41	449.38
481.59	456.40
481.77	440.02
481.95	411.93
482.13	337.04
482.31	458.74
482.49	411.93
482.67	498.53
482.85	461.09
483.03	437.68
483.21	397.89
483.39	414.27
483.57	425.98
483.74	346.40
483.92	465.77
484.10	402.57
484.28	404.91
484.46	442.36
484.64	423.64
484.82	440.02
485.00	397.89
485.18	475.13
485.35	491.51
485.53	369.80
485.71	411.93
485.89	395.55
486.07	400.23
486.25	437.68
486.43	458.74
486.61	421.30
486.78	395.55
486.96	339.38
487.14	435.34
487.32	416.62
487.50	400.23
487.68	402.57
487.85	402.57
488.03	400.23
488.21	428.32
488.39	393.21
488.57	390.87
488.75	376.83
488.92	468.11
489.10	491.51
489.28	463.43
489.46	454.06
489.64	468.11
489.81	395.55
489.99	435.34
490.17	344.06
490.35	458.74
490.53	376.83
490.70	430.66
490.88	402.57
491.06	404.91
491.24	414.27
491.41	498.53
491.59	409.59
491.77	330.02
491.95	390.87
492.13	454.06
492.30	400.23
492.48	411.93
492.66	440.02
492.84	325.33
493.01	433.00
493.19	416.62
493.37	498.53
493.54	444.70
493.72	369.80
493.90	437.68
494.08	407.25
494.25	444.70
494.43	461.09
494.61	470.45
494.79	430.66
494.96	416.62
495.14	376.83
495.32	388.53
495.49	421.30
495.67	472.79
495.85	341.72
496.02	447.04
496.20	430.66
496.38	512.58
496.55	472.79
496.73	404.91
496.91	400.23
497.09	440.02
497.26	425.98
497.44	301.93
497.62	390.87
497.79	339.38
497.97	414.27
498.14	355.76
498.32	395.55
498.50	414.27
498.67	388.53
498.85	423.64
499.03	425.98
499.20	395.55
499.38	400.23
499.56	423.64
499.73	395.55
499.91	404.91
500.08	440.02
500.26	475.13
500.44	379.17
500.61	423.64
500.79	400.23
500.97	433.00
501.14	435.34
501.32	416.62
501.49	397.89
501.67	442.36
501.84	430.66
502.02	407.25
502.20	442.36
502.37	416.62
502.55	376.83
502.72	397.89
502.90	503.22
503.07	372.15
503.25	362.78
503.43	334.70
503.60	440.02
503.78	437.68
503.95	397.89
504.13	407.25
504.30	407.25
504.48	535.98
504.65	447.04
504.83	430.66
505.01	393.21
505.18	461.09
505.36	437.68
505.53	369.80
505.71	379.17
505.88	463.43
506.06	411.93
506.23	428.32
506.41	435.34
506.58	435.34
506.76	433.00
506.93	358.10
507.11	430.66
507.28	376.83
507.46	430.66
507.63	348.74
507.81	360.44
507.98	397.89
508.16	395.55
508.33	376.83
508.50	414.27
508.68	435.34
508.85	409.59
509.03	334.70
509.20	374.49
509.38	409.59
509.55	451.72
509.73	393.21
509.90	456.40
510.08	425.98
510.25	423.64
510.42	376.83
510.60	397.89
510.77	360.44
510.95	381.51
511.12	397.89
511.30	360.44
511.47	442.36
511.64	348.74
511.82	379.17
511.99	451.72
512.17	451.72
512.34	430.66
512.51	311.29
512.69	362.78
512.86	430.66
513.04	472.79
513.21	451.72
513.38	367.46
513.56	416.62
513.73	423.64
513.90	381.51
514.08	456.40
514.25	421.30
514.43	409.59
514.60	440.02
514.77	416.62
514.95	451.72
515.12	374.49
515.29	400.23
515.47	421.30
515.64	369.80
515.81	418.96
515.99	404.91
516.16	507.90
516.33	463.43
516.51	365.12
516.68	433.00
516.85	390.87
517.03	435.34
517.20	442.36
517.37	433.00
517.54	447.04
517.72	437.68
517.89	402.57
518.06	414.27
518.24	444.70
518.41	390.87
518.58	428.32
518.75	404.91
518.93	393.21
519.10	381.51
519.27	442.36
519.45	437.68
519.62	416.62
519.79	451.72
519.96	397.89
520.14	407.25
520.31	447.04
520.48	433.00
520.65	449.38
520.83	348.74
521.00	381.51
521.17	458.74
521.34	299.59
521.52	456.40
521.69	463.43
521.86	498.53
522.03	376.83
522.20	449.38
522.38	390.87
522.55	376.83
522.72	388.53
522.89	456.40
523.07	491.51
523.24	442.36
523.41	397.89
523.58	383.85
523.75	423.64
523.92	416.62
524.10	390.87
524.27	369.80
524.44	416.62
524.61	428.32
524.78	404.91
524.96	390.87
525.13	397.89
525.30	411.93
525.47	440.02
525.64	437.68
525.81	365.12
525.98	444.70
526.16	369.80
526.33	409.59
526.50	365.12
526.67	463.43
526.84	315.97
527.01	454.06
527.18	409.59
527.36	379.17
527.53	475.13
527.70	472.79
527.87	367.46
528.04	463.43
528.21	386.19
528.38	519.60
528.55	402.57
528.72	451.72
528.89	479.81
529.07	397.89
529.24	475.13
529.41	491.51
529.58	458.74
529.75	409.59
529.92	416.62
530.09	372.15
530.26	411.93
530.43	407.25
530.60	383.85
530.77	440.02
530.94	435.34
531.11	440.02
531.28	430.66
531.46	411.93
531.63	397.89
531.80	404.91
531.97	430.66
532.14	423.64
532.31	365.12
532.48	372.15
532.65	348.74
532.82	313.63
532.99	416.62
533.16	386.19
533.33	379.17
533.50	414.27
533.67	404.91
533.84	465.77
534.01	510.24
534.18	465.77
534.35	402.57
534.52	409.59
534.69	437.68
534.86	388.53
535.03	411.93
535.20	348.74
535.37	444.70
535.54	362.78
535.71	383.85
535.88	414.27
536.05	402.57
536.22	470.45
536.38	381.51
536.55	416.62
536.72	451.72
536.89	393.21
537.06	437.68
537.23	402.57
537.40	461.09
537.57	442.36
537.74	524.28
537.91	454.06
538.08	407.25
538.25	409.59
538.42	435.34
538.59	390.87
538.75	400.23
538.92	404.91
539.09	430.66
539.26	423.64
539.43	423.64
539.60	423.64
539.77	428.32
539.94	472.79
540.11	470.45
540.28	411.93
540.44	383.85
540.61	465.77
540.78	341.72
540.95	358.10
541.12	486.83
541.29	393.21
541.46	444.70
541.62	440.02
541.79	409.59
541.96	402.57
542.13	393.21
542.30	411.93
542.47	395.55
542.63	322.99
542.80	447.04
542.97	449.38
543.14	425.98
543.31	369.80
543.48	440.02
543.64	468.11
543.81	449.38
543.98	423.64
544.15	449.38
544.32	442.36
544.48	383.85
544.65	369.80
544.82	388.53
544.99	337.04
545.16	416.62
545.32	407.25
545.49	449.38
545.66	397.89
545.83	400.23
546.00	404.91
546.16	386.19
546.33	418.96
546.50	444.70
546.67	416.62
546.83	423.64
547.00	479.81
547.17	454.06
547.34	379.17
547.50	456.40
547.67	404.91
547.84	325.33
548.00	393.21
548.17	372.15
548.34	365.12
548.51	411.93
548.67	402.57
548.84	327.68
549.01	451.72
549.18	456.40
549.34	517.26
549.51	416.62
549.68	395.55
549.84	418.96
550.01	472.79
550.18	442.36
550.34	454.06
550.51	435.34
550.68	435.34
550.84	451.72
551.01	433.00
551.18	521.94
551.34	444.70
551.51	346.40
551.68	367.46
551.84	444.70
552.01	421.30
552.18	409.59
552.34	418.96
552.51	451.72
552.68	456.40
552.84	383.85
553.01	505.56
553.18	416.62
553.34	404.91
553.51	381.51
553.67	330.02
553.84	407.25
554.01	458.74
554.17	407.25
554.34	428.32
554.51	315.97
554.67	503.22
554.84	416.62
555.00	479.81
555.17	468.11
555.33	390.87
555.50	402.57
555.67	470.45
555.83	397.89
556.00	421.30
556.16	568.75
556.33	418.96
556.50	372.15
556.66	411.93
556.83	386.19
556.99	383.85
557.16	430.66
557.32	435.34
557.49	442.36
557.65	456.40
557.82	423.64
557.98	407.25
558.15	435.34
558.32	390.87
558.48	468.11
558.65	404.91
558.81	365.12
558.98	341.72
559.14	475.13
559.31	393.21
559.47	411.93
559.64	372.15
559.80	395.55
559.97	386.19
560.13	435.34
560.30	421.30
560.46	411.93
560.63	409.59
560.79	407.25
560.96	437.68
561.12	339.38
561.29	472.79
561.45	369.80
561.61	388.53
561.78	472.79
561.94	444.70
562.11	414.27
562.27	477.47
562.44	447.04
562.60	444.70
562.77	449.38
562.93	402.57
563.10	416.62
563.26	421.30
563.42	465.77
563.59	437.68
563.75	365.12
563.92	465.77
564.08	428.32
564.24	433.00
564.41	484.49
564.57	468.11
564.74	442.36
564.90	451.72
565.07	369.80
565.23	440.02
565.39	479.81
565.56	435.34
565.72	425.98
565.88	374.49
566.05	456.40
566.21	440.02
566.38	498.53
566.54	388.53
566.70	407.25
566.87	519.60
567.03	407.25
567.19	482.15
567.36	402.57
567.52	397.89
567.68	353.42
567.85	465.77
568.01	414.27
568.17	418.96
568.34	411.93
568.50	505.56
568.66	402.57
568.83	531.30
568.99	388.53
569.15	447.04
569.32	400.23
569.48	461.09
569.64	451.72
569.81	456.40
569.97	407.25
570.13	433.00
570.30	409.59
570.46	400.23
570.62	482.15
570.78	440.02
570.95	397.89
571.11	411.93
571.27	428.32
571.43	472.79
571.60	423.64
571.76	369.80
571.92	393.21
572.09	433.00
572.25	435.34
572.41	404.91
572.57	449.38
572.74	393.21
572.90	433.00
573.06	383.85
573.22	461.09
573.38	451.72
573.55	447.04
573.71	411.93
573.87	428.32
574.03	433.00
574.20	503.22
574.36	369.80
574.52	397.89
574.68	444.70
574.84	489.17
575.01	400.23
575.17	433.00
575.33	437.68
575.49	362.78
575.65	425.98
575.82	433.00
575.98	414.27
576.14	402.57
576.30	421.30
576.46	381.51
576.62	449.38
576.79	388.53
576.95	388.53
577.11	402.57
577.27	379.17
577.43	404.91
577.59	444.70
577.75	425.98
577.92	418.96
578.08	423.64
578.24	433.00
578.40	463.43
578.56	440.02
578.72	390.87
578.88	465.77
579.04	351.08
579.21	449.38
579.37	409.59
579.53	358.10
579.69	430.66
579.85	383.85
580.01	414.27
580.17	428.32
580.33	402.57
580.49	447.04
580.65	407.25
580.82	390.87
580.98	444.70
581.14	381.51
581.30	472.79
581.46	440.02
581.62	395.55
581.78	458.74
581.94	470.45
582.10	425.98
582.26	538.32
582.42	381.51
582.58	402.57
582.74	409.59
582.90	393.21
583.06	334.70
583.22	449.38
583.38	369.80
583.54	435.34
583.70	447.04
583.86	423.64
584.02	376.83
584.18	454.06
584.34	437.68
584.50	435.34
584.66	447.04
584.82	454.06
584.98	395.55
585.14	393.21
585.30	496.19
585.46	465.77
585.62	477.47
585.78	425.98
585.94	470.45
586.10	437.68
586.26	486.83
586.42	437.68
586.58	491.51
586.74	425.98
586.90	397.89
587.06	404.91
587.22	449.38
587.38	334.70
587.54	397.89
587.70	507.90
587.86	425.98
588.02	374.49
588.18	449.38
588.34	418.96
588.49	550.03
588.65	379.17
588.81	379.17
588.97	411.93
589.13	379.17
589.29	388.53
589.45	468.11
589.61	411.93
589.77	400.23
589.93	428.32
590.08	461.09
590.24	414.27
590.40	449.38
590.56	451.72
590.72	416.62
590.88	423.64
591.04	395.55
591.20	381.51
591.35	458.74
591.51	404.91
591.67	360.44
591.83	435.34
591.99	428.32
592.15	407.25
592.31	388.53
592.46	376.83
592.62	456.40
592.78	437.68
592.94	498.53
593.10	407.25
593.26	379.17
593.41	437.68
593.57	390.87
593.73	449.38
593.89	390.87
594.05	493.85
594.20	442.36
594.36	423.64
594.52	409.59
594.68	327.68
594.84	383.85
594.99	475.13
595.15	521.94
595.31	482.15
595.47	472.79
595.62	393.21
595.78	353.42
595.94	397.89
596.10	376.83
596.25	472.79
596.41	327.68
596.57	409.59
596.73	388.53
596.88	458.74
597.04	447.04
597.20	421.30
597.36	510.24
597.51	416.62
597.67	428.32
597.83	442.36
597.99	372.15
598.14	344.06
598.30	505.56
598.46	472.79
598.61	386.19
598.77	404.91
598.93	358.10
599.09	362.78
599.24	433.00
599.40	428.32
599.56	435.34
599.71	362.78
599.87	512.58
600.03	409.59
600.18	479.81
600.34	430.66
600.50	442.36
600.65	346.40
600.81	479.81
600.97	400.23
601.12	449.38
601.28	428.32
601.44	421.30
601.59	292.57
601.75	400.23
601.91	400.23
602.06	386.19
602.22	505.56
602.37	428.32
602.53	486.83
602.69	407.25
602.84	400.23
603.00	435.34
603.16	477.47
603.31	381.51
603.47	493.85
603.62	395.55
603.78	397.89
603.94	402.57
604.09	376.83
604.25	454.06
604.40	428.32
604.56	395.55
604.71	430.66
604.87	386.19
605.03	435.34
605.18	421.30
605.34	397.89
605.49	414.27
605.65	456.40
605.80	404.91
605.96	458.74
606.12	388.53
606.27	444.70
606.43	468.11
606.58	397.89
606.74	360.44
606.89	421.30
607.05	442.36
607.20	456.40
607.36	393.21
607.51	433.00
607.67	442.36
607.82	414.27
607.98	425.98
608.13	470.45
608.29	397.89
608.44	390.87
608.60	416.62
608.75	447.04
608.91	440.02
609.06	430.66
609.22	390.87
609.37	404.91
609.53	411.93
609.68	440.02
609.84	430.66
609.99	451.72
610.15	479.81
