SpectraSuite Data File
++++++++++++++++++++++++++++++++++++
Date: Fri Oct 25 12:10:12 EDT 2013
User: price-jones
Dark Spectrum Present: No
Reference Spectrum Present: No
Number of Sampled Component Spectra: 1
Spectrometers: USB2+H05261
Integration Time (usec): 100000 (USB2+H05261)
Spectra Averaged: 1 (USB2+H05261)
Boxcar Smoothing: 0 (USB2+H05261)
Correct for Electrical Dark: No (USB2+H05261)
Strobe/Lamp Enabled: No (USB2+H05261)
Correct for Detector Non-linearity: No (USB2+H05261)
Correct for Stray Light: No (USB2+H05261)
Number of Pixels in Processed Spectrum: 2048
>>>>>Begin Processed Spectral Data<<<<<
365.73	372.15
365.92	372.15
366.12	372.15
366.32	322.99
366.52	208.31
366.72	208.31
366.91	280.86
367.11	245.76
367.31	264.48
367.51	180.22
367.70	238.73
367.90	212.99
368.10	194.26
368.30	238.73
368.49	189.58
368.69	194.26
368.89	238.73
369.09	285.55
369.28	217.67
369.48	252.78
369.68	294.91
369.87	294.91
370.07	238.73
370.27	238.73
370.47	344.06
370.66	234.05
370.86	362.78
371.06	322.99
371.25	339.38
371.45	355.76
371.65	367.46
371.84	374.49
372.04	423.64
372.24	390.87
372.44	409.59
372.63	386.19
372.83	365.12
373.03	388.53
373.22	320.65
373.42	416.62
373.62	369.80
373.81	411.93
374.01	381.51
374.21	489.17
374.40	451.72
374.60	400.23
374.79	355.76
374.99	362.78
375.19	421.30
375.38	477.47
375.58	447.04
375.78	528.96
375.97	386.19
376.17	440.02
376.37	461.09
376.56	444.70
376.76	351.08
376.95	374.49
377.15	440.02
377.35	400.23
377.54	414.27
377.74	390.87
377.93	416.62
378.13	409.59
378.33	400.23
378.52	397.89
378.72	468.11
378.91	421.30
379.11	390.87
379.31	463.43
379.50	386.19
379.70	402.57
379.89	433.00
380.09	372.15
380.28	346.40
380.48	416.62
380.68	383.85
380.87	372.15
381.07	409.59
381.26	479.81
381.46	325.33
381.65	353.42
381.85	367.46
382.04	379.17
382.24	454.06
382.43	442.36
382.63	421.30
382.83	393.21
383.02	416.62
383.22	388.53
383.41	437.68
383.61	428.32
383.80	472.79
384.00	383.85
384.19	409.59
384.39	500.87
384.58	400.23
384.78	468.11
384.97	358.10
385.17	444.70
385.36	428.32
385.56	411.93
385.75	414.27
385.95	400.23
386.14	433.00
386.34	395.55
386.53	428.32
386.72	325.33
386.92	393.21
387.11	428.32
387.31	365.12
387.50	344.06
387.70	428.32
387.89	348.74
388.09	327.68
388.28	386.19
388.48	447.04
388.67	400.23
388.86	374.49
389.06	397.89
389.25	411.93
389.45	374.49
389.64	440.02
389.84	411.93
390.03	491.51
390.22	428.32
390.42	369.80
390.61	418.96
390.81	367.46
391.00	395.55
391.19	447.04
391.39	388.53
391.58	437.68
391.78	444.70
391.97	388.53
392.16	465.77
392.36	442.36
392.55	491.51
392.75	470.45
392.94	372.15
393.13	372.15
393.33	379.17
393.52	369.80
393.71	493.85
393.91	433.00
394.10	397.89
394.29	458.74
394.49	379.17
394.68	332.36
394.88	383.85
395.07	479.81
395.26	369.80
395.46	430.66
395.65	397.89
395.84	428.32
396.04	437.68
396.23	383.85
396.42	430.66
396.62	470.45
396.81	447.04
397.00	402.57
397.19	381.51
397.39	362.78
397.58	458.74
397.77	369.80
397.97	395.55
398.16	411.93
398.35	449.38
398.55	341.72
398.74	369.80
398.93	421.30
399.12	440.02
399.32	418.96
399.51	428.32
399.70	383.85
399.90	430.66
400.09	409.59
400.28	404.91
400.47	435.34
400.67	458.74
400.86	435.34
401.05	428.32
401.24	498.53
401.44	423.64
401.63	411.93
401.82	400.23
402.01	383.85
402.21	425.98
402.40	461.09
402.59	400.23
402.78	411.93
402.97	341.72
403.17	414.27
403.36	355.76
403.55	306.61
403.74	358.10
403.93	388.53
404.13	430.66
404.32	411.93
404.51	449.38
404.70	461.09
404.89	386.19
405.09	437.68
405.28	348.74
405.47	435.34
405.66	449.38
405.85	430.66
406.05	379.17
406.24	430.66
406.43	503.22
406.62	388.53
406.81	442.36
407.00	484.49
407.20	386.19
407.39	423.64
407.58	404.91
407.77	351.08
407.96	388.53
408.15	386.19
408.34	442.36
408.54	416.62
408.73	409.59
408.92	397.89
409.11	407.25
409.30	465.77
409.49	461.09
409.68	463.43
409.87	407.25
410.07	325.33
410.26	456.40
410.45	365.12
410.64	423.64
410.83	411.93
411.02	451.72
411.21	416.62
411.40	447.04
411.59	395.55
411.78	404.91
411.98	421.30
412.17	395.55
412.36	411.93
412.55	416.62
412.74	442.36
412.93	383.85
413.12	332.36
413.31	376.83
413.50	390.87
413.69	423.64
413.88	390.87
414.07	425.98
414.26	409.59
414.45	407.25
414.64	402.57
414.83	418.96
415.02	444.70
415.22	433.00
415.41	433.00
415.60	442.36
415.79	362.78
415.98	404.91
416.17	468.11
416.36	423.64
416.55	430.66
416.74	425.98
416.93	411.93
417.12	397.89
417.31	451.72
417.50	404.91
417.69	500.87
417.88	418.96
418.07	397.89
418.26	435.34
418.45	411.93
418.64	491.51
418.83	404.91
419.02	416.62
419.21	379.17
419.39	447.04
419.58	416.62
419.77	411.93
419.96	454.06
420.15	407.25
420.34	393.21
420.53	435.34
420.72	458.74
420.91	383.85
421.10	454.06
421.29	451.72
421.48	465.77
421.67	449.38
421.86	454.06
422.05	369.80
422.24	383.85
422.43	472.79
422.61	393.21
422.80	402.57
422.99	440.02
423.18	437.68
423.37	383.85
423.56	393.21
423.75	381.51
423.94	447.04
424.13	411.93
424.32	390.87
424.50	461.09
424.69	367.46
424.88	421.30
425.07	367.46
425.26	383.85
425.45	437.68
425.64	402.57
425.83	388.53
426.01	425.98
426.20	442.36
426.39	404.91
426.58	402.57
426.77	395.55
426.96	374.49
427.15	435.34
427.33	402.57
427.52	418.96
427.71	395.55
427.90	461.09
428.09	337.04
428.28	465.77
428.46	470.45
428.65	369.80
428.84	369.80
429.03	409.59
429.22	456.40
429.40	353.42
429.59	393.21
429.78	353.42
429.97	390.87
430.16	395.55
430.34	421.30
430.53	414.27
430.72	344.06
430.91	449.38
431.10	367.46
431.28	388.53
431.47	416.62
431.66	458.74
431.85	472.79
432.03	435.34
432.22	465.77
432.41	447.04
432.60	435.34
432.79	386.19
432.97	404.91
433.16	355.76
433.35	388.53
433.54	423.64
433.72	402.57
433.91	435.34
434.10	369.80
434.28	421.30
434.47	435.34
434.66	400.23
434.85	395.55
435.03	418.96
435.22	444.70
435.41	388.53
435.59	433.00
435.78	465.77
435.97	470.45
436.16	428.32
436.34	353.42
436.53	470.45
436.72	369.80
436.90	369.80
437.09	383.85
437.28	465.77
437.46	472.79
437.65	442.36
437.84	374.49
438.02	407.25
438.21	472.79
438.40	376.83
438.58	362.78
438.77	355.76
438.96	479.81
439.14	409.59
439.33	411.93
439.52	402.57
439.70	395.55
439.89	416.62
440.08	447.04
440.26	400.23
440.45	437.68
440.63	486.83
440.82	418.96
441.01	463.43
441.19	353.42
441.38	369.80
441.57	402.57
441.75	393.21
441.94	458.74
442.12	430.66
442.31	418.96
442.50	367.46
442.68	411.93
442.87	416.62
443.05	379.17
443.24	360.44
443.43	395.55
443.61	400.23
443.80	390.87
443.98	416.62
444.17	367.46
444.35	475.13
444.54	409.59
444.73	376.83
444.91	390.87
445.10	407.25
445.28	301.93
445.47	367.46
445.65	449.38
445.84	393.21
446.02	414.27
446.21	353.42
446.39	374.49
446.58	482.15
446.77	416.62
446.95	407.25
447.14	376.83
447.32	510.24
447.51	416.62
447.69	407.25
447.88	500.87
448.06	395.55
448.25	465.77
448.43	404.91
448.62	362.78
448.80	503.22
448.99	421.30
449.17	409.59
449.36	423.64
449.54	465.77
449.73	414.27
449.91	339.38
450.10	447.04
450.28	388.53
450.46	442.36
450.65	393.21
450.83	470.45
451.02	435.34
451.20	451.72
451.39	433.00
451.57	400.23
451.76	355.76
451.94	414.27
452.13	465.77
452.31	444.70
452.49	456.40
452.68	479.81
452.86	538.32
453.05	461.09
453.23	489.17
453.42	449.38
453.60	418.96
453.78	411.93
453.97	435.34
454.15	465.77
454.34	376.83
454.52	428.32
454.70	449.38
454.89	428.32
455.07	414.27
455.26	414.27
455.44	390.87
455.62	407.25
455.81	397.89
455.99	409.59
456.17	395.55
456.36	376.83
456.54	372.15
456.73	355.76
456.91	444.70
457.09	442.36
457.28	397.89
457.46	418.96
457.64	397.89
457.83	482.15
458.01	386.19
458.19	388.53
458.38	409.59
458.56	409.59
458.74	444.70
458.93	454.06
459.11	404.91
459.29	454.06
459.48	442.36
459.66	416.62
459.84	372.15
460.03	540.66
460.21	416.62
460.39	411.93
460.57	510.24
460.76	428.32
460.94	393.21
461.12	437.68
461.31	407.25
461.49	449.38
461.67	386.19
461.85	423.64
462.04	355.76
462.22	725.57
462.40	440.02
462.59	381.51
462.77	365.12
462.95	355.76
463.13	423.64
463.32	444.70
463.50	428.32
463.68	430.66
463.86	409.59
464.05	369.80
464.23	484.49
464.41	423.64
464.59	454.06
464.78	425.98
464.96	276.18
465.14	397.89
465.32	383.85
465.50	489.17
465.69	440.02
465.87	386.19
466.05	435.34
466.23	449.38
466.41	421.30
466.60	397.89
466.78	416.62
466.96	421.30
467.14	381.51
467.32	440.02
467.51	393.21
467.69	423.64
467.87	365.12
468.05	386.19
468.23	418.96
468.41	430.66
468.60	428.32
468.78	369.80
468.96	313.63
469.14	383.85
469.32	442.36
469.50	376.83
469.69	416.62
469.87	374.49
470.05	386.19
470.23	407.25
470.41	365.12
470.59	367.46
470.77	442.36
470.95	421.30
471.14	433.00
471.32	409.59
471.50	505.56
471.68	437.68
471.86	400.23
472.04	360.44
472.22	397.89
472.40	386.19
472.58	390.87
472.77	397.89
472.95	386.19
473.13	418.96
473.31	402.57
473.49	402.57
473.67	437.68
473.85	470.45
474.03	421.30
474.21	358.10
474.39	388.53
474.57	468.11
474.75	475.13
474.93	407.25
475.12	435.34
475.30	374.49
475.48	386.19
475.66	414.27
475.84	402.57
476.02	395.55
476.20	440.02
476.38	402.57
476.56	433.00
476.74	330.02
476.92	365.12
477.10	416.62
477.28	414.27
477.46	383.85
477.64	402.57
477.82	348.74
478.00	461.09
478.18	397.89
478.36	418.96
478.54	428.32
478.72	376.83
478.90	386.19
479.08	379.17
479.26	379.17
479.44	421.30
479.62	402.57
479.80	346.40
479.98	369.80
480.16	433.00
480.34	444.70
480.52	409.59
480.70	372.15
480.88	458.74
481.06	479.81
481.24	416.62
481.41	461.09
481.59	470.45
481.77	477.47
481.95	416.62
482.13	374.49
482.31	440.02
482.49	449.38
482.67	416.62
482.85	411.93
483.03	402.57
483.21	416.62
483.39	433.00
483.57	383.85
483.74	433.00
483.92	400.23
484.10	397.89
484.28	486.83
484.46	411.93
484.64	395.55
484.82	376.83
485.00	395.55
485.18	442.36
485.35	418.96
485.53	414.27
485.71	421.30
485.89	402.57
486.07	416.62
486.25	491.51
486.43	456.40
486.61	449.38
486.78	489.17
486.96	325.33
487.14	411.93
487.32	367.46
487.50	416.62
487.68	507.90
487.85	435.34
488.03	386.19
488.21	444.70
488.39	407.25
488.57	463.43
488.75	486.83
488.92	470.45
489.10	414.27
489.28	503.22
489.46	383.85
489.64	451.72
489.81	423.64
489.99	411.93
490.17	433.00
490.35	461.09
490.53	404.91
490.70	404.91
490.88	381.51
491.06	388.53
491.24	437.68
491.41	393.21
491.59	451.72
491.77	390.87
491.95	400.23
492.13	421.30
492.30	414.27
492.48	407.25
492.66	463.43
492.84	404.91
493.01	411.93
493.19	437.68
493.37	468.11
493.54	437.68
493.72	425.98
493.90	416.62
494.08	435.34
494.25	379.17
494.43	390.87
494.61	390.87
494.79	393.21
494.96	454.06
495.14	402.57
495.32	414.27
495.49	435.34
495.67	379.17
495.85	383.85
496.02	414.27
496.20	510.24
496.38	435.34
496.55	404.91
496.73	425.98
496.91	430.66
497.09	428.32
497.26	418.96
497.44	444.70
497.62	414.27
497.79	428.32
497.97	383.85
498.14	409.59
498.32	470.45
498.50	308.95
498.67	393.21
498.85	437.68
499.03	395.55
499.20	386.19
499.38	435.34
499.56	442.36
499.73	510.24
499.91	463.43
500.08	493.85
500.26	449.38
500.44	433.00
500.61	433.00
500.79	379.17
500.97	402.57
501.14	376.83
501.32	416.62
501.49	447.04
501.67	400.23
501.84	447.04
502.02	383.85
502.20	411.93
502.37	461.09
502.55	430.66
502.72	437.68
502.90	435.34
503.07	423.64
503.25	447.04
503.43	414.27
503.60	465.77
503.78	381.51
503.95	468.11
504.13	409.59
504.30	393.21
504.48	404.91
504.65	425.98
504.83	458.74
505.01	416.62
505.18	461.09
505.36	442.36
505.53	451.72
505.71	430.66
505.88	351.08
506.06	402.57
506.23	383.85
506.41	416.62
506.58	411.93
506.76	458.74
506.93	472.79
507.11	411.93
507.28	451.72
507.46	425.98
507.63	461.09
507.81	339.38
507.98	388.53
508.16	414.27
508.33	404.91
508.50	318.31
508.68	433.00
508.85	425.98
509.03	322.99
509.20	425.98
509.38	379.17
509.55	372.15
509.73	484.49
509.90	463.43
510.08	498.53
510.25	423.64
510.42	433.00
510.60	437.68
510.77	458.74
510.95	411.93
511.12	353.42
511.30	433.00
511.47	409.59
511.64	484.49
511.82	411.93
511.99	433.00
512.17	414.27
512.34	435.34
512.51	435.34
512.69	423.64
512.86	416.62
513.04	484.49
513.21	351.08
513.38	374.49
513.56	458.74
513.73	325.33
513.90	423.64
514.08	376.83
514.25	421.30
514.43	416.62
514.60	362.78
514.77	435.34
514.95	486.83
515.12	435.34
515.29	425.98
515.47	430.66
515.64	393.21
515.81	461.09
515.99	409.59
516.16	433.00
516.33	440.02
516.51	421.30
516.68	454.06
516.85	400.23
517.03	381.51
517.20	325.33
517.37	409.59
517.54	440.02
517.72	390.87
517.89	402.57
518.06	468.11
518.24	458.74
518.41	479.81
518.58	428.32
518.75	414.27
518.93	484.49
519.10	435.34
519.27	374.49
519.45	573.43
519.62	397.89
519.79	451.72
519.96	440.02
520.14	379.17
520.31	397.89
520.48	442.36
520.65	393.21
520.83	395.55
521.00	416.62
521.17	456.40
521.34	353.42
521.52	388.53
521.69	362.78
521.86	449.38
522.03	365.12
522.20	451.72
522.38	461.09
522.55	444.70
522.72	440.02
522.89	374.49
523.07	465.77
523.24	400.23
523.41	358.10
523.58	435.34
523.75	362.78
523.92	421.30
524.10	447.04
524.27	430.66
524.44	456.40
524.61	463.43
524.78	367.46
524.96	390.87
525.13	435.34
525.30	414.27
525.47	465.77
525.64	379.17
525.81	386.19
525.98	435.34
526.16	524.28
526.33	414.27
526.50	379.17
526.67	397.89
526.84	397.89
527.01	372.15
527.18	374.49
527.36	388.53
527.53	416.62
527.70	437.68
527.87	493.85
528.04	533.64
528.21	437.68
528.38	433.00
528.55	425.98
528.72	404.91
528.89	409.59
529.07	428.32
529.24	423.64
529.41	500.87
529.58	407.25
529.75	402.57
529.92	470.45
530.09	425.98
530.26	416.62
530.43	379.17
530.60	430.66
530.77	454.06
530.94	400.23
531.11	451.72
531.28	437.68
531.46	358.10
531.63	360.44
531.80	379.17
531.97	395.55
532.14	367.46
532.31	463.43
532.48	444.70
532.65	390.87
532.82	409.59
532.99	374.49
533.16	442.36
533.33	421.30
533.50	395.55
533.67	397.89
533.84	477.47
534.01	402.57
534.18	381.51
534.35	428.32
534.52	383.85
534.69	397.89
534.86	407.25
535.03	348.74
535.20	346.40
535.37	442.36
535.54	393.21
535.71	421.30
535.88	367.46
536.05	447.04
536.22	447.04
536.38	421.30
536.55	454.06
536.72	479.81
536.89	418.96
537.06	379.17
537.23	395.55
537.40	341.72
537.57	369.80
537.74	437.68
537.91	395.55
538.08	388.53
538.25	503.22
538.42	369.80
538.59	358.10
538.75	407.25
538.92	404.91
539.09	437.68
539.26	454.06
539.43	454.06
539.60	348.74
539.77	447.04
539.94	388.53
540.11	447.04
540.28	449.38
540.44	489.17
540.61	402.57
540.78	372.15
540.95	409.59
541.12	456.40
541.29	416.62
541.46	486.83
541.62	428.32
541.79	421.30
541.96	461.09
542.13	393.21
542.30	379.17
542.47	430.66
542.63	421.30
542.80	411.93
542.97	468.11
543.14	395.55
543.31	428.32
543.48	435.34
543.64	470.45
543.81	479.81
543.98	444.70
544.15	390.87
544.32	379.17
544.48	353.42
544.65	430.66
544.82	414.27
544.99	365.12
545.16	440.02
545.32	376.83
545.49	479.81
545.66	444.70
545.83	404.91
546.00	477.47
546.16	428.32
546.33	463.43
546.50	402.57
546.67	447.04
546.83	376.83
547.00	454.06
547.17	411.93
547.34	409.59
547.50	414.27
547.67	416.62
547.84	503.22
548.00	465.77
548.17	423.64
548.34	437.68
548.51	435.34
548.67	425.98
548.84	374.49
549.01	397.89
549.18	440.02
549.34	365.12
549.51	428.32
549.68	444.70
549.84	475.13
550.01	456.40
550.18	484.49
550.34	458.74
550.51	374.49
550.68	395.55
550.84	397.89
551.01	402.57
551.18	510.24
551.34	393.21
551.51	416.62
551.68	433.00
551.84	421.30
552.01	416.62
552.18	416.62
552.34	433.00
552.51	472.79
552.68	428.32
552.84	496.19
553.01	468.11
553.18	407.25
553.34	390.87
553.51	442.36
553.67	402.57
553.84	428.32
554.01	435.34
554.17	470.45
554.34	423.64
554.51	433.00
554.67	461.09
554.84	440.02
555.00	395.55
555.17	444.70
555.33	386.19
555.50	479.81
555.67	451.72
555.83	418.96
556.00	369.80
556.16	540.66
556.33	461.09
556.50	374.49
556.66	393.21
556.83	348.74
556.99	344.06
557.16	411.93
557.32	407.25
557.49	407.25
557.65	360.44
557.82	402.57
557.98	433.00
558.15	322.99
558.32	402.57
558.48	409.59
558.65	482.15
558.81	395.55
558.98	379.17
559.14	402.57
559.31	428.32
559.47	437.68
559.64	468.11
559.80	472.79
559.97	456.40
560.13	451.72
560.30	365.12
560.46	383.85
560.63	393.21
560.79	369.80
560.96	416.62
561.12	440.02
561.29	451.72
561.45	430.66
561.61	451.72
561.78	463.43
561.94	470.45
562.11	416.62
562.27	400.23
562.44	393.21
562.60	437.68
562.77	381.51
562.93	479.81
563.10	440.02
563.26	451.72
563.42	433.00
563.59	386.19
563.75	440.02
563.92	461.09
564.08	386.19
564.24	421.30
564.41	456.40
564.57	430.66
564.74	423.64
564.90	433.00
565.07	496.19
565.23	379.17
565.39	386.19
565.56	402.57
565.72	461.09
565.88	430.66
566.05	475.13
566.21	409.59
566.38	351.08
566.54	442.36
566.70	468.11
566.87	397.89
567.03	423.64
567.19	493.85
567.36	479.81
567.52	477.47
567.68	465.77
567.85	444.70
568.01	470.45
568.17	409.59
568.34	425.98
568.50	421.30
568.66	433.00
568.83	479.81
568.99	351.08
569.15	472.79
569.32	437.68
569.48	402.57
569.64	404.91
569.81	454.06
569.97	430.66
570.13	496.19
570.30	416.62
570.46	381.51
570.62	416.62
570.78	395.55
570.95	388.53
571.11	507.90
571.27	470.45
571.43	372.15
571.60	416.62
571.76	402.57
571.92	423.64
572.09	386.19
572.25	379.17
572.41	411.93
572.57	369.80
572.74	463.43
572.90	416.62
573.06	404.91
573.22	428.32
573.38	458.74
573.55	491.51
573.71	421.30
573.87	400.23
574.03	374.49
574.20	444.70
574.36	458.74
574.52	308.95
574.68	437.68
574.84	451.72
575.01	433.00
575.17	447.04
575.33	428.32
575.49	512.58
575.65	416.62
575.82	507.90
575.98	440.02
576.14	456.40
576.30	409.59
576.46	447.04
576.62	428.32
576.79	400.23
576.95	456.40
577.11	411.93
577.27	351.08
577.43	386.19
577.59	425.98
577.75	383.85
577.92	418.96
578.08	454.06
578.24	383.85
578.40	498.53
578.56	444.70
578.72	486.83
578.88	437.68
579.04	402.57
579.21	397.89
579.37	435.34
579.53	463.43
579.69	414.27
579.85	411.93
580.01	465.77
580.17	397.89
580.33	386.19
580.49	346.40
580.65	411.93
580.82	372.15
580.98	407.25
581.14	421.30
581.30	379.17
581.46	418.96
581.62	447.04
581.78	414.27
581.94	376.83
582.10	353.42
582.26	430.66
582.42	360.44
582.58	409.59
582.74	379.17
582.90	477.47
583.06	423.64
583.22	451.72
583.38	397.89
583.54	374.49
583.70	414.27
583.86	454.06
584.02	482.15
584.18	409.59
584.34	411.93
584.50	458.74
584.66	353.42
584.82	374.49
584.98	430.66
585.14	397.89
585.30	430.66
585.46	414.27
585.62	379.17
585.78	416.62
585.94	461.09
586.10	444.70
586.26	468.11
586.42	461.09
586.58	463.43
586.74	454.06
586.90	442.36
587.06	404.91
587.22	404.91
587.38	367.46
587.54	379.17
587.70	430.66
587.86	428.32
588.02	372.15
588.18	425.98
588.34	395.55
588.49	416.62
588.65	376.83
588.81	430.66
588.97	386.19
589.13	411.93
589.29	416.62
589.45	409.59
589.61	423.64
589.77	409.59
589.93	404.91
590.08	421.30
590.24	388.53
590.40	409.59
590.56	409.59
590.72	477.47
590.88	421.30
591.04	409.59
591.20	472.79
591.35	491.51
591.51	369.80
591.67	362.78
591.83	425.98
591.99	425.98
592.15	425.98
592.31	425.98
592.46	468.11
592.62	367.46
592.78	330.02
592.94	332.36
593.10	348.74
593.26	397.89
593.41	437.68
593.57	451.72
593.73	348.74
593.89	402.57
594.05	444.70
594.20	454.06
594.36	421.30
594.52	458.74
594.68	409.59
594.84	390.87
594.99	470.45
595.15	470.45
595.31	463.43
595.47	496.19
595.62	376.83
595.78	379.17
595.94	383.85
596.10	447.04
596.25	386.19
596.41	411.93
596.57	395.55
596.73	451.72
596.88	416.62
597.04	428.32
597.20	416.62
597.36	484.49
597.51	400.23
597.67	393.21
597.83	470.45
597.99	414.27
598.14	470.45
598.30	482.15
598.46	421.30
598.61	390.87
598.77	493.85
598.93	456.40
599.09	404.91
599.24	390.87
599.40	468.11
599.56	362.78
599.71	486.83
599.87	433.00
600.03	358.10
600.18	479.81
600.34	409.59
600.50	353.42
600.65	421.30
600.81	468.11
600.97	411.93
601.12	411.93
601.28	442.36
601.44	400.23
601.59	505.56
601.75	411.93
601.91	400.23
602.06	416.62
602.22	540.66
602.37	440.02
602.53	461.09
602.69	491.51
602.84	440.02
603.00	383.85
603.16	425.98
603.31	390.87
603.47	423.64
603.62	475.13
603.78	433.00
603.94	430.66
604.09	437.68
604.25	416.62
604.40	454.06
604.56	447.04
604.71	411.93
604.87	404.91
605.03	402.57
605.18	421.30
605.34	479.81
605.49	433.00
605.65	475.13
605.80	428.32
605.96	423.64
606.12	447.04
606.27	423.64
606.43	433.00
606.58	444.70
606.74	409.59
606.89	409.59
607.05	447.04
607.20	451.72
607.36	397.89
607.51	433.00
607.67	414.27
607.82	353.42
607.98	554.71
608.13	411.93
608.29	423.64
608.44	414.27
608.60	351.08
608.75	512.58
608.91	395.55
609.06	465.77
609.22	362.78
609.37	423.64
609.53	404.91
609.68	447.04
609.84	374.49
609.99	425.98
610.15	376.83
