SpectraSuite Data File
++++++++++++++++++++++++++++++++++++
Date: Fri Oct 25 12:10:59 EDT 2013
User: price-jones
Dark Spectrum Present: No
Reference Spectrum Present: No
Number of Sampled Component Spectra: 1
Spectrometers: USB2+H05261
Integration Time (usec): 100000 (USB2+H05261)
Spectra Averaged: 1 (USB2+H05261)
Boxcar Smoothing: 0 (USB2+H05261)
Correct for Electrical Dark: No (USB2+H05261)
Strobe/Lamp Enabled: No (USB2+H05261)
Correct for Detector Non-linearity: No (USB2+H05261)
Correct for Stray Light: No (USB2+H05261)
Number of Pixels in Processed Spectrum: 2048
>>>>>Begin Processed Spectral Data<<<<<
365.73	332.36
365.92	332.36
366.12	332.36
366.32	271.50
366.52	283.20
366.72	280.86
366.91	259.80
367.11	180.22
367.31	234.05
367.51	196.60
367.70	266.82
367.90	212.99
368.10	180.22
368.30	294.91
368.49	266.82
368.69	245.76
368.89	224.69
369.09	276.18
369.28	205.97
369.48	273.84
369.68	278.52
369.87	322.99
370.07	341.72
370.27	311.29
370.47	304.27
370.66	297.25
370.86	341.72
371.06	250.44
371.25	423.64
371.45	308.95
371.65	353.42
371.84	437.68
372.04	322.99
372.24	353.42
372.44	372.15
372.63	386.19
372.83	447.04
373.03	360.44
373.22	519.60
373.42	430.66
373.62	376.83
373.81	383.85
374.01	425.98
374.21	397.89
374.40	362.78
374.60	454.06
374.79	454.06
374.99	421.30
375.19	418.96
375.38	360.44
375.58	454.06
375.78	374.49
375.97	423.64
376.17	486.83
376.37	435.34
376.56	440.02
376.76	386.19
376.95	341.72
377.15	414.27
377.35	407.25
377.54	383.85
377.74	367.46
377.93	416.62
378.13	491.51
378.33	397.89
378.52	472.79
378.72	463.43
378.91	451.72
379.11	416.62
379.31	376.83
379.50	379.17
379.70	468.11
379.89	341.72
380.09	379.17
380.28	383.85
380.48	388.53
380.68	330.02
380.87	393.21
381.07	369.80
381.26	383.85
381.46	376.83
381.65	416.62
381.85	376.83
382.04	414.27
382.24	393.21
382.43	414.27
382.63	456.40
382.83	461.09
383.02	400.23
383.22	496.19
383.41	369.80
383.61	409.59
383.80	477.47
384.00	351.08
384.19	416.62
384.39	421.30
384.58	372.15
384.78	416.62
384.97	390.87
385.17	397.89
385.36	369.80
385.56	425.98
385.75	418.96
385.95	379.17
386.14	425.98
386.34	404.91
386.53	414.27
386.72	341.72
386.92	402.57
387.11	404.91
387.31	458.74
387.50	369.80
387.70	402.57
387.89	400.23
388.09	330.02
388.28	372.15
388.48	451.72
388.67	423.64
388.86	402.57
389.06	447.04
389.25	376.83
389.45	465.77
389.64	304.27
389.84	433.00
390.03	355.76
390.22	372.15
390.42	388.53
390.61	435.34
390.81	458.74
391.00	386.19
391.19	433.00
391.39	407.25
391.58	433.00
391.78	362.78
391.97	395.55
392.16	365.12
392.36	440.02
392.55	376.83
392.75	322.99
392.94	358.10
393.13	390.87
393.33	404.91
393.52	423.64
393.71	400.23
393.91	376.83
394.10	397.89
394.29	320.65
394.49	407.25
394.68	397.89
394.88	386.19
395.07	374.49
395.26	407.25
395.46	449.38
395.65	402.57
395.84	454.06
396.04	456.40
396.23	500.87
396.42	341.72
396.62	379.17
396.81	449.38
397.00	390.87
397.19	402.57
397.39	442.36
397.58	381.51
397.77	433.00
397.97	411.93
398.16	299.59
398.35	423.64
398.55	425.98
398.74	491.51
398.93	451.72
399.12	341.72
399.32	456.40
399.51	411.93
399.70	447.04
399.90	395.55
400.09	383.85
400.28	477.47
400.47	404.91
400.67	442.36
400.86	383.85
401.05	416.62
401.24	437.68
401.44	414.27
401.63	444.70
401.82	456.40
402.01	416.62
402.21	470.45
402.40	388.53
402.59	461.09
402.78	465.77
402.97	388.53
403.17	372.15
403.36	435.34
403.55	465.77
403.74	447.04
403.93	425.98
404.13	407.25
404.32	435.34
404.51	397.89
404.70	437.68
404.89	360.44
405.09	463.43
405.28	397.89
405.47	376.83
405.66	468.11
405.85	376.83
406.05	414.27
406.24	355.76
406.43	475.13
406.62	425.98
406.81	472.79
407.00	400.23
407.20	404.91
407.39	369.80
407.58	393.21
407.77	320.65
407.96	374.49
408.15	428.32
408.34	437.68
408.54	339.38
408.73	458.74
408.92	423.64
409.11	393.21
409.30	404.91
409.49	433.00
409.68	451.72
409.87	353.42
410.07	330.02
410.26	390.87
410.45	360.44
410.64	395.55
410.83	425.98
411.02	397.89
411.21	416.62
411.40	423.64
411.59	395.55
411.78	362.78
411.98	365.12
412.17	372.15
412.36	386.19
412.55	365.12
412.74	458.74
412.93	451.72
413.12	388.53
413.31	416.62
413.50	383.85
413.69	472.79
413.88	442.36
414.07	477.47
414.26	367.46
414.45	379.17
414.64	447.04
414.83	318.31
415.02	451.72
415.22	442.36
415.41	456.40
415.60	421.30
415.79	402.57
415.98	418.96
416.17	463.43
416.36	339.38
416.55	376.83
416.74	416.62
416.93	454.06
417.12	386.19
417.31	381.51
417.50	461.09
417.69	472.79
417.88	425.98
418.07	362.78
418.26	397.89
418.45	386.19
418.64	425.98
418.83	458.74
419.02	477.47
419.21	414.27
419.39	477.47
419.58	397.89
419.77	414.27
419.96	454.06
420.15	475.13
420.34	404.91
420.53	407.25
420.72	461.09
420.91	484.49
421.10	418.96
421.29	442.36
421.48	440.02
421.67	442.36
421.86	390.87
422.05	423.64
422.24	421.30
422.43	414.27
422.61	428.32
422.80	400.23
422.99	411.93
423.18	442.36
423.37	430.66
423.56	454.06
423.75	409.59
423.94	397.89
424.13	407.25
424.32	334.70
424.50	390.87
424.69	454.06
424.88	395.55
425.07	367.46
425.26	447.04
425.45	491.51
425.64	442.36
425.83	430.66
426.01	428.32
426.20	435.34
426.39	411.93
426.58	355.76
426.77	440.02
426.96	379.17
427.15	463.43
427.33	425.98
427.52	379.17
427.71	421.30
427.90	416.62
428.09	388.53
428.28	383.85
428.46	397.89
428.65	393.21
428.84	383.85
429.03	390.87
429.22	433.00
429.40	414.27
429.59	444.70
429.78	454.06
429.97	376.83
430.16	397.89
430.34	341.72
430.53	332.36
430.72	465.77
430.91	407.25
431.10	381.51
431.28	383.85
431.47	418.96
431.66	374.49
431.85	379.17
432.03	421.30
432.22	447.04
432.41	442.36
432.60	379.17
432.79	409.59
432.97	442.36
433.16	374.49
433.35	376.83
433.54	433.00
433.72	381.51
433.91	411.93
434.10	416.62
434.28	449.38
434.47	402.57
434.66	423.64
434.85	449.38
435.03	367.46
435.22	489.17
435.41	447.04
435.59	430.66
435.78	395.55
435.97	318.31
436.16	463.43
436.34	402.57
436.53	409.59
436.72	416.62
436.90	447.04
437.09	404.91
437.28	437.68
437.46	496.19
437.65	386.19
437.84	433.00
438.02	374.49
438.21	414.27
438.40	404.91
438.58	430.66
438.77	390.87
438.96	402.57
439.14	442.36
439.33	379.17
439.52	379.17
439.70	437.68
439.89	393.21
440.08	425.98
440.26	444.70
440.45	416.62
440.63	386.19
440.82	411.93
441.01	365.12
441.19	423.64
441.38	395.55
441.57	402.57
441.75	414.27
441.94	442.36
442.12	463.43
442.31	414.27
442.50	454.06
442.68	402.57
442.87	393.21
443.05	397.89
443.24	409.59
443.43	435.34
443.61	489.17
443.80	388.53
443.98	470.45
444.17	402.57
444.35	383.85
444.54	386.19
444.73	393.21
444.91	454.06
445.10	388.53
445.28	409.59
445.47	444.70
445.65	477.47
445.84	372.15
446.02	444.70
446.21	379.17
446.39	374.49
446.58	388.53
446.77	423.64
446.95	379.17
447.14	433.00
447.32	430.66
447.51	435.34
447.69	456.40
447.88	435.34
448.06	447.04
448.25	395.55
448.43	423.64
448.62	451.72
448.80	458.74
448.99	386.19
449.17	393.21
449.36	407.25
449.54	456.40
449.73	414.27
449.91	449.38
450.10	367.46
450.28	477.47
450.46	503.22
450.65	409.59
450.83	482.15
451.02	461.09
451.20	430.66
451.39	496.19
451.57	395.55
451.76	332.36
451.94	435.34
452.13	484.49
452.31	433.00
452.49	372.15
452.68	482.15
452.86	418.96
453.05	407.25
453.23	381.51
453.42	369.80
453.60	358.10
453.78	449.38
453.97	372.15
454.15	437.68
454.34	395.55
454.52	402.57
454.70	440.02
454.89	358.10
455.07	381.51
455.26	388.53
455.44	397.89
455.62	393.21
455.81	407.25
455.99	402.57
456.17	395.55
456.36	414.27
456.54	383.85
456.73	409.59
456.91	404.91
457.09	465.77
457.28	437.68
457.46	479.81
457.64	475.13
457.83	367.46
458.01	430.66
458.19	465.77
458.38	351.08
458.56	409.59
458.74	360.44
458.93	430.66
459.11	458.74
459.29	411.93
459.48	433.00
459.66	423.64
459.84	404.91
460.03	451.72
460.21	404.91
460.39	454.06
460.57	430.66
460.76	425.98
460.94	390.87
461.12	491.51
461.31	477.47
461.49	440.02
461.67	376.83
461.85	418.96
462.04	440.02
462.22	580.45
462.40	355.76
462.59	463.43
462.77	395.55
462.95	404.91
463.13	346.40
463.32	428.32
463.50	369.80
463.68	463.43
463.86	489.17
464.05	416.62
464.23	418.96
464.41	430.66
464.59	390.87
464.78	404.91
464.96	393.21
465.14	400.23
465.32	344.06
465.50	444.70
465.69	400.23
465.87	400.23
466.05	468.11
466.23	376.83
466.41	421.30
466.60	437.68
466.78	383.85
466.96	379.17
467.14	404.91
467.32	402.57
467.51	498.53
467.69	430.66
467.87	482.15
468.05	430.66
468.23	449.38
468.41	407.25
468.60	404.91
468.78	451.72
468.96	451.72
469.14	489.17
469.32	320.65
469.50	444.70
469.69	442.36
469.87	451.72
470.05	430.66
470.23	430.66
470.41	388.53
470.59	379.17
470.77	449.38
470.95	421.30
471.14	500.87
471.32	437.68
471.50	407.25
471.68	433.00
471.86	456.40
472.04	484.49
472.22	330.02
472.40	442.36
472.58	465.77
472.77	390.87
472.95	416.62
473.13	416.62
473.31	376.83
473.49	379.17
473.67	437.68
473.85	433.00
474.03	423.64
474.21	421.30
474.39	414.27
474.57	454.06
474.75	390.87
474.93	334.70
475.12	404.91
475.30	433.00
475.48	402.57
475.66	390.87
475.84	367.46
476.02	418.96
476.20	470.45
476.38	414.27
476.56	486.83
476.74	411.93
476.92	388.53
477.10	390.87
477.28	489.17
477.46	400.23
477.64	442.36
477.82	346.40
478.00	348.74
478.18	402.57
478.36	379.17
478.54	362.78
478.72	383.85
478.90	416.62
479.08	348.74
479.26	409.59
479.44	407.25
479.62	440.02
479.80	416.62
479.98	437.68
480.16	390.87
480.34	383.85
480.52	397.89
480.70	374.49
480.88	425.98
481.06	458.74
481.24	444.70
481.41	395.55
481.59	456.40
481.77	369.80
481.95	386.19
482.13	475.13
482.31	369.80
482.49	341.72
482.67	437.68
482.85	379.17
483.03	344.06
483.21	369.80
483.39	416.62
483.57	397.89
483.74	482.15
483.92	409.59
484.10	395.55
484.28	470.45
484.46	407.25
484.64	440.02
484.82	386.19
485.00	397.89
485.18	503.22
485.35	454.06
485.53	440.02
485.71	503.22
485.89	353.42
486.07	447.04
486.25	409.59
486.43	482.15
486.61	418.96
486.78	458.74
486.96	416.62
487.14	341.72
487.32	505.56
487.50	421.30
487.68	461.09
487.85	409.59
488.03	423.64
488.21	383.85
488.39	397.89
488.57	383.85
488.75	390.87
488.92	498.53
489.10	482.15
489.28	479.81
489.46	372.15
489.64	374.49
489.81	402.57
489.99	451.72
490.17	461.09
490.35	484.49
490.53	379.17
490.70	381.51
490.88	407.25
491.06	388.53
491.24	386.19
491.41	416.62
491.59	360.44
491.77	404.91
491.95	369.80
492.13	440.02
492.30	404.91
492.48	409.59
492.66	428.32
492.84	360.44
493.01	369.80
493.19	411.93
493.37	447.04
493.54	468.11
493.72	367.46
493.90	470.45
494.08	414.27
494.25	428.32
494.43	369.80
494.61	376.83
494.79	383.85
494.96	362.78
495.14	454.06
495.32	414.27
495.49	479.81
495.67	383.85
495.85	395.55
496.02	379.17
496.20	442.36
496.38	376.83
496.55	454.06
496.73	425.98
496.91	416.62
497.09	407.25
497.26	465.77
497.44	395.55
497.62	402.57
497.79	458.74
497.97	428.32
498.14	362.78
498.32	411.93
498.50	418.96
498.67	425.98
498.85	362.78
499.03	425.98
499.20	444.70
499.38	437.68
499.56	404.91
499.73	465.77
499.91	397.89
500.08	390.87
500.26	400.23
500.44	388.53
500.61	503.22
500.79	416.62
500.97	404.91
501.14	423.64
501.32	402.57
501.49	404.91
501.67	442.36
501.84	388.53
502.02	440.02
502.20	526.62
502.37	416.62
502.55	435.34
502.72	444.70
502.90	482.15
503.07	456.40
503.25	358.10
503.43	339.38
503.60	397.89
503.78	369.80
503.95	430.66
504.13	341.72
504.30	353.42
504.48	430.66
504.65	454.06
504.83	451.72
505.01	437.68
505.18	381.51
505.36	418.96
505.53	444.70
505.71	484.49
505.88	489.17
506.06	458.74
506.23	369.80
506.41	444.70
506.58	458.74
506.76	437.68
506.93	470.45
507.11	435.34
507.28	421.30
507.46	395.55
507.63	482.15
507.81	369.80
507.98	456.40
508.16	397.89
508.33	423.64
508.50	407.25
508.68	369.80
508.85	456.40
509.03	423.64
509.20	397.89
509.38	468.11
509.55	386.19
509.73	416.62
509.90	465.77
510.08	339.38
510.25	458.74
510.42	491.51
510.60	409.59
510.77	437.68
510.95	437.68
511.12	393.21
511.30	390.87
511.47	383.85
511.64	477.47
511.82	447.04
511.99	388.53
512.17	489.17
512.34	472.79
512.51	447.04
512.69	437.68
512.86	456.40
513.04	367.46
513.21	395.55
513.38	447.04
513.56	444.70
513.73	444.70
513.90	489.17
514.08	456.40
514.25	404.91
514.43	463.43
514.60	374.49
514.77	400.23
514.95	409.59
515.12	407.25
515.29	395.55
515.47	365.12
515.64	367.46
515.81	397.89
515.99	407.25
516.16	409.59
516.33	475.13
516.51	463.43
516.68	414.27
516.85	425.98
517.03	369.80
517.20	433.00
517.37	440.02
517.54	409.59
517.72	334.70
517.89	390.87
518.06	428.32
518.24	484.49
518.41	503.22
518.58	449.38
518.75	442.36
518.93	433.00
519.10	475.13
519.27	430.66
519.45	430.66
519.62	414.27
519.79	365.12
519.96	339.38
520.14	374.49
520.31	425.98
520.48	383.85
520.65	355.76
520.83	440.02
521.00	442.36
521.17	456.40
521.34	353.42
521.52	383.85
521.69	442.36
521.86	433.00
522.03	367.46
522.20	369.80
522.38	402.57
522.55	477.47
522.72	390.87
522.89	369.80
523.07	503.22
523.24	444.70
523.41	505.56
523.58	379.17
523.75	395.55
523.92	402.57
524.10	500.87
524.27	421.30
524.44	514.92
524.61	433.00
524.78	360.44
524.96	423.64
525.13	411.93
525.30	461.09
525.47	383.85
525.64	430.66
525.81	411.93
525.98	428.32
526.16	374.49
526.33	421.30
526.50	404.91
526.67	442.36
526.84	334.70
527.01	400.23
527.18	416.62
527.36	465.77
527.53	418.96
527.70	428.32
527.87	479.81
528.04	454.06
528.21	411.93
528.38	442.36
528.55	510.24
528.72	435.34
528.89	479.81
529.07	395.55
529.24	409.59
529.41	414.27
529.58	409.59
529.75	468.11
529.92	461.09
530.09	423.64
530.26	383.85
530.43	416.62
530.60	442.36
530.77	400.23
530.94	458.74
531.11	390.87
531.28	351.08
531.46	402.57
531.63	428.32
531.80	386.19
531.97	383.85
532.14	379.17
532.31	435.34
532.48	444.70
532.65	440.02
532.82	409.59
532.99	428.32
533.16	383.85
533.33	428.32
533.50	404.91
533.67	353.42
533.84	428.32
534.01	400.23
534.18	404.91
534.35	449.38
534.52	358.10
534.69	456.40
534.86	465.77
535.03	444.70
535.20	451.72
535.37	404.91
535.54	435.34
535.71	341.72
535.88	449.38
536.05	407.25
536.22	409.59
536.38	367.46
536.55	451.72
536.72	470.45
536.89	362.78
537.06	435.34
537.23	388.53
537.40	327.68
537.57	400.23
537.74	463.43
537.91	514.92
538.08	482.15
538.25	493.85
538.42	358.10
538.59	402.57
538.75	430.66
538.92	421.30
539.09	442.36
539.26	337.04
539.43	461.09
539.60	332.36
539.77	407.25
539.94	379.17
540.11	430.66
540.28	430.66
540.44	477.47
540.61	454.06
540.78	395.55
540.95	435.34
541.12	433.00
541.29	346.40
541.46	510.24
541.62	421.30
541.79	418.96
541.96	397.89
542.13	390.87
542.30	379.17
542.47	367.46
542.63	449.38
542.80	458.74
542.97	428.32
543.14	379.17
543.31	449.38
543.48	402.57
543.64	447.04
543.81	433.00
543.98	435.34
544.15	351.08
544.32	365.12
544.48	355.76
544.65	454.06
544.82	393.21
544.99	414.27
545.16	416.62
545.32	411.93
545.49	400.23
545.66	430.66
545.83	362.78
546.00	400.23
546.16	423.64
546.33	433.00
546.50	451.72
546.67	411.93
546.83	456.40
547.00	442.36
547.17	416.62
547.34	374.49
547.50	433.00
547.67	397.89
547.84	442.36
548.00	468.11
548.17	437.68
548.34	442.36
548.51	430.66
548.67	400.23
548.84	395.55
549.01	418.96
549.18	465.77
549.34	435.34
549.51	383.85
549.68	440.02
549.84	456.40
550.01	468.11
550.18	601.52
550.34	496.19
550.51	498.53
550.68	456.40
550.84	414.27
551.01	421.30
551.18	451.72
551.34	435.34
551.51	409.59
551.68	393.21
551.84	411.93
552.01	383.85
552.18	411.93
552.34	383.85
552.51	421.30
552.68	395.55
552.84	390.87
553.01	376.83
553.18	344.06
553.34	444.70
553.51	400.23
553.67	447.04
553.84	421.30
554.01	447.04
554.17	447.04
554.34	414.27
554.51	407.25
554.67	390.87
554.84	400.23
555.00	409.59
555.17	393.21
555.33	500.87
555.50	510.24
555.67	482.15
555.83	402.57
556.00	507.90
556.16	564.07
556.33	477.47
556.50	358.10
556.66	418.96
556.83	423.64
556.99	372.15
557.16	468.11
557.32	411.93
557.49	395.55
557.65	409.59
557.82	479.81
557.98	451.72
558.15	404.91
558.32	414.27
558.48	372.15
558.65	447.04
558.81	386.19
558.98	425.98
559.14	414.27
559.31	433.00
559.47	397.89
559.64	400.23
559.80	451.72
559.97	407.25
560.13	423.64
560.30	362.78
560.46	390.87
560.63	346.40
560.79	435.34
560.96	383.85
561.12	397.89
561.29	503.22
561.45	475.13
561.61	449.38
561.78	449.38
561.94	409.59
562.11	442.36
562.27	372.15
562.44	386.19
562.60	428.32
562.77	411.93
562.93	416.62
563.10	428.32
563.26	407.25
563.42	423.64
563.59	428.32
563.75	383.85
563.92	383.85
564.08	393.21
564.24	493.85
564.41	449.38
564.57	402.57
564.74	400.23
564.90	486.83
565.07	367.46
565.23	465.77
565.39	397.89
565.56	451.72
565.72	409.59
565.88	447.04
566.05	393.21
566.21	379.17
566.38	440.02
566.54	383.85
566.70	433.00
566.87	491.51
567.03	444.70
567.19	346.40
567.36	444.70
567.52	423.64
567.68	433.00
567.85	514.92
568.01	386.19
568.17	428.32
568.34	442.36
568.50	383.85
568.66	416.62
568.83	489.17
568.99	379.17
569.15	379.17
569.32	365.12
569.48	402.57
569.64	435.34
569.81	388.53
569.97	433.00
570.13	400.23
570.30	395.55
570.46	444.70
570.62	374.49
570.78	407.25
570.95	411.93
571.11	437.68
571.27	454.06
571.43	397.89
571.60	348.74
571.76	388.53
571.92	472.79
572.09	421.30
572.25	409.59
572.41	451.72
572.57	447.04
572.74	428.32
572.90	418.96
573.06	400.23
573.22	416.62
573.38	437.68
573.55	465.77
573.71	440.02
573.87	402.57
574.03	404.91
574.20	409.59
574.36	400.23
574.52	381.51
574.68	423.64
574.84	374.49
575.01	442.36
575.17	447.04
575.33	367.46
575.49	496.19
575.65	470.45
575.82	428.32
575.98	388.53
576.14	285.55
576.30	407.25
576.46	369.80
576.62	465.77
576.79	451.72
576.95	447.04
577.11	486.83
577.27	395.55
577.43	379.17
577.59	482.15
577.75	416.62
577.92	451.72
578.08	411.93
578.24	390.87
578.40	393.21
578.56	383.85
578.72	423.64
578.88	435.34
579.04	430.66
579.21	433.00
579.37	425.98
579.53	365.12
579.69	407.25
579.85	411.93
580.01	449.38
580.17	397.89
580.33	493.85
580.49	435.34
580.65	374.49
580.82	404.91
580.98	418.96
581.14	393.21
581.30	463.43
581.46	367.46
581.62	456.40
581.78	381.51
581.94	477.47
582.10	416.62
582.26	458.74
582.42	489.17
582.58	374.49
582.74	386.19
582.90	395.55
583.06	461.09
583.22	400.23
583.38	407.25
583.54	411.93
583.70	395.55
583.86	425.98
584.02	517.26
584.18	447.04
584.34	423.64
584.50	458.74
584.66	383.85
584.82	379.17
584.98	465.77
585.14	458.74
585.30	416.62
585.46	458.74
585.62	367.46
585.78	416.62
585.94	355.76
586.10	365.12
586.26	470.45
586.42	447.04
586.58	386.19
586.74	442.36
586.90	449.38
587.06	454.06
587.22	376.83
587.38	400.23
587.54	388.53
587.70	440.02
587.86	414.27
588.02	369.80
588.18	381.51
588.34	369.80
588.49	388.53
588.65	454.06
588.81	486.83
588.97	362.78
589.13	393.21
589.29	416.62
589.45	433.00
589.61	456.40
589.77	449.38
589.93	447.04
590.08	411.93
590.24	435.34
590.40	395.55
590.56	428.32
590.72	374.49
590.88	463.43
591.04	449.38
591.20	440.02
591.35	402.57
591.51	411.93
591.67	461.09
591.83	411.93
591.99	440.02
592.15	449.38
592.31	416.62
592.46	456.40
592.62	444.70
592.78	400.23
592.94	451.72
593.10	388.53
593.26	400.23
593.41	411.93
593.57	418.96
593.73	500.87
593.89	402.57
594.05	390.87
594.20	365.12
594.36	437.68
594.52	376.83
594.68	386.19
594.84	433.00
594.99	463.43
595.15	423.64
595.31	470.45
595.47	458.74
595.62	395.55
595.78	423.64
595.94	369.80
596.10	521.94
596.25	381.51
596.41	535.98
596.57	472.79
596.73	294.91
596.88	463.43
597.04	447.04
597.20	433.00
597.36	470.45
597.51	468.11
597.67	444.70
597.83	463.43
597.99	444.70
598.14	414.27
598.30	437.68
598.46	479.81
598.61	465.77
598.77	404.91
598.93	393.21
599.09	498.53
599.24	447.04
599.40	383.85
599.56	428.32
599.71	451.72
599.87	449.38
600.03	381.51
600.18	402.57
600.34	418.96
600.50	435.34
600.65	388.53
600.81	435.34
600.97	418.96
601.12	400.23
601.28	404.91
601.44	409.59
601.59	463.43
601.75	418.96
601.91	376.83
602.06	433.00
602.22	447.04
602.37	409.59
602.53	358.10
602.69	451.72
602.84	390.87
603.00	449.38
603.16	418.96
603.31	500.87
603.47	533.64
603.62	400.23
603.78	386.19
603.94	390.87
604.09	451.72
604.25	498.53
604.40	463.43
604.56	372.15
604.71	381.51
604.87	362.78
605.03	423.64
605.18	465.77
605.34	433.00
605.49	430.66
605.65	428.32
605.80	423.64
605.96	346.40
606.12	423.64
606.27	423.64
606.43	386.19
606.58	486.83
606.74	402.57
606.89	383.85
607.05	404.91
607.20	381.51
607.36	433.00
607.51	386.19
607.67	468.11
607.82	444.70
607.98	416.62
608.13	407.25
608.29	477.47
608.44	465.77
608.60	463.43
608.75	402.57
608.91	461.09
609.06	458.74
609.22	475.13
609.37	404.91
609.53	386.19
609.68	435.34
609.84	444.70
609.99	435.34
610.15	482.15
