SpectraSuite Data File
++++++++++++++++++++++++++++++++++++
Date: Fri Oct 25 12:10:29 EDT 2013
User: price-jones
Dark Spectrum Present: No
Reference Spectrum Present: No
Number of Sampled Component Spectra: 1
Spectrometers: USB2+H05261
Integration Time (usec): 100000 (USB2+H05261)
Spectra Averaged: 1 (USB2+H05261)
Boxcar Smoothing: 0 (USB2+H05261)
Correct for Electrical Dark: No (USB2+H05261)
Strobe/Lamp Enabled: No (USB2+H05261)
Correct for Detector Non-linearity: No (USB2+H05261)
Correct for Stray Light: No (USB2+H05261)
Number of Pixels in Processed Spectrum: 2048
>>>>>Begin Processed Spectral Data<<<<<
365.73	372.15
365.92	372.15
366.12	372.15
366.32	257.46
366.52	196.60
366.72	248.10
366.91	241.08
367.11	217.67
367.31	248.10
367.51	252.78
367.70	189.58
367.90	276.18
368.10	229.37
368.30	294.91
368.49	276.18
368.69	229.37
368.89	217.67
369.09	231.71
369.28	276.18
369.48	299.59
369.68	311.29
369.87	304.27
370.07	306.61
370.27	362.78
370.47	273.84
370.66	341.72
370.86	376.83
371.06	383.85
371.25	369.80
371.45	362.78
371.65	322.99
371.84	393.21
372.04	383.85
372.24	381.51
372.44	372.15
372.63	325.33
372.83	402.57
373.03	425.98
373.22	379.17
373.42	397.89
373.62	402.57
373.81	393.21
374.01	428.32
374.21	414.27
374.40	418.96
374.60	414.27
374.79	386.19
374.99	386.19
375.19	425.98
375.38	465.77
375.58	362.78
375.78	433.00
375.97	451.72
376.17	479.81
376.37	362.78
376.56	430.66
376.76	454.06
376.95	416.62
377.15	423.64
377.35	407.25
377.54	442.36
377.74	456.40
377.93	376.83
378.13	425.98
378.33	477.47
378.52	416.62
378.72	386.19
378.91	465.77
379.11	369.80
379.31	444.70
379.50	440.02
379.70	407.25
379.89	470.45
380.09	351.08
380.28	388.53
380.48	388.53
380.68	449.38
380.87	372.15
381.07	372.15
381.26	334.70
381.46	397.89
381.65	334.70
381.85	362.78
382.04	425.98
382.24	402.57
382.43	369.80
382.63	421.30
382.83	376.83
383.02	477.47
383.22	423.64
383.41	388.53
383.61	414.27
383.80	407.25
384.00	390.87
384.19	409.59
384.39	407.25
384.58	444.70
384.78	379.17
384.97	374.49
385.17	379.17
385.36	397.89
385.56	402.57
385.75	409.59
385.95	395.55
386.14	447.04
386.34	411.93
386.53	442.36
386.72	381.51
386.92	449.38
387.11	358.10
387.31	428.32
387.50	444.70
387.70	416.62
387.89	360.44
388.09	418.96
388.28	374.49
388.48	418.96
388.67	332.36
388.86	388.53
389.06	325.33
389.25	337.04
389.45	451.72
389.64	372.15
389.84	376.83
390.03	402.57
390.22	376.83
390.42	355.76
390.61	484.49
390.81	393.21
391.00	358.10
391.19	421.30
391.39	428.32
391.58	461.09
391.78	381.51
391.97	440.02
392.16	437.68
392.36	425.98
392.55	388.53
392.75	416.62
392.94	454.06
393.13	435.34
393.33	493.85
393.52	388.53
393.71	374.49
393.91	390.87
394.10	430.66
394.29	388.53
394.49	400.23
394.68	421.30
394.88	430.66
395.07	416.62
395.26	440.02
395.46	358.10
395.65	423.64
395.84	489.17
396.04	468.11
396.23	418.96
396.42	381.51
396.62	433.00
396.81	468.11
397.00	416.62
397.19	435.34
397.39	440.02
397.58	484.49
397.77	383.85
397.97	449.38
398.16	355.76
398.35	454.06
398.55	397.89
398.74	442.36
398.93	454.06
399.12	407.25
399.32	353.42
399.51	362.78
399.70	449.38
399.90	388.53
400.09	409.59
400.28	414.27
400.47	451.72
400.67	344.06
400.86	435.34
401.05	418.96
401.24	470.45
401.44	407.25
401.63	465.77
401.82	430.66
402.01	376.83
402.21	435.34
402.40	423.64
402.59	479.81
402.78	365.12
402.97	433.00
403.17	447.04
403.36	414.27
403.55	393.21
403.74	414.27
403.93	397.89
404.13	393.21
404.32	416.62
404.51	486.83
404.70	430.66
404.89	369.80
405.09	418.96
405.28	383.85
405.47	430.66
405.66	477.47
405.85	442.36
406.05	449.38
406.24	421.30
406.43	367.46
406.62	440.02
406.81	463.43
407.00	477.47
407.20	400.23
407.39	327.68
407.58	423.64
407.77	428.32
407.96	362.78
408.15	390.87
408.34	367.46
408.54	437.68
408.73	402.57
408.92	418.96
409.11	390.87
409.30	442.36
409.49	433.00
409.68	447.04
409.87	472.79
410.07	451.72
410.26	465.77
410.45	395.55
410.64	400.23
410.83	409.59
411.02	423.64
411.21	430.66
411.40	416.62
411.59	407.25
411.78	407.25
411.98	346.40
412.17	390.87
412.36	449.38
412.55	447.04
412.74	423.64
412.93	442.36
413.12	416.62
413.31	435.34
413.50	493.85
413.69	465.77
413.88	386.19
414.07	416.62
414.26	388.53
414.45	367.46
414.64	449.38
414.83	454.06
415.02	444.70
415.22	411.93
415.41	369.80
415.60	407.25
415.79	423.64
415.98	337.04
416.17	404.91
416.36	421.30
416.55	437.68
416.74	400.23
416.93	451.72
417.12	421.30
417.31	409.59
417.50	402.57
417.69	461.09
417.88	423.64
418.07	430.66
418.26	468.11
418.45	435.34
418.64	423.64
418.83	362.78
419.02	395.55
419.21	407.25
419.39	397.89
419.58	435.34
419.77	381.51
419.96	500.87
420.15	470.45
420.34	369.80
420.53	351.08
420.72	433.00
420.91	444.70
421.10	458.74
421.29	418.96
421.48	355.76
421.67	437.68
421.86	381.51
422.05	404.91
422.24	407.25
422.43	470.45
422.61	447.04
422.80	393.21
422.99	430.66
423.18	339.38
423.37	477.47
423.56	404.91
423.75	454.06
423.94	379.17
424.13	425.98
424.32	386.19
424.50	393.21
424.69	437.68
424.88	418.96
425.07	360.44
425.26	393.21
425.45	458.74
425.64	416.62
425.83	489.17
426.01	430.66
426.20	388.53
426.39	383.85
426.58	447.04
426.77	463.43
426.96	528.96
427.15	451.72
427.33	346.40
427.52	440.02
427.71	383.85
427.90	395.55
428.09	425.98
428.28	395.55
428.46	355.76
428.65	440.02
428.84	383.85
429.03	397.89
429.22	425.98
429.40	425.98
429.59	395.55
429.78	346.40
429.97	374.49
430.16	425.98
430.34	381.51
430.53	402.57
430.72	418.96
430.91	390.87
431.10	440.02
431.28	435.34
431.47	362.78
431.66	498.53
431.85	437.68
432.03	447.04
432.22	465.77
432.41	386.19
432.60	470.45
432.79	386.19
432.97	423.64
433.16	344.06
433.35	362.78
433.54	430.66
433.72	367.46
433.91	442.36
434.10	411.93
434.28	449.38
434.47	367.46
434.66	414.27
434.85	416.62
435.03	369.80
435.22	421.30
435.41	351.08
435.59	440.02
435.78	442.36
435.97	421.30
436.16	365.12
436.34	428.32
436.53	454.06
436.72	409.59
436.90	407.25
437.09	421.30
437.28	374.49
437.46	449.38
437.65	428.32
437.84	449.38
438.02	433.00
438.21	395.55
438.40	425.98
438.58	386.19
438.77	416.62
438.96	421.30
439.14	433.00
439.33	425.98
439.52	442.36
439.70	433.00
439.89	475.13
440.08	367.46
440.26	435.34
440.45	468.11
440.63	404.91
440.82	409.59
441.01	379.17
441.19	402.57
441.38	440.02
441.57	423.64
441.75	442.36
441.94	393.21
442.12	367.46
442.31	355.76
442.50	390.87
442.68	433.00
442.87	365.12
443.05	461.09
443.24	362.78
443.43	397.89
443.61	404.91
443.80	435.34
443.98	418.96
444.17	461.09
444.35	358.10
444.54	449.38
444.73	383.85
444.91	482.15
445.10	404.91
445.28	404.91
445.47	409.59
445.65	409.59
445.84	395.55
446.02	454.06
446.21	463.43
446.39	344.06
446.58	374.49
446.77	416.62
446.95	454.06
447.14	402.57
447.32	479.81
447.51	418.96
447.69	468.11
447.88	325.33
448.06	475.13
448.25	437.68
448.43	348.74
448.62	365.12
448.80	407.25
448.99	451.72
449.17	369.80
449.36	414.27
449.54	447.04
449.73	400.23
449.91	428.32
450.10	404.91
450.28	411.93
450.46	472.79
450.65	358.10
450.83	444.70
451.02	372.15
451.20	404.91
451.39	437.68
451.57	454.06
451.76	386.19
451.94	447.04
452.13	442.36
452.31	367.46
452.49	451.72
452.68	365.12
452.86	369.80
453.05	444.70
453.23	416.62
453.42	407.25
453.60	337.04
453.78	444.70
453.97	440.02
454.15	351.08
454.34	449.38
454.52	404.91
454.70	428.32
454.89	393.21
455.07	456.40
455.26	475.13
455.44	402.57
455.62	372.15
455.81	407.25
455.99	400.23
456.17	437.68
456.36	416.62
456.54	449.38
456.73	440.02
456.91	358.10
457.09	393.21
457.28	423.64
457.46	418.96
457.64	454.06
457.83	507.90
458.01	360.44
458.19	440.02
458.38	470.45
458.56	512.58
458.74	388.53
458.93	468.11
459.11	428.32
459.29	388.53
459.48	430.66
459.66	440.02
459.84	444.70
460.03	514.92
460.21	458.74
460.39	360.44
460.57	440.02
460.76	395.55
460.94	451.72
461.12	470.45
461.31	388.53
461.49	423.64
461.67	397.89
461.85	465.77
462.04	393.21
462.22	725.57
462.40	372.15
462.59	395.55
462.77	404.91
462.95	404.91
463.13	393.21
463.32	383.85
463.50	449.38
463.68	409.59
463.86	407.25
464.05	386.19
464.23	409.59
464.41	397.89
464.59	397.89
464.78	433.00
464.96	404.91
465.14	369.80
465.32	339.38
465.50	486.83
465.69	451.72
465.87	395.55
466.05	414.27
466.23	339.38
466.41	372.15
466.60	367.46
466.78	425.98
466.96	489.17
467.14	421.30
467.32	397.89
467.51	482.15
467.69	388.53
467.87	468.11
468.05	435.34
468.23	475.13
468.41	376.83
468.60	416.62
468.78	435.34
468.96	425.98
469.14	404.91
469.32	402.57
469.50	383.85
469.69	461.09
469.87	383.85
470.05	456.40
470.23	444.70
470.41	388.53
470.59	402.57
470.77	472.79
470.95	423.64
471.14	409.59
471.32	372.15
471.50	411.93
471.68	397.89
471.86	425.98
472.04	379.17
472.22	440.02
472.40	433.00
472.58	351.08
472.77	383.85
472.95	407.25
473.13	472.79
473.31	433.00
473.49	430.66
473.67	353.42
473.85	430.66
474.03	397.89
474.21	386.19
474.39	470.45
474.57	468.11
474.75	433.00
474.93	444.70
475.12	383.85
475.30	409.59
475.48	428.32
475.66	383.85
475.84	416.62
476.02	440.02
476.20	430.66
476.38	372.15
476.56	433.00
476.74	358.10
476.92	400.23
477.10	465.77
477.28	416.62
477.46	447.04
477.64	395.55
477.82	451.72
478.00	372.15
478.18	404.91
478.36	449.38
478.54	418.96
478.72	348.74
478.90	395.55
479.08	468.11
479.26	348.74
479.44	421.30
479.62	418.96
479.80	428.32
479.98	376.83
480.16	409.59
480.34	444.70
480.52	381.51
480.70	435.34
480.88	402.57
481.06	362.78
481.24	339.38
481.41	386.19
481.59	430.66
481.77	430.66
481.95	397.89
482.13	440.02
482.31	503.22
482.49	414.27
482.67	435.34
482.85	440.02
483.03	400.23
483.21	435.34
483.39	447.04
483.57	411.93
483.74	435.34
483.92	369.80
484.10	451.72
484.28	482.15
484.46	500.87
484.64	372.15
484.82	388.53
485.00	383.85
485.18	428.32
485.35	404.91
485.53	393.21
485.71	433.00
485.89	461.09
486.07	421.30
486.25	437.68
486.43	451.72
486.61	449.38
486.78	465.77
486.96	444.70
487.14	365.12
487.32	346.40
487.50	355.76
487.68	421.30
487.85	442.36
488.03	386.19
488.21	421.30
488.39	397.89
488.57	428.32
488.75	390.87
488.92	545.34
489.10	500.87
489.28	414.27
489.46	409.59
489.64	353.42
489.81	425.98
489.99	390.87
490.17	444.70
490.35	421.30
490.53	348.74
490.70	486.83
490.88	425.98
491.06	344.06
491.24	440.02
491.41	414.27
491.59	411.93
491.77	381.51
491.95	418.96
492.13	372.15
492.30	395.55
492.48	402.57
492.66	421.30
492.84	393.21
493.01	447.04
493.19	351.08
493.37	458.74
493.54	397.89
493.72	437.68
493.90	430.66
494.08	407.25
494.25	479.81
494.43	428.32
494.61	372.15
494.79	423.64
494.96	393.21
495.14	491.51
495.32	418.96
495.49	451.72
495.67	383.85
495.85	386.19
496.02	407.25
496.20	447.04
496.38	393.21
496.55	440.02
496.73	470.45
496.91	395.55
497.09	418.96
497.26	365.12
497.44	472.79
497.62	402.57
497.79	418.96
497.97	395.55
498.14	407.25
498.32	409.59
498.50	433.00
498.67	447.04
498.85	409.59
499.03	367.46
499.20	447.04
499.38	414.27
499.56	433.00
499.73	435.34
499.91	423.64
500.08	489.17
500.26	425.98
500.44	395.55
500.61	374.49
500.79	348.74
500.97	472.79
501.14	512.58
501.32	400.23
501.49	484.49
501.67	442.36
501.84	383.85
502.02	421.30
502.20	461.09
502.37	458.74
502.55	397.89
502.72	435.34
502.90	418.96
503.07	376.83
503.25	393.21
503.43	367.46
503.60	409.59
503.78	430.66
503.95	435.34
504.13	404.91
504.30	477.47
504.48	430.66
504.65	472.79
504.83	470.45
505.01	447.04
505.18	418.96
505.36	386.19
505.53	395.55
505.71	397.89
505.88	465.77
506.06	411.93
506.23	437.68
506.41	468.11
506.58	425.98
506.76	456.40
506.93	395.55
507.11	463.43
507.28	395.55
507.46	468.11
507.63	437.68
507.81	442.36
507.98	386.19
508.16	433.00
508.33	393.21
508.50	358.10
508.68	409.59
508.85	454.06
509.03	449.38
509.20	458.74
509.38	393.21
509.55	376.83
509.73	437.68
509.90	386.19
510.08	414.27
510.25	458.74
510.42	395.55
510.60	376.83
510.77	374.49
510.95	372.15
511.12	400.23
511.30	379.17
511.47	461.09
511.64	376.83
511.82	428.32
511.99	416.62
512.17	437.68
512.34	442.36
512.51	477.47
512.69	444.70
512.86	468.11
513.04	416.62
513.21	416.62
513.38	454.06
513.56	447.04
513.73	414.27
513.90	425.98
514.08	365.12
514.25	414.27
514.43	430.66
514.60	437.68
514.77	402.57
514.95	411.93
515.12	367.46
515.29	447.04
515.47	414.27
515.64	435.34
515.81	395.55
515.99	435.34
516.16	390.87
516.33	449.38
516.51	437.68
516.68	381.51
516.85	400.23
517.03	451.72
517.20	425.98
517.37	440.02
517.54	435.34
517.72	437.68
517.89	374.49
518.06	395.55
518.24	451.72
518.41	491.51
518.58	456.40
518.75	430.66
518.93	418.96
519.10	393.21
519.27	404.91
519.45	332.36
519.62	397.89
519.79	428.32
519.96	388.53
520.14	454.06
520.31	437.68
520.48	374.49
520.65	416.62
520.83	423.64
521.00	395.55
521.17	372.15
521.34	447.04
521.52	393.21
521.69	344.06
521.86	421.30
522.03	411.93
522.20	440.02
522.38	447.04
522.55	339.38
522.72	416.62
522.89	383.85
523.07	435.34
523.24	383.85
523.41	379.17
523.58	372.15
523.75	374.49
523.92	369.80
524.10	440.02
524.27	449.38
524.44	430.66
524.61	498.53
524.78	470.45
524.96	393.21
525.13	440.02
525.30	402.57
525.47	456.40
525.64	435.34
525.81	409.59
525.98	493.85
526.16	402.57
526.33	456.40
526.50	444.70
526.67	381.51
526.84	456.40
527.01	428.32
527.18	404.91
527.36	341.72
527.53	379.17
527.70	472.79
527.87	397.89
528.04	388.53
528.21	433.00
528.38	416.62
528.55	489.17
528.72	418.96
528.89	411.93
529.07	334.70
529.24	374.49
529.41	425.98
529.58	414.27
529.75	430.66
529.92	414.27
530.09	463.43
530.26	393.21
530.43	393.21
530.60	411.93
530.77	423.64
530.94	428.32
531.11	409.59
531.28	374.49
531.46	409.59
531.63	475.13
531.80	362.78
531.97	440.02
532.14	479.81
532.31	393.21
532.48	414.27
532.65	423.64
532.82	435.34
532.99	404.91
533.16	369.80
533.33	437.68
533.50	402.57
533.67	411.93
533.84	421.30
534.01	444.70
534.18	411.93
534.35	383.85
534.52	435.34
534.69	374.49
534.86	444.70
535.03	451.72
535.20	435.34
535.37	428.32
535.54	407.25
535.71	425.98
535.88	486.83
536.05	458.74
536.22	442.36
536.38	433.00
536.55	411.93
536.72	486.83
536.89	463.43
537.06	402.57
537.23	433.00
537.40	409.59
537.57	388.53
537.74	440.02
537.91	435.34
538.08	416.62
538.25	454.06
538.42	416.62
538.59	423.64
538.75	423.64
538.92	496.19
539.09	456.40
539.26	465.77
539.43	444.70
539.60	449.38
539.77	454.06
539.94	489.17
540.11	486.83
540.28	360.44
540.44	418.96
540.61	440.02
540.78	404.91
540.95	353.42
541.12	482.15
541.29	456.40
541.46	416.62
541.62	512.58
541.79	477.47
541.96	365.12
542.13	320.65
542.30	416.62
542.47	458.74
542.63	461.09
542.80	425.98
542.97	486.83
543.14	339.38
543.31	428.32
543.48	397.89
543.64	390.87
543.81	512.58
543.98	435.34
544.15	428.32
544.32	409.59
544.48	360.44
544.65	442.36
544.82	400.23
544.99	503.22
545.16	418.96
545.32	444.70
545.49	430.66
545.66	358.10
545.83	388.53
546.00	444.70
546.16	444.70
546.33	430.66
546.50	358.10
546.67	465.77
546.83	411.93
547.00	451.72
547.17	507.90
547.34	341.72
547.50	365.12
547.67	411.93
547.84	437.68
548.00	433.00
548.17	444.70
548.34	442.36
548.51	400.23
548.67	407.25
548.84	482.15
549.01	383.85
549.18	437.68
549.34	404.91
549.51	404.91
549.68	500.87
549.84	325.33
550.01	407.25
550.18	519.60
550.34	451.72
550.51	388.53
550.68	433.00
550.84	390.87
551.01	416.62
551.18	428.32
551.34	437.68
551.51	444.70
551.68	472.79
551.84	407.25
552.01	397.89
552.18	386.19
552.34	369.80
552.51	437.68
552.68	374.49
552.84	451.72
553.01	437.68
553.18	484.49
553.34	379.17
553.51	402.57
553.67	437.68
553.84	428.32
554.01	409.59
554.17	451.72
554.34	393.21
554.51	458.74
554.67	407.25
554.84	433.00
555.00	461.09
555.17	428.32
555.33	425.98
555.50	414.27
555.67	421.30
555.83	430.66
556.00	433.00
556.16	557.05
556.33	428.32
556.50	435.34
556.66	451.72
556.83	444.70
556.99	402.57
557.16	404.91
557.32	484.49
557.49	425.98
557.65	372.15
557.82	383.85
557.98	531.30
558.15	423.64
558.32	372.15
558.48	428.32
558.65	423.64
558.81	521.94
558.98	376.83
559.14	421.30
559.31	416.62
559.47	395.55
559.64	395.55
559.80	390.87
559.97	367.46
560.13	442.36
560.30	372.15
560.46	430.66
560.63	393.21
560.79	454.06
560.96	407.25
561.12	402.57
561.29	421.30
561.45	477.47
561.61	463.43
561.78	482.15
561.94	409.59
562.11	390.87
562.27	449.38
562.44	418.96
562.60	411.93
562.77	409.59
562.93	458.74
563.10	409.59
563.26	421.30
563.42	421.30
563.59	430.66
563.75	386.19
563.92	425.98
564.08	360.44
564.24	418.96
564.41	475.13
564.57	383.85
564.74	383.85
564.90	454.06
565.07	409.59
565.23	372.15
565.39	397.89
565.56	397.89
565.72	404.91
565.88	402.57
566.05	404.91
566.21	395.55
566.38	440.02
566.54	503.22
566.70	388.53
566.87	369.80
567.03	397.89
567.19	416.62
567.36	407.25
567.52	435.34
567.68	463.43
567.85	416.62
568.01	423.64
568.17	397.89
568.34	463.43
568.50	449.38
568.66	395.55
568.83	463.43
568.99	383.85
569.15	437.68
569.32	386.19
569.48	423.64
569.64	376.83
569.81	362.78
569.97	416.62
570.13	416.62
570.30	482.15
570.46	451.72
570.62	423.64
570.78	355.76
570.95	411.93
571.11	449.38
571.27	449.38
571.43	421.30
571.60	414.27
571.76	397.89
571.92	437.68
572.09	423.64
572.25	393.21
572.41	409.59
572.57	479.81
572.74	456.40
572.90	430.66
573.06	472.79
573.22	463.43
573.38	418.96
573.55	437.68
573.71	425.98
573.87	372.15
574.03	447.04
574.20	409.59
574.36	437.68
574.52	430.66
574.68	477.47
574.84	383.85
575.01	381.51
575.17	479.81
575.33	411.93
575.49	447.04
575.65	421.30
575.82	463.43
575.98	524.28
576.14	433.00
576.30	409.59
576.46	437.68
576.62	390.87
576.79	437.68
576.95	374.49
577.11	465.77
577.27	383.85
577.43	437.68
577.59	451.72
577.75	475.13
577.92	390.87
578.08	402.57
578.24	421.30
578.40	423.64
578.56	348.74
578.72	414.27
578.88	407.25
579.04	440.02
579.21	362.78
579.37	383.85
579.53	386.19
579.69	421.30
579.85	409.59
580.01	435.34
580.17	400.23
580.33	402.57
580.49	360.44
580.65	411.93
580.82	376.83
580.98	379.17
581.14	397.89
581.30	454.06
581.46	411.93
581.62	451.72
581.78	386.19
581.94	341.72
582.10	374.49
582.26	395.55
582.42	428.32
582.58	475.13
582.74	461.09
582.90	461.09
583.06	407.25
583.22	383.85
583.38	404.91
583.54	376.83
583.70	468.11
583.86	444.70
584.02	365.12
584.18	458.74
584.34	369.80
584.50	449.38
584.66	421.30
584.82	414.27
584.98	393.21
585.14	362.78
585.30	484.49
585.46	425.98
585.62	402.57
585.78	416.62
585.94	468.11
586.10	463.43
586.26	444.70
586.42	468.11
586.58	409.59
586.74	358.10
586.90	496.19
587.06	386.19
587.22	372.15
587.38	407.25
587.54	404.91
587.70	428.32
587.86	447.04
588.02	444.70
588.18	397.89
588.34	397.89
588.49	374.49
588.65	414.27
588.81	360.44
588.97	416.62
589.13	496.19
589.29	397.89
589.45	454.06
589.61	404.91
589.77	425.98
589.93	416.62
590.08	444.70
590.24	512.58
590.40	414.27
590.56	430.66
590.72	428.32
590.88	379.17
591.04	416.62
591.20	430.66
591.35	472.79
591.51	409.59
591.67	421.30
591.83	390.87
591.99	393.21
592.15	482.15
592.31	440.02
592.46	351.08
592.62	365.12
592.78	397.89
592.94	337.04
593.10	388.53
593.26	344.06
593.41	475.13
593.57	514.92
593.73	395.55
593.89	496.19
594.05	402.57
594.20	381.51
594.36	409.59
594.52	407.25
594.68	428.32
594.84	416.62
594.99	440.02
595.15	395.55
595.31	451.72
595.47	430.66
595.62	374.49
595.78	449.38
595.94	472.79
596.10	435.34
596.25	388.53
596.41	468.11
596.57	393.21
596.73	400.23
596.88	365.12
597.04	404.91
597.20	416.62
597.36	454.06
597.51	442.36
597.67	423.64
597.83	325.33
597.99	475.13
598.14	423.64
598.30	440.02
598.46	430.66
598.61	442.36
598.77	437.68
598.93	402.57
599.09	414.27
599.24	477.47
599.40	433.00
599.56	386.19
599.71	397.89
599.87	365.12
600.03	404.91
600.18	428.32
600.34	414.27
600.50	428.32
600.65	367.46
600.81	435.34
600.97	390.87
601.12	360.44
601.28	407.25
601.44	411.93
601.59	430.66
601.75	451.72
601.91	365.12
602.06	407.25
602.22	456.40
602.37	458.74
602.53	411.93
602.69	463.43
602.84	395.55
603.00	475.13
603.16	470.45
603.31	430.66
603.47	409.59
603.62	362.78
603.78	472.79
603.94	444.70
604.09	479.81
604.25	402.57
604.40	463.43
604.56	402.57
604.71	381.51
604.87	444.70
605.03	325.33
605.18	440.02
605.34	451.72
605.49	472.79
605.65	411.93
605.80	367.46
605.96	512.58
606.12	416.62
606.27	400.23
606.43	454.06
606.58	430.66
606.74	341.72
606.89	365.12
607.05	369.80
607.20	404.91
607.36	393.21
607.51	355.76
607.67	444.70
607.82	451.72
607.98	425.98
608.13	472.79
608.29	423.64
608.44	386.19
608.60	339.38
608.75	414.27
608.91	414.27
609.06	425.98
609.22	468.11
609.37	407.25
609.53	353.42
609.68	477.47
609.84	430.66
609.99	486.83
610.15	402.57
