SpectraSuite Data File
++++++++++++++++++++++++++++++++++++
Date: Fri Oct 25 12:11:05 EDT 2013
User: price-jones
Dark Spectrum Present: No
Reference Spectrum Present: No
Number of Sampled Component Spectra: 1
Spectrometers: USB2+H05261
Integration Time (usec): 100000 (USB2+H05261)
Spectra Averaged: 1 (USB2+H05261)
Boxcar Smoothing: 0 (USB2+H05261)
Correct for Electrical Dark: No (USB2+H05261)
Strobe/Lamp Enabled: No (USB2+H05261)
Correct for Detector Non-linearity: No (USB2+H05261)
Correct for Stray Light: No (USB2+H05261)
Number of Pixels in Processed Spectrum: 2048
>>>>>Begin Processed Spectral Data<<<<<
365.73	299.59
365.92	299.59
366.12	299.59
366.32	276.18
366.52	266.82
366.72	234.05
366.91	215.33
367.11	297.25
367.31	238.73
367.51	163.84
367.70	243.42
367.90	278.52
368.10	208.31
368.30	294.91
368.49	245.76
368.69	308.95
368.89	297.25
369.09	238.73
369.28	327.68
369.48	308.95
369.68	264.48
369.87	294.91
370.07	250.44
370.27	353.42
370.47	285.55
370.66	308.95
370.86	351.08
371.06	411.93
371.25	407.25
371.45	409.59
371.65	428.32
371.84	393.21
372.04	348.74
372.24	440.02
372.44	393.21
372.63	402.57
372.83	376.83
373.03	465.77
373.22	397.89
373.42	435.34
373.62	397.89
373.81	418.96
374.01	381.51
374.21	416.62
374.40	435.34
374.60	388.53
374.79	400.23
374.99	383.85
375.19	449.38
375.38	353.42
375.58	425.98
375.78	454.06
375.97	425.98
376.17	435.34
376.37	418.96
376.56	376.83
376.76	386.19
376.95	416.62
377.15	435.34
377.35	372.15
377.54	393.21
377.74	402.57
377.93	400.23
378.13	428.32
378.33	390.87
378.52	395.55
378.72	491.51
378.91	423.64
379.11	379.17
379.31	400.23
379.50	341.72
379.70	402.57
379.89	447.04
380.09	451.72
380.28	383.85
380.48	372.15
380.68	360.44
380.87	411.93
381.07	402.57
381.26	395.55
381.46	479.81
381.65	390.87
381.85	388.53
382.04	374.49
382.24	430.66
382.43	430.66
382.63	416.62
382.83	444.70
383.02	390.87
383.22	477.47
383.41	397.89
383.61	367.46
383.80	442.36
384.00	407.25
384.19	374.49
384.39	395.55
384.58	425.98
384.78	407.25
384.97	346.40
385.17	386.19
385.36	437.68
385.56	425.98
385.75	351.08
385.95	451.72
386.14	461.09
386.34	416.62
386.53	395.55
386.72	381.51
386.92	428.32
387.11	404.91
387.31	444.70
387.50	390.87
387.70	376.83
387.89	402.57
388.09	442.36
388.28	376.83
388.48	440.02
388.67	444.70
388.86	428.32
389.06	397.89
389.25	393.21
389.45	428.32
389.64	444.70
389.84	489.17
390.03	430.66
390.22	442.36
390.42	393.21
390.61	447.04
390.81	332.36
391.00	358.10
391.19	407.25
391.39	376.83
391.58	409.59
391.78	458.74
391.97	428.32
392.16	390.87
392.36	404.91
392.55	465.77
392.75	313.63
392.94	444.70
393.13	477.47
393.33	411.93
393.52	451.72
393.71	425.98
393.91	409.59
394.10	414.27
394.29	386.19
394.49	390.87
394.68	358.10
394.88	367.46
395.07	423.64
395.26	388.53
395.46	351.08
395.65	409.59
395.84	437.68
396.04	517.26
396.23	383.85
396.42	421.30
396.62	372.15
396.81	425.98
397.00	447.04
397.19	433.00
397.39	402.57
397.58	454.06
397.77	374.49
397.97	456.40
398.16	440.02
398.35	386.19
398.55	437.68
398.74	435.34
398.93	404.91
399.12	404.91
399.32	421.30
399.51	369.80
399.70	393.21
399.90	383.85
400.09	404.91
400.28	423.64
400.47	498.53
400.67	423.64
400.86	390.87
401.05	486.83
401.24	433.00
401.44	418.96
401.63	325.33
401.82	355.76
402.01	299.59
402.21	381.51
402.40	444.70
402.59	301.93
402.78	430.66
402.97	421.30
403.17	322.99
403.36	440.02
403.55	440.02
403.74	423.64
403.93	477.47
404.13	409.59
404.32	421.30
404.51	360.44
404.70	388.53
404.89	491.51
405.09	433.00
405.28	358.10
405.47	435.34
405.66	407.25
405.85	404.91
406.05	444.70
406.24	346.40
406.43	407.25
406.62	486.83
406.81	458.74
407.00	472.79
407.20	456.40
407.39	332.36
407.58	320.65
407.77	407.25
407.96	397.89
408.15	440.02
408.34	360.44
408.54	425.98
408.73	395.55
408.92	430.66
409.11	430.66
409.30	397.89
409.49	390.87
409.68	425.98
409.87	451.72
410.07	407.25
410.26	435.34
410.45	416.62
410.64	397.89
410.83	351.08
411.02	393.21
411.21	407.25
411.40	334.70
411.59	367.46
411.78	447.04
411.98	430.66
412.17	440.02
412.36	402.57
412.55	386.19
412.74	451.72
412.93	402.57
413.12	383.85
413.31	362.78
413.50	337.04
413.69	367.46
413.88	440.02
414.07	414.27
414.26	456.40
414.45	416.62
414.64	334.70
414.83	395.55
415.02	503.22
415.22	351.08
415.41	421.30
415.60	374.49
415.79	393.21
415.98	449.38
416.17	383.85
416.36	386.19
416.55	411.93
416.74	433.00
416.93	421.30
417.12	362.78
417.31	428.32
417.50	379.17
417.69	486.83
417.88	395.55
418.07	351.08
418.26	365.12
418.45	381.51
418.64	421.30
418.83	402.57
419.02	463.43
419.21	353.42
419.39	386.19
419.58	362.78
419.77	379.17
419.96	393.21
420.15	484.49
420.34	409.59
420.53	440.02
420.72	433.00
420.91	423.64
421.10	390.87
421.29	409.59
421.48	332.36
421.67	397.89
421.86	353.42
422.05	430.66
422.24	383.85
422.43	425.98
422.61	315.97
422.80	381.51
422.99	411.93
423.18	418.96
423.37	465.77
423.56	418.96
423.75	388.53
423.94	440.02
424.13	435.34
424.32	358.10
424.50	411.93
424.69	435.34
424.88	491.51
425.07	414.27
425.26	430.66
425.45	411.93
425.64	362.78
425.83	397.89
426.01	449.38
426.20	355.76
426.39	367.46
426.58	414.27
426.77	411.93
426.96	393.21
427.15	395.55
427.33	395.55
427.52	374.49
427.71	442.36
427.90	346.40
428.09	440.02
428.28	358.10
428.46	454.06
428.65	407.25
428.84	400.23
429.03	470.45
429.22	411.93
429.40	404.91
429.59	458.74
429.78	379.17
429.97	451.72
430.16	360.44
430.34	390.87
430.53	379.17
430.72	407.25
430.91	503.22
431.10	435.34
431.28	449.38
431.47	430.66
431.66	428.32
431.85	484.49
432.03	442.36
432.22	447.04
432.41	379.17
432.60	390.87
432.79	479.81
432.97	472.79
433.16	402.57
433.35	416.62
433.54	388.53
433.72	475.13
433.91	344.06
434.10	402.57
434.28	393.21
434.47	440.02
434.66	444.70
434.85	374.49
435.03	425.98
435.22	430.66
435.41	498.53
435.59	482.15
435.78	358.10
435.97	458.74
436.16	435.34
436.34	369.80
436.53	461.09
436.72	437.68
436.90	500.87
437.09	428.32
437.28	461.09
437.46	390.87
437.65	484.49
437.84	374.49
438.02	428.32
438.21	421.30
438.40	397.89
438.58	440.02
438.77	475.13
438.96	376.83
439.14	390.87
439.33	418.96
439.52	325.33
439.70	477.47
439.89	374.49
440.08	395.55
440.26	456.40
440.45	418.96
440.63	449.38
440.82	395.55
441.01	425.98
441.19	430.66
441.38	416.62
441.57	404.91
441.75	447.04
441.94	428.32
442.12	386.19
442.31	449.38
442.50	451.72
442.68	433.00
442.87	414.27
443.05	484.49
443.24	470.45
443.43	447.04
443.61	458.74
443.80	477.47
443.98	421.30
444.17	395.55
444.35	393.21
444.54	376.83
444.73	344.06
444.91	437.68
445.10	421.30
445.28	402.57
445.47	372.15
445.65	407.25
445.84	414.27
446.02	425.98
446.21	472.79
446.39	407.25
446.58	425.98
446.77	465.77
446.95	423.64
447.14	372.15
447.32	472.79
447.51	430.66
447.69	444.70
447.88	367.46
448.06	421.30
448.25	465.77
448.43	376.83
448.62	433.00
448.80	444.70
448.99	437.68
449.17	425.98
449.36	346.40
449.54	390.87
449.73	435.34
449.91	472.79
450.10	440.02
450.28	440.02
450.46	416.62
450.65	379.17
450.83	400.23
451.02	400.23
451.20	369.80
451.39	414.27
451.57	400.23
451.76	454.06
451.94	395.55
452.13	491.51
452.31	444.70
452.49	395.55
452.68	503.22
452.86	416.62
453.05	475.13
453.23	365.12
453.42	430.66
453.60	402.57
453.78	428.32
453.97	404.91
454.15	397.89
454.34	325.33
454.52	388.53
454.70	430.66
454.89	404.91
455.07	414.27
455.26	393.21
455.44	369.80
455.62	400.23
455.81	425.98
455.99	430.66
456.17	355.76
456.36	348.74
456.54	411.93
456.73	365.12
456.91	416.62
457.09	479.81
457.28	433.00
457.46	421.30
457.64	376.83
457.83	447.04
458.01	341.72
458.19	512.58
458.38	472.79
458.56	358.10
458.74	388.53
458.93	402.57
459.11	402.57
459.29	433.00
459.48	362.78
459.66	465.77
459.84	409.59
460.03	409.59
460.21	351.08
460.39	381.51
460.57	461.09
460.76	423.64
460.94	400.23
461.12	409.59
461.31	477.47
461.49	362.78
461.67	418.96
461.85	442.36
462.04	395.55
462.22	765.36
462.40	423.64
462.59	407.25
462.77	402.57
462.95	395.55
463.13	395.55
463.32	376.83
463.50	386.19
463.68	386.19
463.86	491.51
464.05	479.81
464.23	409.59
464.41	430.66
464.59	486.83
464.78	465.77
464.96	423.64
465.14	475.13
465.32	355.76
465.50	451.72
465.69	407.25
465.87	383.85
466.05	479.81
466.23	400.23
466.41	428.32
466.60	454.06
466.78	421.30
466.96	451.72
467.14	369.80
467.32	507.90
467.51	484.49
467.69	369.80
467.87	407.25
468.05	400.23
468.23	421.30
468.41	416.62
468.60	416.62
468.78	425.98
468.96	463.43
469.14	440.02
469.32	447.04
469.50	414.27
469.69	458.74
469.87	393.21
470.05	400.23
470.23	463.43
470.41	435.34
470.59	383.85
470.77	416.62
470.95	395.55
471.14	400.23
471.32	418.96
471.50	440.02
471.68	409.59
471.86	463.43
472.04	409.59
472.22	425.98
472.40	418.96
472.58	423.64
472.77	353.42
472.95	414.27
473.13	388.53
473.31	411.93
473.49	306.61
473.67	390.87
473.85	468.11
474.03	393.21
474.21	404.91
474.39	463.43
474.57	493.85
474.75	397.89
474.93	383.85
475.12	407.25
475.30	393.21
475.48	444.70
475.66	463.43
475.84	437.68
476.02	425.98
476.20	428.32
476.38	367.46
476.56	514.92
476.74	433.00
476.92	433.00
477.10	362.78
477.28	498.53
477.46	344.06
477.64	456.40
477.82	461.09
478.00	454.06
478.18	404.91
478.36	402.57
478.54	421.30
478.72	397.89
478.90	379.17
479.08	409.59
479.26	416.62
479.44	475.13
479.62	379.17
479.80	376.83
479.98	395.55
480.16	418.96
480.34	428.32
480.52	388.53
480.70	397.89
480.88	348.74
481.06	355.76
481.24	423.64
481.41	423.64
481.59	433.00
481.77	383.85
481.95	428.32
482.13	428.32
482.31	465.77
482.49	337.04
482.67	437.68
482.85	425.98
483.03	444.70
483.21	381.51
483.39	390.87
483.57	376.83
483.74	465.77
483.92	447.04
484.10	400.23
484.28	381.51
484.46	505.56
484.64	339.38
484.82	437.68
485.00	468.11
485.18	355.76
485.35	416.62
485.53	425.98
485.71	454.06
485.89	496.19
486.07	472.79
486.25	451.72
486.43	423.64
486.61	390.87
486.78	376.83
486.96	362.78
487.14	440.02
487.32	442.36
487.50	388.53
487.68	372.15
487.85	344.06
488.03	451.72
488.21	411.93
488.39	409.59
488.57	400.23
488.75	379.17
488.92	489.17
489.10	386.19
489.28	510.24
489.46	383.85
489.64	388.53
489.81	430.66
489.99	470.45
490.17	327.68
490.35	524.28
490.53	428.32
490.70	351.08
490.88	393.21
491.06	402.57
491.24	353.42
491.41	451.72
491.59	430.66
491.77	411.93
491.95	449.38
492.13	379.17
492.30	409.59
492.48	395.55
492.66	400.23
492.84	411.93
493.01	440.02
493.19	381.51
493.37	411.93
493.54	496.19
493.72	379.17
493.90	414.27
494.08	395.55
494.25	369.80
494.43	421.30
494.61	409.59
494.79	358.10
494.96	388.53
495.14	564.07
495.32	423.64
495.49	383.85
495.67	449.38
495.85	402.57
496.02	379.17
496.20	454.06
496.38	444.70
496.55	374.49
496.73	421.30
496.91	411.93
497.09	437.68
497.26	395.55
497.44	381.51
497.62	433.00
497.79	440.02
497.97	423.64
498.14	461.09
498.32	458.74
498.50	463.43
498.67	365.12
498.85	379.17
499.03	376.83
499.20	440.02
499.38	435.34
499.56	402.57
499.73	423.64
499.91	416.62
500.08	454.06
500.26	395.55
500.44	374.49
500.61	496.19
500.79	407.25
500.97	416.62
501.14	418.96
501.32	379.17
501.49	428.32
501.67	393.21
501.84	428.32
502.02	409.59
502.20	461.09
502.37	301.93
502.55	402.57
502.72	411.93
502.90	397.89
503.07	425.98
503.25	465.77
503.43	381.51
503.60	400.23
503.78	414.27
503.95	379.17
504.13	482.15
504.30	428.32
504.48	489.17
504.65	463.43
504.83	482.15
505.01	407.25
505.18	390.87
505.36	402.57
505.53	451.72
505.71	442.36
505.88	386.19
506.06	435.34
506.23	414.27
506.41	409.59
506.58	449.38
506.76	369.80
506.93	334.70
507.11	383.85
507.28	440.02
507.46	428.32
507.63	367.46
507.81	369.80
507.98	425.98
508.16	388.53
508.33	440.02
508.50	351.08
508.68	449.38
508.85	449.38
509.03	414.27
509.20	423.64
509.38	386.19
509.55	461.09
509.73	404.91
509.90	447.04
510.08	414.27
510.25	428.32
510.42	421.30
510.60	313.63
510.77	400.23
510.95	440.02
511.12	397.89
511.30	468.11
511.47	418.96
511.64	482.15
511.82	402.57
511.99	400.23
512.17	390.87
512.34	435.34
512.51	423.64
512.69	388.53
512.86	440.02
513.04	393.21
513.21	416.62
513.38	390.87
513.56	390.87
513.73	435.34
513.90	418.96
514.08	470.45
514.25	407.25
514.43	376.83
514.60	346.40
514.77	358.10
514.95	411.93
515.12	463.43
515.29	430.66
515.47	425.98
515.64	465.77
515.81	437.68
515.99	430.66
516.16	451.72
516.33	440.02
516.51	423.64
516.68	430.66
516.85	374.49
517.03	362.78
517.20	444.70
517.37	383.85
517.54	367.46
517.72	346.40
517.89	358.10
518.06	444.70
518.24	514.92
518.41	526.62
518.58	423.64
518.75	383.85
518.93	383.85
519.10	400.23
519.27	437.68
519.45	393.21
519.62	409.59
519.79	456.40
519.96	465.77
520.14	444.70
520.31	479.81
520.48	367.46
520.65	393.21
520.83	400.23
521.00	402.57
521.17	414.27
521.34	381.51
521.52	416.62
521.69	416.62
521.86	383.85
522.03	386.19
522.20	528.96
522.38	395.55
522.55	430.66
522.72	376.83
522.89	367.46
523.07	447.04
523.24	458.74
523.41	325.33
523.58	416.62
523.75	409.59
523.92	400.23
524.10	355.76
524.27	447.04
524.44	395.55
524.61	383.85
524.78	404.91
524.96	355.76
525.13	325.33
525.30	447.04
525.47	423.64
525.64	383.85
525.81	442.36
525.98	351.08
526.16	404.91
526.33	418.96
526.50	325.33
526.67	411.93
526.84	388.53
527.01	442.36
527.18	416.62
527.36	479.81
527.53	360.44
527.70	461.09
527.87	425.98
528.04	383.85
528.21	465.77
528.38	442.36
528.55	430.66
528.72	491.51
528.89	402.57
529.07	447.04
529.24	407.25
529.41	395.55
529.58	421.30
529.75	409.59
529.92	472.79
530.09	458.74
530.26	479.81
530.43	477.47
530.60	435.34
530.77	475.13
530.94	390.87
531.11	383.85
531.28	358.10
531.46	365.12
531.63	409.59
531.80	386.19
531.97	365.12
532.14	456.40
532.31	451.72
532.48	376.83
532.65	402.57
532.82	367.46
532.99	320.65
533.16	393.21
533.33	402.57
533.50	456.40
533.67	400.23
533.84	447.04
534.01	437.68
534.18	390.87
534.35	362.78
534.52	355.76
534.69	425.98
534.86	379.17
535.03	421.30
535.20	367.46
535.37	409.59
535.54	416.62
535.71	416.62
535.88	425.98
536.05	383.85
536.22	458.74
536.38	351.08
536.55	411.93
536.72	407.25
536.89	430.66
537.06	358.10
537.23	379.17
537.40	416.62
537.57	428.32
537.74	512.58
537.91	400.23
538.08	433.00
538.25	351.08
538.42	407.25
538.59	386.19
538.75	381.51
538.92	416.62
539.09	411.93
539.26	435.34
539.43	400.23
539.60	404.91
539.77	440.02
539.94	421.30
540.11	397.89
540.28	470.45
540.44	454.06
540.61	444.70
540.78	390.87
540.95	362.78
541.12	400.23
541.29	428.32
541.46	477.47
541.62	414.27
541.79	407.25
541.96	414.27
542.13	433.00
542.30	416.62
542.47	433.00
542.63	444.70
542.80	423.64
542.97	362.78
543.14	372.15
543.31	423.64
543.48	407.25
543.64	353.42
543.81	322.99
543.98	388.53
544.15	402.57
544.32	332.36
544.48	393.21
544.65	407.25
544.82	433.00
544.99	435.34
545.16	454.06
545.32	393.21
545.49	423.64
545.66	388.53
545.83	395.55
546.00	320.65
546.16	390.87
546.33	306.61
546.50	383.85
546.67	397.89
546.83	458.74
547.00	454.06
547.17	428.32
547.34	442.36
547.50	372.15
547.67	418.96
547.84	414.27
548.00	416.62
548.17	411.93
548.34	465.77
548.51	447.04
548.67	381.51
548.84	367.46
549.01	433.00
549.18	374.49
549.34	402.57
549.51	414.27
549.68	433.00
549.84	409.59
550.01	416.62
550.18	407.25
550.34	395.55
550.51	440.02
550.68	411.93
550.84	449.38
551.01	430.66
551.18	435.34
551.34	454.06
551.51	430.66
551.68	388.53
551.84	409.59
552.01	397.89
552.18	379.17
552.34	395.55
552.51	386.19
552.68	393.21
552.84	376.83
553.01	402.57
553.18	395.55
553.34	383.85
553.51	358.10
553.67	416.62
553.84	498.53
554.01	500.87
554.17	381.51
554.34	404.91
554.51	383.85
554.67	400.23
554.84	395.55
555.00	475.13
555.17	463.43
555.33	407.25
555.50	400.23
555.67	442.36
555.83	379.17
556.00	444.70
556.16	458.74
556.33	521.94
556.50	472.79
556.66	397.89
556.83	416.62
556.99	423.64
557.16	404.91
557.32	404.91
557.49	360.44
557.65	425.98
557.82	423.64
557.98	355.76
558.15	393.21
558.32	430.66
558.48	458.74
558.65	395.55
558.81	369.80
558.98	339.38
559.14	482.15
559.31	327.68
559.47	409.59
559.64	423.64
559.80	376.83
559.97	365.12
560.13	386.19
560.30	416.62
560.46	388.53
560.63	425.98
560.79	393.21
560.96	470.45
561.12	393.21
561.29	407.25
561.45	425.98
561.61	484.49
561.78	491.51
561.94	346.40
562.11	437.68
562.27	442.36
562.44	411.93
562.60	433.00
562.77	416.62
562.93	475.13
563.10	393.21
563.26	409.59
563.42	468.11
563.59	344.06
563.75	484.49
563.92	407.25
564.08	442.36
564.24	374.49
564.41	400.23
564.57	493.85
564.74	468.11
564.90	489.17
565.07	437.68
565.23	362.78
565.39	421.30
565.56	444.70
565.72	414.27
565.88	390.87
566.05	379.17
566.21	454.06
566.38	362.78
566.54	442.36
566.70	404.91
566.87	416.62
567.03	400.23
567.19	383.85
567.36	390.87
567.52	507.90
567.68	435.34
567.85	437.68
568.01	421.30
568.17	458.74
568.34	423.64
568.50	386.19
568.66	372.15
568.83	514.92
568.99	430.66
569.15	440.02
569.32	458.74
569.48	425.98
569.64	376.83
569.81	332.36
569.97	390.87
570.13	440.02
570.30	421.30
570.46	425.98
570.62	440.02
570.78	514.92
570.95	491.51
571.11	475.13
571.27	514.92
571.43	369.80
571.60	386.19
571.76	444.70
571.92	369.80
572.09	381.51
572.25	454.06
572.41	339.38
572.57	395.55
572.74	451.72
572.90	442.36
573.06	425.98
573.22	386.19
573.38	484.49
573.55	416.62
573.71	442.36
573.87	489.17
574.03	416.62
574.20	341.72
574.36	470.45
574.52	409.59
574.68	477.47
574.84	409.59
575.01	423.64
575.17	479.81
575.33	337.04
575.49	365.12
575.65	435.34
575.82	428.32
575.98	421.30
576.14	428.32
576.30	376.83
576.46	423.64
576.62	430.66
576.79	330.02
576.95	496.19
577.11	477.47
577.27	383.85
577.43	430.66
577.59	498.53
577.75	461.09
577.92	390.87
578.08	395.55
578.24	327.68
578.40	379.17
578.56	416.62
578.72	430.66
578.88	440.02
579.04	444.70
579.21	458.74
579.37	416.62
579.53	423.64
579.69	449.38
579.85	379.17
580.01	444.70
580.17	458.74
580.33	456.40
580.49	334.70
580.65	367.46
580.82	482.15
580.98	407.25
581.14	407.25
581.30	472.79
581.46	351.08
581.62	442.36
581.78	437.68
581.94	463.43
582.10	393.21
582.26	451.72
582.42	311.29
582.58	484.49
582.74	442.36
582.90	430.66
583.06	458.74
583.22	435.34
583.38	407.25
583.54	381.51
583.70	428.32
583.86	458.74
584.02	430.66
584.18	433.00
584.34	451.72
584.50	463.43
584.66	374.49
584.82	386.19
584.98	383.85
585.14	411.93
585.30	351.08
585.46	468.11
585.62	411.93
585.78	355.76
585.94	470.45
586.10	433.00
586.26	500.87
586.42	486.83
586.58	440.02
586.74	477.47
586.90	376.83
587.06	472.79
587.22	489.17
587.38	409.59
587.54	430.66
587.70	465.77
587.86	437.68
588.02	381.51
588.18	402.57
588.34	393.21
588.49	393.21
588.65	442.36
588.81	418.96
588.97	337.04
589.13	374.49
589.29	461.09
589.45	430.66
589.61	489.17
589.77	454.06
589.93	423.64
590.08	416.62
590.24	390.87
590.40	397.89
590.56	451.72
590.72	418.96
590.88	440.02
591.04	355.76
591.20	404.91
591.35	397.89
591.51	400.23
591.67	433.00
591.83	395.55
591.99	423.64
592.15	465.77
592.31	416.62
592.46	414.27
592.62	411.93
592.78	397.89
592.94	339.38
593.10	395.55
593.26	430.66
593.41	449.38
593.57	397.89
593.73	404.91
593.89	402.57
594.05	381.51
594.20	454.06
594.36	374.49
594.52	404.91
594.68	360.44
594.84	454.06
594.99	470.45
595.15	449.38
595.31	470.45
595.47	423.64
595.62	390.87
595.78	407.25
595.94	449.38
596.10	456.40
596.25	454.06
596.41	461.09
596.57	386.19
596.73	344.06
596.88	393.21
597.04	433.00
597.20	425.98
597.36	414.27
597.51	421.30
597.67	433.00
597.83	358.10
597.99	418.96
598.14	470.45
598.30	463.43
598.46	395.55
598.61	428.32
598.77	454.06
598.93	353.42
599.09	435.34
599.24	442.36
599.40	428.32
599.56	475.13
599.71	393.21
599.87	404.91
600.03	468.11
600.18	414.27
600.34	400.23
600.50	447.04
600.65	491.51
600.81	430.66
600.97	421.30
601.12	447.04
601.28	491.51
601.44	442.36
601.59	409.59
601.75	430.66
601.91	489.17
602.06	351.08
602.22	491.51
602.37	374.49
602.53	393.21
602.69	496.19
602.84	442.36
603.00	428.32
603.16	388.53
603.31	388.53
603.47	423.64
603.62	341.72
603.78	381.51
603.94	463.43
604.09	475.13
604.25	421.30
604.40	315.97
604.56	430.66
604.71	465.77
604.87	402.57
605.03	440.02
605.18	404.91
605.34	393.21
605.49	372.15
605.65	414.27
605.80	397.89
605.96	402.57
606.12	414.27
606.27	411.93
606.43	388.53
606.58	425.98
606.74	386.19
606.89	449.38
607.05	433.00
607.20	414.27
607.36	404.91
607.51	496.19
607.67	486.83
607.82	393.21
607.98	423.64
608.13	386.19
608.29	404.91
608.44	435.34
608.60	388.53
608.75	449.38
608.91	465.77
609.06	409.59
609.22	442.36
609.37	472.79
609.53	449.38
609.68	421.30
609.84	393.21
609.99	414.27
610.15	421.30
