SpectraSuite Data File
++++++++++++++++++++++++++++++++++++
Date: Fri Oct 25 12:11:07 EDT 2013
User: price-jones
Dark Spectrum Present: No
Reference Spectrum Present: No
Number of Sampled Component Spectra: 1
Spectrometers: USB2+H05261
Integration Time (usec): 100000 (USB2+H05261)
Spectra Averaged: 1 (USB2+H05261)
Boxcar Smoothing: 0 (USB2+H05261)
Correct for Electrical Dark: No (USB2+H05261)
Strobe/Lamp Enabled: No (USB2+H05261)
Correct for Detector Non-linearity: No (USB2+H05261)
Correct for Stray Light: No (USB2+H05261)
Number of Pixels in Processed Spectrum: 2048
>>>>>Begin Processed Spectral Data<<<<<
365.73	327.68
365.92	327.68
366.12	327.68
366.32	299.59
366.52	205.97
366.72	292.57
366.91	212.99
367.11	285.55
367.31	271.50
367.51	182.56
367.70	222.35
367.90	313.63
368.10	231.71
368.30	238.73
368.49	248.10
368.69	248.10
368.89	224.69
369.09	304.27
369.28	297.25
369.48	273.84
369.68	273.84
369.87	348.74
370.07	304.27
370.27	355.76
370.47	430.66
370.66	315.97
370.86	339.38
371.06	404.91
371.25	400.23
371.45	353.42
371.65	428.32
371.84	374.49
372.04	423.64
372.24	374.49
372.44	344.06
372.63	421.30
372.83	386.19
373.03	421.30
373.22	416.62
373.42	411.93
373.62	433.00
373.81	404.91
374.01	421.30
374.21	409.59
374.40	411.93
374.60	435.34
374.79	465.77
374.99	454.06
375.19	451.72
375.38	449.38
375.58	376.83
375.78	411.93
375.97	458.74
376.17	475.13
376.37	451.72
376.56	503.22
376.76	348.74
376.95	360.44
377.15	437.68
377.35	454.06
377.54	351.08
377.74	362.78
377.93	325.33
378.13	386.19
378.33	416.62
378.52	433.00
378.72	318.31
378.91	451.72
379.11	311.29
379.31	411.93
379.50	425.98
379.70	397.89
379.89	468.11
380.09	390.87
380.28	416.62
380.48	416.62
380.68	456.40
380.87	409.59
381.07	376.83
381.26	425.98
381.46	346.40
381.65	456.40
381.85	456.40
382.04	440.02
382.24	428.32
382.43	482.15
382.63	442.36
382.83	430.66
383.02	416.62
383.22	489.17
383.41	425.98
383.61	425.98
383.80	414.27
384.00	313.63
384.19	390.87
384.39	344.06
384.58	390.87
384.78	379.17
384.97	386.19
385.17	358.10
385.36	402.57
385.56	367.46
385.75	355.76
385.95	402.57
386.14	393.21
386.34	386.19
386.53	454.06
386.72	402.57
386.92	470.45
387.11	461.09
387.31	390.87
387.50	369.80
387.70	430.66
387.89	472.79
388.09	339.38
388.28	449.38
388.48	400.23
388.67	346.40
388.86	414.27
389.06	376.83
389.25	388.53
389.45	390.87
389.64	442.36
389.84	505.56
390.03	437.68
390.22	437.68
390.42	393.21
390.61	442.36
390.81	355.76
391.00	430.66
391.19	386.19
391.39	365.12
391.58	440.02
391.78	400.23
391.97	397.89
392.16	400.23
392.36	430.66
392.55	433.00
392.75	407.25
392.94	374.49
393.13	418.96
393.33	404.91
393.52	348.74
393.71	423.64
393.91	409.59
394.10	381.51
394.29	442.36
394.49	367.46
394.68	475.13
394.88	484.49
395.07	395.55
395.26	402.57
395.46	379.17
395.65	449.38
395.84	386.19
396.04	477.47
396.23	351.08
396.42	367.46
396.62	374.49
396.81	315.97
397.00	372.15
397.19	404.91
397.39	388.53
397.58	454.06
397.77	470.45
397.97	372.15
398.16	346.40
398.35	444.70
398.55	409.59
398.74	435.34
398.93	409.59
399.12	454.06
399.32	395.55
399.51	404.91
399.70	447.04
399.90	404.91
400.09	395.55
400.28	351.08
400.47	425.98
400.67	458.74
400.86	353.42
401.05	397.89
401.24	442.36
401.44	381.51
401.63	425.98
401.82	409.59
402.01	388.53
402.21	423.64
402.40	407.25
402.59	332.36
402.78	409.59
402.97	440.02
403.17	423.64
403.36	327.68
403.55	428.32
403.74	346.40
403.93	407.25
404.13	433.00
404.32	355.76
404.51	332.36
404.70	362.78
404.89	341.72
405.09	468.11
405.28	390.87
405.47	372.15
405.66	407.25
405.85	418.96
406.05	428.32
406.24	374.49
406.43	395.55
406.62	407.25
406.81	383.85
407.00	423.64
407.20	362.78
407.39	409.59
407.58	355.76
407.77	397.89
407.96	409.59
408.15	433.00
408.34	409.59
408.54	402.57
408.73	383.85
408.92	449.38
409.11	369.80
409.30	461.09
409.49	472.79
409.68	390.87
409.87	428.32
410.07	362.78
410.26	409.59
410.45	449.38
410.64	414.27
410.83	390.87
411.02	430.66
411.21	404.91
411.40	386.19
411.59	456.40
411.78	400.23
411.98	404.91
412.17	451.72
412.36	358.10
412.55	369.80
412.74	411.93
412.93	435.34
413.12	390.87
413.31	470.45
413.50	416.62
413.69	360.44
413.88	418.96
414.07	440.02
414.26	442.36
414.45	444.70
414.64	353.42
414.83	425.98
415.02	435.34
415.22	435.34
415.41	402.57
415.60	411.93
415.79	423.64
415.98	444.70
416.17	433.00
416.36	414.27
416.55	461.09
416.74	404.91
416.93	484.49
417.12	402.57
417.31	416.62
417.50	416.62
417.69	421.30
417.88	402.57
418.07	428.32
418.26	444.70
418.45	404.91
418.64	423.64
418.83	454.06
419.02	440.02
419.21	423.64
419.39	395.55
419.58	418.96
419.77	454.06
419.96	440.02
420.15	416.62
420.34	400.23
420.53	400.23
420.72	449.38
420.91	414.27
421.10	470.45
421.29	362.78
421.48	409.59
421.67	383.85
421.86	388.53
422.05	362.78
422.24	400.23
422.43	402.57
422.61	374.49
422.80	421.30
422.99	411.93
423.18	365.12
423.37	416.62
423.56	456.40
423.75	428.32
423.94	390.87
424.13	386.19
424.32	390.87
424.50	365.12
424.69	454.06
424.88	404.91
425.07	407.25
425.26	456.40
425.45	411.93
425.64	465.77
425.83	376.83
426.01	437.68
426.20	463.43
426.39	416.62
426.58	416.62
426.77	393.21
426.96	451.72
427.15	386.19
427.33	322.99
427.52	404.91
427.71	435.34
427.90	404.91
428.09	416.62
428.28	437.68
428.46	449.38
428.65	444.70
428.84	393.21
429.03	407.25
429.22	444.70
429.40	348.74
429.59	367.46
429.78	404.91
429.97	409.59
430.16	458.74
430.34	414.27
430.53	423.64
430.72	411.93
430.91	447.04
431.10	409.59
431.28	379.17
431.47	430.66
431.66	442.36
431.85	404.91
432.03	416.62
432.22	421.30
432.41	428.32
432.60	491.51
432.79	360.44
432.97	332.36
433.16	358.10
433.35	416.62
433.54	440.02
433.72	440.02
433.91	386.19
434.10	442.36
434.28	435.34
434.47	414.27
434.66	475.13
434.85	407.25
435.03	454.06
435.22	456.40
435.41	433.00
435.59	416.62
435.78	435.34
435.97	409.59
436.16	393.21
436.34	402.57
436.53	334.70
436.72	416.62
436.90	400.23
437.09	475.13
437.28	451.72
437.46	390.87
437.65	447.04
437.84	372.15
438.02	425.98
438.21	458.74
438.40	416.62
438.58	435.34
438.77	472.79
438.96	451.72
439.14	421.30
439.33	454.06
439.52	407.25
439.70	421.30
439.89	456.40
440.08	355.76
440.26	461.09
440.45	407.25
440.63	407.25
440.82	437.68
441.01	369.80
441.19	402.57
441.38	381.51
441.57	428.32
441.75	477.47
441.94	411.93
442.12	425.98
442.31	393.21
442.50	311.29
442.68	421.30
442.87	334.70
443.05	388.53
443.24	442.36
443.43	489.17
443.61	444.70
443.80	407.25
443.98	416.62
444.17	372.15
444.35	465.77
444.54	353.42
444.73	444.70
444.91	477.47
445.10	390.87
445.28	447.04
445.47	433.00
445.65	395.55
445.84	437.68
446.02	454.06
446.21	444.70
446.39	421.30
446.58	386.19
446.77	407.25
446.95	379.17
447.14	404.91
447.32	390.87
447.51	404.91
447.69	397.89
447.88	418.96
448.06	468.11
448.25	353.42
448.43	407.25
448.62	444.70
448.80	454.06
448.99	414.27
449.17	416.62
449.36	430.66
449.54	444.70
449.73	442.36
449.91	479.81
450.10	390.87
450.28	496.19
450.46	393.21
450.65	383.85
450.83	414.27
451.02	447.04
451.20	395.55
451.39	430.66
451.57	355.76
451.76	355.76
451.94	421.30
452.13	393.21
452.31	444.70
452.49	430.66
452.68	423.64
452.86	486.83
453.05	486.83
453.23	498.53
453.42	435.34
453.60	416.62
453.78	395.55
453.97	423.64
454.15	407.25
454.34	376.83
454.52	393.21
454.70	449.38
454.89	444.70
455.07	430.66
455.26	437.68
455.44	451.72
455.62	451.72
455.81	444.70
455.99	374.49
456.17	440.02
456.36	367.46
456.54	425.98
456.73	423.64
456.91	479.81
457.09	461.09
457.28	477.47
457.46	390.87
457.64	330.02
457.83	418.96
458.01	421.30
458.19	393.21
458.38	491.51
458.56	442.36
458.74	477.47
458.93	393.21
459.11	444.70
459.29	397.89
459.48	433.00
459.66	407.25
459.84	472.79
460.03	526.62
460.21	409.59
460.39	372.15
460.57	407.25
460.76	388.53
460.94	442.36
461.12	463.43
461.31	407.25
461.49	367.46
461.67	468.11
461.85	489.17
462.04	416.62
462.22	786.42
462.40	390.87
462.59	458.74
462.77	404.91
462.95	454.06
463.13	409.59
463.32	404.91
463.50	428.32
463.68	390.87
463.86	390.87
464.05	404.91
464.23	435.34
464.41	376.83
464.59	395.55
464.78	416.62
464.96	388.53
465.14	358.10
465.32	440.02
465.50	393.21
465.69	430.66
465.87	447.04
466.05	435.34
466.23	386.19
466.41	416.62
466.60	430.66
466.78	411.93
466.96	472.79
467.14	414.27
467.32	418.96
467.51	407.25
467.69	433.00
467.87	423.64
468.05	433.00
468.23	451.72
468.41	374.49
468.60	465.77
468.78	430.66
468.96	451.72
469.14	437.68
469.32	386.19
469.50	447.04
469.69	339.38
469.87	404.91
470.05	447.04
470.23	407.25
470.41	386.19
470.59	332.36
470.77	404.91
470.95	465.77
471.14	489.17
471.32	388.53
471.50	428.32
471.68	362.78
471.86	376.83
472.04	456.40
472.22	451.72
472.40	353.42
472.58	454.06
472.77	367.46
472.95	344.06
473.13	381.51
473.31	463.43
473.49	442.36
473.67	414.27
473.85	376.83
474.03	386.19
474.21	433.00
474.39	545.34
474.57	430.66
474.75	409.59
474.93	402.57
475.12	458.74
475.30	411.93
475.48	404.91
475.66	411.93
475.84	465.77
476.02	416.62
476.20	428.32
476.38	433.00
476.56	440.02
476.74	433.00
476.92	468.11
477.10	442.36
477.28	461.09
477.46	404.91
477.64	470.45
477.82	465.77
478.00	367.46
478.18	435.34
478.36	404.91
478.54	372.15
478.72	395.55
478.90	510.24
479.08	388.53
479.26	505.56
479.44	360.44
479.62	416.62
479.80	360.44
479.98	388.53
480.16	456.40
480.34	454.06
480.52	369.80
480.70	451.72
480.88	348.74
481.06	449.38
481.24	376.83
481.41	386.19
481.59	418.96
481.77	468.11
481.95	383.85
482.13	470.45
482.31	430.66
482.49	332.36
482.67	402.57
482.85	456.40
483.03	355.76
483.21	383.85
483.39	428.32
483.57	365.12
483.74	416.62
483.92	498.53
484.10	421.30
484.28	400.23
484.46	367.46
484.64	393.21
484.82	400.23
485.00	468.11
485.18	355.76
485.35	322.99
485.53	351.08
485.71	442.36
485.89	425.98
486.07	449.38
486.25	465.77
486.43	362.78
486.61	421.30
486.78	472.79
486.96	411.93
487.14	393.21
487.32	456.40
487.50	376.83
487.68	376.83
487.85	421.30
488.03	430.66
488.21	458.74
488.39	397.89
488.57	409.59
488.75	409.59
488.92	517.26
489.10	479.81
489.28	390.87
489.46	414.27
489.64	425.98
489.81	442.36
489.99	433.00
490.17	402.57
490.35	489.17
490.53	451.72
490.70	444.70
490.88	433.00
491.06	407.25
491.24	442.36
491.41	503.22
491.59	444.70
491.77	435.34
491.95	383.85
492.13	496.19
492.30	332.36
492.48	484.49
492.66	383.85
492.84	381.51
493.01	425.98
493.19	454.06
493.37	489.17
493.54	461.09
493.72	465.77
493.90	444.70
494.08	430.66
494.25	416.62
494.43	390.87
494.61	404.91
494.79	423.64
494.96	437.68
495.14	320.65
495.32	337.04
495.49	337.04
495.67	372.15
495.85	402.57
496.02	463.43
496.20	444.70
496.38	472.79
496.55	374.49
496.73	465.77
496.91	365.12
497.09	437.68
497.26	409.59
497.44	468.11
497.62	442.36
497.79	447.04
497.97	468.11
498.14	428.32
498.32	416.62
498.50	503.22
498.67	425.98
498.85	421.30
499.03	386.19
499.20	435.34
499.38	465.77
499.56	369.80
499.73	435.34
499.91	475.13
500.08	423.64
500.26	400.23
500.44	430.66
500.61	416.62
500.79	362.78
500.97	400.23
501.14	428.32
501.32	444.70
501.49	421.30
501.67	358.10
501.84	372.15
502.02	404.91
502.20	360.44
502.37	395.55
502.55	404.91
502.72	395.55
502.90	475.13
503.07	425.98
503.25	444.70
503.43	372.15
503.60	334.70
503.78	393.21
503.95	397.89
504.13	428.32
504.30	477.47
504.48	442.36
504.65	442.36
504.83	482.15
505.01	402.57
505.18	416.62
505.36	393.21
505.53	423.64
505.71	367.46
505.88	425.98
506.06	379.17
506.23	318.31
506.41	418.96
506.58	379.17
506.76	362.78
506.93	414.27
507.11	381.51
507.28	379.17
507.46	379.17
507.63	486.83
507.81	454.06
507.98	402.57
508.16	435.34
508.33	442.36
508.50	435.34
508.68	472.79
508.85	367.46
509.03	409.59
509.20	362.78
509.38	388.53
509.55	397.89
509.73	425.98
509.90	468.11
510.08	416.62
510.25	395.55
510.42	407.25
510.60	430.66
510.77	423.64
510.95	430.66
511.12	409.59
511.30	418.96
511.47	374.49
511.64	421.30
511.82	358.10
511.99	409.59
512.17	437.68
512.34	381.51
512.51	402.57
512.69	407.25
512.86	322.99
513.04	435.34
513.21	496.19
513.38	451.72
513.56	418.96
513.73	411.93
513.90	409.59
514.08	390.87
514.25	423.64
514.43	397.89
514.60	428.32
514.77	451.72
514.95	400.23
515.12	367.46
515.29	444.70
515.47	306.61
515.64	449.38
515.81	470.45
515.99	430.66
516.16	449.38
516.33	409.59
516.51	402.57
516.68	428.32
516.85	437.68
517.03	437.68
517.20	437.68
517.37	423.64
517.54	479.81
517.72	418.96
517.89	376.83
518.06	369.80
518.24	465.77
518.41	449.38
518.58	400.23
518.75	451.72
518.93	472.79
519.10	390.87
519.27	430.66
519.45	416.62
519.62	407.25
519.79	468.11
519.96	491.51
520.14	421.30
520.31	374.49
520.48	381.51
520.65	430.66
520.83	447.04
521.00	449.38
521.17	479.81
521.34	409.59
521.52	449.38
521.69	397.89
521.86	433.00
522.03	416.62
522.20	458.74
522.38	428.32
522.55	360.44
522.72	442.36
522.89	456.40
523.07	442.36
523.24	421.30
523.41	425.98
523.58	409.59
523.75	447.04
523.92	395.55
524.10	458.74
524.27	437.68
524.44	416.62
524.61	372.15
524.78	428.32
524.96	437.68
525.13	372.15
525.30	477.47
525.47	390.87
525.64	440.02
525.81	397.89
525.98	409.59
526.16	332.36
526.33	386.19
526.50	449.38
526.67	397.89
526.84	407.25
527.01	425.98
527.18	423.64
527.36	407.25
527.53	379.17
527.70	418.96
527.87	411.93
528.04	437.68
528.21	475.13
528.38	456.40
528.55	463.43
528.72	430.66
528.89	388.53
529.07	418.96
529.24	402.57
529.41	428.32
529.58	376.83
529.75	428.32
529.92	383.85
530.09	351.08
530.26	435.34
530.43	383.85
530.60	411.93
530.77	376.83
530.94	376.83
531.11	421.30
531.28	372.15
531.46	348.74
531.63	379.17
531.80	486.83
531.97	407.25
532.14	428.32
532.31	393.21
532.48	409.59
532.65	376.83
532.82	390.87
532.99	447.04
533.16	339.38
533.33	404.91
533.50	365.12
533.67	411.93
533.84	472.79
534.01	411.93
534.18	447.04
534.35	388.53
534.52	355.76
534.69	472.79
534.86	451.72
535.03	400.23
535.20	465.77
535.37	414.27
535.54	411.93
535.71	388.53
535.88	428.32
536.05	442.36
536.22	444.70
536.38	346.40
536.55	418.96
536.72	435.34
536.89	461.09
537.06	451.72
537.23	402.57
537.40	360.44
537.57	358.10
537.74	545.34
537.91	472.79
538.08	362.78
538.25	414.27
538.42	475.13
538.59	428.32
538.75	470.45
538.92	381.51
539.09	397.89
539.26	397.89
539.43	423.64
539.60	449.38
539.77	395.55
539.94	416.62
540.11	447.04
540.28	388.53
540.44	425.98
540.61	416.62
540.78	393.21
540.95	390.87
541.12	416.62
541.29	395.55
541.46	372.15
541.62	409.59
541.79	454.06
541.96	386.19
542.13	397.89
542.30	449.38
542.47	416.62
542.63	423.64
542.80	416.62
542.97	444.70
543.14	414.27
543.31	362.78
543.48	365.12
543.64	449.38
543.81	416.62
543.98	411.93
544.15	465.77
544.32	341.72
544.48	341.72
544.65	437.68
544.82	353.42
544.99	379.17
545.16	472.79
545.32	428.32
545.49	421.30
545.66	409.59
545.83	418.96
546.00	440.02
546.16	386.19
546.33	400.23
546.50	390.87
546.67	444.70
546.83	440.02
547.00	440.02
547.17	381.51
547.34	402.57
547.50	395.55
547.67	402.57
547.84	423.64
548.00	411.93
548.17	381.51
548.34	351.08
548.51	435.34
548.67	400.23
548.84	402.57
549.01	395.55
549.18	414.27
549.34	451.72
549.51	454.06
549.68	383.85
549.84	437.68
550.01	404.91
550.18	510.24
550.34	418.96
550.51	442.36
550.68	461.09
550.84	418.96
551.01	451.72
551.18	440.02
551.34	388.53
551.51	461.09
551.68	454.06
551.84	454.06
552.01	390.87
552.18	402.57
552.34	458.74
552.51	362.78
552.68	414.27
552.84	433.00
553.01	407.25
553.18	482.15
553.34	482.15
553.51	369.80
553.67	475.13
553.84	475.13
554.01	454.06
554.17	449.38
554.34	367.46
554.51	435.34
554.67	451.72
554.84	433.00
555.00	409.59
555.17	402.57
555.33	465.77
555.50	395.55
555.67	451.72
555.83	433.00
556.00	463.43
556.16	585.13
556.33	472.79
556.50	421.30
556.66	402.57
556.83	414.27
556.99	435.34
557.16	418.96
557.32	484.49
557.49	430.66
557.65	423.64
557.82	414.27
557.98	425.98
558.15	402.57
558.32	451.72
558.48	360.44
558.65	423.64
558.81	465.77
558.98	444.70
559.14	423.64
559.31	444.70
559.47	454.06
559.64	393.21
559.80	393.21
559.97	416.62
560.13	367.46
560.30	418.96
560.46	358.10
560.63	402.57
560.79	362.78
560.96	393.21
561.12	402.57
561.29	395.55
561.45	437.68
561.61	418.96
561.78	493.85
561.94	430.66
562.11	423.64
562.27	400.23
562.44	447.04
562.60	418.96
562.77	404.91
562.93	461.09
563.10	421.30
563.26	400.23
563.42	477.47
563.59	414.27
563.75	383.85
563.92	475.13
564.08	435.34
564.24	461.09
564.41	444.70
564.57	421.30
564.74	383.85
564.90	425.98
565.07	451.72
565.23	491.51
565.39	433.00
565.56	402.57
565.72	397.89
565.88	400.23
566.05	435.34
566.21	423.64
566.38	468.11
566.54	418.96
566.70	447.04
566.87	346.40
567.03	367.46
567.19	428.32
567.36	421.30
567.52	411.93
567.68	479.81
567.85	456.40
568.01	423.64
568.17	416.62
568.34	423.64
568.50	468.11
568.66	456.40
568.83	554.71
568.99	339.38
569.15	442.36
569.32	397.89
569.48	458.74
569.64	372.15
569.81	416.62
569.97	442.36
570.13	430.66
570.30	407.25
570.46	463.43
570.62	358.10
570.78	430.66
570.95	393.21
571.11	479.81
571.27	409.59
571.43	393.21
571.60	428.32
571.76	468.11
571.92	423.64
572.09	437.68
572.25	451.72
572.41	440.02
572.57	449.38
572.74	411.93
572.90	416.62
573.06	442.36
573.22	447.04
573.38	360.44
573.55	444.70
573.71	435.34
573.87	425.98
574.03	402.57
574.20	451.72
574.36	355.76
574.52	416.62
574.68	463.43
574.84	369.80
575.01	376.83
575.17	440.02
575.33	376.83
575.49	390.87
575.65	437.68
575.82	379.17
575.98	425.98
576.14	454.06
576.30	425.98
576.46	386.19
576.62	418.96
576.79	414.27
576.95	386.19
577.11	407.25
577.27	407.25
577.43	461.09
577.59	435.34
577.75	465.77
577.92	425.98
578.08	465.77
578.24	416.62
578.40	496.19
578.56	489.17
578.72	456.40
578.88	451.72
579.04	411.93
579.21	456.40
579.37	416.62
579.53	444.70
579.69	451.72
579.85	414.27
580.01	435.34
580.17	395.55
580.33	379.17
580.49	372.15
580.65	351.08
580.82	428.32
580.98	479.81
581.14	421.30
581.30	402.57
581.46	376.83
581.62	421.30
581.78	393.21
581.94	472.79
582.10	348.74
582.26	433.00
582.42	449.38
582.58	407.25
582.74	388.53
582.90	376.83
583.06	425.98
583.22	440.02
583.38	418.96
583.54	411.93
583.70	418.96
583.86	472.79
584.02	423.64
584.18	503.22
584.34	397.89
584.50	344.06
584.66	395.55
584.82	383.85
584.98	428.32
585.14	414.27
585.30	449.38
585.46	470.45
585.62	374.49
585.78	437.68
585.94	458.74
586.10	449.38
586.26	327.68
586.42	355.76
586.58	463.43
586.74	395.55
586.90	397.89
587.06	456.40
587.22	395.55
587.38	388.53
587.54	451.72
587.70	437.68
587.86	477.47
588.02	418.96
588.18	421.30
588.34	379.17
588.49	369.80
588.65	425.98
588.81	437.68
588.97	414.27
589.13	402.57
589.29	477.47
589.45	472.79
589.61	339.38
589.77	379.17
589.93	407.25
590.08	388.53
590.24	313.63
590.40	395.55
590.56	456.40
590.72	437.68
590.88	465.77
591.04	388.53
591.20	423.64
591.35	447.04
591.51	510.24
591.67	404.91
591.83	433.00
591.99	402.57
592.15	437.68
592.31	461.09
592.46	435.34
592.62	468.11
592.78	360.44
592.94	444.70
593.10	491.51
593.26	440.02
593.41	430.66
593.57	440.02
593.73	397.89
593.89	486.83
594.05	421.30
594.20	374.49
594.36	425.98
594.52	411.93
594.68	444.70
594.84	440.02
594.99	454.06
595.15	456.40
595.31	451.72
595.47	444.70
595.62	374.49
595.78	400.23
595.94	463.43
596.10	456.40
596.25	379.17
596.41	470.45
596.57	416.62
596.73	421.30
596.88	465.77
597.04	365.12
597.20	372.15
597.36	442.36
597.51	428.32
597.67	440.02
597.83	456.40
597.99	463.43
598.14	503.22
598.30	433.00
598.46	341.72
598.61	435.34
598.77	423.64
598.93	390.87
599.09	465.77
599.24	479.81
599.40	409.59
599.56	353.42
599.71	423.64
599.87	365.12
600.03	440.02
600.18	341.72
600.34	449.38
600.50	489.17
600.65	411.93
600.81	360.44
600.97	383.85
601.12	379.17
601.28	433.00
601.44	428.32
601.59	402.57
601.75	395.55
601.91	407.25
602.06	533.64
602.22	468.11
602.37	442.36
602.53	433.00
602.69	425.98
602.84	346.40
603.00	332.36
603.16	484.49
603.31	409.59
603.47	414.27
603.62	461.09
603.78	475.13
603.94	346.40
604.09	376.83
604.25	369.80
604.40	442.36
604.56	425.98
604.71	451.72
604.87	407.25
605.03	475.13
605.18	402.57
605.34	454.06
605.49	447.04
605.65	400.23
605.80	369.80
605.96	479.81
606.12	404.91
606.27	482.15
606.43	430.66
606.58	454.06
606.74	407.25
606.89	425.98
607.05	503.22
607.20	397.89
607.36	421.30
607.51	372.15
607.67	367.46
607.82	451.72
607.98	433.00
608.13	376.83
608.29	397.89
608.44	477.47
608.60	456.40
608.75	444.70
608.91	468.11
609.06	447.04
609.22	383.85
609.37	407.25
609.53	447.04
609.68	409.59
609.84	411.93
609.99	402.57
610.15	451.72
