SpectraSuite Data File
++++++++++++++++++++++++++++++++++++
Date: Fri Oct 25 12:11:01 EDT 2013
User: price-jones
Dark Spectrum Present: No
Reference Spectrum Present: No
Number of Sampled Component Spectra: 1
Spectrometers: USB2+H05261
Integration Time (usec): 100000 (USB2+H05261)
Spectra Averaged: 1 (USB2+H05261)
Boxcar Smoothing: 0 (USB2+H05261)
Correct for Electrical Dark: No (USB2+H05261)
Strobe/Lamp Enabled: No (USB2+H05261)
Correct for Detector Non-linearity: No (USB2+H05261)
Correct for Stray Light: No (USB2+H05261)
Number of Pixels in Processed Spectrum: 2048
>>>>>Begin Processed Spectral Data<<<<<
365.73	337.04
365.92	337.04
366.12	337.04
366.32	257.46
366.52	252.78
366.72	236.39
366.91	241.08
367.11	229.37
367.31	301.93
367.51	227.03
367.70	203.63
367.90	278.52
368.10	276.18
368.30	292.57
368.49	201.29
368.69	287.89
368.89	269.16
369.09	259.80
369.28	320.65
369.48	236.39
369.68	358.10
369.87	348.74
370.07	325.33
370.27	351.08
370.47	402.57
370.66	236.39
370.86	287.89
371.06	330.02
371.25	390.87
371.45	337.04
371.65	362.78
371.84	348.74
372.04	348.74
372.24	362.78
372.44	402.57
372.63	444.70
372.83	353.42
373.03	390.87
373.22	351.08
373.42	355.76
373.62	447.04
373.81	409.59
374.01	477.47
374.21	393.21
374.40	315.97
374.60	430.66
374.79	400.23
374.99	402.57
375.19	379.17
375.38	379.17
375.58	327.68
375.78	430.66
375.97	458.74
376.17	517.26
376.37	425.98
376.56	465.77
376.76	400.23
376.95	430.66
377.15	430.66
377.35	444.70
377.54	386.19
377.74	449.38
377.93	365.12
378.13	404.91
378.33	397.89
378.52	351.08
378.72	379.17
378.91	383.85
379.11	341.72
379.31	463.43
379.50	346.40
379.70	472.79
379.89	430.66
380.09	304.27
380.28	374.49
380.48	369.80
380.68	358.10
380.87	407.25
381.07	449.38
381.26	428.32
381.46	353.42
381.65	381.51
381.85	304.27
382.04	376.83
382.24	379.17
382.43	491.51
382.63	341.72
382.83	388.53
383.02	458.74
383.22	433.00
383.41	376.83
383.61	372.15
383.80	390.87
384.00	393.21
384.19	362.78
384.39	411.93
384.58	451.72
384.78	386.19
384.97	388.53
385.17	383.85
385.36	388.53
385.56	376.83
385.75	395.55
385.95	437.68
386.14	362.78
386.34	409.59
386.53	418.96
386.72	362.78
386.92	376.83
387.11	388.53
387.31	428.32
387.50	458.74
387.70	381.51
387.89	416.62
388.09	421.30
388.28	409.59
388.48	348.74
388.67	374.49
388.86	351.08
389.06	322.99
389.25	390.87
389.45	442.36
389.64	355.76
389.84	437.68
390.03	440.02
390.22	425.98
390.42	346.40
390.61	358.10
390.81	421.30
391.00	404.91
391.19	430.66
391.39	367.46
391.58	397.89
391.78	435.34
391.97	395.55
392.16	444.70
392.36	400.23
392.55	404.91
392.75	400.23
392.94	390.87
393.13	484.49
393.33	388.53
393.52	475.13
393.71	447.04
393.91	449.38
394.10	423.64
394.29	404.91
394.49	353.42
394.68	383.85
394.88	444.70
395.07	369.80
395.26	425.98
395.46	397.89
395.65	498.53
395.84	437.68
396.04	449.38
396.23	451.72
396.42	393.21
396.62	390.87
396.81	409.59
397.00	421.30
397.19	374.49
397.39	360.44
397.58	390.87
397.77	395.55
397.97	451.72
398.16	400.23
398.35	437.68
398.55	463.43
398.74	414.27
398.93	390.87
399.12	383.85
399.32	411.93
399.51	402.57
399.70	411.93
399.90	388.53
400.09	442.36
400.28	411.93
400.47	433.00
400.67	425.98
400.86	402.57
401.05	379.17
401.24	383.85
401.44	470.45
401.63	444.70
401.82	411.93
402.01	444.70
402.21	397.89
402.40	355.76
402.59	486.83
402.78	393.21
402.97	395.55
403.17	369.80
403.36	418.96
403.55	449.38
403.74	360.44
403.93	376.83
404.13	468.11
404.32	344.06
404.51	442.36
404.70	390.87
404.89	407.25
405.09	430.66
405.28	386.19
405.47	304.27
405.66	454.06
405.85	465.77
406.05	449.38
406.24	372.15
406.43	428.32
406.62	407.25
406.81	409.59
407.00	411.93
407.20	386.19
407.39	355.76
407.58	411.93
407.77	411.93
407.96	386.19
408.15	414.27
408.34	388.53
408.54	395.55
408.73	428.32
408.92	395.55
409.11	386.19
409.30	386.19
409.49	404.91
409.68	433.00
409.87	304.27
410.07	365.12
410.26	374.49
410.45	332.36
410.64	433.00
410.83	402.57
411.02	404.91
411.21	418.96
411.40	390.87
411.59	411.93
411.78	360.44
411.98	421.30
412.17	355.76
412.36	393.21
412.55	433.00
412.74	475.13
412.93	505.56
413.12	421.30
413.31	379.17
413.50	440.02
413.69	416.62
413.88	388.53
414.07	428.32
414.26	379.17
414.45	407.25
414.64	458.74
414.83	395.55
415.02	428.32
415.22	465.77
415.41	362.78
415.60	433.00
415.79	402.57
415.98	423.64
416.17	416.62
416.36	402.57
416.55	358.10
416.74	369.80
416.93	355.76
417.12	407.25
417.31	374.49
417.50	374.49
417.69	470.45
417.88	463.43
418.07	348.74
418.26	386.19
418.45	411.93
418.64	489.17
418.83	376.83
419.02	440.02
419.21	404.91
419.39	348.74
419.58	383.85
419.77	489.17
419.96	447.04
420.15	496.19
420.34	416.62
420.53	395.55
420.72	404.91
420.91	411.93
421.10	388.53
421.29	386.19
421.48	425.98
421.67	397.89
421.86	332.36
422.05	430.66
422.24	388.53
422.43	425.98
422.61	320.65
422.80	360.44
422.99	479.81
423.18	451.72
423.37	430.66
423.56	440.02
423.75	451.72
423.94	416.62
424.13	451.72
424.32	397.89
424.50	395.55
424.69	428.32
424.88	463.43
425.07	353.42
425.26	430.66
425.45	433.00
425.64	411.93
425.83	404.91
426.01	470.45
426.20	304.27
426.39	409.59
426.58	346.40
426.77	435.34
426.96	447.04
427.15	463.43
427.33	404.91
427.52	341.72
427.71	440.02
427.90	425.98
428.09	411.93
428.28	423.64
428.46	365.12
428.65	404.91
428.84	449.38
429.03	414.27
429.22	390.87
429.40	390.87
429.59	425.98
429.78	458.74
429.97	407.25
430.16	418.96
430.34	372.15
430.53	423.64
430.72	433.00
430.91	475.13
431.10	451.72
431.28	330.02
431.47	442.36
431.66	465.77
431.85	477.47
432.03	409.59
432.22	390.87
432.41	367.46
432.60	430.66
432.79	341.72
432.97	404.91
433.16	374.49
433.35	407.25
433.54	353.42
433.72	397.89
433.91	414.27
434.10	402.57
434.28	430.66
434.47	393.21
434.66	444.70
434.85	369.80
435.03	421.30
435.22	461.09
435.41	435.34
435.59	416.62
435.78	435.34
435.97	421.30
436.16	449.38
436.34	451.72
436.53	411.93
436.72	395.55
436.90	402.57
437.09	397.89
437.28	386.19
437.46	400.23
437.65	428.32
437.84	304.27
438.02	397.89
438.21	381.51
438.40	496.19
438.58	435.34
438.77	477.47
438.96	400.23
439.14	337.04
439.33	423.64
439.52	442.36
439.70	414.27
439.89	472.79
440.08	435.34
440.26	407.25
440.45	362.78
440.63	404.91
440.82	444.70
441.01	475.13
441.19	484.49
441.38	428.32
441.57	475.13
441.75	393.21
441.94	416.62
442.12	346.40
442.31	421.30
442.50	440.02
442.68	444.70
442.87	463.43
443.05	442.36
443.24	468.11
443.43	442.36
443.61	433.00
443.80	444.70
443.98	376.83
444.17	447.04
444.35	447.04
444.54	367.46
444.73	493.85
444.91	390.87
445.10	344.06
445.28	430.66
445.47	358.10
445.65	433.00
445.84	372.15
446.02	421.30
446.21	421.30
446.39	376.83
446.58	414.27
446.77	407.25
446.95	397.89
447.14	425.98
447.32	416.62
447.51	369.80
447.69	472.79
447.88	362.78
448.06	414.27
448.25	351.08
448.43	395.55
448.62	421.30
448.80	416.62
448.99	437.68
449.17	463.43
449.36	489.17
449.54	456.40
449.73	397.89
449.91	454.06
450.10	414.27
450.28	418.96
450.46	458.74
450.65	552.37
450.83	374.49
451.02	435.34
451.20	433.00
451.39	433.00
451.57	444.70
451.76	376.83
451.94	421.30
452.13	444.70
452.31	416.62
452.49	416.62
452.68	468.11
452.86	379.17
453.05	414.27
453.23	444.70
453.42	430.66
453.60	404.91
453.78	430.66
453.97	409.59
454.15	456.40
454.34	458.74
454.52	444.70
454.70	409.59
454.89	444.70
455.07	425.98
455.26	404.91
455.44	435.34
455.62	393.21
455.81	418.96
455.99	472.79
456.17	428.32
456.36	367.46
456.54	351.08
456.73	402.57
456.91	414.27
457.09	360.44
457.28	437.68
457.46	425.98
457.64	470.45
457.83	344.06
458.01	337.04
458.19	402.57
458.38	411.93
458.56	416.62
458.74	407.25
458.93	444.70
459.11	400.23
459.29	386.19
459.48	383.85
459.66	400.23
459.84	458.74
460.03	449.38
460.21	475.13
460.39	383.85
460.57	423.64
460.76	447.04
460.94	477.47
461.12	496.19
461.31	425.98
461.49	409.59
461.67	430.66
461.85	423.64
462.04	472.79
462.22	498.53
462.40	383.85
462.59	400.23
462.77	388.53
462.95	433.00
463.13	430.66
463.32	465.77
463.50	393.21
463.68	383.85
463.86	346.40
464.05	428.32
464.23	388.53
464.41	411.93
464.59	367.46
464.78	390.87
464.96	404.91
465.14	404.91
465.32	404.91
465.50	390.87
465.69	421.30
465.87	397.89
466.05	437.68
466.23	404.91
466.41	379.17
466.60	388.53
466.78	407.25
466.96	437.68
467.14	442.36
467.32	386.19
467.51	454.06
467.69	449.38
467.87	465.77
468.05	397.89
468.23	393.21
468.41	468.11
468.60	414.27
468.78	386.19
468.96	454.06
469.14	386.19
469.32	507.90
469.50	404.91
469.69	430.66
469.87	414.27
470.05	388.53
470.23	386.19
470.41	423.64
470.59	433.00
470.77	374.49
470.95	360.44
471.14	423.64
471.32	435.34
471.50	400.23
471.68	400.23
471.86	423.64
472.04	362.78
472.22	372.15
472.40	372.15
472.58	402.57
472.77	461.09
472.95	463.43
473.13	421.30
473.31	435.34
473.49	404.91
473.67	400.23
473.85	465.77
474.03	433.00
474.21	409.59
474.39	451.72
474.57	379.17
474.75	437.68
474.93	449.38
475.12	402.57
475.30	447.04
475.48	437.68
475.66	393.21
475.84	425.98
476.02	407.25
476.20	456.40
476.38	428.32
476.56	552.37
476.74	376.83
476.92	437.68
477.10	379.17
477.28	428.32
477.46	402.57
477.64	430.66
477.82	374.49
478.00	425.98
478.18	435.34
478.36	390.87
478.54	388.53
478.72	418.96
478.90	423.64
479.08	442.36
479.26	428.32
479.44	362.78
479.62	400.23
479.80	411.93
479.98	451.72
480.16	388.53
480.34	404.91
480.52	414.27
480.70	454.06
480.88	365.12
481.06	376.83
481.24	428.32
481.41	388.53
481.59	414.27
481.77	430.66
481.95	369.80
482.13	461.09
482.31	367.46
482.49	409.59
482.67	440.02
482.85	465.77
483.03	461.09
483.21	374.49
483.39	400.23
483.57	409.59
483.74	358.10
483.92	456.40
484.10	496.19
484.28	465.77
484.46	491.51
484.64	437.68
484.82	428.32
485.00	465.77
485.18	404.91
485.35	425.98
485.53	411.93
485.71	411.93
485.89	409.59
486.07	437.68
486.25	470.45
486.43	411.93
486.61	475.13
486.78	425.98
486.96	376.83
487.14	477.47
487.32	421.30
487.50	407.25
487.68	416.62
487.85	470.45
488.03	433.00
488.21	430.66
488.39	353.42
488.57	407.25
488.75	425.98
488.92	421.30
489.10	376.83
489.28	360.44
489.46	381.51
489.64	393.21
489.81	430.66
489.99	414.27
490.17	393.21
490.35	433.00
490.53	411.93
490.70	411.93
490.88	475.13
491.06	390.87
491.24	479.81
491.41	423.64
491.59	407.25
491.77	454.06
491.95	404.91
492.13	428.32
492.30	440.02
492.48	416.62
492.66	404.91
492.84	442.36
493.01	386.19
493.19	397.89
493.37	470.45
493.54	472.79
493.72	407.25
493.90	304.27
494.08	489.17
494.25	421.30
494.43	447.04
494.61	444.70
494.79	344.06
494.96	423.64
495.14	479.81
495.32	393.21
495.49	376.83
495.67	383.85
495.85	393.21
496.02	367.46
496.20	440.02
496.38	449.38
496.55	442.36
496.73	404.91
496.91	397.89
497.09	482.15
497.26	414.27
497.44	407.25
497.62	365.12
497.79	386.19
497.97	395.55
498.14	428.32
498.32	353.42
498.50	381.51
498.67	376.83
498.85	397.89
499.03	428.32
499.20	444.70
499.38	447.04
499.56	358.10
499.73	423.64
499.91	500.87
500.08	430.66
500.26	367.46
500.44	360.44
500.61	365.12
500.79	388.53
500.97	442.36
501.14	447.04
501.32	372.15
501.49	461.09
501.67	414.27
501.84	386.19
502.02	376.83
502.20	454.06
502.37	409.59
502.55	395.55
502.72	360.44
502.90	414.27
503.07	395.55
503.25	505.56
503.43	395.55
503.60	372.15
503.78	416.62
503.95	451.72
504.13	423.64
504.30	393.21
504.48	390.87
504.65	421.30
504.83	409.59
505.01	388.53
505.18	437.68
505.36	341.72
505.53	430.66
505.71	425.98
505.88	435.34
506.06	477.47
506.23	351.08
506.41	367.46
506.58	433.00
506.76	418.96
506.93	348.74
507.11	430.66
507.28	454.06
507.46	400.23
507.63	416.62
507.81	421.30
507.98	334.70
508.16	404.91
508.33	393.21
508.50	369.80
508.68	416.62
508.85	341.72
509.03	400.23
509.20	411.93
509.38	374.49
509.55	458.74
509.73	444.70
509.90	458.74
510.08	390.87
510.25	468.11
510.42	395.55
510.60	374.49
510.77	416.62
510.95	503.22
511.12	468.11
511.30	449.38
511.47	414.27
511.64	425.98
511.82	418.96
511.99	388.53
512.17	416.62
512.34	421.30
512.51	369.80
512.69	440.02
512.86	451.72
513.04	425.98
513.21	409.59
513.38	397.89
513.56	400.23
513.73	376.83
513.90	421.30
514.08	388.53
514.25	465.77
514.43	407.25
514.60	365.12
514.77	484.49
514.95	472.79
515.12	393.21
515.29	425.98
515.47	397.89
515.64	386.19
515.81	458.74
515.99	433.00
516.16	411.93
516.33	451.72
516.51	442.36
516.68	409.59
516.85	475.13
517.03	355.76
517.20	411.93
517.37	430.66
517.54	484.49
517.72	425.98
517.89	360.44
518.06	383.85
518.24	489.17
518.41	479.81
518.58	444.70
518.75	447.04
518.93	372.15
519.10	397.89
519.27	449.38
519.45	442.36
519.62	393.21
519.79	393.21
519.96	400.23
520.14	409.59
520.31	400.23
520.48	374.49
520.65	433.00
520.83	400.23
521.00	435.34
521.17	461.09
521.34	414.27
521.52	449.38
521.69	325.33
521.86	395.55
522.03	442.36
522.20	444.70
522.38	409.59
522.55	397.89
522.72	374.49
522.89	433.00
523.07	423.64
523.24	400.23
523.41	390.87
523.58	372.15
523.75	505.56
523.92	428.32
524.10	407.25
524.27	421.30
524.44	332.36
524.61	458.74
524.78	428.32
524.96	428.32
525.13	463.43
525.30	376.83
525.47	379.17
525.64	421.30
525.81	395.55
525.98	416.62
526.16	388.53
526.33	435.34
526.50	433.00
526.67	425.98
526.84	395.55
527.01	425.98
527.18	374.49
527.36	386.19
527.53	355.76
527.70	409.59
527.87	440.02
528.04	463.43
528.21	496.19
528.38	386.19
528.55	348.74
528.72	489.17
528.89	505.56
529.07	390.87
529.24	477.47
529.41	503.22
529.58	423.64
529.75	393.21
529.92	397.89
530.09	386.19
530.26	397.89
530.43	414.27
530.60	344.06
530.77	468.11
530.94	367.46
531.11	470.45
531.28	402.57
531.46	456.40
531.63	386.19
531.80	449.38
531.97	407.25
532.14	423.64
532.31	442.36
532.48	440.02
532.65	500.87
532.82	386.19
532.99	379.17
533.16	407.25
533.33	390.87
533.50	341.72
533.67	411.93
533.84	423.64
534.01	416.62
534.18	393.21
534.35	369.80
534.52	388.53
534.69	358.10
534.86	472.79
535.03	414.27
535.20	402.57
535.37	393.21
535.54	428.32
535.71	409.59
535.88	402.57
536.05	411.93
536.22	379.17
536.38	379.17
536.55	390.87
536.72	440.02
536.89	437.68
537.06	386.19
537.23	404.91
537.40	437.68
537.57	409.59
537.74	472.79
537.91	367.46
538.08	437.68
538.25	437.68
538.42	428.32
538.59	374.49
538.75	416.62
538.92	369.80
539.09	463.43
539.26	500.87
539.43	470.45
539.60	416.62
539.77	367.46
539.94	376.83
540.11	395.55
540.28	437.68
540.44	414.27
540.61	379.17
540.78	423.64
540.95	437.68
541.12	444.70
541.29	430.66
541.46	470.45
541.62	449.38
541.79	369.80
541.96	449.38
542.13	543.00
542.30	395.55
542.47	397.89
542.63	454.06
542.80	454.06
542.97	449.38
543.14	372.15
543.31	421.30
543.48	444.70
543.64	416.62
543.81	411.93
543.98	330.02
544.15	337.04
544.32	416.62
544.48	404.91
544.65	461.09
544.82	463.43
544.99	449.38
545.16	428.32
545.32	374.49
545.49	435.34
545.66	407.25
545.83	393.21
546.00	379.17
546.16	468.11
546.33	416.62
546.50	442.36
546.67	440.02
546.83	479.81
547.00	418.96
547.17	409.59
547.34	365.12
547.50	372.15
547.67	421.30
547.84	414.27
548.00	456.40
548.17	449.38
548.34	421.30
548.51	423.64
548.67	430.66
548.84	411.93
549.01	376.83
549.18	461.09
549.34	433.00
549.51	425.98
549.68	425.98
549.84	397.89
550.01	421.30
550.18	458.74
550.34	463.43
550.51	421.30
550.68	449.38
550.84	425.98
551.01	418.96
551.18	421.30
551.34	503.22
551.51	447.04
551.68	383.85
551.84	404.91
552.01	416.62
552.18	374.49
552.34	374.49
552.51	418.96
552.68	472.79
552.84	362.78
553.01	430.66
553.18	454.06
553.34	414.27
553.51	507.90
553.67	454.06
553.84	421.30
554.01	383.85
554.17	404.91
554.34	381.51
554.51	482.15
554.67	404.91
554.84	468.11
555.00	484.49
555.17	372.15
555.33	435.34
555.50	390.87
555.67	383.85
555.83	397.89
556.00	425.98
556.16	585.13
556.33	425.98
556.50	404.91
556.66	379.17
556.83	416.62
556.99	395.55
557.16	435.34
557.32	479.81
557.49	437.68
557.65	383.85
557.82	454.06
557.98	430.66
558.15	327.68
558.32	393.21
558.48	383.85
558.65	414.27
558.81	458.74
558.98	397.89
559.14	409.59
559.31	397.89
559.47	418.96
559.64	433.00
559.80	416.62
559.97	433.00
560.13	433.00
560.30	437.68
560.46	411.93
560.63	444.70
560.79	379.17
560.96	362.78
561.12	390.87
561.29	435.34
561.45	374.49
561.61	440.02
561.78	552.37
561.94	437.68
562.11	397.89
562.27	433.00
562.44	411.93
562.60	402.57
562.77	411.93
562.93	484.49
563.10	416.62
563.26	442.36
563.42	409.59
563.59	409.59
563.75	463.43
563.92	521.94
564.08	421.30
564.24	433.00
564.41	449.38
564.57	369.80
564.74	465.77
564.90	461.09
565.07	397.89
565.23	428.32
565.39	386.19
565.56	458.74
565.72	388.53
565.88	388.53
566.05	381.51
566.21	433.00
566.38	449.38
566.54	395.55
566.70	449.38
566.87	395.55
567.03	404.91
567.19	390.87
567.36	507.90
567.52	409.59
567.68	489.17
567.85	472.79
568.01	458.74
568.17	365.12
568.34	388.53
568.50	416.62
568.66	322.99
568.83	468.11
568.99	388.53
569.15	451.72
569.32	447.04
569.48	435.34
569.64	454.06
569.81	463.43
569.97	379.17
570.13	451.72
570.30	372.15
570.46	458.74
570.62	383.85
570.78	447.04
570.95	355.76
571.11	421.30
571.27	503.22
571.43	397.89
571.60	423.64
571.76	379.17
571.92	437.68
572.09	318.31
572.25	416.62
572.41	423.64
572.57	428.32
572.74	461.09
572.90	437.68
573.06	376.83
573.22	402.57
573.38	374.49
573.55	404.91
573.71	360.44
573.87	433.00
574.03	318.31
574.20	360.44
574.36	489.17
574.52	355.76
574.68	437.68
574.84	472.79
575.01	411.93
575.17	407.25
575.33	402.57
575.49	397.89
575.65	430.66
575.82	449.38
575.98	400.23
576.14	383.85
576.30	416.62
576.46	372.15
576.62	369.80
576.79	454.06
576.95	369.80
577.11	425.98
577.27	365.12
577.43	416.62
577.59	430.66
577.75	423.64
577.92	444.70
578.08	444.70
578.24	414.27
578.40	437.68
578.56	454.06
578.72	440.02
578.88	409.59
579.04	470.45
579.21	425.98
579.37	393.21
579.53	400.23
579.69	484.49
579.85	372.15
580.01	388.53
580.17	374.49
580.33	440.02
580.49	393.21
580.65	456.40
580.82	475.13
580.98	404.91
581.14	451.72
581.30	353.42
581.46	437.68
581.62	479.81
581.78	451.72
581.94	454.06
582.10	458.74
582.26	407.25
582.42	440.02
582.58	442.36
582.74	444.70
582.90	381.51
583.06	365.12
583.22	397.89
583.38	358.10
583.54	393.21
583.70	404.91
583.86	442.36
584.02	372.15
584.18	393.21
584.34	425.98
584.50	386.19
584.66	425.98
584.82	402.57
584.98	367.46
585.14	374.49
585.30	465.77
585.46	449.38
585.62	435.34
585.78	386.19
585.94	421.30
586.10	440.02
586.26	372.15
586.42	465.77
586.58	531.30
586.74	423.64
586.90	369.80
587.06	416.62
587.22	435.34
587.38	397.89
587.54	416.62
587.70	383.85
587.86	458.74
588.02	374.49
588.18	421.30
588.34	386.19
588.49	440.02
588.65	433.00
588.81	376.83
588.97	428.32
589.13	430.66
589.29	416.62
589.45	449.38
589.61	407.25
589.77	447.04
589.93	475.13
590.08	365.12
590.24	383.85
590.40	386.19
590.56	430.66
590.72	386.19
590.88	388.53
591.04	430.66
591.20	407.25
591.35	489.17
591.51	362.78
591.67	400.23
591.83	418.96
591.99	397.89
592.15	514.92
592.31	402.57
592.46	400.23
592.62	393.21
592.78	456.40
592.94	479.81
593.10	433.00
593.26	372.15
593.41	423.64
593.57	437.68
593.73	409.59
593.89	402.57
594.05	475.13
594.20	386.19
594.36	337.04
594.52	397.89
594.68	372.15
594.84	393.21
594.99	423.64
595.15	472.79
595.31	461.09
595.47	472.79
595.62	383.85
595.78	390.87
595.94	442.36
596.10	402.57
596.25	421.30
596.41	430.66
596.57	428.32
596.73	414.27
596.88	421.30
597.04	437.68
597.20	388.53
597.36	482.15
597.51	437.68
597.67	397.89
597.83	376.83
597.99	379.17
598.14	383.85
598.30	491.51
598.46	444.70
598.61	386.19
598.77	433.00
598.93	393.21
599.09	456.40
599.24	470.45
599.40	444.70
599.56	414.27
599.71	423.64
599.87	447.04
600.03	386.19
600.18	372.15
600.34	454.06
600.50	468.11
600.65	332.36
600.81	374.49
600.97	430.66
601.12	437.68
601.28	437.68
601.44	489.17
601.59	351.08
601.75	425.98
601.91	444.70
602.06	390.87
602.22	409.59
602.37	428.32
602.53	369.80
602.69	397.89
602.84	358.10
603.00	425.98
603.16	355.76
603.31	416.62
603.47	486.83
603.62	416.62
603.78	482.15
603.94	449.38
604.09	407.25
604.25	447.04
604.40	395.55
604.56	447.04
604.71	360.44
604.87	402.57
605.03	421.30
605.18	428.32
605.34	435.34
605.49	402.57
605.65	407.25
605.80	383.85
605.96	418.96
606.12	376.83
606.27	456.40
606.43	376.83
606.58	449.38
606.74	430.66
606.89	440.02
607.05	388.53
607.20	430.66
607.36	435.34
607.51	365.12
607.67	318.31
607.82	461.09
607.98	510.24
608.13	407.25
608.29	360.44
608.44	477.47
608.60	416.62
608.75	442.36
608.91	470.45
609.06	468.11
609.22	442.36
609.37	388.53
609.53	393.21
609.68	418.96
609.84	386.19
609.99	421.30
610.15	390.87
