SpectraSuite Data File
++++++++++++++++++++++++++++++++++++
Date: Fri Oct 25 12:10:05 EDT 2013
User: price-jones
Dark Spectrum Present: No
Reference Spectrum Present: No
Number of Sampled Component Spectra: 1
Spectrometers: USB2+H05261
Integration Time (usec): 100000 (USB2+H05261)
Spectra Averaged: 1 (USB2+H05261)
Boxcar Smoothing: 0 (USB2+H05261)
Correct for Electrical Dark: No (USB2+H05261)
Strobe/Lamp Enabled: No (USB2+H05261)
Correct for Detector Non-linearity: No (USB2+H05261)
Correct for Stray Light: No (USB2+H05261)
Number of Pixels in Processed Spectrum: 2048
>>>>>Begin Processed Spectral Data<<<<<
365.73	372.15
365.92	372.15
366.12	372.15
366.32	271.50
366.52	194.26
366.72	259.80
366.91	236.39
367.11	257.46
367.31	229.37
367.51	285.55
367.70	299.59
367.90	264.48
368.10	210.65
368.30	257.46
368.49	259.80
368.69	299.59
368.89	229.37
369.09	306.61
369.28	264.48
369.48	339.38
369.68	280.86
369.87	278.52
370.07	318.31
370.27	273.84
370.47	308.95
370.66	372.15
370.86	318.31
371.06	348.74
371.25	360.44
371.45	285.55
371.65	428.32
371.84	365.12
372.04	353.42
372.24	404.91
372.44	465.77
372.63	425.98
372.83	400.23
373.03	337.04
373.22	388.53
373.42	423.64
373.62	388.53
373.81	472.79
374.01	468.11
374.21	447.04
374.40	393.21
374.60	468.11
374.79	404.91
374.99	334.70
375.19	498.53
375.38	423.64
375.58	475.13
375.78	454.06
375.97	465.77
376.17	461.09
376.37	421.30
376.56	472.79
376.76	423.64
376.95	409.59
377.15	365.12
377.35	456.40
377.54	402.57
377.74	404.91
377.93	470.45
378.13	404.91
378.33	421.30
378.52	360.44
378.72	449.38
378.91	365.12
379.11	365.12
379.31	437.68
379.50	397.89
379.70	381.51
379.89	400.23
380.09	409.59
380.28	395.55
380.48	388.53
380.68	381.51
380.87	344.06
381.07	440.02
381.26	397.89
381.46	416.62
381.65	437.68
381.85	416.62
382.04	414.27
382.24	351.08
382.43	400.23
382.63	346.40
382.83	386.19
383.02	372.15
383.22	463.43
383.41	421.30
383.61	423.64
383.80	365.12
384.00	369.80
384.19	475.13
384.39	425.98
384.58	369.80
384.78	414.27
384.97	430.66
385.17	414.27
385.36	454.06
385.56	358.10
385.75	430.66
385.95	430.66
386.14	423.64
386.34	374.49
386.53	337.04
386.72	388.53
386.92	416.62
387.11	472.79
387.31	435.34
387.50	369.80
387.70	390.87
387.89	390.87
388.09	402.57
388.28	397.89
388.48	404.91
388.67	409.59
388.86	358.10
389.06	418.96
389.25	418.96
389.45	358.10
389.64	369.80
389.84	397.89
390.03	463.43
390.22	402.57
390.42	430.66
390.61	418.96
390.81	344.06
391.00	383.85
391.19	367.46
391.39	327.68
391.58	390.87
391.78	322.99
391.97	430.66
392.16	351.08
392.36	409.59
392.55	411.93
392.75	454.06
392.94	416.62
393.13	322.99
393.33	358.10
393.52	372.15
393.71	369.80
393.91	379.17
394.10	344.06
394.29	388.53
394.49	327.68
394.68	355.76
394.88	428.32
395.07	440.02
395.26	414.27
395.46	397.89
395.65	393.21
395.84	451.72
396.04	376.83
396.23	482.15
396.42	383.85
396.62	435.34
396.81	435.34
397.00	395.55
397.19	390.87
397.39	470.45
397.58	395.55
397.77	393.21
397.97	393.21
398.16	437.68
398.35	400.23
398.55	435.34
398.74	442.36
398.93	416.62
399.12	404.91
399.32	322.99
399.51	383.85
399.70	425.98
399.90	341.72
400.09	418.96
400.28	451.72
400.47	381.51
400.67	400.23
400.86	407.25
401.05	428.32
401.24	379.17
401.44	433.00
401.63	477.47
401.82	440.02
402.01	404.91
402.21	353.42
402.40	425.98
402.59	418.96
402.78	409.59
402.97	353.42
403.17	390.87
403.36	418.96
403.55	454.06
403.74	337.04
403.93	442.36
404.13	437.68
404.32	393.21
404.51	402.57
404.70	374.49
404.89	414.27
405.09	416.62
405.28	449.38
405.47	369.80
405.66	409.59
405.85	390.87
406.05	409.59
406.24	409.59
406.43	388.53
406.62	341.72
406.81	451.72
407.00	437.68
407.20	360.44
407.39	430.66
407.58	400.23
407.77	423.64
407.96	472.79
408.15	437.68
408.34	376.83
408.54	418.96
408.73	374.49
408.92	425.98
409.11	355.76
409.30	433.00
409.49	437.68
409.68	383.85
409.87	437.68
410.07	365.12
410.26	423.64
410.45	435.34
410.64	437.68
410.83	418.96
411.02	447.04
411.21	451.72
411.40	437.68
411.59	409.59
411.78	472.79
411.98	393.21
412.17	395.55
412.36	428.32
412.55	449.38
412.74	339.38
412.93	465.77
413.12	444.70
413.31	355.76
413.50	409.59
413.69	421.30
413.88	514.92
414.07	451.72
414.26	388.53
414.45	376.83
414.64	477.47
414.83	414.27
415.02	360.44
415.22	425.98
415.41	428.32
415.60	418.96
415.79	425.98
415.98	442.36
416.17	456.40
416.36	416.62
416.55	386.19
416.74	358.10
416.93	367.46
417.12	365.12
417.31	409.59
417.50	472.79
417.69	451.72
417.88	421.30
418.07	386.19
418.26	348.74
418.45	425.98
418.64	461.09
418.83	470.45
419.02	355.76
419.21	379.17
419.39	435.34
419.58	393.21
419.77	393.21
419.96	409.59
420.15	397.89
420.34	374.49
420.53	388.53
420.72	383.85
420.91	475.13
421.10	369.80
421.29	442.36
421.48	369.80
421.67	447.04
421.86	388.53
422.05	339.38
422.24	449.38
422.43	409.59
422.61	330.02
422.80	470.45
422.99	421.30
423.18	402.57
423.37	430.66
423.56	414.27
423.75	374.49
423.94	409.59
424.13	442.36
424.32	421.30
424.50	454.06
424.69	372.15
424.88	372.15
425.07	313.63
425.26	407.25
425.45	479.81
425.64	390.87
425.83	423.64
426.01	479.81
426.20	437.68
426.39	369.80
426.58	416.62
426.77	479.81
426.96	484.49
427.15	404.91
427.33	416.62
427.52	367.46
427.71	491.51
427.90	372.15
428.09	341.72
428.28	372.15
428.46	430.66
428.65	461.09
428.84	362.78
429.03	475.13
429.22	440.02
429.40	362.78
429.59	437.68
429.78	430.66
429.97	383.85
430.16	409.59
430.34	468.11
430.53	454.06
430.72	414.27
430.91	449.38
431.10	493.85
431.28	461.09
431.47	496.19
431.66	402.57
431.85	421.30
432.03	442.36
432.22	437.68
432.41	416.62
432.60	433.00
432.79	397.89
432.97	351.08
433.16	465.77
433.35	341.72
433.54	344.06
433.72	435.34
433.91	395.55
434.10	386.19
434.28	507.90
434.47	430.66
434.66	437.68
434.85	390.87
435.03	393.21
435.22	425.98
435.41	404.91
435.59	369.80
435.78	402.57
435.97	430.66
436.16	479.81
436.34	416.62
436.53	461.09
436.72	379.17
436.90	400.23
437.09	407.25
437.28	381.51
437.46	362.78
437.65	407.25
437.84	337.04
438.02	433.00
438.21	454.06
438.40	435.34
438.58	374.49
438.77	414.27
438.96	524.28
439.14	386.19
439.33	437.68
439.52	409.59
439.70	402.57
439.89	404.91
440.08	461.09
440.26	435.34
440.45	447.04
440.63	465.77
440.82	498.53
441.01	433.00
441.19	493.85
441.38	477.47
441.57	379.17
441.75	395.55
441.94	477.47
442.12	397.89
442.31	425.98
442.50	449.38
442.68	367.46
442.87	379.17
443.05	421.30
443.24	423.64
443.43	437.68
443.61	472.79
443.80	381.51
443.98	440.02
444.17	409.59
444.35	367.46
444.54	414.27
444.73	477.47
444.91	461.09
445.10	397.89
445.28	383.85
445.47	367.46
445.65	369.80
445.84	414.27
446.02	444.70
446.21	381.51
446.39	482.15
446.58	393.21
446.77	416.62
446.95	435.34
447.14	374.49
447.32	484.49
447.51	437.68
447.69	386.19
447.88	404.91
448.06	393.21
448.25	383.85
448.43	475.13
448.62	409.59
448.80	383.85
448.99	390.87
449.17	388.53
449.36	423.64
449.54	390.87
449.73	435.34
449.91	433.00
450.10	435.34
450.28	461.09
450.46	472.79
450.65	433.00
450.83	465.77
451.02	421.30
451.20	402.57
451.39	451.72
451.57	456.40
451.76	297.25
451.94	411.93
452.13	409.59
452.31	435.34
452.49	447.04
452.68	435.34
452.86	355.76
453.05	442.36
453.23	372.15
453.42	372.15
453.60	393.21
453.78	479.81
453.97	414.27
454.15	376.83
454.34	414.27
454.52	465.77
454.70	500.87
454.89	489.17
455.07	456.40
455.26	447.04
455.44	369.80
455.62	353.42
455.81	449.38
455.99	496.19
456.17	461.09
456.36	440.02
456.54	411.93
456.73	407.25
456.91	456.40
457.09	423.64
457.28	444.70
457.46	334.70
457.64	395.55
457.83	444.70
458.01	421.30
458.19	472.79
458.38	337.04
458.56	433.00
458.74	386.19
458.93	430.66
459.11	374.49
459.29	330.02
459.48	386.19
459.66	458.74
459.84	465.77
460.03	519.60
460.21	475.13
460.39	409.59
460.57	386.19
460.76	468.11
460.94	386.19
461.12	393.21
461.31	531.30
461.49	404.91
461.67	362.78
461.85	393.21
462.04	421.30
462.22	770.04
462.40	367.46
462.59	470.45
462.77	374.49
462.95	463.43
463.13	365.12
463.32	425.98
463.50	404.91
463.68	425.98
463.86	358.10
464.05	362.78
464.23	440.02
464.41	472.79
464.59	383.85
464.78	503.22
464.96	372.15
465.14	475.13
465.32	339.38
465.50	416.62
465.69	447.04
465.87	386.19
466.05	451.72
466.23	402.57
466.41	433.00
466.60	477.47
466.78	435.34
466.96	433.00
467.14	433.00
467.32	402.57
467.51	430.66
467.69	395.55
467.87	463.43
468.05	430.66
468.23	465.77
468.41	503.22
468.60	416.62
468.78	477.47
468.96	393.21
469.14	440.02
469.32	386.19
469.50	353.42
469.69	400.23
469.87	393.21
470.05	451.72
470.23	416.62
470.41	451.72
470.59	423.64
470.77	435.34
470.95	430.66
471.14	402.57
471.32	388.53
471.50	428.32
471.68	486.83
471.86	409.59
472.04	369.80
472.22	411.93
472.40	374.49
472.58	409.59
472.77	393.21
472.95	402.57
473.13	472.79
473.31	430.66
473.49	365.12
473.67	376.83
473.85	365.12
474.03	386.19
474.21	355.76
474.39	390.87
474.57	489.17
474.75	451.72
474.93	430.66
475.12	442.36
475.30	372.15
475.48	407.25
475.66	447.04
475.84	425.98
476.02	395.55
476.20	388.53
476.38	500.87
476.56	442.36
476.74	334.70
476.92	365.12
477.10	393.21
477.28	386.19
477.46	447.04
477.64	447.04
477.82	437.68
478.00	425.98
478.18	393.21
478.36	421.30
478.54	428.32
478.72	379.17
478.90	369.80
479.08	440.02
479.26	386.19
479.44	374.49
479.62	416.62
479.80	489.17
479.98	386.19
480.16	433.00
480.34	440.02
480.52	360.44
480.70	400.23
480.88	475.13
481.06	458.74
481.24	454.06
481.41	360.44
481.59	430.66
481.77	397.89
481.95	395.55
482.13	376.83
482.31	386.19
482.49	393.21
482.67	475.13
482.85	351.08
483.03	409.59
483.21	386.19
483.39	395.55
483.57	449.38
483.74	425.98
483.92	372.15
484.10	390.87
484.28	376.83
484.46	477.47
484.64	454.06
484.82	416.62
485.00	402.57
485.18	407.25
485.35	444.70
485.53	369.80
485.71	517.26
485.89	362.78
486.07	332.36
486.25	428.32
486.43	472.79
486.61	496.19
486.78	449.38
486.96	376.83
487.14	482.15
487.32	418.96
487.50	358.10
487.68	421.30
487.85	461.09
488.03	372.15
488.21	442.36
488.39	360.44
488.57	400.23
488.75	463.43
488.92	575.77
489.10	468.11
489.28	470.45
489.46	397.89
489.64	393.21
489.81	428.32
489.99	430.66
490.17	456.40
490.35	425.98
490.53	320.65
490.70	449.38
490.88	475.13
491.06	463.43
491.24	430.66
491.41	414.27
491.59	449.38
491.77	449.38
491.95	400.23
492.13	423.64
492.30	379.17
492.48	440.02
492.66	376.83
492.84	404.91
493.01	433.00
493.19	451.72
493.37	435.34
493.54	465.77
493.72	423.64
493.90	367.46
494.08	404.91
494.25	447.04
494.43	437.68
494.61	376.83
494.79	369.80
494.96	430.66
495.14	458.74
495.32	454.06
495.49	400.23
495.67	444.70
495.85	418.96
496.02	437.68
496.20	411.93
496.38	430.66
496.55	418.96
496.73	428.32
496.91	402.57
497.09	400.23
497.26	376.83
497.44	409.59
497.62	397.89
497.79	444.70
497.97	493.85
498.14	400.23
498.32	372.15
498.50	337.04
498.67	367.46
498.85	475.13
499.03	369.80
499.20	407.25
499.38	433.00
499.56	351.08
499.73	381.51
499.91	470.45
500.08	440.02
500.26	369.80
500.44	418.96
500.61	442.36
500.79	447.04
500.97	423.64
501.14	477.47
501.32	388.53
501.49	454.06
501.67	393.21
501.84	423.64
502.02	346.40
502.20	444.70
502.37	416.62
502.55	404.91
502.72	395.55
502.90	409.59
503.07	386.19
503.25	414.27
503.43	330.02
503.60	423.64
503.78	404.91
503.95	430.66
504.13	393.21
504.30	435.34
504.48	390.87
504.65	376.83
504.83	386.19
505.01	383.85
505.18	423.64
505.36	355.76
505.53	449.38
505.71	383.85
505.88	433.00
506.06	381.51
506.23	381.51
506.41	341.72
506.58	430.66
506.76	416.62
506.93	374.49
507.11	437.68
507.28	374.49
507.46	400.23
507.63	428.32
507.81	372.15
507.98	400.23
508.16	402.57
508.33	369.80
508.50	332.36
508.68	465.77
508.85	423.64
509.03	411.93
509.20	416.62
509.38	386.19
509.55	390.87
509.73	397.89
509.90	421.30
510.08	374.49
510.25	360.44
510.42	435.34
510.60	433.00
510.77	461.09
510.95	376.83
511.12	416.62
511.30	411.93
511.47	411.93
511.64	433.00
511.82	383.85
511.99	428.32
512.17	421.30
512.34	423.64
512.51	372.15
512.69	395.55
512.86	369.80
513.04	355.76
513.21	458.74
513.38	344.06
513.56	367.46
513.73	379.17
513.90	447.04
514.08	425.98
514.25	402.57
514.43	430.66
514.60	348.74
514.77	358.10
514.95	440.02
515.12	386.19
515.29	407.25
515.47	348.74
515.64	390.87
515.81	402.57
515.99	484.49
516.16	397.89
516.33	416.62
516.51	386.19
516.68	449.38
516.85	414.27
517.03	322.99
517.20	430.66
517.37	402.57
517.54	423.64
517.72	449.38
517.89	428.32
518.06	425.98
518.24	449.38
518.41	517.26
518.58	423.64
518.75	388.53
518.93	414.27
519.10	444.70
519.27	430.66
519.45	465.77
519.62	425.98
519.79	440.02
519.96	449.38
520.14	365.12
520.31	447.04
520.48	418.96
520.65	381.51
520.83	463.43
521.00	386.19
521.17	447.04
521.34	365.12
521.52	416.62
521.69	402.57
521.86	428.32
522.03	395.55
522.20	428.32
522.38	430.66
522.55	411.93
522.72	447.04
522.89	486.83
523.07	463.43
523.24	395.55
523.41	423.64
523.58	437.68
523.75	411.93
523.92	400.23
524.10	479.81
524.27	418.96
524.44	365.12
524.61	458.74
524.78	386.19
524.96	454.06
525.13	358.10
525.30	390.87
525.47	435.34
525.64	397.89
525.81	397.89
525.98	386.19
526.16	451.72
526.33	444.70
526.50	421.30
526.67	503.22
526.84	470.45
527.01	393.21
527.18	395.55
527.36	404.91
527.53	395.55
527.70	489.17
527.87	463.43
528.04	498.53
528.21	390.87
528.38	484.49
528.55	379.17
528.72	379.17
528.89	437.68
529.07	388.53
529.24	386.19
529.41	425.98
529.58	500.87
529.75	334.70
529.92	376.83
530.09	435.34
530.26	411.93
530.43	358.10
530.60	379.17
530.77	407.25
530.94	386.19
531.11	447.04
531.28	451.72
531.46	491.51
531.63	416.62
531.80	397.89
531.97	454.06
532.14	454.06
532.31	458.74
532.48	416.62
532.65	451.72
532.82	404.91
532.99	372.15
533.16	407.25
533.33	458.74
533.50	402.57
533.67	458.74
533.84	402.57
534.01	416.62
534.18	383.85
534.35	388.53
534.52	430.66
534.69	430.66
534.86	388.53
535.03	355.76
535.20	393.21
535.37	475.13
535.54	449.38
535.71	489.17
535.88	447.04
536.05	395.55
536.22	376.83
536.38	397.89
536.55	423.64
536.72	404.91
536.89	409.59
537.06	367.46
537.23	463.43
537.40	407.25
537.57	409.59
537.74	456.40
537.91	543.00
538.08	402.57
538.25	430.66
538.42	353.42
538.59	411.93
538.75	414.27
538.92	397.89
539.09	435.34
539.26	379.17
539.43	388.53
539.60	341.72
539.77	458.74
539.94	400.23
540.11	425.98
540.28	505.56
540.44	463.43
540.61	397.89
540.78	411.93
540.95	428.32
541.12	456.40
541.29	395.55
541.46	411.93
541.62	411.93
541.79	400.23
541.96	409.59
542.13	404.91
542.30	435.34
542.47	442.36
542.63	479.81
542.80	383.85
542.97	447.04
543.14	397.89
543.31	397.89
543.48	454.06
543.64	456.40
543.81	369.80
543.98	451.72
544.15	400.23
544.32	348.74
544.48	404.91
544.65	458.74
544.82	365.12
544.99	407.25
545.16	444.70
545.32	470.45
545.49	454.06
545.66	348.74
545.83	433.00
546.00	386.19
546.16	386.19
546.33	397.89
546.50	365.12
546.67	407.25
546.83	409.59
547.00	440.02
547.17	423.64
547.34	444.70
547.50	472.79
547.67	435.34
547.84	365.12
548.00	447.04
548.17	383.85
548.34	402.57
548.51	461.09
548.67	440.02
548.84	395.55
549.01	416.62
549.18	418.96
549.34	493.85
549.51	430.66
549.68	442.36
549.84	416.62
550.01	437.68
550.18	514.92
550.34	449.38
550.51	482.15
550.68	451.72
550.84	388.53
551.01	362.78
551.18	458.74
551.34	369.80
551.51	428.32
551.68	416.62
551.84	440.02
552.01	414.27
552.18	395.55
552.34	451.72
552.51	355.76
552.68	402.57
552.84	379.17
553.01	435.34
553.18	423.64
553.34	423.64
553.51	442.36
553.67	463.43
553.84	484.49
554.01	433.00
554.17	430.66
554.34	404.91
554.51	315.97
554.67	411.93
554.84	428.32
555.00	435.34
555.17	430.66
555.33	437.68
555.50	447.04
555.67	402.57
555.83	458.74
556.00	428.32
556.16	519.60
556.33	482.15
556.50	355.76
556.66	381.51
556.83	388.53
556.99	395.55
557.16	472.79
557.32	449.38
557.49	402.57
557.65	402.57
557.82	435.34
557.98	449.38
558.15	465.77
558.32	414.27
558.48	456.40
558.65	362.78
558.81	456.40
558.98	442.36
559.14	416.62
559.31	369.80
559.47	454.06
559.64	449.38
559.80	437.68
559.97	418.96
560.13	475.13
560.30	409.59
560.46	482.15
560.63	470.45
560.79	442.36
560.96	337.04
561.12	451.72
561.29	353.42
561.45	456.40
561.61	416.62
561.78	440.02
561.94	451.72
562.11	404.91
562.27	372.15
562.44	414.27
562.60	409.59
562.77	411.93
562.93	416.62
563.10	407.25
563.26	416.62
563.42	418.96
563.59	330.02
563.75	425.98
563.92	512.58
564.08	519.60
564.24	381.51
564.41	496.19
564.57	376.83
564.74	388.53
564.90	379.17
565.07	407.25
565.23	484.49
565.39	409.59
565.56	514.92
565.72	418.96
565.88	433.00
566.05	386.19
566.21	437.68
566.38	423.64
566.54	423.64
566.70	418.96
566.87	458.74
567.03	409.59
567.19	456.40
567.36	503.22
567.52	423.64
567.68	381.51
567.85	423.64
568.01	388.53
568.17	393.21
568.34	425.98
568.50	393.21
568.66	388.53
568.83	507.90
568.99	416.62
569.15	437.68
569.32	397.89
569.48	414.27
569.64	367.46
569.81	423.64
569.97	433.00
570.13	482.15
570.30	355.76
570.46	447.04
570.62	421.30
570.78	468.11
570.95	376.83
571.11	423.64
571.27	411.93
571.43	372.15
571.60	437.68
571.76	388.53
571.92	437.68
572.09	374.49
572.25	374.49
572.41	362.78
572.57	423.64
572.74	444.70
572.90	409.59
573.06	386.19
573.22	456.40
573.38	411.93
573.55	444.70
573.71	496.19
573.87	489.17
574.03	411.93
574.20	381.51
574.36	435.34
574.52	507.90
574.68	346.40
574.84	482.15
575.01	465.77
575.17	484.49
575.33	369.80
575.49	470.45
575.65	397.89
575.82	430.66
575.98	433.00
576.14	423.64
576.30	430.66
576.46	395.55
576.62	404.91
576.79	430.66
576.95	437.68
577.11	372.15
577.27	472.79
577.43	409.59
577.59	461.09
577.75	428.32
577.92	411.93
578.08	400.23
578.24	346.40
578.40	418.96
578.56	512.58
578.72	416.62
578.88	430.66
579.04	433.00
579.21	411.93
579.37	442.36
579.53	430.66
579.69	496.19
579.85	395.55
580.01	435.34
580.17	442.36
580.33	395.55
580.49	428.32
580.65	447.04
580.82	423.64
580.98	372.15
581.14	409.59
581.30	458.74
581.46	369.80
581.62	407.25
581.78	477.47
581.94	449.38
582.10	463.43
582.26	402.57
582.42	421.30
582.58	390.87
582.74	449.38
582.90	414.27
583.06	451.72
583.22	397.89
583.38	395.55
583.54	458.74
583.70	533.64
583.86	435.34
584.02	409.59
584.18	320.65
584.34	376.83
584.50	304.27
584.66	367.46
584.82	421.30
584.98	505.56
585.14	428.32
585.30	484.49
585.46	404.91
585.62	498.53
585.78	463.43
585.94	440.02
586.10	418.96
586.26	397.89
586.42	456.40
586.58	423.64
586.74	397.89
586.90	440.02
587.06	379.17
587.22	421.30
587.38	390.87
587.54	423.64
587.70	397.89
587.86	433.00
588.02	404.91
588.18	400.23
588.34	416.62
588.49	482.15
588.65	390.87
588.81	451.72
588.97	430.66
589.13	365.12
589.29	444.70
589.45	409.59
589.61	402.57
589.77	475.13
589.93	397.89
590.08	402.57
590.24	428.32
590.40	400.23
590.56	395.55
590.72	372.15
590.88	472.79
591.04	447.04
591.20	414.27
591.35	430.66
591.51	411.93
591.67	353.42
591.83	400.23
591.99	421.30
592.15	383.85
592.31	367.46
592.46	437.68
592.62	395.55
592.78	465.77
592.94	416.62
593.10	475.13
593.26	348.74
593.41	393.21
593.57	409.59
593.73	451.72
593.89	430.66
594.05	425.98
594.20	435.34
594.36	365.12
594.52	332.36
594.68	383.85
594.84	400.23
594.99	435.34
595.15	374.49
595.31	421.30
595.47	498.53
595.62	386.19
595.78	442.36
595.94	451.72
596.10	449.38
596.25	440.02
596.41	475.13
596.57	381.51
596.73	421.30
596.88	386.19
597.04	500.87
597.20	355.76
597.36	447.04
597.51	470.45
597.67	414.27
597.83	423.64
597.99	416.62
598.14	425.98
598.30	411.93
598.46	374.49
598.61	425.98
598.77	418.96
598.93	341.72
599.09	456.40
599.24	376.83
599.40	465.77
599.56	411.93
599.71	482.15
599.87	456.40
600.03	444.70
600.18	402.57
600.34	465.77
600.50	379.17
600.65	402.57
600.81	386.19
600.97	479.81
601.12	400.23
601.28	428.32
601.44	461.09
601.59	393.21
601.75	379.17
601.91	433.00
602.06	479.81
602.22	468.11
602.37	435.34
602.53	397.89
602.69	351.08
602.84	393.21
603.00	437.68
603.16	407.25
603.31	458.74
603.47	423.64
603.62	411.93
603.78	414.27
603.94	491.51
604.09	390.87
604.25	444.70
604.40	454.06
604.56	456.40
604.71	379.17
604.87	332.36
605.03	397.89
605.18	435.34
605.34	395.55
605.49	442.36
605.65	463.43
605.80	421.30
605.96	376.83
606.12	477.47
606.27	440.02
606.43	440.02
606.58	376.83
606.74	388.53
606.89	465.77
607.05	411.93
607.20	367.46
607.36	421.30
607.51	395.55
607.67	423.64
607.82	425.98
607.98	500.87
608.13	447.04
608.29	510.24
608.44	421.30
608.60	442.36
608.75	454.06
608.91	456.40
609.06	348.74
609.22	395.55
609.37	372.15
609.53	442.36
609.68	395.55
609.84	472.79
609.99	409.59
610.15	393.21
