SpectraSuite Data File
++++++++++++++++++++++++++++++++++++
Date: Fri Oct 25 12:11:11 EDT 2013
User: price-jones
Dark Spectrum Present: No
Reference Spectrum Present: No
Number of Sampled Component Spectra: 1
Spectrometers: USB2+H05261
Integration Time (usec): 100000 (USB2+H05261)
Spectra Averaged: 1 (USB2+H05261)
Boxcar Smoothing: 0 (USB2+H05261)
Correct for Electrical Dark: No (USB2+H05261)
Strobe/Lamp Enabled: No (USB2+H05261)
Correct for Detector Non-linearity: No (USB2+H05261)
Correct for Stray Light: No (USB2+H05261)
Number of Pixels in Processed Spectrum: 2048
>>>>>Begin Processed Spectral Data<<<<<
365.73	374.49
365.92	374.49
366.12	374.49
366.32	278.52
366.52	264.48
366.72	229.37
366.91	168.52
367.11	283.20
367.31	222.35
367.51	250.44
367.70	156.82
367.90	212.99
368.10	175.54
368.30	297.25
368.49	269.16
368.69	278.52
368.89	245.76
369.09	287.89
369.28	262.14
369.48	304.27
369.68	266.82
369.87	330.02
370.07	294.91
370.27	395.55
370.47	351.08
370.66	337.04
370.86	330.02
371.06	318.31
371.25	430.66
371.45	273.84
371.65	367.46
371.84	358.10
372.04	390.87
372.24	472.79
372.44	435.34
372.63	493.85
372.83	444.70
373.03	418.96
373.22	393.21
373.42	421.30
373.62	430.66
373.81	372.15
374.01	444.70
374.21	404.91
374.40	435.34
374.60	458.74
374.79	468.11
374.99	358.10
375.19	461.09
375.38	423.64
375.58	397.89
375.78	454.06
375.97	433.00
376.17	442.36
376.37	407.25
376.56	390.87
376.76	447.04
376.95	454.06
377.15	454.06
377.35	477.47
377.54	414.27
377.74	404.91
377.93	379.17
378.13	379.17
378.33	374.49
378.52	416.62
378.72	461.09
378.91	449.38
379.11	442.36
379.31	400.23
379.50	402.57
379.70	423.64
379.89	383.85
380.09	407.25
380.28	421.30
380.48	404.91
380.68	379.17
380.87	407.25
381.07	400.23
381.26	451.72
381.46	430.66
381.65	418.96
381.85	388.53
382.04	395.55
382.24	397.89
382.43	451.72
382.63	416.62
382.83	433.00
383.02	465.77
383.22	393.21
383.41	407.25
383.61	407.25
383.80	425.98
384.00	451.72
384.19	322.99
384.39	411.93
384.58	404.91
384.78	428.32
384.97	442.36
385.17	358.10
385.36	421.30
385.56	458.74
385.75	393.21
385.95	346.40
386.14	461.09
386.34	360.44
386.53	475.13
386.72	397.89
386.92	404.91
387.11	388.53
387.31	393.21
387.50	440.02
387.70	381.51
387.89	416.62
388.09	421.30
388.28	449.38
388.48	376.83
388.67	372.15
388.86	390.87
389.06	433.00
389.25	414.27
389.45	407.25
389.64	402.57
389.84	430.66
390.03	358.10
390.22	383.85
390.42	425.98
390.61	411.93
390.81	308.95
391.00	435.34
391.19	416.62
391.39	362.78
391.58	458.74
391.78	395.55
391.97	353.42
392.16	400.23
392.36	418.96
392.55	454.06
392.75	407.25
392.94	320.65
393.13	433.00
393.33	411.93
393.52	409.59
393.71	458.74
393.91	383.85
394.10	423.64
394.29	454.06
394.49	411.93
394.68	376.83
394.88	379.17
395.07	416.62
395.26	418.96
395.46	428.32
395.65	423.64
395.84	381.51
396.04	538.32
396.23	409.59
396.42	374.49
396.62	374.49
396.81	393.21
397.00	372.15
397.19	381.51
397.39	397.89
397.58	496.19
397.77	402.57
397.97	404.91
398.16	409.59
398.35	461.09
398.55	416.62
398.74	444.70
398.93	388.53
399.12	411.93
399.32	437.68
399.51	379.17
399.70	409.59
399.90	505.56
400.09	477.47
400.28	435.34
400.47	360.44
400.67	416.62
400.86	456.40
401.05	351.08
401.24	358.10
401.44	395.55
401.63	430.66
401.82	395.55
402.01	484.49
402.21	435.34
402.40	400.23
402.59	397.89
402.78	346.40
402.97	435.34
403.17	418.96
403.36	442.36
403.55	383.85
403.74	376.83
403.93	456.40
404.13	421.30
404.32	346.40
404.51	451.72
404.70	465.77
404.89	416.62
405.09	400.23
405.28	430.66
405.47	414.27
405.66	372.15
405.85	414.27
406.05	414.27
406.24	372.15
406.43	362.78
406.62	409.59
406.81	418.96
407.00	367.46
407.20	397.89
407.39	397.89
407.58	423.64
407.77	456.40
407.96	411.93
408.15	425.98
408.34	421.30
408.54	437.68
408.73	449.38
408.92	393.21
409.11	376.83
409.30	505.56
409.49	465.77
409.68	430.66
409.87	456.40
410.07	414.27
410.26	461.09
410.45	428.32
410.64	372.15
410.83	411.93
411.02	383.85
411.21	383.85
411.40	444.70
411.59	411.93
411.78	437.68
411.98	346.40
412.17	400.23
412.36	395.55
412.55	470.45
412.74	383.85
412.93	484.49
413.12	451.72
413.31	468.11
413.50	418.96
413.69	393.21
413.88	477.47
414.07	418.96
414.26	433.00
414.45	362.78
414.64	430.66
414.83	418.96
415.02	411.93
415.22	416.62
415.41	435.34
415.60	404.91
415.79	365.12
415.98	440.02
416.17	411.93
416.36	449.38
416.55	397.89
416.74	505.56
416.93	444.70
417.12	355.76
417.31	425.98
417.50	491.51
417.69	437.68
417.88	458.74
418.07	334.70
418.26	444.70
418.45	423.64
418.64	451.72
418.83	395.55
419.02	409.59
419.21	374.49
419.39	388.53
419.58	425.98
419.77	355.76
419.96	416.62
420.15	400.23
420.34	372.15
420.53	332.36
420.72	447.04
420.91	374.49
421.10	395.55
421.29	395.55
421.48	440.02
421.67	418.96
421.86	369.80
422.05	470.45
422.24	372.15
422.43	390.87
422.61	423.64
422.80	393.21
422.99	428.32
423.18	437.68
423.37	339.38
423.56	358.10
423.75	421.30
423.94	454.06
424.13	362.78
424.32	311.29
424.50	386.19
424.69	440.02
424.88	463.43
425.07	388.53
425.26	404.91
425.45	365.12
425.64	376.83
425.83	367.46
426.01	444.70
426.20	451.72
426.39	444.70
426.58	440.02
426.77	393.21
426.96	468.11
427.15	386.19
427.33	379.17
427.52	475.13
427.71	435.34
427.90	421.30
428.09	358.10
428.28	388.53
428.46	435.34
428.65	376.83
428.84	397.89
429.03	421.30
429.22	386.19
429.40	423.64
429.59	386.19
429.78	449.38
429.97	486.83
430.16	454.06
430.34	430.66
430.53	374.49
430.72	409.59
430.91	409.59
431.10	393.21
431.28	423.64
431.47	475.13
431.66	327.68
431.85	414.27
432.03	355.76
432.22	461.09
432.41	437.68
432.60	447.04
432.79	390.87
432.97	409.59
433.16	435.34
433.35	369.80
433.54	397.89
433.72	472.79
433.91	428.32
434.10	341.72
434.28	423.64
434.47	386.19
434.66	346.40
434.85	440.02
435.03	447.04
435.22	468.11
435.41	482.15
435.59	332.36
435.78	416.62
435.97	409.59
436.16	402.57
436.34	421.30
436.53	409.59
436.72	423.64
436.90	390.87
437.09	388.53
437.28	409.59
437.46	437.68
437.65	493.85
437.84	395.55
438.02	386.19
438.21	444.70
438.40	358.10
438.58	430.66
438.77	435.34
438.96	400.23
439.14	442.36
439.33	458.74
439.52	425.98
439.70	418.96
439.89	433.00
440.08	440.02
440.26	486.83
440.45	463.43
440.63	475.13
440.82	404.91
441.01	386.19
441.19	454.06
441.38	402.57
441.57	381.51
441.75	402.57
441.94	437.68
442.12	397.89
442.31	430.66
442.50	404.91
442.68	407.25
442.87	376.83
443.05	430.66
443.24	442.36
443.43	433.00
443.61	407.25
443.80	428.32
443.98	433.00
444.17	409.59
444.35	447.04
444.54	325.33
444.73	367.46
444.91	407.25
445.10	430.66
445.28	390.87
445.47	332.36
445.65	367.46
445.84	390.87
446.02	486.83
446.21	402.57
446.39	400.23
446.58	414.27
446.77	409.59
446.95	390.87
447.14	381.51
447.32	365.12
447.51	339.38
447.69	458.74
447.88	388.53
448.06	397.89
448.25	411.93
448.43	360.44
448.62	393.21
448.80	454.06
448.99	449.38
449.17	430.66
449.36	416.62
449.54	433.00
449.73	440.02
449.91	369.80
450.10	468.11
450.28	421.30
450.46	402.57
450.65	423.64
450.83	414.27
451.02	402.57
451.20	437.68
451.39	414.27
451.57	451.72
451.76	404.91
451.94	484.49
452.13	433.00
452.31	482.15
452.49	425.98
452.68	390.87
452.86	430.66
453.05	428.32
453.23	449.38
453.42	397.89
453.60	435.34
453.78	397.89
453.97	430.66
454.15	407.25
454.34	365.12
454.52	447.04
454.70	447.04
454.89	390.87
455.07	440.02
455.26	411.93
455.44	449.38
455.62	440.02
455.81	381.51
455.99	362.78
456.17	360.44
456.36	386.19
456.54	449.38
456.73	358.10
456.91	397.89
457.09	425.98
457.28	388.53
457.46	339.38
457.64	376.83
457.83	414.27
458.01	402.57
458.19	372.15
458.38	386.19
458.56	395.55
458.74	433.00
458.93	454.06
459.11	381.51
459.29	430.66
459.48	456.40
459.66	489.17
459.84	407.25
460.03	561.73
460.21	395.55
460.39	449.38
460.57	479.81
460.76	437.68
460.94	367.46
461.12	484.49
461.31	442.36
461.49	411.93
461.67	365.12
461.85	411.93
462.04	402.57
462.22	746.63
462.40	477.47
462.59	416.62
462.77	372.15
462.95	423.64
463.13	304.27
463.32	451.72
463.50	365.12
463.68	430.66
463.86	489.17
464.05	365.12
464.23	430.66
464.41	435.34
464.59	444.70
464.78	442.36
464.96	376.83
465.14	390.87
465.32	456.40
465.50	510.24
465.69	458.74
465.87	383.85
466.05	341.72
466.23	372.15
466.41	400.23
466.60	367.46
466.78	395.55
466.96	397.89
467.14	416.62
467.32	393.21
467.51	397.89
467.69	468.11
467.87	435.34
468.05	423.64
468.23	404.91
468.41	496.19
468.60	379.17
468.78	372.15
468.96	430.66
469.14	402.57
469.32	376.83
469.50	407.25
469.69	423.64
469.87	423.64
470.05	388.53
470.23	470.45
470.41	507.90
470.59	379.17
470.77	374.49
470.95	374.49
471.14	454.06
471.32	386.19
471.50	444.70
471.68	437.68
471.86	463.43
472.04	461.09
472.22	372.15
472.40	430.66
472.58	423.64
472.77	482.15
472.95	444.70
473.13	475.13
473.31	437.68
473.49	404.91
473.67	482.15
473.85	461.09
474.03	407.25
474.21	440.02
474.39	486.83
474.57	512.58
474.75	423.64
474.93	367.46
475.12	397.89
475.30	447.04
475.48	390.87
475.66	395.55
475.84	475.13
476.02	465.77
476.20	503.22
476.38	440.02
476.56	493.85
476.74	456.40
476.92	390.87
477.10	374.49
477.28	517.26
477.46	463.43
477.64	362.78
477.82	379.17
478.00	407.25
478.18	433.00
478.36	444.70
478.54	376.83
478.72	369.80
478.90	346.40
479.08	430.66
479.26	433.00
479.44	468.11
479.62	409.59
479.80	367.46
479.98	425.98
480.16	428.32
480.34	437.68
480.52	374.49
480.70	461.09
480.88	416.62
481.06	313.63
481.24	393.21
481.41	376.83
481.59	362.78
481.77	374.49
481.95	381.51
482.13	386.19
482.31	339.38
482.49	367.46
482.67	383.85
482.85	447.04
483.03	376.83
483.21	477.47
483.39	400.23
483.57	411.93
483.74	477.47
483.92	475.13
484.10	397.89
484.28	442.36
484.46	458.74
484.64	407.25
484.82	477.47
485.00	421.30
485.18	397.89
485.35	390.87
485.53	498.53
485.71	437.68
485.89	425.98
486.07	409.59
486.25	449.38
486.43	404.91
486.61	491.51
486.78	369.80
486.96	451.72
487.14	372.15
487.32	463.43
487.50	388.53
487.68	458.74
487.85	325.33
488.03	372.15
488.21	418.96
488.39	348.74
488.57	461.09
488.75	353.42
488.92	411.93
489.10	404.91
489.28	423.64
489.46	437.68
489.64	449.38
489.81	468.11
489.99	402.57
490.17	388.53
490.35	498.53
490.53	404.91
490.70	381.51
490.88	383.85
491.06	320.65
491.24	421.30
491.41	351.08
491.59	416.62
491.77	409.59
491.95	362.78
492.13	442.36
492.30	411.93
492.48	365.12
492.66	376.83
492.84	397.89
493.01	425.98
493.19	411.93
493.37	470.45
493.54	397.89
493.72	367.46
493.90	416.62
494.08	386.19
494.25	381.51
494.43	379.17
494.61	451.72
494.79	416.62
494.96	411.93
495.14	475.13
495.32	451.72
495.49	376.83
495.67	440.02
495.85	397.89
496.02	414.27
496.20	409.59
496.38	395.55
496.55	442.36
496.73	393.21
496.91	393.21
497.09	461.09
497.26	397.89
497.44	393.21
497.62	386.19
497.79	458.74
497.97	416.62
498.14	421.30
498.32	400.23
498.50	346.40
498.67	411.93
498.85	348.74
499.03	421.30
499.20	416.62
499.38	442.36
499.56	493.85
499.73	465.77
499.91	449.38
500.08	451.72
500.26	477.47
500.44	409.59
500.61	402.57
500.79	411.93
500.97	390.87
501.14	428.32
501.32	437.68
501.49	456.40
501.67	425.98
501.84	414.27
502.02	423.64
502.20	447.04
502.37	407.25
502.55	407.25
502.72	400.23
502.90	458.74
503.07	390.87
503.25	465.77
503.43	404.91
503.60	360.44
503.78	397.89
503.95	418.96
504.13	425.98
504.30	437.68
504.48	421.30
504.65	404.91
504.83	444.70
505.01	451.72
505.18	362.78
505.36	374.49
505.53	374.49
505.71	372.15
505.88	423.64
506.06	388.53
506.23	463.43
506.41	430.66
506.58	440.02
506.76	376.83
506.93	388.53
507.11	407.25
507.28	433.00
507.46	484.49
507.63	465.77
507.81	374.49
507.98	461.09
508.16	458.74
508.33	433.00
508.50	414.27
508.68	428.32
508.85	447.04
509.03	369.80
509.20	428.32
509.38	404.91
509.55	451.72
509.73	425.98
509.90	451.72
510.08	407.25
510.25	411.93
510.42	386.19
510.60	388.53
510.77	479.81
510.95	365.12
511.12	425.98
511.30	411.93
511.47	330.02
511.64	402.57
511.82	374.49
511.99	451.72
512.17	404.91
512.34	327.68
512.51	430.66
512.69	355.76
512.86	435.34
513.04	409.59
513.21	512.58
513.38	397.89
513.56	397.89
513.73	374.49
513.90	465.77
514.08	407.25
514.25	390.87
514.43	482.15
514.60	397.89
514.77	381.51
514.95	393.21
515.12	383.85
515.29	390.87
515.47	374.49
515.64	379.17
515.81	407.25
515.99	404.91
516.16	430.66
516.33	444.70
516.51	423.64
516.68	451.72
516.85	318.31
517.03	400.23
517.20	512.58
517.37	437.68
517.54	374.49
517.72	454.06
517.89	463.43
518.06	372.15
518.24	447.04
518.41	428.32
518.58	395.55
518.75	402.57
518.93	444.70
519.10	465.77
519.27	374.49
519.45	435.34
519.62	444.70
519.79	390.87
519.96	369.80
520.14	411.93
520.31	510.24
520.48	400.23
520.65	463.43
520.83	393.21
521.00	454.06
521.17	435.34
521.34	456.40
521.52	325.33
521.69	400.23
521.86	442.36
522.03	461.09
522.20	454.06
522.38	465.77
522.55	451.72
522.72	322.99
522.89	395.55
523.07	449.38
523.24	411.93
523.41	414.27
523.58	423.64
523.75	447.04
523.92	376.83
524.10	367.46
524.27	388.53
524.44	472.79
524.61	404.91
524.78	418.96
524.96	402.57
525.13	416.62
525.30	404.91
525.47	400.23
525.64	454.06
525.81	447.04
525.98	451.72
526.16	407.25
526.33	449.38
526.50	472.79
526.67	379.17
526.84	463.43
527.01	428.32
527.18	400.23
527.36	430.66
527.53	388.53
527.70	428.32
527.87	430.66
528.04	440.02
528.21	393.21
528.38	372.15
528.55	442.36
528.72	355.76
528.89	442.36
529.07	421.30
529.24	479.81
529.41	386.19
529.58	386.19
529.75	447.04
529.92	440.02
530.09	414.27
530.26	416.62
530.43	486.83
530.60	409.59
530.77	428.32
530.94	365.12
531.11	414.27
531.28	388.53
531.46	440.02
531.63	369.80
531.80	390.87
531.97	407.25
532.14	376.83
532.31	465.77
532.48	533.64
532.65	423.64
532.82	393.21
532.99	486.83
533.16	369.80
533.33	447.04
533.50	372.15
533.67	418.96
533.84	388.53
534.01	365.12
534.18	376.83
534.35	435.34
534.52	381.51
534.69	451.72
534.86	388.53
535.03	416.62
535.20	397.89
535.37	383.85
535.54	454.06
535.71	423.64
535.88	463.43
536.05	468.11
536.22	463.43
536.38	477.47
536.55	458.74
536.72	477.47
536.89	395.55
537.06	322.99
537.23	447.04
537.40	428.32
537.57	360.44
537.74	435.34
537.91	414.27
538.08	362.78
538.25	468.11
538.42	393.21
538.59	461.09
538.75	477.47
538.92	468.11
539.09	416.62
539.26	407.25
539.43	418.96
539.60	442.36
539.77	571.09
539.94	386.19
540.11	421.30
540.28	475.13
540.44	355.76
540.61	351.08
540.78	374.49
540.95	325.33
541.12	503.22
541.29	360.44
541.46	383.85
541.62	393.21
541.79	421.30
541.96	393.21
542.13	400.23
542.30	491.51
542.47	404.91
542.63	390.87
542.80	503.22
542.97	458.74
543.14	416.62
543.31	484.49
543.48	486.83
543.64	444.70
543.81	416.62
543.98	353.42
544.15	418.96
544.32	367.46
544.48	500.87
544.65	383.85
544.82	423.64
544.99	444.70
545.16	451.72
545.32	435.34
545.49	442.36
545.66	461.09
545.83	461.09
546.00	418.96
546.16	409.59
546.33	400.23
546.50	418.96
546.67	451.72
546.83	400.23
547.00	430.66
547.17	404.91
547.34	428.32
547.50	369.80
547.67	428.32
547.84	435.34
548.00	418.96
548.17	451.72
548.34	505.56
548.51	421.30
548.67	437.68
548.84	360.44
549.01	447.04
549.18	423.64
549.34	449.38
549.51	407.25
549.68	477.47
549.84	407.25
550.01	430.66
550.18	477.47
550.34	433.00
550.51	435.34
550.68	470.45
550.84	397.89
551.01	416.62
551.18	423.64
551.34	468.11
551.51	421.30
551.68	397.89
551.84	437.68
552.01	421.30
552.18	447.04
552.34	458.74
552.51	414.27
552.68	507.90
552.84	472.79
553.01	395.55
553.18	416.62
553.34	404.91
553.51	351.08
553.67	447.04
553.84	409.59
554.01	397.89
554.17	400.23
554.34	451.72
554.51	379.17
554.67	416.62
554.84	397.89
555.00	365.12
555.17	388.53
555.33	491.51
555.50	381.51
555.67	503.22
555.83	470.45
556.00	423.64
556.16	538.32
556.33	428.32
556.50	440.02
556.66	454.06
556.83	407.25
556.99	346.40
557.16	395.55
557.32	435.34
557.49	360.44
557.65	355.76
557.82	416.62
557.98	444.70
558.15	465.77
558.32	440.02
558.48	428.32
558.65	421.30
558.81	416.62
558.98	372.15
559.14	468.11
559.31	465.77
559.47	430.66
559.64	376.83
559.80	423.64
559.97	472.79
560.13	437.68
560.30	400.23
560.46	425.98
560.63	374.49
560.79	456.40
560.96	477.47
561.12	395.55
561.29	360.44
561.45	433.00
561.61	407.25
561.78	475.13
561.94	433.00
562.11	390.87
562.27	447.04
562.44	390.87
562.60	479.81
562.77	376.83
562.93	383.85
563.10	500.87
563.26	465.77
563.42	440.02
563.59	355.76
563.75	463.43
563.92	386.19
564.08	447.04
564.24	507.90
564.41	449.38
564.57	421.30
564.74	442.36
564.90	458.74
565.07	381.51
565.23	461.09
565.39	456.40
565.56	444.70
565.72	409.59
565.88	390.87
566.05	346.40
566.21	358.10
566.38	407.25
566.54	503.22
566.70	404.91
566.87	407.25
567.03	362.78
567.19	423.64
567.36	414.27
567.52	362.78
567.68	409.59
567.85	393.21
568.01	440.02
568.17	390.87
568.34	388.53
568.50	421.30
568.66	442.36
568.83	430.66
568.99	423.64
569.15	430.66
569.32	414.27
569.48	383.85
569.64	411.93
569.81	435.34
569.97	390.87
570.13	491.51
570.30	507.90
570.46	433.00
570.62	458.74
570.78	390.87
570.95	428.32
571.11	425.98
571.27	421.30
571.43	411.93
571.60	421.30
571.76	409.59
571.92	458.74
572.09	421.30
572.25	407.25
572.41	395.55
572.57	470.45
572.74	395.55
572.90	425.98
573.06	454.06
573.22	393.21
573.38	404.91
573.55	402.57
573.71	442.36
573.87	400.23
574.03	430.66
574.20	447.04
574.36	507.90
574.52	407.25
574.68	451.72
574.84	393.21
575.01	414.27
575.17	383.85
575.33	386.19
575.49	442.36
575.65	423.64
575.82	409.59
575.98	379.17
576.14	421.30
576.30	411.93
576.46	458.74
576.62	393.21
576.79	461.09
576.95	447.04
577.11	430.66
577.27	489.17
577.43	505.56
577.59	493.85
577.75	503.22
577.92	400.23
578.08	447.04
578.24	416.62
578.40	418.96
578.56	444.70
578.72	472.79
578.88	423.64
579.04	465.77
579.21	505.56
579.37	428.32
579.53	372.15
579.69	512.58
579.85	376.83
580.01	475.13
580.17	409.59
580.33	351.08
580.49	374.49
580.65	482.15
580.82	393.21
580.98	360.44
581.14	425.98
581.30	451.72
581.46	461.09
581.62	365.12
581.78	507.90
581.94	393.21
582.10	461.09
582.26	404.91
582.42	411.93
582.58	416.62
582.74	421.30
582.90	414.27
583.06	383.85
583.22	416.62
583.38	421.30
583.54	402.57
583.70	407.25
583.86	465.77
584.02	355.76
584.18	489.17
584.34	386.19
584.50	416.62
584.66	411.93
584.82	409.59
584.98	374.49
585.14	416.62
585.30	388.53
585.46	421.30
585.62	411.93
585.78	416.62
585.94	416.62
586.10	397.89
586.26	456.40
586.42	472.79
586.58	423.64
586.74	383.85
586.90	458.74
587.06	423.64
587.22	423.64
587.38	425.98
587.54	390.87
587.70	451.72
587.86	423.64
588.02	374.49
588.18	402.57
588.34	418.96
588.49	395.55
588.65	440.02
588.81	404.91
588.97	409.59
589.13	475.13
589.29	461.09
589.45	447.04
589.61	383.85
589.77	465.77
589.93	421.30
590.08	386.19
590.24	390.87
590.40	433.00
590.56	468.11
590.72	425.98
590.88	318.31
591.04	421.30
591.20	465.77
591.35	400.23
591.51	425.98
591.67	402.57
591.83	428.32
591.99	395.55
592.15	409.59
592.31	358.10
592.46	437.68
592.62	388.53
592.78	376.83
592.94	421.30
593.10	414.27
593.26	369.80
593.41	435.34
593.57	440.02
593.73	393.21
593.89	404.91
594.05	454.06
594.20	393.21
594.36	433.00
594.52	409.59
594.68	425.98
594.84	472.79
594.99	435.34
595.15	489.17
595.31	411.93
595.47	411.93
595.62	369.80
595.78	500.87
595.94	353.42
596.10	409.59
596.25	414.27
596.41	397.89
596.57	465.77
596.73	425.98
596.88	374.49
597.04	353.42
597.20	489.17
597.36	505.56
597.51	411.93
597.67	407.25
597.83	332.36
597.99	400.23
598.14	376.83
598.30	411.93
598.46	440.02
598.61	449.38
598.77	358.10
598.93	428.32
599.09	407.25
599.24	358.10
599.40	458.74
599.56	362.78
599.71	449.38
599.87	379.17
600.03	304.27
600.18	428.32
600.34	386.19
600.50	404.91
600.65	360.44
600.81	475.13
600.97	397.89
601.12	414.27
601.28	423.64
601.44	414.27
601.59	388.53
601.75	430.66
601.91	433.00
602.06	421.30
602.22	458.74
602.37	456.40
602.53	351.08
602.69	402.57
602.84	339.38
603.00	465.77
603.16	407.25
603.31	433.00
603.47	486.83
603.62	341.72
603.78	456.40
603.94	402.57
604.09	423.64
604.25	447.04
604.40	421.30
604.56	388.53
604.71	395.55
604.87	346.40
605.03	418.96
605.18	447.04
605.34	416.62
605.49	369.80
605.65	470.45
605.80	341.72
605.96	386.19
606.12	423.64
606.27	404.91
606.43	358.10
606.58	397.89
606.74	442.36
606.89	444.70
607.05	402.57
607.20	381.51
607.36	428.32
607.51	393.21
607.67	451.72
607.82	400.23
607.98	421.30
608.13	454.06
608.29	404.91
608.44	461.09
608.60	440.02
608.75	430.66
608.91	463.43
609.06	407.25
609.22	440.02
609.37	465.77
609.53	337.04
609.68	376.83
609.84	367.46
609.99	395.55
610.15	404.91
