SpectraSuite Data File
++++++++++++++++++++++++++++++++++++
Date: Fri Oct 25 12:10:15 EDT 2013
User: price-jones
Dark Spectrum Present: No
Reference Spectrum Present: No
Number of Sampled Component Spectra: 1
Spectrometers: USB2+H05261
Integration Time (usec): 100000 (USB2+H05261)
Spectra Averaged: 1 (USB2+H05261)
Boxcar Smoothing: 0 (USB2+H05261)
Correct for Electrical Dark: No (USB2+H05261)
Strobe/Lamp Enabled: No (USB2+H05261)
Correct for Detector Non-linearity: No (USB2+H05261)
Correct for Stray Light: No (USB2+H05261)
Number of Pixels in Processed Spectrum: 2048
>>>>>Begin Processed Spectral Data<<<<<
365.73	290.23
365.92	290.23
366.12	290.23
366.32	255.12
366.52	304.27
366.72	250.44
366.91	259.80
367.11	290.23
367.31	198.95
367.51	231.71
367.70	189.58
367.90	266.82
368.10	241.08
368.30	278.52
368.49	234.05
368.69	250.44
368.89	271.50
369.09	224.69
369.28	250.44
369.48	229.37
369.68	285.55
369.87	255.12
370.07	297.25
370.27	332.36
370.47	269.16
370.66	315.97
370.86	362.78
371.06	339.38
371.25	404.91
371.45	337.04
371.65	411.93
371.84	381.51
372.04	322.99
372.24	425.98
372.44	325.33
372.63	402.57
372.83	440.02
373.03	344.06
373.22	369.80
373.42	423.64
373.62	437.68
373.81	388.53
374.01	447.04
374.21	390.87
374.40	421.30
374.60	435.34
374.79	423.64
374.99	470.45
375.19	376.83
375.38	351.08
375.58	402.57
375.78	337.04
375.97	442.36
376.17	468.11
376.37	386.19
376.56	416.62
376.76	440.02
376.95	348.74
377.15	409.59
377.35	430.66
377.54	404.91
377.74	383.85
377.93	397.89
378.13	437.68
378.33	386.19
378.52	390.87
378.72	470.45
378.91	477.47
379.11	484.49
379.31	379.17
379.50	425.98
379.70	381.51
379.89	447.04
380.09	386.19
380.28	348.74
380.48	472.79
380.68	318.31
380.87	365.12
381.07	400.23
381.26	353.42
381.46	362.78
381.65	451.72
381.85	383.85
382.04	374.49
382.24	423.64
382.43	475.13
382.63	402.57
382.83	355.76
383.02	444.70
383.22	440.02
383.41	383.85
383.61	372.15
383.80	386.19
384.00	409.59
384.19	416.62
384.39	348.74
384.58	346.40
384.78	390.87
384.97	407.25
385.17	411.93
385.36	433.00
385.56	400.23
385.75	362.78
385.95	369.80
386.14	442.36
386.34	409.59
386.53	423.64
386.72	397.89
386.92	423.64
387.11	407.25
387.31	479.81
387.50	430.66
387.70	402.57
387.89	360.44
388.09	404.91
388.28	425.98
388.48	353.42
388.67	430.66
388.86	379.17
389.06	421.30
389.25	423.64
389.45	440.02
389.64	390.87
389.84	489.17
390.03	409.59
390.22	348.74
390.42	400.23
390.61	423.64
390.81	388.53
391.00	414.27
391.19	397.89
391.39	360.44
391.58	414.27
391.78	465.77
391.97	425.98
392.16	425.98
392.36	425.98
392.55	379.17
392.75	341.72
392.94	369.80
393.13	421.30
393.33	327.68
393.52	395.55
393.71	393.21
393.91	423.64
394.10	402.57
394.29	395.55
394.49	418.96
394.68	418.96
394.88	418.96
395.07	425.98
395.26	414.27
395.46	348.74
395.65	369.80
395.84	397.89
396.04	421.30
396.23	444.70
396.42	362.78
396.62	383.85
396.81	355.76
397.00	390.87
397.19	414.27
397.39	365.12
397.58	416.62
397.77	425.98
397.97	386.19
398.16	390.87
398.35	379.17
398.55	358.10
398.74	402.57
398.93	395.55
399.12	397.89
399.32	423.64
399.51	407.25
399.70	393.21
399.90	388.53
400.09	425.98
400.28	500.87
400.47	411.93
400.67	442.36
400.86	437.68
401.05	437.68
401.24	386.19
401.44	325.33
401.63	404.91
401.82	444.70
402.01	369.80
402.21	451.72
402.40	411.93
402.59	500.87
402.78	423.64
402.97	421.30
403.17	416.62
403.36	411.93
403.55	369.80
403.74	454.06
403.93	454.06
404.13	435.34
404.32	416.62
404.51	369.80
404.70	395.55
404.89	482.15
405.09	468.11
405.28	404.91
405.47	376.83
405.66	393.21
405.85	402.57
406.05	440.02
406.24	390.87
406.43	454.06
406.62	425.98
406.81	388.53
407.00	388.53
407.20	358.10
407.39	416.62
407.58	348.74
407.77	475.13
407.96	437.68
408.15	449.38
408.34	447.04
408.54	407.25
408.73	395.55
408.92	416.62
409.11	374.49
409.30	397.89
409.49	440.02
409.68	402.57
409.87	442.36
410.07	472.79
410.26	414.27
410.45	332.36
410.64	393.21
410.83	423.64
411.02	379.17
411.21	437.68
411.40	358.10
411.59	400.23
411.78	411.93
411.98	437.68
412.17	463.43
412.36	409.59
412.55	393.21
412.74	388.53
412.93	449.38
413.12	437.68
413.31	477.47
413.50	358.10
413.69	461.09
413.88	395.55
414.07	388.53
414.26	367.46
414.45	407.25
414.64	409.59
414.83	468.11
415.02	383.85
415.22	468.11
415.41	414.27
415.60	379.17
415.79	435.34
415.98	440.02
416.17	395.55
416.36	353.42
416.55	365.12
416.74	416.62
416.93	451.72
417.12	433.00
417.31	444.70
417.50	433.00
417.69	339.38
417.88	332.36
418.07	425.98
418.26	435.34
418.45	416.62
418.64	437.68
418.83	402.57
419.02	437.68
419.21	456.40
419.39	454.06
419.58	358.10
419.77	447.04
419.96	397.89
420.15	416.62
420.34	416.62
420.53	428.32
420.72	402.57
420.91	423.64
421.10	414.27
421.29	404.91
421.48	395.55
421.67	470.45
421.86	376.83
422.05	365.12
422.24	407.25
422.43	393.21
422.61	407.25
422.80	353.42
422.99	423.64
423.18	397.89
423.37	444.70
423.56	421.30
423.75	386.19
423.94	397.89
424.13	386.19
424.32	442.36
424.50	472.79
424.69	414.27
424.88	402.57
425.07	334.70
425.26	325.33
425.45	411.93
425.64	407.25
425.83	381.51
426.01	383.85
426.20	374.49
426.39	454.06
426.58	334.70
426.77	346.40
426.96	433.00
427.15	404.91
427.33	365.12
427.52	440.02
427.71	411.93
427.90	416.62
428.09	498.53
428.28	365.12
428.46	407.25
428.65	477.47
428.84	486.83
429.03	458.74
429.22	379.17
429.40	390.87
429.59	414.27
429.78	416.62
429.97	407.25
430.16	346.40
430.34	372.15
430.53	386.19
430.72	348.74
430.91	367.46
431.10	388.53
431.28	454.06
431.47	465.77
431.66	442.36
431.85	442.36
432.03	423.64
432.22	486.83
432.41	404.91
432.60	458.74
432.79	397.89
432.97	421.30
433.16	484.49
433.35	430.66
433.54	374.49
433.72	372.15
433.91	360.44
434.10	367.46
434.28	414.27
434.47	400.23
434.66	388.53
434.85	421.30
435.03	425.98
435.22	479.81
435.41	430.66
435.59	435.34
435.78	510.24
435.97	395.55
436.16	435.34
436.34	447.04
436.53	390.87
436.72	390.87
436.90	472.79
437.09	341.72
437.28	437.68
437.46	322.99
437.65	456.40
437.84	475.13
438.02	344.06
438.21	400.23
438.40	402.57
438.58	390.87
438.77	381.51
438.96	407.25
439.14	411.93
439.33	430.66
439.52	402.57
439.70	430.66
439.89	416.62
440.08	409.59
440.26	435.34
440.45	503.22
440.63	472.79
440.82	423.64
441.01	425.98
441.19	383.85
441.38	423.64
441.57	411.93
441.75	447.04
441.94	444.70
442.12	376.83
442.31	402.57
442.50	470.45
442.68	383.85
442.87	414.27
443.05	458.74
443.24	437.68
443.43	395.55
443.61	407.25
443.80	503.22
443.98	416.62
444.17	454.06
444.35	367.46
444.54	416.62
444.73	407.25
444.91	411.93
445.10	444.70
445.28	468.11
445.47	458.74
445.65	318.31
445.84	397.89
446.02	400.23
446.21	444.70
446.39	362.78
446.58	435.34
446.77	418.96
446.95	423.64
447.14	362.78
447.32	440.02
447.51	383.85
447.69	409.59
447.88	318.31
448.06	430.66
448.25	482.15
448.43	390.87
448.62	416.62
448.80	409.59
448.99	421.30
449.17	372.15
449.36	365.12
449.54	440.02
449.73	372.15
449.91	482.15
450.10	390.87
450.28	496.19
450.46	409.59
450.65	358.10
450.83	379.17
451.02	435.34
451.20	440.02
451.39	358.10
451.57	372.15
451.76	400.23
451.94	470.45
452.13	388.53
452.31	418.96
452.49	379.17
452.68	388.53
452.86	428.32
453.05	461.09
453.23	416.62
453.42	475.13
453.60	477.47
453.78	344.06
453.97	409.59
454.15	411.93
454.34	346.40
454.52	416.62
454.70	489.17
454.89	491.51
455.07	325.33
455.26	440.02
455.44	383.85
455.62	456.40
455.81	425.98
455.99	421.30
456.17	409.59
456.36	423.64
456.54	418.96
456.73	379.17
456.91	425.98
457.09	402.57
457.28	428.32
457.46	430.66
457.64	416.62
457.83	416.62
458.01	409.59
458.19	390.87
458.38	491.51
458.56	507.90
458.74	404.91
458.93	433.00
459.11	379.17
459.29	428.32
459.48	428.32
459.66	444.70
459.84	458.74
460.03	409.59
460.21	435.34
460.39	351.08
460.57	400.23
460.76	428.32
460.94	393.21
461.12	418.96
461.31	433.00
461.49	404.91
461.67	383.85
461.85	468.11
462.04	425.98
462.22	763.01
462.40	425.98
462.59	451.72
462.77	423.64
462.95	337.04
463.13	341.72
463.32	388.53
463.50	524.28
463.68	435.34
463.86	461.09
464.05	390.87
464.23	414.27
464.41	407.25
464.59	383.85
464.78	400.23
464.96	351.08
465.14	325.33
465.32	397.89
465.50	339.38
465.69	428.32
465.87	386.19
466.05	414.27
466.23	381.51
466.41	423.64
466.60	332.36
466.78	463.43
466.96	458.74
467.14	435.34
467.32	404.91
467.51	437.68
467.69	411.93
467.87	397.89
468.05	379.17
468.23	475.13
468.41	418.96
468.60	416.62
468.78	341.72
468.96	449.38
469.14	327.68
469.32	411.93
469.50	451.72
469.69	369.80
469.87	372.15
470.05	409.59
470.23	381.51
470.41	355.76
470.59	322.99
470.77	430.66
470.95	437.68
471.14	418.96
471.32	379.17
471.50	411.93
471.68	376.83
471.86	369.80
472.04	425.98
472.22	379.17
472.40	414.27
472.58	463.43
472.77	454.06
472.95	463.43
473.13	489.17
473.31	397.89
473.49	400.23
473.67	362.78
473.85	381.51
474.03	416.62
474.21	409.59
474.39	395.55
474.57	437.68
474.75	451.72
474.93	358.10
475.12	421.30
475.30	416.62
475.48	334.70
475.66	411.93
475.84	383.85
476.02	393.21
476.20	472.79
476.38	423.64
476.56	472.79
476.74	362.78
476.92	341.72
477.10	383.85
477.28	451.72
477.46	393.21
477.64	433.00
477.82	430.66
478.00	390.87
478.18	442.36
478.36	390.87
478.54	327.68
478.72	369.80
478.90	362.78
479.08	362.78
479.26	444.70
479.44	393.21
479.62	430.66
479.80	428.32
479.98	386.19
480.16	383.85
480.34	393.21
480.52	421.30
480.70	353.42
480.88	421.30
481.06	437.68
481.24	322.99
481.41	358.10
481.59	472.79
481.77	383.85
481.95	332.36
482.13	444.70
482.31	344.06
482.49	372.15
482.67	353.42
482.85	503.22
483.03	451.72
483.21	388.53
483.39	390.87
483.57	411.93
483.74	442.36
483.92	433.00
484.10	425.98
484.28	444.70
484.46	456.40
484.64	458.74
484.82	388.53
485.00	428.32
485.18	425.98
485.35	367.46
485.53	407.25
485.71	503.22
485.89	395.55
486.07	407.25
486.25	451.72
486.43	344.06
486.61	440.02
486.78	425.98
486.96	407.25
487.14	451.72
487.32	355.76
487.50	376.83
487.68	444.70
487.85	407.25
488.03	400.23
488.21	393.21
488.39	400.23
488.57	421.30
488.75	477.47
488.92	444.70
489.10	390.87
489.28	379.17
489.46	411.93
489.64	367.46
489.81	411.93
489.99	437.68
490.17	390.87
490.35	454.06
490.53	404.91
490.70	479.81
490.88	397.89
491.06	395.55
491.24	409.59
491.41	475.13
491.59	365.12
491.77	404.91
491.95	390.87
492.13	388.53
492.30	463.43
492.48	421.30
492.66	409.59
492.84	393.21
493.01	369.80
493.19	311.29
493.37	454.06
493.54	409.59
493.72	425.98
493.90	409.59
494.08	369.80
494.25	456.40
494.43	423.64
494.61	416.62
494.79	423.64
494.96	379.17
495.14	409.59
495.32	449.38
495.49	444.70
495.67	421.30
495.85	400.23
496.02	393.21
496.20	411.93
496.38	397.89
496.55	421.30
496.73	414.27
496.91	407.25
497.09	369.80
497.26	465.77
497.44	388.53
497.62	411.93
497.79	421.30
497.97	421.30
498.14	369.80
498.32	475.13
498.50	421.30
498.67	362.78
498.85	400.23
499.03	369.80
499.20	404.91
499.38	341.72
499.56	334.70
499.73	442.36
499.91	463.43
500.08	442.36
500.26	418.96
500.44	322.99
500.61	423.64
500.79	470.45
500.97	395.55
501.14	381.51
501.32	416.62
501.49	327.68
501.67	449.38
501.84	423.64
502.02	372.15
502.20	407.25
502.37	468.11
502.55	479.81
502.72	372.15
502.90	369.80
503.07	475.13
503.25	433.00
503.43	388.53
503.60	430.66
503.78	393.21
503.95	407.25
504.13	447.04
504.30	407.25
504.48	379.17
504.65	393.21
504.83	409.59
505.01	395.55
505.18	383.85
505.36	376.83
505.53	379.17
505.71	374.49
505.88	486.83
506.06	383.85
506.23	440.02
506.41	421.30
506.58	435.34
506.76	454.06
506.93	332.36
507.11	414.27
507.28	430.66
507.46	393.21
507.63	454.06
507.81	411.93
507.98	425.98
508.16	409.59
508.33	402.57
508.50	390.87
508.68	425.98
508.85	355.76
509.03	486.83
509.20	461.09
509.38	388.53
509.55	360.44
509.73	468.11
509.90	486.83
510.08	393.21
510.25	425.98
510.42	447.04
510.60	465.77
510.77	379.17
510.95	397.89
511.12	440.02
511.30	379.17
511.47	461.09
511.64	388.53
511.82	430.66
511.99	447.04
512.17	376.83
512.34	428.32
512.51	386.19
512.69	444.70
512.86	458.74
513.04	376.83
513.21	435.34
513.38	440.02
513.56	402.57
513.73	379.17
513.90	444.70
514.08	393.21
514.25	400.23
514.43	355.76
514.60	472.79
514.77	367.46
514.95	430.66
515.12	416.62
515.29	428.32
515.47	430.66
515.64	379.17
515.81	393.21
515.99	404.91
516.16	407.25
516.33	395.55
516.51	386.19
516.68	374.49
516.85	369.80
517.03	437.68
517.20	451.72
517.37	395.55
517.54	365.12
517.72	369.80
517.89	353.42
518.06	379.17
518.24	351.08
518.41	402.57
518.58	418.96
518.75	393.21
518.93	402.57
519.10	376.83
519.27	330.02
519.45	430.66
519.62	472.79
519.79	482.15
519.96	404.91
520.14	372.15
520.31	395.55
520.48	433.00
520.65	493.85
520.83	454.06
521.00	451.72
521.17	482.15
521.34	447.04
521.52	468.11
521.69	491.51
521.86	411.93
522.03	458.74
522.20	449.38
522.38	369.80
522.55	442.36
522.72	379.17
522.89	423.64
523.07	372.15
523.24	505.56
523.41	428.32
523.58	390.87
523.75	395.55
523.92	397.89
524.10	461.09
524.27	425.98
524.44	362.78
524.61	365.12
524.78	447.04
524.96	369.80
525.13	411.93
525.30	486.83
525.47	393.21
525.64	379.17
525.81	388.53
525.98	409.59
526.16	369.80
526.33	435.34
526.50	397.89
526.67	374.49
526.84	280.86
527.01	372.15
527.18	411.93
527.36	418.96
527.53	386.19
527.70	425.98
527.87	381.51
528.04	402.57
528.21	390.87
528.38	421.30
528.55	409.59
528.72	484.49
528.89	418.96
529.07	484.49
529.24	430.66
529.41	437.68
529.58	433.00
529.75	397.89
529.92	395.55
530.09	454.06
530.26	543.00
530.43	397.89
530.60	496.19
530.77	393.21
530.94	341.72
531.11	493.85
531.28	477.47
531.46	379.17
531.63	430.66
531.80	402.57
531.97	386.19
532.14	440.02
532.31	482.15
532.48	437.68
532.65	341.72
532.82	409.59
532.99	400.23
533.16	463.43
533.33	428.32
533.50	397.89
533.67	421.30
533.84	332.36
534.01	444.70
534.18	503.22
534.35	451.72
534.52	449.38
534.69	355.76
534.86	402.57
535.03	414.27
535.20	409.59
535.37	423.64
535.54	374.49
535.71	327.68
535.88	454.06
536.05	383.85
536.22	493.85
536.38	372.15
536.55	416.62
536.72	486.83
536.89	381.51
537.06	428.32
537.23	390.87
537.40	411.93
537.57	404.91
537.74	454.06
537.91	414.27
538.08	449.38
538.25	465.77
538.42	430.66
538.59	442.36
538.75	468.11
538.92	411.93
539.09	400.23
539.26	388.53
539.43	379.17
539.60	482.15
539.77	472.79
539.94	461.09
540.11	433.00
540.28	451.72
540.44	486.83
540.61	423.64
540.78	421.30
540.95	447.04
541.12	449.38
541.29	416.62
541.46	390.87
541.62	402.57
541.79	433.00
541.96	428.32
542.13	409.59
542.30	386.19
542.47	421.30
542.63	442.36
542.80	468.11
542.97	472.79
543.14	409.59
543.31	454.06
543.48	409.59
543.64	440.02
543.81	447.04
543.98	421.30
544.15	409.59
544.32	404.91
544.48	395.55
544.65	465.77
544.82	433.00
544.99	407.25
545.16	395.55
545.32	376.83
545.49	425.98
545.66	479.81
545.83	395.55
546.00	386.19
546.16	437.68
546.33	430.66
546.50	411.93
546.67	425.98
546.83	475.13
547.00	393.21
547.17	351.08
547.34	440.02
547.50	437.68
547.67	374.49
547.84	395.55
548.00	493.85
548.17	386.19
548.34	404.91
548.51	531.30
548.67	351.08
548.84	458.74
549.01	402.57
549.18	461.09
549.34	465.77
549.51	414.27
549.68	435.34
549.84	470.45
550.01	365.12
550.18	435.34
550.34	505.56
550.51	390.87
550.68	475.13
550.84	397.89
551.01	416.62
551.18	423.64
551.34	454.06
551.51	397.89
551.68	430.66
551.84	510.24
552.01	383.85
552.18	379.17
552.34	433.00
552.51	423.64
552.68	428.32
552.84	404.91
553.01	454.06
553.18	454.06
553.34	414.27
553.51	393.21
553.67	381.51
553.84	465.77
554.01	374.49
554.17	463.43
554.34	362.78
554.51	526.62
554.67	475.13
554.84	449.38
555.00	421.30
555.17	379.17
555.33	411.93
555.50	433.00
555.67	503.22
555.83	374.49
556.00	418.96
556.16	512.58
556.33	468.11
556.50	411.93
556.66	435.34
556.83	444.70
556.99	395.55
557.16	435.34
557.32	400.23
557.49	386.19
557.65	355.76
557.82	486.83
557.98	411.93
558.15	400.23
558.32	472.79
558.48	407.25
558.65	437.68
558.81	498.53
558.98	374.49
559.14	498.53
559.31	365.12
559.47	442.36
559.64	416.62
559.80	423.64
559.97	475.13
560.13	416.62
560.30	376.83
560.46	393.21
560.63	444.70
560.79	379.17
560.96	425.98
561.12	381.51
561.29	435.34
561.45	440.02
561.61	381.51
561.78	482.15
561.94	442.36
562.11	388.53
562.27	400.23
562.44	376.83
562.60	435.34
562.77	337.04
562.93	362.78
563.10	365.12
563.26	465.77
563.42	465.77
563.59	449.38
563.75	440.02
563.92	416.62
564.08	428.32
564.24	395.55
564.41	468.11
564.57	397.89
564.74	472.79
564.90	365.12
565.07	521.94
565.23	388.53
565.39	407.25
565.56	463.43
565.72	428.32
565.88	451.72
566.05	395.55
566.21	404.91
566.38	512.58
566.54	421.30
566.70	409.59
566.87	404.91
567.03	395.55
567.19	444.70
567.36	360.44
567.52	433.00
567.68	425.98
567.85	486.83
568.01	421.30
568.17	383.85
568.34	365.12
568.50	444.70
568.66	444.70
568.83	533.64
568.99	390.87
569.15	369.80
569.32	393.21
569.48	344.06
569.64	400.23
569.81	381.51
569.97	407.25
570.13	421.30
570.30	449.38
570.46	367.46
570.62	372.15
570.78	411.93
570.95	355.76
571.11	409.59
571.27	421.30
571.43	470.45
571.60	393.21
571.76	339.38
571.92	519.60
572.09	428.32
572.25	482.15
572.41	484.49
572.57	421.30
572.74	484.49
572.90	402.57
573.06	409.59
573.22	381.51
573.38	402.57
573.55	337.04
573.71	444.70
573.87	407.25
574.03	414.27
574.20	489.17
574.36	451.72
574.52	411.93
574.68	433.00
574.84	454.06
575.01	414.27
575.17	393.21
575.33	470.45
575.49	440.02
575.65	369.80
575.82	472.79
575.98	332.36
576.14	407.25
576.30	346.40
576.46	400.23
576.62	402.57
576.79	437.68
576.95	498.53
577.11	449.38
577.27	383.85
577.43	414.27
577.59	423.64
577.75	397.89
577.92	435.34
578.08	461.09
578.24	477.47
578.40	430.66
578.56	484.49
578.72	423.64
578.88	440.02
579.04	475.13
579.21	430.66
579.37	383.85
579.53	449.38
579.69	482.15
579.85	383.85
580.01	383.85
580.17	418.96
580.33	423.64
580.49	435.34
580.65	409.59
580.82	454.06
580.98	423.64
581.14	381.51
581.30	484.49
581.46	414.27
581.62	517.26
581.78	411.93
581.94	440.02
582.10	411.93
582.26	374.49
582.42	451.72
582.58	430.66
582.74	386.19
582.90	395.55
583.06	409.59
583.22	423.64
583.38	365.12
583.54	379.17
583.70	372.15
583.86	379.17
584.02	468.11
584.18	470.45
584.34	367.46
584.50	425.98
584.66	440.02
584.82	433.00
584.98	444.70
585.14	390.87
585.30	451.72
585.46	407.25
585.62	327.68
585.78	397.89
585.94	416.62
586.10	376.83
586.26	409.59
586.42	437.68
586.58	409.59
586.74	383.85
586.90	379.17
587.06	372.15
587.22	468.11
587.38	456.40
587.54	461.09
587.70	461.09
587.86	465.77
588.02	458.74
588.18	465.77
588.34	397.89
588.49	376.83
588.65	351.08
588.81	400.23
588.97	365.12
589.13	449.38
589.29	409.59
589.45	430.66
589.61	461.09
589.77	428.32
589.93	414.27
590.08	430.66
590.24	390.87
590.40	440.02
590.56	423.64
590.72	428.32
590.88	414.27
591.04	435.34
591.20	421.30
591.35	458.74
591.51	449.38
591.67	374.49
591.83	430.66
591.99	437.68
592.15	407.25
592.31	423.64
592.46	393.21
592.62	428.32
592.78	451.72
592.94	409.59
593.10	404.91
593.26	402.57
593.41	435.34
593.57	367.46
593.73	402.57
593.89	498.53
594.05	449.38
594.20	468.11
594.36	500.87
594.52	409.59
594.68	362.78
594.84	454.06
594.99	390.87
595.15	409.59
595.31	470.45
595.47	477.47
595.62	416.62
595.78	425.98
595.94	397.89
596.10	425.98
596.25	468.11
596.41	451.72
596.57	386.19
596.73	374.49
596.88	395.55
597.04	379.17
597.20	386.19
597.36	423.64
597.51	404.91
597.67	451.72
597.83	411.93
597.99	421.30
598.14	365.12
598.30	444.70
598.46	388.53
598.61	475.13
598.77	402.57
598.93	383.85
599.09	400.23
599.24	449.38
599.40	435.34
599.56	416.62
599.71	341.72
599.87	404.91
600.03	423.64
600.18	367.46
600.34	404.91
600.50	348.74
600.65	388.53
600.81	402.57
600.97	355.76
601.12	414.27
601.28	451.72
601.44	386.19
601.59	421.30
601.75	381.51
601.91	400.23
602.06	468.11
602.22	489.17
602.37	414.27
602.53	428.32
602.69	428.32
602.84	402.57
603.00	470.45
603.16	430.66
603.31	470.45
603.47	395.55
603.62	372.15
603.78	351.08
603.94	388.53
604.09	442.36
604.25	433.00
604.40	531.30
604.56	360.44
604.71	484.49
604.87	402.57
605.03	414.27
605.18	454.06
605.34	428.32
605.49	421.30
605.65	397.89
605.80	411.93
605.96	397.89
606.12	430.66
606.27	475.13
606.43	456.40
606.58	440.02
606.74	367.46
606.89	433.00
607.05	397.89
607.20	421.30
607.36	337.04
607.51	418.96
607.67	465.77
607.82	402.57
607.98	388.53
608.13	397.89
608.29	400.23
608.44	521.94
608.60	390.87
608.75	463.43
608.91	404.91
609.06	437.68
609.22	402.57
609.37	435.34
609.53	435.34
609.68	374.49
609.84	365.12
609.99	381.51
610.15	369.80
