SpectraSuite Data File
++++++++++++++++++++++++++++++++++++
Date: Fri Oct 25 12:10:41 EDT 2013
User: price-jones
Dark Spectrum Present: No
Reference Spectrum Present: No
Number of Sampled Component Spectra: 1
Spectrometers: USB2+H05261
Integration Time (usec): 100000 (USB2+H05261)
Spectra Averaged: 1 (USB2+H05261)
Boxcar Smoothing: 0 (USB2+H05261)
Correct for Electrical Dark: No (USB2+H05261)
Strobe/Lamp Enabled: No (USB2+H05261)
Correct for Detector Non-linearity: No (USB2+H05261)
Correct for Stray Light: No (USB2+H05261)
Number of Pixels in Processed Spectrum: 2048
>>>>>Begin Processed Spectral Data<<<<<
365.73	332.36
365.92	332.36
366.12	332.36
366.32	231.71
366.52	175.54
366.72	292.57
366.91	252.78
367.11	236.39
367.31	187.24
367.51	231.71
367.70	173.20
367.90	222.35
368.10	269.16
368.30	238.73
368.49	212.99
368.69	238.73
368.89	194.26
369.09	220.01
369.28	241.08
369.48	245.76
369.68	318.31
369.87	271.50
370.07	292.57
370.27	327.68
370.47	315.97
370.66	337.04
370.86	311.29
371.06	379.17
371.25	440.02
371.45	421.30
371.65	334.70
371.84	395.55
372.04	322.99
372.24	367.46
372.44	454.06
372.63	421.30
372.83	437.68
373.03	390.87
373.22	433.00
373.42	322.99
373.62	353.42
373.81	409.59
374.01	449.38
374.21	461.09
374.40	393.21
374.60	461.09
374.79	449.38
374.99	372.15
375.19	395.55
375.38	390.87
375.58	388.53
375.78	437.68
375.97	472.79
376.17	458.74
376.37	444.70
376.56	400.23
376.76	416.62
376.95	409.59
377.15	454.06
377.35	360.44
377.54	386.19
377.74	421.30
377.93	367.46
378.13	339.38
378.33	484.49
378.52	416.62
378.72	421.30
378.91	451.72
379.11	414.27
379.31	435.34
379.50	395.55
379.70	430.66
379.89	442.36
380.09	390.87
380.28	411.93
380.48	489.17
380.68	402.57
380.87	362.78
381.07	454.06
381.26	465.77
381.46	369.80
381.65	411.93
381.85	430.66
382.04	379.17
382.24	315.97
382.43	458.74
382.63	468.11
382.83	383.85
383.02	442.36
383.22	383.85
383.41	386.19
383.61	486.83
383.80	491.51
384.00	414.27
384.19	407.25
384.39	388.53
384.58	451.72
384.78	428.32
384.97	437.68
385.17	437.68
385.36	395.55
385.56	416.62
385.75	383.85
385.95	421.30
386.14	463.43
386.34	425.98
386.53	411.93
386.72	379.17
386.92	402.57
387.11	510.24
387.31	442.36
387.50	395.55
387.70	425.98
387.89	416.62
388.09	435.34
388.28	402.57
388.48	355.76
388.67	477.47
388.86	381.51
389.06	409.59
389.25	393.21
389.45	362.78
389.64	404.91
389.84	395.55
390.03	369.80
390.22	409.59
390.42	402.57
390.61	360.44
390.81	337.04
391.00	381.51
391.19	379.17
391.39	388.53
391.58	449.38
391.78	369.80
391.97	409.59
392.16	437.68
392.36	447.04
392.55	433.00
392.75	388.53
392.94	351.08
393.13	477.47
393.33	440.02
393.52	376.83
393.71	388.53
393.91	395.55
394.10	454.06
394.29	376.83
394.49	435.34
394.68	407.25
394.88	451.72
395.07	418.96
395.26	358.10
395.46	433.00
395.65	444.70
395.84	374.49
396.04	468.11
396.23	358.10
396.42	491.51
396.62	425.98
396.81	393.21
397.00	411.93
397.19	423.64
397.39	416.62
397.58	477.47
397.77	383.85
397.97	348.74
398.16	404.91
398.35	360.44
398.55	418.96
398.74	407.25
398.93	440.02
399.12	381.51
399.32	418.96
399.51	374.49
399.70	355.76
399.90	397.89
400.09	435.34
400.28	400.23
400.47	383.85
400.67	388.53
400.86	376.83
401.05	458.74
401.24	491.51
401.44	407.25
401.63	400.23
401.82	416.62
402.01	390.87
402.21	362.78
402.40	362.78
402.59	376.83
402.78	402.57
402.97	346.40
403.17	376.83
403.36	437.68
403.55	428.32
403.74	376.83
403.93	374.49
404.13	433.00
404.32	435.34
404.51	372.15
404.70	449.38
404.89	454.06
405.09	409.59
405.28	372.15
405.47	376.83
405.66	468.11
405.85	397.89
406.05	402.57
406.24	374.49
406.43	400.23
406.62	463.43
406.81	444.70
407.00	397.89
407.20	421.30
407.39	409.59
407.58	397.89
407.77	409.59
407.96	395.55
408.15	409.59
408.34	416.62
408.54	433.00
408.73	383.85
408.92	414.27
409.11	360.44
409.30	433.00
409.49	365.12
409.68	344.06
409.87	353.42
410.07	463.43
410.26	327.68
410.45	449.38
410.64	386.19
410.83	496.19
411.02	423.64
411.21	388.53
411.40	421.30
411.59	374.49
411.78	386.19
411.98	430.66
412.17	381.51
412.36	393.21
412.55	383.85
412.74	348.74
412.93	425.98
413.12	374.49
413.31	433.00
413.50	418.96
413.69	468.11
413.88	369.80
414.07	433.00
414.26	421.30
414.45	433.00
414.64	498.53
414.83	451.72
415.02	538.32
415.22	388.53
415.41	428.32
415.60	404.91
415.79	421.30
415.98	465.77
416.17	414.27
416.36	372.15
416.55	346.40
416.74	442.36
416.93	416.62
417.12	348.74
417.31	400.23
417.50	372.15
417.69	444.70
417.88	341.72
418.07	416.62
418.26	418.96
418.45	365.12
418.64	416.62
418.83	435.34
419.02	442.36
419.21	430.66
419.39	353.42
419.58	353.42
419.77	404.91
419.96	454.06
420.15	454.06
420.34	367.46
420.53	475.13
420.72	372.15
420.91	285.55
421.10	414.27
421.29	430.66
421.48	444.70
421.67	381.51
421.86	418.96
422.05	407.25
422.24	383.85
422.43	397.89
422.61	362.78
422.80	444.70
422.99	421.30
423.18	440.02
423.37	491.51
423.56	395.55
423.75	435.34
423.94	360.44
424.13	440.02
424.32	407.25
424.50	425.98
424.69	411.93
424.88	390.87
425.07	444.70
425.26	458.74
425.45	360.44
425.64	442.36
425.83	376.83
426.01	442.36
426.20	435.34
426.39	383.85
426.58	400.23
426.77	388.53
426.96	400.23
427.15	409.59
427.33	327.68
427.52	411.93
427.71	435.34
427.90	400.23
428.09	344.06
428.28	386.19
428.46	365.12
428.65	407.25
428.84	381.51
429.03	421.30
429.22	369.80
429.40	437.68
429.59	416.62
429.78	379.17
429.97	458.74
430.16	383.85
430.34	496.19
430.53	393.21
430.72	454.06
430.91	493.85
431.10	339.38
431.28	402.57
431.47	447.04
431.66	486.83
431.85	383.85
432.03	437.68
432.22	444.70
432.41	409.59
432.60	440.02
432.79	372.15
432.97	444.70
433.16	416.62
433.35	437.68
433.54	496.19
433.72	440.02
433.91	456.40
434.10	369.80
434.28	418.96
434.47	498.53
434.66	479.81
434.85	351.08
435.03	402.57
435.22	381.51
435.41	402.57
435.59	379.17
435.78	465.77
435.97	381.51
436.16	379.17
436.34	428.32
436.53	528.96
436.72	376.83
436.90	433.00
437.09	397.89
437.28	344.06
437.46	414.27
437.65	409.59
437.84	482.15
438.02	430.66
438.21	416.62
438.40	421.30
438.58	451.72
438.77	440.02
438.96	458.74
439.14	437.68
439.33	442.36
439.52	428.32
439.70	430.66
439.89	472.79
440.08	430.66
440.26	379.17
440.45	500.87
440.63	393.21
440.82	369.80
441.01	463.43
441.19	358.10
441.38	416.62
441.57	428.32
441.75	428.32
441.94	428.32
442.12	411.93
442.31	414.27
442.50	421.30
442.68	390.87
442.87	425.98
443.05	447.04
443.24	421.30
443.43	393.21
443.61	423.64
443.80	358.10
443.98	458.74
444.17	428.32
444.35	416.62
444.54	388.53
444.73	390.87
444.91	496.19
445.10	430.66
445.28	393.21
445.47	475.13
445.65	365.12
445.84	468.11
446.02	486.83
446.21	442.36
446.39	390.87
446.58	395.55
446.77	414.27
446.95	393.21
447.14	325.33
447.32	416.62
447.51	404.91
447.69	400.23
447.88	402.57
448.06	428.32
448.25	351.08
448.43	337.04
448.62	409.59
448.80	395.55
448.99	437.68
449.17	372.15
449.36	472.79
449.54	418.96
449.73	423.64
449.91	430.66
450.10	386.19
450.28	463.43
450.46	475.13
450.65	451.72
450.83	372.15
451.02	367.46
451.20	383.85
451.39	428.32
451.57	372.15
451.76	433.00
451.94	360.44
452.13	414.27
452.31	430.66
452.49	421.30
452.68	379.17
452.86	475.13
453.05	519.60
453.23	416.62
453.42	381.51
453.60	461.09
453.78	395.55
453.97	402.57
454.15	421.30
454.34	503.22
454.52	334.70
454.70	519.60
454.89	414.27
455.07	407.25
455.26	428.32
455.44	418.96
455.62	428.32
455.81	404.91
455.99	393.21
456.17	397.89
456.36	376.83
456.54	362.78
456.73	482.15
456.91	379.17
457.09	374.49
457.28	407.25
457.46	407.25
457.64	374.49
457.83	400.23
458.01	400.23
458.19	437.68
458.38	411.93
458.56	379.17
458.74	428.32
458.93	444.70
459.11	390.87
459.29	294.91
459.48	416.62
459.66	407.25
459.84	461.09
460.03	484.49
460.21	435.34
460.39	430.66
460.57	433.00
460.76	463.43
460.94	456.40
461.12	423.64
461.31	433.00
461.49	425.98
461.67	461.09
461.85	407.25
462.04	449.38
462.22	793.44
462.40	472.79
462.59	404.91
462.77	348.74
462.95	458.74
463.13	362.78
463.32	416.62
463.50	475.13
463.68	423.64
463.86	411.93
464.05	383.85
464.23	365.12
464.41	402.57
464.59	447.04
464.78	400.23
464.96	393.21
465.14	402.57
465.32	456.40
465.50	440.02
465.69	407.25
465.87	369.80
466.05	388.53
466.23	315.97
466.41	447.04
466.60	402.57
466.78	388.53
466.96	414.27
467.14	440.02
467.32	411.93
467.51	433.00
467.69	444.70
467.87	423.64
468.05	393.21
468.23	507.90
468.41	409.59
468.60	442.36
468.78	346.40
468.96	442.36
469.14	414.27
469.32	341.72
469.50	407.25
469.69	362.78
469.87	458.74
470.05	435.34
470.23	376.83
470.41	390.87
470.59	421.30
470.77	433.00
470.95	425.98
471.14	442.36
471.32	418.96
471.50	383.85
471.68	400.23
471.86	397.89
472.04	390.87
472.22	454.06
472.40	447.04
472.58	468.11
472.77	402.57
472.95	367.46
473.13	512.58
473.31	477.47
473.49	381.51
473.67	330.02
473.85	383.85
474.03	444.70
474.21	341.72
474.39	451.72
474.57	437.68
474.75	440.02
474.93	416.62
475.12	421.30
475.30	390.87
475.48	437.68
475.66	454.06
475.84	461.09
476.02	437.68
476.20	402.57
476.38	383.85
476.56	449.38
476.74	447.04
476.92	311.29
477.10	397.89
477.28	362.78
477.46	360.44
477.64	395.55
477.82	365.12
478.00	372.15
478.18	444.70
478.36	470.45
478.54	433.00
478.72	402.57
478.90	437.68
479.08	397.89
479.26	414.27
479.44	339.38
479.62	348.74
479.80	433.00
479.98	353.42
480.16	409.59
480.34	433.00
480.52	465.77
480.70	425.98
480.88	390.87
481.06	409.59
481.24	416.62
481.41	458.74
481.59	381.51
481.77	351.08
481.95	397.89
482.13	393.21
482.31	433.00
482.49	416.62
482.67	421.30
482.85	440.02
483.03	512.58
483.21	463.43
483.39	388.53
483.57	355.76
483.74	437.68
483.92	362.78
484.10	428.32
484.28	458.74
484.46	430.66
484.64	475.13
484.82	451.72
485.00	449.38
485.18	402.57
485.35	461.09
485.53	400.23
485.71	482.15
485.89	381.51
486.07	407.25
486.25	404.91
486.43	409.59
486.61	425.98
486.78	423.64
486.96	397.89
487.14	353.42
487.32	397.89
487.50	372.15
487.68	421.30
487.85	369.80
488.03	461.09
488.21	444.70
488.39	411.93
488.57	433.00
488.75	414.27
488.92	435.34
489.10	428.32
489.28	456.40
489.46	390.87
489.64	411.93
489.81	526.62
489.99	433.00
490.17	423.64
490.35	437.68
490.53	381.51
490.70	379.17
490.88	484.49
491.06	365.12
491.24	407.25
491.41	528.96
491.59	451.72
491.77	411.93
491.95	411.93
492.13	428.32
492.30	423.64
492.48	411.93
492.66	496.19
492.84	372.15
493.01	447.04
493.19	355.76
493.37	484.49
493.54	444.70
493.72	360.44
493.90	383.85
494.08	433.00
494.25	381.51
494.43	409.59
494.61	388.53
494.79	332.36
494.96	383.85
495.14	393.21
495.32	440.02
495.49	484.49
495.67	404.91
495.85	479.81
496.02	400.23
496.20	376.83
496.38	451.72
496.55	407.25
496.73	430.66
496.91	451.72
497.09	360.44
497.26	409.59
497.44	425.98
497.62	402.57
497.79	458.74
497.97	421.30
498.14	433.00
498.32	444.70
498.50	437.68
498.67	411.93
498.85	433.00
499.03	404.91
499.20	414.27
499.38	423.64
499.56	433.00
499.73	526.62
499.91	353.42
500.08	447.04
500.26	463.43
500.44	397.89
500.61	395.55
500.79	479.81
500.97	496.19
501.14	428.32
501.32	362.78
501.49	440.02
501.67	447.04
501.84	416.62
502.02	369.80
502.20	468.11
502.37	454.06
502.55	435.34
502.72	440.02
502.90	421.30
503.07	400.23
503.25	421.30
503.43	458.74
503.60	355.76
503.78	433.00
503.95	430.66
504.13	409.59
504.30	461.09
504.48	449.38
504.65	362.78
504.83	346.40
505.01	430.66
505.18	435.34
505.36	411.93
505.53	442.36
505.71	423.64
505.88	421.30
506.06	367.46
506.23	388.53
506.41	510.24
506.58	423.64
506.76	421.30
506.93	479.81
507.11	456.40
507.28	348.74
507.46	341.72
507.63	409.59
507.81	390.87
507.98	390.87
508.16	428.32
508.33	379.17
508.50	468.11
508.68	411.93
508.85	458.74
509.03	365.12
509.20	435.34
509.38	447.04
509.55	339.38
509.73	423.64
509.90	362.78
510.08	404.91
510.25	435.34
510.42	404.91
510.60	358.10
510.77	411.93
510.95	379.17
511.12	463.43
511.30	433.00
511.47	489.17
511.64	435.34
511.82	407.25
511.99	376.83
512.17	393.21
512.34	430.66
512.51	400.23
512.69	358.10
512.86	472.79
513.04	372.15
513.21	390.87
513.38	402.57
513.56	458.74
513.73	372.15
513.90	402.57
514.08	369.80
514.25	430.66
514.43	418.96
514.60	402.57
514.77	339.38
514.95	404.91
515.12	423.64
515.29	388.53
515.47	386.19
515.64	381.51
515.81	402.57
515.99	409.59
516.16	454.06
516.33	444.70
516.51	397.89
516.68	442.36
516.85	416.62
517.03	397.89
517.20	463.43
517.37	435.34
517.54	400.23
517.72	477.47
517.89	395.55
518.06	395.55
518.24	486.83
518.41	416.62
518.58	381.51
518.75	367.46
518.93	372.15
519.10	369.80
519.27	428.32
519.45	379.17
519.62	341.72
519.79	390.87
519.96	390.87
520.14	395.55
520.31	444.70
520.48	444.70
520.65	395.55
520.83	393.21
521.00	395.55
521.17	461.09
521.34	437.68
521.52	330.02
521.69	397.89
521.86	362.78
522.03	449.38
522.20	437.68
522.38	383.85
522.55	425.98
522.72	421.30
522.89	463.43
523.07	390.87
523.24	416.62
523.41	433.00
523.58	397.89
523.75	393.21
523.92	322.99
524.10	395.55
524.27	451.72
524.44	475.13
524.61	402.57
524.78	404.91
524.96	440.02
525.13	355.76
525.30	454.06
525.47	447.04
525.64	421.30
525.81	383.85
525.98	444.70
526.16	463.43
526.33	421.30
526.50	390.87
526.67	428.32
526.84	458.74
527.01	409.59
527.18	367.46
527.36	386.19
527.53	437.68
527.70	346.40
527.87	425.98
528.04	477.47
528.21	444.70
528.38	421.30
528.55	477.47
528.72	447.04
528.89	402.57
529.07	407.25
529.24	388.53
529.41	430.66
529.58	374.49
529.75	393.21
529.92	407.25
530.09	472.79
530.26	418.96
530.43	454.06
530.60	337.04
530.77	421.30
530.94	447.04
531.11	477.47
531.28	465.77
531.46	461.09
531.63	411.93
531.80	444.70
531.97	472.79
532.14	421.30
532.31	463.43
532.48	433.00
532.65	355.76
532.82	386.19
532.99	416.62
533.16	386.19
533.33	430.66
533.50	416.62
533.67	409.59
533.84	479.81
534.01	348.74
534.18	386.19
534.35	458.74
534.52	423.64
534.69	402.57
534.86	376.83
535.03	404.91
535.20	325.33
535.37	388.53
535.54	475.13
535.71	404.91
535.88	477.47
536.05	425.98
536.22	409.59
536.38	428.32
536.55	461.09
536.72	437.68
536.89	393.21
537.06	404.91
537.23	379.17
537.40	430.66
537.57	423.64
537.74	435.34
537.91	407.25
538.08	362.78
538.25	404.91
538.42	407.25
538.59	379.17
538.75	470.45
538.92	423.64
539.09	465.77
539.26	411.93
539.43	447.04
539.60	379.17
539.77	386.19
539.94	400.23
540.11	454.06
540.28	414.27
540.44	486.83
540.61	395.55
540.78	411.93
540.95	430.66
541.12	514.92
541.29	402.57
541.46	498.53
541.62	447.04
541.79	409.59
541.96	355.76
542.13	458.74
542.30	402.57
542.47	442.36
542.63	411.93
542.80	444.70
542.97	388.53
543.14	411.93
543.31	400.23
543.48	388.53
543.64	341.72
543.81	451.72
543.98	411.93
544.15	416.62
544.32	421.30
544.48	358.10
544.65	449.38
544.82	341.72
544.99	449.38
545.16	433.00
545.32	423.64
545.49	461.09
545.66	362.78
545.83	337.04
546.00	383.85
546.16	386.19
546.33	428.32
546.50	521.94
546.67	409.59
546.83	433.00
547.00	428.32
547.17	435.34
547.34	435.34
547.50	402.57
547.67	367.46
547.84	407.25
548.00	414.27
548.17	454.06
548.34	496.19
548.51	463.43
548.67	430.66
548.84	395.55
549.01	395.55
549.18	477.47
549.34	369.80
549.51	397.89
549.68	484.49
549.84	372.15
550.01	440.02
550.18	425.98
550.34	482.15
550.51	461.09
550.68	423.64
550.84	421.30
551.01	386.19
551.18	395.55
551.34	416.62
551.51	433.00
551.68	407.25
551.84	449.38
552.01	425.98
552.18	433.00
552.34	442.36
552.51	428.32
552.68	397.89
552.84	437.68
553.01	425.98
553.18	444.70
553.34	458.74
553.51	367.46
553.67	433.00
553.84	433.00
554.01	379.17
554.17	379.17
554.34	379.17
554.51	456.40
554.67	423.64
554.84	470.45
555.00	496.19
555.17	351.08
555.33	472.79
555.50	409.59
555.67	447.04
555.83	386.19
556.00	437.68
556.16	458.74
556.33	407.25
556.50	461.09
556.66	414.27
556.83	524.28
556.99	400.23
557.16	383.85
557.32	358.10
557.49	402.57
557.65	390.87
557.82	428.32
557.98	440.02
558.15	409.59
558.32	444.70
558.48	393.21
558.65	435.34
558.81	423.64
558.98	442.36
559.14	475.13
559.31	369.80
559.47	400.23
559.64	397.89
559.80	435.34
559.97	374.49
560.13	365.12
560.30	484.49
560.46	404.91
560.63	437.68
560.79	472.79
560.96	449.38
561.12	435.34
561.29	367.46
561.45	444.70
561.61	397.89
561.78	444.70
561.94	465.77
562.11	477.47
562.27	414.27
562.44	496.19
562.60	416.62
562.77	414.27
562.93	400.23
563.10	463.43
563.26	430.66
563.42	451.72
563.59	454.06
563.75	320.65
563.92	418.96
564.08	409.59
564.24	381.51
564.41	458.74
564.57	362.78
564.74	397.89
564.90	428.32
565.07	433.00
565.23	400.23
565.39	430.66
565.56	444.70
565.72	411.93
565.88	383.85
566.05	440.02
566.21	416.62
566.38	423.64
566.54	416.62
566.70	379.17
566.87	458.74
567.03	372.15
567.19	390.87
567.36	437.68
567.52	421.30
567.68	402.57
567.85	407.25
568.01	372.15
568.17	376.83
568.34	376.83
568.50	418.96
568.66	458.74
568.83	440.02
568.99	367.46
569.15	386.19
569.32	393.21
569.48	437.68
569.64	416.62
569.81	397.89
569.97	400.23
570.13	397.89
570.30	402.57
570.46	386.19
570.62	435.34
570.78	423.64
570.95	425.98
571.11	423.64
571.27	447.04
571.43	442.36
571.60	418.96
571.76	433.00
571.92	421.30
572.09	379.17
572.25	362.78
572.41	339.38
572.57	414.27
572.74	409.59
572.90	416.62
573.06	486.83
573.22	388.53
573.38	500.87
573.55	409.59
573.71	477.47
573.87	383.85
574.03	374.49
574.20	421.30
574.36	376.83
574.52	435.34
574.68	383.85
574.84	437.68
575.01	400.23
575.17	475.13
575.33	381.51
575.49	470.45
575.65	484.49
575.82	463.43
575.98	430.66
576.14	337.04
576.30	393.21
576.46	367.46
576.62	393.21
576.79	468.11
576.95	456.40
577.11	458.74
577.27	346.40
577.43	479.81
577.59	447.04
577.75	414.27
577.92	423.64
578.08	418.96
578.24	388.53
578.40	430.66
578.56	435.34
578.72	423.64
578.88	407.25
579.04	388.53
579.21	393.21
579.37	388.53
579.53	360.44
579.69	414.27
579.85	428.32
580.01	402.57
580.17	386.19
580.33	383.85
580.49	397.89
580.65	383.85
580.82	418.96
580.98	376.83
581.14	365.12
581.30	411.93
581.46	430.66
581.62	421.30
581.78	369.80
581.94	437.68
582.10	395.55
582.26	451.72
582.42	393.21
582.58	423.64
582.74	440.02
582.90	449.38
583.06	423.64
583.22	322.99
583.38	491.51
583.54	393.21
583.70	435.34
583.86	411.93
584.02	409.59
584.18	482.15
584.34	425.98
584.50	400.23
584.66	400.23
584.82	451.72
584.98	383.85
585.14	416.62
585.30	430.66
585.46	416.62
585.62	372.15
585.78	372.15
585.94	428.32
586.10	425.98
586.26	327.68
586.42	383.85
586.58	428.32
586.74	404.91
586.90	402.57
587.06	374.49
587.22	346.40
587.38	409.59
587.54	372.15
587.70	379.17
587.86	489.17
588.02	318.31
588.18	360.44
588.34	454.06
588.49	451.72
588.65	365.12
588.81	388.53
588.97	360.44
589.13	449.38
589.29	444.70
589.45	465.77
589.61	437.68
589.77	498.53
589.93	437.68
590.08	411.93
590.24	470.45
590.40	493.85
590.56	423.64
590.72	430.66
590.88	400.23
591.04	444.70
591.20	393.21
591.35	477.47
591.51	500.87
591.67	416.62
591.83	404.91
591.99	449.38
592.15	458.74
592.31	454.06
592.46	435.34
592.62	404.91
592.78	435.34
592.94	355.76
593.10	449.38
593.26	461.09
593.41	447.04
593.57	449.38
593.73	355.76
593.89	440.02
594.05	386.19
594.20	404.91
594.36	395.55
594.52	400.23
594.68	332.36
594.84	414.27
594.99	404.91
595.15	397.89
595.31	416.62
595.47	390.87
595.62	423.64
595.78	472.79
595.94	411.93
596.10	393.21
596.25	451.72
596.41	390.87
596.57	362.78
596.73	404.91
596.88	407.25
597.04	386.19
597.20	421.30
597.36	411.93
597.51	407.25
597.67	456.40
597.83	388.53
597.99	418.96
598.14	449.38
598.30	538.32
598.46	395.55
598.61	367.46
598.77	430.66
598.93	390.87
599.09	418.96
599.24	395.55
599.40	477.47
599.56	341.72
599.71	451.72
599.87	435.34
600.03	475.13
600.18	404.91
600.34	400.23
600.50	409.59
600.65	402.57
600.81	400.23
600.97	454.06
601.12	360.44
601.28	381.51
601.44	404.91
601.59	442.36
601.75	388.53
601.91	383.85
602.06	458.74
602.22	456.40
602.37	411.93
602.53	339.38
602.69	458.74
602.84	397.89
603.00	472.79
603.16	402.57
603.31	479.81
603.47	362.78
603.62	454.06
603.78	425.98
603.94	418.96
604.09	393.21
604.25	456.40
604.40	557.05
604.56	437.68
604.71	435.34
604.87	442.36
605.03	428.32
605.18	484.49
605.34	444.70
605.49	456.40
605.65	379.17
605.80	423.64
605.96	383.85
606.12	411.93
606.27	479.81
606.43	428.32
606.58	430.66
606.74	461.09
606.89	388.53
607.05	421.30
607.20	390.87
607.36	440.02
607.51	367.46
607.67	407.25
607.82	409.59
607.98	479.81
608.13	444.70
608.29	472.79
608.44	463.43
608.60	388.53
608.75	374.49
608.91	463.43
609.06	470.45
609.22	428.32
609.37	437.68
609.53	374.49
609.68	440.02
609.84	404.91
609.99	442.36
610.15	402.57
