SpectraSuite Data File
++++++++++++++++++++++++++++++++++++
Date: Fri Oct 25 12:10:54 EDT 2013
User: price-jones
Dark Spectrum Present: No
Reference Spectrum Present: No
Number of Sampled Component Spectra: 1
Spectrometers: USB2+H05261
Integration Time (usec): 100000 (USB2+H05261)
Spectra Averaged: 1 (USB2+H05261)
Boxcar Smoothing: 0 (USB2+H05261)
Correct for Electrical Dark: No (USB2+H05261)
Strobe/Lamp Enabled: No (USB2+H05261)
Correct for Detector Non-linearity: No (USB2+H05261)
Correct for Stray Light: No (USB2+H05261)
Number of Pixels in Processed Spectrum: 2048
>>>>>Begin Processed Spectral Data<<<<<
365.73	330.02
365.92	330.02
366.12	330.02
366.32	278.52
366.52	215.33
366.72	262.14
366.91	196.60
367.11	255.12
367.31	210.65
367.51	269.16
367.70	210.65
367.90	266.82
368.10	257.46
368.30	196.60
368.49	145.11
368.69	278.52
368.89	222.35
369.09	262.14
369.28	255.12
369.48	283.20
369.68	266.82
369.87	299.59
370.07	294.91
370.27	320.65
370.47	297.25
370.66	322.99
370.86	322.99
371.06	404.91
371.25	372.15
371.45	376.83
371.65	367.46
371.84	411.93
372.04	358.10
372.24	372.15
372.44	397.89
372.63	379.17
372.83	489.17
373.03	411.93
373.22	353.42
373.42	437.68
373.62	428.32
373.81	374.49
374.01	411.93
374.21	381.51
374.40	447.04
374.60	393.21
374.79	376.83
374.99	430.66
375.19	397.89
375.38	383.85
375.58	390.87
375.78	463.43
375.97	507.90
376.17	533.64
376.37	383.85
376.56	498.53
376.76	367.46
376.95	425.98
377.15	334.70
377.35	379.17
377.54	369.80
377.74	440.02
377.93	369.80
378.13	423.64
378.33	442.36
378.52	322.99
378.72	416.62
378.91	440.02
379.11	372.15
379.31	404.91
379.50	407.25
379.70	334.70
379.89	447.04
380.09	416.62
380.28	390.87
380.48	386.19
380.68	428.32
380.87	414.27
381.07	407.25
381.26	400.23
381.46	365.12
381.65	409.59
381.85	376.83
382.04	454.06
382.24	418.96
382.43	341.72
382.63	409.59
382.83	423.64
383.02	346.40
383.22	416.62
383.41	430.66
383.61	472.79
383.80	367.46
384.00	416.62
384.19	400.23
384.39	454.06
384.58	383.85
384.78	411.93
384.97	472.79
385.17	325.33
385.36	358.10
385.56	379.17
385.75	383.85
385.95	397.89
386.14	442.36
386.34	442.36
386.53	465.77
386.72	372.15
386.92	402.57
387.11	486.83
387.31	402.57
387.50	400.23
387.70	440.02
387.89	442.36
388.09	376.83
388.28	348.74
388.48	386.19
388.67	451.72
388.86	325.33
389.06	456.40
389.25	362.78
389.45	437.68
389.64	325.33
389.84	475.13
390.03	416.62
390.22	411.93
390.42	472.79
390.61	362.78
390.81	425.98
391.00	372.15
391.19	425.98
391.39	404.91
391.58	402.57
391.78	435.34
391.97	435.34
392.16	407.25
392.36	482.15
392.55	360.44
392.75	362.78
392.94	404.91
393.13	440.02
393.33	416.62
393.52	386.19
393.71	411.93
393.91	444.70
394.10	344.06
394.29	402.57
394.49	395.55
394.68	416.62
394.88	454.06
395.07	454.06
395.26	411.93
395.46	358.10
395.65	477.47
395.84	360.44
396.04	454.06
396.23	381.51
396.42	486.83
396.62	423.64
396.81	409.59
397.00	374.49
397.19	390.87
397.39	444.70
397.58	395.55
397.77	409.59
397.97	418.96
398.16	407.25
398.35	428.32
398.55	458.74
398.74	395.55
398.93	409.59
399.12	416.62
399.32	351.08
399.51	440.02
399.70	407.25
399.90	435.34
400.09	433.00
400.28	435.34
400.47	404.91
400.67	433.00
400.86	437.68
401.05	421.30
401.24	411.93
401.44	411.93
401.63	463.43
401.82	411.93
402.01	444.70
402.21	493.85
402.40	367.46
402.59	372.15
402.78	414.27
402.97	416.62
403.17	451.72
403.36	430.66
403.55	409.59
403.74	383.85
403.93	390.87
404.13	472.79
404.32	362.78
404.51	397.89
404.70	447.04
404.89	433.00
405.09	437.68
405.28	416.62
405.47	430.66
405.66	388.53
405.85	411.93
406.05	416.62
406.24	411.93
406.43	397.89
406.62	395.55
406.81	374.49
407.00	407.25
407.20	437.68
407.39	351.08
407.58	374.49
407.77	440.02
407.96	358.10
408.15	411.93
408.34	433.00
408.54	458.74
408.73	444.70
408.92	388.53
409.11	397.89
409.30	376.83
409.49	369.80
409.68	379.17
409.87	362.78
410.07	402.57
410.26	447.04
410.45	454.06
410.64	367.46
410.83	355.76
411.02	397.89
411.21	407.25
411.40	362.78
411.59	418.96
411.78	372.15
411.98	358.10
412.17	383.85
412.36	374.49
412.55	393.21
412.74	390.87
412.93	411.93
413.12	397.89
413.31	451.72
413.50	381.51
413.69	491.51
413.88	486.83
414.07	470.45
414.26	407.25
414.45	381.51
414.64	402.57
414.83	477.47
415.02	418.96
415.22	374.49
415.41	418.96
415.60	409.59
415.79	381.51
415.98	425.98
416.17	372.15
416.36	395.55
416.55	390.87
416.74	374.49
416.93	421.30
417.12	395.55
417.31	332.36
417.50	433.00
417.69	355.76
417.88	390.87
418.07	374.49
418.26	409.59
418.45	440.02
418.64	430.66
418.83	416.62
419.02	458.74
419.21	425.98
419.39	414.27
419.58	386.19
419.77	372.15
419.96	437.68
420.15	468.11
420.34	376.83
420.53	414.27
420.72	440.02
420.91	428.32
421.10	430.66
421.29	409.59
421.48	404.91
421.67	503.22
421.86	374.49
422.05	402.57
422.24	421.30
422.43	428.32
422.61	390.87
422.80	421.30
422.99	402.57
423.18	416.62
423.37	402.57
423.56	454.06
423.75	355.76
423.94	423.64
424.13	381.51
424.32	437.68
424.50	360.44
424.69	411.93
424.88	381.51
425.07	425.98
425.26	484.49
425.45	374.49
425.64	372.15
425.83	386.19
426.01	477.47
426.20	388.53
426.39	454.06
426.58	411.93
426.77	388.53
426.96	430.66
427.15	351.08
427.33	379.17
427.52	430.66
427.71	433.00
427.90	428.32
428.09	409.59
428.28	383.85
428.46	381.51
428.65	381.51
428.84	402.57
429.03	418.96
429.22	411.93
429.40	381.51
429.59	428.32
429.78	461.09
429.97	421.30
430.16	400.23
430.34	428.32
430.53	376.83
430.72	433.00
430.91	547.69
431.10	428.32
431.28	479.81
431.47	447.04
431.66	435.34
431.85	447.04
432.03	376.83
432.22	528.96
432.41	421.30
432.60	451.72
432.79	390.87
432.97	400.23
433.16	402.57
433.35	425.98
433.54	393.21
433.72	440.02
433.91	418.96
434.10	400.23
434.28	358.10
434.47	365.12
434.66	416.62
434.85	477.47
435.03	376.83
435.22	379.17
435.41	472.79
435.59	365.12
435.78	421.30
435.97	379.17
436.16	411.93
436.34	447.04
436.53	409.59
436.72	360.44
436.90	458.74
437.09	388.53
437.28	430.66
437.46	355.76
437.65	456.40
437.84	482.15
438.02	381.51
438.21	428.32
438.40	416.62
438.58	414.27
438.77	383.85
438.96	435.34
439.14	433.00
439.33	430.66
439.52	444.70
439.70	402.57
439.89	376.83
440.08	430.66
440.26	393.21
440.45	442.36
440.63	425.98
440.82	332.36
441.01	397.89
441.19	386.19
441.38	416.62
441.57	395.55
441.75	514.92
441.94	430.66
442.12	376.83
442.31	407.25
442.50	458.74
442.68	390.87
442.87	491.51
443.05	470.45
443.24	430.66
443.43	475.13
443.61	430.66
443.80	496.19
443.98	411.93
444.17	407.25
444.35	407.25
444.54	442.36
444.73	472.79
444.91	393.21
445.10	390.87
445.28	348.74
445.47	407.25
445.65	360.44
445.84	421.30
446.02	395.55
446.21	360.44
446.39	409.59
446.58	386.19
446.77	337.04
446.95	397.89
447.14	475.13
447.32	416.62
447.51	400.23
447.69	423.64
447.88	437.68
448.06	430.66
448.25	440.02
448.43	386.19
448.62	440.02
448.80	397.89
448.99	372.15
449.17	409.59
449.36	330.02
449.54	416.62
449.73	451.72
449.91	407.25
450.10	407.25
450.28	454.06
450.46	418.96
450.65	435.34
450.83	421.30
451.02	435.34
451.20	418.96
451.39	348.74
451.57	379.17
451.76	435.34
451.94	468.11
452.13	430.66
452.31	423.64
452.49	442.36
452.68	442.36
452.86	409.59
453.05	435.34
453.23	346.40
453.42	353.42
453.60	428.32
453.78	425.98
453.97	465.77
454.15	362.78
454.34	381.51
454.52	430.66
454.70	407.25
454.89	400.23
455.07	376.83
455.26	444.70
455.44	411.93
455.62	479.81
455.81	437.68
455.99	407.25
456.17	416.62
456.36	421.30
456.54	386.19
456.73	376.83
456.91	404.91
457.09	421.30
457.28	407.25
457.46	454.06
457.64	409.59
457.83	411.93
458.01	416.62
458.19	444.70
458.38	407.25
458.56	449.38
458.74	374.49
458.93	456.40
459.11	365.12
459.29	397.89
459.48	447.04
459.66	435.34
459.84	374.49
460.03	500.87
460.21	458.74
460.39	440.02
460.57	486.83
460.76	386.19
460.94	393.21
461.12	472.79
461.31	430.66
461.49	428.32
461.67	435.34
461.85	454.06
462.04	383.85
462.22	746.63
462.40	376.83
462.59	386.19
462.77	358.10
462.95	435.34
463.13	470.45
463.32	486.83
463.50	348.74
463.68	395.55
463.86	388.53
464.05	383.85
464.23	416.62
464.41	442.36
464.59	444.70
464.78	423.64
464.96	381.51
465.14	404.91
465.32	339.38
465.50	409.59
465.69	351.08
465.87	472.79
466.05	397.89
466.23	404.91
466.41	411.93
466.60	407.25
466.78	374.49
466.96	404.91
467.14	381.51
467.32	456.40
467.51	379.17
467.69	425.98
467.87	447.04
468.05	381.51
468.23	496.19
468.41	442.36
468.60	433.00
468.78	407.25
468.96	475.13
469.14	346.40
469.32	395.55
469.50	407.25
469.69	318.31
469.87	337.04
470.05	376.83
470.23	397.89
470.41	451.72
470.59	458.74
470.77	430.66
470.95	334.70
471.14	454.06
471.32	444.70
471.50	444.70
471.68	465.77
471.86	444.70
472.04	430.66
472.22	449.38
472.40	390.87
472.58	367.46
472.77	440.02
472.95	381.51
473.13	435.34
473.31	465.77
473.49	404.91
473.67	458.74
473.85	404.91
474.03	444.70
474.21	395.55
474.39	341.72
474.57	369.80
474.75	423.64
474.93	449.38
475.12	395.55
475.30	425.98
475.48	402.57
475.66	447.04
475.84	468.11
476.02	381.51
476.20	458.74
476.38	418.96
476.56	463.43
476.74	425.98
476.92	444.70
477.10	411.93
477.28	379.17
477.46	404.91
477.64	285.55
477.82	428.32
478.00	428.32
478.18	428.32
478.36	433.00
478.54	449.38
478.72	351.08
478.90	477.47
479.08	456.40
479.26	416.62
479.44	353.42
479.62	351.08
479.80	407.25
479.98	372.15
480.16	395.55
480.34	437.68
480.52	341.72
480.70	367.46
480.88	351.08
481.06	339.38
481.24	477.47
481.41	376.83
481.59	425.98
481.77	463.43
481.95	423.64
482.13	409.59
482.31	386.19
482.49	330.02
482.67	404.91
482.85	510.24
483.03	451.72
483.21	411.93
483.39	425.98
483.57	386.19
483.74	416.62
483.92	435.34
484.10	315.97
484.28	491.51
484.46	456.40
484.64	449.38
484.82	482.15
485.00	440.02
485.18	414.27
485.35	440.02
485.53	365.12
485.71	585.13
485.89	451.72
486.07	458.74
486.25	435.34
486.43	400.23
486.61	428.32
486.78	402.57
486.96	402.57
487.14	428.32
487.32	404.91
487.50	421.30
487.68	479.81
487.85	334.70
488.03	423.64
488.21	425.98
488.39	386.19
488.57	411.93
488.75	409.59
488.92	543.00
489.10	442.36
489.28	414.27
489.46	386.19
489.64	360.44
489.81	451.72
489.99	418.96
490.17	390.87
490.35	496.19
490.53	360.44
490.70	482.15
490.88	421.30
491.06	390.87
491.24	388.53
491.41	388.53
491.59	379.17
491.77	430.66
491.95	355.76
492.13	404.91
492.30	386.19
492.48	440.02
492.66	435.34
492.84	402.57
493.01	475.13
493.19	456.40
493.37	428.32
493.54	430.66
493.72	397.89
493.90	414.27
494.08	416.62
494.25	320.65
494.43	379.17
494.61	447.04
494.79	456.40
494.96	411.93
495.14	409.59
495.32	409.59
495.49	360.44
495.67	442.36
495.85	306.61
496.02	442.36
496.20	411.93
496.38	486.83
496.55	433.00
496.73	437.68
496.91	458.74
497.09	423.64
497.26	379.17
497.44	435.34
497.62	393.21
497.79	440.02
497.97	442.36
498.14	493.85
498.32	388.53
498.50	425.98
498.67	344.06
498.85	482.15
499.03	437.68
499.20	416.62
499.38	463.43
499.56	433.00
499.73	468.11
499.91	465.77
500.08	374.49
500.26	416.62
500.44	407.25
500.61	458.74
500.79	381.51
500.97	400.23
501.14	447.04
501.32	407.25
501.49	423.64
501.67	381.51
501.84	416.62
502.02	395.55
502.20	447.04
502.37	451.72
502.55	442.36
502.72	430.66
502.90	379.17
503.07	400.23
503.25	388.53
503.43	383.85
503.60	440.02
503.78	433.00
503.95	440.02
504.13	430.66
504.30	393.21
504.48	444.70
504.65	421.30
504.83	416.62
505.01	411.93
505.18	320.65
505.36	383.85
505.53	435.34
505.71	447.04
505.88	444.70
506.06	341.72
506.23	423.64
506.41	416.62
506.58	433.00
506.76	519.60
506.93	418.96
507.11	372.15
507.28	395.55
507.46	423.64
507.63	461.09
507.81	367.46
507.98	444.70
508.16	465.77
508.33	409.59
508.50	425.98
508.68	397.89
508.85	440.02
509.03	423.64
509.20	404.91
509.38	388.53
509.55	458.74
509.73	425.98
509.90	423.64
510.08	444.70
510.25	447.04
510.42	437.68
510.60	411.93
510.77	526.62
510.95	423.64
511.12	409.59
511.30	454.06
511.47	477.47
511.64	425.98
511.82	442.36
511.99	402.57
512.17	400.23
512.34	440.02
512.51	435.34
512.69	442.36
512.86	475.13
513.04	433.00
513.21	416.62
513.38	435.34
513.56	360.44
513.73	418.96
513.90	418.96
514.08	496.19
514.25	339.38
514.43	411.93
514.60	362.78
514.77	360.44
514.95	475.13
515.12	386.19
515.29	339.38
515.47	416.62
515.64	510.24
515.81	409.59
515.99	470.45
516.16	470.45
516.33	395.55
516.51	395.55
516.68	386.19
516.85	397.89
517.03	407.25
517.20	416.62
517.37	437.68
517.54	407.25
517.72	395.55
517.89	440.02
518.06	468.11
518.24	461.09
518.41	416.62
518.58	411.93
518.75	393.21
518.93	442.36
519.10	386.19
519.27	388.53
519.45	365.12
519.62	348.74
519.79	435.34
519.96	390.87
520.14	383.85
520.31	397.89
520.48	402.57
520.65	388.53
520.83	472.79
521.00	393.21
521.17	437.68
521.34	458.74
521.52	430.66
521.69	456.40
521.86	465.77
522.03	493.85
522.20	437.68
522.38	454.06
522.55	491.51
522.72	444.70
522.89	440.02
523.07	477.47
523.24	442.36
523.41	435.34
523.58	472.79
523.75	456.40
523.92	482.15
524.10	379.17
524.27	454.06
524.44	454.06
524.61	404.91
524.78	386.19
524.96	411.93
525.13	493.85
525.30	416.62
525.47	423.64
525.64	374.49
525.81	433.00
525.98	376.83
526.16	386.19
526.33	374.49
526.50	383.85
526.67	365.12
526.84	435.34
527.01	423.64
527.18	400.23
527.36	472.79
527.53	440.02
527.70	440.02
527.87	369.80
528.04	538.32
528.21	341.72
528.38	374.49
528.55	393.21
528.72	402.57
528.89	461.09
529.07	400.23
529.24	437.68
529.41	479.81
529.58	447.04
529.75	416.62
529.92	388.53
530.09	421.30
530.26	395.55
530.43	421.30
530.60	468.11
530.77	397.89
530.94	449.38
531.11	411.93
531.28	437.68
531.46	393.21
531.63	393.21
531.80	423.64
531.97	423.64
532.14	397.89
532.31	433.00
532.48	500.87
532.65	423.64
532.82	435.34
532.99	411.93
533.16	447.04
533.33	390.87
533.50	362.78
533.67	322.99
533.84	416.62
534.01	393.21
534.18	491.51
534.35	404.91
534.52	393.21
534.69	491.51
534.86	416.62
535.03	358.10
535.20	374.49
535.37	430.66
535.54	367.46
535.71	430.66
535.88	395.55
536.05	407.25
536.22	486.83
536.38	374.49
536.55	423.64
536.72	379.17
536.89	362.78
537.06	374.49
537.23	379.17
537.40	374.49
537.57	510.24
537.74	442.36
537.91	414.27
538.08	402.57
538.25	402.57
538.42	400.23
538.59	428.32
538.75	425.98
538.92	409.59
539.09	409.59
539.26	395.55
539.43	463.43
539.60	393.21
539.77	433.00
539.94	393.21
540.11	440.02
540.28	447.04
540.44	524.28
540.61	425.98
540.78	435.34
540.95	416.62
541.12	409.59
541.29	449.38
541.46	447.04
541.62	433.00
541.79	449.38
541.96	465.77
542.13	449.38
542.30	334.70
542.47	416.62
542.63	418.96
542.80	503.22
542.97	482.15
543.14	456.40
543.31	503.22
543.48	444.70
543.64	503.22
543.81	456.40
543.98	374.49
544.15	428.32
544.32	425.98
544.48	421.30
544.65	393.21
544.82	332.36
544.99	388.53
545.16	402.57
545.32	395.55
545.49	510.24
545.66	566.41
545.83	440.02
546.00	449.38
546.16	475.13
546.33	425.98
546.50	365.12
546.67	465.77
546.83	449.38
547.00	411.93
547.17	390.87
547.34	397.89
547.50	470.45
547.67	411.93
547.84	369.80
548.00	379.17
548.17	388.53
548.34	444.70
548.51	465.77
548.67	388.53
548.84	454.06
549.01	404.91
549.18	369.80
549.34	437.68
549.51	423.64
549.68	421.30
549.84	379.17
550.01	404.91
550.18	503.22
550.34	444.70
550.51	456.40
550.68	475.13
550.84	367.46
551.01	496.19
551.18	414.27
551.34	414.27
551.51	388.53
551.68	433.00
551.84	395.55
552.01	418.96
552.18	451.72
552.34	465.77
552.51	402.57
552.68	381.51
552.84	390.87
553.01	416.62
553.18	344.06
553.34	442.36
553.51	407.25
553.67	425.98
553.84	407.25
554.01	376.83
554.17	395.55
554.34	428.32
554.51	468.11
554.67	465.77
554.84	430.66
555.00	435.34
555.17	430.66
555.33	440.02
555.50	414.27
555.67	451.72
555.83	395.55
556.00	379.17
556.16	496.19
556.33	416.62
556.50	381.51
556.66	416.62
556.83	381.51
556.99	341.72
557.16	418.96
557.32	411.93
557.49	402.57
557.65	411.93
557.82	496.19
557.98	454.06
558.15	355.76
558.32	344.06
558.48	376.83
558.65	493.85
558.81	528.96
558.98	397.89
559.14	447.04
559.31	472.79
559.47	484.49
559.64	491.51
559.80	421.30
559.97	442.36
560.13	386.19
560.30	313.63
560.46	409.59
560.63	409.59
560.79	440.02
560.96	353.42
561.12	376.83
561.29	416.62
561.45	423.64
561.61	470.45
561.78	503.22
561.94	463.43
562.11	491.51
562.27	386.19
562.44	374.49
562.60	372.15
562.77	463.43
562.93	493.85
563.10	421.30
563.26	358.10
563.42	404.91
563.59	411.93
563.75	414.27
563.92	477.47
564.08	479.81
564.24	442.36
564.41	514.92
564.57	388.53
564.74	433.00
564.90	454.06
565.07	463.43
565.23	477.47
565.39	444.70
565.56	470.45
565.72	407.25
565.88	428.32
566.05	456.40
566.21	390.87
566.38	440.02
566.54	447.04
566.70	447.04
566.87	379.17
567.03	414.27
567.19	402.57
567.36	372.15
567.52	416.62
567.68	468.11
567.85	393.21
568.01	400.23
568.17	367.46
568.34	437.68
568.50	395.55
568.66	374.49
568.83	444.70
568.99	416.62
569.15	437.68
569.32	416.62
569.48	407.25
569.64	428.32
569.81	393.21
569.97	458.74
570.13	386.19
570.30	416.62
570.46	395.55
570.62	388.53
570.78	383.85
570.95	374.49
571.11	463.43
571.27	435.34
571.43	463.43
571.60	454.06
571.76	407.25
571.92	430.66
572.09	402.57
572.25	442.36
572.41	334.70
572.57	447.04
572.74	454.06
572.90	435.34
573.06	397.89
573.22	430.66
573.38	381.51
573.55	416.62
573.71	428.32
573.87	475.13
574.03	433.00
574.20	418.96
574.36	440.02
574.52	379.17
574.68	468.11
574.84	416.62
575.01	404.91
575.17	479.81
575.33	388.53
575.49	421.30
575.65	397.89
575.82	470.45
575.98	491.51
576.14	461.09
576.30	386.19
576.46	376.83
576.62	442.36
576.79	433.00
576.95	505.56
577.11	372.15
577.27	369.80
577.43	433.00
577.59	435.34
577.75	425.98
577.92	475.13
578.08	374.49
578.24	435.34
578.40	388.53
578.56	461.09
578.72	470.45
578.88	437.68
579.04	397.89
579.21	372.15
579.37	358.10
579.53	433.00
579.69	416.62
579.85	468.11
580.01	465.77
580.17	400.23
580.33	437.68
580.49	379.17
580.65	407.25
580.82	435.34
580.98	369.80
581.14	458.74
581.30	491.51
581.46	477.47
581.62	353.42
581.78	421.30
581.94	430.66
582.10	379.17
582.26	409.59
582.42	376.83
582.58	437.68
582.74	339.38
582.90	421.30
583.06	411.93
583.22	468.11
583.38	423.64
583.54	325.33
583.70	418.96
583.86	390.87
584.02	407.25
584.18	365.12
584.34	416.62
584.50	383.85
584.66	393.21
584.82	437.68
584.98	416.62
585.14	386.19
585.30	400.23
585.46	416.62
585.62	390.87
585.78	369.80
585.94	388.53
586.10	423.64
586.26	428.32
586.42	482.15
586.58	423.64
586.74	454.06
586.90	447.04
587.06	400.23
587.22	433.00
587.38	430.66
587.54	353.42
587.70	393.21
587.86	496.19
588.02	447.04
588.18	404.91
588.34	409.59
588.49	468.11
588.65	400.23
588.81	388.53
588.97	411.93
589.13	369.80
589.29	454.06
589.45	440.02
589.61	381.51
589.77	477.47
589.93	411.93
590.08	360.44
590.24	381.51
590.40	397.89
590.56	348.74
590.72	386.19
590.88	423.64
591.04	404.91
591.20	423.64
591.35	517.26
591.51	348.74
591.67	447.04
591.83	414.27
591.99	477.47
592.15	447.04
592.31	449.38
592.46	447.04
592.62	386.19
592.78	418.96
592.94	425.98
593.10	402.57
593.26	411.93
593.41	444.70
593.57	435.34
593.73	383.85
593.89	449.38
594.05	337.04
594.20	367.46
594.36	383.85
594.52	444.70
594.68	503.22
594.84	409.59
594.99	414.27
595.15	447.04
595.31	447.04
595.47	454.06
595.62	421.30
595.78	451.72
595.94	458.74
596.10	475.13
596.25	475.13
596.41	493.85
596.57	468.11
596.73	381.51
596.88	334.70
597.04	451.72
597.20	458.74
597.36	421.30
597.51	330.02
597.67	437.68
597.83	409.59
597.99	470.45
598.14	395.55
598.30	397.89
598.46	372.15
598.61	444.70
598.77	407.25
598.93	397.89
599.09	404.91
599.24	379.17
599.40	435.34
599.56	430.66
599.71	428.32
599.87	414.27
600.03	402.57
600.18	365.12
600.34	454.06
600.50	311.29
600.65	379.17
600.81	423.64
600.97	435.34
601.12	418.96
601.28	437.68
601.44	409.59
601.59	404.91
601.75	400.23
601.91	353.42
602.06	456.40
602.22	444.70
602.37	451.72
602.53	484.49
602.69	423.64
602.84	400.23
603.00	395.55
603.16	437.68
603.31	470.45
603.47	535.98
603.62	414.27
603.78	444.70
603.94	444.70
604.09	421.30
604.25	341.72
604.40	390.87
604.56	428.32
604.71	388.53
604.87	416.62
605.03	409.59
605.18	435.34
605.34	425.98
605.49	369.80
605.65	407.25
605.80	330.02
605.96	444.70
606.12	386.19
606.27	409.59
606.43	376.83
606.58	381.51
606.74	395.55
606.89	423.64
607.05	489.17
607.20	351.08
607.36	430.66
607.51	421.30
607.67	475.13
607.82	390.87
607.98	395.55
608.13	416.62
608.29	397.89
608.44	414.27
608.60	428.32
608.75	468.11
608.91	444.70
609.06	507.90
609.22	442.36
609.37	365.12
609.53	379.17
609.68	386.19
609.84	440.02
609.99	414.27
610.15	465.77
