SpectraSuite Data File
++++++++++++++++++++++++++++++++++++
Date: Fri Oct 25 12:11:20 EDT 2013
User: price-jones
Dark Spectrum Present: No
Reference Spectrum Present: No
Number of Sampled Component Spectra: 1
Spectrometers: USB2+H05261
Integration Time (usec): 100000 (USB2+H05261)
Spectra Averaged: 1 (USB2+H05261)
Boxcar Smoothing: 0 (USB2+H05261)
Correct for Electrical Dark: No (USB2+H05261)
Strobe/Lamp Enabled: No (USB2+H05261)
Correct for Detector Non-linearity: No (USB2+H05261)
Correct for Stray Light: No (USB2+H05261)
Number of Pixels in Processed Spectrum: 2048
>>>>>Begin Processed Spectral Data<<<<<
365.73	327.68
365.92	327.68
366.12	327.68
366.32	252.78
366.52	154.48
366.72	259.80
366.91	276.18
367.11	241.08
367.31	290.23
367.51	159.16
367.70	231.71
367.90	269.16
368.10	252.78
368.30	252.78
368.49	229.37
368.69	285.55
368.89	283.20
369.09	248.10
369.28	250.44
369.48	252.78
369.68	269.16
369.87	332.36
370.07	330.02
370.27	330.02
370.47	334.70
370.66	362.78
370.86	348.74
371.06	425.98
371.25	407.25
371.45	341.72
371.65	355.76
371.84	358.10
372.04	372.15
372.24	435.34
372.44	407.25
372.63	402.57
372.83	430.66
373.03	393.21
373.22	355.76
373.42	444.70
373.62	454.06
373.81	358.10
374.01	404.91
374.21	451.72
374.40	430.66
374.60	437.68
374.79	468.11
374.99	409.59
375.19	477.47
375.38	365.12
375.58	470.45
375.78	390.87
375.97	376.83
376.17	514.92
376.37	484.49
376.56	383.85
376.76	376.83
376.95	409.59
377.15	414.27
377.35	442.36
377.54	440.02
377.74	437.68
377.93	425.98
378.13	402.57
378.33	447.04
378.52	433.00
378.72	437.68
378.91	425.98
379.11	311.29
379.31	442.36
379.50	365.12
379.70	468.11
379.89	395.55
380.09	435.34
380.28	362.78
380.48	362.78
380.68	395.55
380.87	374.49
381.07	400.23
381.26	456.40
381.46	435.34
381.65	390.87
381.85	430.66
382.04	395.55
382.24	451.72
382.43	395.55
382.63	386.19
382.83	383.85
383.02	358.10
383.22	397.89
383.41	388.53
383.61	365.12
383.80	418.96
384.00	407.25
384.19	390.87
384.39	372.15
384.58	362.78
384.78	437.68
384.97	374.49
385.17	423.64
385.36	402.57
385.56	430.66
385.75	407.25
385.95	362.78
386.14	330.02
386.34	451.72
386.53	437.68
386.72	421.30
386.92	514.92
387.11	411.93
387.31	484.49
387.50	475.13
387.70	369.80
387.89	470.45
388.09	407.25
388.28	404.91
388.48	365.12
388.67	442.36
388.86	447.04
389.06	449.38
389.25	409.59
389.45	458.74
389.64	428.32
389.84	400.23
390.03	421.30
390.22	325.33
390.42	358.10
390.61	449.38
390.81	416.62
391.00	444.70
391.19	397.89
391.39	437.68
391.58	404.91
391.78	404.91
391.97	486.83
392.16	365.12
392.36	423.64
392.55	407.25
392.75	421.30
392.94	440.02
393.13	428.32
393.33	388.53
393.52	362.78
393.71	458.74
393.91	435.34
394.10	418.96
394.29	388.53
394.49	425.98
394.68	430.66
394.88	447.04
395.07	468.11
395.26	404.91
395.46	454.06
395.65	409.59
395.84	461.09
396.04	433.00
396.23	423.64
396.42	428.32
396.62	409.59
396.81	465.77
397.00	372.15
397.19	477.47
397.39	437.68
397.58	414.27
397.77	470.45
397.97	409.59
398.16	461.09
398.35	390.87
398.55	351.08
398.74	355.76
398.93	418.96
399.12	425.98
399.32	451.72
399.51	395.55
399.70	376.83
399.90	388.53
400.09	395.55
400.28	458.74
400.47	475.13
400.67	369.80
400.86	393.21
401.05	386.19
401.24	437.68
401.44	386.19
401.63	372.15
401.82	381.51
402.01	407.25
402.21	383.85
402.40	379.17
402.59	360.44
402.78	358.10
402.97	386.19
403.17	433.00
403.36	409.59
403.55	407.25
403.74	496.19
403.93	447.04
404.13	437.68
404.32	418.96
404.51	454.06
404.70	418.96
404.89	351.08
405.09	454.06
405.28	433.00
405.47	500.87
405.66	355.76
405.85	397.89
406.05	430.66
406.24	423.64
406.43	383.85
406.62	393.21
406.81	489.17
407.00	402.57
407.20	416.62
407.39	430.66
407.58	440.02
407.77	407.25
407.96	367.46
408.15	409.59
408.34	386.19
408.54	418.96
408.73	423.64
408.92	468.11
409.11	484.49
409.30	376.83
409.49	416.62
409.68	423.64
409.87	367.46
410.07	416.62
410.26	393.21
410.45	393.21
410.64	339.38
410.83	437.68
411.02	423.64
411.21	465.77
411.40	346.40
411.59	397.89
411.78	423.64
411.98	407.25
412.17	367.46
412.36	442.36
412.55	449.38
412.74	440.02
412.93	430.66
413.12	353.42
413.31	402.57
413.50	402.57
413.69	411.93
413.88	423.64
414.07	411.93
414.26	390.87
414.45	451.72
414.64	444.70
414.83	433.00
415.02	451.72
415.22	388.53
415.41	444.70
415.60	322.99
415.79	346.40
415.98	458.74
416.17	395.55
416.36	430.66
416.55	395.55
416.74	390.87
416.93	402.57
417.12	423.64
417.31	463.43
417.50	465.77
417.69	461.09
417.88	369.80
418.07	418.96
418.26	395.55
418.45	353.42
418.64	402.57
418.83	388.53
419.02	390.87
419.21	374.49
419.39	449.38
419.58	458.74
419.77	416.62
419.96	449.38
420.15	442.36
420.34	440.02
420.53	442.36
420.72	409.59
420.91	437.68
421.10	425.98
421.29	435.34
421.48	454.06
421.67	468.11
421.86	456.40
422.05	358.10
422.24	414.27
422.43	428.32
422.61	360.44
422.80	404.91
422.99	365.12
423.18	425.98
423.37	355.76
423.56	386.19
423.75	409.59
423.94	400.23
424.13	400.23
424.32	390.87
424.50	440.02
424.69	411.93
424.88	491.51
425.07	435.34
425.26	318.31
425.45	407.25
425.64	388.53
425.83	423.64
426.01	421.30
426.20	416.62
426.39	435.34
426.58	351.08
426.77	379.17
426.96	353.42
427.15	388.53
427.33	365.12
427.52	409.59
427.71	465.77
427.90	461.09
428.09	444.70
428.28	421.30
428.46	430.66
428.65	461.09
428.84	407.25
429.03	470.45
429.22	423.64
429.40	341.72
429.59	383.85
429.78	468.11
429.97	423.64
430.16	327.68
430.34	407.25
430.53	402.57
430.72	374.49
430.91	355.76
431.10	341.72
431.28	447.04
431.47	500.87
431.66	451.72
431.85	313.63
432.03	442.36
432.22	496.19
432.41	393.21
432.60	458.74
432.79	411.93
432.97	447.04
433.16	386.19
433.35	430.66
433.54	379.17
433.72	449.38
433.91	390.87
434.10	374.49
434.28	358.10
434.47	444.70
434.66	458.74
434.85	470.45
435.03	477.47
435.22	437.68
435.41	442.36
435.59	379.17
435.78	416.62
435.97	334.70
436.16	447.04
436.34	456.40
436.53	435.34
436.72	421.30
436.90	472.79
437.09	397.89
437.28	404.91
437.46	318.31
437.65	390.87
437.84	444.70
438.02	444.70
438.21	397.89
438.40	365.12
438.58	451.72
438.77	376.83
438.96	468.11
439.14	388.53
439.33	404.91
439.52	386.19
439.70	475.13
439.89	430.66
440.08	393.21
440.26	454.06
440.45	496.19
440.63	393.21
440.82	496.19
441.01	451.72
441.19	365.12
441.38	421.30
441.57	390.87
441.75	423.64
441.94	444.70
442.12	472.79
442.31	468.11
442.50	383.85
442.68	449.38
442.87	430.66
443.05	428.32
443.24	411.93
443.43	400.23
443.61	407.25
443.80	369.80
443.98	430.66
444.17	367.46
444.35	409.59
444.54	435.34
444.73	393.21
444.91	402.57
445.10	390.87
445.28	451.72
445.47	421.30
445.65	425.98
445.84	442.36
446.02	358.10
446.21	372.15
446.39	440.02
446.58	365.12
446.77	397.89
446.95	411.93
447.14	440.02
447.32	430.66
447.51	386.19
447.69	421.30
447.88	447.04
448.06	470.45
448.25	414.27
448.43	449.38
448.62	425.98
448.80	451.72
448.99	409.59
449.17	454.06
449.36	388.53
449.54	463.43
449.73	346.40
449.91	388.53
450.10	379.17
450.28	409.59
450.46	451.72
450.65	421.30
450.83	372.15
451.02	433.00
451.20	496.19
451.39	409.59
451.57	407.25
451.76	388.53
451.94	414.27
452.13	491.51
452.31	451.72
452.49	423.64
452.68	407.25
452.86	465.77
453.05	433.00
453.23	393.21
453.42	404.91
453.60	397.89
453.78	353.42
453.97	444.70
454.15	414.27
454.34	362.78
454.52	423.64
454.70	423.64
454.89	416.62
455.07	444.70
455.26	491.51
455.44	496.19
455.62	400.23
455.81	456.40
455.99	393.21
456.17	449.38
456.36	390.87
456.54	454.06
456.73	344.06
456.91	358.10
457.09	355.76
457.28	442.36
457.46	463.43
457.64	482.15
457.83	437.68
458.01	346.40
458.19	409.59
458.38	425.98
458.56	414.27
458.74	379.17
458.93	442.36
459.11	458.74
459.29	421.30
459.48	458.74
459.66	461.09
459.84	404.91
460.03	442.36
460.21	374.49
460.39	475.13
460.57	435.34
460.76	381.51
460.94	409.59
461.12	440.02
461.31	433.00
461.49	447.04
461.67	372.15
461.85	486.83
462.04	430.66
462.22	819.19
462.40	379.17
462.59	440.02
462.77	397.89
462.95	411.93
463.13	418.96
463.32	414.27
463.50	468.11
463.68	470.45
463.86	435.34
464.05	425.98
464.23	477.47
464.41	421.30
464.59	383.85
464.78	402.57
464.96	376.83
465.14	430.66
465.32	451.72
465.50	411.93
465.69	390.87
465.87	393.21
466.05	414.27
466.23	458.74
466.41	461.09
466.60	472.79
466.78	416.62
466.96	409.59
467.14	461.09
467.32	430.66
467.51	479.81
467.69	416.62
467.87	411.93
468.05	393.21
468.23	526.62
468.41	430.66
468.60	409.59
468.78	428.32
468.96	433.00
469.14	470.45
469.32	369.80
469.50	444.70
469.69	365.12
469.87	486.83
470.05	334.70
470.23	409.59
470.41	404.91
470.59	433.00
470.77	430.66
470.95	418.96
471.14	386.19
471.32	433.00
471.50	397.89
471.68	437.68
471.86	463.43
472.04	425.98
472.22	355.76
472.40	367.46
472.58	397.89
472.77	400.23
472.95	376.83
473.13	475.13
473.31	437.68
473.49	423.64
473.67	437.68
473.85	421.30
474.03	416.62
474.21	390.87
474.39	465.77
474.57	449.38
474.75	416.62
474.93	416.62
475.12	416.62
475.30	418.96
475.48	437.68
475.66	365.12
475.84	451.72
476.02	435.34
476.20	416.62
476.38	447.04
476.56	421.30
476.74	442.36
476.92	414.27
477.10	416.62
477.28	433.00
477.46	379.17
477.64	498.53
477.82	477.47
478.00	435.34
478.18	444.70
478.36	449.38
478.54	491.51
478.72	355.76
478.90	442.36
479.08	404.91
479.26	372.15
479.44	369.80
479.62	402.57
479.80	390.87
479.98	397.89
480.16	411.93
480.34	409.59
480.52	351.08
480.70	472.79
480.88	475.13
481.06	425.98
481.24	416.62
481.41	477.47
481.59	395.55
481.77	444.70
481.95	449.38
482.13	428.32
482.31	418.96
482.49	482.15
482.67	458.74
482.85	442.36
483.03	475.13
483.21	327.68
483.39	444.70
483.57	367.46
483.74	425.98
483.92	402.57
484.10	435.34
484.28	379.17
484.46	433.00
484.64	470.45
484.82	402.57
485.00	458.74
485.18	372.15
485.35	517.26
485.53	425.98
485.71	416.62
485.89	344.06
486.07	376.83
486.25	463.43
486.43	379.17
486.61	428.32
486.78	433.00
486.96	409.59
487.14	400.23
487.32	388.53
487.50	433.00
487.68	444.70
487.85	327.68
488.03	322.99
488.21	404.91
488.39	397.89
488.57	489.17
488.75	355.76
488.92	421.30
489.10	440.02
489.28	454.06
489.46	461.09
489.64	416.62
489.81	414.27
489.99	411.93
490.17	348.74
490.35	414.27
490.53	421.30
490.70	433.00
490.88	444.70
491.06	381.51
491.24	456.40
491.41	428.32
491.59	416.62
491.77	447.04
491.95	374.49
492.13	477.47
492.30	404.91
492.48	402.57
492.66	425.98
492.84	423.64
493.01	449.38
493.19	395.55
493.37	484.49
493.54	379.17
493.72	454.06
493.90	379.17
494.08	433.00
494.25	355.76
494.43	489.17
494.61	397.89
494.79	355.76
494.96	416.62
495.14	465.77
495.32	454.06
495.49	421.30
495.67	421.30
495.85	425.98
496.02	409.59
496.20	404.91
496.38	428.32
496.55	423.64
496.73	470.45
496.91	442.36
497.09	463.43
497.26	416.62
497.44	367.46
497.62	437.68
497.79	425.98
497.97	404.91
498.14	369.80
498.32	374.49
498.50	388.53
498.67	372.15
498.85	416.62
499.03	435.34
499.20	416.62
499.38	468.11
499.56	400.23
499.73	435.34
499.91	458.74
500.08	470.45
500.26	404.91
500.44	362.78
500.61	369.80
500.79	418.96
500.97	447.04
501.14	454.06
501.32	423.64
501.49	362.78
501.67	367.46
501.84	393.21
502.02	435.34
502.20	472.79
502.37	416.62
502.55	411.93
502.72	346.40
502.90	397.89
503.07	428.32
503.25	411.93
503.43	397.89
503.60	411.93
503.78	435.34
503.95	416.62
504.13	320.65
504.30	416.62
504.48	440.02
504.65	437.68
504.83	381.51
505.01	442.36
505.18	414.27
505.36	369.80
505.53	437.68
505.71	454.06
505.88	498.53
506.06	414.27
506.23	433.00
506.41	397.89
506.58	402.57
506.76	367.46
506.93	477.47
507.11	402.57
507.28	444.70
507.46	475.13
507.63	423.64
507.81	411.93
507.98	454.06
508.16	489.17
508.33	456.40
508.50	425.98
508.68	421.30
508.85	447.04
509.03	440.02
509.20	402.57
509.38	428.32
509.55	472.79
509.73	409.59
509.90	470.45
510.08	433.00
510.25	435.34
510.42	433.00
510.60	400.23
510.77	468.11
510.95	397.89
511.12	444.70
511.30	358.10
511.47	430.66
511.64	512.58
511.82	414.27
511.99	388.53
512.17	367.46
512.34	463.43
512.51	449.38
512.69	330.02
512.86	435.34
513.04	393.21
513.21	416.62
513.38	411.93
513.56	344.06
513.73	351.08
513.90	390.87
514.08	386.19
514.25	407.25
514.43	454.06
514.60	355.76
514.77	386.19
514.95	416.62
515.12	489.17
515.29	447.04
515.47	404.91
515.64	390.87
515.81	358.10
515.99	486.83
516.16	461.09
516.33	388.53
516.51	386.19
516.68	367.46
516.85	409.59
517.03	374.49
517.20	456.40
517.37	404.91
517.54	435.34
517.72	500.87
517.89	430.66
518.06	407.25
518.24	416.62
518.41	395.55
518.58	433.00
518.75	428.32
518.93	367.46
519.10	454.06
519.27	402.57
519.45	465.77
519.62	379.17
519.79	458.74
519.96	475.13
520.14	388.53
520.31	423.64
520.48	458.74
520.65	372.15
520.83	353.42
521.00	451.72
521.17	435.34
521.34	407.25
521.52	472.79
521.69	383.85
521.86	308.95
522.03	461.09
522.20	468.11
522.38	334.70
522.55	395.55
522.72	444.70
522.89	409.59
523.07	423.64
523.24	372.15
523.41	388.53
523.58	458.74
523.75	386.19
523.92	409.59
524.10	372.15
524.27	425.98
524.44	311.29
524.61	440.02
524.78	395.55
524.96	407.25
525.13	418.96
525.30	451.72
525.47	402.57
525.64	409.59
525.81	374.49
525.98	500.87
526.16	344.06
526.33	414.27
526.50	435.34
526.67	409.59
526.84	409.59
527.01	351.08
527.18	397.89
527.36	407.25
527.53	395.55
527.70	449.38
527.87	409.59
528.04	447.04
528.21	442.36
528.38	489.17
528.55	447.04
528.72	423.64
528.89	484.49
529.07	386.19
529.24	463.43
529.41	442.36
529.58	416.62
529.75	463.43
529.92	414.27
530.09	425.98
530.26	411.93
530.43	435.34
530.60	437.68
530.77	402.57
530.94	418.96
531.11	430.66
531.28	409.59
531.46	456.40
531.63	472.79
531.80	409.59
531.97	393.21
532.14	486.83
532.31	472.79
532.48	418.96
532.65	430.66
532.82	407.25
532.99	454.06
533.16	433.00
533.33	449.38
533.50	491.51
533.67	409.59
533.84	510.24
534.01	447.04
534.18	454.06
534.35	388.53
534.52	498.53
534.69	503.22
534.86	381.51
535.03	344.06
535.20	433.00
535.37	409.59
535.54	440.02
535.71	365.12
535.88	498.53
536.05	440.02
536.22	414.27
536.38	374.49
536.55	407.25
536.72	435.34
536.89	369.80
537.06	451.72
537.23	470.45
537.40	496.19
537.57	409.59
537.74	437.68
537.91	416.62
538.08	451.72
538.25	468.11
538.42	404.91
538.59	355.76
538.75	440.02
538.92	411.93
539.09	440.02
539.26	451.72
539.43	449.38
539.60	447.04
539.77	442.36
539.94	355.76
540.11	393.21
540.28	451.72
540.44	451.72
540.61	456.40
540.78	421.30
540.95	395.55
541.12	458.74
541.29	444.70
541.46	447.04
541.62	393.21
541.79	465.77
541.96	440.02
542.13	402.57
542.30	390.87
542.47	435.34
542.63	388.53
542.80	379.17
542.97	458.74
543.14	404.91
543.31	500.87
543.48	418.96
543.64	374.49
543.81	468.11
543.98	397.89
544.15	355.76
544.32	369.80
544.48	500.87
544.65	512.58
544.82	444.70
544.99	381.51
545.16	458.74
545.32	435.34
545.49	383.85
545.66	418.96
545.83	451.72
546.00	409.59
546.16	360.44
546.33	358.10
546.50	456.40
546.67	376.83
546.83	449.38
547.00	381.51
547.17	416.62
547.34	416.62
547.50	463.43
547.67	400.23
547.84	461.09
548.00	437.68
548.17	418.96
548.34	428.32
548.51	435.34
548.67	402.57
548.84	430.66
549.01	358.10
549.18	428.32
549.34	433.00
549.51	447.04
549.68	447.04
549.84	440.02
550.01	372.15
550.18	440.02
550.34	524.28
550.51	386.19
550.68	458.74
550.84	400.23
551.01	484.49
551.18	400.23
551.34	423.64
551.51	447.04
551.68	449.38
551.84	404.91
552.01	454.06
552.18	428.32
552.34	390.87
552.51	404.91
552.68	451.72
552.84	404.91
553.01	435.34
553.18	447.04
553.34	374.49
553.51	465.77
553.67	482.15
553.84	449.38
554.01	526.62
554.17	472.79
554.34	454.06
554.51	437.68
554.67	449.38
554.84	400.23
555.00	386.19
555.17	428.32
555.33	402.57
555.50	456.40
555.67	402.57
555.83	397.89
556.00	489.17
556.16	545.34
556.33	423.64
556.50	355.76
556.66	365.12
556.83	348.74
556.99	400.23
557.16	440.02
557.32	456.40
557.49	428.32
557.65	507.90
557.82	400.23
557.98	442.36
558.15	400.23
558.32	407.25
558.48	479.81
558.65	440.02
558.81	409.59
558.98	404.91
559.14	479.81
559.31	397.89
559.47	458.74
559.64	440.02
559.80	402.57
559.97	365.12
560.13	444.70
560.30	444.70
560.46	414.27
560.63	430.66
560.79	472.79
560.96	400.23
561.12	442.36
561.29	444.70
561.45	369.80
561.61	400.23
561.78	505.56
561.94	395.55
562.11	390.87
562.27	388.53
562.44	355.76
562.60	463.43
562.77	449.38
562.93	433.00
563.10	390.87
563.26	330.02
563.42	425.98
563.59	367.46
563.75	440.02
563.92	383.85
564.08	383.85
564.24	362.78
564.41	444.70
564.57	414.27
564.74	435.34
564.90	437.68
565.07	475.13
565.23	456.40
565.39	372.15
565.56	358.10
565.72	491.51
565.88	376.83
566.05	381.51
566.21	444.70
566.38	477.47
566.54	332.36
566.70	400.23
566.87	447.04
567.03	430.66
567.19	411.93
567.36	395.55
567.52	433.00
567.68	402.57
567.85	437.68
568.01	383.85
568.17	437.68
568.34	404.91
568.50	428.32
568.66	416.62
568.83	505.56
568.99	400.23
569.15	421.30
569.32	369.80
569.48	376.83
569.64	353.42
569.81	411.93
569.97	409.59
570.13	472.79
570.30	407.25
570.46	454.06
570.62	400.23
570.78	409.59
570.95	402.57
571.11	461.09
571.27	472.79
571.43	423.64
571.60	479.81
571.76	447.04
571.92	442.36
572.09	365.12
572.25	416.62
572.41	383.85
572.57	383.85
572.74	367.46
572.90	465.77
573.06	383.85
573.22	386.19
573.38	425.98
573.55	486.83
573.71	397.89
573.87	428.32
574.03	428.32
574.20	409.59
574.36	442.36
574.52	407.25
574.68	407.25
574.84	365.12
575.01	407.25
575.17	386.19
575.33	390.87
575.49	479.81
575.65	409.59
575.82	458.74
575.98	379.17
576.14	367.46
576.30	430.66
576.46	498.53
576.62	428.32
576.79	372.15
576.95	430.66
577.11	477.47
577.27	397.89
577.43	339.38
577.59	425.98
577.75	444.70
577.92	381.51
578.08	322.99
578.24	425.98
578.40	528.96
578.56	470.45
578.72	423.64
578.88	390.87
579.04	425.98
579.21	454.06
579.37	411.93
579.53	435.34
579.69	433.00
579.85	414.27
580.01	461.09
580.17	411.93
580.33	444.70
580.49	489.17
580.65	444.70
580.82	379.17
580.98	442.36
581.14	388.53
581.30	458.74
581.46	442.36
581.62	470.45
581.78	397.89
581.94	447.04
582.10	411.93
582.26	388.53
582.42	482.15
582.58	423.64
582.74	437.68
582.90	447.04
583.06	416.62
583.22	365.12
583.38	386.19
583.54	423.64
583.70	475.13
583.86	411.93
584.02	444.70
584.18	444.70
584.34	358.10
584.50	372.15
584.66	449.38
584.82	435.34
584.98	496.19
585.14	425.98
585.30	416.62
585.46	369.80
585.62	376.83
585.78	423.64
585.94	449.38
586.10	376.83
586.26	437.68
586.42	418.96
586.58	454.06
586.74	365.12
586.90	411.93
587.06	416.62
587.22	433.00
587.38	421.30
587.54	428.32
587.70	477.47
587.86	454.06
588.02	404.91
588.18	404.91
588.34	468.11
588.49	463.43
588.65	425.98
588.81	465.77
588.97	374.49
589.13	404.91
589.29	477.47
589.45	470.45
589.61	421.30
589.77	411.93
589.93	402.57
590.08	418.96
590.24	388.53
590.40	435.34
590.56	444.70
590.72	386.19
590.88	435.34
591.04	386.19
591.20	486.83
591.35	447.04
591.51	425.98
591.67	344.06
591.83	421.30
591.99	435.34
592.15	491.51
592.31	416.62
592.46	425.98
592.62	447.04
592.78	383.85
592.94	400.23
593.10	355.76
593.26	388.53
593.41	451.72
593.57	449.38
593.73	440.02
593.89	454.06
594.05	409.59
594.20	444.70
594.36	430.66
594.52	444.70
594.68	463.43
594.84	416.62
594.99	496.19
595.15	535.98
595.31	468.11
595.47	482.15
595.62	421.30
595.78	421.30
595.94	444.70
596.10	472.79
596.25	372.15
596.41	411.93
596.57	418.96
596.73	477.47
596.88	484.49
597.04	388.53
597.20	407.25
597.36	367.46
597.51	444.70
597.67	409.59
597.83	402.57
597.99	503.22
598.14	433.00
598.30	355.76
598.46	430.66
598.61	458.74
598.77	435.34
598.93	374.49
599.09	477.47
599.24	451.72
599.40	440.02
599.56	425.98
599.71	454.06
599.87	435.34
600.03	433.00
600.18	404.91
600.34	400.23
600.50	444.70
600.65	461.09
600.81	423.64
600.97	404.91
601.12	402.57
601.28	433.00
601.44	416.62
601.59	461.09
601.75	449.38
601.91	402.57
602.06	433.00
602.22	524.28
602.37	416.62
602.53	425.98
602.69	484.49
602.84	475.13
603.00	409.59
603.16	463.43
603.31	458.74
603.47	353.42
603.62	402.57
603.78	411.93
603.94	409.59
604.09	388.53
604.25	449.38
604.40	416.62
604.56	376.83
604.71	411.93
604.87	444.70
605.03	390.87
605.18	360.44
605.34	421.30
605.49	400.23
605.65	418.96
605.80	402.57
605.96	435.34
606.12	470.45
606.27	430.66
606.43	479.81
606.58	449.38
606.74	425.98
606.89	428.32
607.05	456.40
607.20	444.70
607.36	400.23
607.51	397.89
607.67	372.15
607.82	428.32
607.98	468.11
608.13	409.59
608.29	458.74
608.44	451.72
608.60	428.32
608.75	505.56
608.91	414.27
609.06	407.25
609.22	498.53
609.37	395.55
609.53	351.08
609.68	428.32
609.84	416.62
609.99	461.09
610.15	447.04
