SpectraSuite Data File
++++++++++++++++++++++++++++++++++++
Date: Fri Oct 25 12:11:46 EDT 2013
User: price-jones
Dark Spectrum Present: No
Reference Spectrum Present: No
Number of Sampled Component Spectra: 1
Spectrometers: USB2+H05261
Integration Time (usec): 100000 (USB2+H05261)
Spectra Averaged: 1 (USB2+H05261)
Boxcar Smoothing: 0 (USB2+H05261)
Correct for Electrical Dark: No (USB2+H05261)
Strobe/Lamp Enabled: No (USB2+H05261)
Correct for Detector Non-linearity: No (USB2+H05261)
Correct for Stray Light: No (USB2+H05261)
Number of Pixels in Processed Spectrum: 2048
>>>>>Begin Processed Spectral Data<<<<<
365.73	325.33
365.92	325.33
366.12	325.33
366.32	241.08
366.52	257.46
366.72	238.73
366.91	224.69
367.11	245.76
367.31	229.37
367.51	325.33
367.70	208.31
367.90	271.50
368.10	241.08
368.30	285.55
368.49	259.80
368.69	243.42
368.89	210.65
369.09	175.54
369.28	285.55
369.48	273.84
369.68	255.12
369.87	257.46
370.07	259.80
370.27	383.85
370.47	250.44
370.66	397.89
370.86	306.61
371.06	386.19
371.25	386.19
371.45	390.87
371.65	381.51
371.84	395.55
372.04	407.25
372.24	330.02
372.44	421.30
372.63	379.17
372.83	402.57
373.03	400.23
373.22	435.34
373.42	397.89
373.62	411.93
373.81	386.19
374.01	489.17
374.21	402.57
374.40	369.80
374.60	430.66
374.79	341.72
374.99	444.70
375.19	388.53
375.38	454.06
375.58	414.27
375.78	489.17
375.97	430.66
376.17	454.06
376.37	313.63
376.56	465.77
376.76	381.51
376.95	379.17
377.15	454.06
377.35	505.56
377.54	404.91
377.74	433.00
377.93	404.91
378.13	456.40
378.33	386.19
378.52	383.85
378.72	372.15
378.91	407.25
379.11	386.19
379.31	393.21
379.50	440.02
379.70	447.04
379.89	414.27
380.09	409.59
380.28	351.08
380.48	376.83
380.68	435.34
380.87	416.62
381.07	365.12
381.26	409.59
381.46	458.74
381.65	449.38
381.85	306.61
382.04	414.27
382.24	461.09
382.43	386.19
382.63	400.23
382.83	472.79
383.02	390.87
383.22	489.17
383.41	437.68
383.61	428.32
383.80	470.45
384.00	374.49
384.19	376.83
384.39	395.55
384.58	482.15
384.78	386.19
384.97	447.04
385.17	416.62
385.36	425.98
385.56	402.57
385.75	376.83
385.95	409.59
386.14	451.72
386.34	425.98
386.53	390.87
386.72	468.11
386.92	386.19
387.11	428.32
387.31	444.70
387.50	376.83
387.70	390.87
387.89	374.49
388.09	435.34
388.28	423.64
388.48	475.13
388.67	442.36
388.86	442.36
389.06	454.06
389.25	463.43
389.45	428.32
389.64	362.78
389.84	404.91
390.03	421.30
390.22	400.23
390.42	437.68
390.61	351.08
390.81	344.06
391.00	414.27
391.19	463.43
391.39	423.64
391.58	430.66
391.78	409.59
391.97	444.70
392.16	400.23
392.36	472.79
392.55	451.72
392.75	430.66
392.94	393.21
393.13	421.30
393.33	386.19
393.52	428.32
393.71	393.21
393.91	330.02
394.10	390.87
394.29	411.93
394.49	311.29
394.68	390.87
394.88	444.70
395.07	397.89
395.26	414.27
395.46	435.34
395.65	407.25
395.84	433.00
396.04	456.40
396.23	482.15
396.42	388.53
396.62	390.87
396.81	435.34
397.00	386.19
397.19	433.00
397.39	437.68
397.58	362.78
397.77	402.57
397.97	348.74
398.16	386.19
398.35	414.27
398.55	346.40
398.74	379.17
398.93	447.04
399.12	376.83
399.32	418.96
399.51	449.38
399.70	344.06
399.90	400.23
400.09	386.19
400.28	451.72
400.47	428.32
400.67	421.30
400.86	451.72
401.05	372.15
401.24	365.12
401.44	418.96
401.63	402.57
401.82	442.36
402.01	390.87
402.21	428.32
402.40	388.53
402.59	379.17
402.78	374.49
402.97	341.72
403.17	362.78
403.36	379.17
403.55	395.55
403.74	400.23
403.93	442.36
404.13	472.79
404.32	423.64
404.51	449.38
404.70	468.11
404.89	505.56
405.09	470.45
405.28	447.04
405.47	423.64
405.66	449.38
405.85	395.55
406.05	433.00
406.24	437.68
406.43	407.25
406.62	430.66
406.81	409.59
407.00	505.56
407.20	395.55
407.39	355.76
407.58	428.32
407.77	428.32
407.96	442.36
408.15	407.25
408.34	369.80
408.54	435.34
408.73	388.53
408.92	444.70
409.11	423.64
409.30	407.25
409.49	475.13
409.68	372.15
409.87	367.46
410.07	353.42
410.26	418.96
410.45	435.34
410.64	397.89
410.83	388.53
411.02	440.02
411.21	433.00
411.40	458.74
411.59	365.12
411.78	407.25
411.98	369.80
412.17	421.30
412.36	461.09
412.55	458.74
412.74	503.22
412.93	376.83
413.12	404.91
413.31	435.34
413.50	444.70
413.69	404.91
413.88	374.49
414.07	416.62
414.26	369.80
414.45	360.44
414.64	404.91
414.83	461.09
415.02	433.00
415.22	388.53
415.41	423.64
415.60	400.23
415.79	374.49
415.98	421.30
416.17	400.23
416.36	306.61
416.55	395.55
416.74	404.91
416.93	435.34
417.12	468.11
417.31	430.66
417.50	409.59
417.69	463.43
417.88	386.19
418.07	414.27
418.26	390.87
418.45	425.98
418.64	414.27
418.83	386.19
419.02	430.66
419.21	425.98
419.39	475.13
419.58	369.80
419.77	414.27
419.96	379.17
420.15	414.27
420.34	418.96
420.53	327.68
420.72	456.40
420.91	407.25
421.10	379.17
421.29	409.59
421.48	428.32
421.67	404.91
421.86	454.06
422.05	451.72
422.24	374.49
422.43	407.25
422.61	372.15
422.80	311.29
422.99	386.19
423.18	393.21
423.37	407.25
423.56	386.19
423.75	449.38
423.94	414.27
424.13	447.04
424.32	458.74
424.50	449.38
424.69	388.53
424.88	407.25
425.07	435.34
425.26	409.59
425.45	456.40
425.64	414.27
425.83	465.77
426.01	358.10
426.20	358.10
426.39	334.70
426.58	416.62
426.77	435.34
426.96	440.02
427.15	454.06
427.33	404.91
427.52	360.44
427.71	416.62
427.90	433.00
428.09	414.27
428.28	358.10
428.46	454.06
428.65	477.47
428.84	409.59
429.03	475.13
429.22	437.68
429.40	379.17
429.59	465.77
429.78	425.98
429.97	397.89
430.16	444.70
430.34	395.55
430.53	437.68
430.72	437.68
430.91	470.45
431.10	337.04
431.28	388.53
431.47	465.77
431.66	444.70
431.85	407.25
432.03	402.57
432.22	365.12
432.41	390.87
432.60	362.78
432.79	395.55
432.97	404.91
433.16	379.17
433.35	400.23
433.54	428.32
433.72	355.76
433.91	416.62
434.10	425.98
434.28	449.38
434.47	433.00
434.66	411.93
434.85	397.89
435.03	374.49
435.22	458.74
435.41	465.77
435.59	404.91
435.78	475.13
435.97	393.21
436.16	463.43
436.34	465.77
436.53	404.91
436.72	386.19
436.90	360.44
437.09	435.34
437.28	397.89
437.46	451.72
437.65	374.49
437.84	433.00
438.02	437.68
438.21	409.59
438.40	395.55
438.58	442.36
438.77	428.32
438.96	362.78
439.14	440.02
439.33	365.12
439.52	416.62
439.70	444.70
439.89	390.87
440.08	421.30
440.26	428.32
440.45	386.19
440.63	500.87
440.82	353.42
441.01	400.23
441.19	416.62
441.38	416.62
441.57	479.81
441.75	416.62
441.94	477.47
442.12	491.51
442.31	397.89
442.50	360.44
442.68	402.57
442.87	397.89
443.05	376.83
443.24	428.32
443.43	409.59
443.61	416.62
443.80	365.12
443.98	463.43
444.17	433.00
444.35	411.93
444.54	409.59
444.73	358.10
444.91	458.74
445.10	388.53
445.28	388.53
445.47	393.21
445.65	414.27
445.84	423.64
446.02	367.46
446.21	325.33
446.39	433.00
446.58	409.59
446.77	376.83
446.95	430.66
447.14	486.83
447.32	430.66
447.51	386.19
447.69	383.85
447.88	407.25
448.06	437.68
448.25	435.34
448.43	435.34
448.62	428.32
448.80	416.62
448.99	510.24
449.17	383.85
449.36	332.36
449.54	425.98
449.73	416.62
449.91	425.98
450.10	379.17
450.28	461.09
450.46	374.49
450.65	395.55
450.83	444.70
451.02	397.89
451.20	344.06
451.39	425.98
451.57	447.04
451.76	386.19
451.94	351.08
452.13	362.78
452.31	437.68
452.49	402.57
452.68	397.89
452.86	402.57
453.05	521.94
453.23	346.40
453.42	276.18
453.60	463.43
453.78	477.47
453.97	388.53
454.15	418.96
454.34	339.38
454.52	428.32
454.70	435.34
454.89	425.98
455.07	456.40
455.26	423.64
455.44	437.68
455.62	435.34
455.81	491.51
455.99	351.08
456.17	461.09
456.36	454.06
456.54	388.53
456.73	423.64
456.91	390.87
457.09	374.49
457.28	449.38
457.46	365.12
457.64	433.00
457.83	442.36
458.01	428.32
458.19	374.49
458.38	407.25
458.56	447.04
458.74	416.62
458.93	374.49
459.11	390.87
459.29	414.27
459.48	440.02
459.66	496.19
459.84	465.77
460.03	496.19
460.21	393.21
460.39	428.32
460.57	458.74
460.76	416.62
460.94	414.27
461.12	479.81
461.31	355.76
461.49	435.34
461.67	423.64
461.85	388.53
462.04	397.89
462.22	821.53
462.40	451.72
462.59	484.49
462.77	433.00
462.95	444.70
463.13	367.46
463.32	379.17
463.50	407.25
463.68	440.02
463.86	451.72
464.05	437.68
464.23	456.40
464.41	369.80
464.59	465.77
464.78	414.27
464.96	409.59
465.14	381.51
465.32	374.49
465.50	404.91
465.69	505.56
465.87	409.59
466.05	372.15
466.23	440.02
466.41	444.70
466.60	400.23
466.78	414.27
466.96	449.38
467.14	393.21
467.32	442.36
467.51	484.49
467.69	440.02
467.87	348.74
468.05	463.43
468.23	463.43
468.41	454.06
468.60	400.23
468.78	376.83
468.96	449.38
469.14	451.72
469.32	454.06
469.50	402.57
469.69	393.21
469.87	369.80
470.05	437.68
470.23	369.80
470.41	374.49
470.59	425.98
470.77	421.30
470.95	393.21
471.14	367.46
471.32	397.89
471.50	482.15
471.68	470.45
471.86	456.40
472.04	411.93
472.22	433.00
472.40	425.98
472.58	463.43
472.77	409.59
472.95	402.57
473.13	491.51
473.31	355.76
473.49	379.17
473.67	463.43
473.85	472.79
474.03	470.45
474.21	444.70
474.39	407.25
474.57	428.32
474.75	451.72
474.93	416.62
475.12	390.87
475.30	383.85
475.48	393.21
475.66	418.96
475.84	344.06
476.02	407.25
476.20	402.57
476.38	418.96
476.56	456.40
476.74	451.72
476.92	421.30
477.10	402.57
477.28	414.27
477.46	496.19
477.64	423.64
477.82	388.53
478.00	421.30
478.18	407.25
478.36	416.62
478.54	400.23
478.72	397.89
478.90	404.91
479.08	423.64
479.26	437.68
479.44	390.87
479.62	407.25
479.80	372.15
479.98	386.19
480.16	407.25
480.34	505.56
480.52	435.34
480.70	409.59
480.88	376.83
481.06	381.51
481.24	411.93
481.41	390.87
481.59	416.62
481.77	409.59
481.95	390.87
482.13	402.57
482.31	411.93
482.49	451.72
482.67	395.55
482.85	395.55
483.03	444.70
483.21	435.34
483.39	425.98
483.57	348.74
483.74	517.26
483.92	428.32
484.10	404.91
484.28	461.09
484.46	449.38
484.64	442.36
484.82	416.62
485.00	393.21
485.18	456.40
485.35	451.72
485.53	393.21
485.71	418.96
485.89	379.17
486.07	379.17
486.25	447.04
486.43	369.80
486.61	442.36
486.78	447.04
486.96	367.46
487.14	449.38
487.32	414.27
487.50	395.55
487.68	374.49
487.85	409.59
488.03	388.53
488.21	407.25
488.39	435.34
488.57	454.06
488.75	337.04
488.92	397.89
489.10	360.44
489.28	491.51
489.46	395.55
489.64	397.89
489.81	423.64
489.99	433.00
490.17	454.06
490.35	386.19
490.53	393.21
490.70	379.17
490.88	428.32
491.06	470.45
491.24	414.27
491.41	416.62
491.59	423.64
491.77	381.51
491.95	414.27
492.13	444.70
492.30	465.77
492.48	482.15
492.66	379.17
492.84	397.89
493.01	407.25
493.19	379.17
493.37	458.74
493.54	454.06
493.72	397.89
493.90	337.04
494.08	416.62
494.25	421.30
494.43	458.74
494.61	430.66
494.79	454.06
494.96	400.23
495.14	428.32
495.32	411.93
495.49	430.66
495.67	397.89
495.85	414.27
496.02	402.57
496.20	449.38
496.38	393.21
496.55	423.64
496.73	428.32
496.91	418.96
497.09	418.96
497.26	416.62
497.44	390.87
497.62	376.83
497.79	379.17
497.97	411.93
498.14	400.23
498.32	411.93
498.50	390.87
498.67	395.55
498.85	390.87
499.03	402.57
499.20	433.00
499.38	482.15
499.56	416.62
499.73	521.94
499.91	442.36
500.08	447.04
500.26	433.00
500.44	402.57
500.61	454.06
500.79	451.72
500.97	402.57
501.14	493.85
501.32	451.72
501.49	486.83
501.67	353.42
501.84	447.04
502.02	390.87
502.20	444.70
502.37	360.44
502.55	397.89
502.72	367.46
502.90	425.98
503.07	484.49
503.25	362.78
503.43	367.46
503.60	437.68
503.78	444.70
503.95	423.64
504.13	444.70
504.30	318.31
504.48	414.27
504.65	407.25
504.83	400.23
505.01	440.02
505.18	411.93
505.36	365.12
505.53	449.38
505.71	327.68
505.88	383.85
506.06	397.89
506.23	397.89
506.41	470.45
506.58	440.02
506.76	433.00
506.93	397.89
507.11	397.89
507.28	442.36
507.46	351.08
507.63	346.40
507.81	435.34
507.98	519.60
508.16	414.27
508.33	456.40
508.50	409.59
508.68	435.34
508.85	479.81
509.03	386.19
509.20	383.85
509.38	449.38
509.55	425.98
509.73	444.70
509.90	444.70
510.08	400.23
510.25	440.02
510.42	404.91
510.60	451.72
510.77	486.83
510.95	376.83
511.12	409.59
511.30	470.45
511.47	465.77
511.64	477.47
511.82	367.46
511.99	440.02
512.17	388.53
512.34	435.34
512.51	414.27
512.69	397.89
512.86	491.51
513.04	418.96
513.21	402.57
513.38	365.12
513.56	440.02
513.73	425.98
513.90	409.59
514.08	454.06
514.25	423.64
514.43	444.70
514.60	442.36
514.77	388.53
514.95	437.68
515.12	458.74
515.29	369.80
515.47	374.49
515.64	390.87
515.81	433.00
515.99	479.81
516.16	489.17
516.33	461.09
516.51	456.40
516.68	418.96
516.85	503.22
517.03	407.25
517.20	395.55
517.37	437.68
517.54	393.21
517.72	388.53
517.89	428.32
518.06	344.06
518.24	414.27
518.41	397.89
518.58	402.57
518.75	395.55
518.93	400.23
519.10	383.85
519.27	428.32
519.45	463.43
519.62	430.66
519.79	461.09
519.96	386.19
520.14	465.77
520.31	493.85
520.48	425.98
520.65	477.47
520.83	404.91
521.00	451.72
521.17	402.57
521.34	390.87
521.52	416.62
521.69	425.98
521.86	463.43
522.03	428.32
522.20	484.49
522.38	386.19
522.55	388.53
522.72	388.53
522.89	463.43
523.07	472.79
523.24	393.21
523.41	351.08
523.58	449.38
523.75	430.66
523.92	400.23
524.10	402.57
524.27	540.66
524.44	423.64
524.61	407.25
524.78	428.32
524.96	376.83
525.13	449.38
525.30	404.91
525.47	374.49
525.64	482.15
525.81	414.27
525.98	397.89
526.16	395.55
526.33	423.64
526.50	386.19
526.67	440.02
526.84	353.42
527.01	381.51
527.18	430.66
527.36	367.46
527.53	358.10
527.70	365.12
527.87	433.00
528.04	477.47
528.21	358.10
528.38	461.09
528.55	454.06
528.72	416.62
528.89	510.24
529.07	393.21
529.24	407.25
529.41	440.02
529.58	402.57
529.75	463.43
529.92	409.59
530.09	475.13
530.26	411.93
530.43	475.13
530.60	383.85
530.77	433.00
530.94	433.00
531.11	411.93
531.28	430.66
531.46	437.68
531.63	397.89
531.80	486.83
531.97	447.04
532.14	449.38
532.31	458.74
532.48	447.04
532.65	447.04
532.82	395.55
532.99	435.34
533.16	388.53
533.33	435.34
533.50	430.66
533.67	395.55
533.84	444.70
534.01	454.06
534.18	369.80
534.35	400.23
534.52	411.93
534.69	444.70
534.86	404.91
535.03	365.12
535.20	433.00
535.37	418.96
535.54	456.40
535.71	414.27
535.88	416.62
536.05	381.51
536.22	428.32
536.38	421.30
536.55	444.70
536.72	411.93
536.89	428.32
537.06	409.59
537.23	407.25
537.40	400.23
537.57	456.40
537.74	447.04
537.91	407.25
538.08	407.25
538.25	379.17
538.42	367.46
538.59	425.98
538.75	433.00
538.92	479.81
539.09	409.59
539.26	425.98
539.43	447.04
539.60	351.08
539.77	411.93
539.94	411.93
540.11	491.51
540.28	407.25
540.44	468.11
540.61	379.17
540.78	416.62
540.95	421.30
541.12	458.74
541.29	393.21
541.46	447.04
541.62	430.66
541.79	435.34
541.96	402.57
542.13	447.04
542.30	454.06
542.47	411.93
542.63	425.98
542.80	411.93
542.97	421.30
543.14	402.57
543.31	435.34
543.48	400.23
543.64	353.42
543.81	423.64
543.98	397.89
544.15	344.06
544.32	404.91
544.48	423.64
544.65	416.62
544.82	369.80
544.99	379.17
545.16	449.38
545.32	402.57
545.49	390.87
545.66	435.34
545.83	440.02
546.00	440.02
546.16	395.55
546.33	414.27
546.50	437.68
546.67	355.76
546.83	435.34
547.00	411.93
547.17	514.92
547.34	407.25
547.50	369.80
547.67	442.36
547.84	425.98
548.00	447.04
548.17	435.34
548.34	444.70
548.51	423.64
548.67	369.80
548.84	423.64
549.01	388.53
549.18	428.32
549.34	418.96
549.51	447.04
549.68	425.98
549.84	428.32
550.01	379.17
550.18	477.47
550.34	521.94
550.51	451.72
550.68	507.90
550.84	433.00
551.01	409.59
551.18	444.70
551.34	484.49
551.51	437.68
551.68	449.38
551.84	468.11
552.01	449.38
552.18	416.62
552.34	468.11
552.51	379.17
552.68	484.49
552.84	421.30
553.01	390.87
553.18	442.36
553.34	395.55
553.51	395.55
553.67	447.04
553.84	442.36
554.01	409.59
554.17	374.49
554.34	355.76
554.51	470.45
554.67	428.32
554.84	369.80
555.00	416.62
555.17	404.91
555.33	526.62
555.50	407.25
555.67	435.34
555.83	416.62
556.00	444.70
556.16	557.05
556.33	472.79
556.50	379.17
556.66	435.34
556.83	447.04
556.99	411.93
557.16	442.36
557.32	372.15
557.49	390.87
557.65	444.70
557.82	374.49
557.98	465.77
558.15	449.38
558.32	491.51
558.48	447.04
558.65	409.59
558.81	404.91
558.98	428.32
559.14	411.93
559.31	468.11
559.47	374.49
559.64	395.55
559.80	383.85
559.97	397.89
560.13	409.59
560.30	414.27
560.46	383.85
560.63	360.44
560.79	440.02
560.96	444.70
561.12	428.32
561.29	423.64
561.45	386.19
561.61	428.32
561.78	472.79
561.94	383.85
562.11	365.12
562.27	447.04
562.44	491.51
562.60	430.66
562.77	393.21
562.93	496.19
563.10	435.34
563.26	407.25
563.42	470.45
563.59	376.83
563.75	451.72
563.92	423.64
564.08	479.81
564.24	442.36
564.41	484.49
564.57	402.57
564.74	362.78
564.90	421.30
565.07	376.83
565.23	395.55
565.39	428.32
565.56	442.36
565.72	468.11
565.88	468.11
566.05	425.98
566.21	411.93
566.38	402.57
566.54	367.46
566.70	435.34
566.87	369.80
567.03	388.53
567.19	409.59
567.36	381.51
567.52	433.00
567.68	393.21
567.85	411.93
568.01	397.89
568.17	379.17
568.34	430.66
568.50	425.98
568.66	402.57
568.83	514.92
568.99	428.32
569.15	454.06
569.32	475.13
569.48	433.00
569.64	404.91
569.81	461.09
569.97	358.10
570.13	416.62
570.30	428.32
570.46	470.45
570.62	433.00
570.78	447.04
570.95	383.85
571.11	411.93
571.27	482.15
571.43	411.93
571.60	428.32
571.76	390.87
571.92	442.36
572.09	486.83
572.25	407.25
572.41	358.10
572.57	510.24
572.74	507.90
572.90	456.40
573.06	388.53
573.22	477.47
573.38	397.89
573.55	423.64
573.71	454.06
573.87	425.98
574.03	362.78
574.20	425.98
574.36	414.27
574.52	348.74
574.68	346.40
574.84	386.19
575.01	433.00
575.17	423.64
575.33	414.27
575.49	447.04
575.65	425.98
575.82	498.53
575.98	414.27
576.14	416.62
576.30	402.57
576.46	437.68
576.62	449.38
576.79	407.25
576.95	484.49
577.11	430.66
577.27	376.83
577.43	472.79
577.59	454.06
577.75	393.21
577.92	421.30
578.08	388.53
578.24	444.70
578.40	491.51
578.56	519.60
578.72	458.74
578.88	404.91
579.04	360.44
579.21	407.25
579.37	388.53
579.53	444.70
579.69	451.72
579.85	404.91
580.01	388.53
580.17	379.17
580.33	444.70
580.49	430.66
580.65	451.72
580.82	414.27
580.98	369.80
581.14	360.44
581.30	390.87
581.46	411.93
581.62	456.40
581.78	468.11
581.94	414.27
582.10	416.62
582.26	416.62
582.42	397.89
582.58	475.13
582.74	447.04
582.90	369.80
583.06	435.34
583.22	379.17
583.38	465.77
583.54	367.46
583.70	442.36
583.86	447.04
584.02	451.72
584.18	440.02
584.34	395.55
584.50	437.68
584.66	456.40
584.82	456.40
584.98	397.89
585.14	395.55
585.30	418.96
585.46	383.85
585.62	409.59
585.78	409.59
585.94	437.68
586.10	425.98
586.26	475.13
586.42	475.13
586.58	440.02
586.74	390.87
586.90	390.87
587.06	365.12
587.22	482.15
587.38	416.62
587.54	358.10
587.70	407.25
587.86	369.80
588.02	390.87
588.18	390.87
588.34	421.30
588.49	418.96
588.65	484.49
588.81	379.17
588.97	449.38
589.13	402.57
589.29	397.89
589.45	397.89
589.61	416.62
589.77	447.04
589.93	444.70
590.08	400.23
590.24	444.70
590.40	468.11
590.56	374.49
590.72	416.62
590.88	365.12
591.04	393.21
591.20	447.04
591.35	479.81
591.51	407.25
591.67	383.85
591.83	440.02
591.99	428.32
592.15	411.93
592.31	444.70
592.46	376.83
592.62	489.17
592.78	444.70
592.94	402.57
593.10	411.93
593.26	383.85
593.41	454.06
593.57	376.83
593.73	360.44
593.89	463.43
594.05	388.53
594.20	393.21
594.36	505.56
594.52	444.70
594.68	386.19
594.84	451.72
594.99	451.72
595.15	400.23
595.31	383.85
595.47	425.98
595.62	449.38
595.78	428.32
595.94	390.87
596.10	400.23
596.25	397.89
596.41	430.66
596.57	470.45
596.73	386.19
596.88	383.85
597.04	423.64
597.20	433.00
597.36	386.19
597.51	442.36
597.67	365.12
597.83	430.66
597.99	454.06
598.14	411.93
598.30	442.36
598.46	475.13
598.61	433.00
598.77	435.34
598.93	407.25
599.09	421.30
599.24	418.96
599.40	437.68
599.56	437.68
599.71	449.38
599.87	423.64
600.03	388.53
600.18	358.10
600.34	402.57
600.50	433.00
600.65	430.66
600.81	383.85
600.97	416.62
601.12	437.68
601.28	428.32
601.44	369.80
601.59	386.19
601.75	463.43
601.91	428.32
602.06	444.70
602.22	451.72
602.37	367.46
602.53	407.25
602.69	367.46
602.84	454.06
603.00	400.23
603.16	454.06
603.31	358.10
603.47	397.89
603.62	423.64
603.78	442.36
603.94	465.77
604.09	397.89
604.25	454.06
604.40	407.25
604.56	376.83
604.71	372.15
604.87	404.91
605.03	346.40
605.18	390.87
605.34	435.34
605.49	355.76
605.65	404.91
605.80	423.64
605.96	442.36
606.12	388.53
606.27	430.66
606.43	414.27
606.58	496.19
606.74	397.89
606.89	416.62
607.05	421.30
607.20	304.27
607.36	407.25
607.51	411.93
607.67	468.11
607.82	505.56
607.98	430.66
608.13	423.64
608.29	397.89
608.44	479.81
608.60	409.59
608.75	433.00
608.91	351.08
609.06	468.11
609.22	447.04
609.37	362.78
609.53	433.00
609.68	433.00
609.84	404.91
609.99	355.76
610.15	374.49
