SpectraSuite Data File
++++++++++++++++++++++++++++++++++++
Date: Fri Oct 25 12:11:40 EDT 2013
User: price-jones
Dark Spectrum Present: No
Reference Spectrum Present: No
Number of Sampled Component Spectra: 1
Spectrometers: USB2+H05261
Integration Time (usec): 100000 (USB2+H05261)
Spectra Averaged: 1 (USB2+H05261)
Boxcar Smoothing: 0 (USB2+H05261)
Correct for Electrical Dark: No (USB2+H05261)
Strobe/Lamp Enabled: No (USB2+H05261)
Correct for Detector Non-linearity: No (USB2+H05261)
Correct for Stray Light: No (USB2+H05261)
Number of Pixels in Processed Spectrum: 2048
>>>>>Begin Processed Spectral Data<<<<<
365.73	348.74
365.92	348.74
366.12	348.74
366.32	248.10
366.52	278.52
366.72	255.12
366.91	234.05
367.11	227.03
367.31	290.23
367.51	283.20
367.70	205.97
367.90	257.46
368.10	222.35
368.30	271.50
368.49	290.23
368.69	236.39
368.89	294.91
369.09	276.18
369.28	306.61
369.48	271.50
369.68	222.35
369.87	248.10
370.07	351.08
370.27	315.97
370.47	301.93
370.66	360.44
370.86	423.64
371.06	383.85
371.25	388.53
371.45	374.49
371.65	358.10
371.84	348.74
372.04	372.15
372.24	358.10
372.44	402.57
372.63	386.19
372.83	383.85
373.03	454.06
373.22	362.78
373.42	442.36
373.62	430.66
373.81	433.00
374.01	388.53
374.21	400.23
374.40	360.44
374.60	416.62
374.79	327.68
374.99	404.91
375.19	428.32
375.38	449.38
375.58	418.96
375.78	470.45
375.97	418.96
376.17	486.83
376.37	397.89
376.56	416.62
376.76	456.40
376.95	433.00
377.15	447.04
377.35	437.68
377.54	400.23
377.74	400.23
377.93	407.25
378.13	470.45
378.33	397.89
378.52	423.64
378.72	418.96
378.91	411.93
379.11	386.19
379.31	390.87
379.50	344.06
379.70	428.32
379.89	372.15
380.09	393.21
380.28	447.04
380.48	444.70
380.68	433.00
380.87	376.83
381.07	367.46
381.26	498.53
381.46	402.57
381.65	379.17
381.85	461.09
382.04	388.53
382.24	418.96
382.43	365.12
382.63	428.32
382.83	393.21
383.02	411.93
383.22	524.28
383.41	421.30
383.61	510.24
383.80	435.34
384.00	402.57
384.19	411.93
384.39	369.80
384.58	400.23
384.78	447.04
384.97	400.23
385.17	388.53
385.36	454.06
385.56	353.42
385.75	416.62
385.95	390.87
386.14	388.53
386.34	402.57
386.53	414.27
386.72	330.02
386.92	418.96
387.11	376.83
387.31	381.51
387.50	454.06
387.70	304.27
387.89	325.33
388.09	379.17
388.28	425.98
388.48	334.70
388.67	442.36
388.86	397.89
389.06	395.55
389.25	360.44
389.45	423.64
389.64	381.51
389.84	433.00
390.03	477.47
390.22	428.32
390.42	386.19
390.61	397.89
390.81	360.44
391.00	395.55
391.19	360.44
391.39	440.02
391.58	393.21
391.78	362.78
391.97	367.46
392.16	397.89
392.36	442.36
392.55	421.30
392.75	425.98
392.94	383.85
393.13	475.13
393.33	404.91
393.52	388.53
393.71	475.13
393.91	341.72
394.10	447.04
394.29	425.98
394.49	461.09
394.68	414.27
394.88	498.53
395.07	444.70
395.26	376.83
395.46	381.51
395.65	449.38
395.84	327.68
396.04	416.62
396.23	437.68
396.42	397.89
396.62	308.95
396.81	397.89
397.00	409.59
397.19	360.44
397.39	393.21
397.58	414.27
397.77	362.78
397.97	358.10
398.16	421.30
398.35	411.93
398.55	330.02
398.74	351.08
398.93	437.68
399.12	362.78
399.32	418.96
399.51	355.76
399.70	390.87
399.90	397.89
400.09	376.83
400.28	407.25
400.47	442.36
400.67	416.62
400.86	379.17
401.05	423.64
401.24	440.02
401.44	414.27
401.63	477.47
401.82	416.62
402.01	393.21
402.21	369.80
402.40	341.72
402.59	395.55
402.78	423.64
402.97	365.12
403.17	503.22
403.36	461.09
403.55	395.55
403.74	390.87
403.93	395.55
404.13	402.57
404.32	409.59
404.51	414.27
404.70	442.36
404.89	390.87
405.09	463.43
405.28	388.53
405.47	407.25
405.66	416.62
405.85	414.27
406.05	386.19
406.24	386.19
406.43	444.70
406.62	334.70
406.81	388.53
407.00	390.87
407.20	386.19
407.39	418.96
407.58	393.21
407.77	409.59
407.96	351.08
408.15	374.49
408.34	433.00
408.54	395.55
408.73	407.25
408.92	435.34
409.11	503.22
409.30	393.21
409.49	397.89
409.68	365.12
409.87	451.72
410.07	320.65
410.26	390.87
410.45	421.30
410.64	465.77
410.83	388.53
411.02	421.30
411.21	386.19
411.40	372.15
411.59	409.59
411.78	376.83
411.98	402.57
412.17	409.59
412.36	355.76
412.55	435.34
412.74	393.21
412.93	428.32
413.12	360.44
413.31	290.23
413.50	416.62
413.69	388.53
413.88	390.87
414.07	435.34
414.26	451.72
414.45	414.27
414.64	388.53
414.83	477.47
415.02	376.83
415.22	400.23
415.41	428.32
415.60	376.83
415.79	444.70
415.98	390.87
416.17	447.04
416.36	461.09
416.55	418.96
416.74	435.34
416.93	337.04
417.12	414.27
417.31	402.57
417.50	423.64
417.69	411.93
417.88	423.64
418.07	351.08
418.26	444.70
418.45	444.70
418.64	442.36
418.83	372.15
419.02	486.83
419.21	409.59
419.39	472.79
419.58	421.30
419.77	397.89
419.96	379.17
420.15	381.51
420.34	430.66
420.53	470.45
420.72	416.62
420.91	344.06
421.10	407.25
421.29	437.68
421.48	465.77
421.67	388.53
421.86	390.87
422.05	346.40
422.24	353.42
422.43	447.04
422.61	411.93
422.80	376.83
422.99	393.21
423.18	393.21
423.37	418.96
423.56	351.08
423.75	430.66
423.94	393.21
424.13	409.59
424.32	404.91
424.50	411.93
424.69	411.93
424.88	386.19
425.07	360.44
425.26	416.62
425.45	423.64
425.64	397.89
425.83	388.53
426.01	433.00
426.20	428.32
426.39	463.43
426.58	376.83
426.77	468.11
426.96	386.19
427.15	395.55
427.33	447.04
427.52	353.42
427.71	472.79
427.90	409.59
428.09	390.87
428.28	428.32
428.46	386.19
428.65	449.38
428.84	376.83
429.03	451.72
429.22	404.91
429.40	360.44
429.59	407.25
429.78	397.89
429.97	372.15
430.16	428.32
430.34	383.85
430.53	414.27
430.72	386.19
430.91	383.85
431.10	425.98
431.28	433.00
431.47	435.34
431.66	428.32
431.85	421.30
432.03	423.64
432.22	402.57
432.41	355.76
432.60	409.59
432.79	351.08
432.97	362.78
433.16	351.08
433.35	360.44
433.54	416.62
433.72	381.51
433.91	458.74
434.10	383.85
434.28	449.38
434.47	421.30
434.66	512.58
434.85	463.43
435.03	402.57
435.22	404.91
435.41	423.64
435.59	418.96
435.78	402.57
435.97	414.27
436.16	463.43
436.34	400.23
436.53	430.66
436.72	437.68
436.90	393.21
437.09	379.17
437.28	397.89
437.46	372.15
437.65	449.38
437.84	454.06
438.02	475.13
438.21	447.04
438.40	393.21
438.58	358.10
438.77	348.74
438.96	409.59
439.14	393.21
439.33	407.25
439.52	414.27
439.70	381.51
439.89	472.79
440.08	409.59
440.26	383.85
440.45	386.19
440.63	447.04
440.82	409.59
441.01	472.79
441.19	383.85
441.38	444.70
441.57	393.21
441.75	484.49
441.94	421.30
442.12	451.72
442.31	461.09
442.50	416.62
442.68	484.49
442.87	440.02
443.05	379.17
443.24	449.38
443.43	454.06
443.61	425.98
443.80	381.51
443.98	383.85
444.17	418.96
444.35	404.91
444.54	414.27
444.73	456.40
444.91	482.15
445.10	442.36
445.28	381.51
445.47	425.98
445.65	407.25
445.84	348.74
446.02	414.27
446.21	402.57
446.39	393.21
446.58	411.93
446.77	463.43
446.95	430.66
447.14	449.38
447.32	489.17
447.51	353.42
447.69	346.40
447.88	451.72
448.06	414.27
448.25	395.55
448.43	346.40
448.62	437.68
448.80	430.66
448.99	418.96
449.17	402.57
449.36	383.85
449.54	454.06
449.73	381.51
449.91	418.96
450.10	423.64
450.28	411.93
450.46	423.64
450.65	386.19
450.83	353.42
451.02	428.32
451.20	383.85
451.39	449.38
451.57	421.30
451.76	418.96
451.94	416.62
452.13	451.72
452.31	430.66
452.49	407.25
452.68	407.25
452.86	440.02
453.05	416.62
453.23	440.02
453.42	318.31
453.60	383.85
453.78	407.25
453.97	428.32
454.15	437.68
454.34	407.25
454.52	367.46
454.70	489.17
454.89	409.59
455.07	435.34
455.26	468.11
455.44	402.57
455.62	430.66
455.81	435.34
455.99	475.13
456.17	388.53
456.36	423.64
456.54	365.12
456.73	315.97
456.91	472.79
457.09	402.57
457.28	393.21
457.46	402.57
457.64	411.93
457.83	400.23
458.01	360.44
458.19	442.36
458.38	491.51
458.56	411.93
458.74	383.85
458.93	421.30
459.11	409.59
459.29	372.15
459.48	411.93
459.66	491.51
459.84	402.57
460.03	489.17
460.21	430.66
460.39	456.40
460.57	435.34
460.76	397.89
460.94	433.00
461.12	486.83
461.31	433.00
461.49	383.85
461.67	332.36
461.85	416.62
462.04	423.64
462.22	765.36
462.40	463.43
462.59	376.83
462.77	383.85
462.95	322.99
463.13	355.76
463.32	435.34
463.50	435.34
463.68	414.27
463.86	395.55
464.05	379.17
464.23	423.64
464.41	486.83
464.59	411.93
464.78	442.36
464.96	402.57
465.14	360.44
465.32	388.53
465.50	414.27
465.69	454.06
465.87	381.51
466.05	463.43
466.23	358.10
466.41	404.91
466.60	451.72
466.78	402.57
466.96	379.17
467.14	425.98
467.32	461.09
467.51	421.30
467.69	475.13
467.87	468.11
468.05	437.68
468.23	449.38
468.41	397.89
468.60	362.78
468.78	421.30
468.96	451.72
469.14	505.56
469.32	383.85
469.50	271.50
469.69	414.27
469.87	423.64
470.05	402.57
470.23	418.96
470.41	489.17
470.59	379.17
470.77	444.70
470.95	430.66
471.14	486.83
471.32	454.06
471.50	484.49
471.68	365.12
471.86	425.98
472.04	435.34
472.22	418.96
472.40	383.85
472.58	397.89
472.77	365.12
472.95	425.98
473.13	465.77
473.31	341.72
473.49	393.21
473.67	477.47
473.85	365.12
474.03	358.10
474.21	353.42
474.39	425.98
474.57	505.56
474.75	393.21
474.93	395.55
475.12	468.11
475.30	315.97
475.48	386.19
475.66	458.74
475.84	383.85
476.02	491.51
476.20	454.06
476.38	365.12
476.56	456.40
476.74	376.83
476.92	393.21
477.10	404.91
477.28	479.81
477.46	407.25
477.64	362.78
477.82	454.06
478.00	437.68
478.18	367.46
478.36	360.44
478.54	428.32
478.72	440.02
478.90	416.62
479.08	425.98
479.26	362.78
479.44	404.91
479.62	425.98
479.80	433.00
479.98	381.51
480.16	374.49
480.34	489.17
480.52	435.34
480.70	421.30
480.88	421.30
481.06	374.49
481.24	421.30
481.41	397.89
481.59	416.62
481.77	418.96
481.95	395.55
482.13	407.25
482.31	339.38
482.49	407.25
482.67	416.62
482.85	444.70
483.03	433.00
483.21	418.96
483.39	482.15
483.57	423.64
483.74	409.59
483.92	444.70
484.10	451.72
484.28	449.38
484.46	421.30
484.64	433.00
484.82	470.45
485.00	381.51
485.18	447.04
485.35	461.09
485.53	383.85
485.71	461.09
485.89	339.38
486.07	386.19
486.25	351.08
486.43	379.17
486.61	379.17
486.78	433.00
486.96	418.96
487.14	397.89
487.32	435.34
487.50	379.17
487.68	388.53
487.85	435.34
488.03	388.53
488.21	390.87
488.39	402.57
488.57	442.36
488.75	456.40
488.92	447.04
489.10	409.59
489.28	449.38
489.46	409.59
489.64	376.83
489.81	421.30
489.99	411.93
490.17	400.23
490.35	423.64
490.53	395.55
490.70	444.70
490.88	390.87
491.06	421.30
491.24	395.55
491.41	465.77
491.59	379.17
491.77	425.98
491.95	416.62
492.13	458.74
492.30	379.17
492.48	461.09
492.66	447.04
492.84	376.83
493.01	397.89
493.19	428.32
493.37	397.89
493.54	425.98
493.72	418.96
493.90	397.89
494.08	330.02
494.25	409.59
494.43	482.15
494.61	360.44
494.79	418.96
494.96	409.59
495.14	381.51
495.32	435.34
495.49	418.96
495.67	423.64
495.85	365.12
496.02	374.49
496.20	433.00
496.38	397.89
496.55	442.36
496.73	449.38
496.91	414.27
497.09	409.59
497.26	374.49
497.44	447.04
497.62	484.49
497.79	416.62
497.97	421.30
498.14	407.25
498.32	442.36
498.50	468.11
498.67	409.59
498.85	440.02
499.03	383.85
499.20	390.87
499.38	379.17
499.56	430.66
499.73	489.17
499.91	458.74
500.08	470.45
500.26	458.74
500.44	395.55
500.61	318.31
500.79	421.30
500.97	421.30
501.14	456.40
501.32	390.87
501.49	433.00
501.67	442.36
501.84	472.79
502.02	388.53
502.20	339.38
502.37	454.06
502.55	332.36
502.72	322.99
502.90	374.49
503.07	388.53
503.25	435.34
503.43	376.83
503.60	376.83
503.78	458.74
503.95	383.85
504.13	440.02
504.30	421.30
504.48	451.72
504.65	418.96
504.83	449.38
505.01	346.40
505.18	423.64
505.36	362.78
505.53	449.38
505.71	428.32
505.88	388.53
506.06	362.78
506.23	421.30
506.41	491.51
506.58	437.68
506.76	381.51
506.93	388.53
507.11	386.19
507.28	383.85
507.46	430.66
507.63	407.25
507.81	437.68
507.98	395.55
508.16	367.46
508.33	465.77
508.50	423.64
508.68	414.27
508.85	470.45
509.03	337.04
509.20	416.62
509.38	449.38
509.55	414.27
509.73	468.11
509.90	477.47
510.08	423.64
510.25	381.51
510.42	388.53
510.60	379.17
510.77	362.78
510.95	433.00
511.12	402.57
511.30	423.64
511.47	404.91
511.64	468.11
511.82	472.79
511.99	447.04
512.17	365.12
512.34	374.49
512.51	435.34
512.69	435.34
512.86	414.27
513.04	346.40
513.21	440.02
513.38	444.70
513.56	416.62
513.73	369.80
513.90	402.57
514.08	351.08
514.25	423.64
514.43	437.68
514.60	407.25
514.77	372.15
514.95	381.51
515.12	433.00
515.29	334.70
515.47	461.09
515.64	386.19
515.81	409.59
515.99	444.70
516.16	484.49
516.33	435.34
516.51	308.95
516.68	418.96
516.85	386.19
517.03	428.32
517.20	472.79
517.37	402.57
517.54	475.13
517.72	362.78
517.89	400.23
518.06	425.98
518.24	433.00
518.41	454.06
518.58	451.72
518.75	397.89
518.93	425.98
519.10	510.24
519.27	449.38
519.45	425.98
519.62	435.34
519.79	425.98
519.96	404.91
520.14	407.25
520.31	454.06
520.48	411.93
520.65	423.64
520.83	456.40
521.00	400.23
521.17	449.38
521.34	425.98
521.52	449.38
521.69	374.49
521.86	440.02
522.03	437.68
522.20	486.83
522.38	435.34
522.55	414.27
522.72	386.19
522.89	423.64
523.07	482.15
523.24	477.47
523.41	367.46
523.58	418.96
523.75	381.51
523.92	393.21
524.10	404.91
524.27	444.70
524.44	423.64
524.61	484.49
524.78	428.32
524.96	479.81
525.13	400.23
525.30	414.27
525.47	496.19
525.64	409.59
525.81	463.43
525.98	463.43
526.16	435.34
526.33	372.15
526.50	402.57
526.67	416.62
526.84	404.91
527.01	447.04
527.18	447.04
527.36	395.55
527.53	414.27
527.70	416.62
527.87	395.55
528.04	442.36
528.21	451.72
528.38	447.04
528.55	454.06
528.72	479.81
528.89	493.85
529.07	470.45
529.24	433.00
529.41	463.43
529.58	470.45
529.75	390.87
529.92	435.34
530.09	404.91
530.26	379.17
530.43	430.66
530.60	411.93
530.77	503.22
530.94	454.06
531.11	390.87
531.28	386.19
531.46	334.70
531.63	339.38
531.80	423.64
531.97	404.91
532.14	376.83
532.31	433.00
532.48	393.21
532.65	423.64
532.82	360.44
532.99	447.04
533.16	484.49
533.33	409.59
533.50	369.80
533.67	407.25
533.84	365.12
534.01	489.17
534.18	421.30
534.35	428.32
534.52	414.27
534.69	400.23
534.86	421.30
535.03	444.70
535.20	433.00
535.37	400.23
535.54	414.27
535.71	383.85
535.88	461.09
536.05	379.17
536.22	402.57
536.38	404.91
536.55	456.40
536.72	425.98
536.89	475.13
537.06	425.98
537.23	402.57
537.40	404.91
537.57	423.64
537.74	479.81
537.91	416.62
538.08	444.70
538.25	402.57
538.42	437.68
538.59	440.02
538.75	442.36
538.92	440.02
539.09	493.85
539.26	470.45
539.43	440.02
539.60	463.43
539.77	397.89
539.94	421.30
540.11	407.25
540.28	367.46
540.44	348.74
540.61	458.74
540.78	465.77
540.95	421.30
541.12	402.57
541.29	402.57
541.46	395.55
541.62	463.43
541.79	381.51
541.96	355.76
542.13	496.19
542.30	458.74
542.47	430.66
542.63	407.25
542.80	477.47
542.97	393.21
543.14	479.81
543.31	482.15
543.48	386.19
543.64	425.98
543.81	430.66
543.98	400.23
544.15	444.70
544.32	440.02
544.48	425.98
544.65	423.64
544.82	414.27
544.99	369.80
545.16	461.09
545.32	397.89
545.49	414.27
545.66	418.96
545.83	409.59
546.00	402.57
546.16	360.44
546.33	402.57
546.50	418.96
546.67	421.30
546.83	348.74
547.00	390.87
547.17	407.25
547.34	418.96
547.50	430.66
547.67	440.02
547.84	486.83
548.00	449.38
548.17	454.06
548.34	444.70
548.51	388.53
548.67	414.27
548.84	341.72
549.01	379.17
549.18	346.40
549.34	437.68
549.51	425.98
549.68	491.51
549.84	498.53
550.01	414.27
550.18	447.04
550.34	514.92
550.51	393.21
550.68	437.68
550.84	407.25
551.01	402.57
551.18	393.21
551.34	428.32
551.51	390.87
551.68	409.59
551.84	374.49
552.01	404.91
552.18	379.17
552.34	430.66
552.51	393.21
552.68	430.66
552.84	433.00
553.01	440.02
553.18	428.32
553.34	428.32
553.51	390.87
553.67	440.02
553.84	400.23
554.01	416.62
554.17	437.68
554.34	381.51
554.51	379.17
554.67	435.34
554.84	454.06
555.00	407.25
555.17	411.93
555.33	423.64
555.50	447.04
555.67	503.22
555.83	411.93
556.00	414.27
556.16	505.56
556.33	416.62
556.50	376.83
556.66	451.72
556.83	421.30
556.99	468.11
557.16	435.34
557.32	369.80
557.49	491.51
557.65	468.11
557.82	390.87
557.98	449.38
558.15	390.87
558.32	484.49
558.48	449.38
558.65	451.72
558.81	402.57
558.98	444.70
559.14	430.66
559.31	416.62
559.47	472.79
559.64	414.27
559.80	397.89
559.97	465.77
560.13	447.04
560.30	346.40
560.46	418.96
560.63	437.68
560.79	421.30
560.96	461.09
561.12	362.78
561.29	472.79
561.45	451.72
561.61	430.66
561.78	540.66
561.94	407.25
562.11	402.57
562.27	416.62
562.44	397.89
562.60	475.13
562.77	491.51
562.93	440.02
563.10	397.89
563.26	479.81
563.42	505.56
563.59	475.13
563.75	454.06
563.92	489.17
564.08	395.55
564.24	409.59
564.41	486.83
564.57	376.83
564.74	423.64
564.90	358.10
565.07	367.46
565.23	418.96
565.39	372.15
565.56	514.92
565.72	433.00
565.88	358.10
566.05	407.25
566.21	374.49
566.38	454.06
566.54	416.62
566.70	444.70
566.87	411.93
567.03	421.30
567.19	425.98
567.36	428.32
567.52	440.02
567.68	367.46
567.85	437.68
568.01	421.30
568.17	444.70
568.34	388.53
568.50	442.36
568.66	374.49
568.83	463.43
568.99	397.89
569.15	463.43
569.32	421.30
569.48	374.49
569.64	449.38
569.81	493.85
569.97	374.49
570.13	458.74
570.30	379.17
570.46	351.08
570.62	409.59
570.78	458.74
570.95	454.06
571.11	465.77
571.27	461.09
571.43	381.51
571.60	409.59
571.76	369.80
571.92	463.43
572.09	416.62
572.25	437.68
572.41	440.02
572.57	444.70
572.74	512.58
572.90	472.79
573.06	451.72
573.22	440.02
573.38	498.53
573.55	325.33
573.71	423.64
573.87	416.62
574.03	425.98
574.20	435.34
574.36	425.98
574.52	393.21
574.68	416.62
574.84	440.02
575.01	372.15
575.17	447.04
575.33	397.89
575.49	400.23
575.65	369.80
575.82	433.00
575.98	423.64
576.14	456.40
576.30	383.85
576.46	458.74
576.62	386.19
576.79	425.98
576.95	449.38
577.11	381.51
577.27	468.11
577.43	472.79
577.59	468.11
577.75	400.23
577.92	416.62
578.08	381.51
578.24	416.62
578.40	437.68
578.56	477.47
578.72	423.64
578.88	365.12
579.04	491.51
579.21	402.57
579.37	449.38
579.53	454.06
579.69	332.36
579.85	339.38
580.01	444.70
580.17	411.93
580.33	416.62
580.49	458.74
580.65	414.27
580.82	430.66
580.98	491.51
581.14	411.93
581.30	421.30
581.46	423.64
581.62	428.32
581.78	397.89
581.94	482.15
582.10	379.17
582.26	425.98
582.42	430.66
582.58	444.70
582.74	400.23
582.90	308.95
583.06	444.70
583.22	318.31
583.38	402.57
583.54	386.19
583.70	332.36
583.86	381.51
584.02	362.78
584.18	381.51
584.34	416.62
584.50	365.12
584.66	421.30
584.82	348.74
584.98	362.78
585.14	423.64
585.30	388.53
585.46	414.27
585.62	393.21
585.78	395.55
585.94	372.15
586.10	414.27
586.26	362.78
586.42	456.40
586.58	423.64
586.74	383.85
586.90	435.34
587.06	409.59
587.22	449.38
587.38	388.53
587.54	456.40
587.70	479.81
587.86	470.45
588.02	428.32
588.18	458.74
588.34	381.51
588.49	388.53
588.65	444.70
588.81	423.64
588.97	395.55
589.13	440.02
589.29	440.02
589.45	437.68
589.61	404.91
589.77	409.59
589.93	435.34
590.08	407.25
590.24	362.78
590.40	367.46
590.56	435.34
590.72	355.76
590.88	411.93
591.04	358.10
591.20	390.87
591.35	463.43
591.51	425.98
591.67	369.80
591.83	390.87
591.99	472.79
592.15	430.66
592.31	388.53
592.46	353.42
592.62	470.45
592.78	414.27
592.94	397.89
593.10	404.91
593.26	435.34
593.41	442.36
593.57	407.25
593.73	440.02
593.89	465.77
594.05	437.68
594.20	461.09
594.36	362.78
594.52	404.91
594.68	433.00
594.84	456.40
594.99	409.59
595.15	505.56
595.31	477.47
595.47	416.62
595.62	404.91
595.78	397.89
595.94	372.15
596.10	402.57
596.25	344.06
596.41	447.04
596.57	348.74
596.73	381.51
596.88	400.23
597.04	440.02
597.20	437.68
597.36	402.57
597.51	388.53
597.67	404.91
597.83	407.25
597.99	470.45
598.14	372.15
598.30	407.25
598.46	404.91
598.61	449.38
598.77	334.70
598.93	418.96
599.09	444.70
599.24	409.59
599.40	411.93
599.56	435.34
599.71	379.17
599.87	435.34
600.03	386.19
600.18	306.61
600.34	411.93
600.50	365.12
600.65	381.51
600.81	416.62
600.97	449.38
601.12	416.62
601.28	503.22
601.44	435.34
601.59	383.85
601.75	409.59
601.91	423.64
602.06	411.93
602.22	461.09
602.37	465.77
602.53	447.04
602.69	418.96
602.84	496.19
603.00	456.40
603.16	390.87
603.31	393.21
603.47	430.66
603.62	463.43
603.78	456.40
603.94	418.96
604.09	428.32
604.25	418.96
604.40	353.42
604.56	465.77
604.71	463.43
604.87	437.68
605.03	341.72
605.18	423.64
605.34	500.87
605.49	395.55
605.65	435.34
605.80	332.36
605.96	416.62
606.12	388.53
606.27	393.21
606.43	433.00
606.58	456.40
606.74	407.25
606.89	393.21
607.05	414.27
607.20	381.51
607.36	444.70
607.51	409.59
607.67	332.36
607.82	440.02
607.98	400.23
608.13	421.30
608.29	346.40
608.44	482.15
608.60	416.62
608.75	461.09
608.91	442.36
609.06	393.21
609.22	337.04
609.37	414.27
609.53	433.00
609.68	470.45
609.84	407.25
609.99	458.74
610.15	468.11
