SpectraSuite Data File
++++++++++++++++++++++++++++++++++++
Date: Fri Oct 25 12:10:17 EDT 2013
User: price-jones
Dark Spectrum Present: No
Reference Spectrum Present: No
Number of Sampled Component Spectra: 1
Spectrometers: USB2+H05261
Integration Time (usec): 100000 (USB2+H05261)
Spectra Averaged: 1 (USB2+H05261)
Boxcar Smoothing: 0 (USB2+H05261)
Correct for Electrical Dark: No (USB2+H05261)
Strobe/Lamp Enabled: No (USB2+H05261)
Correct for Detector Non-linearity: No (USB2+H05261)
Correct for Stray Light: No (USB2+H05261)
Number of Pixels in Processed Spectrum: 2048
>>>>>Begin Processed Spectral Data<<<<<
365.73	346.40
365.92	346.40
366.12	346.40
366.32	262.14
366.52	154.48
366.72	203.63
366.91	243.42
367.11	259.80
367.31	215.33
367.51	262.14
367.70	243.42
367.90	184.90
368.10	301.93
368.30	271.50
368.49	241.08
368.69	271.50
368.89	215.33
369.09	308.95
369.28	313.63
369.48	276.18
369.68	262.14
369.87	273.84
370.07	334.70
370.27	358.10
370.47	386.19
370.66	372.15
370.86	358.10
371.06	376.83
371.25	393.21
371.45	449.38
371.65	393.21
371.84	325.33
372.04	374.49
372.24	421.30
372.44	400.23
372.63	386.19
372.83	418.96
373.03	348.74
373.22	423.64
373.42	449.38
373.62	379.17
373.81	397.89
374.01	404.91
374.21	376.83
374.40	362.78
374.60	414.27
374.79	418.96
374.99	477.47
375.19	423.64
375.38	353.42
375.58	383.85
375.78	456.40
375.97	437.68
376.17	451.72
376.37	400.23
376.56	416.62
376.76	454.06
376.95	442.36
377.15	381.51
377.35	393.21
377.54	379.17
377.74	414.27
377.93	353.42
378.13	386.19
378.33	477.47
378.52	449.38
378.72	430.66
378.91	444.70
379.11	423.64
379.31	447.04
379.50	402.57
379.70	475.13
379.89	327.68
380.09	411.93
380.28	416.62
380.48	454.06
380.68	421.30
380.87	442.36
381.07	444.70
381.26	463.43
381.46	386.19
381.65	393.21
381.85	435.34
382.04	390.87
382.24	374.49
382.43	421.30
382.63	360.44
382.83	388.53
383.02	386.19
383.22	411.93
383.41	344.06
383.61	411.93
383.80	386.19
384.00	444.70
384.19	465.77
384.39	308.95
384.58	346.40
384.78	362.78
384.97	428.32
385.17	379.17
385.36	411.93
385.56	383.85
385.75	395.55
385.95	437.68
386.14	475.13
386.34	444.70
386.53	407.25
386.72	341.72
386.92	465.77
387.11	468.11
387.31	454.06
387.50	379.17
387.70	365.12
387.89	465.77
388.09	402.57
388.28	397.89
388.48	369.80
388.67	451.72
388.86	411.93
389.06	442.36
389.25	397.89
389.45	416.62
389.64	372.15
389.84	425.98
390.03	407.25
390.22	407.25
390.42	393.21
390.61	348.74
390.81	437.68
391.00	400.23
391.19	423.64
391.39	444.70
391.58	433.00
391.78	407.25
391.97	400.23
392.16	407.25
392.36	468.11
392.55	386.19
392.75	346.40
392.94	334.70
393.13	493.85
393.33	404.91
393.52	358.10
393.71	425.98
393.91	411.93
394.10	402.57
394.29	374.49
394.49	358.10
394.68	395.55
394.88	383.85
395.07	376.83
395.26	374.49
395.46	430.66
395.65	400.23
395.84	407.25
396.04	496.19
396.23	362.78
396.42	381.51
396.62	423.64
396.81	430.66
397.00	367.46
397.19	442.36
397.39	388.53
397.58	477.47
397.77	407.25
397.97	437.68
398.16	360.44
398.35	313.63
398.55	414.27
398.74	407.25
398.93	430.66
399.12	381.51
399.32	440.02
399.51	393.21
399.70	390.87
399.90	397.89
400.09	353.42
400.28	425.98
400.47	360.44
400.67	428.32
400.86	433.00
401.05	440.02
401.24	456.40
401.44	402.57
401.63	390.87
401.82	365.12
402.01	425.98
402.21	374.49
402.40	414.27
402.59	421.30
402.78	428.32
402.97	337.04
403.17	355.76
403.36	437.68
403.55	397.89
403.74	425.98
403.93	428.32
404.13	355.76
404.32	346.40
404.51	327.68
404.70	414.27
404.89	400.23
405.09	395.55
405.28	407.25
405.47	379.17
405.66	390.87
405.85	425.98
406.05	369.80
406.24	367.46
406.43	407.25
406.62	409.59
406.81	458.74
407.00	461.09
407.20	381.51
407.39	360.44
407.58	348.74
407.77	416.62
407.96	435.34
408.15	416.62
408.34	475.13
408.54	369.80
408.73	465.77
408.92	470.45
409.11	421.30
409.30	440.02
409.49	369.80
409.68	414.27
409.87	390.87
410.07	383.85
410.26	414.27
410.45	435.34
410.64	425.98
410.83	397.89
411.02	451.72
411.21	411.93
411.40	470.45
411.59	458.74
411.78	409.59
411.98	409.59
412.17	379.17
412.36	414.27
412.55	442.36
412.74	388.53
412.93	447.04
413.12	393.21
413.31	421.30
413.50	465.77
413.69	421.30
413.88	454.06
414.07	400.23
414.26	437.68
414.45	402.57
414.64	348.74
414.83	353.42
415.02	437.68
415.22	468.11
415.41	444.70
415.60	440.02
415.79	442.36
415.98	381.51
416.17	386.19
416.36	383.85
416.55	337.04
416.74	447.04
416.93	461.09
417.12	369.80
417.31	414.27
417.50	428.32
417.69	482.15
417.88	414.27
418.07	404.91
418.26	397.89
418.45	379.17
418.64	430.66
418.83	428.32
419.02	386.19
419.21	386.19
419.39	418.96
419.58	369.80
419.77	428.32
419.96	447.04
420.15	440.02
420.34	339.38
420.53	414.27
420.72	346.40
420.91	346.40
421.10	402.57
421.29	372.15
421.48	379.17
421.67	381.51
421.86	367.46
422.05	423.64
422.24	512.58
422.43	510.24
422.61	374.49
422.80	425.98
422.99	414.27
423.18	451.72
423.37	358.10
423.56	386.19
423.75	435.34
423.94	327.68
424.13	430.66
424.32	332.36
424.50	386.19
424.69	437.68
424.88	472.79
425.07	409.59
425.26	411.93
425.45	409.59
425.64	390.87
425.83	407.25
426.01	465.77
426.20	449.38
426.39	390.87
426.58	414.27
426.77	484.49
426.96	447.04
427.15	365.12
427.33	388.53
427.52	355.76
427.71	411.93
427.90	390.87
428.09	442.36
428.28	372.15
428.46	390.87
428.65	386.19
428.84	428.32
429.03	489.17
429.22	402.57
429.40	397.89
429.59	365.12
429.78	461.09
429.97	395.55
430.16	360.44
430.34	397.89
430.53	463.43
430.72	416.62
430.91	379.17
431.10	428.32
431.28	409.59
431.47	409.59
431.66	475.13
431.85	421.30
432.03	409.59
432.22	489.17
432.41	458.74
432.60	414.27
432.79	367.46
432.97	376.83
433.16	414.27
433.35	365.12
433.54	383.85
433.72	444.70
433.91	451.72
434.10	355.76
434.28	395.55
434.47	411.93
434.66	404.91
434.85	454.06
435.03	428.32
435.22	381.51
435.41	454.06
435.59	496.19
435.78	407.25
435.97	418.96
436.16	416.62
436.34	423.64
436.53	390.87
436.72	440.02
436.90	402.57
437.09	411.93
437.28	379.17
437.46	440.02
437.65	418.96
437.84	414.27
438.02	395.55
438.21	418.96
438.40	397.89
438.58	393.21
438.77	388.53
438.96	468.11
439.14	381.51
439.33	372.15
439.52	489.17
439.70	444.70
439.89	463.43
440.08	409.59
440.26	484.49
440.45	400.23
440.63	433.00
440.82	418.96
441.01	444.70
441.19	451.72
441.38	379.17
441.57	386.19
441.75	430.66
441.94	379.17
442.12	402.57
442.31	433.00
442.50	390.87
442.68	461.09
442.87	447.04
443.05	425.98
443.24	444.70
443.43	390.87
443.61	451.72
443.80	435.34
443.98	411.93
444.17	330.02
444.35	477.47
444.54	397.89
444.73	470.45
444.91	449.38
445.10	395.55
445.28	416.62
445.47	423.64
445.65	435.34
445.84	334.70
446.02	425.98
446.21	297.25
446.39	346.40
446.58	421.30
446.77	402.57
446.95	435.34
447.14	435.34
447.32	461.09
447.51	362.78
447.69	379.17
447.88	411.93
448.06	449.38
448.25	414.27
448.43	468.11
448.62	449.38
448.80	435.34
448.99	454.06
449.17	360.44
449.36	463.43
449.54	404.91
449.73	414.27
449.91	458.74
450.10	386.19
450.28	440.02
450.46	470.45
450.65	400.23
450.83	388.53
451.02	418.96
451.20	454.06
451.39	442.36
451.57	407.25
451.76	351.08
451.94	409.59
452.13	416.62
452.31	449.38
452.49	386.19
452.68	376.83
452.86	461.09
453.05	442.36
453.23	418.96
453.42	414.27
453.60	402.57
453.78	463.43
453.97	379.17
454.15	322.99
454.34	440.02
454.52	442.36
454.70	416.62
454.89	458.74
455.07	313.63
455.26	367.46
455.44	388.53
455.62	390.87
455.81	376.83
455.99	386.19
456.17	414.27
456.36	433.00
456.54	435.34
456.73	372.15
456.91	360.44
457.09	447.04
457.28	433.00
457.46	503.22
457.64	425.98
457.83	461.09
458.01	416.62
458.19	423.64
458.38	390.87
458.56	449.38
458.74	407.25
458.93	493.85
459.11	407.25
459.29	425.98
459.48	435.34
459.66	507.90
459.84	440.02
460.03	447.04
460.21	477.47
460.39	463.43
460.57	524.28
460.76	388.53
460.94	423.64
461.12	437.68
461.31	493.85
461.49	425.98
461.67	397.89
461.85	447.04
462.04	388.53
462.22	800.46
462.40	348.74
462.59	451.72
462.77	423.64
462.95	416.62
463.13	409.59
463.32	404.91
463.50	411.93
463.68	428.32
463.86	393.21
464.05	383.85
464.23	442.36
464.41	442.36
464.59	435.34
464.78	315.97
464.96	386.19
465.14	374.49
465.32	395.55
465.50	519.60
465.69	435.34
465.87	334.70
466.05	365.12
466.23	475.13
466.41	421.30
466.60	397.89
466.78	397.89
466.96	407.25
467.14	416.62
467.32	423.64
467.51	414.27
467.69	404.91
467.87	418.96
468.05	451.72
468.23	397.89
468.41	451.72
468.60	428.32
468.78	416.62
468.96	503.22
469.14	404.91
469.32	318.31
469.50	421.30
469.69	437.68
469.87	383.85
470.05	421.30
470.23	472.79
470.41	386.19
470.59	414.27
470.77	374.49
470.95	451.72
471.14	449.38
471.32	463.43
471.50	437.68
471.68	395.55
471.86	369.80
472.04	376.83
472.22	393.21
472.40	411.93
472.58	411.93
472.77	348.74
472.95	423.64
473.13	454.06
473.31	493.85
473.49	390.87
473.67	351.08
473.85	416.62
474.03	458.74
474.21	447.04
474.39	472.79
474.57	489.17
474.75	456.40
474.93	374.49
475.12	292.57
475.30	447.04
475.48	414.27
475.66	437.68
475.84	428.32
476.02	390.87
476.20	418.96
476.38	402.57
476.56	435.34
476.74	465.77
476.92	374.49
477.10	421.30
477.28	425.98
477.46	430.66
477.64	407.25
477.82	409.59
478.00	379.17
478.18	482.15
478.36	381.51
478.54	351.08
478.72	388.53
478.90	463.43
479.08	425.98
479.26	409.59
479.44	416.62
479.62	418.96
479.80	388.53
479.98	383.85
480.16	393.21
480.34	435.34
480.52	449.38
480.70	372.15
480.88	428.32
481.06	465.77
481.24	407.25
481.41	393.21
481.59	402.57
481.77	435.34
481.95	423.64
482.13	414.27
482.31	388.53
482.49	425.98
482.67	369.80
482.85	395.55
483.03	475.13
483.21	493.85
483.39	379.17
483.57	444.70
483.74	440.02
483.92	337.04
484.10	372.15
484.28	437.68
484.46	470.45
484.64	414.27
484.82	468.11
485.00	397.89
485.18	383.85
485.35	430.66
485.53	430.66
485.71	411.93
485.89	423.64
486.07	402.57
486.25	451.72
486.43	468.11
486.61	442.36
486.78	409.59
486.96	374.49
487.14	449.38
487.32	362.78
487.50	304.27
487.68	407.25
487.85	334.70
488.03	498.53
488.21	437.68
488.39	395.55
488.57	383.85
488.75	388.53
488.92	334.70
489.10	458.74
489.28	456.40
489.46	362.78
489.64	442.36
489.81	433.00
489.99	428.32
490.17	411.93
490.35	479.81
490.53	479.81
490.70	437.68
490.88	484.49
491.06	418.96
491.24	423.64
491.41	454.06
491.59	393.21
491.77	416.62
491.95	404.91
492.13	404.91
492.30	386.19
492.48	496.19
492.66	411.93
492.84	435.34
493.01	416.62
493.19	381.51
493.37	433.00
493.54	409.59
493.72	421.30
493.90	423.64
494.08	416.62
494.25	376.83
494.43	388.53
494.61	421.30
494.79	418.96
494.96	390.87
495.14	397.89
495.32	351.08
495.49	388.53
495.67	395.55
495.85	395.55
496.02	451.72
496.20	418.96
496.38	386.19
496.55	463.43
496.73	369.80
496.91	372.15
497.09	465.77
497.26	355.76
497.44	496.19
497.62	402.57
497.79	440.02
497.97	465.77
498.14	390.87
498.32	395.55
498.50	411.93
498.67	393.21
498.85	404.91
499.03	416.62
499.20	414.27
499.38	404.91
499.56	404.91
499.73	372.15
499.91	414.27
500.08	468.11
500.26	400.23
500.44	440.02
500.61	409.59
500.79	402.57
500.97	423.64
501.14	463.43
501.32	458.74
501.49	430.66
501.67	386.19
501.84	440.02
502.02	425.98
502.20	437.68
502.37	437.68
502.55	456.40
502.72	416.62
502.90	411.93
503.07	472.79
503.25	383.85
503.43	407.25
503.60	395.55
503.78	470.45
503.95	404.91
504.13	479.81
504.30	440.02
504.48	482.15
504.65	468.11
504.83	430.66
505.01	353.42
505.18	407.25
505.36	428.32
505.53	425.98
505.71	376.83
505.88	428.32
506.06	430.66
506.23	400.23
506.41	444.70
506.58	425.98
506.76	430.66
506.93	447.04
507.11	451.72
507.28	348.74
507.46	498.53
507.63	461.09
507.81	409.59
507.98	454.06
508.16	470.45
508.33	414.27
508.50	428.32
508.68	390.87
508.85	465.77
509.03	358.10
509.20	381.51
509.38	390.87
509.55	402.57
509.73	395.55
509.90	416.62
510.08	367.46
510.25	423.64
510.42	379.17
510.60	383.85
510.77	435.34
510.95	372.15
511.12	372.15
511.30	390.87
511.47	430.66
511.64	418.96
511.82	430.66
511.99	367.46
512.17	411.93
512.34	386.19
512.51	456.40
512.69	421.30
512.86	381.51
513.04	362.78
513.21	353.42
513.38	376.83
513.56	416.62
513.73	393.21
513.90	353.42
514.08	402.57
514.25	409.59
514.43	402.57
514.60	411.93
514.77	402.57
514.95	442.36
515.12	379.17
515.29	358.10
515.47	360.44
515.64	402.57
515.81	472.79
515.99	437.68
516.16	379.17
516.33	414.27
516.51	435.34
516.68	390.87
516.85	365.12
517.03	381.51
517.20	465.77
517.37	390.87
517.54	484.49
517.72	386.19
517.89	416.62
518.06	477.47
518.24	456.40
518.41	414.27
518.58	425.98
518.75	386.19
518.93	369.80
519.10	369.80
519.27	409.59
519.45	400.23
519.62	404.91
519.79	383.85
519.96	407.25
520.14	404.91
520.31	463.43
520.48	449.38
520.65	360.44
520.83	463.43
521.00	482.15
521.17	442.36
521.34	425.98
521.52	447.04
521.69	376.83
521.86	433.00
522.03	423.64
522.20	433.00
522.38	400.23
522.55	454.06
522.72	442.36
522.89	395.55
523.07	414.27
523.24	414.27
523.41	456.40
523.58	407.25
523.75	397.89
523.92	390.87
524.10	442.36
524.27	320.65
524.44	454.06
524.61	437.68
524.78	369.80
524.96	444.70
525.13	475.13
525.30	416.62
525.47	461.09
525.64	360.44
525.81	437.68
525.98	402.57
526.16	430.66
526.33	372.15
526.50	407.25
526.67	468.11
526.84	390.87
527.01	465.77
527.18	330.02
527.36	379.17
527.53	393.21
527.70	416.62
527.87	423.64
528.04	463.43
528.21	430.66
528.38	397.89
528.55	393.21
528.72	491.51
528.89	451.72
529.07	444.70
529.24	428.32
529.41	435.34
529.58	379.17
529.75	423.64
529.92	367.46
530.09	341.72
530.26	454.06
530.43	397.89
530.60	428.32
530.77	468.11
530.94	423.64
531.11	456.40
531.28	337.04
531.46	433.00
531.63	407.25
531.80	503.22
531.97	482.15
532.14	374.49
532.31	479.81
532.48	456.40
532.65	383.85
532.82	411.93
532.99	433.00
533.16	400.23
533.33	383.85
533.50	400.23
533.67	414.27
533.84	428.32
534.01	437.68
534.18	451.72
534.35	400.23
534.52	388.53
534.69	458.74
534.86	423.64
535.03	418.96
535.20	407.25
535.37	393.21
535.54	421.30
535.71	372.15
535.88	463.43
536.05	486.83
536.22	449.38
536.38	414.27
536.55	414.27
536.72	433.00
536.89	393.21
537.06	442.36
537.23	425.98
537.40	386.19
537.57	418.96
537.74	360.44
537.91	397.89
538.08	348.74
538.25	383.85
538.42	470.45
538.59	409.59
538.75	428.32
538.92	362.78
539.09	397.89
539.26	404.91
539.43	407.25
539.60	444.70
539.77	430.66
539.94	409.59
540.11	414.27
540.28	440.02
540.44	463.43
540.61	418.96
540.78	383.85
540.95	416.62
541.12	425.98
541.29	386.19
541.46	440.02
541.62	444.70
541.79	449.38
541.96	461.09
542.13	386.19
542.30	369.80
542.47	407.25
542.63	440.02
542.80	491.51
542.97	470.45
543.14	395.55
543.31	428.32
543.48	418.96
543.64	369.80
543.81	367.46
543.98	393.21
544.15	437.68
544.32	390.87
544.48	400.23
544.65	411.93
544.82	393.21
544.99	365.12
545.16	388.53
545.32	393.21
545.49	369.80
545.66	400.23
545.83	390.87
546.00	447.04
546.16	407.25
546.33	444.70
546.50	425.98
546.67	397.89
546.83	423.64
547.00	524.28
547.17	477.47
547.34	365.12
547.50	411.93
547.67	449.38
547.84	477.47
548.00	379.17
548.17	510.24
548.34	411.93
548.51	435.34
548.67	360.44
548.84	353.42
549.01	465.77
549.18	440.02
549.34	428.32
549.51	461.09
549.68	435.34
549.84	421.30
550.01	360.44
550.18	430.66
550.34	437.68
550.51	465.77
550.68	491.51
550.84	461.09
551.01	400.23
551.18	383.85
551.34	430.66
551.51	397.89
551.68	411.93
551.84	428.32
552.01	447.04
552.18	407.25
552.34	444.70
552.51	358.10
552.68	465.77
552.84	376.83
553.01	376.83
553.18	482.15
553.34	386.19
553.51	409.59
553.67	447.04
553.84	454.06
554.01	468.11
554.17	407.25
554.34	402.57
554.51	447.04
554.67	472.79
554.84	440.02
555.00	390.87
555.17	470.45
555.33	379.17
555.50	383.85
555.67	388.53
555.83	400.23
556.00	411.93
556.16	540.66
556.33	393.21
556.50	435.34
556.66	397.89
556.83	404.91
556.99	404.91
557.16	409.59
557.32	388.53
557.49	383.85
557.65	372.15
557.82	451.72
557.98	428.32
558.15	365.12
558.32	421.30
558.48	376.83
558.65	362.78
558.81	416.62
558.98	416.62
559.14	423.64
559.31	383.85
559.47	428.32
559.64	395.55
559.80	423.64
559.97	425.98
560.13	397.89
560.30	444.70
560.46	372.15
560.63	416.62
560.79	374.49
560.96	433.00
561.12	381.51
561.29	416.62
561.45	414.27
561.61	400.23
561.78	486.83
561.94	374.49
562.11	369.80
562.27	418.96
562.44	482.15
562.60	411.93
562.77	374.49
562.93	514.92
563.10	468.11
563.26	334.70
563.42	505.56
563.59	442.36
563.75	390.87
563.92	461.09
564.08	425.98
564.24	421.30
564.41	470.45
564.57	390.87
564.74	423.64
564.90	433.00
565.07	358.10
565.23	468.11
565.39	458.74
565.56	458.74
565.72	407.25
565.88	423.64
566.05	393.21
566.21	428.32
566.38	444.70
566.54	437.68
566.70	458.74
566.87	425.98
567.03	440.02
567.19	444.70
567.36	433.00
567.52	435.34
567.68	428.32
567.85	414.27
568.01	402.57
568.17	409.59
568.34	404.91
568.50	423.64
568.66	402.57
568.83	461.09
568.99	327.68
569.15	442.36
569.32	421.30
569.48	435.34
569.64	388.53
569.81	404.91
569.97	409.59
570.13	379.17
570.30	449.38
570.46	379.17
570.62	374.49
570.78	411.93
570.95	449.38
571.11	458.74
571.27	463.43
571.43	416.62
571.60	397.89
571.76	447.04
571.92	393.21
572.09	414.27
572.25	475.13
572.41	418.96
572.57	388.53
572.74	519.60
572.90	428.32
573.06	369.80
573.22	433.00
573.38	414.27
573.55	456.40
573.71	397.89
573.87	365.12
574.03	414.27
574.20	416.62
574.36	433.00
574.52	447.04
574.68	423.64
574.84	372.15
575.01	379.17
575.17	440.02
575.33	369.80
575.49	386.19
575.65	433.00
575.82	496.19
575.98	425.98
576.14	416.62
576.30	421.30
576.46	409.59
576.62	397.89
576.79	484.49
576.95	421.30
577.11	414.27
577.27	416.62
577.43	376.83
577.59	477.47
577.75	402.57
577.92	344.06
578.08	402.57
578.24	341.72
578.40	428.32
578.56	444.70
578.72	430.66
578.88	479.81
579.04	395.55
579.21	475.13
579.37	376.83
579.53	454.06
579.69	416.62
579.85	407.25
580.01	360.44
580.17	421.30
580.33	393.21
580.49	358.10
580.65	414.27
580.82	454.06
580.98	400.23
581.14	435.34
581.30	423.64
581.46	435.34
581.62	444.70
581.78	458.74
581.94	409.59
582.10	493.85
582.26	381.51
582.42	402.57
582.58	454.06
582.74	479.81
582.90	454.06
583.06	463.43
583.22	411.93
583.38	414.27
583.54	390.87
583.70	407.25
583.86	351.08
584.02	440.02
584.18	503.22
584.34	395.55
584.50	388.53
584.66	381.51
584.82	418.96
584.98	484.49
585.14	388.53
585.30	440.02
585.46	414.27
585.62	440.02
585.78	414.27
585.94	456.40
586.10	430.66
586.26	489.17
586.42	458.74
586.58	372.15
586.74	292.57
586.90	386.19
587.06	383.85
587.22	444.70
587.38	468.11
587.54	437.68
587.70	463.43
587.86	355.76
588.02	416.62
588.18	360.44
588.34	407.25
588.49	365.12
588.65	442.36
588.81	458.74
588.97	402.57
589.13	353.42
589.29	468.11
589.45	418.96
589.61	498.53
589.77	402.57
589.93	388.53
590.08	348.74
590.24	337.04
590.40	423.64
590.56	416.62
590.72	416.62
590.88	367.46
591.04	400.23
591.20	421.30
591.35	449.38
591.51	402.57
591.67	400.23
591.83	369.80
591.99	437.68
592.15	449.38
592.31	395.55
592.46	442.36
592.62	444.70
592.78	407.25
592.94	360.44
593.10	449.38
593.26	376.83
593.41	395.55
593.57	358.10
593.73	393.21
593.89	514.92
594.05	472.79
594.20	393.21
594.36	414.27
594.52	433.00
594.68	353.42
594.84	397.89
594.99	395.55
595.15	402.57
595.31	447.04
595.47	472.79
595.62	440.02
595.78	390.87
595.94	416.62
596.10	376.83
596.25	404.91
596.41	369.80
596.57	444.70
596.73	437.68
596.88	416.62
597.04	444.70
597.20	414.27
597.36	435.34
597.51	416.62
597.67	437.68
597.83	416.62
597.99	465.77
598.14	358.10
598.30	365.12
598.46	409.59
598.61	444.70
598.77	407.25
598.93	355.76
599.09	395.55
599.24	418.96
599.40	383.85
599.56	430.66
599.71	411.93
599.87	388.53
600.03	344.06
600.18	435.34
600.34	369.80
600.50	383.85
600.65	383.85
600.81	381.51
600.97	407.25
601.12	437.68
601.28	444.70
601.44	435.34
601.59	463.43
601.75	376.83
601.91	372.15
602.06	454.06
602.22	498.53
602.37	477.47
602.53	447.04
602.69	430.66
602.84	433.00
603.00	381.51
603.16	414.27
603.31	414.27
603.47	416.62
603.62	369.80
603.78	414.27
603.94	369.80
604.09	409.59
604.25	524.28
604.40	458.74
604.56	390.87
604.71	444.70
604.87	376.83
605.03	425.98
605.18	383.85
605.34	397.89
605.49	496.19
605.65	437.68
605.80	374.49
605.96	442.36
606.12	447.04
606.27	379.17
606.43	470.45
606.58	430.66
606.74	390.87
606.89	404.91
607.05	421.30
607.20	484.49
607.36	442.36
607.51	360.44
607.67	376.83
607.82	404.91
607.98	425.98
608.13	510.24
608.29	440.02
608.44	383.85
608.60	414.27
608.75	397.89
608.91	442.36
609.06	400.23
609.22	477.47
609.37	383.85
609.53	372.15
609.68	395.55
609.84	386.19
609.99	400.23
610.15	332.36
