SpectraSuite Data File
++++++++++++++++++++++++++++++++++++
Date: Fri Oct 25 12:10:56 EDT 2013
User: price-jones
Dark Spectrum Present: No
Reference Spectrum Present: No
Number of Sampled Component Spectra: 1
Spectrometers: USB2+H05261
Integration Time (usec): 100000 (USB2+H05261)
Spectra Averaged: 1 (USB2+H05261)
Boxcar Smoothing: 0 (USB2+H05261)
Correct for Electrical Dark: No (USB2+H05261)
Strobe/Lamp Enabled: No (USB2+H05261)
Correct for Detector Non-linearity: No (USB2+H05261)
Correct for Stray Light: No (USB2+H05261)
Number of Pixels in Processed Spectrum: 2048
>>>>>Begin Processed Spectral Data<<<<<
365.73	358.10
365.92	358.10
366.12	358.10
366.32	241.08
366.52	278.52
366.72	234.05
366.91	229.37
367.11	241.08
367.31	215.33
367.51	215.33
367.70	276.18
367.90	297.25
368.10	227.03
368.30	290.23
368.49	276.18
368.69	217.67
368.89	222.35
369.09	220.01
369.28	283.20
369.48	248.10
369.68	362.78
369.87	308.95
370.07	301.93
370.27	313.63
370.47	390.87
370.66	278.52
370.86	369.80
371.06	369.80
371.25	327.68
371.45	360.44
371.65	344.06
371.84	390.87
372.04	386.19
372.24	348.74
372.44	395.55
372.63	444.70
372.83	482.15
373.03	339.38
373.22	379.17
373.42	404.91
373.62	430.66
373.81	416.62
374.01	503.22
374.21	402.57
374.40	440.02
374.60	407.25
374.79	433.00
374.99	477.47
375.19	404.91
375.38	472.79
375.58	486.83
375.78	456.40
375.97	421.30
376.17	442.36
376.37	440.02
376.56	409.59
376.76	407.25
376.95	463.43
377.15	472.79
377.35	402.57
377.54	418.96
377.74	411.93
377.93	423.64
378.13	440.02
378.33	479.81
378.52	421.30
378.72	463.43
378.91	367.46
379.11	397.89
379.31	330.02
379.50	348.74
379.70	362.78
379.89	423.64
380.09	433.00
380.28	395.55
380.48	362.78
380.68	402.57
380.87	402.57
381.07	381.51
381.26	489.17
381.46	374.49
381.65	411.93
381.85	339.38
382.04	379.17
382.24	425.98
382.43	447.04
382.63	430.66
382.83	395.55
383.02	456.40
383.22	416.62
383.41	330.02
383.61	442.36
383.80	416.62
384.00	386.19
384.19	444.70
384.39	421.30
384.58	397.89
384.78	393.21
384.97	437.68
385.17	376.83
385.36	395.55
385.56	447.04
385.75	402.57
385.95	409.59
386.14	411.93
386.34	444.70
386.53	440.02
386.72	393.21
386.92	414.27
387.11	404.91
387.31	393.21
387.50	358.10
387.70	451.72
387.89	351.08
388.09	379.17
388.28	376.83
388.48	409.59
388.67	451.72
388.86	367.46
389.06	418.96
389.25	414.27
389.45	407.25
389.64	409.59
389.84	407.25
390.03	379.17
390.22	362.78
390.42	430.66
390.61	407.25
390.81	388.53
391.00	388.53
391.19	386.19
391.39	402.57
391.58	435.34
391.78	437.68
391.97	425.98
392.16	360.44
392.36	374.49
392.55	465.77
392.75	411.93
392.94	444.70
393.13	425.98
393.33	367.46
393.52	386.19
393.71	430.66
393.91	353.42
394.10	423.64
394.29	461.09
394.49	395.55
394.68	465.77
394.88	395.55
395.07	355.76
395.26	402.57
395.46	489.17
395.65	404.91
395.84	414.27
396.04	416.62
396.23	374.49
396.42	461.09
396.62	491.51
396.81	437.68
397.00	416.62
397.19	383.85
397.39	404.91
397.58	421.30
397.77	465.77
397.97	393.21
398.16	379.17
398.35	463.43
398.55	402.57
398.74	428.32
398.93	428.32
399.12	428.32
399.32	437.68
399.51	383.85
399.70	493.85
399.90	486.83
400.09	437.68
400.28	388.53
400.47	407.25
400.67	418.96
400.86	421.30
401.05	402.57
401.24	407.25
401.44	365.12
401.63	458.74
401.82	367.46
402.01	437.68
402.21	425.98
402.40	503.22
402.59	367.46
402.78	346.40
402.97	367.46
403.17	409.59
403.36	390.87
403.55	444.70
403.74	437.68
403.93	433.00
404.13	423.64
404.32	388.53
404.51	442.36
404.70	425.98
404.89	433.00
405.09	409.59
405.28	411.93
405.47	482.15
405.66	411.93
405.85	440.02
406.05	456.40
406.24	437.68
406.43	442.36
406.62	390.87
406.81	437.68
407.00	409.59
407.20	430.66
407.39	409.59
407.58	435.34
407.77	374.49
407.96	444.70
408.15	418.96
408.34	362.78
408.54	442.36
408.73	383.85
408.92	440.02
409.11	454.06
409.30	486.83
409.49	376.83
409.68	390.87
409.87	383.85
410.07	418.96
410.26	463.43
410.45	447.04
410.64	397.89
410.83	425.98
411.02	442.36
411.21	341.72
411.40	423.64
411.59	306.61
411.78	339.38
411.98	395.55
412.17	353.42
412.36	421.30
412.55	374.49
412.74	463.43
412.93	372.15
413.12	388.53
413.31	428.32
413.50	376.83
413.69	383.85
413.88	465.77
414.07	304.27
414.26	374.49
414.45	458.74
414.64	442.36
414.83	411.93
415.02	479.81
415.22	425.98
415.41	425.98
415.60	390.87
415.79	421.30
415.98	407.25
416.17	463.43
416.36	388.53
416.55	346.40
416.74	418.96
416.93	311.29
417.12	390.87
417.31	383.85
417.50	360.44
417.69	451.72
417.88	397.89
418.07	409.59
418.26	465.77
418.45	444.70
418.64	442.36
418.83	383.85
419.02	409.59
419.21	390.87
419.39	374.49
419.58	444.70
419.77	430.66
419.96	442.36
420.15	524.28
420.34	475.13
420.53	390.87
420.72	444.70
420.91	435.34
421.10	418.96
421.29	435.34
421.48	442.36
421.67	362.78
421.86	402.57
422.05	440.02
422.24	390.87
422.43	388.53
422.61	409.59
422.80	409.59
422.99	372.15
423.18	475.13
423.37	430.66
423.56	390.87
423.75	369.80
423.94	409.59
424.13	416.62
424.32	374.49
424.50	416.62
424.69	430.66
424.88	461.09
425.07	407.25
425.26	390.87
425.45	440.02
425.64	365.12
425.83	486.83
426.01	411.93
426.20	423.64
426.39	414.27
426.58	411.93
426.77	411.93
426.96	465.77
427.15	428.32
427.33	407.25
427.52	418.96
427.71	409.59
427.90	503.22
428.09	414.27
428.28	308.95
428.46	447.04
428.65	416.62
428.84	416.62
429.03	454.06
429.22	353.42
429.40	435.34
429.59	390.87
429.78	390.87
429.97	468.11
430.16	360.44
430.34	353.42
430.53	341.72
430.72	458.74
430.91	423.64
431.10	374.49
431.28	393.21
431.47	458.74
431.66	407.25
431.85	402.57
432.03	365.12
432.22	444.70
432.41	395.55
432.60	397.89
432.79	423.64
432.97	447.04
433.16	461.09
433.35	423.64
433.54	458.74
433.72	463.43
433.91	472.79
434.10	372.15
434.28	421.30
434.47	472.79
434.66	416.62
434.85	461.09
435.03	433.00
435.22	451.72
435.41	477.47
435.59	479.81
435.78	369.80
435.97	461.09
436.16	395.55
436.34	402.57
436.53	407.25
436.72	440.02
436.90	418.96
437.09	430.66
437.28	433.00
437.46	341.72
437.65	468.11
437.84	390.87
438.02	433.00
438.21	383.85
438.40	461.09
438.58	372.15
438.77	418.96
438.96	393.21
439.14	337.04
439.33	346.40
439.52	407.25
439.70	365.12
439.89	395.55
440.08	409.59
440.26	386.19
440.45	397.89
440.63	355.76
440.82	496.19
441.01	390.87
441.19	402.57
441.38	376.83
441.57	383.85
441.75	435.34
441.94	430.66
442.12	372.15
442.31	386.19
442.50	365.12
442.68	315.97
442.87	486.83
443.05	397.89
443.24	402.57
443.43	444.70
443.61	365.12
443.80	374.49
443.98	416.62
444.17	428.32
444.35	351.08
444.54	435.34
444.73	449.38
444.91	425.98
445.10	383.85
445.28	400.23
445.47	442.36
445.65	334.70
445.84	447.04
446.02	428.32
446.21	402.57
446.39	444.70
446.58	358.10
446.77	451.72
446.95	341.72
447.14	376.83
447.32	386.19
447.51	355.76
447.69	383.85
447.88	386.19
448.06	397.89
448.25	383.85
448.43	440.02
448.62	379.17
448.80	444.70
448.99	425.98
449.17	449.38
449.36	407.25
449.54	337.04
449.73	404.91
449.91	418.96
450.10	465.77
450.28	423.64
450.46	465.77
450.65	395.55
450.83	348.74
451.02	402.57
451.20	390.87
451.39	379.17
451.57	360.44
451.76	353.42
451.94	447.04
452.13	386.19
452.31	442.36
452.49	433.00
452.68	395.55
452.86	465.77
453.05	458.74
453.23	416.62
453.42	440.02
453.60	437.68
453.78	369.80
453.97	390.87
454.15	416.62
454.34	402.57
454.52	409.59
454.70	379.17
454.89	437.68
455.07	421.30
455.26	454.06
455.44	365.12
455.62	447.04
455.81	533.64
455.99	451.72
456.17	393.21
456.36	451.72
456.54	360.44
456.73	421.30
456.91	393.21
457.09	437.68
457.28	477.47
457.46	435.34
457.64	444.70
457.83	379.17
458.01	395.55
458.19	409.59
458.38	437.68
458.56	423.64
458.74	456.40
458.93	440.02
459.11	409.59
459.29	411.93
459.48	421.30
459.66	484.49
459.84	447.04
460.03	449.38
460.21	428.32
460.39	381.51
460.57	393.21
460.76	454.06
460.94	458.74
461.12	341.72
461.31	433.00
461.49	372.15
461.67	381.51
461.85	346.40
462.04	407.25
462.22	807.48
462.40	447.04
462.59	416.62
462.77	435.34
462.95	388.53
463.13	418.96
463.32	470.45
463.50	458.74
463.68	414.27
463.86	407.25
464.05	400.23
464.23	463.43
464.41	397.89
464.59	449.38
464.78	353.42
464.96	372.15
465.14	365.12
465.32	425.98
465.50	428.32
465.69	425.98
465.87	376.83
466.05	388.53
466.23	425.98
466.41	409.59
466.60	372.15
466.78	414.27
466.96	407.25
467.14	444.70
467.32	428.32
467.51	458.74
467.69	428.32
467.87	507.90
468.05	430.66
468.23	425.98
468.41	404.91
468.60	454.06
468.78	409.59
468.96	383.85
469.14	470.45
469.32	381.51
469.50	353.42
469.69	486.83
469.87	418.96
470.05	479.81
470.23	388.53
470.41	395.55
470.59	337.04
470.77	395.55
470.95	383.85
471.14	425.98
471.32	475.13
471.50	496.19
471.68	383.85
471.86	404.91
472.04	409.59
472.22	393.21
472.40	411.93
472.58	379.17
472.77	454.06
472.95	421.30
473.13	444.70
473.31	425.98
473.49	376.83
473.67	430.66
473.85	383.85
474.03	411.93
474.21	402.57
474.39	409.59
474.57	470.45
474.75	447.04
474.93	383.85
475.12	430.66
475.30	423.64
475.48	425.98
475.66	435.34
475.84	440.02
476.02	423.64
476.20	430.66
476.38	379.17
476.56	517.26
476.74	404.91
476.92	390.87
477.10	428.32
477.28	372.15
477.46	376.83
477.64	383.85
477.82	447.04
478.00	400.23
478.18	475.13
478.36	383.85
478.54	428.32
478.72	404.91
478.90	395.55
479.08	372.15
479.26	444.70
479.44	433.00
479.62	360.44
479.80	479.81
479.98	390.87
480.16	334.70
480.34	358.10
480.52	409.59
480.70	416.62
480.88	411.93
481.06	376.83
481.24	369.80
481.41	447.04
481.59	346.40
481.77	390.87
481.95	409.59
482.13	479.81
482.31	423.64
482.49	433.00
482.67	425.98
482.85	454.06
483.03	468.11
483.21	376.83
483.39	433.00
483.57	393.21
483.74	416.62
483.92	362.78
484.10	383.85
484.28	461.09
484.46	454.06
484.64	374.49
484.82	444.70
485.00	425.98
485.18	367.46
485.35	437.68
485.53	383.85
485.71	465.77
485.89	386.19
486.07	355.76
486.25	503.22
486.43	428.32
486.61	411.93
486.78	430.66
486.96	367.46
487.14	381.51
487.32	379.17
487.50	339.38
487.68	465.77
487.85	397.89
488.03	468.11
488.21	400.23
488.39	383.85
488.57	447.04
488.75	418.96
488.92	521.94
489.10	411.93
489.28	454.06
489.46	477.47
489.64	428.32
489.81	339.38
489.99	402.57
490.17	395.55
490.35	449.38
490.53	386.19
490.70	433.00
490.88	468.11
491.06	486.83
491.24	447.04
491.41	433.00
491.59	440.02
491.77	400.23
491.95	433.00
492.13	447.04
492.30	409.59
492.48	433.00
492.66	418.96
492.84	388.53
493.01	430.66
493.19	435.34
493.37	479.81
493.54	416.62
493.72	407.25
493.90	376.83
494.08	393.21
494.25	447.04
494.43	311.29
494.61	358.10
494.79	381.51
494.96	468.11
495.14	435.34
495.32	463.43
495.49	362.78
495.67	404.91
495.85	402.57
496.02	465.77
496.20	386.19
496.38	416.62
496.55	461.09
496.73	491.51
496.91	437.68
497.09	458.74
497.26	381.51
497.44	355.76
497.62	388.53
497.79	376.83
497.97	393.21
498.14	475.13
498.32	395.55
498.50	393.21
498.67	414.27
498.85	447.04
499.03	411.93
499.20	428.32
499.38	397.89
499.56	421.30
499.73	479.81
499.91	437.68
500.08	390.87
500.26	437.68
500.44	479.81
500.61	470.45
500.79	444.70
500.97	414.27
501.14	463.43
501.32	418.96
501.49	433.00
501.67	418.96
501.84	411.93
502.02	411.93
502.20	505.56
502.37	383.85
502.55	423.64
502.72	440.02
502.90	428.32
503.07	447.04
503.25	421.30
503.43	472.79
503.60	400.23
503.78	407.25
503.95	400.23
504.13	386.19
504.30	477.47
504.48	390.87
504.65	449.38
504.83	430.66
505.01	458.74
505.18	421.30
505.36	425.98
505.53	470.45
505.71	402.57
505.88	442.36
506.06	381.51
506.23	383.85
506.41	475.13
506.58	402.57
506.76	383.85
506.93	447.04
507.11	404.91
507.28	383.85
507.46	388.53
507.63	500.87
507.81	423.64
507.98	421.30
508.16	402.57
508.33	433.00
508.50	465.77
508.68	479.81
508.85	416.62
509.03	437.68
509.20	456.40
509.38	360.44
509.55	367.46
509.73	479.81
509.90	421.30
510.08	442.36
510.25	386.19
510.42	386.19
510.60	402.57
510.77	423.64
510.95	435.34
511.12	407.25
511.30	444.70
511.47	376.83
511.64	468.11
511.82	332.36
511.99	433.00
512.17	395.55
512.34	388.53
512.51	461.09
512.69	475.13
512.86	365.12
513.04	407.25
513.21	330.02
513.38	393.21
513.56	451.72
513.73	421.30
513.90	301.93
514.08	463.43
514.25	372.15
514.43	404.91
514.60	372.15
514.77	402.57
514.95	388.53
515.12	416.62
515.29	421.30
515.47	433.00
515.64	400.23
515.81	428.32
515.99	449.38
516.16	421.30
516.33	411.93
516.51	428.32
516.68	369.80
516.85	383.85
517.03	397.89
517.20	423.64
517.37	388.53
517.54	402.57
517.72	395.55
517.89	425.98
518.06	428.32
518.24	409.59
518.41	507.90
518.58	444.70
518.75	372.15
518.93	444.70
519.10	503.22
519.27	433.00
519.45	425.98
519.62	449.38
519.79	409.59
519.96	484.49
520.14	397.89
520.31	493.85
520.48	465.77
520.65	418.96
520.83	491.51
521.00	440.02
521.17	402.57
521.34	360.44
521.52	458.74
521.69	440.02
521.86	353.42
522.03	472.79
522.20	503.22
522.38	365.12
522.55	458.74
522.72	381.51
522.89	407.25
523.07	451.72
523.24	341.72
523.41	388.53
523.58	402.57
523.75	409.59
523.92	416.62
524.10	381.51
524.27	351.08
524.44	358.10
524.61	423.64
524.78	337.04
524.96	465.77
525.13	411.93
525.30	498.53
525.47	393.21
525.64	456.40
525.81	390.87
525.98	437.68
526.16	465.77
526.33	376.83
526.50	428.32
526.67	306.61
526.84	339.38
527.01	444.70
527.18	402.57
527.36	383.85
527.53	355.76
527.70	423.64
527.87	435.34
528.04	362.78
528.21	411.93
528.38	400.23
528.55	411.93
528.72	423.64
528.89	404.91
529.07	381.51
529.24	458.74
529.41	507.90
529.58	425.98
529.75	425.98
529.92	390.87
530.09	402.57
530.26	418.96
530.43	430.66
530.60	383.85
530.77	468.11
530.94	346.40
531.11	465.77
531.28	418.96
531.46	360.44
531.63	400.23
531.80	369.80
531.97	430.66
532.14	482.15
532.31	484.49
532.48	367.46
532.65	393.21
532.82	358.10
532.99	367.46
533.16	451.72
533.33	442.36
533.50	379.17
533.67	465.77
533.84	407.25
534.01	390.87
534.18	447.04
534.35	411.93
534.52	456.40
534.69	435.34
534.86	386.19
535.03	418.96
535.20	379.17
535.37	482.15
535.54	400.23
535.71	472.79
535.88	425.98
536.05	386.19
536.22	411.93
536.38	407.25
536.55	428.32
536.72	463.43
536.89	376.83
537.06	369.80
537.23	421.30
537.40	433.00
537.57	402.57
537.74	433.00
537.91	444.70
538.08	388.53
538.25	479.81
538.42	383.85
538.59	416.62
538.75	383.85
538.92	430.66
539.09	404.91
539.26	386.19
539.43	465.77
539.60	318.31
539.77	379.17
539.94	435.34
540.11	369.80
540.28	421.30
540.44	407.25
540.61	407.25
540.78	465.77
540.95	379.17
541.12	421.30
541.29	407.25
541.46	463.43
541.62	430.66
541.79	440.02
541.96	454.06
542.13	416.62
542.30	454.06
542.47	461.09
542.63	409.59
542.80	381.51
542.97	411.93
543.14	379.17
543.31	433.00
543.48	425.98
543.64	318.31
543.81	379.17
543.98	376.83
544.15	390.87
544.32	397.89
544.48	454.06
544.65	372.15
544.82	416.62
544.99	411.93
545.16	447.04
545.32	367.46
545.49	404.91
545.66	416.62
545.83	353.42
546.00	372.15
546.16	423.64
546.33	332.36
546.50	322.99
546.67	475.13
546.83	404.91
547.00	463.43
547.17	393.21
547.34	386.19
547.50	435.34
547.67	425.98
547.84	411.93
548.00	500.87
548.17	437.68
548.34	407.25
548.51	456.40
548.67	447.04
548.84	407.25
549.01	418.96
549.18	472.79
549.34	409.59
549.51	379.17
549.68	423.64
549.84	423.64
550.01	386.19
550.18	477.47
550.34	489.17
550.51	451.72
550.68	414.27
550.84	433.00
551.01	442.36
551.18	461.09
551.34	400.23
551.51	425.98
551.68	339.38
551.84	395.55
552.01	416.62
552.18	472.79
552.34	390.87
552.51	440.02
552.68	397.89
552.84	381.51
553.01	425.98
553.18	442.36
553.34	440.02
553.51	430.66
553.67	482.15
553.84	484.49
554.01	418.96
554.17	437.68
554.34	376.83
554.51	430.66
554.67	428.32
554.84	315.97
555.00	390.87
555.17	360.44
555.33	411.93
555.50	458.74
555.67	386.19
555.83	383.85
556.00	395.55
556.16	550.03
556.33	418.96
556.50	451.72
556.66	397.89
556.83	374.49
556.99	397.89
557.16	442.36
557.32	416.62
557.49	355.76
557.65	465.77
557.82	416.62
557.98	332.36
558.15	421.30
558.32	433.00
558.48	430.66
558.65	362.78
558.81	491.51
558.98	414.27
559.14	423.64
559.31	461.09
559.47	456.40
559.64	416.62
559.80	456.40
559.97	461.09
560.13	425.98
560.30	397.89
560.46	447.04
560.63	365.12
560.79	416.62
560.96	390.87
561.12	337.04
561.29	493.85
561.45	409.59
561.61	416.62
561.78	425.98
561.94	369.80
562.11	416.62
562.27	339.38
562.44	334.70
562.60	365.12
562.77	418.96
562.93	521.94
563.10	451.72
563.26	442.36
563.42	449.38
563.59	421.30
563.75	348.74
563.92	386.19
564.08	433.00
564.24	402.57
564.41	418.96
564.57	444.70
564.74	362.78
564.90	344.06
565.07	463.43
565.23	393.21
565.39	418.96
565.56	435.34
565.72	498.53
565.88	461.09
566.05	381.51
566.21	444.70
566.38	402.57
566.54	402.57
566.70	468.11
566.87	372.15
567.03	341.72
567.19	386.19
567.36	397.89
567.52	393.21
567.68	510.24
567.85	442.36
568.01	444.70
568.17	435.34
568.34	341.72
568.50	411.93
568.66	430.66
568.83	411.93
568.99	381.51
569.15	435.34
569.32	418.96
569.48	367.46
569.64	358.10
569.81	411.93
569.97	330.02
570.13	369.80
570.30	397.89
570.46	369.80
570.62	477.47
570.78	376.83
570.95	355.76
571.11	435.34
571.27	421.30
571.43	386.19
571.60	409.59
571.76	402.57
571.92	425.98
572.09	449.38
572.25	346.40
572.41	360.44
572.57	449.38
572.74	468.11
572.90	393.21
573.06	395.55
573.22	332.36
573.38	397.89
573.55	449.38
573.71	461.09
573.87	442.36
574.03	425.98
574.20	383.85
574.36	402.57
574.52	418.96
574.68	421.30
574.84	423.64
575.01	358.10
575.17	428.32
575.33	430.66
575.49	435.34
575.65	400.23
575.82	477.47
575.98	470.45
576.14	428.32
576.30	374.49
576.46	393.21
576.62	376.83
576.79	409.59
576.95	411.93
577.11	397.89
577.27	402.57
577.43	390.87
577.59	425.98
577.75	407.25
577.92	440.02
578.08	390.87
578.24	416.62
578.40	428.32
578.56	458.74
578.72	344.06
578.88	397.89
579.04	498.53
579.21	386.19
579.37	433.00
579.53	451.72
579.69	423.64
579.85	395.55
580.01	416.62
580.17	479.81
580.33	358.10
580.49	372.15
580.65	458.74
580.82	393.21
580.98	449.38
581.14	341.72
581.30	489.17
581.46	416.62
581.62	444.70
581.78	414.27
581.94	425.98
582.10	383.85
582.26	456.40
582.42	407.25
582.58	482.15
582.74	402.57
582.90	486.83
583.06	365.12
583.22	388.53
583.38	383.85
583.54	414.27
583.70	418.96
583.86	381.51
584.02	428.32
584.18	404.91
584.34	400.23
584.50	400.23
584.66	433.00
584.82	440.02
584.98	414.27
585.14	386.19
585.30	454.06
585.46	423.64
585.62	421.30
585.78	458.74
585.94	433.00
586.10	463.43
586.26	407.25
586.42	449.38
586.58	411.93
586.74	397.89
586.90	395.55
587.06	409.59
587.22	454.06
587.38	313.63
587.54	351.08
587.70	454.06
587.86	435.34
588.02	393.21
588.18	461.09
588.34	421.30
588.49	388.53
588.65	409.59
588.81	421.30
588.97	411.93
589.13	379.17
589.29	435.34
589.45	351.08
589.61	440.02
589.77	442.36
589.93	407.25
590.08	397.89
590.24	465.77
590.40	458.74
590.56	423.64
590.72	358.10
590.88	360.44
591.04	428.32
591.20	440.02
591.35	468.11
591.51	393.21
591.67	404.91
591.83	414.27
591.99	404.91
592.15	414.27
592.31	447.04
592.46	423.64
592.62	437.68
592.78	437.68
592.94	358.10
593.10	461.09
593.26	369.80
593.41	360.44
593.57	423.64
593.73	414.27
593.89	386.19
594.05	404.91
594.20	414.27
594.36	444.70
594.52	404.91
594.68	409.59
594.84	449.38
594.99	482.15
595.15	482.15
595.31	442.36
595.47	468.11
595.62	454.06
595.78	425.98
595.94	409.59
596.10	440.02
596.25	472.79
596.41	435.34
596.57	332.36
596.73	390.87
596.88	414.27
597.04	430.66
597.20	428.32
597.36	395.55
597.51	435.34
597.67	355.76
597.83	327.68
597.99	418.96
598.14	407.25
598.30	428.32
598.46	456.40
598.61	447.04
598.77	498.53
598.93	407.25
599.09	425.98
599.24	362.78
599.40	444.70
599.56	397.89
599.71	390.87
599.87	390.87
600.03	425.98
600.18	404.91
600.34	465.77
600.50	449.38
600.65	421.30
600.81	416.62
600.97	388.53
601.12	500.87
601.28	423.64
601.44	425.98
601.59	383.85
601.75	400.23
601.91	372.15
602.06	449.38
602.22	519.60
602.37	421.30
602.53	393.21
602.69	449.38
602.84	360.44
603.00	456.40
603.16	404.91
603.31	402.57
603.47	390.87
603.62	379.17
603.78	390.87
603.94	440.02
604.09	433.00
604.25	428.32
604.40	390.87
604.56	395.55
604.71	395.55
604.87	425.98
605.03	409.59
605.18	486.83
605.34	381.51
605.49	428.32
605.65	425.98
605.80	400.23
605.96	381.51
606.12	437.68
606.27	500.87
606.43	407.25
606.58	514.92
606.74	468.11
606.89	400.23
607.05	433.00
607.20	372.15
607.36	393.21
607.51	435.34
607.67	337.04
607.82	447.04
607.98	437.68
608.13	393.21
608.29	400.23
608.44	397.89
608.60	416.62
608.75	514.92
608.91	444.70
609.06	475.13
609.22	456.40
609.37	440.02
609.53	435.34
609.68	451.72
609.84	433.00
609.99	468.11
610.15	395.55
