SpectraSuite Data File
++++++++++++++++++++++++++++++++++++
Date: Fri Oct 25 12:10:55 EDT 2013
User: price-jones
Dark Spectrum Present: No
Reference Spectrum Present: No
Number of Sampled Component Spectra: 1
Spectrometers: USB2+H05261
Integration Time (usec): 100000 (USB2+H05261)
Spectra Averaged: 1 (USB2+H05261)
Boxcar Smoothing: 0 (USB2+H05261)
Correct for Electrical Dark: No (USB2+H05261)
Strobe/Lamp Enabled: No (USB2+H05261)
Correct for Detector Non-linearity: No (USB2+H05261)
Correct for Stray Light: No (USB2+H05261)
Number of Pixels in Processed Spectrum: 2048
>>>>>Begin Processed Spectral Data<<<<<
365.73	238.73
365.92	238.73
366.12	238.73
366.32	229.37
366.52	217.67
366.72	271.50
366.91	217.67
367.11	215.33
367.31	273.84
367.51	255.12
367.70	220.01
367.90	290.23
368.10	236.39
368.30	187.24
368.49	252.78
368.69	149.79
368.89	227.03
369.09	191.92
369.28	257.46
369.48	234.05
369.68	325.33
369.87	318.31
370.07	304.27
370.27	332.36
370.47	330.02
370.66	383.85
370.86	287.89
371.06	376.83
371.25	468.11
371.45	372.15
371.65	379.17
371.84	360.44
372.04	346.40
372.24	372.15
372.44	440.02
372.63	365.12
372.83	372.15
373.03	428.32
373.22	411.93
373.42	458.74
373.62	423.64
373.81	400.23
374.01	369.80
374.21	407.25
374.40	418.96
374.60	442.36
374.79	482.15
374.99	418.96
375.19	402.57
375.38	376.83
375.58	411.93
375.78	416.62
375.97	442.36
376.17	360.44
376.37	414.27
376.56	433.00
376.76	402.57
376.95	437.68
377.15	386.19
377.35	463.43
377.54	440.02
377.74	433.00
377.93	393.21
378.13	482.15
378.33	442.36
378.52	433.00
378.72	411.93
378.91	435.34
379.11	386.19
379.31	355.76
379.50	369.80
379.70	404.91
379.89	449.38
380.09	411.93
380.28	437.68
380.48	428.32
380.68	442.36
380.87	383.85
381.07	351.08
381.26	428.32
381.46	393.21
381.65	425.98
381.85	404.91
382.04	395.55
382.24	402.57
382.43	337.04
382.63	381.51
382.83	404.91
383.02	423.64
383.22	500.87
383.41	334.70
383.61	397.89
383.80	379.17
384.00	404.91
384.19	381.51
384.39	400.23
384.58	393.21
384.78	395.55
384.97	428.32
385.17	423.64
385.36	369.80
385.56	418.96
385.75	411.93
385.95	435.34
386.14	376.83
386.34	393.21
386.53	315.97
386.72	414.27
386.92	435.34
387.11	416.62
387.31	423.64
387.50	386.19
387.70	397.89
387.89	388.53
388.09	411.93
388.28	442.36
388.48	390.87
388.67	447.04
388.86	411.93
389.06	428.32
389.25	367.46
389.45	400.23
389.64	414.27
389.84	458.74
390.03	397.89
390.22	376.83
390.42	404.91
390.61	369.80
390.81	355.76
391.00	374.49
391.19	468.11
391.39	383.85
391.58	479.81
391.78	390.87
391.97	430.66
392.16	440.02
392.36	451.72
392.55	365.12
392.75	402.57
392.94	390.87
393.13	430.66
393.33	421.30
393.52	404.91
393.71	393.21
393.91	381.51
394.10	341.72
394.29	407.25
394.49	411.93
394.68	341.72
394.88	379.17
395.07	414.27
395.26	482.15
395.46	482.15
395.65	355.76
395.84	388.53
396.04	428.32
396.23	421.30
396.42	418.96
396.62	383.85
396.81	444.70
397.00	367.46
397.19	381.51
397.39	360.44
397.58	421.30
397.77	407.25
397.97	440.02
398.16	404.91
398.35	416.62
398.55	397.89
398.74	379.17
398.93	449.38
399.12	372.15
399.32	402.57
399.51	367.46
399.70	315.97
399.90	400.23
400.09	428.32
400.28	407.25
400.47	444.70
400.67	409.59
400.86	383.85
401.05	404.91
401.24	395.55
401.44	400.23
401.63	456.40
401.82	423.64
402.01	395.55
402.21	397.89
402.40	430.66
402.59	447.04
402.78	444.70
402.97	451.72
403.17	440.02
403.36	395.55
403.55	418.96
403.74	416.62
403.93	449.38
404.13	362.78
404.32	402.57
404.51	477.47
404.70	430.66
404.89	339.38
405.09	379.17
405.28	369.80
405.47	351.08
405.66	365.12
405.85	430.66
406.05	372.15
406.24	379.17
406.43	423.64
406.62	365.12
406.81	463.43
407.00	430.66
407.20	365.12
407.39	367.46
407.58	388.53
407.77	418.96
407.96	433.00
408.15	454.06
408.34	414.27
408.54	444.70
408.73	369.80
408.92	404.91
409.11	395.55
409.30	484.49
409.49	407.25
409.68	451.72
409.87	376.83
410.07	367.46
410.26	390.87
410.45	404.91
410.64	416.62
410.83	451.72
411.02	369.80
411.21	395.55
411.40	386.19
411.59	332.36
411.78	397.89
411.98	430.66
412.17	407.25
412.36	353.42
412.55	409.59
412.74	400.23
412.93	393.21
413.12	407.25
413.31	376.83
413.50	437.68
413.69	486.83
413.88	428.32
414.07	416.62
414.26	437.68
414.45	381.51
414.64	496.19
414.83	411.93
415.02	423.64
415.22	400.23
415.41	379.17
415.60	402.57
415.79	400.23
415.98	409.59
416.17	440.02
416.36	376.83
416.55	383.85
416.74	435.34
416.93	491.51
417.12	369.80
417.31	440.02
417.50	414.27
417.69	442.36
417.88	374.49
418.07	442.36
418.26	475.13
418.45	313.63
418.64	407.25
418.83	407.25
419.02	423.64
419.21	374.49
419.39	416.62
419.58	442.36
419.77	369.80
419.96	442.36
420.15	383.85
420.34	402.57
420.53	369.80
420.72	463.43
420.91	397.89
421.10	372.15
421.29	451.72
421.48	395.55
421.67	390.87
421.86	437.68
422.05	390.87
422.24	451.72
422.43	421.30
422.61	346.40
422.80	367.46
422.99	449.38
423.18	435.34
423.37	430.66
423.56	451.72
423.75	437.68
423.94	442.36
424.13	477.47
424.32	463.43
424.50	374.49
424.69	376.83
424.88	421.30
425.07	388.53
425.26	418.96
425.45	456.40
425.64	507.90
425.83	430.66
426.01	423.64
426.20	348.74
426.39	449.38
426.58	414.27
426.77	414.27
426.96	386.19
427.15	493.85
427.33	411.93
427.52	416.62
427.71	374.49
427.90	449.38
428.09	353.42
428.28	482.15
428.46	425.98
428.65	428.32
428.84	362.78
429.03	367.46
429.22	372.15
429.40	367.46
429.59	383.85
429.78	393.21
429.97	444.70
430.16	397.89
430.34	479.81
430.53	404.91
430.72	360.44
430.91	437.68
431.10	451.72
431.28	423.64
431.47	390.87
431.66	397.89
431.85	400.23
432.03	423.64
432.22	435.34
432.41	435.34
432.60	491.51
432.79	423.64
432.97	411.93
433.16	416.62
433.35	360.44
433.54	372.15
433.72	433.00
433.91	421.30
434.10	402.57
434.28	402.57
434.47	416.62
434.66	383.85
434.85	402.57
435.03	362.78
435.22	463.43
435.41	482.15
435.59	414.27
435.78	437.68
435.97	388.53
436.16	386.19
436.34	388.53
436.53	386.19
436.72	454.06
436.90	414.27
437.09	404.91
437.28	372.15
437.46	449.38
437.65	381.51
437.84	454.06
438.02	421.30
438.21	433.00
438.40	337.04
438.58	379.17
438.77	421.30
438.96	402.57
439.14	337.04
439.33	425.98
439.52	374.49
439.70	423.64
439.89	407.25
440.08	346.40
440.26	461.09
440.45	416.62
440.63	454.06
440.82	358.10
441.01	383.85
441.19	430.66
441.38	409.59
441.57	414.27
441.75	423.64
441.94	388.53
442.12	379.17
442.31	414.27
442.50	447.04
442.68	416.62
442.87	344.06
443.05	454.06
443.24	376.83
443.43	444.70
443.61	404.91
443.80	437.68
443.98	407.25
444.17	367.46
444.35	451.72
444.54	351.08
444.73	348.74
444.91	442.36
445.10	461.09
445.28	358.10
445.47	383.85
445.65	390.87
445.84	407.25
446.02	414.27
446.21	437.68
446.39	376.83
446.58	418.96
446.77	388.53
446.95	311.29
447.14	411.93
447.32	411.93
447.51	418.96
447.69	451.72
447.88	388.53
448.06	388.53
448.25	355.76
448.43	421.30
448.62	397.89
448.80	442.36
448.99	449.38
449.17	400.23
449.36	367.46
449.54	407.25
449.73	365.12
449.91	390.87
450.10	383.85
450.28	386.19
450.46	458.74
450.65	402.57
450.83	411.93
451.02	355.76
451.20	433.00
451.39	395.55
451.57	400.23
451.76	421.30
451.94	367.46
452.13	442.36
452.31	447.04
452.49	418.96
452.68	337.04
452.86	456.40
453.05	463.43
453.23	393.21
453.42	374.49
453.60	388.53
453.78	440.02
453.97	344.06
454.15	315.97
454.34	416.62
454.52	465.77
454.70	416.62
454.89	437.68
455.07	390.87
455.26	416.62
455.44	428.32
455.62	472.79
455.81	414.27
455.99	400.23
456.17	482.15
456.36	383.85
456.54	454.06
456.73	320.65
456.91	435.34
457.09	414.27
457.28	468.11
457.46	451.72
457.64	397.89
457.83	416.62
458.01	397.89
458.19	379.17
458.38	388.53
458.56	451.72
458.74	430.66
458.93	484.49
459.11	444.70
459.29	414.27
459.48	414.27
459.66	479.81
459.84	456.40
460.03	510.24
460.21	383.85
460.39	444.70
460.57	353.42
460.76	374.49
460.94	433.00
461.12	507.90
461.31	486.83
461.49	414.27
461.67	421.30
461.85	451.72
462.04	365.12
462.22	800.46
462.40	433.00
462.59	451.72
462.77	341.72
462.95	358.10
463.13	407.25
463.32	381.51
463.50	498.53
463.68	339.38
463.86	475.13
464.05	414.27
464.23	503.22
464.41	433.00
464.59	425.98
464.78	418.96
464.96	400.23
465.14	402.57
465.32	428.32
465.50	454.06
465.69	454.06
465.87	355.76
466.05	409.59
466.23	395.55
466.41	418.96
466.60	402.57
466.78	374.49
466.96	360.44
467.14	390.87
467.32	458.74
467.51	404.91
467.69	400.23
467.87	397.89
468.05	463.43
468.23	479.81
468.41	470.45
468.60	383.85
468.78	358.10
468.96	393.21
469.14	493.85
469.32	362.78
469.50	348.74
469.69	402.57
469.87	496.19
470.05	425.98
470.23	414.27
470.41	376.83
470.59	407.25
470.77	395.55
470.95	416.62
471.14	440.02
471.32	402.57
471.50	386.19
471.68	416.62
471.86	435.34
472.04	339.38
472.22	393.21
472.40	425.98
472.58	400.23
472.77	472.79
472.95	388.53
473.13	411.93
473.31	353.42
473.49	374.49
473.67	416.62
473.85	369.80
474.03	358.10
474.21	461.09
474.39	528.96
474.57	418.96
474.75	447.04
474.93	433.00
475.12	374.49
475.30	465.77
475.48	416.62
475.66	414.27
475.84	440.02
476.02	386.19
476.20	444.70
476.38	414.27
476.56	465.77
476.74	411.93
476.92	360.44
477.10	369.80
477.28	430.66
477.46	334.70
477.64	437.68
477.82	393.21
478.00	353.42
478.18	440.02
478.36	374.49
478.54	411.93
478.72	395.55
478.90	477.47
479.08	386.19
479.26	440.02
479.44	414.27
479.62	376.83
479.80	369.80
479.98	425.98
480.16	383.85
480.34	458.74
480.52	313.63
480.70	449.38
480.88	397.89
481.06	456.40
481.24	430.66
481.41	390.87
481.59	407.25
481.77	423.64
481.95	383.85
482.13	514.92
482.31	440.02
482.49	400.23
482.67	393.21
482.85	423.64
483.03	386.19
483.21	423.64
483.39	402.57
483.57	440.02
483.74	397.89
483.92	470.45
484.10	400.23
484.28	425.98
484.46	449.38
484.64	444.70
484.82	369.80
485.00	400.23
485.18	491.51
485.35	437.68
485.53	374.49
485.71	423.64
485.89	388.53
486.07	470.45
486.25	496.19
486.43	433.00
486.61	428.32
486.78	386.19
486.96	430.66
487.14	414.27
487.32	393.21
487.50	404.91
487.68	425.98
487.85	414.27
488.03	428.32
488.21	468.11
488.39	404.91
488.57	393.21
488.75	376.83
488.92	489.17
489.10	503.22
489.28	454.06
489.46	353.42
489.64	397.89
489.81	362.78
489.99	475.13
490.17	428.32
490.35	463.43
490.53	435.34
490.70	395.55
490.88	423.64
491.06	400.23
491.24	444.70
491.41	465.77
491.59	447.04
491.77	404.91
491.95	379.17
492.13	411.93
492.30	322.99
492.48	402.57
492.66	444.70
492.84	400.23
493.01	463.43
493.19	416.62
493.37	493.85
493.54	447.04
493.72	416.62
493.90	381.51
494.08	433.00
494.25	444.70
494.43	418.96
494.61	477.47
494.79	404.91
494.96	381.51
495.14	409.59
495.32	376.83
495.49	397.89
495.67	414.27
495.85	411.93
496.02	409.59
496.20	444.70
496.38	409.59
496.55	374.49
496.73	454.06
496.91	372.15
497.09	423.64
497.26	447.04
497.44	400.23
497.62	383.85
497.79	454.06
497.97	414.27
498.14	400.23
498.32	440.02
498.50	440.02
498.67	327.68
498.85	402.57
499.03	360.44
499.20	334.70
499.38	428.32
499.56	330.02
499.73	435.34
499.91	421.30
500.08	428.32
500.26	442.36
500.44	381.51
500.61	430.66
500.79	337.04
500.97	437.68
501.14	430.66
501.32	376.83
501.49	463.43
501.67	365.12
501.84	388.53
502.02	409.59
502.20	540.66
502.37	444.70
502.55	402.57
502.72	407.25
502.90	435.34
503.07	416.62
503.25	430.66
503.43	428.32
503.60	416.62
503.78	341.72
503.95	400.23
504.13	430.66
504.30	444.70
504.48	425.98
504.65	397.89
504.83	400.23
505.01	435.34
505.18	437.68
505.36	411.93
505.53	390.87
505.71	390.87
505.88	400.23
506.06	428.32
506.23	447.04
506.41	383.85
506.58	463.43
506.76	414.27
506.93	404.91
507.11	416.62
507.28	416.62
507.46	358.10
507.63	423.64
507.81	372.15
507.98	409.59
508.16	395.55
508.33	461.09
508.50	348.74
508.68	409.59
508.85	362.78
509.03	369.80
509.20	379.17
509.38	393.21
509.55	418.96
509.73	407.25
509.90	407.25
510.08	425.98
510.25	402.57
510.42	362.78
510.60	440.02
510.77	416.62
510.95	334.70
511.12	390.87
511.30	400.23
511.47	428.32
511.64	440.02
511.82	337.04
511.99	397.89
512.17	498.53
512.34	491.51
512.51	393.21
512.69	435.34
512.86	402.57
513.04	461.09
513.21	428.32
513.38	379.17
513.56	461.09
513.73	409.59
513.90	444.70
514.08	360.44
514.25	425.98
514.43	388.53
514.60	374.49
514.77	416.62
514.95	440.02
515.12	484.49
515.29	409.59
515.47	444.70
515.64	372.15
515.81	374.49
515.99	451.72
516.16	456.40
516.33	475.13
516.51	447.04
516.68	390.87
516.85	470.45
517.03	393.21
517.20	458.74
517.37	404.91
517.54	465.77
517.72	360.44
517.89	444.70
518.06	435.34
518.24	472.79
518.41	503.22
518.58	381.51
518.75	381.51
518.93	311.29
519.10	376.83
519.27	362.78
519.45	374.49
519.62	402.57
519.79	479.81
519.96	374.49
520.14	456.40
520.31	442.36
520.48	416.62
520.65	365.12
520.83	435.34
521.00	444.70
521.17	463.43
521.34	395.55
521.52	386.19
521.69	428.32
521.86	397.89
522.03	468.11
522.20	461.09
522.38	437.68
522.55	423.64
522.72	395.55
522.89	388.53
523.07	451.72
523.24	447.04
523.41	367.46
523.58	306.61
523.75	430.66
523.92	414.27
524.10	458.74
524.27	346.40
524.44	409.59
524.61	479.81
524.78	393.21
524.96	416.62
525.13	404.91
525.30	451.72
525.47	461.09
525.64	386.19
525.81	468.11
525.98	458.74
526.16	400.23
526.33	463.43
526.50	454.06
526.67	433.00
526.84	400.23
527.01	472.79
527.18	367.46
527.36	440.02
527.53	379.17
527.70	449.38
527.87	442.36
528.04	489.17
528.21	409.59
528.38	433.00
528.55	390.87
528.72	435.34
528.89	437.68
529.07	470.45
529.24	451.72
529.41	402.57
529.58	454.06
529.75	437.68
529.92	514.92
530.09	444.70
530.26	491.51
530.43	447.04
530.60	404.91
530.77	397.89
530.94	451.72
531.11	421.30
531.28	397.89
531.46	425.98
531.63	435.34
531.80	475.13
531.97	428.32
532.14	430.66
532.31	379.17
532.48	388.53
532.65	425.98
532.82	407.25
532.99	435.34
533.16	411.93
533.33	472.79
533.50	437.68
533.67	353.42
533.84	447.04
534.01	430.66
534.18	388.53
534.35	339.38
534.52	416.62
534.69	402.57
534.86	472.79
535.03	376.83
535.20	475.13
535.37	411.93
535.54	425.98
535.71	393.21
535.88	390.87
536.05	414.27
536.22	468.11
536.38	451.72
536.55	428.32
536.72	416.62
536.89	414.27
537.06	290.23
537.23	425.98
537.40	458.74
537.57	465.77
537.74	442.36
537.91	369.80
538.08	416.62
538.25	449.38
538.42	425.98
538.59	372.15
538.75	397.89
538.92	437.68
539.09	404.91
539.26	421.30
539.43	437.68
539.60	386.19
539.77	372.15
539.94	404.91
540.11	458.74
540.28	409.59
540.44	411.93
540.61	355.76
540.78	433.00
540.95	369.80
541.12	404.91
541.29	304.27
541.46	430.66
541.62	374.49
541.79	397.89
541.96	444.70
542.13	451.72
542.30	463.43
542.47	395.55
542.63	437.68
542.80	454.06
542.97	409.59
543.14	447.04
543.31	428.32
543.48	416.62
543.64	397.89
543.81	409.59
543.98	430.66
544.15	308.95
544.32	372.15
544.48	472.79
544.65	351.08
544.82	381.51
544.99	416.62
545.16	458.74
545.32	442.36
545.49	409.59
545.66	418.96
545.83	395.55
546.00	416.62
546.16	388.53
546.33	383.85
546.50	409.59
546.67	404.91
546.83	465.77
547.00	421.30
547.17	402.57
547.34	367.46
547.50	465.77
547.67	463.43
547.84	407.25
548.00	433.00
548.17	444.70
548.34	402.57
548.51	447.04
548.67	451.72
548.84	479.81
549.01	409.59
549.18	404.91
549.34	386.19
549.51	397.89
549.68	393.21
549.84	395.55
550.01	430.66
550.18	505.56
550.34	433.00
550.51	428.32
550.68	498.53
550.84	395.55
551.01	402.57
551.18	404.91
551.34	421.30
551.51	351.08
551.68	353.42
551.84	444.70
552.01	428.32
552.18	463.43
552.34	433.00
552.51	402.57
552.68	397.89
552.84	430.66
553.01	458.74
553.18	407.25
553.34	374.49
553.51	411.93
553.67	423.64
553.84	421.30
554.01	369.80
554.17	456.40
554.34	458.74
554.51	442.36
554.67	475.13
554.84	414.27
555.00	330.02
555.17	388.53
555.33	397.89
555.50	388.53
555.67	428.32
555.83	435.34
556.00	433.00
556.16	587.47
556.33	440.02
556.50	418.96
556.66	425.98
556.83	404.91
556.99	440.02
557.16	400.23
557.32	407.25
557.49	383.85
557.65	416.62
557.82	440.02
557.98	411.93
558.15	374.49
558.32	454.06
558.48	397.89
558.65	423.64
558.81	447.04
558.98	486.83
559.14	498.53
559.31	393.21
559.47	369.80
559.64	479.81
559.80	386.19
559.97	390.87
560.13	369.80
560.30	440.02
560.46	374.49
560.63	374.49
560.79	468.11
560.96	388.53
561.12	428.32
561.29	379.17
561.45	425.98
561.61	400.23
561.78	535.98
561.94	475.13
562.11	374.49
562.27	442.36
562.44	493.85
562.60	418.96
562.77	425.98
562.93	477.47
563.10	442.36
563.26	477.47
563.42	367.46
563.59	491.51
563.75	383.85
563.92	461.09
564.08	440.02
564.24	428.32
564.41	447.04
564.57	374.49
564.74	383.85
564.90	421.30
565.07	468.11
565.23	484.49
565.39	376.83
565.56	404.91
565.72	402.57
565.88	482.15
566.05	369.80
566.21	409.59
566.38	512.58
566.54	463.43
566.70	395.55
566.87	430.66
567.03	358.10
567.19	444.70
567.36	468.11
567.52	402.57
567.68	454.06
567.85	395.55
568.01	421.30
568.17	348.74
568.34	433.00
568.50	421.30
568.66	397.89
568.83	470.45
568.99	402.57
569.15	505.56
569.32	416.62
569.48	425.98
569.64	421.30
569.81	411.93
569.97	353.42
570.13	393.21
570.30	425.98
570.46	409.59
570.62	360.44
570.78	482.15
570.95	507.90
571.11	400.23
571.27	390.87
571.43	437.68
571.60	362.78
571.76	428.32
571.92	425.98
572.09	454.06
572.25	397.89
572.41	404.91
572.57	428.32
572.74	430.66
572.90	407.25
573.06	386.19
573.22	470.45
573.38	468.11
573.55	402.57
573.71	409.59
573.87	393.21
574.03	390.87
574.20	421.30
574.36	418.96
574.52	402.57
574.68	423.64
574.84	407.25
575.01	458.74
575.17	472.79
575.33	442.36
575.49	442.36
575.65	461.09
575.82	435.34
575.98	435.34
576.14	414.27
576.30	512.58
576.46	433.00
576.62	484.49
576.79	390.87
576.95	395.55
577.11	315.97
577.27	386.19
577.43	451.72
577.59	435.34
577.75	428.32
577.92	379.17
578.08	451.72
578.24	395.55
578.40	433.00
578.56	388.53
578.72	390.87
578.88	395.55
579.04	423.64
579.21	421.30
579.37	423.64
579.53	411.93
579.69	425.98
579.85	362.78
580.01	433.00
580.17	416.62
580.33	397.89
580.49	414.27
580.65	425.98
580.82	402.57
580.98	414.27
581.14	388.53
581.30	390.87
581.46	381.51
581.62	458.74
581.78	451.72
581.94	407.25
582.10	372.15
582.26	344.06
582.42	397.89
582.58	411.93
582.74	428.32
582.90	456.40
583.06	475.13
583.22	444.70
583.38	397.89
583.54	379.17
583.70	461.09
583.86	463.43
584.02	407.25
584.18	423.64
584.34	418.96
584.50	440.02
584.66	395.55
584.82	470.45
584.98	423.64
585.14	458.74
585.30	444.70
585.46	395.55
585.62	409.59
585.78	386.19
585.94	447.04
586.10	435.34
586.26	449.38
586.42	353.42
586.58	414.27
586.74	330.02
586.90	407.25
587.06	390.87
587.22	444.70
587.38	407.25
587.54	512.58
587.70	437.68
587.86	449.38
588.02	400.23
588.18	414.27
588.34	456.40
588.49	390.87
588.65	477.47
588.81	411.93
588.97	433.00
589.13	395.55
589.29	421.30
589.45	430.66
589.61	435.34
589.77	395.55
589.93	437.68
590.08	433.00
590.24	400.23
590.40	444.70
590.56	421.30
590.72	437.68
590.88	301.93
591.04	440.02
591.20	369.80
591.35	386.19
591.51	433.00
591.67	360.44
591.83	442.36
591.99	379.17
592.15	482.15
592.31	400.23
592.46	381.51
592.62	433.00
592.78	376.83
592.94	447.04
593.10	367.46
593.26	397.89
593.41	451.72
593.57	344.06
593.73	344.06
593.89	440.02
594.05	409.59
594.20	397.89
594.36	414.27
594.52	428.32
594.68	456.40
594.84	489.17
594.99	440.02
595.15	435.34
595.31	489.17
595.47	416.62
595.62	430.66
595.78	327.68
595.94	470.45
596.10	484.49
596.25	421.30
596.41	437.68
596.57	482.15
596.73	374.49
596.88	376.83
597.04	327.68
597.20	388.53
597.36	428.32
597.51	400.23
597.67	423.64
597.83	430.66
597.99	393.21
598.14	425.98
598.30	454.06
598.46	325.33
598.61	472.79
598.77	421.30
598.93	318.31
599.09	435.34
599.24	353.42
599.40	409.59
599.56	360.44
599.71	444.70
599.87	433.00
600.03	358.10
600.18	421.30
600.34	444.70
600.50	430.66
600.65	355.76
600.81	388.53
600.97	442.36
601.12	409.59
601.28	500.87
601.44	372.15
601.59	461.09
601.75	440.02
601.91	437.68
602.06	379.17
602.22	397.89
602.37	440.02
602.53	337.04
602.69	435.34
602.84	440.02
603.00	435.34
603.16	430.66
603.31	475.13
603.47	482.15
603.62	388.53
603.78	379.17
603.94	407.25
604.09	418.96
604.25	411.93
604.40	369.80
604.56	367.46
604.71	486.83
604.87	376.83
605.03	379.17
605.18	425.98
605.34	484.49
605.49	435.34
605.65	376.83
605.80	440.02
605.96	461.09
606.12	421.30
606.27	414.27
606.43	409.59
606.58	383.85
606.74	440.02
606.89	411.93
607.05	479.81
607.20	433.00
607.36	433.00
607.51	411.93
607.67	390.87
607.82	463.43
607.98	456.40
608.13	425.98
608.29	454.06
608.44	390.87
608.60	510.24
608.75	423.64
608.91	400.23
609.06	493.85
609.22	416.62
609.37	404.91
609.53	390.87
609.68	418.96
609.84	379.17
609.99	386.19
610.15	423.64
