SpectraSuite Data File
++++++++++++++++++++++++++++++++++++
Date: Fri Oct 25 12:11:06 EDT 2013
User: price-jones
Dark Spectrum Present: No
Reference Spectrum Present: No
Number of Sampled Component Spectra: 1
Spectrometers: USB2+H05261
Integration Time (usec): 100000 (USB2+H05261)
Spectra Averaged: 1 (USB2+H05261)
Boxcar Smoothing: 0 (USB2+H05261)
Correct for Electrical Dark: No (USB2+H05261)
Strobe/Lamp Enabled: No (USB2+H05261)
Correct for Detector Non-linearity: No (USB2+H05261)
Correct for Stray Light: No (USB2+H05261)
Number of Pixels in Processed Spectrum: 2048
>>>>>Begin Processed Spectral Data<<<<<
365.73	372.15
365.92	372.15
366.12	372.15
366.32	231.71
366.52	236.39
366.72	297.25
366.91	187.24
367.11	271.50
367.31	205.97
367.51	215.33
367.70	220.01
367.90	245.76
368.10	212.99
368.30	250.44
368.49	203.63
368.69	299.59
368.89	201.29
369.09	210.65
369.28	292.57
369.48	313.63
369.68	318.31
369.87	304.27
370.07	227.03
370.27	299.59
370.47	393.21
370.66	376.83
370.86	355.76
371.06	397.89
371.25	383.85
371.45	339.38
371.65	437.68
371.84	376.83
372.04	348.74
372.24	414.27
372.44	395.55
372.63	360.44
372.83	425.98
373.03	379.17
373.22	428.32
373.42	447.04
373.62	423.64
373.81	393.21
374.01	437.68
374.21	479.81
374.40	388.53
374.60	430.66
374.79	475.13
374.99	421.30
375.19	447.04
375.38	428.32
375.58	411.93
375.78	416.62
375.97	461.09
376.17	470.45
376.37	440.02
376.56	360.44
376.76	430.66
376.95	423.64
377.15	461.09
377.35	451.72
377.54	383.85
377.74	369.80
377.93	458.74
378.13	430.66
378.33	444.70
378.52	372.15
378.72	456.40
378.91	428.32
379.11	320.65
379.31	491.51
379.50	463.43
379.70	430.66
379.89	472.79
380.09	489.17
380.28	414.27
380.48	334.70
380.68	358.10
380.87	430.66
381.07	404.91
381.26	400.23
381.46	362.78
381.65	397.89
381.85	433.00
382.04	393.21
382.24	465.77
382.43	367.46
382.63	351.08
382.83	355.76
383.02	402.57
383.22	418.96
383.41	369.80
383.61	414.27
383.80	449.38
384.00	372.15
384.19	423.64
384.39	411.93
384.58	400.23
384.78	381.51
384.97	409.59
385.17	400.23
385.36	433.00
385.56	397.89
385.75	433.00
385.95	421.30
386.14	397.89
386.34	372.15
386.53	454.06
386.72	348.74
386.92	437.68
387.11	262.14
387.31	411.93
387.50	454.06
387.70	360.44
387.89	421.30
388.09	362.78
388.28	451.72
388.48	428.32
388.67	383.85
388.86	461.09
389.06	447.04
389.25	407.25
389.45	416.62
389.64	376.83
389.84	416.62
390.03	376.83
390.22	393.21
390.42	447.04
390.61	379.17
390.81	339.38
391.00	304.27
391.19	407.25
391.39	493.85
391.58	428.32
391.78	458.74
391.97	411.93
392.16	351.08
392.36	418.96
392.55	414.27
392.75	374.49
392.94	430.66
393.13	430.66
393.33	344.06
393.52	411.93
393.71	407.25
393.91	395.55
394.10	400.23
394.29	353.42
394.49	339.38
394.68	411.93
394.88	388.53
395.07	383.85
395.26	374.49
395.46	421.30
395.65	440.02
395.84	461.09
396.04	395.55
396.23	425.98
396.42	423.64
396.62	433.00
396.81	402.57
397.00	404.91
397.19	390.87
397.39	360.44
397.58	393.21
397.77	414.27
397.97	346.40
398.16	383.85
398.35	341.72
398.55	294.91
398.74	344.06
398.93	430.66
399.12	449.38
399.32	472.79
399.51	416.62
399.70	365.12
399.90	400.23
400.09	465.77
400.28	372.15
400.47	411.93
400.67	468.11
400.86	435.34
401.05	404.91
401.24	362.78
401.44	400.23
401.63	386.19
401.82	337.04
402.01	411.93
402.21	407.25
402.40	376.83
402.59	451.72
402.78	372.15
402.97	482.15
403.17	390.87
403.36	425.98
403.55	355.76
403.74	404.91
403.93	395.55
404.13	400.23
404.32	414.27
404.51	409.59
404.70	409.59
404.89	386.19
405.09	416.62
405.28	451.72
405.47	386.19
405.66	397.89
405.85	440.02
406.05	421.30
406.24	444.70
406.43	374.49
406.62	400.23
406.81	449.38
407.00	414.27
407.20	346.40
407.39	404.91
407.58	458.74
407.77	421.30
407.96	465.77
408.15	407.25
408.34	332.36
408.54	404.91
408.73	379.17
408.92	402.57
409.11	409.59
409.30	470.45
409.49	381.51
409.68	365.12
409.87	348.74
410.07	402.57
410.26	393.21
410.45	369.80
410.64	376.83
410.83	383.85
411.02	442.36
411.21	423.64
411.40	421.30
411.59	461.09
411.78	386.19
411.98	365.12
412.17	409.59
412.36	404.91
412.55	355.76
412.74	395.55
412.93	428.32
413.12	414.27
413.31	358.10
413.50	430.66
413.69	409.59
413.88	374.49
414.07	421.30
414.26	402.57
414.45	388.53
414.64	447.04
414.83	437.68
415.02	437.68
415.22	430.66
415.41	437.68
415.60	437.68
415.79	407.25
415.98	447.04
416.17	360.44
416.36	444.70
416.55	374.49
416.74	449.38
416.93	425.98
417.12	374.49
417.31	390.87
417.50	390.87
417.69	458.74
417.88	409.59
418.07	428.32
418.26	397.89
418.45	337.04
418.64	400.23
418.83	505.56
419.02	416.62
419.21	440.02
419.39	444.70
419.58	454.06
419.77	454.06
419.96	435.34
420.15	407.25
420.34	421.30
420.53	421.30
420.72	444.70
420.91	418.96
421.10	472.79
421.29	425.98
421.48	421.30
421.67	414.27
421.86	418.96
422.05	425.98
422.24	421.30
422.43	414.27
422.61	409.59
422.80	470.45
422.99	416.62
423.18	353.42
423.37	416.62
423.56	409.59
423.75	433.00
423.94	351.08
424.13	381.51
424.32	390.87
424.50	318.31
424.69	367.46
424.88	402.57
425.07	440.02
425.26	402.57
425.45	409.59
425.64	376.83
425.83	454.06
426.01	461.09
426.20	421.30
426.39	397.89
426.58	397.89
426.77	444.70
426.96	381.51
427.15	482.15
427.33	395.55
427.52	444.70
427.71	407.25
427.90	379.17
428.09	433.00
428.28	372.15
428.46	404.91
428.65	379.17
428.84	376.83
429.03	447.04
429.22	470.45
429.40	414.27
429.59	355.76
429.78	397.89
429.97	456.40
430.16	423.64
430.34	425.98
430.53	414.27
430.72	374.49
430.91	458.74
431.10	425.98
431.28	341.72
431.47	447.04
431.66	421.30
431.85	332.36
432.03	374.49
432.22	425.98
432.41	479.81
432.60	390.87
432.79	383.85
432.97	416.62
433.16	337.04
433.35	475.13
433.54	397.89
433.72	433.00
433.91	332.36
434.10	397.89
434.28	444.70
434.47	369.80
434.66	449.38
434.85	400.23
435.03	379.17
435.22	479.81
435.41	475.13
435.59	440.02
435.78	407.25
435.97	418.96
436.16	386.19
436.34	435.34
436.53	458.74
436.72	465.77
436.90	423.64
437.09	465.77
437.28	428.32
437.46	440.02
437.65	477.47
437.84	353.42
438.02	358.10
438.21	435.34
438.40	442.36
438.58	416.62
438.77	444.70
438.96	470.45
439.14	395.55
439.33	433.00
439.52	388.53
439.70	411.93
439.89	383.85
440.08	404.91
440.26	421.30
440.45	400.23
440.63	397.89
440.82	472.79
441.01	355.76
441.19	400.23
441.38	435.34
441.57	376.83
441.75	423.64
441.94	421.30
442.12	414.27
442.31	376.83
442.50	416.62
442.68	486.83
442.87	404.91
443.05	468.11
443.24	409.59
443.43	332.36
443.61	418.96
443.80	416.62
443.98	461.09
444.17	440.02
444.35	416.62
444.54	374.49
444.73	386.19
444.91	353.42
445.10	393.21
445.28	423.64
445.47	414.27
445.65	388.53
445.84	416.62
446.02	442.36
446.21	451.72
446.39	418.96
446.58	456.40
446.77	416.62
446.95	386.19
447.14	449.38
447.32	416.62
447.51	444.70
447.69	430.66
447.88	456.40
448.06	517.26
448.25	372.15
448.43	433.00
448.62	418.96
448.80	449.38
448.99	400.23
449.17	388.53
449.36	397.89
449.54	498.53
449.73	423.64
449.91	468.11
450.10	449.38
450.28	433.00
450.46	475.13
450.65	489.17
450.83	395.55
451.02	402.57
451.20	430.66
451.39	390.87
451.57	449.38
451.76	414.27
451.94	428.32
452.13	428.32
452.31	449.38
452.49	456.40
452.68	397.89
452.86	486.83
453.05	470.45
453.23	463.43
453.42	353.42
453.60	414.27
453.78	416.62
453.97	465.77
454.15	421.30
454.34	393.21
454.52	411.93
454.70	449.38
454.89	454.06
455.07	428.32
455.26	407.25
455.44	423.64
455.62	383.85
455.81	447.04
455.99	440.02
456.17	416.62
456.36	390.87
456.54	451.72
456.73	437.68
456.91	397.89
457.09	454.06
457.28	447.04
457.46	454.06
457.64	393.21
457.83	390.87
458.01	390.87
458.19	379.17
458.38	374.49
458.56	456.40
458.74	418.96
458.93	451.72
459.11	383.85
459.29	416.62
459.48	470.45
459.66	346.40
459.84	461.09
460.03	545.34
460.21	423.64
460.39	400.23
460.57	458.74
460.76	358.10
460.94	397.89
461.12	390.87
461.31	360.44
461.49	397.89
461.67	409.59
461.85	393.21
462.04	411.93
462.22	744.29
462.40	407.25
462.59	512.58
462.77	449.38
462.95	360.44
463.13	416.62
463.32	400.23
463.50	423.64
463.68	423.64
463.86	465.77
464.05	402.57
464.23	423.64
464.41	449.38
464.59	355.76
464.78	456.40
464.96	482.15
465.14	437.68
465.32	381.51
465.50	416.62
465.69	430.66
465.87	386.19
466.05	369.80
466.23	430.66
466.41	437.68
466.60	451.72
466.78	425.98
466.96	512.58
467.14	402.57
467.32	444.70
467.51	444.70
467.69	454.06
467.87	519.60
468.05	407.25
468.23	456.40
468.41	447.04
468.60	449.38
468.78	477.47
468.96	442.36
469.14	411.93
469.32	503.22
469.50	435.34
469.69	411.93
469.87	433.00
470.05	308.95
470.23	353.42
470.41	428.32
470.59	351.08
470.77	428.32
470.95	374.49
471.14	454.06
471.32	388.53
471.50	440.02
471.68	372.15
471.86	411.93
472.04	374.49
472.22	437.68
472.40	442.36
472.58	400.23
472.77	365.12
472.95	409.59
473.13	461.09
473.31	433.00
473.49	358.10
473.67	402.57
473.85	369.80
474.03	416.62
474.21	374.49
474.39	454.06
474.57	482.15
474.75	416.62
474.93	423.64
475.12	437.68
475.30	470.45
475.48	416.62
475.66	475.13
475.84	379.17
476.02	449.38
476.20	383.85
476.38	397.89
476.56	461.09
476.74	400.23
476.92	390.87
477.10	390.87
477.28	479.81
477.46	425.98
477.64	381.51
477.82	414.27
478.00	423.64
478.18	421.30
478.36	388.53
478.54	437.68
478.72	374.49
478.90	404.91
479.08	388.53
479.26	393.21
479.44	437.68
479.62	402.57
479.80	421.30
479.98	414.27
480.16	493.85
480.34	402.57
480.52	449.38
480.70	407.25
480.88	421.30
481.06	395.55
481.24	449.38
481.41	362.78
481.59	423.64
481.77	409.59
481.95	367.46
482.13	400.23
482.31	470.45
482.49	372.15
482.67	428.32
482.85	386.19
483.03	425.98
483.21	484.49
483.39	409.59
483.57	404.91
483.74	365.12
483.92	440.02
484.10	379.17
484.28	451.72
484.46	437.68
484.64	311.29
484.82	397.89
485.00	418.96
485.18	416.62
485.35	447.04
485.53	421.30
485.71	477.47
485.89	374.49
486.07	369.80
486.25	411.93
486.43	388.53
486.61	395.55
486.78	379.17
486.96	367.46
487.14	444.70
487.32	468.11
487.50	390.87
487.68	388.53
487.85	379.17
488.03	344.06
488.21	503.22
488.39	472.79
488.57	447.04
488.75	388.53
488.92	491.51
489.10	395.55
489.28	468.11
489.46	465.77
489.64	437.68
489.81	416.62
489.99	360.44
490.17	400.23
490.35	402.57
490.53	334.70
490.70	332.36
490.88	407.25
491.06	440.02
491.24	393.21
491.41	456.40
491.59	425.98
491.77	428.32
491.95	400.23
492.13	358.10
492.30	376.83
492.48	421.30
492.66	442.36
492.84	451.72
493.01	433.00
493.19	423.64
493.37	498.53
493.54	418.96
493.72	470.45
493.90	428.32
494.08	475.13
494.25	444.70
494.43	447.04
494.61	388.53
494.79	379.17
494.96	397.89
495.14	376.83
495.32	411.93
495.49	444.70
495.67	407.25
495.85	362.78
496.02	421.30
496.20	395.55
496.38	374.49
496.55	411.93
496.73	404.91
496.91	346.40
497.09	433.00
497.26	362.78
497.44	374.49
497.62	470.45
497.79	491.51
497.97	447.04
498.14	402.57
498.32	360.44
498.50	433.00
498.67	421.30
498.85	425.98
499.03	423.64
499.20	430.66
499.38	374.49
499.56	456.40
499.73	477.47
499.91	435.34
500.08	416.62
500.26	407.25
500.44	449.38
500.61	421.30
500.79	372.15
500.97	433.00
501.14	423.64
501.32	407.25
501.49	500.87
501.67	496.19
501.84	397.89
502.02	390.87
502.20	463.43
502.37	433.00
502.55	482.15
502.72	351.08
502.90	395.55
503.07	498.53
503.25	404.91
503.43	390.87
503.60	369.80
503.78	397.89
503.95	376.83
504.13	397.89
504.30	428.32
504.48	386.19
504.65	418.96
504.83	421.30
505.01	418.96
505.18	423.64
505.36	407.25
505.53	365.12
505.71	421.30
505.88	447.04
506.06	402.57
506.23	477.47
506.41	379.17
506.58	482.15
506.76	470.45
506.93	423.64
507.11	454.06
507.28	383.85
507.46	390.87
507.63	440.02
507.81	458.74
507.98	440.02
508.16	444.70
508.33	388.53
508.50	458.74
508.68	435.34
508.85	381.51
509.03	379.17
509.20	465.77
509.38	395.55
509.55	463.43
509.73	437.68
509.90	423.64
510.08	421.30
510.25	388.53
510.42	367.46
510.60	358.10
510.77	463.43
510.95	454.06
511.12	351.08
511.30	433.00
511.47	423.64
511.64	440.02
511.82	503.22
511.99	360.44
512.17	404.91
512.34	449.38
512.51	407.25
512.69	369.80
512.86	524.28
513.04	411.93
513.21	322.99
513.38	374.49
513.56	374.49
513.73	491.51
513.90	451.72
514.08	381.51
514.25	414.27
514.43	484.49
514.60	376.83
514.77	421.30
514.95	486.83
515.12	390.87
515.29	477.47
515.47	374.49
515.64	444.70
515.81	430.66
515.99	447.04
516.16	374.49
516.33	407.25
516.51	292.57
516.68	397.89
516.85	423.64
517.03	400.23
517.20	428.32
517.37	320.65
517.54	344.06
517.72	449.38
517.89	358.10
518.06	430.66
518.24	479.81
518.41	409.59
518.58	468.11
518.75	376.83
518.93	372.15
519.10	374.49
519.27	404.91
519.45	409.59
519.62	465.77
519.79	437.68
519.96	379.17
520.14	470.45
520.31	418.96
520.48	355.76
520.65	465.77
520.83	421.30
521.00	465.77
521.17	435.34
521.34	430.66
521.52	430.66
521.69	416.62
521.86	442.36
522.03	400.23
522.20	379.17
522.38	379.17
522.55	374.49
522.72	332.36
522.89	393.21
523.07	425.98
523.24	402.57
523.41	456.40
523.58	421.30
523.75	360.44
523.92	479.81
524.10	461.09
524.27	454.06
524.44	437.68
524.61	472.79
524.78	409.59
524.96	449.38
525.13	337.04
525.30	461.09
525.47	472.79
525.64	402.57
525.81	456.40
525.98	409.59
526.16	535.98
526.33	428.32
526.50	411.93
526.67	400.23
526.84	411.93
527.01	407.25
527.18	456.40
527.36	447.04
527.53	411.93
527.70	437.68
527.87	390.87
528.04	465.77
528.21	372.15
528.38	430.66
528.55	407.25
528.72	393.21
528.89	470.45
529.07	430.66
529.24	404.91
529.41	489.17
529.58	381.51
529.75	411.93
529.92	421.30
530.09	423.64
530.26	390.87
530.43	486.83
530.60	362.78
530.77	416.62
530.94	465.77
531.11	484.49
531.28	463.43
531.46	421.30
531.63	407.25
531.80	444.70
531.97	414.27
532.14	456.40
532.31	386.19
532.48	430.66
532.65	430.66
532.82	463.43
532.99	456.40
533.16	404.91
533.33	479.81
533.50	465.77
533.67	351.08
533.84	393.21
534.01	435.34
534.18	353.42
534.35	379.17
534.52	416.62
534.69	437.68
534.86	437.68
535.03	381.51
535.20	456.40
535.37	451.72
535.54	393.21
535.71	355.76
535.88	503.22
536.05	463.43
536.22	451.72
536.38	327.68
536.55	458.74
536.72	411.93
536.89	447.04
537.06	423.64
537.23	421.30
537.40	433.00
537.57	407.25
537.74	493.85
537.91	440.02
538.08	411.93
538.25	449.38
538.42	395.55
538.59	383.85
538.75	461.09
538.92	393.21
539.09	482.15
539.26	395.55
539.43	367.46
539.60	470.45
539.77	353.42
539.94	358.10
540.11	397.89
540.28	411.93
540.44	430.66
540.61	318.31
540.78	330.02
540.95	472.79
541.12	390.87
541.29	388.53
541.46	430.66
541.62	379.17
541.79	416.62
541.96	388.53
542.13	456.40
542.30	397.89
542.47	365.12
542.63	428.32
542.80	442.36
542.97	444.70
543.14	388.53
543.31	374.49
543.48	348.74
543.64	505.56
543.81	458.74
543.98	369.80
544.15	353.42
544.32	458.74
544.48	390.87
544.65	423.64
544.82	407.25
544.99	430.66
545.16	493.85
545.32	454.06
545.49	404.91
545.66	468.11
545.83	360.44
546.00	440.02
546.16	440.02
546.33	425.98
546.50	341.72
546.67	418.96
546.83	423.64
547.00	472.79
547.17	447.04
547.34	411.93
547.50	447.04
547.67	447.04
547.84	404.91
548.00	411.93
548.17	442.36
548.34	468.11
548.51	512.58
548.67	395.55
548.84	393.21
549.01	346.40
549.18	388.53
549.34	463.43
549.51	400.23
549.68	472.79
549.84	418.96
550.01	404.91
550.18	484.49
550.34	468.11
550.51	484.49
550.68	423.64
550.84	374.49
551.01	411.93
551.18	465.77
551.34	491.51
551.51	409.59
551.68	461.09
551.84	437.68
552.01	458.74
552.18	395.55
552.34	393.21
552.51	353.42
552.68	430.66
552.84	416.62
553.01	500.87
553.18	451.72
553.34	449.38
553.51	337.04
553.67	418.96
553.84	402.57
554.01	423.64
554.17	383.85
554.34	362.78
554.51	475.13
554.67	411.93
554.84	456.40
555.00	383.85
555.17	386.19
555.33	449.38
555.50	451.72
555.67	440.02
555.83	402.57
556.00	374.49
556.16	519.60
556.33	440.02
556.50	414.27
556.66	433.00
556.83	475.13
556.99	475.13
557.16	444.70
557.32	393.21
557.49	381.51
557.65	447.04
557.82	395.55
557.98	486.83
558.15	472.79
558.32	418.96
558.48	418.96
558.65	421.30
558.81	411.93
558.98	407.25
559.14	376.83
559.31	470.45
559.47	468.11
559.64	374.49
559.80	418.96
559.97	418.96
560.13	418.96
560.30	383.85
560.46	390.87
560.63	358.10
560.79	425.98
560.96	386.19
561.12	482.15
561.29	369.80
561.45	433.00
561.61	465.77
561.78	524.28
561.94	477.47
562.11	409.59
562.27	395.55
562.44	390.87
562.60	428.32
562.77	407.25
562.93	444.70
563.10	407.25
563.26	337.04
563.42	433.00
563.59	341.72
563.75	400.23
563.92	482.15
564.08	505.56
564.24	484.49
564.41	475.13
564.57	365.12
564.74	428.32
564.90	400.23
565.07	454.06
565.23	397.89
565.39	393.21
565.56	376.83
565.72	397.89
565.88	465.77
566.05	404.91
566.21	411.93
566.38	428.32
566.54	388.53
566.70	428.32
566.87	411.93
567.03	430.66
567.19	362.78
567.36	402.57
567.52	372.15
567.68	451.72
567.85	428.32
568.01	400.23
568.17	362.78
568.34	414.27
568.50	479.81
568.66	444.70
568.83	423.64
568.99	484.49
569.15	442.36
569.32	344.06
569.48	454.06
569.64	437.68
569.81	416.62
569.97	402.57
570.13	543.00
570.30	416.62
570.46	475.13
570.62	454.06
570.78	376.83
570.95	360.44
571.11	456.40
571.27	454.06
571.43	374.49
571.60	423.64
571.76	414.27
571.92	404.91
572.09	449.38
572.25	451.72
572.41	395.55
572.57	449.38
572.74	489.17
572.90	393.21
573.06	395.55
573.22	428.32
573.38	430.66
573.55	346.40
573.71	468.11
573.87	404.91
574.03	409.59
574.20	351.08
574.36	496.19
574.52	440.02
574.68	411.93
574.84	411.93
575.01	435.34
575.17	404.91
575.33	409.59
575.49	470.45
575.65	437.68
575.82	416.62
575.98	411.93
576.14	386.19
576.30	454.06
576.46	463.43
576.62	381.51
576.79	418.96
576.95	447.04
577.11	411.93
577.27	449.38
577.43	489.17
577.59	498.53
577.75	425.98
577.92	404.91
578.08	418.96
578.24	381.51
578.40	367.46
578.56	461.09
578.72	491.51
578.88	472.79
579.04	479.81
579.21	435.34
579.37	411.93
579.53	353.42
579.69	437.68
579.85	390.87
580.01	484.49
580.17	388.53
580.33	461.09
580.49	470.45
580.65	388.53
580.82	381.51
580.98	449.38
581.14	442.36
581.30	451.72
581.46	362.78
581.62	442.36
581.78	351.08
581.94	442.36
582.10	388.53
582.26	421.30
582.42	379.17
582.58	496.19
582.74	444.70
582.90	463.43
583.06	468.11
583.22	458.74
583.38	451.72
583.54	393.21
583.70	538.32
583.86	454.06
584.02	433.00
584.18	486.83
584.34	430.66
584.50	400.23
584.66	416.62
584.82	400.23
584.98	451.72
585.14	395.55
585.30	374.49
585.46	395.55
585.62	411.93
585.78	390.87
585.94	409.59
586.10	407.25
586.26	416.62
586.42	470.45
586.58	447.04
586.74	451.72
586.90	402.57
587.06	404.91
587.22	409.59
587.38	404.91
587.54	416.62
587.70	451.72
587.86	465.77
588.02	477.47
588.18	337.04
588.34	374.49
588.49	411.93
588.65	376.83
588.81	451.72
588.97	447.04
589.13	442.36
589.29	456.40
589.45	472.79
589.61	440.02
589.77	421.30
589.93	451.72
590.08	449.38
590.24	451.72
590.40	449.38
590.56	433.00
590.72	372.15
590.88	411.93
591.04	437.68
591.20	402.57
591.35	463.43
591.51	407.25
591.67	484.49
591.83	351.08
591.99	376.83
592.15	456.40
592.31	416.62
592.46	400.23
592.62	454.06
592.78	381.51
592.94	418.96
593.10	437.68
593.26	393.21
593.41	409.59
593.57	416.62
593.73	418.96
593.89	421.30
594.05	395.55
594.20	440.02
594.36	444.70
594.52	435.34
594.68	386.19
594.84	484.49
594.99	386.19
595.15	475.13
595.31	402.57
595.47	451.72
595.62	402.57
595.78	425.98
595.94	409.59
596.10	486.83
596.25	411.93
596.41	447.04
596.57	433.00
596.73	440.02
596.88	376.83
597.04	388.53
597.20	442.36
597.36	449.38
597.51	397.89
597.67	465.77
597.83	421.30
597.99	400.23
598.14	404.91
598.30	421.30
598.46	395.55
598.61	430.66
598.77	383.85
598.93	409.59
599.09	454.06
599.24	463.43
599.40	470.45
599.56	297.25
599.71	369.80
599.87	353.42
600.03	358.10
600.18	404.91
600.34	458.74
600.50	376.83
600.65	402.57
600.81	407.25
600.97	449.38
601.12	379.17
601.28	383.85
601.44	395.55
601.59	409.59
601.75	437.68
601.91	376.83
602.06	397.89
602.22	507.90
602.37	423.64
602.53	376.83
602.69	458.74
602.84	447.04
603.00	475.13
603.16	421.30
603.31	416.62
603.47	362.78
603.62	477.47
603.78	430.66
603.94	428.32
604.09	463.43
604.25	433.00
604.40	442.36
604.56	421.30
604.71	374.49
604.87	430.66
605.03	430.66
605.18	404.91
605.34	430.66
605.49	428.32
605.65	388.53
605.80	404.91
605.96	348.74
606.12	395.55
606.27	379.17
606.43	449.38
606.58	428.32
606.74	531.30
606.89	421.30
607.05	442.36
607.20	374.49
607.36	472.79
607.51	435.34
607.67	437.68
607.82	416.62
607.98	409.59
608.13	444.70
608.29	334.70
608.44	369.80
608.60	416.62
608.75	465.77
608.91	423.64
609.06	421.30
609.22	442.36
609.37	444.70
609.53	442.36
609.68	409.59
609.84	442.36
609.99	369.80
610.15	414.27
