SpectraSuite Data File
++++++++++++++++++++++++++++++++++++
Date: Fri Oct 25 12:11:21 EDT 2013
User: price-jones
Dark Spectrum Present: No
Reference Spectrum Present: No
Number of Sampled Component Spectra: 1
Spectrometers: USB2+H05261
Integration Time (usec): 100000 (USB2+H05261)
Spectra Averaged: 1 (USB2+H05261)
Boxcar Smoothing: 0 (USB2+H05261)
Correct for Electrical Dark: No (USB2+H05261)
Strobe/Lamp Enabled: No (USB2+H05261)
Correct for Detector Non-linearity: No (USB2+H05261)
Correct for Stray Light: No (USB2+H05261)
Number of Pixels in Processed Spectrum: 2048
>>>>>Begin Processed Spectral Data<<<<<
365.73	299.59
365.92	299.59
366.12	299.59
366.32	299.59
366.52	236.39
366.72	271.50
366.91	198.95
367.11	264.48
367.31	241.08
367.51	166.18
367.70	297.25
367.90	259.80
368.10	166.18
368.30	313.63
368.49	238.73
368.69	210.65
368.89	243.42
369.09	318.31
369.28	280.86
369.48	215.33
369.68	280.86
369.87	318.31
370.07	348.74
370.27	327.68
370.47	327.68
370.66	341.72
370.86	449.38
371.06	327.68
371.25	358.10
371.45	362.78
371.65	325.33
371.84	341.72
372.04	379.17
372.24	397.89
372.44	395.55
372.63	411.93
372.83	372.15
373.03	433.00
373.22	362.78
373.42	353.42
373.62	416.62
373.81	472.79
374.01	463.43
374.21	395.55
374.40	425.98
374.60	442.36
374.79	447.04
374.99	461.09
375.19	320.65
375.38	411.93
375.58	425.98
375.78	437.68
375.97	395.55
376.17	500.87
376.37	411.93
376.56	428.32
376.76	449.38
376.95	299.59
377.15	367.46
377.35	383.85
377.54	456.40
377.74	447.04
377.93	383.85
378.13	404.91
378.33	458.74
378.52	437.68
378.72	458.74
378.91	407.25
379.11	379.17
379.31	337.04
379.50	475.13
379.70	493.85
379.89	418.96
380.09	418.96
380.28	421.30
380.48	346.40
380.68	390.87
380.87	383.85
381.07	404.91
381.26	393.21
381.46	374.49
381.65	353.42
381.85	458.74
382.04	332.36
382.24	397.89
382.43	390.87
382.63	428.32
382.83	390.87
383.02	430.66
383.22	381.51
383.41	447.04
383.61	454.06
383.80	418.96
384.00	407.25
384.19	332.36
384.39	402.57
384.58	430.66
384.78	395.55
384.97	440.02
385.17	379.17
385.36	425.98
385.56	442.36
385.75	414.27
385.95	430.66
386.14	465.77
386.34	397.89
386.53	418.96
386.72	498.53
386.92	442.36
387.11	440.02
387.31	449.38
387.50	414.27
387.70	402.57
387.89	393.21
388.09	393.21
388.28	334.70
388.48	414.27
388.67	425.98
388.86	409.59
389.06	425.98
389.25	358.10
389.45	404.91
389.64	447.04
389.84	400.23
390.03	365.12
390.22	421.30
390.42	437.68
390.61	479.81
390.81	407.25
391.00	465.77
391.19	451.72
391.39	442.36
391.58	358.10
391.78	372.15
391.97	390.87
392.16	442.36
392.36	489.17
392.55	454.06
392.75	463.43
392.94	337.04
393.13	451.72
393.33	379.17
393.52	369.80
393.71	430.66
393.91	390.87
394.10	383.85
394.29	395.55
394.49	381.51
394.68	468.11
394.88	458.74
395.07	344.06
395.26	442.36
395.46	442.36
395.65	362.78
395.84	477.47
396.04	465.77
396.23	381.51
396.42	430.66
396.62	451.72
396.81	428.32
397.00	409.59
397.19	379.17
397.39	407.25
397.58	409.59
397.77	447.04
397.97	435.34
398.16	423.64
398.35	409.59
398.55	416.62
398.74	407.25
398.93	414.27
399.12	365.12
399.32	374.49
399.51	341.72
399.70	404.91
399.90	334.70
400.09	337.04
400.28	430.66
400.47	421.30
400.67	390.87
400.86	416.62
401.05	351.08
401.24	425.98
401.44	451.72
401.63	393.21
401.82	435.34
402.01	374.49
402.21	433.00
402.40	421.30
402.59	390.87
402.78	407.25
402.97	346.40
403.17	395.55
403.36	440.02
403.55	379.17
403.74	440.02
403.93	440.02
404.13	451.72
404.32	447.04
404.51	374.49
404.70	458.74
404.89	390.87
405.09	451.72
405.28	414.27
405.47	433.00
405.66	395.55
405.85	468.11
406.05	330.02
406.24	477.47
406.43	414.27
406.62	423.64
406.81	440.02
407.00	362.78
407.20	458.74
407.39	458.74
407.58	442.36
407.77	400.23
407.96	400.23
408.15	367.46
408.34	414.27
408.54	409.59
408.73	383.85
408.92	416.62
409.11	372.15
409.30	489.17
409.49	400.23
409.68	444.70
409.87	339.38
410.07	318.31
410.26	388.53
410.45	407.25
410.64	454.06
410.83	395.55
411.02	447.04
411.21	358.10
411.40	381.51
411.59	461.09
411.78	470.45
411.98	475.13
412.17	440.02
412.36	416.62
412.55	383.85
412.74	404.91
412.93	397.89
413.12	489.17
413.31	440.02
413.50	369.80
413.69	390.87
413.88	402.57
414.07	358.10
414.26	383.85
414.45	332.36
414.64	379.17
414.83	372.15
415.02	407.25
415.22	433.00
415.41	486.83
415.60	379.17
415.79	374.49
415.98	374.49
416.17	407.25
416.36	360.44
416.55	451.72
416.74	430.66
416.93	433.00
417.12	348.74
417.31	395.55
417.50	423.64
417.69	451.72
417.88	444.70
418.07	393.21
418.26	433.00
418.45	346.40
418.64	468.11
418.83	430.66
419.02	454.06
419.21	433.00
419.39	388.53
419.58	346.40
419.77	362.78
419.96	472.79
420.15	414.27
420.34	388.53
420.53	353.42
420.72	425.98
420.91	423.64
421.10	360.44
421.29	386.19
421.48	379.17
421.67	451.72
421.86	437.68
422.05	468.11
422.24	418.96
422.43	458.74
422.61	346.40
422.80	374.49
422.99	449.38
423.18	388.53
423.37	437.68
423.56	411.93
423.75	451.72
423.94	397.89
424.13	463.43
424.32	411.93
424.50	458.74
424.69	447.04
424.88	402.57
425.07	393.21
425.26	447.04
425.45	404.91
425.64	428.32
425.83	407.25
426.01	381.51
426.20	397.89
426.39	440.02
426.58	423.64
426.77	367.46
426.96	407.25
427.15	425.98
427.33	379.17
427.52	395.55
427.71	397.89
427.90	449.38
428.09	407.25
428.28	390.87
428.46	468.11
428.65	393.21
428.84	393.21
429.03	486.83
429.22	421.30
429.40	313.63
429.59	444.70
429.78	454.06
429.97	379.17
430.16	390.87
430.34	376.83
430.53	435.34
430.72	482.15
430.91	383.85
431.10	395.55
431.28	362.78
431.47	411.93
431.66	374.49
431.85	449.38
432.03	386.19
432.22	451.72
432.41	451.72
432.60	416.62
432.79	360.44
432.97	362.78
433.16	376.83
433.35	437.68
433.54	416.62
433.72	421.30
433.91	444.70
434.10	411.93
434.28	400.23
434.47	390.87
434.66	402.57
434.85	393.21
435.03	442.36
435.22	503.22
435.41	491.51
435.59	519.60
435.78	418.96
435.97	334.70
436.16	407.25
436.34	430.66
436.53	320.65
436.72	393.21
436.90	458.74
437.09	447.04
437.28	365.12
437.46	404.91
437.65	461.09
437.84	400.23
438.02	428.32
438.21	433.00
438.40	393.21
438.58	381.51
438.77	428.32
438.96	390.87
439.14	318.31
439.33	397.89
439.52	416.62
439.70	442.36
439.89	463.43
440.08	409.59
440.26	456.40
440.45	397.89
440.63	395.55
440.82	404.91
441.01	409.59
441.19	433.00
441.38	435.34
441.57	421.30
441.75	411.93
441.94	416.62
442.12	409.59
442.31	444.70
442.50	367.46
442.68	409.59
442.87	461.09
443.05	451.72
443.24	360.44
443.43	381.51
443.61	423.64
443.80	421.30
443.98	388.53
444.17	435.34
444.35	386.19
444.54	402.57
444.73	404.91
444.91	433.00
445.10	397.89
445.28	339.38
445.47	414.27
445.65	458.74
445.84	451.72
446.02	430.66
446.21	461.09
446.39	353.42
446.58	381.51
446.77	374.49
446.95	381.51
447.14	454.06
447.32	365.12
447.51	451.72
447.69	437.68
447.88	447.04
448.06	503.22
448.25	437.68
448.43	404.91
448.62	465.77
448.80	484.49
448.99	397.89
449.17	416.62
449.36	442.36
449.54	470.45
449.73	383.85
449.91	428.32
450.10	365.12
450.28	449.38
450.46	351.08
450.65	409.59
450.83	428.32
451.02	440.02
451.20	418.96
451.39	400.23
451.57	418.96
451.76	355.76
451.94	547.69
452.13	360.44
452.31	468.11
452.49	454.06
452.68	402.57
452.86	423.64
453.05	423.64
453.23	435.34
453.42	421.30
453.60	461.09
453.78	440.02
453.97	447.04
454.15	397.89
454.34	376.83
454.52	409.59
454.70	411.93
454.89	447.04
455.07	433.00
455.26	397.89
455.44	381.51
455.62	451.72
455.81	388.53
455.99	454.06
456.17	433.00
456.36	400.23
456.54	404.91
456.73	454.06
456.91	386.19
457.09	440.02
457.28	477.47
457.46	404.91
457.64	442.36
457.83	458.74
458.01	397.89
458.19	472.79
458.38	418.96
458.56	456.40
458.74	362.78
458.93	409.59
459.11	388.53
459.29	461.09
459.48	404.91
459.66	407.25
459.84	414.27
460.03	503.22
460.21	451.72
460.39	444.70
460.57	435.34
460.76	449.38
460.94	395.55
461.12	407.25
461.31	472.79
461.49	437.68
461.67	374.49
461.85	353.42
462.04	458.74
462.22	826.21
462.40	430.66
462.59	423.64
462.77	430.66
462.95	393.21
463.13	421.30
463.32	433.00
463.50	418.96
463.68	447.04
463.86	454.06
464.05	330.02
464.23	425.98
464.41	390.87
464.59	358.10
464.78	397.89
464.96	430.66
465.14	416.62
465.32	425.98
465.50	465.77
465.69	456.40
465.87	393.21
466.05	463.43
466.23	418.96
466.41	472.79
466.60	386.19
466.78	404.91
466.96	388.53
467.14	447.04
467.32	482.15
467.51	428.32
467.69	390.87
467.87	386.19
468.05	428.32
468.23	491.51
468.41	435.34
468.60	351.08
468.78	393.21
468.96	454.06
469.14	344.06
469.32	376.83
469.50	402.57
469.69	416.62
469.87	447.04
470.05	386.19
470.23	425.98
470.41	414.27
470.59	381.51
470.77	393.21
470.95	369.80
471.14	379.17
471.32	341.72
471.50	458.74
471.68	388.53
471.86	484.49
472.04	393.21
472.22	425.98
472.40	381.51
472.58	362.78
472.77	447.04
472.95	330.02
473.13	339.38
473.31	444.70
473.49	437.68
473.67	400.23
473.85	411.93
474.03	503.22
474.21	416.62
474.39	379.17
474.57	416.62
474.75	447.04
474.93	407.25
475.12	402.57
475.30	379.17
475.48	337.04
475.66	425.98
475.84	404.91
476.02	383.85
476.20	376.83
476.38	421.30
476.56	447.04
476.74	404.91
476.92	407.25
477.10	386.19
477.28	362.78
477.46	383.85
477.64	381.51
477.82	416.62
478.00	430.66
478.18	430.66
478.36	400.23
478.54	440.02
478.72	379.17
478.90	353.42
479.08	379.17
479.26	423.64
479.44	379.17
479.62	435.34
479.80	435.34
479.98	428.32
480.16	407.25
480.34	430.66
480.52	362.78
480.70	395.55
480.88	418.96
481.06	395.55
481.24	360.44
481.41	344.06
481.59	428.32
481.77	409.59
481.95	454.06
482.13	470.45
482.31	416.62
482.49	404.91
482.67	351.08
482.85	425.98
483.03	372.15
483.21	484.49
483.39	402.57
483.57	451.72
483.74	437.68
483.92	393.21
484.10	393.21
484.28	386.19
484.46	491.51
484.64	337.04
484.82	470.45
485.00	388.53
485.18	376.83
485.35	451.72
485.53	442.36
485.71	397.89
485.89	348.74
486.07	381.51
486.25	388.53
486.43	393.21
486.61	444.70
486.78	425.98
486.96	416.62
487.14	362.78
487.32	425.98
487.50	404.91
487.68	433.00
487.85	416.62
488.03	451.72
488.21	475.13
488.39	407.25
488.57	425.98
488.75	428.32
488.92	430.66
489.10	479.81
489.28	458.74
489.46	444.70
489.64	423.64
489.81	374.49
489.99	449.38
490.17	339.38
490.35	444.70
490.53	423.64
490.70	416.62
490.88	344.06
491.06	383.85
491.24	421.30
491.41	430.66
491.59	423.64
491.77	353.42
491.95	388.53
492.13	407.25
492.30	416.62
492.48	390.87
492.66	402.57
492.84	437.68
493.01	454.06
493.19	409.59
493.37	461.09
493.54	386.19
493.72	491.51
493.90	421.30
494.08	421.30
494.25	360.44
494.43	425.98
494.61	395.55
494.79	404.91
494.96	362.78
495.14	409.59
495.32	428.32
495.49	451.72
495.67	468.11
495.85	421.30
496.02	477.47
496.20	421.30
496.38	486.83
496.55	423.64
496.73	397.89
496.91	362.78
497.09	470.45
497.26	369.80
497.44	383.85
497.62	454.06
497.79	442.36
497.97	447.04
498.14	395.55
498.32	449.38
498.50	435.34
498.67	372.15
498.85	355.76
499.03	416.62
499.20	423.64
499.38	416.62
499.56	407.25
499.73	475.13
499.91	507.90
500.08	484.49
500.26	440.02
500.44	411.93
500.61	397.89
500.79	442.36
500.97	425.98
501.14	444.70
501.32	442.36
501.49	456.40
501.67	365.12
501.84	447.04
502.02	346.40
502.20	472.79
502.37	433.00
502.55	442.36
502.72	397.89
502.90	451.72
503.07	463.43
503.25	386.19
503.43	395.55
503.60	428.32
503.78	418.96
503.95	383.85
504.13	407.25
504.30	383.85
504.48	447.04
504.65	449.38
504.83	496.19
505.01	463.43
505.18	397.89
505.36	425.98
505.53	463.43
505.71	458.74
505.88	423.64
506.06	461.09
506.23	383.85
506.41	482.15
506.58	376.83
506.76	411.93
506.93	341.72
507.11	346.40
507.28	454.06
507.46	423.64
507.63	461.09
507.81	409.59
507.98	381.51
508.16	444.70
508.33	381.51
508.50	411.93
508.68	411.93
508.85	416.62
509.03	341.72
509.20	308.95
509.38	400.23
509.55	416.62
509.73	456.40
509.90	425.98
510.08	418.96
510.25	479.81
510.42	402.57
510.60	428.32
510.77	463.43
510.95	407.25
511.12	433.00
511.30	423.64
511.47	402.57
511.64	402.57
511.82	381.51
511.99	482.15
512.17	362.78
512.34	381.51
512.51	428.32
512.69	421.30
512.86	430.66
513.04	404.91
513.21	470.45
513.38	407.25
513.56	421.30
513.73	418.96
513.90	390.87
514.08	390.87
514.25	393.21
514.43	402.57
514.60	372.15
514.77	395.55
514.95	479.81
515.12	351.08
515.29	468.11
515.47	390.87
515.64	409.59
515.81	454.06
515.99	404.91
516.16	425.98
516.33	465.77
516.51	414.27
516.68	425.98
516.85	351.08
517.03	409.59
517.20	362.78
517.37	402.57
517.54	411.93
517.72	428.32
517.89	433.00
518.06	454.06
518.24	407.25
518.41	479.81
518.58	454.06
518.75	344.06
518.93	390.87
519.10	468.11
519.27	423.64
519.45	386.19
519.62	390.87
519.79	440.02
519.96	456.40
520.14	465.77
520.31	416.62
520.48	440.02
520.65	430.66
520.83	397.89
521.00	435.34
521.17	381.51
521.34	442.36
521.52	423.64
521.69	475.13
521.86	451.72
522.03	442.36
522.20	400.23
522.38	418.96
522.55	400.23
522.72	376.83
522.89	388.53
523.07	440.02
523.24	416.62
523.41	440.02
523.58	383.85
523.75	353.42
523.92	402.57
524.10	421.30
524.27	425.98
524.44	411.93
524.61	430.66
524.78	360.44
524.96	435.34
525.13	484.49
525.30	475.13
525.47	435.34
525.64	437.68
525.81	416.62
525.98	482.15
526.16	423.64
526.33	397.89
526.50	421.30
526.67	423.64
526.84	386.19
527.01	383.85
527.18	430.66
527.36	517.26
527.53	383.85
527.70	449.38
527.87	388.53
528.04	418.96
528.21	428.32
528.38	353.42
528.55	376.83
528.72	449.38
528.89	388.53
529.07	348.74
529.24	374.49
529.41	505.56
529.58	442.36
529.75	393.21
529.92	493.85
530.09	435.34
530.26	433.00
530.43	433.00
530.60	454.06
530.77	465.77
530.94	374.49
531.11	440.02
531.28	348.74
531.46	367.46
531.63	393.21
531.80	454.06
531.97	334.70
532.14	414.27
532.31	437.68
532.48	482.15
532.65	454.06
532.82	470.45
532.99	369.80
533.16	444.70
533.33	407.25
533.50	454.06
533.67	430.66
533.84	367.46
534.01	390.87
534.18	433.00
534.35	404.91
534.52	418.96
534.69	507.90
534.86	416.62
535.03	344.06
535.20	388.53
535.37	390.87
535.54	479.81
535.71	411.93
535.88	454.06
536.05	400.23
536.22	442.36
536.38	461.09
536.55	430.66
536.72	388.53
536.89	451.72
537.06	437.68
537.23	407.25
537.40	425.98
537.57	346.40
537.74	423.64
537.91	461.09
538.08	409.59
538.25	313.63
538.42	367.46
538.59	379.17
538.75	472.79
538.92	411.93
539.09	456.40
539.26	381.51
539.43	444.70
539.60	442.36
539.77	421.30
539.94	409.59
540.11	423.64
540.28	390.87
540.44	479.81
540.61	444.70
540.78	421.30
540.95	440.02
541.12	428.32
541.29	496.19
541.46	477.47
541.62	442.36
541.79	425.98
541.96	395.55
542.13	470.45
542.30	313.63
542.47	411.93
542.63	407.25
542.80	414.27
542.97	491.51
543.14	430.66
543.31	428.32
543.48	437.68
543.64	440.02
543.81	411.93
543.98	386.19
544.15	374.49
544.32	390.87
544.48	362.78
544.65	428.32
544.82	390.87
544.99	404.91
545.16	376.83
545.32	489.17
545.49	461.09
545.66	454.06
545.83	390.87
546.00	388.53
546.16	360.44
546.33	383.85
546.50	468.11
546.67	477.47
546.83	433.00
547.00	463.43
547.17	372.15
547.34	411.93
547.50	315.97
547.67	386.19
547.84	463.43
548.00	437.68
548.17	365.12
548.34	355.76
548.51	414.27
548.67	477.47
548.84	358.10
549.01	435.34
549.18	482.15
549.34	402.57
549.51	447.04
549.68	486.83
549.84	447.04
550.01	444.70
550.18	505.56
550.34	526.62
550.51	435.34
550.68	339.38
550.84	409.59
551.01	423.64
551.18	468.11
551.34	341.72
551.51	418.96
551.68	435.34
551.84	433.00
552.01	358.10
552.18	383.85
552.34	374.49
552.51	409.59
552.68	425.98
552.84	510.24
553.01	423.64
553.18	386.19
553.34	440.02
553.51	407.25
553.67	477.47
553.84	430.66
554.01	409.59
554.17	440.02
554.34	430.66
554.51	447.04
554.67	456.40
554.84	472.79
555.00	390.87
555.17	404.91
555.33	433.00
555.50	440.02
555.67	379.17
555.83	369.80
556.00	461.09
556.16	552.37
556.33	454.06
556.50	358.10
556.66	428.32
556.83	397.89
556.99	348.74
557.16	433.00
557.32	437.68
557.49	400.23
557.65	407.25
557.82	435.34
557.98	423.64
558.15	402.57
558.32	428.32
558.48	440.02
558.65	447.04
558.81	458.74
558.98	393.21
559.14	447.04
559.31	402.57
559.47	409.59
559.64	425.98
559.80	521.94
559.97	395.55
560.13	416.62
560.30	341.72
560.46	433.00
560.63	365.12
560.79	409.59
560.96	428.32
561.12	498.53
561.29	458.74
561.45	369.80
561.61	451.72
561.78	514.92
561.94	507.90
562.11	463.43
562.27	407.25
562.44	390.87
562.60	393.21
562.77	430.66
562.93	421.30
563.10	444.70
563.26	400.23
563.42	423.64
563.59	411.93
563.75	449.38
563.92	440.02
564.08	456.40
564.24	491.51
564.41	435.34
564.57	367.46
564.74	428.32
564.90	407.25
565.07	400.23
565.23	477.47
565.39	376.83
565.56	423.64
565.72	372.15
565.88	423.64
566.05	374.49
566.21	440.02
566.38	423.64
566.54	351.08
566.70	414.27
566.87	428.32
567.03	388.53
567.19	503.22
567.36	376.83
567.52	397.89
567.68	456.40
567.85	409.59
568.01	433.00
568.17	362.78
568.34	433.00
568.50	463.43
568.66	407.25
568.83	428.32
568.99	472.79
569.15	411.93
569.32	440.02
569.48	430.66
569.64	400.23
569.81	393.21
569.97	390.87
570.13	369.80
570.30	341.72
570.46	388.53
570.62	437.68
570.78	461.09
570.95	423.64
571.11	440.02
571.27	461.09
571.43	327.68
571.60	397.89
571.76	404.91
571.92	425.98
572.09	442.36
572.25	404.91
572.41	353.42
572.57	390.87
572.74	491.51
572.90	409.59
573.06	440.02
573.22	404.91
573.38	418.96
573.55	519.60
573.71	465.77
573.87	404.91
574.03	430.66
574.20	449.38
574.36	451.72
574.52	416.62
574.68	425.98
574.84	383.85
575.01	442.36
575.17	386.19
575.33	402.57
575.49	463.43
575.65	475.13
575.82	468.11
575.98	404.91
576.14	407.25
576.30	414.27
576.46	463.43
576.62	463.43
576.79	374.49
576.95	362.78
577.11	435.34
577.27	407.25
577.43	442.36
577.59	447.04
577.75	442.36
577.92	447.04
578.08	344.06
578.24	407.25
578.40	486.83
578.56	456.40
578.72	421.30
578.88	414.27
579.04	400.23
579.21	456.40
579.37	416.62
579.53	390.87
579.69	489.17
579.85	379.17
580.01	435.34
580.17	374.49
580.33	435.34
580.49	404.91
580.65	393.21
580.82	402.57
580.98	381.51
581.14	447.04
581.30	465.77
581.46	451.72
581.62	395.55
581.78	454.06
581.94	369.80
582.10	362.78
582.26	425.98
582.42	442.36
582.58	451.72
582.74	479.81
582.90	437.68
583.06	416.62
583.22	393.21
583.38	440.02
583.54	437.68
583.70	447.04
583.86	477.47
584.02	379.17
584.18	425.98
584.34	475.13
584.50	381.51
584.66	344.06
584.82	435.34
584.98	463.43
585.14	444.70
585.30	416.62
585.46	365.12
585.62	447.04
585.78	435.34
585.94	451.72
586.10	421.30
586.26	395.55
586.42	409.59
586.58	461.09
586.74	355.76
586.90	402.57
587.06	418.96
587.22	374.49
587.38	442.36
587.54	430.66
587.70	451.72
587.86	440.02
588.02	348.74
588.18	388.53
588.34	465.77
588.49	395.55
588.65	402.57
588.81	386.19
588.97	372.15
589.13	393.21
589.29	395.55
589.45	491.51
589.61	425.98
589.77	440.02
589.93	299.59
590.08	465.77
590.24	402.57
590.40	437.68
590.56	404.91
590.72	404.91
590.88	358.10
591.04	433.00
591.20	454.06
591.35	484.49
591.51	383.85
591.67	404.91
591.83	402.57
591.99	449.38
592.15	320.65
592.31	416.62
592.46	409.59
592.62	498.53
592.78	397.89
592.94	400.23
593.10	376.83
593.26	400.23
593.41	423.64
593.57	435.34
593.73	379.17
593.89	451.72
594.05	496.19
594.20	468.11
594.36	395.55
594.52	400.23
594.68	346.40
594.84	484.49
594.99	409.59
595.15	388.53
595.31	449.38
595.47	442.36
595.62	397.89
595.78	358.10
595.94	358.10
596.10	449.38
596.25	372.15
596.41	362.78
596.57	393.21
596.73	411.93
596.88	449.38
597.04	402.57
597.20	482.15
597.36	454.06
597.51	393.21
597.67	440.02
597.83	400.23
597.99	486.83
598.14	423.64
598.30	447.04
598.46	458.74
598.61	447.04
598.77	418.96
598.93	437.68
599.09	388.53
599.24	372.15
599.40	421.30
599.56	395.55
599.71	407.25
599.87	421.30
600.03	437.68
600.18	447.04
600.34	447.04
600.50	454.06
600.65	381.51
600.81	407.25
600.97	388.53
601.12	388.53
601.28	393.21
601.44	449.38
601.59	416.62
601.75	383.85
601.91	407.25
602.06	461.09
602.22	470.45
602.37	437.68
602.53	433.00
602.69	444.70
602.84	433.00
603.00	517.26
603.16	503.22
603.31	503.22
603.47	528.96
603.62	379.17
603.78	383.85
603.94	428.32
604.09	362.78
604.25	379.17
604.40	407.25
604.56	447.04
604.71	425.98
604.87	379.17
605.03	416.62
605.18	451.72
605.34	475.13
605.49	376.83
605.65	411.93
605.80	369.80
605.96	390.87
606.12	442.36
606.27	414.27
606.43	362.78
606.58	330.02
606.74	430.66
606.89	383.85
607.05	414.27
607.20	313.63
607.36	397.89
607.51	346.40
607.67	411.93
607.82	468.11
607.98	402.57
608.13	400.23
608.29	376.83
608.44	477.47
608.60	449.38
608.75	470.45
608.91	421.30
609.06	514.92
609.22	475.13
609.37	430.66
609.53	425.98
609.68	379.17
609.84	409.59
609.99	409.59
610.15	454.06
