SpectraSuite Data File
++++++++++++++++++++++++++++++++++++
Date: Fri Oct 25 12:11:39 EDT 2013
User: price-jones
Dark Spectrum Present: No
Reference Spectrum Present: No
Number of Sampled Component Spectra: 1
Spectrometers: USB2+H05261
Integration Time (usec): 100000 (USB2+H05261)
Spectra Averaged: 1 (USB2+H05261)
Boxcar Smoothing: 0 (USB2+H05261)
Correct for Electrical Dark: No (USB2+H05261)
Strobe/Lamp Enabled: No (USB2+H05261)
Correct for Detector Non-linearity: No (USB2+H05261)
Correct for Stray Light: No (USB2+H05261)
Number of Pixels in Processed Spectrum: 2048
>>>>>Begin Processed Spectral Data<<<<<
365.73	325.33
365.92	325.33
366.12	325.33
366.32	208.31
366.52	292.57
366.72	292.57
366.91	163.84
367.11	222.35
367.31	212.99
367.51	229.37
367.70	208.31
367.90	283.20
368.10	255.12
368.30	184.90
368.49	217.67
368.69	259.80
368.89	306.61
369.09	252.78
369.28	269.16
369.48	397.89
369.68	297.25
369.87	311.29
370.07	320.65
370.27	332.36
370.47	351.08
370.66	332.36
370.86	416.62
371.06	344.06
371.25	421.30
371.45	306.61
371.65	339.38
371.84	379.17
372.04	362.78
372.24	444.70
372.44	404.91
372.63	395.55
372.83	472.79
373.03	346.40
373.22	379.17
373.42	381.51
373.62	362.78
373.81	482.15
374.01	437.68
374.21	442.36
374.40	433.00
374.60	538.32
374.79	449.38
374.99	416.62
375.19	444.70
375.38	379.17
375.58	346.40
375.78	388.53
375.97	411.93
376.17	435.34
376.37	355.76
376.56	423.64
376.76	304.27
376.95	351.08
377.15	390.87
377.35	482.15
377.54	395.55
377.74	386.19
377.93	407.25
378.13	395.55
378.33	482.15
378.52	367.46
378.72	358.10
378.91	379.17
379.11	430.66
379.31	280.86
379.50	330.02
379.70	381.51
379.89	376.83
380.09	423.64
380.28	507.90
380.48	400.23
380.68	337.04
380.87	381.51
381.07	444.70
381.26	418.96
381.46	411.93
381.65	362.78
381.85	348.74
382.04	411.93
382.24	505.56
382.43	409.59
382.63	442.36
382.83	322.99
383.02	468.11
383.22	360.44
383.41	362.78
383.61	362.78
383.80	402.57
384.00	355.76
384.19	367.46
384.39	416.62
384.58	353.42
384.78	456.40
384.97	491.51
385.17	400.23
385.36	393.21
385.56	447.04
385.75	430.66
385.95	454.06
386.14	418.96
386.34	463.43
386.53	435.34
386.72	388.53
386.92	414.27
387.11	425.98
387.31	365.12
387.50	327.68
387.70	395.55
387.89	433.00
388.09	351.08
388.28	358.10
388.48	332.36
388.67	428.32
388.86	463.43
389.06	388.53
389.25	358.10
389.45	358.10
389.64	416.62
389.84	416.62
390.03	353.42
390.22	390.87
390.42	351.08
390.61	416.62
390.81	386.19
391.00	425.98
391.19	400.23
391.39	402.57
391.58	395.55
391.78	358.10
391.97	414.27
392.16	465.77
392.36	393.21
392.55	400.23
392.75	404.91
392.94	491.51
393.13	486.83
393.33	437.68
393.52	383.85
393.71	369.80
393.91	390.87
394.10	322.99
394.29	369.80
394.49	407.25
394.68	395.55
394.88	440.02
395.07	376.83
395.26	433.00
395.46	428.32
395.65	433.00
395.84	447.04
396.04	528.96
396.23	341.72
396.42	400.23
396.62	421.30
396.81	381.51
397.00	414.27
397.19	451.72
397.39	442.36
397.58	421.30
397.77	409.59
397.97	339.38
398.16	421.30
398.35	430.66
398.55	437.68
398.74	407.25
398.93	386.19
399.12	339.38
399.32	447.04
399.51	369.80
399.70	425.98
399.90	383.85
400.09	411.93
400.28	472.79
400.47	414.27
400.67	390.87
400.86	400.23
401.05	498.53
401.24	381.51
401.44	337.04
401.63	468.11
401.82	409.59
402.01	449.38
402.21	425.98
402.40	334.70
402.59	414.27
402.78	414.27
402.97	447.04
403.17	456.40
403.36	407.25
403.55	421.30
403.74	374.49
403.93	376.83
404.13	486.83
404.32	433.00
404.51	433.00
404.70	498.53
404.89	402.57
405.09	379.17
405.28	362.78
405.47	418.96
405.66	402.57
405.85	489.17
406.05	334.70
406.24	433.00
406.43	447.04
406.62	442.36
406.81	400.23
407.00	386.19
407.20	381.51
407.39	379.17
407.58	372.15
407.77	447.04
407.96	425.98
408.15	458.74
408.34	367.46
408.54	454.06
408.73	407.25
408.92	358.10
409.11	341.72
409.30	341.72
409.49	414.27
409.68	416.62
409.87	435.34
410.07	451.72
410.26	374.49
410.45	362.78
410.64	372.15
410.83	367.46
411.02	351.08
411.21	395.55
411.40	482.15
411.59	379.17
411.78	409.59
411.98	428.32
412.17	421.30
412.36	369.80
412.55	402.57
412.74	531.30
412.93	414.27
413.12	437.68
413.31	461.09
413.50	393.21
413.69	435.34
413.88	442.36
414.07	458.74
414.26	451.72
414.45	418.96
414.64	383.85
414.83	374.49
415.02	430.66
415.22	397.89
415.41	404.91
415.60	353.42
415.79	428.32
415.98	433.00
416.17	395.55
416.36	374.49
416.55	353.42
416.74	496.19
416.93	421.30
417.12	440.02
417.31	458.74
417.50	428.32
417.69	458.74
417.88	433.00
418.07	435.34
418.26	402.57
418.45	355.76
418.64	442.36
418.83	479.81
419.02	440.02
419.21	374.49
419.39	376.83
419.58	390.87
419.77	360.44
419.96	458.74
420.15	418.96
420.34	388.53
420.53	440.02
420.72	461.09
420.91	428.32
421.10	430.66
421.29	386.19
421.48	402.57
421.67	428.32
421.86	383.85
422.05	353.42
422.24	454.06
422.43	395.55
422.61	442.36
422.80	411.93
422.99	407.25
423.18	465.77
423.37	395.55
423.56	407.25
423.75	430.66
423.94	390.87
424.13	428.32
424.32	402.57
424.50	428.32
424.69	442.36
424.88	449.38
425.07	395.55
425.26	407.25
425.45	449.38
425.64	376.83
425.83	409.59
426.01	435.34
426.20	449.38
426.39	486.83
426.58	458.74
426.77	416.62
426.96	461.09
427.15	369.80
427.33	369.80
427.52	407.25
427.71	479.81
427.90	400.23
428.09	411.93
428.28	470.45
428.46	369.80
428.65	395.55
428.84	423.64
429.03	524.28
429.22	407.25
429.40	414.27
429.59	416.62
429.78	451.72
429.97	393.21
430.16	430.66
430.34	339.38
430.53	409.59
430.72	402.57
430.91	414.27
431.10	435.34
431.28	374.49
431.47	470.45
431.66	430.66
431.85	334.70
432.03	395.55
432.22	435.34
432.41	423.64
432.60	433.00
432.79	404.91
432.97	451.72
433.16	355.76
433.35	395.55
433.54	454.06
433.72	442.36
433.91	423.64
434.10	395.55
434.28	388.53
434.47	390.87
434.66	435.34
434.85	477.47
435.03	425.98
435.22	440.02
435.41	421.30
435.59	381.51
435.78	379.17
435.97	447.04
436.16	393.21
436.34	421.30
436.53	376.83
436.72	461.09
436.90	470.45
437.09	397.89
437.28	430.66
437.46	411.93
437.65	402.57
437.84	421.30
438.02	418.96
438.21	447.04
438.40	470.45
438.58	397.89
438.77	376.83
438.96	353.42
439.14	355.76
439.33	414.27
439.52	498.53
439.70	475.13
439.89	433.00
440.08	458.74
440.26	383.85
440.45	458.74
440.63	416.62
440.82	411.93
441.01	411.93
441.19	388.53
441.38	369.80
441.57	435.34
441.75	404.91
441.94	407.25
442.12	386.19
442.31	346.40
442.50	411.93
442.68	425.98
442.87	425.98
443.05	444.70
443.24	381.51
443.43	362.78
443.61	435.34
443.80	404.91
443.98	362.78
444.17	475.13
444.35	362.78
444.54	430.66
444.73	369.80
444.91	442.36
445.10	402.57
445.28	353.42
445.47	498.53
445.65	449.38
445.84	416.62
446.02	428.32
446.21	379.17
446.39	395.55
446.58	423.64
446.77	407.25
446.95	393.21
447.14	442.36
447.32	451.72
447.51	369.80
447.69	411.93
447.88	404.91
448.06	440.02
448.25	390.87
448.43	409.59
448.62	468.11
448.80	449.38
448.99	425.98
449.17	479.81
449.36	435.34
449.54	433.00
449.73	465.77
449.91	472.79
450.10	416.62
450.28	421.30
450.46	475.13
450.65	472.79
450.83	393.21
451.02	428.32
451.20	376.83
451.39	414.27
451.57	458.74
451.76	449.38
451.94	348.74
452.13	428.32
452.31	465.77
452.49	435.34
452.68	381.51
452.86	393.21
453.05	461.09
453.23	376.83
453.42	402.57
453.60	456.40
453.78	451.72
453.97	369.80
454.15	465.77
454.34	463.43
454.52	477.47
454.70	423.64
454.89	458.74
455.07	449.38
455.26	442.36
455.44	409.59
455.62	367.46
455.81	444.70
455.99	407.25
456.17	381.51
456.36	468.11
456.54	449.38
456.73	383.85
456.91	397.89
457.09	437.68
457.28	428.32
457.46	437.68
457.64	416.62
457.83	418.96
458.01	404.91
458.19	404.91
458.38	433.00
458.56	440.02
458.74	348.74
458.93	475.13
459.11	442.36
459.29	421.30
459.48	451.72
459.66	425.98
459.84	390.87
460.03	484.49
460.21	449.38
460.39	409.59
460.57	456.40
460.76	376.83
460.94	388.53
461.12	458.74
461.31	484.49
461.49	437.68
461.67	437.68
461.85	353.42
462.04	379.17
462.22	800.46
462.40	416.62
462.59	472.79
462.77	414.27
462.95	381.51
463.13	346.40
463.32	461.09
463.50	369.80
463.68	430.66
463.86	379.17
464.05	423.64
464.23	393.21
464.41	482.15
464.59	395.55
464.78	461.09
464.96	454.06
465.14	416.62
465.32	404.91
465.50	484.49
465.69	423.64
465.87	362.78
466.05	451.72
466.23	402.57
466.41	430.66
466.60	416.62
466.78	395.55
466.96	449.38
467.14	386.19
467.32	437.68
467.51	533.64
467.69	454.06
467.87	418.96
468.05	435.34
468.23	540.66
468.41	388.53
468.60	414.27
468.78	416.62
468.96	411.93
469.14	440.02
469.32	353.42
469.50	379.17
469.69	449.38
469.87	355.76
470.05	465.77
470.23	475.13
470.41	433.00
470.59	444.70
470.77	416.62
470.95	433.00
471.14	407.25
471.32	390.87
471.50	444.70
471.68	409.59
471.86	395.55
472.04	475.13
472.22	430.66
472.40	334.70
472.58	360.44
472.77	451.72
472.95	414.27
473.13	447.04
473.31	409.59
473.49	376.83
473.67	388.53
473.85	433.00
474.03	435.34
474.21	442.36
474.39	454.06
474.57	428.32
474.75	381.51
474.93	386.19
475.12	369.80
475.30	404.91
475.48	407.25
475.66	444.70
475.84	372.15
476.02	428.32
476.20	423.64
476.38	451.72
476.56	514.92
476.74	416.62
476.92	425.98
477.10	397.89
477.28	372.15
477.46	397.89
477.64	416.62
477.82	470.45
478.00	404.91
478.18	447.04
478.36	332.36
478.54	470.45
478.72	444.70
478.90	397.89
479.08	458.74
479.26	442.36
479.44	374.49
479.62	447.04
479.80	390.87
479.98	362.78
480.16	435.34
480.34	479.81
480.52	334.70
480.70	440.02
480.88	374.49
481.06	475.13
481.24	451.72
481.41	421.30
481.59	381.51
481.77	421.30
481.95	360.44
482.13	479.81
482.31	351.08
482.49	358.10
482.67	470.45
482.85	430.66
483.03	381.51
483.21	418.96
483.39	409.59
483.57	400.23
483.74	437.68
483.92	496.19
484.10	454.06
484.28	454.06
484.46	437.68
484.64	381.51
484.82	395.55
485.00	442.36
485.18	472.79
485.35	472.79
485.53	386.19
485.71	390.87
485.89	409.59
486.07	386.19
486.25	456.40
486.43	437.68
486.61	411.93
486.78	393.21
486.96	301.93
487.14	376.83
487.32	411.93
487.50	372.15
487.68	407.25
487.85	407.25
488.03	418.96
488.21	449.38
488.39	482.15
488.57	416.62
488.75	433.00
488.92	603.86
489.10	465.77
489.28	484.49
489.46	454.06
489.64	454.06
489.81	416.62
489.99	449.38
490.17	414.27
490.35	444.70
490.53	442.36
490.70	440.02
490.88	454.06
491.06	374.49
491.24	390.87
491.41	402.57
491.59	421.30
491.77	339.38
491.95	400.23
492.13	353.42
492.30	390.87
492.48	449.38
492.66	369.80
492.84	416.62
493.01	414.27
493.19	411.93
493.37	381.51
493.54	353.42
493.72	440.02
493.90	444.70
494.08	423.64
494.25	416.62
494.43	395.55
494.61	348.74
494.79	369.80
494.96	372.15
495.14	440.02
495.32	404.91
495.49	351.08
495.67	435.34
495.85	440.02
496.02	381.51
496.20	388.53
496.38	416.62
496.55	470.45
496.73	510.24
496.91	416.62
497.09	386.19
497.26	447.04
497.44	437.68
497.62	456.40
497.79	433.00
497.97	433.00
498.14	454.06
498.32	411.93
498.50	414.27
498.67	400.23
498.85	425.98
499.03	388.53
499.20	369.80
499.38	442.36
499.56	430.66
499.73	451.72
499.91	454.06
500.08	463.43
500.26	425.98
500.44	390.87
500.61	475.13
500.79	397.89
500.97	421.30
501.14	444.70
501.32	388.53
501.49	379.17
501.67	374.49
501.84	400.23
502.02	374.49
502.20	423.64
502.37	304.27
502.55	409.59
502.72	397.89
502.90	477.47
503.07	379.17
503.25	414.27
503.43	440.02
503.60	479.81
503.78	411.93
503.95	395.55
504.13	400.23
504.30	463.43
504.48	458.74
504.65	458.74
504.83	451.72
505.01	477.47
505.18	444.70
505.36	437.68
505.53	461.09
505.71	393.21
505.88	484.49
506.06	369.80
506.23	472.79
506.41	395.55
506.58	440.02
506.76	477.47
506.93	400.23
507.11	395.55
507.28	407.25
507.46	379.17
507.63	498.53
507.81	404.91
507.98	437.68
508.16	381.51
508.33	351.08
508.50	430.66
508.68	414.27
508.85	395.55
509.03	458.74
509.20	365.12
509.38	461.09
509.55	451.72
509.73	411.93
509.90	482.15
510.08	393.21
510.25	540.66
510.42	372.15
510.60	381.51
510.77	456.40
510.95	388.53
511.12	393.21
511.30	482.15
511.47	365.12
511.64	479.81
511.82	433.00
511.99	428.32
512.17	425.98
512.34	430.66
512.51	437.68
512.69	423.64
512.86	461.09
513.04	430.66
513.21	390.87
513.38	421.30
513.56	447.04
513.73	440.02
513.90	301.93
514.08	496.19
514.25	393.21
514.43	416.62
514.60	362.78
514.77	341.72
514.95	454.06
515.12	362.78
515.29	414.27
515.47	404.91
515.64	402.57
515.81	351.08
515.99	369.80
516.16	430.66
516.33	416.62
516.51	440.02
516.68	397.89
516.85	383.85
517.03	360.44
517.20	437.68
517.37	456.40
517.54	465.77
517.72	484.49
517.89	374.49
518.06	362.78
518.24	484.49
518.41	447.04
518.58	475.13
518.75	365.12
518.93	423.64
519.10	411.93
519.27	421.30
519.45	409.59
519.62	379.17
519.79	461.09
519.96	430.66
520.14	421.30
520.31	423.64
520.48	379.17
520.65	472.79
520.83	477.47
521.00	428.32
521.17	381.51
521.34	388.53
521.52	425.98
521.69	440.02
521.86	337.04
522.03	477.47
522.20	407.25
522.38	458.74
522.55	369.80
522.72	435.34
522.89	482.15
523.07	475.13
523.24	411.93
523.41	437.68
523.58	449.38
523.75	428.32
523.92	430.66
524.10	402.57
524.27	425.98
524.44	374.49
524.61	402.57
524.78	425.98
524.96	458.74
525.13	355.76
525.30	451.72
525.47	388.53
525.64	414.27
525.81	390.87
525.98	355.76
526.16	423.64
526.33	425.98
526.50	353.42
526.67	407.25
526.84	393.21
527.01	407.25
527.18	437.68
527.36	458.74
527.53	411.93
527.70	379.17
527.87	411.93
528.04	458.74
528.21	435.34
528.38	411.93
528.55	498.53
528.72	454.06
528.89	418.96
529.07	351.08
529.24	381.51
529.41	465.77
529.58	411.93
529.75	442.36
529.92	442.36
530.09	409.59
530.26	409.59
530.43	416.62
530.60	440.02
530.77	458.74
530.94	458.74
531.11	482.15
531.28	454.06
531.46	433.00
531.63	442.36
531.80	414.27
531.97	407.25
532.14	440.02
532.31	458.74
532.48	477.47
532.65	475.13
532.82	330.02
532.99	379.17
533.16	367.46
533.33	444.70
533.50	318.31
533.67	472.79
533.84	421.30
534.01	510.24
534.18	388.53
534.35	418.96
534.52	414.27
534.69	463.43
534.86	383.85
535.03	341.72
535.20	381.51
535.37	458.74
535.54	451.72
535.71	407.25
535.88	437.68
536.05	447.04
536.22	400.23
536.38	442.36
536.55	486.83
536.72	421.30
536.89	440.02
537.06	437.68
537.23	386.19
537.40	351.08
537.57	465.77
537.74	463.43
537.91	430.66
538.08	430.66
538.25	409.59
538.42	358.10
538.59	414.27
538.75	360.44
538.92	444.70
539.09	484.49
539.26	428.32
539.43	463.43
539.60	517.26
539.77	379.17
539.94	365.12
540.11	423.64
540.28	395.55
540.44	496.19
540.61	458.74
540.78	360.44
540.95	400.23
541.12	409.59
541.29	409.59
541.46	428.32
541.62	465.77
541.79	428.32
541.96	461.09
542.13	390.87
542.30	388.53
542.47	472.79
542.63	433.00
542.80	414.27
542.97	388.53
543.14	393.21
543.31	423.64
543.48	418.96
543.64	463.43
543.81	404.91
543.98	386.19
544.15	374.49
544.32	414.27
544.48	362.78
544.65	428.32
544.82	395.55
544.99	400.23
545.16	477.47
545.32	447.04
545.49	393.21
545.66	435.34
545.83	407.25
546.00	383.85
546.16	374.49
546.33	353.42
546.50	425.98
546.67	458.74
546.83	456.40
547.00	416.62
547.17	397.89
547.34	430.66
547.50	468.11
547.67	416.62
547.84	400.23
548.00	404.91
548.17	404.91
548.34	435.34
548.51	440.02
548.67	425.98
548.84	353.42
549.01	393.21
549.18	423.64
549.34	463.43
549.51	414.27
549.68	425.98
549.84	425.98
550.01	437.68
550.18	514.92
550.34	440.02
550.51	442.36
550.68	486.83
550.84	407.25
551.01	475.13
551.18	482.15
551.34	479.81
551.51	472.79
551.68	458.74
551.84	447.04
552.01	404.91
552.18	433.00
552.34	383.85
552.51	395.55
552.68	374.49
552.84	334.70
553.01	400.23
553.18	447.04
553.34	397.89
553.51	374.49
553.67	444.70
553.84	416.62
554.01	477.47
554.17	535.98
554.34	383.85
554.51	409.59
554.67	514.92
554.84	435.34
555.00	458.74
555.17	428.32
555.33	477.47
555.50	367.46
555.67	451.72
555.83	332.36
556.00	435.34
556.16	564.07
556.33	454.06
556.50	376.83
556.66	456.40
556.83	440.02
556.99	416.62
557.16	484.49
557.32	447.04
557.49	418.96
557.65	418.96
557.82	379.17
557.98	482.15
558.15	451.72
558.32	425.98
558.48	416.62
558.65	372.15
558.81	421.30
558.98	402.57
559.14	411.93
559.31	404.91
559.47	407.25
559.64	423.64
559.80	416.62
559.97	407.25
560.13	421.30
560.30	397.89
560.46	372.15
560.63	376.83
560.79	414.27
560.96	477.47
561.12	344.06
561.29	416.62
561.45	463.43
561.61	435.34
561.78	486.83
561.94	386.19
562.11	386.19
562.27	407.25
562.44	400.23
562.60	482.15
562.77	421.30
562.93	458.74
563.10	463.43
563.26	400.23
563.42	428.32
563.59	456.40
563.75	416.62
563.92	414.27
564.08	407.25
564.24	407.25
564.41	496.19
564.57	358.10
564.74	407.25
564.90	390.87
565.07	472.79
565.23	470.45
565.39	421.30
565.56	355.76
565.72	395.55
565.88	374.49
566.05	376.83
566.21	337.04
566.38	376.83
566.54	397.89
566.70	397.89
566.87	442.36
567.03	388.53
567.19	379.17
567.36	486.83
567.52	454.06
567.68	423.64
567.85	379.17
568.01	444.70
568.17	418.96
568.34	418.96
568.50	461.09
568.66	339.38
568.83	468.11
568.99	407.25
569.15	430.66
569.32	423.64
569.48	404.91
569.64	348.74
569.81	447.04
569.97	449.38
570.13	404.91
570.30	437.68
570.46	435.34
570.62	325.33
570.78	379.17
570.95	388.53
571.11	489.17
571.27	458.74
571.43	404.91
571.60	472.79
571.76	404.91
571.92	404.91
572.09	351.08
572.25	383.85
572.41	423.64
572.57	351.08
572.74	451.72
572.90	435.34
573.06	472.79
573.22	390.87
573.38	435.34
573.55	437.68
573.71	433.00
573.87	437.68
574.03	475.13
574.20	383.85
574.36	393.21
574.52	430.66
574.68	407.25
574.84	491.51
575.01	365.12
575.17	451.72
575.33	423.64
575.49	456.40
575.65	491.51
575.82	454.06
575.98	451.72
576.14	397.89
576.30	472.79
576.46	430.66
576.62	444.70
576.79	428.32
576.95	463.43
577.11	360.44
577.27	416.62
577.43	498.53
577.59	418.96
577.75	374.49
577.92	397.89
578.08	402.57
578.24	407.25
578.40	411.93
578.56	430.66
578.72	425.98
578.88	411.93
579.04	400.23
579.21	430.66
579.37	400.23
579.53	447.04
579.69	425.98
579.85	414.27
580.01	402.57
580.17	428.32
580.33	437.68
580.49	325.33
580.65	390.87
580.82	486.83
580.98	395.55
581.14	369.80
581.30	433.00
581.46	388.53
581.62	458.74
581.78	407.25
581.94	442.36
582.10	435.34
582.26	421.30
582.42	416.62
582.58	461.09
582.74	477.47
582.90	376.83
583.06	477.47
583.22	376.83
583.38	444.70
583.54	444.70
583.70	430.66
583.86	400.23
584.02	472.79
584.18	456.40
584.34	435.34
584.50	414.27
584.66	465.77
584.82	435.34
584.98	479.81
585.14	440.02
585.30	449.38
585.46	411.93
585.62	372.15
585.78	409.59
585.94	451.72
586.10	477.47
586.26	355.76
586.42	456.40
586.58	447.04
586.74	383.85
586.90	449.38
587.06	402.57
587.22	470.45
587.38	367.46
587.54	362.78
587.70	477.47
587.86	425.98
588.02	428.32
588.18	440.02
588.34	454.06
588.49	423.64
588.65	447.04
588.81	411.93
588.97	465.77
589.13	358.10
589.29	393.21
589.45	475.13
589.61	421.30
589.77	428.32
589.93	381.51
590.08	444.70
590.24	407.25
590.40	365.12
590.56	496.19
590.72	411.93
590.88	339.38
591.04	332.36
591.20	458.74
591.35	437.68
591.51	381.51
591.67	425.98
591.83	360.44
591.99	472.79
592.15	433.00
592.31	444.70
592.46	416.62
592.62	393.21
592.78	409.59
592.94	440.02
593.10	365.12
593.26	400.23
593.41	479.81
593.57	468.11
593.73	369.80
593.89	409.59
594.05	423.64
594.20	388.53
594.36	449.38
594.52	461.09
594.68	433.00
594.84	451.72
594.99	437.68
595.15	395.55
595.31	407.25
595.47	425.98
595.62	503.22
595.78	463.43
595.94	430.66
596.10	418.96
596.25	458.74
596.41	449.38
596.57	444.70
596.73	395.55
596.88	390.87
597.04	449.38
597.20	468.11
597.36	468.11
597.51	411.93
597.67	416.62
597.83	437.68
597.99	454.06
598.14	334.70
598.30	468.11
598.46	390.87
598.61	503.22
598.77	437.68
598.93	416.62
599.09	297.25
599.24	407.25
599.40	468.11
599.56	442.36
599.71	416.62
599.87	383.85
600.03	411.93
600.18	428.32
600.34	425.98
600.50	383.85
600.65	407.25
600.81	428.32
600.97	440.02
601.12	428.32
601.28	395.55
601.44	489.17
601.59	425.98
601.75	407.25
601.91	393.21
602.06	358.10
602.22	458.74
602.37	442.36
602.53	414.27
602.69	498.53
602.84	358.10
603.00	440.02
603.16	428.32
603.31	489.17
603.47	489.17
603.62	411.93
603.78	449.38
603.94	507.90
604.09	418.96
604.25	435.34
604.40	388.53
604.56	421.30
604.71	456.40
604.87	435.34
605.03	437.68
605.18	484.49
605.34	454.06
605.49	433.00
605.65	416.62
605.80	376.83
605.96	437.68
606.12	425.98
606.27	477.47
606.43	444.70
606.58	418.96
606.74	369.80
606.89	465.77
607.05	461.09
607.20	458.74
607.36	451.72
607.51	386.19
607.67	404.91
607.82	461.09
607.98	482.15
608.13	463.43
608.29	414.27
608.44	407.25
608.60	503.22
608.75	418.96
608.91	449.38
609.06	461.09
609.22	449.38
609.37	425.98
609.53	400.23
609.68	369.80
609.84	400.23
609.99	428.32
610.15	479.81
