SpectraSuite Data File
++++++++++++++++++++++++++++++++++++
Date: Fri Oct 25 12:11:00 EDT 2013
User: price-jones
Dark Spectrum Present: No
Reference Spectrum Present: No
Number of Sampled Component Spectra: 1
Spectrometers: USB2+H05261
Integration Time (usec): 100000 (USB2+H05261)
Spectra Averaged: 1 (USB2+H05261)
Boxcar Smoothing: 0 (USB2+H05261)
Correct for Electrical Dark: No (USB2+H05261)
Strobe/Lamp Enabled: No (USB2+H05261)
Correct for Detector Non-linearity: No (USB2+H05261)
Correct for Stray Light: No (USB2+H05261)
Number of Pixels in Processed Spectrum: 2048
>>>>>Begin Processed Spectral Data<<<<<
365.73	327.68
365.92	327.68
366.12	327.68
366.32	191.92
366.52	201.29
366.72	229.37
366.91	264.48
367.11	182.56
367.31	236.39
367.51	205.97
367.70	264.48
367.90	290.23
368.10	215.33
368.30	180.22
368.49	191.92
368.69	285.55
368.89	227.03
369.09	252.78
369.28	250.44
369.48	290.23
369.68	285.55
369.87	278.52
370.07	301.93
370.27	367.46
370.47	304.27
370.66	306.61
370.86	360.44
371.06	332.36
371.25	433.00
371.45	334.70
371.65	383.85
371.84	374.49
372.04	353.42
372.24	456.40
372.44	369.80
372.63	383.85
372.83	456.40
373.03	437.68
373.22	376.83
373.42	379.17
373.62	381.51
373.81	383.85
374.01	421.30
374.21	447.04
374.40	411.93
374.60	421.30
374.79	444.70
374.99	437.68
375.19	496.19
375.38	404.91
375.58	521.94
375.78	463.43
375.97	463.43
376.17	430.66
376.37	397.89
376.56	461.09
376.76	400.23
376.95	428.32
377.15	381.51
377.35	390.87
377.54	383.85
377.74	383.85
377.93	395.55
378.13	423.64
378.33	407.25
378.52	348.74
378.72	465.77
378.91	393.21
379.11	322.99
379.31	390.87
379.50	379.17
379.70	383.85
379.89	437.68
380.09	428.32
380.28	393.21
380.48	421.30
380.68	493.85
380.87	369.80
381.07	414.27
381.26	376.83
381.46	388.53
381.65	416.62
381.85	421.30
382.04	395.55
382.24	337.04
382.43	386.19
382.63	475.13
382.83	379.17
383.02	468.11
383.22	341.72
383.41	362.78
383.61	381.51
383.80	470.45
384.00	376.83
384.19	348.74
384.39	372.15
384.58	351.08
384.78	416.62
384.97	388.53
385.17	360.44
385.36	346.40
385.56	416.62
385.75	411.93
385.95	500.87
386.14	461.09
386.34	411.93
386.53	402.57
386.72	393.21
386.92	437.68
387.11	414.27
387.31	407.25
387.50	416.62
387.70	390.87
387.89	440.02
388.09	430.66
388.28	411.93
388.48	395.55
388.67	512.58
388.86	337.04
389.06	337.04
389.25	416.62
389.45	365.12
389.64	465.77
389.84	388.53
390.03	468.11
390.22	374.49
390.42	374.49
390.61	404.91
390.81	374.49
391.00	411.93
391.19	421.30
391.39	374.49
391.58	425.98
391.78	433.00
391.97	430.66
392.16	362.78
392.36	416.62
392.55	444.70
392.75	348.74
392.94	397.89
393.13	423.64
393.33	444.70
393.52	402.57
393.71	402.57
393.91	484.49
394.10	414.27
394.29	304.27
394.49	461.09
394.68	437.68
394.88	451.72
395.07	393.21
395.26	470.45
395.46	498.53
395.65	416.62
395.84	416.62
396.04	428.32
396.23	376.83
396.42	318.31
396.62	383.85
396.81	395.55
397.00	411.93
397.19	458.74
397.39	360.44
397.58	390.87
397.77	358.10
397.97	386.19
398.16	369.80
398.35	372.15
398.55	369.80
398.74	346.40
398.93	447.04
399.12	386.19
399.32	390.87
399.51	334.70
399.70	496.19
399.90	411.93
400.09	397.89
400.28	348.74
400.47	425.98
400.67	407.25
400.86	390.87
401.05	418.96
401.24	423.64
401.44	447.04
401.63	402.57
401.82	315.97
402.01	407.25
402.21	470.45
402.40	362.78
402.59	383.85
402.78	390.87
402.97	397.89
403.17	407.25
403.36	456.40
403.55	402.57
403.74	414.27
403.93	390.87
404.13	367.46
404.32	416.62
404.51	411.93
404.70	421.30
404.89	414.27
405.09	393.21
405.28	400.23
405.47	351.08
405.66	433.00
405.85	409.59
406.05	411.93
406.24	418.96
406.43	400.23
406.62	425.98
406.81	428.32
407.00	435.34
407.20	433.00
407.39	414.27
407.58	397.89
407.77	428.32
407.96	433.00
408.15	440.02
408.34	381.51
408.54	489.17
408.73	390.87
408.92	400.23
409.11	472.79
409.30	423.64
409.49	395.55
409.68	454.06
409.87	442.36
410.07	362.78
410.26	341.72
410.45	458.74
410.64	388.53
410.83	440.02
411.02	376.83
411.21	367.46
411.40	437.68
411.59	421.30
411.78	418.96
411.98	311.29
412.17	414.27
412.36	423.64
412.55	351.08
412.74	486.83
412.93	442.36
413.12	341.72
413.31	454.06
413.50	397.89
413.69	489.17
413.88	475.13
414.07	304.27
414.26	390.87
414.45	414.27
414.64	451.72
414.83	449.38
415.02	411.93
415.22	400.23
415.41	386.19
415.60	383.85
415.79	442.36
415.98	461.09
416.17	416.62
416.36	400.23
416.55	313.63
416.74	449.38
416.93	449.38
417.12	435.34
417.31	409.59
417.50	454.06
417.69	437.68
417.88	435.34
418.07	444.70
418.26	442.36
418.45	376.83
418.64	463.43
418.83	430.66
419.02	395.55
419.21	444.70
419.39	430.66
419.58	355.76
419.77	400.23
419.96	472.79
420.15	428.32
420.34	428.32
420.53	362.78
420.72	442.36
420.91	395.55
421.10	416.62
421.29	379.17
421.48	395.55
421.67	447.04
421.86	428.32
422.05	440.02
422.24	393.21
422.43	411.93
422.61	472.79
422.80	332.36
422.99	449.38
423.18	458.74
423.37	386.19
423.56	421.30
423.75	409.59
423.94	360.44
424.13	383.85
424.32	386.19
424.50	428.32
424.69	442.36
424.88	388.53
425.07	393.21
425.26	407.25
425.45	489.17
425.64	390.87
425.83	332.36
426.01	463.43
426.20	379.17
426.39	444.70
426.58	381.51
426.77	411.93
426.96	465.77
427.15	318.31
427.33	470.45
427.52	433.00
427.71	369.80
427.90	365.12
428.09	369.80
428.28	437.68
428.46	440.02
428.65	428.32
428.84	411.93
429.03	470.45
429.22	442.36
429.40	390.87
429.59	386.19
429.78	414.27
429.97	458.74
430.16	299.59
430.34	430.66
430.53	360.44
430.72	400.23
430.91	468.11
431.10	402.57
431.28	388.53
431.47	449.38
431.66	404.91
431.85	362.78
432.03	404.91
432.22	425.98
432.41	365.12
432.60	402.57
432.79	463.43
432.97	388.53
433.16	512.58
433.35	379.17
433.54	315.97
433.72	402.57
433.91	458.74
434.10	447.04
434.28	358.10
434.47	451.72
434.66	458.74
434.85	454.06
435.03	465.77
435.22	411.93
435.41	484.49
435.59	362.78
435.78	376.83
435.97	400.23
436.16	456.40
436.34	379.17
436.53	395.55
436.72	423.64
436.90	442.36
437.09	421.30
437.28	449.38
437.46	386.19
437.65	444.70
437.84	461.09
438.02	369.80
438.21	362.78
438.40	454.06
438.58	411.93
438.77	440.02
438.96	440.02
439.14	456.40
439.33	496.19
439.52	376.83
439.70	402.57
439.89	400.23
440.08	423.64
440.26	402.57
440.45	421.30
440.63	451.72
440.82	449.38
441.01	393.21
441.19	447.04
441.38	411.93
441.57	372.15
441.75	440.02
441.94	407.25
442.12	379.17
442.31	409.59
442.50	428.32
442.68	407.25
442.87	440.02
443.05	376.83
443.24	355.76
443.43	395.55
443.61	461.09
443.80	362.78
443.98	423.64
444.17	423.64
444.35	440.02
444.54	440.02
444.73	498.53
444.91	407.25
445.10	379.17
445.28	440.02
445.47	416.62
445.65	407.25
445.84	386.19
446.02	407.25
446.21	402.57
446.39	475.13
446.58	538.32
446.77	390.87
446.95	393.21
447.14	411.93
447.32	433.00
447.51	404.91
447.69	402.57
447.88	418.96
448.06	409.59
448.25	416.62
448.43	351.08
448.62	386.19
448.80	468.11
448.99	465.77
449.17	440.02
449.36	433.00
449.54	463.43
449.73	379.17
449.91	449.38
450.10	400.23
450.28	430.66
450.46	507.90
450.65	440.02
450.83	351.08
451.02	376.83
451.20	341.72
451.39	381.51
451.57	404.91
451.76	367.46
451.94	435.34
452.13	421.30
452.31	362.78
452.49	437.68
452.68	411.93
452.86	393.21
453.05	414.27
453.23	454.06
453.42	337.04
453.60	433.00
453.78	348.74
453.97	360.44
454.15	374.49
454.34	369.80
454.52	404.91
454.70	369.80
454.89	507.90
455.07	365.12
455.26	451.72
455.44	433.00
455.62	353.42
455.81	421.30
455.99	386.19
456.17	400.23
456.36	367.46
456.54	435.34
456.73	442.36
456.91	414.27
457.09	416.62
457.28	458.74
457.46	428.32
457.64	430.66
457.83	437.68
458.01	444.70
458.19	374.49
458.38	428.32
458.56	374.49
458.74	503.22
458.93	421.30
459.11	372.15
459.29	383.85
459.48	397.89
459.66	418.96
459.84	400.23
460.03	465.77
460.21	557.05
460.39	386.19
460.57	416.62
460.76	390.87
460.94	437.68
461.12	458.74
461.31	404.91
461.49	442.36
461.67	339.38
461.85	475.13
462.04	372.15
462.22	531.30
462.40	428.32
462.59	383.85
462.77	409.59
462.95	397.89
463.13	468.11
463.32	425.98
463.50	360.44
463.68	423.64
463.86	374.49
464.05	451.72
464.23	496.19
464.41	454.06
464.59	407.25
464.78	390.87
464.96	440.02
465.14	414.27
465.32	414.27
465.50	430.66
465.69	456.40
465.87	304.27
466.05	379.17
466.23	444.70
466.41	362.78
466.60	379.17
466.78	414.27
466.96	458.74
467.14	423.64
467.32	407.25
467.51	465.77
467.69	500.87
467.87	463.43
468.05	437.68
468.23	444.70
468.41	414.27
468.60	369.80
468.78	397.89
468.96	433.00
469.14	390.87
469.32	428.32
469.50	383.85
469.69	388.53
469.87	425.98
470.05	472.79
470.23	468.11
470.41	414.27
470.59	423.64
470.77	397.89
470.95	440.02
471.14	421.30
471.32	376.83
471.50	435.34
471.68	402.57
471.86	461.09
472.04	407.25
472.22	433.00
472.40	400.23
472.58	334.70
472.77	482.15
472.95	475.13
473.13	449.38
473.31	484.49
473.49	447.04
473.67	421.30
473.85	442.36
474.03	358.10
474.21	456.40
474.39	400.23
474.57	465.77
474.75	425.98
474.93	390.87
475.12	397.89
475.30	374.49
475.48	484.49
475.66	416.62
475.84	409.59
476.02	402.57
476.20	355.76
476.38	388.53
476.56	425.98
476.74	390.87
476.92	386.19
477.10	376.83
477.28	425.98
477.46	318.31
477.64	414.27
477.82	414.27
478.00	433.00
478.18	383.85
478.36	435.34
478.54	341.72
478.72	440.02
478.90	486.83
479.08	428.32
479.26	430.66
479.44	395.55
479.62	362.78
479.80	425.98
479.98	414.27
480.16	344.06
480.34	404.91
480.52	454.06
480.70	444.70
480.88	489.17
481.06	416.62
481.24	397.89
481.41	320.65
481.59	451.72
481.77	475.13
481.95	444.70
482.13	451.72
482.31	430.66
482.49	430.66
482.67	395.55
482.85	379.17
483.03	433.00
483.21	430.66
483.39	477.47
483.57	325.33
483.74	395.55
483.92	454.06
484.10	458.74
484.28	444.70
484.46	479.81
484.64	353.42
484.82	451.72
485.00	351.08
485.18	374.49
485.35	416.62
485.53	383.85
485.71	451.72
485.89	433.00
486.07	430.66
486.25	442.36
486.43	348.74
486.61	395.55
486.78	407.25
486.96	348.74
487.14	433.00
487.32	400.23
487.50	418.96
487.68	365.12
487.85	358.10
488.03	334.70
488.21	440.02
488.39	395.55
488.57	477.47
488.75	360.44
488.92	489.17
489.10	379.17
489.28	435.34
489.46	465.77
489.64	437.68
489.81	433.00
489.99	430.66
490.17	365.12
490.35	393.21
490.53	393.21
490.70	400.23
490.88	395.55
491.06	423.64
491.24	475.13
491.41	479.81
491.59	486.83
491.77	397.89
491.95	449.38
492.13	400.23
492.30	379.17
492.48	393.21
492.66	454.06
492.84	444.70
493.01	423.64
493.19	425.98
493.37	456.40
493.54	418.96
493.72	437.68
493.90	376.83
494.08	409.59
494.25	505.56
494.43	414.27
494.61	440.02
494.79	372.15
494.96	435.34
495.14	374.49
495.32	374.49
495.49	409.59
495.67	442.36
495.85	423.64
496.02	388.53
496.20	393.21
496.38	414.27
496.55	435.34
496.73	409.59
496.91	468.11
497.09	451.72
497.26	381.51
497.44	461.09
497.62	463.43
497.79	407.25
497.97	423.64
498.14	407.25
498.32	393.21
498.50	425.98
498.67	376.83
498.85	351.08
499.03	451.72
499.20	294.91
499.38	393.21
499.56	376.83
499.73	493.85
499.91	418.96
500.08	376.83
500.26	362.78
500.44	407.25
500.61	388.53
500.79	423.64
500.97	442.36
501.14	418.96
501.32	421.30
501.49	472.79
501.67	397.89
501.84	397.89
502.02	355.76
502.20	402.57
502.37	418.96
502.55	362.78
502.72	393.21
502.90	479.81
503.07	433.00
503.25	393.21
503.43	409.59
503.60	440.02
503.78	468.11
503.95	404.91
504.13	346.40
504.30	360.44
504.48	423.64
504.65	428.32
504.83	435.34
505.01	433.00
505.18	411.93
505.36	416.62
505.53	386.19
505.71	346.40
505.88	423.64
506.06	395.55
506.23	440.02
506.41	435.34
506.58	428.32
506.76	416.62
506.93	400.23
507.11	430.66
507.28	444.70
507.46	369.80
507.63	393.21
507.81	327.68
507.98	367.46
508.16	421.30
508.33	444.70
508.50	444.70
508.68	470.45
508.85	400.23
509.03	402.57
509.20	442.36
509.38	400.23
509.55	348.74
509.73	437.68
509.90	423.64
510.08	414.27
510.25	470.45
510.42	362.78
510.60	400.23
510.77	449.38
510.95	447.04
511.12	411.93
511.30	449.38
511.47	458.74
511.64	425.98
511.82	468.11
511.99	411.93
512.17	493.85
512.34	411.93
512.51	451.72
512.69	341.72
512.86	423.64
513.04	447.04
513.21	383.85
513.38	369.80
513.56	411.93
513.73	407.25
513.90	418.96
514.08	409.59
514.25	423.64
514.43	440.02
514.60	362.78
514.77	440.02
514.95	407.25
515.12	442.36
515.29	433.00
515.47	404.91
515.64	437.68
515.81	414.27
515.99	418.96
516.16	482.15
516.33	425.98
516.51	435.34
516.68	444.70
516.85	449.38
517.03	416.62
517.20	465.77
517.37	400.23
517.54	400.23
517.72	409.59
517.89	369.80
518.06	379.17
518.24	449.38
518.41	430.66
518.58	524.28
518.75	461.09
518.93	353.42
519.10	376.83
519.27	388.53
519.45	409.59
519.62	479.81
519.79	423.64
519.96	346.40
520.14	447.04
520.31	465.77
520.48	447.04
520.65	447.04
520.83	388.53
521.00	519.60
521.17	472.79
521.34	447.04
521.52	397.89
521.69	442.36
521.86	425.98
522.03	428.32
522.20	442.36
522.38	414.27
522.55	388.53
522.72	425.98
522.89	454.06
523.07	428.32
523.24	383.85
523.41	379.17
523.58	397.89
523.75	430.66
523.92	372.15
524.10	421.30
524.27	444.70
524.44	437.68
524.61	409.59
524.78	388.53
524.96	479.81
525.13	430.66
525.30	425.98
525.47	449.38
525.64	367.46
525.81	381.51
525.98	447.04
526.16	411.93
526.33	454.06
526.50	395.55
526.67	416.62
526.84	435.34
527.01	369.80
527.18	388.53
527.36	351.08
527.53	423.64
527.70	440.02
527.87	440.02
528.04	418.96
528.21	407.25
528.38	414.27
528.55	430.66
528.72	449.38
528.89	454.06
529.07	365.12
529.24	447.04
529.41	414.27
529.58	442.36
529.75	416.62
529.92	395.55
530.09	372.15
530.26	458.74
530.43	468.11
530.60	393.21
530.77	407.25
530.94	395.55
531.11	409.59
531.28	421.30
531.46	393.21
531.63	430.66
531.80	484.49
531.97	465.77
532.14	430.66
532.31	472.79
532.48	407.25
532.65	395.55
532.82	322.99
532.99	383.85
533.16	407.25
533.33	416.62
533.50	404.91
533.67	376.83
533.84	461.09
534.01	440.02
534.18	355.76
534.35	379.17
534.52	344.06
534.69	418.96
534.86	416.62
535.03	440.02
535.20	433.00
535.37	472.79
535.54	418.96
535.71	437.68
535.88	463.43
536.05	437.68
536.22	400.23
536.38	358.10
536.55	447.04
536.72	397.89
536.89	418.96
537.06	395.55
537.23	397.89
537.40	435.34
537.57	369.80
537.74	376.83
537.91	379.17
538.08	482.15
538.25	407.25
538.42	411.93
538.59	435.34
538.75	365.12
538.92	351.08
539.09	425.98
539.26	428.32
539.43	470.45
539.60	463.43
539.77	451.72
539.94	437.68
540.11	433.00
540.28	447.04
540.44	374.49
540.61	369.80
540.78	367.46
540.95	388.53
541.12	444.70
541.29	454.06
541.46	400.23
541.62	491.51
541.79	442.36
541.96	456.40
542.13	423.64
542.30	388.53
542.47	379.17
542.63	381.51
542.80	425.98
542.97	374.49
543.14	379.17
543.31	362.78
543.48	442.36
543.64	362.78
543.81	425.98
543.98	386.19
544.15	437.68
544.32	418.96
544.48	353.42
544.65	379.17
544.82	433.00
544.99	416.62
545.16	425.98
545.32	454.06
545.49	425.98
545.66	388.53
545.83	463.43
546.00	404.91
546.16	433.00
546.33	390.87
546.50	355.76
546.67	486.83
546.83	447.04
547.00	386.19
547.17	372.15
547.34	358.10
547.50	444.70
547.67	444.70
547.84	423.64
548.00	437.68
548.17	418.96
548.34	386.19
548.51	454.06
548.67	421.30
548.84	428.32
549.01	440.02
549.18	341.72
549.34	407.25
549.51	397.89
549.68	402.57
549.84	442.36
550.01	411.93
550.18	507.90
550.34	430.66
550.51	416.62
550.68	484.49
550.84	454.06
551.01	411.93
551.18	428.32
551.34	442.36
551.51	437.68
551.68	442.36
551.84	444.70
552.01	425.98
552.18	393.21
552.34	470.45
552.51	416.62
552.68	472.79
552.84	393.21
553.01	451.72
553.18	479.81
553.34	337.04
553.51	416.62
553.67	386.19
553.84	430.66
554.01	442.36
554.17	381.51
554.34	404.91
554.51	395.55
554.67	461.09
554.84	414.27
555.00	407.25
555.17	496.19
555.33	472.79
555.50	491.51
555.67	472.79
555.83	400.23
556.00	425.98
556.16	613.22
556.33	461.09
556.50	444.70
556.66	428.32
556.83	411.93
556.99	379.17
557.16	381.51
557.32	416.62
557.49	421.30
557.65	440.02
557.82	407.25
557.98	397.89
558.15	428.32
558.32	437.68
558.48	449.38
558.65	404.91
558.81	482.15
558.98	423.64
559.14	442.36
559.31	437.68
559.47	367.46
559.64	395.55
559.80	360.44
559.97	423.64
560.13	416.62
560.30	428.32
560.46	374.49
560.63	379.17
560.79	463.43
560.96	381.51
561.12	430.66
561.29	423.64
561.45	360.44
561.61	360.44
561.78	411.93
561.94	386.19
562.11	465.77
562.27	409.59
562.44	372.15
562.60	500.87
562.77	376.83
562.93	470.45
563.10	496.19
563.26	454.06
563.42	435.34
563.59	440.02
563.75	404.91
563.92	449.38
564.08	442.36
564.24	430.66
564.41	416.62
564.57	400.23
564.74	351.08
564.90	388.53
565.07	381.51
565.23	423.64
565.39	428.32
565.56	404.91
565.72	362.78
565.88	449.38
566.05	400.23
566.21	388.53
566.38	423.64
566.54	400.23
566.70	358.10
566.87	388.53
567.03	409.59
567.19	433.00
567.36	425.98
567.52	435.34
567.68	442.36
567.85	369.80
568.01	358.10
568.17	332.36
568.34	365.12
568.50	425.98
568.66	407.25
568.83	470.45
568.99	404.91
569.15	425.98
569.32	465.77
569.48	433.00
569.64	454.06
569.81	442.36
569.97	381.51
570.13	374.49
570.30	362.78
570.46	341.72
570.62	402.57
570.78	411.93
570.95	425.98
571.11	411.93
571.27	402.57
571.43	374.49
571.60	404.91
571.76	404.91
571.92	440.02
572.09	411.93
572.25	440.02
572.41	538.32
572.57	425.98
572.74	447.04
572.90	423.64
573.06	428.32
573.22	407.25
573.38	425.98
573.55	414.27
573.71	449.38
573.87	341.72
574.03	430.66
574.20	470.45
574.36	456.40
574.52	451.72
574.68	372.15
574.84	512.58
575.01	451.72
575.17	433.00
575.33	400.23
575.49	435.34
575.65	393.21
575.82	437.68
575.98	454.06
576.14	440.02
576.30	449.38
576.46	400.23
576.62	418.96
576.79	451.72
576.95	395.55
577.11	435.34
577.27	386.19
577.43	404.91
577.59	395.55
577.75	423.64
577.92	451.72
578.08	468.11
578.24	472.79
578.40	458.74
578.56	484.49
578.72	358.10
578.88	425.98
579.04	449.38
579.21	383.85
579.37	407.25
579.53	362.78
579.69	383.85
579.85	409.59
580.01	437.68
580.17	388.53
580.33	486.83
580.49	454.06
580.65	393.21
580.82	348.74
580.98	388.53
581.14	304.27
581.30	388.53
581.46	442.36
581.62	383.85
581.78	437.68
581.94	407.25
582.10	407.25
582.26	433.00
582.42	372.15
582.58	465.77
582.74	404.91
582.90	444.70
583.06	411.93
583.22	397.89
583.38	395.55
583.54	386.19
583.70	360.44
583.86	379.17
584.02	428.32
584.18	489.17
584.34	353.42
584.50	447.04
584.66	416.62
584.82	440.02
584.98	461.09
585.14	379.17
585.30	430.66
585.46	435.34
585.62	456.40
585.78	430.66
585.94	416.62
586.10	400.23
586.26	388.53
586.42	456.40
586.58	440.02
586.74	498.53
586.90	360.44
587.06	395.55
587.22	454.06
587.38	402.57
587.54	430.66
587.70	418.96
587.86	470.45
588.02	461.09
588.18	437.68
588.34	407.25
588.49	339.38
588.65	369.80
588.81	430.66
588.97	400.23
589.13	484.49
589.29	430.66
589.45	489.17
589.61	362.78
589.77	425.98
589.93	416.62
590.08	348.74
590.24	386.19
590.40	351.08
590.56	433.00
590.72	425.98
590.88	465.77
591.04	369.80
591.20	351.08
591.35	402.57
591.51	512.58
591.67	414.27
591.83	346.40
591.99	358.10
592.15	367.46
592.31	334.70
592.46	465.77
592.62	468.11
592.78	411.93
592.94	407.25
593.10	430.66
593.26	430.66
593.41	411.93
593.57	433.00
593.73	482.15
593.89	414.27
594.05	381.51
594.20	421.30
594.36	444.70
594.52	369.80
594.68	440.02
594.84	437.68
594.99	433.00
595.15	400.23
595.31	435.34
595.47	461.09
595.62	491.51
595.78	449.38
595.94	444.70
596.10	404.91
596.25	404.91
596.41	442.36
596.57	386.19
596.73	421.30
596.88	325.33
597.04	451.72
597.20	437.68
597.36	358.10
597.51	379.17
597.67	451.72
597.83	449.38
597.99	379.17
598.14	461.09
598.30	397.89
598.46	353.42
598.61	489.17
598.77	456.40
598.93	395.55
599.09	442.36
599.24	451.72
599.40	397.89
599.56	444.70
599.71	386.19
599.87	400.23
600.03	393.21
600.18	423.64
600.34	447.04
600.50	390.87
600.65	411.93
600.81	372.15
600.97	376.83
601.12	404.91
601.28	463.43
601.44	311.29
601.59	409.59
601.75	358.10
601.91	442.36
602.06	454.06
602.22	477.47
602.37	437.68
602.53	393.21
602.69	388.53
602.84	393.21
603.00	301.93
603.16	454.06
603.31	425.98
603.47	437.68
603.62	390.87
603.78	437.68
603.94	510.24
604.09	425.98
604.25	416.62
604.40	425.98
604.56	404.91
604.71	435.34
604.87	383.85
605.03	440.02
605.18	447.04
605.34	421.30
605.49	383.85
605.65	411.93
605.80	437.68
605.96	402.57
606.12	404.91
606.27	442.36
606.43	397.89
606.58	393.21
606.74	440.02
606.89	465.77
607.05	402.57
607.20	372.15
607.36	372.15
607.51	423.64
607.67	442.36
607.82	442.36
607.98	423.64
608.13	433.00
608.29	348.74
608.44	472.79
608.60	454.06
608.75	435.34
608.91	411.93
609.06	411.93
609.22	435.34
609.37	400.23
609.53	470.45
609.68	500.87
609.84	341.72
609.99	442.36
610.15	418.96
