SpectraSuite Data File
++++++++++++++++++++++++++++++++++++
Date: Fri Oct 25 12:11:26 EDT 2013
User: price-jones
Dark Spectrum Present: No
Reference Spectrum Present: No
Number of Sampled Component Spectra: 1
Spectrometers: USB2+H05261
Integration Time (usec): 100000 (USB2+H05261)
Spectra Averaged: 1 (USB2+H05261)
Boxcar Smoothing: 0 (USB2+H05261)
Correct for Electrical Dark: No (USB2+H05261)
Strobe/Lamp Enabled: No (USB2+H05261)
Correct for Detector Non-linearity: No (USB2+H05261)
Correct for Stray Light: No (USB2+H05261)
Number of Pixels in Processed Spectrum: 2048
>>>>>Begin Processed Spectral Data<<<<<
365.73	313.63
365.92	313.63
366.12	313.63
366.32	243.42
366.52	198.95
366.72	182.56
366.91	231.71
367.11	222.35
367.31	227.03
367.51	231.71
367.70	236.39
367.90	252.78
368.10	257.46
368.30	299.59
368.49	191.92
368.69	210.65
368.89	231.71
369.09	229.37
369.28	294.91
369.48	266.82
369.68	196.60
369.87	313.63
370.07	262.14
370.27	369.80
370.47	266.82
370.66	376.83
370.86	355.76
371.06	348.74
371.25	400.23
371.45	320.65
371.65	421.30
371.84	418.96
372.04	381.51
372.24	393.21
372.44	367.46
372.63	376.83
372.83	341.72
373.03	409.59
373.22	418.96
373.42	456.40
373.62	505.56
373.81	402.57
374.01	386.19
374.21	416.62
374.40	456.40
374.60	447.04
374.79	386.19
374.99	341.72
375.19	435.34
375.38	482.15
375.58	372.15
375.78	442.36
375.97	482.15
376.17	369.80
376.37	404.91
376.56	479.81
376.76	463.43
376.95	484.49
377.15	393.21
377.35	482.15
377.54	409.59
377.74	407.25
377.93	407.25
378.13	397.89
378.33	416.62
378.52	416.62
378.72	461.09
378.91	449.38
379.11	423.64
379.31	458.74
379.50	372.15
379.70	348.74
379.89	472.79
380.09	404.91
380.28	351.08
380.48	369.80
380.68	393.21
380.87	381.51
381.07	425.98
381.26	400.23
381.46	425.98
381.65	388.53
381.85	365.12
382.04	395.55
382.24	365.12
382.43	409.59
382.63	393.21
382.83	418.96
383.02	437.68
383.22	444.70
383.41	369.80
383.61	414.27
383.80	468.11
384.00	388.53
384.19	454.06
384.39	468.11
384.58	353.42
384.78	351.08
384.97	437.68
385.17	468.11
385.36	428.32
385.56	400.23
385.75	362.78
385.95	404.91
386.14	437.68
386.34	367.46
386.53	454.06
386.72	444.70
386.92	414.27
387.11	376.83
387.31	404.91
387.50	421.30
387.70	428.32
387.89	388.53
388.09	435.34
388.28	400.23
388.48	458.74
388.67	456.40
388.86	407.25
389.06	381.51
389.25	458.74
389.45	369.80
389.64	379.17
389.84	477.47
390.03	440.02
390.22	442.36
390.42	376.83
390.61	334.70
390.81	386.19
391.00	411.93
391.19	447.04
391.39	395.55
391.58	421.30
391.78	423.64
391.97	421.30
392.16	330.02
392.36	437.68
392.55	486.83
392.75	402.57
392.94	437.68
393.13	367.46
393.33	353.42
393.52	395.55
393.71	409.59
393.91	381.51
394.10	390.87
394.29	374.49
394.49	402.57
394.68	402.57
394.88	421.30
395.07	400.23
395.26	379.17
395.46	433.00
395.65	400.23
395.84	388.53
396.04	414.27
396.23	372.15
396.42	510.24
396.62	456.40
396.81	456.40
397.00	386.19
397.19	421.30
397.39	358.10
397.58	435.34
397.77	404.91
397.97	428.32
398.16	444.70
398.35	425.98
398.55	397.89
398.74	442.36
398.93	442.36
399.12	353.42
399.32	411.93
399.51	376.83
399.70	456.40
399.90	379.17
400.09	332.36
400.28	407.25
400.47	367.46
400.67	433.00
400.86	409.59
401.05	421.30
401.24	418.96
401.44	411.93
401.63	355.76
401.82	346.40
402.01	390.87
402.21	404.91
402.40	360.44
402.59	388.53
402.78	390.87
402.97	442.36
403.17	402.57
403.36	456.40
403.55	379.17
403.74	409.59
403.93	383.85
404.13	416.62
404.32	423.64
404.51	404.91
404.70	411.93
404.89	348.74
405.09	456.40
405.28	367.46
405.47	402.57
405.66	393.21
405.85	458.74
406.05	456.40
406.24	418.96
406.43	355.76
406.62	393.21
406.81	416.62
407.00	395.55
407.20	341.72
407.39	430.66
407.58	451.72
407.77	407.25
407.96	421.30
408.15	433.00
408.34	416.62
408.54	393.21
408.73	423.64
408.92	397.89
409.11	472.79
409.30	400.23
409.49	397.89
409.68	447.04
409.87	435.34
410.07	379.17
410.26	428.32
410.45	383.85
410.64	388.53
410.83	395.55
411.02	346.40
411.21	449.38
411.40	447.04
411.59	379.17
411.78	498.53
411.98	430.66
412.17	397.89
412.36	397.89
412.55	428.32
412.74	416.62
412.93	458.74
413.12	440.02
413.31	484.49
413.50	458.74
413.69	440.02
413.88	512.58
414.07	376.83
414.26	407.25
414.45	411.93
414.64	465.77
414.83	519.60
415.02	393.21
415.22	369.80
415.41	418.96
415.60	397.89
415.79	348.74
415.98	372.15
416.17	290.23
416.36	451.72
416.55	381.51
416.74	395.55
416.93	397.89
417.12	365.12
417.31	386.19
417.50	369.80
417.69	421.30
417.88	390.87
418.07	339.38
418.26	369.80
418.45	337.04
418.64	437.68
418.83	468.11
419.02	425.98
419.21	383.85
419.39	369.80
419.58	407.25
419.77	430.66
419.96	465.77
420.15	442.36
420.34	404.91
420.53	409.59
420.72	433.00
420.91	381.51
421.10	407.25
421.29	454.06
421.48	461.09
421.67	381.51
421.86	407.25
422.05	407.25
422.24	355.76
422.43	404.91
422.61	444.70
422.80	409.59
422.99	414.27
423.18	379.17
423.37	418.96
423.56	407.25
423.75	355.76
423.94	414.27
424.13	393.21
424.32	404.91
424.50	425.98
424.69	447.04
424.88	437.68
425.07	456.40
425.26	472.79
425.45	472.79
425.64	423.64
425.83	360.44
426.01	407.25
426.20	409.59
426.39	440.02
426.58	425.98
426.77	414.27
426.96	475.13
427.15	430.66
427.33	393.21
427.52	449.38
427.71	383.85
427.90	421.30
428.09	463.43
428.28	482.15
428.46	458.74
428.65	332.36
428.84	416.62
429.03	416.62
429.22	418.96
429.40	418.96
429.59	353.42
429.78	369.80
429.97	365.12
430.16	442.36
430.34	400.23
430.53	388.53
430.72	395.55
430.91	390.87
431.10	348.74
431.28	325.33
431.47	465.77
431.66	418.96
431.85	409.59
432.03	404.91
432.22	484.49
432.41	372.15
432.60	454.06
432.79	454.06
432.97	433.00
433.16	435.34
433.35	435.34
433.54	428.32
433.72	435.34
433.91	397.89
434.10	409.59
434.28	423.64
434.47	409.59
434.66	440.02
434.85	407.25
435.03	514.92
435.22	496.19
435.41	496.19
435.59	414.27
435.78	447.04
435.97	311.29
436.16	362.78
436.34	390.87
436.53	372.15
436.72	416.62
436.90	482.15
437.09	442.36
437.28	414.27
437.46	395.55
437.65	372.15
437.84	407.25
438.02	430.66
438.21	414.27
438.40	397.89
438.58	454.06
438.77	351.08
438.96	489.17
439.14	379.17
439.33	449.38
439.52	421.30
439.70	444.70
439.89	430.66
440.08	440.02
440.26	381.51
440.45	367.46
440.63	428.32
440.82	423.64
441.01	365.12
441.19	402.57
441.38	390.87
441.57	393.21
441.75	381.51
441.94	493.85
442.12	346.40
442.31	425.98
442.50	400.23
442.68	402.57
442.87	407.25
443.05	362.78
443.24	395.55
443.43	393.21
443.61	379.17
443.80	376.83
443.98	402.57
444.17	400.23
444.35	433.00
444.54	421.30
444.73	402.57
444.91	463.43
445.10	416.62
445.28	433.00
445.47	433.00
445.65	407.25
445.84	423.64
446.02	411.93
446.21	414.27
446.39	442.36
446.58	395.55
446.77	390.87
446.95	358.10
447.14	416.62
447.32	456.40
447.51	425.98
447.69	395.55
447.88	381.51
448.06	451.72
448.25	444.70
448.43	341.72
448.62	472.79
448.80	425.98
448.99	449.38
449.17	423.64
449.36	416.62
449.54	451.72
449.73	372.15
449.91	433.00
450.10	437.68
450.28	430.66
450.46	442.36
450.65	442.36
450.83	383.85
451.02	442.36
451.20	414.27
451.39	400.23
451.57	440.02
451.76	358.10
451.94	344.06
452.13	393.21
452.31	369.80
452.49	416.62
452.68	442.36
452.86	454.06
453.05	428.32
453.23	409.59
453.42	348.74
453.60	454.06
453.78	440.02
453.97	435.34
454.15	388.53
454.34	395.55
454.52	425.98
454.70	411.93
454.89	402.57
455.07	376.83
455.26	332.36
455.44	477.47
455.62	395.55
455.81	442.36
455.99	484.49
456.17	423.64
456.36	437.68
456.54	437.68
456.73	437.68
456.91	388.53
457.09	451.72
457.28	393.21
457.46	369.80
457.64	360.44
457.83	442.36
458.01	451.72
458.19	482.15
458.38	379.17
458.56	454.06
458.74	437.68
458.93	458.74
459.11	414.27
459.29	358.10
459.48	428.32
459.66	327.68
459.84	358.10
460.03	519.60
460.21	390.87
460.39	430.66
460.57	477.47
460.76	454.06
460.94	468.11
461.12	447.04
461.31	390.87
461.49	388.53
461.67	425.98
461.85	414.27
462.04	362.78
462.22	737.27
462.40	447.04
462.59	510.24
462.77	430.66
462.95	327.68
463.13	388.53
463.32	411.93
463.50	465.77
463.68	519.60
463.86	421.30
464.05	397.89
464.23	423.64
464.41	383.85
464.59	383.85
464.78	351.08
464.96	346.40
465.14	386.19
465.32	341.72
465.50	451.72
465.69	376.83
465.87	367.46
466.05	425.98
466.23	386.19
466.41	400.23
466.60	423.64
466.78	395.55
466.96	381.51
467.14	395.55
467.32	407.25
467.51	409.59
467.69	437.68
467.87	451.72
468.05	491.51
468.23	421.30
468.41	369.80
468.60	386.19
468.78	463.43
468.96	479.81
469.14	433.00
469.32	425.98
469.50	461.09
469.69	496.19
469.87	362.78
470.05	416.62
470.23	440.02
470.41	442.36
470.59	386.19
470.77	372.15
470.95	447.04
471.14	433.00
471.32	397.89
471.50	421.30
471.68	472.79
471.86	503.22
472.04	416.62
472.22	425.98
472.40	416.62
472.58	362.78
472.77	360.44
472.95	395.55
473.13	454.06
473.31	454.06
473.49	393.21
473.67	308.95
473.85	472.79
474.03	447.04
474.21	404.91
474.39	428.32
474.57	362.78
474.75	355.76
474.93	362.78
475.12	337.04
475.30	423.64
475.48	493.85
475.66	416.62
475.84	463.43
476.02	449.38
476.20	447.04
476.38	372.15
476.56	425.98
476.74	388.53
476.92	418.96
477.10	404.91
477.28	425.98
477.46	411.93
477.64	477.47
477.82	428.32
478.00	390.87
478.18	416.62
478.36	388.53
478.54	423.64
478.72	437.68
478.90	386.19
479.08	437.68
479.26	409.59
479.44	388.53
479.62	416.62
479.80	285.55
479.98	395.55
480.16	379.17
480.34	442.36
480.52	393.21
480.70	440.02
480.88	458.74
481.06	423.64
481.24	418.96
481.41	351.08
481.59	390.87
481.77	414.27
481.95	369.80
482.13	418.96
482.31	423.64
482.49	430.66
482.67	437.68
482.85	362.78
483.03	430.66
483.21	397.89
483.39	390.87
483.57	407.25
483.74	475.13
483.92	346.40
484.10	348.74
484.28	437.68
484.46	470.45
484.64	440.02
484.82	395.55
485.00	402.57
485.18	348.74
485.35	486.83
485.53	435.34
485.71	414.27
485.89	390.87
486.07	472.79
486.25	447.04
486.43	486.83
486.61	482.15
486.78	404.91
486.96	411.93
487.14	381.51
487.32	376.83
487.50	400.23
487.68	447.04
487.85	379.17
488.03	374.49
488.21	437.68
488.39	383.85
488.57	425.98
488.75	409.59
488.92	519.60
489.10	461.09
489.28	482.15
489.46	402.57
489.64	449.38
489.81	376.83
489.99	397.89
490.17	500.87
490.35	383.85
490.53	395.55
490.70	369.80
490.88	372.15
491.06	390.87
491.24	388.53
491.41	461.09
491.59	435.34
491.77	362.78
491.95	418.96
492.13	355.76
492.30	379.17
492.48	360.44
492.66	416.62
492.84	468.11
493.01	430.66
493.19	407.25
493.37	505.56
493.54	456.40
493.72	428.32
493.90	369.80
494.08	358.10
494.25	393.21
494.43	414.27
494.61	479.81
494.79	444.70
494.96	360.44
495.14	388.53
495.32	360.44
495.49	454.06
495.67	463.43
495.85	407.25
496.02	414.27
496.20	395.55
496.38	458.74
496.55	411.93
496.73	383.85
496.91	461.09
497.09	458.74
497.26	482.15
497.44	449.38
497.62	435.34
497.79	423.64
497.97	479.81
498.14	414.27
498.32	379.17
498.50	355.76
498.67	358.10
498.85	397.89
499.03	418.96
499.20	407.25
499.38	400.23
499.56	493.85
499.73	411.93
499.91	416.62
500.08	402.57
500.26	433.00
500.44	416.62
500.61	407.25
500.79	433.00
500.97	374.49
501.14	425.98
501.32	404.91
501.49	437.68
501.67	402.57
501.84	372.15
502.02	411.93
502.20	449.38
502.37	386.19
502.55	444.70
502.72	306.61
502.90	433.00
503.07	421.30
503.25	475.13
503.43	447.04
503.60	397.89
503.78	390.87
503.95	407.25
504.13	437.68
504.30	449.38
504.48	409.59
504.65	437.68
504.83	482.15
505.01	390.87
505.18	468.11
505.36	372.15
505.53	374.49
505.71	421.30
505.88	472.79
506.06	428.32
506.23	400.23
506.41	376.83
506.58	475.13
506.76	400.23
506.93	472.79
507.11	477.47
507.28	362.78
507.46	379.17
507.63	423.64
507.81	423.64
507.98	360.44
508.16	390.87
508.33	493.85
508.50	381.51
508.68	362.78
508.85	390.87
509.03	390.87
509.20	351.08
509.38	388.53
509.55	463.43
509.73	489.17
509.90	423.64
510.08	411.93
510.25	416.62
510.42	449.38
510.60	456.40
510.77	395.55
510.95	458.74
511.12	386.19
511.30	484.49
511.47	447.04
511.64	430.66
511.82	444.70
511.99	388.53
512.17	430.66
512.34	369.80
512.51	334.70
512.69	397.89
512.86	437.68
513.04	411.93
513.21	440.02
513.38	386.19
513.56	358.10
513.73	407.25
513.90	428.32
514.08	379.17
514.25	435.34
514.43	355.76
514.60	442.36
514.77	404.91
514.95	425.98
515.12	402.57
515.29	358.10
515.47	372.15
515.64	393.21
515.81	386.19
515.99	390.87
516.16	437.68
516.33	451.72
516.51	388.53
516.68	353.42
516.85	381.51
517.03	404.91
517.20	444.70
517.37	421.30
517.54	374.49
517.72	376.83
517.89	400.23
518.06	425.98
518.24	421.30
518.41	475.13
518.58	451.72
518.75	454.06
518.93	400.23
519.10	428.32
519.27	353.42
519.45	395.55
519.62	393.21
519.79	517.26
519.96	404.91
520.14	440.02
520.31	376.83
520.48	365.12
520.65	416.62
520.83	440.02
521.00	442.36
521.17	444.70
521.34	444.70
521.52	428.32
521.69	482.15
521.86	376.83
522.03	451.72
522.20	449.38
522.38	411.93
522.55	348.74
522.72	381.51
522.89	414.27
523.07	486.83
523.24	379.17
523.41	393.21
523.58	407.25
523.75	447.04
523.92	397.89
524.10	400.23
524.27	393.21
524.44	433.00
524.61	486.83
524.78	409.59
524.96	433.00
525.13	444.70
525.30	430.66
525.47	362.78
525.64	442.36
525.81	458.74
525.98	430.66
526.16	472.79
526.33	416.62
526.50	461.09
526.67	411.93
526.84	372.15
527.01	430.66
527.18	404.91
527.36	374.49
527.53	416.62
527.70	362.78
527.87	416.62
528.04	486.83
528.21	435.34
528.38	428.32
528.55	442.36
528.72	442.36
528.89	493.85
529.07	369.80
529.24	404.91
529.41	381.51
529.58	395.55
529.75	351.08
529.92	425.98
530.09	381.51
530.26	407.25
530.43	484.49
530.60	456.40
530.77	465.77
530.94	435.34
531.11	369.80
531.28	407.25
531.46	421.30
531.63	390.87
531.80	437.68
531.97	493.85
532.14	341.72
532.31	477.47
532.48	428.32
532.65	374.49
532.82	304.27
532.99	407.25
533.16	421.30
533.33	400.23
533.50	374.49
533.67	402.57
533.84	397.89
534.01	407.25
534.18	330.02
534.35	376.83
534.52	475.13
534.69	383.85
534.86	423.64
535.03	400.23
535.20	379.17
535.37	447.04
535.54	418.96
535.71	425.98
535.88	421.30
536.05	421.30
536.22	397.89
536.38	407.25
536.55	411.93
536.72	414.27
536.89	409.59
537.06	355.76
537.23	440.02
537.40	390.87
537.57	407.25
537.74	451.72
537.91	404.91
538.08	383.85
538.25	362.78
538.42	454.06
538.59	437.68
538.75	360.44
538.92	454.06
539.09	517.26
539.26	437.68
539.43	435.34
539.60	435.34
539.77	337.04
539.94	468.11
540.11	482.15
540.28	458.74
540.44	458.74
540.61	433.00
540.78	421.30
540.95	322.99
541.12	454.06
541.29	395.55
541.46	447.04
541.62	428.32
541.79	472.79
541.96	447.04
542.13	428.32
542.30	451.72
542.47	393.21
542.63	372.15
542.80	433.00
542.97	456.40
543.14	475.13
543.31	451.72
543.48	428.32
543.64	449.38
543.81	475.13
543.98	421.30
544.15	433.00
544.32	433.00
544.48	367.46
544.65	400.23
544.82	444.70
544.99	369.80
545.16	449.38
545.32	386.19
545.49	435.34
545.66	369.80
545.83	383.85
546.00	402.57
546.16	386.19
546.33	423.64
546.50	311.29
546.67	496.19
546.83	447.04
547.00	454.06
547.17	383.85
547.34	374.49
547.50	458.74
547.67	416.62
547.84	362.78
548.00	447.04
548.17	428.32
548.34	521.94
548.51	409.59
548.67	425.98
548.84	414.27
549.01	428.32
549.18	421.30
549.34	395.55
549.51	409.59
549.68	372.15
549.84	416.62
550.01	372.15
550.18	472.79
550.34	528.96
550.51	472.79
550.68	433.00
550.84	451.72
551.01	376.83
551.18	416.62
551.34	447.04
551.51	458.74
551.68	425.98
551.84	428.32
552.01	449.38
552.18	404.91
552.34	440.02
552.51	409.59
552.68	369.80
552.84	454.06
553.01	444.70
553.18	442.36
553.34	421.30
553.51	430.66
553.67	479.81
553.84	486.83
554.01	435.34
554.17	484.49
554.34	351.08
554.51	414.27
554.67	475.13
554.84	437.68
555.00	372.15
555.17	400.23
555.33	433.00
555.50	407.25
555.67	374.49
555.83	423.64
556.00	442.36
556.16	573.43
556.33	416.62
556.50	425.98
556.66	482.15
556.83	383.85
556.99	440.02
557.16	428.32
557.32	470.45
557.49	435.34
557.65	454.06
557.82	444.70
557.98	489.17
558.15	304.27
558.32	414.27
558.48	444.70
558.65	381.51
558.81	442.36
558.98	360.44
559.14	411.93
559.31	362.78
559.47	463.43
559.64	470.45
559.80	435.34
559.97	486.83
560.13	390.87
560.30	379.17
560.46	355.76
560.63	440.02
560.79	458.74
560.96	372.15
561.12	437.68
561.29	393.21
561.45	428.32
561.61	519.60
561.78	557.05
561.94	409.59
562.11	435.34
562.27	414.27
562.44	454.06
562.60	435.34
562.77	411.93
562.93	461.09
563.10	428.32
563.26	372.15
563.42	435.34
563.59	395.55
563.75	383.85
563.92	444.70
564.08	407.25
564.24	409.59
564.41	454.06
564.57	374.49
564.74	425.98
564.90	437.68
565.07	409.59
565.23	463.43
565.39	437.68
565.56	411.93
565.72	465.77
565.88	407.25
566.05	397.89
566.21	367.46
566.38	407.25
566.54	437.68
566.70	475.13
566.87	379.17
567.03	404.91
567.19	395.55
567.36	414.27
567.52	447.04
567.68	468.11
567.85	402.57
568.01	496.19
568.17	461.09
568.34	440.02
568.50	447.04
568.66	442.36
568.83	444.70
568.99	442.36
569.15	423.64
569.32	372.15
569.48	395.55
569.64	430.66
569.81	454.06
569.97	383.85
570.13	449.38
570.30	454.06
570.46	407.25
570.62	423.64
570.78	425.98
570.95	374.49
571.11	447.04
571.27	475.13
571.43	458.74
571.60	428.32
571.76	369.80
571.92	386.19
572.09	393.21
572.25	437.68
572.41	444.70
572.57	428.32
572.74	388.53
572.90	479.81
573.06	372.15
573.22	425.98
573.38	475.13
573.55	411.93
573.71	477.47
573.87	451.72
574.03	351.08
574.20	386.19
574.36	468.11
574.52	486.83
574.68	376.83
574.84	358.10
575.01	395.55
575.17	404.91
575.33	428.32
575.49	442.36
575.65	461.09
575.82	496.19
575.98	440.02
576.14	374.49
576.30	330.02
576.46	411.93
576.62	418.96
576.79	353.42
576.95	409.59
577.11	423.64
577.27	416.62
577.43	437.68
577.59	397.89
577.75	423.64
577.92	351.08
578.08	409.59
578.24	395.55
578.40	402.57
578.56	442.36
578.72	442.36
578.88	451.72
579.04	369.80
579.21	409.59
579.37	449.38
579.53	423.64
579.69	472.79
579.85	430.66
580.01	395.55
580.17	393.21
580.33	428.32
580.49	337.04
580.65	402.57
580.82	437.68
580.98	383.85
581.14	358.10
581.30	437.68
581.46	393.21
581.62	430.66
581.78	430.66
581.94	416.62
582.10	440.02
582.26	369.80
582.42	393.21
582.58	444.70
582.74	440.02
582.90	433.00
583.06	454.06
583.22	430.66
583.38	423.64
583.54	404.91
583.70	430.66
583.86	416.62
584.02	416.62
584.18	470.45
584.34	386.19
584.50	330.02
584.66	458.74
584.82	388.53
584.98	367.46
585.14	465.77
585.30	418.96
585.46	428.32
585.62	327.68
585.78	386.19
585.94	456.40
586.10	397.89
586.26	409.59
586.42	393.21
586.58	358.10
586.74	409.59
586.90	334.70
587.06	456.40
587.22	362.78
587.38	475.13
587.54	411.93
587.70	447.04
587.86	388.53
588.02	369.80
588.18	367.46
588.34	482.15
588.49	428.32
588.65	395.55
588.81	351.08
588.97	435.34
589.13	489.17
589.29	437.68
589.45	454.06
589.61	421.30
589.77	428.32
589.93	369.80
590.08	461.09
590.24	409.59
590.40	430.66
590.56	411.93
590.72	468.11
590.88	416.62
591.04	407.25
591.20	414.27
591.35	514.92
591.51	440.02
591.67	421.30
591.83	409.59
591.99	433.00
592.15	397.89
592.31	423.64
592.46	383.85
592.62	374.49
592.78	425.98
592.94	369.80
593.10	348.74
593.26	444.70
593.41	421.30
593.57	454.06
593.73	388.53
593.89	421.30
594.05	409.59
594.20	414.27
594.36	372.15
594.52	423.64
594.68	416.62
594.84	444.70
594.99	454.06
595.15	348.74
595.31	383.85
595.47	409.59
595.62	409.59
595.78	437.68
595.94	367.46
596.10	442.36
596.25	447.04
596.41	458.74
596.57	358.10
596.73	409.59
596.88	421.30
597.04	430.66
597.20	425.98
597.36	447.04
597.51	437.68
597.67	397.89
597.83	451.72
597.99	486.83
598.14	369.80
598.30	470.45
598.46	379.17
598.61	479.81
598.77	447.04
598.93	379.17
599.09	351.08
599.24	386.19
599.40	374.49
599.56	421.30
599.71	433.00
599.87	395.55
600.03	425.98
600.18	449.38
600.34	435.34
600.50	372.15
600.65	381.51
600.81	414.27
600.97	472.79
601.12	444.70
601.28	374.49
601.44	404.91
601.59	475.13
601.75	388.53
601.91	416.62
602.06	411.93
602.22	440.02
602.37	423.64
602.53	428.32
602.69	425.98
602.84	386.19
603.00	383.85
603.16	397.89
603.31	479.81
603.47	374.49
603.62	379.17
603.78	393.21
603.94	407.25
604.09	358.10
604.25	425.98
604.40	454.06
604.56	341.72
604.71	334.70
604.87	397.89
605.03	379.17
605.18	433.00
605.34	416.62
605.49	409.59
605.65	404.91
605.80	440.02
605.96	376.83
606.12	440.02
606.27	407.25
606.43	465.77
606.58	388.53
606.74	447.04
606.89	461.09
607.05	421.30
607.20	360.44
607.36	418.96
607.51	346.40
607.67	458.74
607.82	423.64
607.98	498.53
608.13	489.17
608.29	339.38
608.44	407.25
608.60	393.21
608.75	430.66
608.91	397.89
609.06	400.23
609.22	451.72
609.37	430.66
609.53	400.23
609.68	416.62
609.84	449.38
609.99	437.68
610.15	451.72
