SpectraSuite Data File
++++++++++++++++++++++++++++++++++++
Date: Fri Oct 25 12:11:05 EDT 2013
User: price-jones
Dark Spectrum Present: No
Reference Spectrum Present: No
Number of Sampled Component Spectra: 1
Spectrometers: USB2+H05261
Integration Time (usec): 100000 (USB2+H05261)
Spectra Averaged: 1 (USB2+H05261)
Boxcar Smoothing: 0 (USB2+H05261)
Correct for Electrical Dark: No (USB2+H05261)
Strobe/Lamp Enabled: No (USB2+H05261)
Correct for Detector Non-linearity: No (USB2+H05261)
Correct for Stray Light: No (USB2+H05261)
Number of Pixels in Processed Spectrum: 2048
>>>>>Begin Processed Spectral Data<<<<<
365.73	376.83
365.92	376.83
366.12	376.83
366.32	243.42
366.52	266.82
366.72	271.50
366.91	191.92
367.11	208.31
367.31	290.23
367.51	271.50
367.70	224.69
367.90	229.37
368.10	285.55
368.30	231.71
368.49	245.76
368.69	264.48
368.89	215.33
369.09	252.78
369.28	243.42
369.48	250.44
369.68	355.76
369.87	306.61
370.07	245.76
370.27	337.04
370.47	409.59
370.66	337.04
370.86	339.38
371.06	362.78
371.25	381.51
371.45	315.97
371.65	411.93
371.84	353.42
372.04	428.32
372.24	451.72
372.44	376.83
372.63	404.91
372.83	372.15
373.03	437.68
373.22	386.19
373.42	381.51
373.62	390.87
373.81	393.21
374.01	369.80
374.21	425.98
374.40	409.59
374.60	463.43
374.79	444.70
374.99	470.45
375.19	449.38
375.38	409.59
375.58	423.64
375.78	411.93
375.97	482.15
376.17	479.81
376.37	369.80
376.56	414.27
376.76	367.46
376.95	393.21
377.15	414.27
377.35	423.64
377.54	440.02
377.74	388.53
377.93	407.25
378.13	484.49
378.33	418.96
378.52	433.00
378.72	414.27
378.91	425.98
379.11	440.02
379.31	381.51
379.50	348.74
379.70	468.11
379.89	344.06
380.09	383.85
380.28	402.57
380.48	414.27
380.68	362.78
380.87	390.87
381.07	404.91
381.26	479.81
381.46	379.17
381.65	362.78
381.85	379.17
382.04	449.38
382.24	369.80
382.43	428.32
382.63	376.83
382.83	414.27
383.02	411.93
383.22	435.34
383.41	383.85
383.61	395.55
383.80	414.27
384.00	322.99
384.19	395.55
384.39	386.19
384.58	437.68
384.78	437.68
384.97	301.93
385.17	440.02
385.36	362.78
385.56	435.34
385.75	404.91
385.95	388.53
386.14	437.68
386.34	360.44
386.53	409.59
386.72	393.21
386.92	409.59
387.11	332.36
387.31	411.93
387.50	404.91
387.70	414.27
387.89	388.53
388.09	367.46
388.28	360.44
388.48	416.62
388.67	430.66
388.86	390.87
389.06	400.23
389.25	409.59
389.45	465.77
389.64	440.02
389.84	411.93
390.03	407.25
390.22	400.23
390.42	386.19
390.61	407.25
390.81	411.93
391.00	458.74
391.19	444.70
391.39	451.72
391.58	383.85
391.78	397.89
391.97	433.00
392.16	425.98
392.36	468.11
392.55	383.85
392.75	416.62
392.94	388.53
393.13	486.83
393.33	337.04
393.52	397.89
393.71	390.87
393.91	440.02
394.10	390.87
394.29	465.77
394.49	418.96
394.68	421.30
394.88	456.40
395.07	390.87
395.26	383.85
395.46	482.15
395.65	442.36
395.84	428.32
396.04	425.98
396.23	369.80
396.42	428.32
396.62	367.46
396.81	456.40
397.00	346.40
397.19	411.93
397.39	358.10
397.58	456.40
397.77	440.02
397.97	372.15
398.16	346.40
398.35	367.46
398.55	402.57
398.74	414.27
398.93	430.66
399.12	400.23
399.32	425.98
399.51	433.00
399.70	393.21
399.90	472.79
400.09	393.21
400.28	442.36
400.47	393.21
400.67	456.40
400.86	435.34
401.05	414.27
401.24	433.00
401.44	404.91
401.63	440.02
401.82	468.11
402.01	383.85
402.21	433.00
402.40	395.55
402.59	374.49
402.78	383.85
402.97	416.62
403.17	395.55
403.36	416.62
403.55	411.93
403.74	430.66
403.93	360.44
404.13	472.79
404.32	355.76
404.51	386.19
404.70	400.23
404.89	388.53
405.09	404.91
405.28	395.55
405.47	327.68
405.66	400.23
405.85	416.62
406.05	416.62
406.24	393.21
406.43	423.64
406.62	404.91
406.81	430.66
407.00	486.83
407.20	397.89
407.39	353.42
407.58	395.55
407.77	402.57
407.96	414.27
408.15	397.89
408.34	376.83
408.54	404.91
408.73	344.06
408.92	360.44
409.11	433.00
409.30	402.57
409.49	362.78
409.68	376.83
409.87	461.09
410.07	393.21
410.26	461.09
410.45	411.93
410.64	374.49
410.83	458.74
411.02	372.15
411.21	390.87
411.40	395.55
411.59	414.27
411.78	383.85
411.98	388.53
412.17	383.85
412.36	402.57
412.55	358.10
412.74	444.70
412.93	418.96
413.12	428.32
413.31	409.59
413.50	430.66
413.69	461.09
413.88	447.04
414.07	404.91
414.26	397.89
414.45	379.17
414.64	386.19
414.83	355.76
415.02	374.49
415.22	409.59
415.41	477.47
415.60	372.15
415.79	395.55
415.98	414.27
416.17	416.62
416.36	451.72
416.55	468.11
416.74	437.68
416.93	402.57
417.12	470.45
417.31	442.36
417.50	411.93
417.69	456.40
417.88	416.62
418.07	374.49
418.26	409.59
418.45	435.34
418.64	428.32
418.83	430.66
419.02	327.68
419.21	351.08
419.39	454.06
419.58	393.21
419.77	372.15
419.96	428.32
420.15	500.87
420.34	397.89
420.53	362.78
420.72	418.96
420.91	369.80
421.10	428.32
421.29	449.38
421.48	411.93
421.67	489.17
421.86	402.57
422.05	437.68
422.24	409.59
422.43	416.62
422.61	423.64
422.80	447.04
422.99	376.83
423.18	386.19
423.37	451.72
423.56	379.17
423.75	388.53
423.94	381.51
424.13	414.27
424.32	365.12
424.50	409.59
424.69	367.46
424.88	409.59
425.07	416.62
425.26	411.93
425.45	388.53
425.64	472.79
425.83	428.32
426.01	451.72
426.20	430.66
426.39	379.17
426.58	379.17
426.77	442.36
426.96	369.80
427.15	479.81
427.33	409.59
427.52	433.00
427.71	435.34
427.90	402.57
428.09	397.89
428.28	395.55
428.46	437.68
428.65	379.17
428.84	456.40
429.03	414.27
429.22	355.76
429.40	365.12
429.59	421.30
429.78	447.04
429.97	430.66
430.16	451.72
430.34	449.38
430.53	461.09
430.72	409.59
430.91	493.85
431.10	383.85
431.28	409.59
431.47	454.06
431.66	362.78
431.85	444.70
432.03	369.80
432.22	475.13
432.41	451.72
432.60	447.04
432.79	376.83
432.97	397.89
433.16	388.53
433.35	489.17
433.54	369.80
433.72	475.13
433.91	397.89
434.10	379.17
434.28	435.34
434.47	456.40
434.66	372.15
434.85	346.40
435.03	404.91
435.22	397.89
435.41	472.79
435.59	423.64
435.78	407.25
435.97	393.21
436.16	428.32
436.34	404.91
436.53	470.45
436.72	358.10
436.90	421.30
437.09	407.25
437.28	386.19
437.46	416.62
437.65	411.93
437.84	379.17
438.02	428.32
438.21	418.96
438.40	374.49
438.58	393.21
438.77	451.72
438.96	365.12
439.14	418.96
439.33	461.09
439.52	423.64
439.70	355.76
439.89	372.15
440.08	376.83
440.26	414.27
440.45	433.00
440.63	433.00
440.82	433.00
441.01	465.77
441.19	400.23
441.38	355.76
441.57	437.68
441.75	468.11
441.94	433.00
442.12	372.15
442.31	418.96
442.50	418.96
442.68	449.38
442.87	458.74
443.05	402.57
443.24	456.40
443.43	456.40
443.61	409.59
443.80	404.91
443.98	423.64
444.17	395.55
444.35	395.55
444.54	390.87
444.73	395.55
444.91	444.70
445.10	386.19
445.28	358.10
445.47	402.57
445.65	437.68
445.84	418.96
446.02	409.59
446.21	411.93
446.39	393.21
446.58	381.51
446.77	386.19
446.95	454.06
447.14	367.46
447.32	381.51
447.51	390.87
447.69	423.64
447.88	386.19
448.06	451.72
448.25	402.57
448.43	411.93
448.62	348.74
448.80	430.66
448.99	379.17
449.17	440.02
449.36	365.12
449.54	404.91
449.73	470.45
449.91	444.70
450.10	423.64
450.28	449.38
450.46	433.00
450.65	440.02
450.83	397.89
451.02	416.62
451.20	428.32
451.39	440.02
451.57	416.62
451.76	383.85
451.94	470.45
452.13	435.34
452.31	322.99
452.49	458.74
452.68	400.23
452.86	465.77
453.05	458.74
453.23	376.83
453.42	442.36
453.60	456.40
453.78	500.87
453.97	360.44
454.15	475.13
454.34	404.91
454.52	374.49
454.70	458.74
454.89	423.64
455.07	397.89
455.26	407.25
455.44	393.21
455.62	433.00
455.81	362.78
455.99	421.30
456.17	430.66
456.36	334.70
456.54	407.25
456.73	449.38
456.91	442.36
457.09	444.70
457.28	402.57
457.46	404.91
457.64	430.66
457.83	411.93
458.01	428.32
458.19	449.38
458.38	407.25
458.56	500.87
458.74	372.15
458.93	372.15
459.11	440.02
459.29	454.06
459.48	442.36
459.66	440.02
459.84	400.23
460.03	440.02
460.21	418.96
460.39	362.78
460.57	498.53
460.76	404.91
460.94	418.96
461.12	360.44
461.31	423.64
461.49	393.21
461.67	440.02
461.85	393.21
462.04	409.59
462.22	748.97
462.40	444.70
462.59	470.45
462.77	496.19
462.95	407.25
463.13	456.40
463.32	440.02
463.50	470.45
463.68	456.40
463.86	404.91
464.05	411.93
464.23	465.77
464.41	404.91
464.59	421.30
464.78	421.30
464.96	395.55
465.14	454.06
465.32	362.78
465.50	444.70
465.69	444.70
465.87	400.23
466.05	461.09
466.23	390.87
466.41	444.70
466.60	461.09
466.78	414.27
466.96	463.43
467.14	358.10
467.32	430.66
467.51	444.70
467.69	449.38
467.87	477.47
468.05	390.87
468.23	374.49
468.41	418.96
468.60	404.91
468.78	468.11
468.96	428.32
469.14	526.62
469.32	393.21
469.50	341.72
469.69	388.53
469.87	454.06
470.05	379.17
470.23	454.06
470.41	388.53
470.59	362.78
470.77	437.68
470.95	456.40
471.14	433.00
471.32	348.74
471.50	458.74
471.68	369.80
471.86	407.25
472.04	402.57
472.22	386.19
472.40	372.15
472.58	341.72
472.77	430.66
472.95	435.34
473.13	440.02
473.31	496.19
473.49	395.55
473.67	402.57
473.85	475.13
474.03	362.78
474.21	430.66
474.39	379.17
474.57	440.02
474.75	440.02
474.93	325.33
475.12	428.32
475.30	454.06
475.48	390.87
475.66	430.66
475.84	351.08
476.02	428.32
476.20	365.12
476.38	395.55
476.56	463.43
476.74	400.23
476.92	372.15
477.10	407.25
477.28	430.66
477.46	388.53
477.64	402.57
477.82	402.57
478.00	468.11
478.18	414.27
478.36	388.53
478.54	442.36
478.72	458.74
478.90	386.19
479.08	390.87
479.26	386.19
479.44	374.49
479.62	379.17
479.80	341.72
479.98	454.06
480.16	411.93
480.34	440.02
480.52	362.78
480.70	458.74
480.88	365.12
481.06	423.64
481.24	397.89
481.41	381.51
481.59	409.59
481.77	365.12
481.95	409.59
482.13	404.91
482.31	383.85
482.49	402.57
482.67	458.74
482.85	430.66
483.03	381.51
483.21	386.19
483.39	334.70
483.57	348.74
483.74	416.62
483.92	376.83
484.10	383.85
484.28	493.85
484.46	517.26
484.64	358.10
484.82	437.68
485.00	451.72
485.18	388.53
485.35	430.66
485.53	369.80
485.71	400.23
485.89	381.51
486.07	447.04
486.25	386.19
486.43	486.83
486.61	414.27
486.78	390.87
486.96	428.32
487.14	369.80
487.32	505.56
487.50	465.77
487.68	421.30
487.85	414.27
488.03	400.23
488.21	465.77
488.39	418.96
488.57	456.40
488.75	414.27
488.92	479.81
489.10	416.62
489.28	477.47
489.46	425.98
489.64	435.34
489.81	404.91
489.99	404.91
490.17	423.64
490.35	454.06
490.53	421.30
490.70	400.23
490.88	440.02
491.06	369.80
491.24	468.11
491.41	449.38
491.59	393.21
491.77	402.57
491.95	402.57
492.13	442.36
492.30	430.66
492.48	381.51
492.66	444.70
492.84	395.55
493.01	414.27
493.19	365.12
493.37	449.38
493.54	440.02
493.72	409.59
493.90	372.15
494.08	395.55
494.25	437.68
494.43	449.38
494.61	369.80
494.79	367.46
494.96	456.40
495.14	514.92
495.32	400.23
495.49	435.34
495.67	423.64
495.85	430.66
496.02	386.19
496.20	430.66
496.38	409.59
496.55	454.06
496.73	435.34
496.91	395.55
497.09	372.15
497.26	372.15
497.44	402.57
497.62	463.43
497.79	400.23
497.97	447.04
498.14	416.62
498.32	411.93
498.50	393.21
498.67	430.66
498.85	386.19
499.03	437.68
499.20	407.25
499.38	376.83
499.56	414.27
499.73	461.09
499.91	430.66
500.08	372.15
500.26	414.27
500.44	390.87
500.61	416.62
500.79	409.59
500.97	351.08
501.14	400.23
501.32	442.36
501.49	409.59
501.67	388.53
501.84	416.62
502.02	332.36
502.20	475.13
502.37	402.57
502.55	299.59
502.72	348.74
502.90	381.51
503.07	393.21
503.25	390.87
503.43	334.70
503.60	435.34
503.78	386.19
503.95	383.85
504.13	397.89
504.30	400.23
504.48	360.44
504.65	507.90
504.83	442.36
505.01	440.02
505.18	486.83
505.36	397.89
505.53	423.64
505.71	428.32
505.88	437.68
506.06	447.04
506.23	409.59
506.41	440.02
506.58	423.64
506.76	365.12
506.93	383.85
507.11	402.57
507.28	470.45
507.46	411.93
507.63	400.23
507.81	367.46
507.98	423.64
508.16	353.42
508.33	402.57
508.50	358.10
508.68	418.96
508.85	425.98
509.03	369.80
509.20	360.44
509.38	341.72
509.55	388.53
509.73	470.45
509.90	423.64
510.08	372.15
510.25	437.68
510.42	407.25
510.60	433.00
510.77	470.45
510.95	433.00
511.12	367.46
511.30	414.27
511.47	402.57
511.64	463.43
511.82	421.30
511.99	404.91
512.17	435.34
512.34	407.25
512.51	395.55
512.69	477.47
512.86	425.98
513.04	411.93
513.21	411.93
513.38	416.62
513.56	447.04
513.73	463.43
513.90	442.36
514.08	437.68
514.25	407.25
514.43	386.19
514.60	390.87
514.77	477.47
514.95	440.02
515.12	418.96
515.29	376.83
515.47	411.93
515.64	463.43
515.81	451.72
515.99	493.85
516.16	400.23
516.33	430.66
516.51	437.68
516.68	409.59
516.85	503.22
517.03	447.04
517.20	477.47
517.37	402.57
517.54	386.19
517.72	402.57
517.89	423.64
518.06	437.68
518.24	489.17
518.41	418.96
518.58	421.30
518.75	402.57
518.93	428.32
519.10	496.19
519.27	402.57
519.45	393.21
519.62	404.91
519.79	435.34
519.96	365.12
520.14	358.10
520.31	442.36
520.48	362.78
520.65	362.78
520.83	428.32
521.00	433.00
521.17	433.00
521.34	334.70
521.52	353.42
521.69	472.79
521.86	409.59
522.03	440.02
522.20	416.62
522.38	390.87
522.55	369.80
522.72	351.08
522.89	404.91
523.07	472.79
523.24	437.68
523.41	327.68
523.58	486.83
523.75	449.38
523.92	416.62
524.10	414.27
524.27	402.57
524.44	430.66
524.61	390.87
524.78	360.44
524.96	423.64
525.13	472.79
525.30	461.09
525.47	418.96
525.64	348.74
525.81	458.74
525.98	376.83
526.16	414.27
526.33	411.93
526.50	372.15
526.67	409.59
526.84	386.19
527.01	400.23
527.18	433.00
527.36	440.02
527.53	365.12
527.70	402.57
527.87	404.91
528.04	468.11
528.21	390.87
528.38	437.68
528.55	440.02
528.72	442.36
528.89	416.62
529.07	430.66
529.24	458.74
529.41	393.21
529.58	383.85
529.75	397.89
529.92	440.02
530.09	430.66
530.26	379.17
530.43	388.53
530.60	386.19
530.77	287.89
530.94	451.72
531.11	402.57
531.28	411.93
531.46	440.02
531.63	447.04
531.80	428.32
531.97	402.57
532.14	458.74
532.31	465.77
532.48	407.25
532.65	444.70
532.82	435.34
532.99	390.87
533.16	393.21
533.33	423.64
533.50	346.40
533.67	400.23
533.84	491.51
534.01	465.77
534.18	503.22
534.35	423.64
534.52	390.87
534.69	435.34
534.86	381.51
535.03	414.27
535.20	482.15
535.37	437.68
535.54	428.32
535.71	388.53
535.88	416.62
536.05	437.68
536.22	430.66
536.38	388.53
536.55	463.43
536.72	486.83
536.89	444.70
537.06	423.64
537.23	388.53
537.40	428.32
537.57	456.40
537.74	451.72
537.91	442.36
538.08	411.93
538.25	437.68
538.42	376.83
538.59	404.91
538.75	416.62
538.92	411.93
539.09	430.66
539.26	472.79
539.43	430.66
539.60	390.87
539.77	404.91
539.94	423.64
540.11	386.19
540.28	477.47
540.44	381.51
540.61	416.62
540.78	334.70
540.95	379.17
541.12	393.21
541.29	360.44
541.46	411.93
541.62	360.44
541.79	344.06
541.96	397.89
542.13	449.38
542.30	470.45
542.47	454.06
542.63	440.02
542.80	416.62
542.97	400.23
543.14	423.64
543.31	393.21
543.48	386.19
543.64	388.53
543.81	477.47
543.98	372.15
544.15	449.38
544.32	404.91
544.48	433.00
544.65	442.36
544.82	400.23
544.99	428.32
545.16	409.59
545.32	486.83
545.49	447.04
545.66	458.74
545.83	402.57
546.00	404.91
546.16	402.57
546.33	411.93
546.50	369.80
546.67	416.62
546.83	512.58
547.00	409.59
547.17	372.15
547.34	414.27
547.50	440.02
547.67	416.62
547.84	423.64
548.00	407.25
548.17	423.64
548.34	374.49
548.51	461.09
548.67	421.30
548.84	411.93
549.01	421.30
549.18	458.74
549.34	386.19
549.51	491.51
549.68	437.68
549.84	404.91
550.01	416.62
550.18	493.85
550.34	386.19
550.51	421.30
550.68	414.27
550.84	374.49
551.01	433.00
551.18	423.64
551.34	454.06
551.51	360.44
551.68	449.38
551.84	360.44
552.01	421.30
552.18	393.21
552.34	418.96
552.51	393.21
552.68	444.70
552.84	395.55
553.01	472.79
553.18	430.66
553.34	388.53
553.51	416.62
553.67	407.25
553.84	444.70
554.01	454.06
554.17	489.17
554.34	416.62
554.51	416.62
554.67	472.79
554.84	489.17
555.00	376.83
555.17	418.96
555.33	468.11
555.50	414.27
555.67	383.85
555.83	430.66
556.00	456.40
556.16	568.75
556.33	479.81
556.50	421.30
556.66	437.68
556.83	367.46
556.99	390.87
557.16	388.53
557.32	489.17
557.49	433.00
557.65	330.02
557.82	491.51
557.98	404.91
558.15	393.21
558.32	428.32
558.48	414.27
558.65	386.19
558.81	449.38
558.98	409.59
559.14	447.04
559.31	358.10
559.47	348.74
559.64	383.85
559.80	397.89
559.97	407.25
560.13	435.34
560.30	379.17
560.46	465.77
560.63	463.43
560.79	425.98
560.96	456.40
561.12	397.89
561.29	379.17
561.45	456.40
561.61	458.74
561.78	454.06
561.94	369.80
562.11	428.32
562.27	421.30
562.44	407.25
562.60	339.38
562.77	482.15
562.93	458.74
563.10	404.91
563.26	451.72
563.42	416.62
563.59	421.30
563.75	383.85
563.92	369.80
564.08	416.62
564.24	454.06
564.41	440.02
564.57	367.46
564.74	444.70
564.90	430.66
565.07	456.40
565.23	472.79
565.39	421.30
565.56	463.43
565.72	465.77
565.88	463.43
566.05	451.72
566.21	339.38
566.38	454.06
566.54	458.74
566.70	451.72
566.87	454.06
567.03	379.17
567.19	444.70
567.36	470.45
567.52	496.19
567.68	423.64
567.85	465.77
568.01	496.19
568.17	402.57
568.34	433.00
568.50	400.23
568.66	409.59
568.83	468.11
568.99	421.30
569.15	444.70
569.32	344.06
569.48	416.62
569.64	428.32
569.81	468.11
569.97	507.90
570.13	344.06
570.30	435.34
570.46	433.00
570.62	440.02
570.78	430.66
570.95	386.19
571.11	416.62
571.27	369.80
571.43	425.98
571.60	521.94
571.76	414.27
571.92	409.59
572.09	341.72
572.25	407.25
572.41	397.89
572.57	442.36
572.74	484.49
572.90	428.32
573.06	400.23
573.22	423.64
573.38	400.23
573.55	393.21
573.71	372.15
573.87	390.87
574.03	421.30
574.20	428.32
574.36	437.68
574.52	418.96
574.68	404.91
574.84	376.83
575.01	454.06
575.17	423.64
575.33	395.55
575.49	470.45
575.65	407.25
575.82	425.98
575.98	372.15
576.14	367.46
576.30	463.43
576.46	411.93
576.62	425.98
576.79	402.57
576.95	440.02
577.11	381.51
577.27	411.93
577.43	433.00
577.59	437.68
577.75	430.66
577.92	365.12
578.08	440.02
578.24	360.44
578.40	458.74
578.56	449.38
578.72	414.27
578.88	433.00
579.04	447.04
579.21	465.77
579.37	404.91
579.53	430.66
579.69	404.91
579.85	402.57
580.01	440.02
580.17	397.89
580.33	404.91
580.49	400.23
580.65	447.04
580.82	496.19
580.98	414.27
581.14	376.83
581.30	435.34
581.46	379.17
581.62	414.27
581.78	440.02
581.94	447.04
582.10	393.21
582.26	451.72
582.42	479.81
582.58	442.36
582.74	355.76
582.90	365.12
583.06	430.66
583.22	409.59
583.38	421.30
583.54	390.87
583.70	486.83
583.86	425.98
584.02	344.06
584.18	322.99
584.34	440.02
584.50	425.98
584.66	423.64
584.82	447.04
584.98	400.23
585.14	367.46
585.30	465.77
585.46	348.74
585.62	447.04
585.78	365.12
585.94	442.36
586.10	372.15
586.26	430.66
586.42	440.02
586.58	437.68
586.74	440.02
586.90	430.66
587.06	407.25
587.22	407.25
587.38	444.70
587.54	409.59
587.70	458.74
587.86	447.04
588.02	463.43
588.18	365.12
588.34	386.19
588.49	430.66
588.65	409.59
588.81	449.38
588.97	402.57
589.13	433.00
589.29	437.68
589.45	423.64
589.61	421.30
589.77	454.06
589.93	496.19
590.08	374.49
590.24	393.21
590.40	428.32
590.56	407.25
590.72	374.49
590.88	313.63
591.04	402.57
591.20	425.98
591.35	451.72
591.51	327.68
591.67	393.21
591.83	423.64
591.99	428.32
592.15	409.59
592.31	351.08
592.46	416.62
592.62	449.38
592.78	348.74
592.94	372.15
593.10	409.59
593.26	421.30
593.41	435.34
593.57	421.30
593.73	470.45
593.89	449.38
594.05	409.59
594.20	341.72
594.36	456.40
594.52	395.55
594.68	430.66
594.84	470.45
594.99	435.34
595.15	475.13
595.31	418.96
595.47	454.06
595.62	458.74
595.78	395.55
595.94	397.89
596.10	430.66
596.25	507.90
596.41	454.06
596.57	444.70
596.73	416.62
596.88	433.00
597.04	332.36
597.20	388.53
597.36	407.25
597.51	390.87
597.67	388.53
597.83	337.04
597.99	393.21
598.14	397.89
598.30	411.93
598.46	334.70
598.61	409.59
598.77	404.91
598.93	409.59
599.09	444.70
599.24	416.62
599.40	395.55
599.56	374.49
599.71	400.23
599.87	444.70
600.03	442.36
600.18	425.98
600.34	407.25
600.50	386.19
600.65	425.98
600.81	458.74
600.97	346.40
601.12	367.46
601.28	372.15
601.44	379.17
601.59	451.72
601.75	369.80
601.91	376.83
602.06	386.19
602.22	425.98
602.37	372.15
602.53	402.57
602.69	409.59
602.84	414.27
603.00	435.34
603.16	334.70
603.31	444.70
603.47	440.02
603.62	304.27
603.78	425.98
603.94	374.49
604.09	416.62
604.25	416.62
604.40	374.49
604.56	395.55
604.71	390.87
604.87	416.62
605.03	461.09
605.18	421.30
605.34	337.04
605.49	444.70
605.65	348.74
605.80	423.64
605.96	470.45
606.12	393.21
606.27	479.81
606.43	395.55
606.58	444.70
606.74	365.12
606.89	395.55
607.05	411.93
607.20	411.93
607.36	461.09
607.51	484.49
607.67	395.55
607.82	383.85
607.98	358.10
608.13	379.17
608.29	376.83
608.44	461.09
608.60	372.15
608.75	414.27
608.91	444.70
609.06	442.36
609.22	463.43
609.37	449.38
609.53	430.66
609.68	393.21
609.84	442.36
609.99	458.74
610.15	465.77
