SpectraSuite Data File
++++++++++++++++++++++++++++++++++++
Date: Fri Oct 25 12:11:06 EDT 2013
User: price-jones
Dark Spectrum Present: No
Reference Spectrum Present: No
Number of Sampled Component Spectra: 1
Spectrometers: USB2+H05261
Integration Time (usec): 100000 (USB2+H05261)
Spectra Averaged: 1 (USB2+H05261)
Boxcar Smoothing: 0 (USB2+H05261)
Correct for Electrical Dark: No (USB2+H05261)
Strobe/Lamp Enabled: No (USB2+H05261)
Correct for Detector Non-linearity: No (USB2+H05261)
Correct for Stray Light: No (USB2+H05261)
Number of Pixels in Processed Spectrum: 2048
>>>>>Begin Processed Spectral Data<<<<<
365.73	365.12
365.92	365.12
366.12	365.12
366.32	313.63
366.52	299.59
366.72	208.31
366.91	205.97
367.11	234.05
367.31	252.78
367.51	280.86
367.70	187.24
367.90	252.78
368.10	208.31
368.30	252.78
368.49	245.76
368.69	257.46
368.89	245.76
369.09	173.20
369.28	252.78
369.48	311.29
369.68	276.18
369.87	315.97
370.07	290.23
370.27	348.74
370.47	322.99
370.66	367.46
370.86	365.12
371.06	390.87
371.25	393.21
371.45	348.74
371.65	400.23
371.84	297.25
372.04	421.30
372.24	416.62
372.44	355.76
372.63	409.59
372.83	437.68
373.03	451.72
373.22	379.17
373.42	458.74
373.62	362.78
373.81	428.32
374.01	421.30
374.21	433.00
374.40	395.55
374.60	496.19
374.79	425.98
374.99	393.21
375.19	376.83
375.38	397.89
375.58	423.64
375.78	500.87
375.97	458.74
376.17	493.85
376.37	475.13
376.56	447.04
376.76	444.70
376.95	393.21
377.15	400.23
377.35	465.77
377.54	421.30
377.74	348.74
377.93	428.32
378.13	423.64
378.33	397.89
378.52	451.72
378.72	416.62
378.91	447.04
379.11	365.12
379.31	402.57
379.50	351.08
379.70	425.98
379.89	390.87
380.09	402.57
380.28	395.55
380.48	416.62
380.68	407.25
380.87	346.40
381.07	447.04
381.26	482.15
381.46	360.44
381.65	388.53
381.85	365.12
382.04	383.85
382.24	423.64
382.43	362.78
382.63	421.30
382.83	435.34
383.02	423.64
383.22	423.64
383.41	393.21
383.61	388.53
383.80	365.12
384.00	348.74
384.19	498.53
384.39	444.70
384.58	414.27
384.78	393.21
384.97	486.83
385.17	365.12
385.36	315.97
385.56	374.49
385.75	409.59
385.95	463.43
386.14	430.66
386.34	458.74
386.53	430.66
386.72	428.32
386.92	475.13
387.11	409.59
387.31	369.80
387.50	379.17
387.70	365.12
387.89	400.23
388.09	346.40
388.28	400.23
388.48	444.70
388.67	451.72
388.86	454.06
389.06	418.96
389.25	411.93
389.45	425.98
389.64	433.00
389.84	435.34
390.03	379.17
390.22	381.51
390.42	423.64
390.61	388.53
390.81	376.83
391.00	440.02
391.19	386.19
391.39	435.34
391.58	381.51
391.78	376.83
391.97	388.53
392.16	418.96
392.36	479.81
392.55	428.32
392.75	437.68
392.94	341.72
393.13	444.70
393.33	372.15
393.52	414.27
393.71	381.51
393.91	411.93
394.10	379.17
394.29	388.53
394.49	365.12
394.68	390.87
394.88	360.44
395.07	482.15
395.26	447.04
395.46	425.98
395.65	421.30
395.84	449.38
396.04	449.38
396.23	421.30
396.42	393.21
396.62	458.74
396.81	404.91
397.00	475.13
397.19	386.19
397.39	409.59
397.58	440.02
397.77	402.57
397.97	390.87
398.16	402.57
398.35	381.51
398.55	372.15
398.74	442.36
398.93	414.27
399.12	411.93
399.32	400.23
399.51	369.80
399.70	456.40
399.90	369.80
400.09	383.85
400.28	397.89
400.47	440.02
400.67	416.62
400.86	423.64
401.05	451.72
401.24	451.72
401.44	393.21
401.63	379.17
401.82	325.33
402.01	423.64
402.21	423.64
402.40	442.36
402.59	386.19
402.78	428.32
402.97	435.34
403.17	355.76
403.36	465.77
403.55	430.66
403.74	383.85
403.93	411.93
404.13	458.74
404.32	369.80
404.51	416.62
404.70	374.49
404.89	409.59
405.09	409.59
405.28	418.96
405.47	395.55
405.66	395.55
405.85	449.38
406.05	390.87
406.24	348.74
406.43	360.44
406.62	381.51
406.81	440.02
407.00	416.62
407.20	348.74
407.39	355.76
407.58	393.21
407.77	390.87
407.96	397.89
408.15	365.12
408.34	376.83
408.54	416.62
408.73	468.11
408.92	484.49
409.11	395.55
409.30	470.45
409.49	411.93
409.68	498.53
409.87	468.11
410.07	444.70
410.26	468.11
410.45	367.46
410.64	362.78
410.83	395.55
411.02	337.04
411.21	430.66
411.40	475.13
411.59	402.57
411.78	397.89
411.98	447.04
412.17	489.17
412.36	421.30
412.55	409.59
412.74	407.25
412.93	400.23
413.12	461.09
413.31	379.17
413.50	390.87
413.69	425.98
413.88	449.38
414.07	395.55
414.26	468.11
414.45	381.51
414.64	425.98
414.83	428.32
415.02	465.77
415.22	411.93
415.41	395.55
415.60	395.55
415.79	444.70
415.98	463.43
416.17	512.58
416.36	470.45
416.55	351.08
416.74	358.10
416.93	379.17
417.12	383.85
417.31	395.55
417.50	348.74
417.69	465.77
417.88	449.38
418.07	372.15
418.26	430.66
418.45	381.51
418.64	435.34
418.83	409.59
419.02	437.68
419.21	397.89
419.39	451.72
419.58	367.46
419.77	404.91
419.96	449.38
420.15	435.34
420.34	369.80
420.53	465.77
420.72	374.49
420.91	351.08
421.10	393.21
421.29	423.64
421.48	425.98
421.67	404.91
421.86	414.27
422.05	411.93
422.24	374.49
422.43	374.49
422.61	379.17
422.80	416.62
422.99	463.43
423.18	477.47
423.37	437.68
423.56	355.76
423.75	344.06
423.94	337.04
424.13	465.77
424.32	397.89
424.50	454.06
424.69	423.64
424.88	482.15
425.07	339.38
425.26	451.72
425.45	442.36
425.64	360.44
425.83	400.23
426.01	379.17
426.20	395.55
426.39	390.87
426.58	393.21
426.77	463.43
426.96	486.83
427.15	390.87
427.33	395.55
427.52	320.65
427.71	390.87
427.90	470.45
428.09	503.22
428.28	423.64
428.46	386.19
428.65	500.87
428.84	404.91
429.03	435.34
429.22	428.32
429.40	430.66
429.59	407.25
429.78	428.32
429.97	376.83
430.16	355.76
430.34	372.15
430.53	376.83
430.72	311.29
430.91	433.00
431.10	402.57
431.28	440.02
431.47	449.38
431.66	470.45
431.85	409.59
432.03	353.42
432.22	454.06
432.41	458.74
432.60	393.21
432.79	409.59
432.97	348.74
433.16	400.23
433.35	437.68
433.54	388.53
433.72	442.36
433.91	428.32
434.10	414.27
434.28	482.15
434.47	463.43
434.66	376.83
434.85	353.42
435.03	311.29
435.22	421.30
435.41	430.66
435.59	451.72
435.78	484.49
435.97	430.66
436.16	449.38
436.34	353.42
436.53	421.30
436.72	428.32
436.90	428.32
437.09	367.46
437.28	414.27
437.46	444.70
437.65	440.02
437.84	449.38
438.02	430.66
438.21	442.36
438.40	428.32
438.58	395.55
438.77	433.00
438.96	414.27
439.14	428.32
439.33	451.72
439.52	458.74
439.70	362.78
439.89	437.68
440.08	479.81
440.26	414.27
440.45	479.81
440.63	482.15
440.82	444.70
441.01	386.19
441.19	493.85
441.38	442.36
441.57	470.45
441.75	430.66
441.94	421.30
442.12	458.74
442.31	383.85
442.50	435.34
442.68	390.87
442.87	468.11
443.05	454.06
443.24	395.55
443.43	423.64
443.61	367.46
443.80	418.96
443.98	402.57
444.17	372.15
444.35	390.87
444.54	444.70
444.73	414.27
444.91	451.72
445.10	430.66
445.28	404.91
445.47	437.68
445.65	430.66
445.84	433.00
446.02	407.25
446.21	421.30
446.39	491.51
446.58	472.79
446.77	414.27
446.95	437.68
447.14	351.08
447.32	463.43
447.51	425.98
447.69	421.30
447.88	444.70
448.06	449.38
448.25	414.27
448.43	411.93
448.62	393.21
448.80	458.74
448.99	449.38
449.17	440.02
449.36	379.17
449.54	411.93
449.73	475.13
449.91	433.00
450.10	414.27
450.28	503.22
450.46	465.77
450.65	376.83
450.83	390.87
451.02	440.02
451.20	334.70
451.39	390.87
451.57	365.12
451.76	386.19
451.94	402.57
452.13	416.62
452.31	416.62
452.49	433.00
452.68	388.53
452.86	475.13
453.05	388.53
453.23	444.70
453.42	409.59
453.60	374.49
453.78	444.70
453.97	433.00
454.15	418.96
454.34	461.09
454.52	388.53
454.70	393.21
454.89	381.51
455.07	461.09
455.26	404.91
455.44	423.64
455.62	418.96
455.81	475.13
455.99	355.76
456.17	367.46
456.36	414.27
456.54	395.55
456.73	397.89
456.91	402.57
457.09	421.30
457.28	369.80
457.46	449.38
457.64	421.30
457.83	428.32
458.01	456.40
458.19	500.87
458.38	449.38
458.56	437.68
458.74	337.04
458.93	393.21
459.11	358.10
459.29	416.62
459.48	425.98
459.66	479.81
459.84	503.22
460.03	440.02
460.21	409.59
460.39	383.85
460.57	440.02
460.76	365.12
460.94	390.87
461.12	425.98
461.31	451.72
461.49	411.93
461.67	421.30
461.85	416.62
462.04	418.96
462.22	812.17
462.40	435.34
462.59	486.83
462.77	386.19
462.95	360.44
463.13	414.27
463.32	428.32
463.50	437.68
463.68	475.13
463.86	465.77
464.05	395.55
464.23	486.83
464.41	461.09
464.59	491.51
464.78	409.59
464.96	372.15
465.14	404.91
465.32	395.55
465.50	379.17
465.69	388.53
465.87	435.34
466.05	437.68
466.23	409.59
466.41	416.62
466.60	423.64
466.78	435.34
466.96	447.04
467.14	379.17
467.32	440.02
467.51	449.38
467.69	461.09
467.87	486.83
468.05	430.66
468.23	454.06
468.41	414.27
468.60	454.06
468.78	404.91
468.96	451.72
469.14	444.70
469.32	435.34
469.50	348.74
469.69	491.51
469.87	498.53
470.05	411.93
470.23	512.58
470.41	337.04
470.59	386.19
470.77	414.27
470.95	465.77
471.14	400.23
471.32	411.93
471.50	423.64
471.68	428.32
471.86	395.55
472.04	461.09
472.22	425.98
472.40	435.34
472.58	362.78
472.77	402.57
472.95	425.98
473.13	449.38
473.31	409.59
473.49	484.49
473.67	472.79
473.85	358.10
474.03	355.76
474.21	348.74
474.39	344.06
474.57	468.11
474.75	416.62
474.93	292.57
475.12	337.04
475.30	407.25
475.48	407.25
475.66	383.85
475.84	433.00
476.02	341.72
476.20	447.04
476.38	400.23
476.56	386.19
476.74	374.49
476.92	395.55
477.10	397.89
477.28	430.66
477.46	355.76
477.64	294.91
477.82	379.17
478.00	418.96
478.18	360.44
478.36	430.66
478.54	456.40
478.72	407.25
478.90	360.44
479.08	451.72
479.26	388.53
479.44	353.42
479.62	451.72
479.80	435.34
479.98	355.76
480.16	390.87
480.34	411.93
480.52	362.78
480.70	421.30
480.88	416.62
481.06	411.93
481.24	435.34
481.41	468.11
481.59	472.79
481.77	411.93
481.95	376.83
482.13	472.79
482.31	402.57
482.49	395.55
482.67	369.80
482.85	409.59
483.03	435.34
483.21	409.59
483.39	353.42
483.57	383.85
483.74	447.04
483.92	444.70
484.10	374.49
484.28	414.27
484.46	472.79
484.64	395.55
484.82	397.89
485.00	430.66
485.18	402.57
485.35	430.66
485.53	440.02
485.71	409.59
485.89	372.15
486.07	379.17
486.25	454.06
486.43	447.04
486.61	383.85
486.78	390.87
486.96	409.59
487.14	421.30
487.32	442.36
487.50	358.10
487.68	393.21
487.85	360.44
488.03	397.89
488.21	425.98
488.39	348.74
488.57	367.46
488.75	369.80
488.92	524.28
489.10	463.43
489.28	458.74
489.46	451.72
489.64	402.57
489.81	402.57
489.99	512.58
490.17	397.89
490.35	437.68
490.53	463.43
490.70	404.91
490.88	397.89
491.06	311.29
491.24	372.15
491.41	491.51
491.59	421.30
491.77	458.74
491.95	407.25
492.13	482.15
492.30	414.27
492.48	437.68
492.66	365.12
492.84	411.93
493.01	374.49
493.19	428.32
493.37	454.06
493.54	510.24
493.72	402.57
493.90	374.49
494.08	390.87
494.25	428.32
494.43	414.27
494.61	421.30
494.79	407.25
494.96	376.83
495.14	430.66
495.32	428.32
495.49	433.00
495.67	463.43
495.85	360.44
496.02	358.10
496.20	374.49
496.38	414.27
496.55	411.93
496.73	423.64
496.91	372.15
497.09	397.89
497.26	383.85
497.44	404.91
497.62	430.66
497.79	456.40
497.97	440.02
498.14	498.53
498.32	414.27
498.50	383.85
498.67	383.85
498.85	444.70
499.03	454.06
499.20	393.21
499.38	458.74
499.56	437.68
499.73	437.68
499.91	454.06
500.08	386.19
500.26	442.36
500.44	393.21
500.61	402.57
500.79	379.17
500.97	463.43
501.14	418.96
501.32	442.36
501.49	475.13
501.67	430.66
501.84	454.06
502.02	463.43
502.20	444.70
502.37	393.21
502.55	423.64
502.72	409.59
502.90	440.02
503.07	374.49
503.25	414.27
503.43	421.30
503.60	449.38
503.78	416.62
503.95	372.15
504.13	430.66
504.30	461.09
504.48	461.09
504.65	472.79
504.83	451.72
505.01	444.70
505.18	435.34
505.36	440.02
505.53	435.34
505.71	365.12
505.88	416.62
506.06	416.62
506.23	428.32
506.41	397.89
506.58	355.76
506.76	402.57
506.93	433.00
507.11	409.59
507.28	386.19
507.46	360.44
507.63	390.87
507.81	395.55
507.98	374.49
508.16	348.74
508.33	376.83
508.50	505.56
508.68	425.98
508.85	358.10
509.03	409.59
509.20	421.30
509.38	451.72
509.55	423.64
509.73	456.40
509.90	489.17
510.08	447.04
510.25	493.85
510.42	365.12
510.60	433.00
510.77	428.32
510.95	395.55
511.12	388.53
511.30	449.38
511.47	390.87
511.64	463.43
511.82	425.98
511.99	351.08
512.17	440.02
512.34	395.55
512.51	367.46
512.69	393.21
512.86	477.47
513.04	407.25
513.21	395.55
513.38	400.23
513.56	404.91
513.73	390.87
513.90	337.04
514.08	414.27
514.25	351.08
514.43	407.25
514.60	393.21
514.77	435.34
514.95	496.19
515.12	433.00
515.29	444.70
515.47	374.49
515.64	465.77
515.81	465.77
515.99	442.36
516.16	435.34
516.33	383.85
516.51	402.57
516.68	428.32
516.85	442.36
517.03	425.98
517.20	407.25
517.37	400.23
517.54	393.21
517.72	435.34
517.89	374.49
518.06	402.57
518.24	451.72
518.41	416.62
518.58	397.89
518.75	435.34
518.93	451.72
519.10	447.04
519.27	421.30
519.45	454.06
519.62	407.25
519.79	451.72
519.96	425.98
520.14	430.66
520.31	449.38
520.48	433.00
520.65	454.06
520.83	404.91
521.00	358.10
521.17	496.19
521.34	353.42
521.52	454.06
521.69	374.49
521.86	358.10
522.03	433.00
522.20	465.77
522.38	486.83
522.55	433.00
522.72	425.98
522.89	484.49
523.07	461.09
523.24	362.78
523.41	482.15
523.58	416.62
523.75	430.66
523.92	404.91
524.10	454.06
524.27	421.30
524.44	435.34
524.61	383.85
524.78	440.02
524.96	458.74
525.13	451.72
525.30	411.93
525.47	411.93
525.64	449.38
525.81	447.04
525.98	393.21
526.16	444.70
526.33	341.72
526.50	383.85
526.67	428.32
526.84	435.34
527.01	348.74
527.18	468.11
527.36	355.76
527.53	418.96
527.70	531.30
527.87	435.34
528.04	468.11
528.21	358.10
528.38	442.36
528.55	383.85
528.72	402.57
528.89	433.00
529.07	454.06
529.24	374.49
529.41	388.53
529.58	353.42
529.75	425.98
529.92	407.25
530.09	348.74
530.26	418.96
530.43	393.21
530.60	418.96
530.77	369.80
530.94	381.51
531.11	421.30
531.28	395.55
531.46	440.02
531.63	456.40
531.80	397.89
531.97	444.70
532.14	409.59
532.31	395.55
532.48	442.36
532.65	369.80
532.82	433.00
532.99	362.78
533.16	472.79
533.33	430.66
533.50	411.93
533.67	390.87
533.84	437.68
534.01	477.47
534.18	320.65
534.35	395.55
534.52	381.51
534.69	454.06
534.86	411.93
535.03	458.74
535.20	414.27
535.37	444.70
535.54	418.96
535.71	416.62
535.88	433.00
536.05	386.19
536.22	437.68
536.38	388.53
536.55	475.13
536.72	425.98
536.89	390.87
537.06	409.59
537.23	475.13
537.40	444.70
537.57	390.87
537.74	505.56
537.91	440.02
538.08	435.34
538.25	463.43
538.42	386.19
538.59	447.04
538.75	512.58
538.92	376.83
539.09	409.59
539.26	379.17
539.43	503.22
539.60	386.19
539.77	486.83
539.94	379.17
540.11	425.98
540.28	397.89
540.44	411.93
540.61	442.36
540.78	369.80
540.95	351.08
541.12	421.30
541.29	442.36
541.46	388.53
541.62	362.78
541.79	440.02
541.96	442.36
542.13	390.87
542.30	442.36
542.47	430.66
542.63	369.80
542.80	498.53
542.97	444.70
543.14	470.45
543.31	355.76
543.48	411.93
543.64	388.53
543.81	470.45
543.98	435.34
544.15	454.06
544.32	423.64
544.48	397.89
544.65	393.21
544.82	430.66
544.99	376.83
545.16	411.93
545.32	386.19
545.49	423.64
545.66	423.64
545.83	388.53
546.00	421.30
546.16	360.44
546.33	444.70
546.50	341.72
546.67	465.77
546.83	346.40
547.00	372.15
547.17	428.32
547.34	358.10
547.50	433.00
547.67	418.96
547.84	369.80
548.00	449.38
548.17	449.38
548.34	390.87
548.51	428.32
548.67	442.36
548.84	421.30
549.01	411.93
549.18	402.57
549.34	496.19
549.51	344.06
549.68	376.83
549.84	369.80
550.01	416.62
550.18	411.93
550.34	486.83
550.51	447.04
550.68	428.32
550.84	461.09
551.01	449.38
551.18	437.68
551.34	404.91
551.51	386.19
551.68	456.40
551.84	425.98
552.01	374.49
552.18	433.00
552.34	386.19
552.51	402.57
552.68	447.04
552.84	360.44
553.01	386.19
553.18	414.27
553.34	416.62
553.51	383.85
553.67	472.79
553.84	451.72
554.01	456.40
554.17	440.02
554.34	390.87
554.51	472.79
554.67	390.87
554.84	421.30
555.00	407.25
555.17	423.64
555.33	440.02
555.50	402.57
555.67	409.59
555.83	341.72
556.00	463.43
556.16	521.94
556.33	444.70
556.50	433.00
556.66	379.17
556.83	365.12
556.99	414.27
557.16	409.59
557.32	376.83
557.49	444.70
557.65	442.36
557.82	400.23
557.98	358.10
558.15	369.80
558.32	407.25
558.48	440.02
558.65	320.65
558.81	374.49
558.98	390.87
559.14	332.36
559.31	428.32
559.47	447.04
559.64	423.64
559.80	442.36
559.97	418.96
560.13	507.90
560.30	381.51
560.46	442.36
560.63	404.91
560.79	404.91
560.96	411.93
561.12	442.36
561.29	449.38
561.45	395.55
561.61	482.15
561.78	458.74
561.94	430.66
562.11	379.17
562.27	416.62
562.44	447.04
562.60	421.30
562.77	379.17
562.93	425.98
563.10	477.47
563.26	425.98
563.42	407.25
563.59	414.27
563.75	376.83
563.92	468.11
564.08	414.27
564.24	402.57
564.41	465.77
564.57	423.64
564.74	465.77
564.90	449.38
565.07	374.49
565.23	372.15
565.39	409.59
565.56	437.68
565.72	433.00
565.88	468.11
566.05	341.72
566.21	409.59
566.38	409.59
566.54	355.76
566.70	468.11
566.87	393.21
567.03	444.70
567.19	421.30
567.36	454.06
567.52	411.93
567.68	465.77
567.85	435.34
568.01	449.38
568.17	433.00
568.34	461.09
568.50	409.59
568.66	355.76
568.83	449.38
568.99	388.53
569.15	447.04
569.32	454.06
569.48	386.19
569.64	372.15
569.81	486.83
569.97	388.53
570.13	430.66
570.30	428.32
570.46	454.06
570.62	397.89
570.78	430.66
570.95	437.68
571.11	444.70
571.27	402.57
571.43	428.32
571.60	407.25
571.76	407.25
571.92	447.04
572.09	400.23
572.25	437.68
572.41	444.70
572.57	451.72
572.74	489.17
572.90	449.38
573.06	395.55
573.22	397.89
573.38	414.27
573.55	411.93
573.71	482.15
573.87	414.27
574.03	493.85
574.20	404.91
574.36	489.17
574.52	423.64
574.68	353.42
574.84	465.77
575.01	346.40
575.17	444.70
575.33	318.31
575.49	435.34
575.65	442.36
575.82	376.83
575.98	463.43
576.14	423.64
576.30	339.38
576.46	418.96
576.62	425.98
576.79	430.66
576.95	407.25
577.11	404.91
577.27	454.06
577.43	468.11
577.59	402.57
577.75	440.02
577.92	404.91
578.08	369.80
578.24	463.43
578.40	461.09
578.56	381.51
578.72	433.00
578.88	444.70
579.04	388.53
579.21	365.12
579.37	447.04
579.53	472.79
579.69	411.93
579.85	358.10
580.01	491.51
580.17	397.89
580.33	372.15
580.49	397.89
580.65	369.80
580.82	482.15
580.98	348.74
581.14	414.27
581.30	463.43
581.46	433.00
581.62	367.46
581.78	393.21
581.94	416.62
582.10	348.74
582.26	416.62
582.42	442.36
582.58	454.06
582.74	393.21
582.90	468.11
583.06	433.00
583.22	393.21
583.38	386.19
583.54	365.12
583.70	468.11
583.86	458.74
584.02	360.44
584.18	383.85
584.34	421.30
584.50	447.04
584.66	442.36
584.82	332.36
584.98	447.04
585.14	409.59
585.30	440.02
585.46	423.64
585.62	465.77
585.78	334.70
585.94	442.36
586.10	416.62
586.26	428.32
586.42	461.09
586.58	372.15
586.74	454.06
586.90	404.91
587.06	498.53
587.22	402.57
587.38	383.85
587.54	409.59
587.70	435.34
587.86	430.66
588.02	437.68
588.18	447.04
588.34	475.13
588.49	348.74
588.65	447.04
588.81	348.74
588.97	404.91
589.13	409.59
589.29	430.66
589.45	421.30
589.61	397.89
589.77	409.59
589.93	369.80
590.08	409.59
590.24	383.85
590.40	442.36
590.56	430.66
590.72	423.64
590.88	442.36
591.04	418.96
591.20	470.45
591.35	451.72
591.51	430.66
591.67	369.80
591.83	409.59
591.99	458.74
592.15	489.17
592.31	444.70
592.46	444.70
592.62	423.64
592.78	454.06
592.94	435.34
593.10	393.21
593.26	409.59
593.41	390.87
593.57	372.15
593.73	435.34
593.89	369.80
594.05	428.32
594.20	376.83
594.36	437.68
594.52	444.70
594.68	451.72
594.84	379.17
594.99	416.62
595.15	430.66
595.31	428.32
595.47	433.00
595.62	435.34
595.78	451.72
595.94	325.33
596.10	456.40
596.25	409.59
596.41	484.49
596.57	425.98
596.73	362.78
596.88	444.70
597.04	479.81
597.20	414.27
597.36	477.47
597.51	374.49
597.67	409.59
597.83	411.93
597.99	496.19
598.14	433.00
598.30	468.11
598.46	463.43
598.61	437.68
598.77	390.87
598.93	433.00
599.09	458.74
599.24	332.36
599.40	440.02
599.56	444.70
599.71	407.25
599.87	451.72
600.03	444.70
600.18	400.23
600.34	414.27
600.50	388.53
600.65	400.23
600.81	428.32
600.97	395.55
601.12	468.11
601.28	390.87
601.44	477.47
601.59	465.77
601.75	428.32
601.91	418.96
602.06	383.85
602.22	435.34
602.37	486.83
602.53	409.59
602.69	449.38
602.84	435.34
603.00	421.30
603.16	400.23
603.31	397.89
603.47	416.62
603.62	372.15
603.78	388.53
603.94	433.00
604.09	449.38
604.25	425.98
604.40	423.64
604.56	390.87
604.71	353.42
604.87	414.27
605.03	479.81
605.18	428.32
605.34	454.06
605.49	458.74
605.65	346.40
605.80	386.19
605.96	362.78
606.12	402.57
606.27	393.21
606.43	433.00
606.58	449.38
606.74	486.83
606.89	442.36
607.05	500.87
607.20	435.34
607.36	369.80
607.51	379.17
607.67	404.91
607.82	390.87
607.98	493.85
608.13	435.34
608.29	416.62
608.44	411.93
608.60	409.59
608.75	456.40
608.91	444.70
609.06	442.36
609.22	482.15
609.37	383.85
609.53	390.87
609.68	409.59
609.84	388.53
609.99	386.19
610.15	454.06
