SpectraSuite Data File
++++++++++++++++++++++++++++++++++++
Date: Fri Oct 25 12:10:24 EDT 2013
User: price-jones
Dark Spectrum Present: No
Reference Spectrum Present: No
Number of Sampled Component Spectra: 1
Spectrometers: USB2+H05261
Integration Time (usec): 100000 (USB2+H05261)
Spectra Averaged: 1 (USB2+H05261)
Boxcar Smoothing: 0 (USB2+H05261)
Correct for Electrical Dark: No (USB2+H05261)
Strobe/Lamp Enabled: No (USB2+H05261)
Correct for Detector Non-linearity: No (USB2+H05261)
Correct for Stray Light: No (USB2+H05261)
Number of Pixels in Processed Spectrum: 2048
>>>>>Begin Processed Spectral Data<<<<<
365.73	362.78
365.92	362.78
366.12	362.78
366.32	222.35
366.52	156.82
366.72	255.12
366.91	227.03
367.11	234.05
367.31	161.50
367.51	236.39
367.70	222.35
367.90	203.63
368.10	285.55
368.30	287.89
368.49	271.50
368.69	205.97
368.89	257.46
369.09	252.78
369.28	250.44
369.48	283.20
369.68	262.14
369.87	332.36
370.07	332.36
370.27	318.31
370.47	348.74
370.66	334.70
370.86	285.55
371.06	362.78
371.25	292.57
371.45	374.49
371.65	454.06
371.84	395.55
372.04	311.29
372.24	386.19
372.44	337.04
372.63	409.59
372.83	416.62
373.03	353.42
373.22	416.62
373.42	381.51
373.62	414.27
373.81	500.87
374.01	395.55
374.21	433.00
374.40	388.53
374.60	386.19
374.79	362.78
374.99	493.85
375.19	376.83
375.38	372.15
375.58	430.66
375.78	383.85
375.97	428.32
376.17	458.74
376.37	433.00
376.56	395.55
376.76	393.21
376.95	388.53
377.15	390.87
377.35	397.89
377.54	397.89
377.74	404.91
377.93	458.74
378.13	369.80
378.33	449.38
378.52	463.43
378.72	409.59
378.91	449.38
379.11	400.23
379.31	372.15
379.50	386.19
379.70	416.62
379.89	447.04
380.09	418.96
380.28	407.25
380.48	358.10
380.68	362.78
380.87	411.93
381.07	318.31
381.26	440.02
381.46	411.93
381.65	418.96
381.85	416.62
382.04	425.98
382.24	440.02
382.43	404.91
382.63	395.55
382.83	454.06
383.02	435.34
383.22	437.68
383.41	374.49
383.61	353.42
383.80	437.68
384.00	365.12
384.19	402.57
384.39	402.57
384.58	437.68
384.78	440.02
384.97	358.10
385.17	376.83
385.36	423.64
385.56	435.34
385.75	486.83
385.95	421.30
386.14	386.19
386.34	383.85
386.53	416.62
386.72	416.62
386.92	458.74
387.11	463.43
387.31	456.40
387.50	362.78
387.70	393.21
387.89	416.62
388.09	353.42
388.28	344.06
388.48	425.98
388.67	475.13
388.86	414.27
389.06	404.91
389.25	390.87
389.45	454.06
389.64	407.25
389.84	465.77
390.03	465.77
390.22	425.98
390.42	416.62
390.61	454.06
390.81	376.83
391.00	388.53
391.19	437.68
391.39	390.87
391.58	395.55
391.78	376.83
391.97	475.13
392.16	351.08
392.36	430.66
392.55	479.81
392.75	414.27
392.94	428.32
393.13	444.70
393.33	376.83
393.52	444.70
393.71	444.70
393.91	447.04
394.10	423.64
394.29	407.25
394.49	381.51
394.68	411.93
394.88	411.93
395.07	421.30
395.26	393.21
395.46	400.23
395.65	367.46
395.84	365.12
396.04	442.36
396.23	397.89
396.42	376.83
396.62	388.53
396.81	437.68
397.00	390.87
397.19	407.25
397.39	449.38
397.58	416.62
397.77	430.66
397.97	376.83
398.16	447.04
398.35	404.91
398.55	402.57
398.74	348.74
398.93	425.98
399.12	465.77
399.32	400.23
399.51	376.83
399.70	423.64
399.90	400.23
400.09	397.89
400.28	355.76
400.47	386.19
400.67	421.30
400.86	327.68
401.05	425.98
401.24	458.74
401.44	454.06
401.63	397.89
401.82	404.91
402.01	430.66
402.21	437.68
402.40	425.98
402.59	400.23
402.78	393.21
402.97	428.32
403.17	400.23
403.36	390.87
403.55	393.21
403.74	404.91
403.93	404.91
404.13	414.27
404.32	435.34
404.51	327.68
404.70	372.15
404.89	421.30
405.09	442.36
405.28	428.32
405.47	360.44
405.66	423.64
405.85	400.23
406.05	440.02
406.24	442.36
406.43	379.17
406.62	369.80
406.81	407.25
407.00	425.98
407.20	407.25
407.39	374.49
407.58	407.25
407.77	435.34
407.96	461.09
408.15	447.04
408.34	393.21
408.54	484.49
408.73	496.19
408.92	468.11
409.11	425.98
409.30	423.64
409.49	400.23
409.68	376.83
409.87	404.91
410.07	397.89
410.26	451.72
410.45	393.21
410.64	386.19
410.83	339.38
411.02	414.27
411.21	430.66
411.40	468.11
411.59	409.59
411.78	409.59
411.98	437.68
412.17	390.87
412.36	411.93
412.55	442.36
412.74	362.78
412.93	447.04
413.12	390.87
413.31	435.34
413.50	486.83
413.69	409.59
413.88	425.98
414.07	402.57
414.26	376.83
414.45	365.12
414.64	397.89
414.83	421.30
415.02	397.89
415.22	435.34
415.41	440.02
415.60	374.49
415.79	451.72
415.98	421.30
416.17	330.02
416.36	402.57
416.55	358.10
416.74	435.34
416.93	444.70
417.12	444.70
417.31	383.85
417.50	411.93
417.69	463.43
417.88	409.59
418.07	395.55
418.26	341.72
418.45	465.77
418.64	447.04
418.83	468.11
419.02	425.98
419.21	383.85
419.39	374.49
419.58	407.25
419.77	322.99
419.96	414.27
420.15	437.68
420.34	428.32
420.53	404.91
420.72	388.53
420.91	425.98
421.10	444.70
421.29	465.77
421.48	433.00
421.67	425.98
421.86	491.51
422.05	386.19
422.24	353.42
422.43	418.96
422.61	360.44
422.80	404.91
422.99	411.93
423.18	330.02
423.37	463.43
423.56	407.25
423.75	456.40
423.94	393.21
424.13	477.47
424.32	402.57
424.50	447.04
424.69	428.32
424.88	449.38
425.07	351.08
425.26	402.57
425.45	435.34
425.64	360.44
425.83	409.59
426.01	344.06
426.20	346.40
426.39	411.93
426.58	355.76
426.77	414.27
426.96	428.32
427.15	393.21
427.33	344.06
427.52	454.06
427.71	442.36
427.90	379.17
428.09	416.62
428.28	430.66
428.46	435.34
428.65	416.62
428.84	348.74
429.03	430.66
429.22	393.21
429.40	339.38
429.59	414.27
429.78	463.43
429.97	407.25
430.16	440.02
430.34	456.40
430.53	454.06
430.72	484.49
430.91	400.23
431.10	463.43
431.28	414.27
431.47	393.21
431.66	414.27
431.85	376.83
432.03	376.83
432.22	451.72
432.41	503.22
432.60	433.00
432.79	353.42
432.97	458.74
433.16	475.13
433.35	428.32
433.54	393.21
433.72	397.89
433.91	388.53
434.10	379.17
434.28	489.17
434.47	395.55
434.66	447.04
434.85	390.87
435.03	458.74
435.22	437.68
435.41	447.04
435.59	379.17
435.78	486.83
435.97	482.15
436.16	402.57
436.34	437.68
436.53	442.36
436.72	423.64
436.90	444.70
437.09	402.57
437.28	390.87
437.46	376.83
437.65	416.62
437.84	442.36
438.02	456.40
438.21	390.87
438.40	414.27
438.58	374.49
438.77	381.51
438.96	397.89
439.14	397.89
439.33	411.93
439.52	367.46
439.70	395.55
439.89	465.77
440.08	505.56
440.26	437.68
440.45	435.34
440.63	418.96
440.82	395.55
441.01	407.25
441.19	461.09
441.38	418.96
441.57	437.68
441.75	362.78
441.94	395.55
442.12	397.89
442.31	351.08
442.50	444.70
442.68	421.30
442.87	496.19
443.05	428.32
443.24	486.83
443.43	461.09
443.61	489.17
443.80	447.04
443.98	411.93
444.17	404.91
444.35	430.66
444.54	381.51
444.73	423.64
444.91	458.74
445.10	390.87
445.28	383.85
445.47	374.49
445.65	374.49
445.84	374.49
446.02	372.15
446.21	470.45
446.39	365.12
446.58	355.76
446.77	395.55
446.95	416.62
447.14	444.70
447.32	461.09
447.51	442.36
447.69	404.91
447.88	353.42
448.06	468.11
448.25	425.98
448.43	447.04
448.62	435.34
448.80	442.36
448.99	491.51
449.17	416.62
449.36	468.11
449.54	407.25
449.73	365.12
449.91	428.32
450.10	383.85
450.28	402.57
450.46	402.57
450.65	454.06
450.83	400.23
451.02	437.68
451.20	421.30
451.39	414.27
451.57	442.36
451.76	402.57
451.94	430.66
452.13	430.66
452.31	444.70
452.49	416.62
452.68	379.17
452.86	407.25
453.05	407.25
453.23	367.46
453.42	418.96
453.60	425.98
453.78	454.06
453.97	372.15
454.15	468.11
454.34	346.40
454.52	409.59
454.70	421.30
454.89	423.64
455.07	383.85
455.26	397.89
455.44	395.55
455.62	374.49
455.81	461.09
455.99	456.40
456.17	409.59
456.36	386.19
456.54	388.53
456.73	407.25
456.91	442.36
457.09	428.32
457.28	472.79
457.46	388.53
457.64	414.27
457.83	454.06
458.01	355.76
458.19	477.47
458.38	442.36
458.56	454.06
458.74	386.19
458.93	411.93
459.11	411.93
459.29	407.25
459.48	386.19
459.66	444.70
459.84	430.66
460.03	486.83
460.21	402.57
460.39	433.00
460.57	341.72
460.76	365.12
460.94	491.51
461.12	414.27
461.31	416.62
461.49	402.57
461.67	428.32
461.85	454.06
462.04	376.83
462.22	816.85
462.40	456.40
462.59	447.04
462.77	388.53
462.95	409.59
463.13	395.55
463.32	395.55
463.50	383.85
463.68	367.46
463.86	407.25
464.05	423.64
464.23	365.12
464.41	386.19
464.59	397.89
464.78	334.70
464.96	372.15
465.14	430.66
465.32	313.63
465.50	447.04
465.69	416.62
465.87	386.19
466.05	383.85
466.23	425.98
466.41	435.34
466.60	395.55
466.78	409.59
466.96	423.64
467.14	390.87
467.32	454.06
467.51	425.98
467.69	407.25
467.87	407.25
468.05	381.51
468.23	400.23
468.41	397.89
468.60	458.74
468.78	397.89
468.96	510.24
469.14	395.55
469.32	376.83
469.50	353.42
469.69	358.10
469.87	449.38
470.05	400.23
470.23	402.57
470.41	404.91
470.59	479.81
470.77	461.09
470.95	425.98
471.14	456.40
471.32	435.34
471.50	397.89
471.68	442.36
471.86	430.66
472.04	416.62
472.22	482.15
472.40	369.80
472.58	465.77
472.77	444.70
472.95	360.44
473.13	468.11
473.31	486.83
473.49	397.89
473.67	449.38
473.85	395.55
474.03	388.53
474.21	470.45
474.39	454.06
474.57	517.26
474.75	437.68
474.93	444.70
475.12	395.55
475.30	454.06
475.48	423.64
475.66	365.12
475.84	479.81
476.02	414.27
476.20	421.30
476.38	440.02
476.56	475.13
476.74	383.85
476.92	458.74
477.10	442.36
477.28	411.93
477.46	414.27
477.64	433.00
477.82	428.32
478.00	402.57
478.18	468.11
478.36	416.62
478.54	393.21
478.72	393.21
478.90	402.57
479.08	468.11
479.26	435.34
479.44	418.96
479.62	390.87
479.80	339.38
479.98	407.25
480.16	437.68
480.34	428.32
480.52	442.36
480.70	510.24
480.88	463.43
481.06	369.80
481.24	402.57
481.41	470.45
481.59	397.89
481.77	421.30
481.95	425.98
482.13	433.00
482.31	451.72
482.49	411.93
482.67	418.96
482.85	376.83
483.03	360.44
483.21	416.62
483.39	430.66
483.57	461.09
483.74	463.43
483.92	433.00
484.10	390.87
484.28	430.66
484.46	447.04
484.64	456.40
484.82	428.32
485.00	444.70
485.18	411.93
485.35	411.93
485.53	320.65
485.71	477.47
485.89	404.91
486.07	418.96
486.25	472.79
486.43	521.94
486.61	433.00
486.78	454.06
486.96	353.42
487.14	388.53
487.32	367.46
487.50	372.15
487.68	484.49
487.85	325.33
488.03	454.06
488.21	425.98
488.39	433.00
488.57	447.04
488.75	423.64
488.92	444.70
489.10	433.00
489.28	482.15
489.46	372.15
489.64	379.17
489.81	374.49
489.99	428.32
490.17	325.33
490.35	454.06
490.53	407.25
490.70	430.66
490.88	386.19
491.06	400.23
491.24	358.10
491.41	423.64
491.59	447.04
491.77	440.02
491.95	447.04
492.13	409.59
492.30	414.27
492.48	447.04
492.66	440.02
492.84	407.25
493.01	404.91
493.19	390.87
493.37	458.74
493.54	449.38
493.72	402.57
493.90	393.21
494.08	339.38
494.25	372.15
494.43	425.98
494.61	409.59
494.79	397.89
494.96	397.89
495.14	390.87
495.32	454.06
495.49	381.51
495.67	404.91
495.85	430.66
496.02	358.10
496.20	402.57
496.38	372.15
496.55	444.70
496.73	477.47
496.91	423.64
497.09	456.40
497.26	479.81
497.44	414.27
497.62	458.74
497.79	362.78
497.97	461.09
498.14	381.51
498.32	402.57
498.50	458.74
498.67	430.66
498.85	369.80
499.03	418.96
499.20	390.87
499.38	442.36
499.56	440.02
499.73	404.91
499.91	416.62
500.08	435.34
500.26	404.91
500.44	369.80
500.61	468.11
500.79	482.15
500.97	376.83
501.14	430.66
501.32	425.98
501.49	414.27
501.67	447.04
501.84	437.68
502.02	365.12
502.20	425.98
502.37	463.43
502.55	407.25
502.72	397.89
502.90	421.30
503.07	454.06
503.25	376.83
503.43	416.62
503.60	461.09
503.78	418.96
503.95	409.59
504.13	435.34
504.30	437.68
504.48	503.22
504.65	447.04
504.83	365.12
505.01	393.21
505.18	435.34
505.36	491.51
505.53	414.27
505.71	430.66
505.88	444.70
506.06	334.70
506.23	397.89
506.41	430.66
506.58	411.93
506.76	435.34
506.93	454.06
507.11	472.79
507.28	393.21
507.46	407.25
507.63	463.43
507.81	440.02
507.98	456.40
508.16	440.02
508.33	433.00
508.50	416.62
508.68	433.00
508.85	449.38
509.03	416.62
509.20	433.00
509.38	404.91
509.55	388.53
509.73	440.02
509.90	423.64
510.08	374.49
510.25	402.57
510.42	400.23
510.60	414.27
510.77	414.27
510.95	475.13
511.12	433.00
511.30	444.70
511.47	456.40
511.64	430.66
511.82	447.04
511.99	449.38
512.17	409.59
512.34	395.55
512.51	477.47
512.69	433.00
512.86	510.24
513.04	409.59
513.21	407.25
513.38	435.34
513.56	433.00
513.73	409.59
513.90	409.59
514.08	430.66
514.25	390.87
514.43	465.77
514.60	418.96
514.77	379.17
514.95	430.66
515.12	390.87
515.29	442.36
515.47	430.66
515.64	449.38
515.81	442.36
515.99	454.06
516.16	400.23
516.33	449.38
516.51	393.21
516.68	390.87
516.85	404.91
517.03	444.70
517.20	395.55
517.37	390.87
517.54	418.96
517.72	442.36
517.89	388.53
518.06	433.00
518.24	414.27
518.41	444.70
518.58	404.91
518.75	395.55
518.93	428.32
519.10	411.93
519.27	400.23
519.45	423.64
519.62	414.27
519.79	425.98
519.96	423.64
520.14	468.11
520.31	430.66
520.48	428.32
520.65	407.25
520.83	421.30
521.00	444.70
521.17	379.17
521.34	493.85
521.52	418.96
521.69	325.33
521.86	407.25
522.03	442.36
522.20	400.23
522.38	367.46
522.55	461.09
522.72	388.53
522.89	383.85
523.07	458.74
523.24	388.53
523.41	428.32
523.58	379.17
523.75	458.74
523.92	493.85
524.10	393.21
524.27	430.66
524.44	472.79
524.61	454.06
524.78	423.64
524.96	425.98
525.13	409.59
525.30	402.57
525.47	470.45
525.64	367.46
525.81	437.68
525.98	433.00
526.16	402.57
526.33	390.87
526.50	430.66
526.67	381.51
526.84	418.96
527.01	433.00
527.18	411.93
527.36	463.43
527.53	400.23
527.70	416.62
527.87	393.21
528.04	430.66
528.21	437.68
528.38	409.59
528.55	402.57
528.72	500.87
528.89	414.27
529.07	433.00
529.24	402.57
529.41	482.15
529.58	489.17
529.75	397.89
529.92	444.70
530.09	423.64
530.26	397.89
530.43	409.59
530.60	444.70
530.77	390.87
530.94	416.62
531.11	503.22
531.28	383.85
531.46	428.32
531.63	381.51
531.80	330.02
531.97	435.34
532.14	503.22
532.31	397.89
532.48	461.09
532.65	367.46
532.82	409.59
532.99	456.40
533.16	381.51
533.33	341.72
533.50	390.87
533.67	344.06
533.84	458.74
534.01	465.77
534.18	402.57
534.35	423.64
534.52	458.74
534.69	400.23
534.86	440.02
535.03	337.04
535.20	360.44
535.37	451.72
535.54	395.55
535.71	423.64
535.88	479.81
536.05	374.49
536.22	435.34
536.38	386.19
536.55	479.81
536.72	362.78
536.89	421.30
537.06	404.91
537.23	346.40
537.40	458.74
537.57	447.04
537.74	526.62
537.91	414.27
538.08	416.62
538.25	437.68
538.42	383.85
538.59	430.66
538.75	458.74
538.92	393.21
539.09	531.30
539.26	416.62
539.43	397.89
539.60	414.27
539.77	458.74
539.94	425.98
540.11	491.51
540.28	454.06
540.44	407.25
540.61	400.23
540.78	447.04
540.95	351.08
541.12	451.72
541.29	390.87
541.46	465.77
541.62	437.68
541.79	430.66
541.96	407.25
542.13	393.21
542.30	400.23
542.47	433.00
542.63	393.21
542.80	442.36
542.97	496.19
543.14	351.08
543.31	421.30
543.48	372.15
543.64	437.68
543.81	458.74
543.98	411.93
544.15	425.98
544.32	421.30
544.48	418.96
544.65	416.62
544.82	395.55
544.99	451.72
545.16	486.83
545.32	425.98
545.49	381.51
545.66	440.02
545.83	444.70
546.00	465.77
546.16	390.87
546.33	386.19
546.50	433.00
546.67	465.77
546.83	386.19
547.00	411.93
547.17	458.74
547.34	409.59
547.50	449.38
547.67	407.25
547.84	421.30
548.00	409.59
548.17	414.27
548.34	423.64
548.51	423.64
548.67	461.09
548.84	425.98
549.01	421.30
549.18	383.85
549.34	442.36
549.51	444.70
549.68	318.31
549.84	435.34
550.01	404.91
550.18	465.77
550.34	468.11
550.51	430.66
550.68	493.85
550.84	376.83
551.01	379.17
551.18	463.43
551.34	400.23
551.51	393.21
551.68	435.34
551.84	421.30
552.01	437.68
552.18	411.93
552.34	397.89
552.51	418.96
552.68	447.04
552.84	411.93
553.01	435.34
553.18	423.64
553.34	376.83
553.51	425.98
553.67	393.21
553.84	454.06
554.01	376.83
554.17	428.32
554.34	395.55
554.51	517.26
554.67	423.64
554.84	355.76
555.00	444.70
555.17	421.30
555.33	456.40
555.50	402.57
555.67	468.11
555.83	376.83
556.00	416.62
556.16	592.16
556.33	402.57
556.50	475.13
556.66	444.70
556.83	433.00
556.99	437.68
557.16	346.40
557.32	435.34
557.49	351.08
557.65	386.19
557.82	388.53
557.98	465.77
558.15	404.91
558.32	435.34
558.48	416.62
558.65	416.62
558.81	383.85
558.98	395.55
559.14	433.00
559.31	454.06
559.47	418.96
559.64	493.85
559.80	397.89
559.97	367.46
560.13	449.38
560.30	334.70
560.46	418.96
560.63	444.70
560.79	433.00
560.96	437.68
561.12	414.27
561.29	423.64
561.45	479.81
561.61	430.66
561.78	442.36
561.94	416.62
562.11	409.59
562.27	435.34
562.44	379.17
562.60	465.77
562.77	388.53
562.93	447.04
563.10	369.80
563.26	475.13
563.42	369.80
563.59	414.27
563.75	348.74
563.92	477.47
564.08	435.34
564.24	484.49
564.41	458.74
564.57	400.23
564.74	449.38
564.90	444.70
565.07	491.51
565.23	475.13
565.39	430.66
565.56	430.66
565.72	386.19
565.88	386.19
566.05	379.17
566.21	404.91
566.38	475.13
566.54	409.59
566.70	423.64
566.87	381.51
567.03	407.25
567.19	449.38
567.36	465.77
567.52	374.49
567.68	383.85
567.85	369.80
568.01	414.27
568.17	402.57
568.34	461.09
568.50	444.70
568.66	388.53
568.83	486.83
568.99	411.93
569.15	430.66
569.32	386.19
569.48	449.38
569.64	397.89
569.81	442.36
569.97	435.34
570.13	400.23
570.30	468.11
570.46	388.53
570.62	353.42
570.78	461.09
570.95	407.25
571.11	381.51
571.27	456.40
571.43	376.83
571.60	355.76
571.76	447.04
571.92	423.64
572.09	425.98
572.25	388.53
572.41	461.09
572.57	444.70
572.74	430.66
572.90	447.04
573.06	437.68
573.22	430.66
573.38	409.59
573.55	489.17
573.71	451.72
573.87	484.49
574.03	451.72
574.20	353.42
574.36	425.98
574.52	397.89
574.68	414.27
574.84	447.04
575.01	379.17
575.17	468.11
575.33	423.64
575.49	433.00
575.65	397.89
575.82	468.11
575.98	414.27
576.14	451.72
576.30	414.27
576.46	449.38
576.62	400.23
576.79	456.40
576.95	444.70
577.11	374.49
577.27	376.83
577.43	500.87
577.59	491.51
577.75	353.42
577.92	468.11
578.08	404.91
578.24	430.66
578.40	423.64
578.56	418.96
578.72	477.47
578.88	360.44
579.04	411.93
579.21	388.53
579.37	418.96
579.53	407.25
579.69	376.83
579.85	395.55
580.01	374.49
580.17	489.17
580.33	465.77
580.49	404.91
580.65	425.98
580.82	433.00
580.98	423.64
581.14	376.83
581.30	472.79
581.46	430.66
581.62	477.47
581.78	428.32
581.94	418.96
582.10	404.91
582.26	409.59
582.42	388.53
582.58	463.43
582.74	404.91
582.90	421.30
583.06	355.76
583.22	433.00
583.38	360.44
583.54	322.99
583.70	468.11
583.86	468.11
584.02	390.87
584.18	465.77
584.34	409.59
584.50	374.49
584.66	388.53
584.82	435.34
584.98	381.51
585.14	440.02
585.30	514.92
585.46	447.04
585.62	376.83
585.78	479.81
585.94	428.32
586.10	475.13
586.26	416.62
586.42	444.70
586.58	390.87
586.74	418.96
586.90	381.51
587.06	433.00
587.22	397.89
587.38	421.30
587.54	372.15
587.70	395.55
587.86	388.53
588.02	369.80
588.18	440.02
588.34	468.11
588.49	454.06
588.65	430.66
588.81	414.27
588.97	454.06
589.13	425.98
589.29	402.57
589.45	421.30
589.61	444.70
589.77	447.04
589.93	454.06
590.08	381.51
590.24	421.30
590.40	386.19
590.56	465.77
590.72	397.89
590.88	351.08
591.04	486.83
591.20	400.23
591.35	369.80
591.51	400.23
591.67	355.76
591.83	421.30
591.99	456.40
592.15	433.00
592.31	463.43
592.46	374.49
592.62	428.32
592.78	351.08
592.94	351.08
593.10	425.98
593.26	521.94
593.41	454.06
593.57	421.30
593.73	461.09
593.89	435.34
594.05	470.45
594.20	367.46
594.36	407.25
594.52	407.25
594.68	482.15
594.84	440.02
594.99	444.70
595.15	468.11
595.31	449.38
595.47	456.40
595.62	393.21
595.78	369.80
595.94	351.08
596.10	425.98
596.25	393.21
596.41	456.40
596.57	414.27
596.73	374.49
596.88	365.12
597.04	381.51
597.20	482.15
597.36	381.51
597.51	463.43
597.67	386.19
597.83	390.87
597.99	437.68
598.14	486.83
598.30	411.93
598.46	423.64
598.61	461.09
598.77	442.36
598.93	423.64
599.09	456.40
599.24	400.23
599.40	428.32
599.56	468.11
599.71	461.09
599.87	395.55
600.03	430.66
600.18	365.12
600.34	486.83
600.50	447.04
600.65	416.62
600.81	393.21
600.97	447.04
601.12	423.64
601.28	458.74
601.44	418.96
601.59	388.53
601.75	423.64
601.91	386.19
602.06	435.34
602.22	540.66
602.37	454.06
602.53	404.91
602.69	449.38
602.84	404.91
603.00	348.74
603.16	425.98
603.31	463.43
603.47	395.55
603.62	308.95
603.78	315.97
603.94	332.36
604.09	383.85
604.25	451.72
604.40	383.85
604.56	409.59
604.71	379.17
604.87	332.36
605.03	400.23
605.18	465.77
605.34	524.28
605.49	454.06
605.65	423.64
605.80	454.06
605.96	440.02
606.12	355.76
606.27	409.59
606.43	393.21
606.58	458.74
606.74	423.64
606.89	374.49
607.05	479.81
607.20	390.87
607.36	505.56
607.51	435.34
607.67	388.53
607.82	381.51
607.98	346.40
608.13	418.96
608.29	440.02
608.44	461.09
608.60	353.42
608.75	421.30
608.91	430.66
609.06	388.53
609.22	409.59
609.37	344.06
609.53	362.78
609.68	379.17
609.84	379.17
609.99	414.27
610.15	425.98
