SpectraSuite Data File
++++++++++++++++++++++++++++++++++++
Date: Fri Oct 25 12:10:46 EDT 2013
User: price-jones
Dark Spectrum Present: No
Reference Spectrum Present: No
Number of Sampled Component Spectra: 1
Spectrometers: USB2+H05261
Integration Time (usec): 100000 (USB2+H05261)
Spectra Averaged: 1 (USB2+H05261)
Boxcar Smoothing: 0 (USB2+H05261)
Correct for Electrical Dark: No (USB2+H05261)
Strobe/Lamp Enabled: No (USB2+H05261)
Correct for Detector Non-linearity: No (USB2+H05261)
Correct for Stray Light: No (USB2+H05261)
Number of Pixels in Processed Spectrum: 2048
>>>>>Begin Processed Spectral Data<<<<<
365.73	402.57
365.92	402.57
366.12	402.57
366.32	241.08
366.52	243.42
366.72	238.73
366.91	210.65
367.11	245.76
367.31	222.35
367.51	255.12
367.70	294.91
367.90	196.60
368.10	231.71
368.30	273.84
368.49	208.31
368.69	269.16
368.89	287.89
369.09	222.35
369.28	290.23
369.48	241.08
369.68	297.25
369.87	262.14
370.07	248.10
370.27	299.59
370.47	271.50
370.66	255.12
370.86	376.83
371.06	362.78
371.25	362.78
371.45	381.51
371.65	381.51
371.84	330.02
372.04	348.74
372.24	369.80
372.44	393.21
372.63	425.98
372.83	390.87
373.03	437.68
373.22	390.87
373.42	468.11
373.62	369.80
373.81	458.74
374.01	383.85
374.21	475.13
374.40	393.21
374.60	463.43
374.79	444.70
374.99	433.00
375.19	372.15
375.38	388.53
375.58	395.55
375.78	411.93
375.97	425.98
376.17	423.64
376.37	437.68
376.56	395.55
376.76	395.55
376.95	428.32
377.15	404.91
377.35	330.02
377.54	411.93
377.74	414.27
377.93	407.25
378.13	367.46
378.33	428.32
378.52	447.04
378.72	388.53
378.91	409.59
379.11	433.00
379.31	416.62
379.50	376.83
379.70	414.27
379.89	365.12
380.09	435.34
380.28	402.57
380.48	386.19
380.68	416.62
380.87	451.72
381.07	430.66
381.26	430.66
381.46	362.78
381.65	390.87
381.85	430.66
382.04	369.80
382.24	372.15
382.43	447.04
382.63	344.06
382.83	411.93
383.02	337.04
383.22	362.78
383.41	386.19
383.61	416.62
383.80	395.55
384.00	341.72
384.19	414.27
384.39	351.08
384.58	334.70
384.78	421.30
384.97	372.15
385.17	344.06
385.36	330.02
385.56	449.38
385.75	444.70
385.95	416.62
386.14	449.38
386.34	386.19
386.53	395.55
386.72	411.93
386.92	458.74
387.11	482.15
387.31	482.15
387.50	449.38
387.70	362.78
387.89	383.85
388.09	376.83
388.28	435.34
388.48	390.87
388.67	390.87
388.86	409.59
389.06	416.62
389.25	381.51
389.45	444.70
389.64	351.08
389.84	404.91
390.03	461.09
390.22	374.49
390.42	409.59
390.61	386.19
390.81	383.85
391.00	379.17
391.19	463.43
391.39	390.87
391.58	362.78
391.78	367.46
391.97	486.83
392.16	348.74
392.36	351.08
392.55	423.64
392.75	390.87
392.94	395.55
393.13	353.42
393.33	344.06
393.52	421.30
393.71	449.38
393.91	416.62
394.10	437.68
394.29	414.27
394.49	367.46
394.68	440.02
394.88	402.57
395.07	425.98
395.26	421.30
395.46	355.76
395.65	433.00
395.84	430.66
396.04	428.32
396.23	428.32
396.42	372.15
396.62	411.93
396.81	456.40
397.00	379.17
397.19	388.53
397.39	435.34
397.58	414.27
397.77	465.77
397.97	428.32
398.16	425.98
398.35	379.17
398.55	362.78
398.74	416.62
398.93	402.57
399.12	454.06
399.32	400.23
399.51	418.96
399.70	397.89
399.90	456.40
400.09	416.62
400.28	454.06
400.47	404.91
400.67	430.66
400.86	444.70
401.05	421.30
401.24	411.93
401.44	468.11
401.63	440.02
401.82	428.32
402.01	409.59
402.21	430.66
402.40	447.04
402.59	402.57
402.78	447.04
402.97	395.55
403.17	400.23
403.36	451.72
403.55	395.55
403.74	372.15
403.93	353.42
404.13	447.04
404.32	386.19
404.51	390.87
404.70	409.59
404.89	388.53
405.09	491.51
405.28	376.83
405.47	395.55
405.66	423.64
405.85	404.91
406.05	397.89
406.24	390.87
406.43	362.78
406.62	372.15
406.81	447.04
407.00	383.85
407.20	390.87
407.39	397.89
407.58	447.04
407.77	344.06
407.96	400.23
408.15	428.32
408.34	425.98
408.54	421.30
408.73	418.96
408.92	456.40
409.11	447.04
409.30	395.55
409.49	423.64
409.68	402.57
409.87	397.89
410.07	400.23
410.26	393.21
410.45	383.85
410.64	379.17
410.83	411.93
411.02	423.64
411.21	451.72
411.40	353.42
411.59	411.93
411.78	425.98
411.98	379.17
412.17	421.30
412.36	437.68
412.55	456.40
412.74	386.19
412.93	402.57
413.12	430.66
413.31	390.87
413.50	358.10
413.69	376.83
413.88	447.04
414.07	423.64
414.26	421.30
414.45	360.44
414.64	430.66
414.83	430.66
415.02	409.59
415.22	416.62
415.41	393.21
415.60	341.72
415.79	411.93
415.98	440.02
416.17	444.70
416.36	465.77
416.55	393.21
416.74	479.81
416.93	451.72
417.12	416.62
417.31	510.24
417.50	397.89
417.69	479.81
417.88	362.78
418.07	404.91
418.26	433.00
418.45	402.57
418.64	423.64
418.83	428.32
419.02	409.59
419.21	402.57
419.39	365.12
419.58	428.32
419.77	393.21
419.96	418.96
420.15	451.72
420.34	379.17
420.53	461.09
420.72	372.15
420.91	348.74
421.10	402.57
421.29	458.74
421.48	428.32
421.67	388.53
421.86	390.87
422.05	351.08
422.24	376.83
422.43	482.15
422.61	374.49
422.80	440.02
422.99	365.12
423.18	428.32
423.37	463.43
423.56	456.40
423.75	418.96
423.94	440.02
424.13	355.76
424.32	397.89
424.50	428.32
424.69	374.49
424.88	454.06
425.07	369.80
425.26	451.72
425.45	461.09
425.64	418.96
425.83	376.83
426.01	465.77
426.20	468.11
426.39	367.46
426.58	407.25
426.77	435.34
426.96	374.49
427.15	411.93
427.33	315.97
427.52	379.17
427.71	376.83
427.90	344.06
428.09	393.21
428.28	512.58
428.46	395.55
428.65	407.25
428.84	400.23
429.03	360.44
429.22	416.62
429.40	414.27
429.59	372.15
429.78	491.51
429.97	428.32
430.16	407.25
430.34	379.17
430.53	425.98
430.72	416.62
430.91	404.91
431.10	411.93
431.28	390.87
431.47	433.00
431.66	411.93
431.85	465.77
432.03	346.40
432.22	470.45
432.41	418.96
432.60	386.19
432.79	411.93
432.97	397.89
433.16	381.51
433.35	353.42
433.54	482.15
433.72	409.59
433.91	418.96
434.10	386.19
434.28	447.04
434.47	425.98
434.66	444.70
434.85	353.42
435.03	414.27
435.22	442.36
435.41	416.62
435.59	339.38
435.78	414.27
435.97	358.10
436.16	390.87
436.34	428.32
436.53	456.40
436.72	421.30
436.90	411.93
437.09	365.12
437.28	381.51
437.46	339.38
437.65	390.87
437.84	425.98
438.02	301.93
438.21	444.70
438.40	435.34
438.58	320.65
438.77	344.06
438.96	421.30
439.14	376.83
439.33	414.27
439.52	423.64
439.70	383.85
439.89	449.38
440.08	423.64
440.26	414.27
440.45	461.09
440.63	365.12
440.82	484.49
441.01	388.53
441.19	433.00
441.38	353.42
441.57	404.91
441.75	411.93
441.94	505.56
442.12	367.46
442.31	367.46
442.50	423.64
442.68	365.12
442.87	425.98
443.05	397.89
443.24	327.68
443.43	411.93
443.61	428.32
443.80	411.93
443.98	367.46
444.17	383.85
444.35	463.43
444.54	447.04
444.73	402.57
444.91	402.57
445.10	428.32
445.28	330.02
445.47	484.49
445.65	433.00
445.84	397.89
446.02	374.49
446.21	402.57
446.39	477.47
446.58	372.15
446.77	409.59
446.95	330.02
447.14	449.38
447.32	430.66
447.51	409.59
447.69	393.21
447.88	383.85
448.06	386.19
448.25	367.46
448.43	332.36
448.62	351.08
448.80	407.25
448.99	435.34
449.17	421.30
449.36	390.87
449.54	454.06
449.73	344.06
449.91	360.44
450.10	400.23
450.28	440.02
450.46	449.38
450.65	376.83
450.83	449.38
451.02	447.04
451.20	421.30
451.39	374.49
451.57	472.79
451.76	360.44
451.94	437.68
452.13	421.30
452.31	379.17
452.49	397.89
452.68	381.51
452.86	414.27
453.05	514.92
453.23	351.08
453.42	395.55
453.60	351.08
453.78	451.72
453.97	447.04
454.15	430.66
454.34	461.09
454.52	344.06
454.70	465.77
454.89	390.87
455.07	388.53
455.26	404.91
455.44	390.87
455.62	369.80
455.81	435.34
455.99	463.43
456.17	447.04
456.36	376.83
456.54	423.64
456.73	381.51
456.91	374.49
457.09	430.66
457.28	489.17
457.46	383.85
457.64	449.38
457.83	447.04
458.01	407.25
458.19	430.66
458.38	395.55
458.56	444.70
458.74	395.55
458.93	400.23
459.11	472.79
459.29	482.15
459.48	519.60
459.66	447.04
459.84	411.93
460.03	461.09
460.21	430.66
460.39	496.19
460.57	463.43
460.76	479.81
460.94	358.10
461.12	451.72
461.31	367.46
461.49	390.87
461.67	325.33
461.85	482.15
462.04	383.85
462.22	774.72
462.40	407.25
462.59	372.15
462.77	538.32
462.95	442.36
463.13	397.89
463.32	465.77
463.50	388.53
463.68	416.62
463.86	423.64
464.05	376.83
464.23	442.36
464.41	465.77
464.59	362.78
464.78	423.64
464.96	348.74
465.14	388.53
465.32	379.17
465.50	397.89
465.69	414.27
465.87	409.59
466.05	423.64
466.23	456.40
466.41	477.47
466.60	421.30
466.78	482.15
466.96	447.04
467.14	444.70
467.32	379.17
467.51	456.40
467.69	388.53
467.87	409.59
468.05	437.68
468.23	397.89
468.41	444.70
468.60	360.44
468.78	421.30
468.96	404.91
469.14	381.51
469.32	425.98
469.50	383.85
469.69	365.12
469.87	411.93
470.05	360.44
470.23	470.45
470.41	383.85
470.59	369.80
470.77	468.11
470.95	355.76
471.14	435.34
471.32	367.46
471.50	411.93
471.68	423.64
471.86	451.72
472.04	451.72
472.22	423.64
472.40	362.78
472.58	421.30
472.77	411.93
472.95	353.42
473.13	454.06
473.31	437.68
473.49	411.93
473.67	425.98
473.85	470.45
474.03	484.49
474.21	442.36
474.39	411.93
474.57	421.30
474.75	416.62
474.93	423.64
475.12	454.06
475.30	463.43
475.48	365.12
475.66	425.98
475.84	388.53
476.02	409.59
476.20	376.83
476.38	372.15
476.56	498.53
476.74	348.74
476.92	341.72
477.10	423.64
477.28	454.06
477.46	386.19
477.64	402.57
477.82	430.66
478.00	407.25
478.18	376.83
478.36	442.36
478.54	414.27
478.72	416.62
478.90	458.74
479.08	461.09
479.26	390.87
479.44	365.12
479.62	388.53
479.80	461.09
479.98	430.66
480.16	348.74
480.34	390.87
480.52	428.32
480.70	442.36
480.88	402.57
481.06	449.38
481.24	435.34
481.41	442.36
481.59	423.64
481.77	458.74
481.95	421.30
482.13	449.38
482.31	447.04
482.49	470.45
482.67	447.04
482.85	425.98
483.03	372.15
483.21	423.64
483.39	409.59
483.57	425.98
483.74	358.10
483.92	397.89
484.10	465.77
484.28	458.74
484.46	519.60
484.64	386.19
484.82	402.57
485.00	367.46
485.18	388.53
485.35	463.43
485.53	393.21
485.71	461.09
485.89	447.04
486.07	369.80
486.25	458.74
486.43	423.64
486.61	346.40
486.78	430.66
486.96	430.66
487.14	470.45
487.32	367.46
487.50	407.25
487.68	381.51
487.85	477.47
488.03	444.70
488.21	437.68
488.39	461.09
488.57	402.57
488.75	428.32
488.92	552.37
489.10	440.02
489.28	524.28
489.46	402.57
489.64	458.74
489.81	437.68
489.99	376.83
490.17	409.59
490.35	472.79
490.53	383.85
490.70	360.44
490.88	461.09
491.06	379.17
491.24	454.06
491.41	430.66
491.59	383.85
491.77	451.72
491.95	451.72
492.13	388.53
492.30	440.02
492.48	402.57
492.66	433.00
492.84	414.27
493.01	383.85
493.19	418.96
493.37	423.64
493.54	475.13
493.72	397.89
493.90	409.59
494.08	440.02
494.25	454.06
494.43	496.19
494.61	442.36
494.79	388.53
494.96	388.53
495.14	428.32
495.32	383.85
495.49	402.57
495.67	362.78
495.85	400.23
496.02	414.27
496.20	489.17
496.38	411.93
496.55	404.91
496.73	440.02
496.91	510.24
497.09	435.34
497.26	421.30
497.44	451.72
497.62	372.15
497.79	397.89
497.97	449.38
498.14	397.89
498.32	430.66
498.50	442.36
498.67	367.46
498.85	386.19
499.03	311.29
499.20	365.12
499.38	425.98
499.56	517.26
499.73	421.30
499.91	407.25
500.08	461.09
500.26	444.70
500.44	416.62
500.61	383.85
500.79	374.49
500.97	449.38
501.14	482.15
501.32	409.59
501.49	519.60
501.67	451.72
501.84	442.36
502.02	395.55
502.20	409.59
502.37	372.15
502.55	411.93
502.72	390.87
502.90	409.59
503.07	428.32
503.25	383.85
503.43	435.34
503.60	388.53
503.78	418.96
503.95	332.36
504.13	425.98
504.30	411.93
504.48	416.62
504.65	482.15
504.83	411.93
505.01	367.46
505.18	414.27
505.36	400.23
505.53	327.68
505.71	348.74
505.88	344.06
506.06	383.85
506.23	348.74
506.41	402.57
506.58	472.79
506.76	400.23
506.93	365.12
507.11	456.40
507.28	379.17
507.46	435.34
507.63	451.72
507.81	458.74
507.98	425.98
508.16	411.93
508.33	440.02
508.50	362.78
508.68	407.25
508.85	456.40
509.03	414.27
509.20	381.51
509.38	451.72
509.55	444.70
509.73	449.38
509.90	465.77
510.08	477.47
510.25	440.02
510.42	416.62
510.60	437.68
510.77	447.04
510.95	484.49
511.12	440.02
511.30	477.47
511.47	397.89
511.64	475.13
511.82	435.34
511.99	447.04
512.17	425.98
512.34	367.46
512.51	397.89
512.69	407.25
512.86	444.70
513.04	411.93
513.21	482.15
513.38	425.98
513.56	367.46
513.73	433.00
513.90	386.19
514.08	372.15
514.25	386.19
514.43	393.21
514.60	369.80
514.77	372.15
514.95	491.51
515.12	402.57
515.29	454.06
515.47	423.64
515.64	365.12
515.81	454.06
515.99	341.72
516.16	430.66
516.33	395.55
516.51	472.79
516.68	374.49
516.85	390.87
517.03	381.51
517.20	423.64
517.37	423.64
517.54	444.70
517.72	433.00
517.89	365.12
518.06	407.25
518.24	538.32
518.41	423.64
518.58	435.34
518.75	388.53
518.93	454.06
519.10	437.68
519.27	430.66
519.45	425.98
519.62	407.25
519.79	465.77
519.96	416.62
520.14	407.25
520.31	430.66
520.48	376.83
520.65	430.66
520.83	379.17
521.00	421.30
521.17	421.30
521.34	470.45
521.52	390.87
521.69	397.89
521.86	358.10
522.03	379.17
522.20	428.32
522.38	362.78
522.55	383.85
522.72	440.02
522.89	456.40
523.07	514.92
523.24	409.59
523.41	360.44
523.58	458.74
523.75	449.38
523.92	454.06
524.10	407.25
524.27	414.27
524.44	416.62
524.61	440.02
524.78	407.25
524.96	372.15
525.13	292.57
525.30	428.32
525.47	458.74
525.64	372.15
525.81	440.02
525.98	379.17
526.16	449.38
526.33	468.11
526.50	418.96
526.67	409.59
526.84	456.40
527.01	402.57
527.18	507.90
527.36	386.19
527.53	411.93
527.70	395.55
527.87	442.36
528.04	425.98
528.21	409.59
528.38	388.53
528.55	423.64
528.72	449.38
528.89	470.45
529.07	414.27
529.24	435.34
529.41	491.51
529.58	418.96
529.75	409.59
529.92	395.55
530.09	444.70
530.26	449.38
530.43	404.91
530.60	393.21
530.77	430.66
530.94	397.89
531.11	418.96
531.28	418.96
531.46	402.57
531.63	430.66
531.80	416.62
531.97	421.30
532.14	416.62
532.31	418.96
532.48	404.91
532.65	400.23
532.82	358.10
532.99	355.76
533.16	451.72
533.33	449.38
533.50	461.09
533.67	374.49
533.84	498.53
534.01	430.66
534.18	400.23
534.35	374.49
534.52	376.83
534.69	414.27
534.86	484.49
535.03	442.36
535.20	421.30
535.37	454.06
535.54	451.72
535.71	330.02
535.88	489.17
536.05	414.27
536.22	440.02
536.38	407.25
536.55	379.17
536.72	390.87
536.89	435.34
537.06	416.62
537.23	337.04
537.40	433.00
537.57	362.78
537.74	477.47
537.91	402.57
538.08	409.59
538.25	440.02
538.42	386.19
538.59	425.98
538.75	407.25
538.92	360.44
539.09	451.72
539.26	470.45
539.43	472.79
539.60	435.34
539.77	447.04
539.94	435.34
540.11	430.66
540.28	468.11
540.44	482.15
540.61	386.19
540.78	386.19
540.95	388.53
541.12	514.92
541.29	379.17
541.46	472.79
541.62	353.42
541.79	421.30
541.96	435.34
542.13	421.30
542.30	418.96
542.47	493.85
542.63	496.19
542.80	425.98
542.97	425.98
543.14	433.00
543.31	524.28
543.48	486.83
543.64	395.55
543.81	390.87
543.98	334.70
544.15	475.13
544.32	376.83
544.48	393.21
544.65	416.62
544.82	454.06
544.99	339.38
545.16	505.56
545.32	433.00
545.49	468.11
545.66	372.15
545.83	402.57
546.00	421.30
546.16	454.06
546.33	407.25
546.50	416.62
546.67	383.85
546.83	428.32
547.00	458.74
547.17	430.66
547.34	390.87
547.50	463.43
547.67	411.93
547.84	353.42
548.00	449.38
548.17	428.32
548.34	411.93
548.51	451.72
548.67	374.49
548.84	418.96
549.01	442.36
549.18	414.27
549.34	444.70
549.51	386.19
549.68	381.51
549.84	425.98
550.01	402.57
550.18	489.17
550.34	507.90
550.51	465.77
550.68	463.43
550.84	414.27
551.01	404.91
551.18	463.43
551.34	416.62
551.51	407.25
551.68	372.15
551.84	461.09
552.01	435.34
552.18	512.58
552.34	442.36
552.51	454.06
552.68	477.47
552.84	423.64
553.01	451.72
553.18	468.11
553.34	430.66
553.51	411.93
553.67	425.98
553.84	496.19
554.01	454.06
554.17	402.57
554.34	470.45
554.51	458.74
554.67	428.32
554.84	456.40
555.00	397.89
555.17	425.98
555.33	379.17
555.50	358.10
555.67	430.66
555.83	423.64
556.00	395.55
556.16	564.07
556.33	369.80
556.50	418.96
556.66	440.02
556.83	367.46
556.99	397.89
557.16	430.66
557.32	400.23
557.49	430.66
557.65	400.23
557.82	388.53
557.98	367.46
558.15	421.30
558.32	447.04
558.48	447.04
558.65	369.80
558.81	397.89
558.98	454.06
559.14	484.49
559.31	470.45
559.47	418.96
559.64	447.04
559.80	400.23
559.97	362.78
560.13	477.47
560.30	409.59
560.46	456.40
560.63	442.36
560.79	479.81
560.96	409.59
561.12	383.85
561.29	411.93
561.45	458.74
561.61	411.93
561.78	458.74
561.94	376.83
562.11	393.21
562.27	381.51
562.44	461.09
562.60	428.32
562.77	500.87
562.93	512.58
563.10	435.34
563.26	451.72
563.42	407.25
563.59	472.79
563.75	437.68
563.92	463.43
564.08	353.42
564.24	514.92
564.41	409.59
564.57	341.72
564.74	376.83
564.90	388.53
565.07	416.62
565.23	428.32
565.39	437.68
565.56	465.77
565.72	390.87
565.88	435.34
566.05	489.17
566.21	409.59
566.38	416.62
566.54	437.68
566.70	465.77
566.87	433.00
567.03	409.59
567.19	383.85
567.36	400.23
567.52	468.11
567.68	454.06
567.85	468.11
568.01	451.72
568.17	461.09
568.34	421.30
568.50	451.72
568.66	313.63
568.83	449.38
568.99	428.32
569.15	372.15
569.32	404.91
569.48	367.46
569.64	433.00
569.81	414.27
569.97	418.96
570.13	444.70
570.30	386.19
570.46	435.34
570.62	395.55
570.78	407.25
570.95	425.98
571.11	447.04
571.27	468.11
571.43	381.51
571.60	386.19
571.76	521.94
571.92	433.00
572.09	397.89
572.25	425.98
572.41	482.15
572.57	355.76
572.74	407.25
572.90	337.04
573.06	433.00
573.22	397.89
573.38	510.24
573.55	430.66
573.71	461.09
573.87	533.64
574.03	421.30
574.20	454.06
574.36	430.66
574.52	397.89
574.68	421.30
574.84	397.89
575.01	393.21
575.17	393.21
575.33	402.57
575.49	416.62
575.65	395.55
575.82	470.45
575.98	500.87
576.14	449.38
576.30	444.70
576.46	423.64
576.62	458.74
576.79	402.57
576.95	444.70
577.11	376.83
577.27	376.83
577.43	482.15
577.59	512.58
577.75	397.89
577.92	440.02
578.08	442.36
578.24	395.55
578.40	486.83
578.56	395.55
578.72	440.02
578.88	418.96
579.04	456.40
579.21	409.59
579.37	470.45
579.53	388.53
579.69	454.06
579.85	430.66
580.01	454.06
580.17	402.57
580.33	430.66
580.49	421.30
580.65	418.96
580.82	440.02
580.98	386.19
581.14	393.21
581.30	433.00
581.46	486.83
581.62	465.77
581.78	397.89
581.94	397.89
582.10	395.55
582.26	400.23
582.42	386.19
582.58	447.04
582.74	437.68
582.90	372.15
583.06	435.34
583.22	414.27
583.38	444.70
583.54	449.38
583.70	465.77
583.86	440.02
584.02	472.79
584.18	397.89
584.34	418.96
584.50	503.22
584.66	402.57
584.82	383.85
584.98	451.72
585.14	409.59
585.30	454.06
585.46	437.68
585.62	430.66
585.78	376.83
585.94	358.10
586.10	332.36
586.26	402.57
586.42	463.43
586.58	451.72
586.74	454.06
586.90	383.85
587.06	365.12
587.22	430.66
587.38	421.30
587.54	444.70
587.70	500.87
587.86	465.77
588.02	444.70
588.18	414.27
588.34	402.57
588.49	381.51
588.65	486.83
588.81	395.55
588.97	358.10
589.13	510.24
589.29	379.17
589.45	451.72
589.61	388.53
589.77	507.90
589.93	351.08
590.08	327.68
590.24	409.59
590.40	440.02
590.56	500.87
590.72	376.83
590.88	395.55
591.04	449.38
591.20	440.02
591.35	482.15
591.51	369.80
591.67	372.15
591.83	437.68
591.99	400.23
592.15	447.04
592.31	430.66
592.46	416.62
592.62	423.64
592.78	416.62
592.94	411.93
593.10	470.45
593.26	397.89
593.41	454.06
593.57	411.93
593.73	435.34
593.89	416.62
594.05	463.43
594.20	418.96
594.36	468.11
594.52	400.23
594.68	400.23
594.84	498.53
594.99	423.64
595.15	407.25
595.31	425.98
595.47	416.62
595.62	397.89
595.78	454.06
595.94	404.91
596.10	470.45
596.25	400.23
596.41	451.72
596.57	442.36
596.73	475.13
596.88	491.51
597.04	402.57
597.20	416.62
597.36	355.76
597.51	383.85
597.67	421.30
597.83	456.40
597.99	465.77
598.14	482.15
598.30	463.43
598.46	362.78
598.61	465.77
598.77	447.04
598.93	388.53
599.09	388.53
599.24	381.51
599.40	421.30
599.56	423.64
599.71	355.76
599.87	285.55
600.03	416.62
600.18	465.77
600.34	463.43
600.50	407.25
600.65	393.21
600.81	402.57
600.97	416.62
601.12	435.34
601.28	404.91
601.44	449.38
601.59	416.62
601.75	468.11
601.91	369.80
602.06	397.89
602.22	519.60
602.37	435.34
602.53	423.64
602.69	433.00
602.84	369.80
603.00	411.93
603.16	365.12
603.31	421.30
603.47	393.21
603.62	383.85
603.78	416.62
603.94	379.17
604.09	383.85
604.25	428.32
604.40	482.15
604.56	425.98
604.71	393.21
604.87	425.98
605.03	409.59
605.18	374.49
605.34	402.57
605.49	379.17
605.65	393.21
605.80	376.83
605.96	411.93
606.12	451.72
606.27	430.66
606.43	395.55
606.58	397.89
606.74	353.42
606.89	456.40
607.05	416.62
607.20	414.27
607.36	404.91
607.51	402.57
607.67	447.04
607.82	440.02
607.98	360.44
608.13	484.49
608.29	435.34
608.44	393.21
608.60	484.49
608.75	444.70
608.91	433.00
609.06	407.25
609.22	381.51
609.37	454.06
609.53	404.91
609.68	330.02
609.84	440.02
609.99	472.79
610.15	409.59
