SpectraSuite Data File
++++++++++++++++++++++++++++++++++++
Date: Fri Oct 25 12:10:53 EDT 2013
User: price-jones
Dark Spectrum Present: No
Reference Spectrum Present: No
Number of Sampled Component Spectra: 1
Spectrometers: USB2+H05261
Integration Time (usec): 100000 (USB2+H05261)
Spectra Averaged: 1 (USB2+H05261)
Boxcar Smoothing: 0 (USB2+H05261)
Correct for Electrical Dark: No (USB2+H05261)
Strobe/Lamp Enabled: No (USB2+H05261)
Correct for Detector Non-linearity: No (USB2+H05261)
Correct for Stray Light: No (USB2+H05261)
Number of Pixels in Processed Spectrum: 2048
>>>>>Begin Processed Spectral Data<<<<<
365.73	390.87
365.92	390.87
366.12	390.87
366.32	292.57
366.52	222.35
366.72	189.58
366.91	351.08
367.11	210.65
367.31	236.39
367.51	191.92
367.70	156.82
367.90	278.52
368.10	241.08
368.30	264.48
368.49	220.01
368.69	248.10
368.89	238.73
369.09	257.46
369.28	273.84
369.48	283.20
369.68	325.33
369.87	210.65
370.07	348.74
370.27	301.93
370.47	313.63
370.66	290.23
370.86	348.74
371.06	381.51
371.25	397.89
371.45	351.08
371.65	402.57
371.84	404.91
372.04	351.08
372.24	348.74
372.44	322.99
372.63	409.59
372.83	388.53
373.03	421.30
373.22	418.96
373.42	402.57
373.62	416.62
373.81	465.77
374.01	411.93
374.21	463.43
374.40	435.34
374.60	472.79
374.79	414.27
374.99	383.85
375.19	404.91
375.38	461.09
375.58	496.19
375.78	479.81
375.97	369.80
376.17	428.32
376.37	355.76
376.56	386.19
376.76	482.15
376.95	454.06
377.15	477.47
377.35	367.46
377.54	397.89
377.74	437.68
377.93	358.10
378.13	374.49
378.33	397.89
378.52	477.47
378.72	411.93
378.91	383.85
379.11	411.93
379.31	400.23
379.50	327.68
379.70	400.23
379.89	388.53
380.09	400.23
380.28	365.12
380.48	433.00
380.68	369.80
380.87	379.17
381.07	454.06
381.26	404.91
381.46	404.91
381.65	374.49
381.85	416.62
382.04	425.98
382.24	369.80
382.43	381.51
382.63	407.25
382.83	393.21
383.02	372.15
383.22	428.32
383.41	332.36
383.61	451.72
383.80	407.25
384.00	379.17
384.19	383.85
384.39	425.98
384.58	407.25
384.78	428.32
384.97	369.80
385.17	411.93
385.36	458.74
385.56	442.36
385.75	383.85
385.95	411.93
386.14	381.51
386.34	311.29
386.53	428.32
386.72	423.64
386.92	433.00
387.11	407.25
387.31	376.83
387.50	404.91
387.70	372.15
387.89	397.89
388.09	353.42
388.28	358.10
388.48	362.78
388.67	372.15
388.86	421.30
389.06	414.27
389.25	414.27
389.45	390.87
389.64	447.04
389.84	440.02
390.03	414.27
390.22	379.17
390.42	454.06
390.61	430.66
390.81	430.66
391.00	449.38
391.19	435.34
391.39	451.72
391.58	449.38
391.78	411.93
391.97	428.32
392.16	397.89
392.36	451.72
392.55	440.02
392.75	404.91
392.94	428.32
393.13	383.85
393.33	299.59
393.52	374.49
393.71	395.55
393.91	395.55
394.10	414.27
394.29	425.98
394.49	318.31
394.68	383.85
394.88	369.80
395.07	449.38
395.26	388.53
395.46	397.89
395.65	449.38
395.84	451.72
396.04	477.47
396.23	470.45
396.42	435.34
396.62	409.59
396.81	383.85
397.00	393.21
397.19	369.80
397.39	437.68
397.58	421.30
397.77	416.62
397.97	416.62
398.16	386.19
398.35	339.38
398.55	360.44
398.74	400.23
398.93	425.98
399.12	400.23
399.32	461.09
399.51	393.21
399.70	395.55
399.90	402.57
400.09	437.68
400.28	369.80
400.47	411.93
400.67	451.72
400.86	369.80
401.05	425.98
401.24	451.72
401.44	407.25
401.63	479.81
401.82	416.62
402.01	409.59
402.21	381.51
402.40	435.34
402.59	379.17
402.78	346.40
402.97	390.87
403.17	390.87
403.36	400.23
403.55	414.27
403.74	451.72
403.93	409.59
404.13	447.04
404.32	433.00
404.51	369.80
404.70	418.96
404.89	388.53
405.09	428.32
405.28	379.17
405.47	421.30
405.66	442.36
405.85	365.12
406.05	440.02
406.24	386.19
406.43	440.02
406.62	379.17
406.81	454.06
407.00	442.36
407.20	369.80
407.39	435.34
407.58	365.12
407.77	381.51
407.96	390.87
408.15	430.66
408.34	428.32
408.54	416.62
408.73	393.21
408.92	388.53
409.11	444.70
409.30	414.27
409.49	404.91
409.68	383.85
409.87	388.53
410.07	374.49
410.26	395.55
410.45	423.64
410.64	395.55
410.83	388.53
411.02	395.55
411.21	416.62
411.40	372.15
411.59	402.57
411.78	367.46
411.98	423.64
412.17	486.83
412.36	416.62
412.55	442.36
412.74	456.40
412.93	402.57
413.12	409.59
413.31	388.53
413.50	440.02
413.69	402.57
413.88	468.11
414.07	397.89
414.26	437.68
414.45	402.57
414.64	390.87
414.83	409.59
415.02	362.78
415.22	388.53
415.41	411.93
415.60	344.06
415.79	463.43
415.98	454.06
416.17	334.70
416.36	444.70
416.55	428.32
416.74	418.96
416.93	423.64
417.12	411.93
417.31	379.17
417.50	430.66
417.69	449.38
417.88	402.57
418.07	409.59
418.26	376.83
418.45	442.36
418.64	374.49
418.83	433.00
419.02	341.72
419.21	369.80
419.39	404.91
419.58	353.42
419.77	379.17
419.96	400.23
420.15	486.83
420.34	388.53
420.53	346.40
420.72	418.96
420.91	416.62
421.10	400.23
421.29	407.25
421.48	414.27
421.67	437.68
421.86	472.79
422.05	428.32
422.24	386.19
422.43	409.59
422.61	435.34
422.80	463.43
422.99	381.51
423.18	390.87
423.37	418.96
423.56	386.19
423.75	374.49
423.94	390.87
424.13	449.38
424.32	379.17
424.50	500.87
424.69	404.91
424.88	454.06
425.07	463.43
425.26	344.06
425.45	418.96
425.64	358.10
425.83	393.21
426.01	418.96
426.20	318.31
426.39	358.10
426.58	454.06
426.77	393.21
426.96	461.09
427.15	454.06
427.33	409.59
427.52	437.68
427.71	365.12
427.90	379.17
428.09	449.38
428.28	418.96
428.46	407.25
428.65	425.98
428.84	376.83
429.03	440.02
429.22	404.91
429.40	425.98
429.59	416.62
429.78	346.40
429.97	414.27
430.16	332.36
430.34	386.19
430.53	458.74
430.72	425.98
430.91	447.04
431.10	407.25
431.28	430.66
431.47	393.21
431.66	463.43
431.85	444.70
432.03	500.87
432.22	479.81
432.41	308.95
432.60	372.15
432.79	402.57
432.97	418.96
433.16	404.91
433.35	374.49
433.54	430.66
433.72	397.89
433.91	327.68
434.10	475.13
434.28	379.17
434.47	337.04
434.66	388.53
434.85	470.45
435.03	423.64
435.22	407.25
435.41	393.21
435.59	454.06
435.78	355.76
435.97	372.15
436.16	367.46
436.34	372.15
436.53	397.89
436.72	395.55
436.90	444.70
437.09	372.15
437.28	332.36
437.46	421.30
437.65	425.98
437.84	472.79
438.02	416.62
438.21	461.09
438.40	461.09
438.58	421.30
438.77	428.32
438.96	362.78
439.14	374.49
439.33	376.83
439.52	421.30
439.70	437.68
439.89	374.49
440.08	430.66
440.26	411.93
440.45	411.93
440.63	440.02
440.82	421.30
441.01	425.98
441.19	407.25
441.38	440.02
441.57	409.59
441.75	421.30
441.94	383.85
442.12	376.83
442.31	411.93
442.50	397.89
442.68	442.36
442.87	428.32
443.05	388.53
443.24	395.55
443.43	388.53
443.61	397.89
443.80	393.21
443.98	442.36
444.17	397.89
444.35	393.21
444.54	402.57
444.73	393.21
444.91	395.55
445.10	348.74
445.28	355.76
445.47	414.27
445.65	447.04
445.84	447.04
446.02	344.06
446.21	383.85
446.39	407.25
446.58	451.72
446.77	407.25
446.95	365.12
447.14	418.96
447.32	433.00
447.51	418.96
447.69	414.27
447.88	407.25
448.06	435.34
448.25	428.32
448.43	374.49
448.62	358.10
448.80	447.04
448.99	465.77
449.17	374.49
449.36	454.06
449.54	456.40
449.73	461.09
449.91	517.26
450.10	414.27
450.28	454.06
450.46	444.70
450.65	493.85
450.83	428.32
451.02	404.91
451.20	430.66
451.39	409.59
451.57	451.72
451.76	372.15
451.94	454.06
452.13	463.43
452.31	407.25
452.49	465.77
452.68	435.34
452.86	367.46
453.05	470.45
453.23	416.62
453.42	395.55
453.60	458.74
453.78	425.98
453.97	383.85
454.15	444.70
454.34	482.15
454.52	421.30
454.70	416.62
454.89	414.27
455.07	437.68
455.26	383.85
455.44	374.49
455.62	369.80
455.81	423.64
455.99	327.68
456.17	447.04
456.36	428.32
456.54	402.57
456.73	351.08
456.91	376.83
457.09	404.91
457.28	498.53
457.46	346.40
457.64	430.66
457.83	425.98
458.01	381.51
458.19	449.38
458.38	407.25
458.56	414.27
458.74	428.32
458.93	458.74
459.11	372.15
459.29	418.96
459.48	425.98
459.66	428.32
459.84	458.74
460.03	461.09
460.21	430.66
460.39	402.57
460.57	381.51
460.76	358.10
460.94	435.34
461.12	454.06
461.31	442.36
461.49	409.59
461.67	388.53
461.85	433.00
462.04	409.59
462.22	777.06
462.40	404.91
462.59	442.36
462.77	418.96
462.95	447.04
463.13	365.12
463.32	437.68
463.50	433.00
463.68	409.59
463.86	379.17
464.05	423.64
464.23	355.76
464.41	388.53
464.59	344.06
464.78	393.21
464.96	416.62
465.14	447.04
465.32	423.64
465.50	407.25
465.69	437.68
465.87	379.17
466.05	416.62
466.23	390.87
466.41	458.74
466.60	409.59
466.78	407.25
466.96	482.15
467.14	461.09
467.32	444.70
467.51	358.10
467.69	414.27
467.87	465.77
468.05	421.30
468.23	465.77
468.41	454.06
468.60	428.32
468.78	447.04
468.96	425.98
469.14	482.15
469.32	395.55
469.50	430.66
469.69	376.83
469.87	299.59
470.05	437.68
470.23	404.91
470.41	430.66
470.59	344.06
470.77	369.80
470.95	442.36
471.14	407.25
471.32	435.34
471.50	393.21
471.68	409.59
471.86	358.10
472.04	414.27
472.22	386.19
472.40	428.32
472.58	449.38
472.77	374.49
472.95	463.43
473.13	493.85
473.31	461.09
473.49	362.78
473.67	409.59
473.85	451.72
474.03	472.79
474.21	393.21
474.39	447.04
474.57	449.38
474.75	360.44
474.93	437.68
475.12	442.36
475.30	454.06
475.48	390.87
475.66	386.19
475.84	437.68
476.02	442.36
476.20	418.96
476.38	425.98
476.56	400.23
476.74	428.32
476.92	383.85
477.10	411.93
477.28	440.02
477.46	353.42
477.64	372.15
477.82	447.04
478.00	374.49
478.18	397.89
478.36	416.62
478.54	407.25
478.72	416.62
478.90	402.57
479.08	416.62
479.26	517.26
479.44	472.79
479.62	421.30
479.80	425.98
479.98	381.51
480.16	407.25
480.34	430.66
480.52	383.85
480.70	447.04
480.88	393.21
481.06	430.66
481.24	367.46
481.41	393.21
481.59	414.27
481.77	395.55
481.95	386.19
482.13	395.55
482.31	440.02
482.49	421.30
482.67	369.80
482.85	386.19
483.03	414.27
483.21	416.62
483.39	423.64
483.57	444.70
483.74	393.21
483.92	390.87
484.10	409.59
484.28	421.30
484.46	407.25
484.64	430.66
484.82	414.27
485.00	369.80
485.18	425.98
485.35	437.68
485.53	383.85
485.71	383.85
485.89	369.80
486.07	379.17
486.25	496.19
486.43	400.23
486.61	425.98
486.78	472.79
486.96	454.06
487.14	341.72
487.32	372.15
487.50	472.79
487.68	414.27
487.85	433.00
488.03	442.36
488.21	468.11
488.39	372.15
488.57	437.68
488.75	449.38
488.92	470.45
489.10	388.53
489.28	477.47
489.46	393.21
489.64	418.96
489.81	402.57
489.99	407.25
490.17	388.53
490.35	425.98
490.53	400.23
490.70	447.04
490.88	365.12
491.06	442.36
491.24	388.53
491.41	388.53
491.59	500.87
491.77	381.51
491.95	418.96
492.13	367.46
492.30	451.72
492.48	409.59
492.66	379.17
492.84	407.25
493.01	409.59
493.19	353.42
493.37	465.77
493.54	379.17
493.72	421.30
493.90	489.17
494.08	348.74
494.25	395.55
494.43	400.23
494.61	355.76
494.79	400.23
494.96	407.25
495.14	425.98
495.32	409.59
495.49	400.23
495.67	376.83
495.85	341.72
496.02	362.78
496.20	369.80
496.38	416.62
496.55	425.98
496.73	454.06
496.91	414.27
497.09	414.27
497.26	390.87
497.44	383.85
497.62	402.57
497.79	395.55
497.97	449.38
498.14	341.72
498.32	409.59
498.50	470.45
498.67	404.91
498.85	402.57
499.03	414.27
499.20	414.27
499.38	414.27
499.56	372.15
499.73	484.49
499.91	433.00
500.08	379.17
500.26	418.96
500.44	400.23
500.61	386.19
500.79	386.19
500.97	411.93
501.14	433.00
501.32	409.59
501.49	428.32
501.67	376.83
501.84	362.78
502.02	376.83
502.20	407.25
502.37	411.93
502.55	337.04
502.72	433.00
502.90	449.38
503.07	400.23
503.25	505.56
503.43	425.98
503.60	365.12
503.78	409.59
503.95	425.98
504.13	407.25
504.30	407.25
504.48	430.66
504.65	507.90
504.83	463.43
505.01	346.40
505.18	390.87
505.36	351.08
505.53	414.27
505.71	402.57
505.88	451.72
506.06	407.25
506.23	430.66
506.41	402.57
506.58	414.27
506.76	402.57
506.93	409.59
507.11	461.09
507.28	444.70
507.46	421.30
507.63	440.02
507.81	447.04
507.98	465.77
508.16	421.30
508.33	484.49
508.50	449.38
508.68	458.74
508.85	451.72
509.03	402.57
509.20	433.00
509.38	393.21
509.55	337.04
509.73	486.83
509.90	433.00
510.08	404.91
510.25	484.49
510.42	416.62
510.60	423.64
510.77	393.21
510.95	421.30
511.12	395.55
511.30	447.04
511.47	503.22
511.64	500.87
511.82	414.27
511.99	339.38
512.17	407.25
512.34	430.66
512.51	372.15
512.69	444.70
512.86	416.62
513.04	400.23
513.21	423.64
513.38	346.40
513.56	397.89
513.73	444.70
513.90	376.83
514.08	320.65
514.25	421.30
514.43	372.15
514.60	388.53
514.77	381.51
514.95	456.40
515.12	381.51
515.29	435.34
515.47	465.77
515.64	416.62
515.81	430.66
515.99	416.62
516.16	393.21
516.33	414.27
516.51	390.87
516.68	475.13
516.85	435.34
517.03	442.36
517.20	409.59
517.37	397.89
517.54	428.32
517.72	395.55
517.89	404.91
518.06	411.93
518.24	456.40
518.41	433.00
518.58	482.15
518.75	393.21
518.93	395.55
519.10	351.08
519.27	362.78
519.45	388.53
519.62	456.40
519.79	404.91
519.96	411.93
520.14	353.42
520.31	428.32
520.48	447.04
520.65	435.34
520.83	390.87
521.00	397.89
521.17	362.78
521.34	397.89
521.52	386.19
521.69	362.78
521.86	348.74
522.03	482.15
522.20	454.06
522.38	390.87
522.55	407.25
522.72	428.32
522.89	435.34
523.07	418.96
523.24	381.51
523.41	425.98
523.58	404.91
523.75	411.93
523.92	388.53
524.10	374.49
524.27	465.77
524.44	461.09
524.61	463.43
524.78	475.13
524.96	430.66
525.13	402.57
525.30	365.12
525.47	433.00
525.64	395.55
525.81	418.96
525.98	451.72
526.16	346.40
526.33	461.09
526.50	355.76
526.67	435.34
526.84	449.38
527.01	297.25
527.18	369.80
527.36	496.19
527.53	379.17
527.70	388.53
527.87	440.02
528.04	454.06
528.21	421.30
528.38	461.09
528.55	397.89
528.72	367.46
528.89	379.17
529.07	517.26
529.24	491.51
529.41	477.47
529.58	451.72
529.75	388.53
529.92	479.81
530.09	416.62
530.26	416.62
530.43	400.23
530.60	447.04
530.77	404.91
530.94	414.27
531.11	404.91
531.28	482.15
531.46	435.34
531.63	421.30
531.80	456.40
531.97	416.62
532.14	362.78
532.31	402.57
532.48	447.04
532.65	423.64
532.82	435.34
532.99	411.93
533.16	486.83
533.33	369.80
533.50	346.40
533.67	388.53
533.84	430.66
534.01	407.25
534.18	418.96
534.35	374.49
534.52	425.98
534.69	402.57
534.86	393.21
535.03	367.46
535.20	395.55
535.37	430.66
535.54	353.42
535.71	393.21
535.88	433.00
536.05	365.12
536.22	477.47
536.38	393.21
536.55	465.77
536.72	411.93
536.89	390.87
537.06	423.64
537.23	430.66
537.40	437.68
537.57	479.81
537.74	531.30
537.91	411.93
538.08	388.53
538.25	383.85
538.42	430.66
538.59	400.23
538.75	461.09
538.92	500.87
539.09	442.36
539.26	404.91
539.43	395.55
539.60	348.74
539.77	369.80
539.94	491.51
540.11	437.68
540.28	395.55
540.44	507.90
540.61	367.46
540.78	423.64
540.95	430.66
541.12	440.02
541.29	484.49
541.46	414.27
541.62	379.17
541.79	433.00
541.96	400.23
542.13	388.53
542.30	362.78
542.47	433.00
542.63	428.32
542.80	463.43
542.97	400.23
543.14	374.49
543.31	451.72
543.48	341.72
543.64	437.68
543.81	479.81
543.98	433.00
544.15	308.95
544.32	409.59
544.48	367.46
544.65	400.23
544.82	393.21
544.99	449.38
545.16	402.57
545.32	313.63
545.49	404.91
545.66	397.89
545.83	390.87
546.00	414.27
546.16	416.62
546.33	388.53
546.50	418.96
546.67	475.13
546.83	411.93
547.00	386.19
547.17	393.21
547.34	404.91
547.50	433.00
547.67	386.19
547.84	435.34
548.00	430.66
548.17	414.27
548.34	346.40
548.51	447.04
548.67	447.04
548.84	442.36
549.01	379.17
549.18	484.49
549.34	428.32
549.51	379.17
549.68	447.04
549.84	451.72
550.01	440.02
550.18	407.25
550.34	498.53
550.51	400.23
550.68	435.34
550.84	390.87
551.01	341.72
551.18	468.11
551.34	379.17
551.51	358.10
551.68	451.72
551.84	416.62
552.01	346.40
552.18	383.85
552.34	437.68
552.51	397.89
552.68	402.57
552.84	416.62
553.01	428.32
553.18	341.72
553.34	461.09
553.51	397.89
553.67	514.92
553.84	449.38
554.01	418.96
554.17	461.09
554.34	409.59
554.51	458.74
554.67	388.53
554.84	449.38
555.00	358.10
555.17	461.09
555.33	454.06
555.50	479.81
555.67	421.30
555.83	437.68
556.00	416.62
556.16	580.45
556.33	402.57
556.50	397.89
556.66	416.62
556.83	397.89
556.99	404.91
557.16	451.72
557.32	383.85
557.49	400.23
557.65	388.53
557.82	372.15
557.98	414.27
558.15	407.25
558.32	484.49
558.48	327.68
558.65	449.38
558.81	491.51
558.98	376.83
559.14	430.66
559.31	433.00
559.47	484.49
559.64	430.66
559.80	388.53
559.97	440.02
560.13	442.36
560.30	470.45
560.46	437.68
560.63	393.21
560.79	386.19
560.96	400.23
561.12	430.66
561.29	444.70
561.45	477.47
561.61	447.04
561.78	521.94
561.94	428.32
562.11	465.77
562.27	423.64
562.44	433.00
562.60	390.87
562.77	440.02
562.93	447.04
563.10	376.83
563.26	376.83
563.42	470.45
563.59	351.08
563.75	486.83
563.92	535.98
564.08	374.49
564.24	428.32
564.41	397.89
564.57	454.06
564.74	372.15
564.90	435.34
565.07	435.34
565.23	404.91
565.39	418.96
565.56	421.30
565.72	428.32
565.88	423.64
566.05	381.51
566.21	404.91
566.38	514.92
566.54	386.19
566.70	423.64
566.87	348.74
567.03	444.70
567.19	393.21
567.36	484.49
567.52	451.72
567.68	449.38
567.85	440.02
568.01	440.02
568.17	407.25
568.34	409.59
568.50	416.62
568.66	423.64
568.83	444.70
568.99	444.70
569.15	479.81
569.32	421.30
569.48	463.43
569.64	423.64
569.81	414.27
569.97	395.55
570.13	386.19
570.30	440.02
570.46	423.64
570.62	390.87
570.78	358.10
570.95	397.89
571.11	500.87
571.27	482.15
571.43	404.91
571.60	414.27
571.76	376.83
571.92	404.91
572.09	374.49
572.25	433.00
572.41	433.00
572.57	372.15
572.74	465.77
572.90	437.68
573.06	425.98
573.22	454.06
573.38	433.00
573.55	444.70
573.71	430.66
573.87	435.34
574.03	395.55
574.20	367.46
574.36	428.32
574.52	437.68
574.68	369.80
574.84	440.02
575.01	489.17
575.17	454.06
575.33	463.43
575.49	433.00
575.65	444.70
575.82	484.49
575.98	423.64
576.14	411.93
576.30	414.27
576.46	404.91
576.62	421.30
576.79	472.79
576.95	407.25
577.11	369.80
577.27	423.64
577.43	489.17
577.59	421.30
577.75	418.96
577.92	402.57
578.08	395.55
578.24	369.80
578.40	437.68
578.56	409.59
578.72	451.72
578.88	451.72
579.04	388.53
579.21	362.78
579.37	430.66
579.53	358.10
579.69	470.45
579.85	468.11
580.01	404.91
580.17	390.87
580.33	444.70
580.49	397.89
580.65	461.09
580.82	372.15
580.98	433.00
581.14	374.49
581.30	475.13
581.46	355.76
581.62	411.93
581.78	379.17
581.94	430.66
582.10	365.12
582.26	435.34
582.42	386.19
582.58	383.85
582.74	325.33
582.90	428.32
583.06	409.59
583.22	470.45
583.38	346.40
583.54	451.72
583.70	369.80
583.86	456.40
584.02	400.23
584.18	514.92
584.34	414.27
584.50	437.68
584.66	400.23
584.82	428.32
584.98	418.96
585.14	402.57
585.30	421.30
585.46	390.87
585.62	376.83
585.78	442.36
585.94	414.27
586.10	463.43
586.26	454.06
586.42	414.27
586.58	416.62
586.74	404.91
586.90	444.70
587.06	447.04
587.22	372.15
587.38	449.38
587.54	407.25
587.70	383.85
587.86	416.62
588.02	409.59
588.18	433.00
588.34	381.51
588.49	414.27
588.65	463.43
588.81	437.68
588.97	425.98
589.13	430.66
589.29	472.79
589.45	451.72
589.61	348.74
589.77	486.83
589.93	404.91
590.08	447.04
590.24	442.36
590.40	507.90
590.56	393.21
590.72	440.02
590.88	468.11
591.04	404.91
591.20	442.36
591.35	430.66
591.51	414.27
591.67	435.34
591.83	388.53
591.99	397.89
592.15	482.15
592.31	416.62
592.46	440.02
592.62	400.23
592.78	390.87
592.94	407.25
593.10	456.40
593.26	395.55
593.41	428.32
593.57	449.38
593.73	407.25
593.89	418.96
594.05	491.51
594.20	435.34
594.36	433.00
594.52	409.59
594.68	395.55
594.84	430.66
594.99	519.60
595.15	365.12
595.31	416.62
595.47	470.45
595.62	404.91
595.78	425.98
595.94	454.06
596.10	411.93
596.25	423.64
596.41	388.53
596.57	393.21
596.73	386.19
596.88	430.66
597.04	402.57
597.20	416.62
597.36	470.45
597.51	379.17
597.67	428.32
597.83	332.36
597.99	409.59
598.14	402.57
598.30	451.72
598.46	433.00
598.61	421.30
598.77	461.09
598.93	404.91
599.09	433.00
599.24	388.53
599.40	440.02
599.56	430.66
599.71	447.04
599.87	360.44
600.03	416.62
600.18	386.19
600.34	465.77
600.50	440.02
600.65	416.62
600.81	440.02
600.97	414.27
601.12	404.91
601.28	411.93
601.44	383.85
601.59	425.98
601.75	379.17
601.91	360.44
602.06	388.53
602.22	543.00
602.37	433.00
602.53	397.89
602.69	409.59
602.84	418.96
603.00	428.32
603.16	465.77
603.31	395.55
603.47	479.81
603.62	400.23
603.78	486.83
603.94	451.72
604.09	383.85
604.25	463.43
604.40	425.98
604.56	365.12
604.71	381.51
604.87	444.70
605.03	374.49
605.18	402.57
605.34	477.47
605.49	440.02
605.65	449.38
605.80	428.32
605.96	395.55
606.12	390.87
606.27	435.34
606.43	440.02
606.58	395.55
606.74	388.53
606.89	395.55
607.05	421.30
607.20	486.83
607.36	409.59
607.51	428.32
607.67	367.46
607.82	393.21
607.98	388.53
608.13	360.44
608.29	372.15
608.44	402.57
608.60	418.96
608.75	423.64
608.91	433.00
609.06	482.15
609.22	428.32
609.37	454.06
609.53	404.91
609.68	395.55
609.84	414.27
609.99	360.44
610.15	491.51
