SpectraSuite Data File
++++++++++++++++++++++++++++++++++++
Date: Fri Oct 25 12:11:25 EDT 2013
User: price-jones
Dark Spectrum Present: No
Reference Spectrum Present: No
Number of Sampled Component Spectra: 1
Spectrometers: USB2+H05261
Integration Time (usec): 100000 (USB2+H05261)
Spectra Averaged: 1 (USB2+H05261)
Boxcar Smoothing: 0 (USB2+H05261)
Correct for Electrical Dark: No (USB2+H05261)
Strobe/Lamp Enabled: No (USB2+H05261)
Correct for Detector Non-linearity: No (USB2+H05261)
Correct for Stray Light: No (USB2+H05261)
Number of Pixels in Processed Spectrum: 2048
>>>>>Begin Processed Spectral Data<<<<<
365.73	313.63
365.92	313.63
366.12	313.63
366.32	273.84
366.52	189.58
366.72	273.84
366.91	231.71
367.11	280.86
367.31	224.69
367.51	227.03
367.70	241.08
367.90	266.82
368.10	248.10
368.30	234.05
368.49	236.39
368.69	269.16
368.89	266.82
369.09	248.10
369.28	217.67
369.48	271.50
369.68	344.06
369.87	306.61
370.07	292.57
370.27	262.14
370.47	280.86
370.66	404.91
370.86	381.51
371.06	393.21
371.25	390.87
371.45	358.10
371.65	397.89
371.84	423.64
372.04	334.70
372.24	407.25
372.44	463.43
372.63	449.38
372.83	430.66
373.03	444.70
373.22	425.98
373.42	428.32
373.62	428.32
373.81	442.36
374.01	456.40
374.21	477.47
374.40	400.23
374.60	437.68
374.79	416.62
374.99	451.72
375.19	395.55
375.38	451.72
375.58	379.17
375.78	423.64
375.97	400.23
376.17	503.22
376.37	454.06
376.56	402.57
376.76	367.46
376.95	390.87
377.15	372.15
377.35	416.62
377.54	393.21
377.74	477.47
377.93	381.51
378.13	407.25
378.33	404.91
378.52	423.64
378.72	430.66
378.91	456.40
379.11	404.91
379.31	430.66
379.50	393.21
379.70	390.87
379.89	353.42
380.09	334.70
380.28	470.45
380.48	367.46
380.68	418.96
380.87	379.17
381.07	395.55
381.26	430.66
381.46	428.32
381.65	435.34
381.85	458.74
382.04	414.27
382.24	346.40
382.43	397.89
382.63	416.62
382.83	400.23
383.02	425.98
383.22	416.62
383.41	409.59
383.61	475.13
383.80	425.98
384.00	472.79
384.19	358.10
384.39	395.55
384.58	402.57
384.78	372.15
384.97	444.70
385.17	430.66
385.36	456.40
385.56	353.42
385.75	395.55
385.95	353.42
386.14	442.36
386.34	425.98
386.53	383.85
386.72	348.74
386.92	475.13
387.11	418.96
387.31	397.89
387.50	458.74
387.70	313.63
387.89	411.93
388.09	386.19
388.28	383.85
388.48	381.51
388.67	468.11
388.86	444.70
389.06	330.02
389.25	416.62
389.45	404.91
389.64	421.30
389.84	423.64
390.03	369.80
390.22	360.44
390.42	416.62
390.61	493.85
390.81	334.70
391.00	416.62
391.19	442.36
391.39	320.65
391.58	325.33
391.78	404.91
391.97	360.44
392.16	397.89
392.36	379.17
392.55	475.13
392.75	367.46
392.94	414.27
393.13	451.72
393.33	414.27
393.52	381.51
393.71	472.79
393.91	383.85
394.10	423.64
394.29	400.23
394.49	411.93
394.68	346.40
394.88	472.79
395.07	435.34
395.26	381.51
395.46	491.51
395.65	414.27
395.84	400.23
396.04	416.62
396.23	418.96
396.42	442.36
396.62	479.81
396.81	393.21
397.00	456.40
397.19	390.87
397.39	395.55
397.58	418.96
397.77	451.72
397.97	433.00
398.16	381.51
398.35	465.77
398.55	381.51
398.74	468.11
398.93	433.00
399.12	468.11
399.32	367.46
399.51	355.76
399.70	447.04
399.90	414.27
400.09	388.53
400.28	416.62
400.47	386.19
400.67	442.36
400.86	395.55
401.05	390.87
401.24	444.70
401.44	395.55
401.63	428.32
401.82	379.17
402.01	442.36
402.21	332.36
402.40	407.25
402.59	421.30
402.78	383.85
402.97	337.04
403.17	458.74
403.36	435.34
403.55	433.00
403.74	397.89
403.93	400.23
404.13	421.30
404.32	376.83
404.51	388.53
404.70	411.93
404.89	458.74
405.09	430.66
405.28	421.30
405.47	390.87
405.66	393.21
405.85	421.30
406.05	390.87
406.24	306.61
406.43	386.19
406.62	367.46
406.81	463.43
407.00	472.79
407.20	404.91
407.39	423.64
407.58	430.66
407.77	449.38
407.96	449.38
408.15	414.27
408.34	409.59
408.54	374.49
408.73	444.70
408.92	442.36
409.11	479.81
409.30	433.00
409.49	437.68
409.68	414.27
409.87	386.19
410.07	395.55
410.26	358.10
410.45	390.87
410.64	402.57
410.83	463.43
411.02	407.25
411.21	421.30
411.40	409.59
411.59	407.25
411.78	454.06
411.98	505.56
412.17	358.10
412.36	437.68
412.55	428.32
412.74	418.96
412.93	486.83
413.12	428.32
413.31	390.87
413.50	433.00
413.69	348.74
413.88	362.78
414.07	435.34
414.26	411.93
414.45	465.77
414.64	461.09
414.83	437.68
415.02	435.34
415.22	383.85
415.41	395.55
415.60	339.38
415.79	416.62
415.98	376.83
416.17	482.15
416.36	425.98
416.55	400.23
416.74	430.66
416.93	442.36
417.12	367.46
417.31	421.30
417.50	430.66
417.69	400.23
417.88	407.25
418.07	418.96
418.26	411.93
418.45	458.74
418.64	374.49
418.83	362.78
419.02	407.25
419.21	355.76
419.39	465.77
419.58	402.57
419.77	379.17
419.96	440.02
420.15	458.74
420.34	440.02
420.53	381.51
420.72	451.72
420.91	388.53
421.10	348.74
421.29	402.57
421.48	395.55
421.67	376.83
421.86	395.55
422.05	437.68
422.24	503.22
422.43	414.27
422.61	390.87
422.80	451.72
422.99	411.93
423.18	402.57
423.37	535.98
423.56	411.93
423.75	449.38
423.94	414.27
424.13	395.55
424.32	376.83
424.50	379.17
424.69	393.21
424.88	395.55
425.07	388.53
425.26	416.62
425.45	468.11
425.64	444.70
425.83	421.30
426.01	369.80
426.20	409.59
426.39	393.21
426.58	402.57
426.77	451.72
426.96	421.30
427.15	472.79
427.33	381.51
427.52	425.98
427.71	414.27
427.90	444.70
428.09	383.85
428.28	327.68
428.46	358.10
428.65	379.17
428.84	425.98
429.03	510.24
429.22	374.49
429.40	393.21
429.59	376.83
429.78	500.87
429.97	440.02
430.16	514.92
430.34	440.02
430.53	404.91
430.72	414.27
430.91	442.36
431.10	383.85
431.28	433.00
431.47	447.04
431.66	411.93
431.85	402.57
432.03	437.68
432.22	468.11
432.41	444.70
432.60	414.27
432.79	285.55
432.97	400.23
433.16	409.59
433.35	369.80
433.54	437.68
433.72	409.59
433.91	425.98
434.10	430.66
434.28	472.79
434.47	409.59
434.66	496.19
434.85	430.66
435.03	409.59
435.22	397.89
435.41	418.96
435.59	496.19
435.78	454.06
435.97	360.44
436.16	404.91
436.34	435.34
436.53	447.04
436.72	365.12
436.90	407.25
437.09	430.66
437.28	393.21
437.46	360.44
437.65	423.64
437.84	491.51
438.02	437.68
438.21	360.44
438.40	395.55
438.58	430.66
438.77	428.32
438.96	404.91
439.14	381.51
439.33	437.68
439.52	430.66
439.70	407.25
439.89	402.57
440.08	386.19
440.26	346.40
440.45	369.80
440.63	372.15
440.82	383.85
441.01	325.33
441.19	376.83
441.38	421.30
441.57	449.38
441.75	416.62
441.94	397.89
442.12	330.02
442.31	400.23
442.50	374.49
442.68	400.23
442.87	444.70
443.05	444.70
443.24	402.57
443.43	414.27
443.61	402.57
443.80	374.49
443.98	369.80
444.17	402.57
444.35	393.21
444.54	379.17
444.73	397.89
444.91	503.22
445.10	365.12
445.28	465.77
445.47	409.59
445.65	404.91
445.84	416.62
446.02	388.53
446.21	416.62
446.39	411.93
446.58	437.68
446.77	421.30
446.95	444.70
447.14	461.09
447.32	414.27
447.51	367.46
447.69	381.51
447.88	383.85
448.06	451.72
448.25	433.00
448.43	449.38
448.62	374.49
448.80	404.91
448.99	449.38
449.17	411.93
449.36	411.93
449.54	393.21
449.73	407.25
449.91	414.27
450.10	376.83
450.28	407.25
450.46	449.38
450.65	458.74
450.83	447.04
451.02	374.49
451.20	425.98
451.39	423.64
451.57	383.85
451.76	454.06
451.94	470.45
452.13	456.40
452.31	411.93
452.49	430.66
452.68	400.23
452.86	393.21
453.05	430.66
453.23	379.17
453.42	475.13
453.60	489.17
453.78	390.87
453.97	376.83
454.15	428.32
454.34	348.74
454.52	367.46
454.70	435.34
454.89	458.74
455.07	472.79
455.26	465.77
455.44	393.21
455.62	470.45
455.81	337.04
455.99	365.12
456.17	444.70
456.36	423.64
456.54	358.10
456.73	411.93
456.91	435.34
457.09	430.66
457.28	433.00
457.46	381.51
457.64	442.36
457.83	447.04
458.01	407.25
458.19	433.00
458.38	409.59
458.56	355.76
458.74	425.98
458.93	428.32
459.11	402.57
459.29	353.42
459.48	468.11
459.66	411.93
459.84	390.87
460.03	437.68
460.21	442.36
460.39	400.23
460.57	411.93
460.76	425.98
460.94	449.38
461.12	468.11
461.31	437.68
461.49	482.15
461.67	411.93
461.85	360.44
462.04	437.68
462.22	833.23
462.40	421.30
462.59	397.89
462.77	351.08
462.95	372.15
463.13	388.53
463.32	468.11
463.50	383.85
463.68	461.09
463.86	442.36
464.05	454.06
464.23	400.23
464.41	388.53
464.59	465.77
464.78	320.65
464.96	433.00
465.14	447.04
465.32	409.59
465.50	461.09
465.69	404.91
465.87	421.30
466.05	423.64
466.23	383.85
466.41	400.23
466.60	374.49
466.78	435.34
466.96	409.59
467.14	435.34
467.32	463.43
467.51	411.93
467.69	372.15
467.87	493.85
468.05	383.85
468.23	440.02
468.41	437.68
468.60	372.15
468.78	376.83
468.96	440.02
469.14	447.04
469.32	285.55
469.50	425.98
469.69	376.83
469.87	383.85
470.05	365.12
470.23	379.17
470.41	409.59
470.59	428.32
470.77	374.49
470.95	447.04
471.14	468.11
471.32	388.53
471.50	482.15
471.68	428.32
471.86	397.89
472.04	325.33
472.22	423.64
472.40	334.70
472.58	376.83
472.77	320.65
472.95	407.25
473.13	475.13
473.31	442.36
473.49	365.12
473.67	339.38
473.85	442.36
474.03	400.23
474.21	421.30
474.39	496.19
474.57	463.43
474.75	449.38
474.93	414.27
475.12	322.99
475.30	409.59
475.48	353.42
475.66	477.47
475.84	337.04
476.02	416.62
476.20	407.25
476.38	374.49
476.56	458.74
476.74	416.62
476.92	421.30
477.10	463.43
477.28	414.27
477.46	437.68
477.64	383.85
477.82	395.55
478.00	425.98
478.18	402.57
478.36	468.11
478.54	388.53
478.72	444.70
478.90	407.25
479.08	440.02
479.26	416.62
479.44	360.44
479.62	374.49
479.80	449.38
479.98	388.53
480.16	365.12
480.34	416.62
480.52	367.46
480.70	402.57
480.88	433.00
481.06	404.91
481.24	421.30
481.41	393.21
481.59	456.40
481.77	383.85
481.95	482.15
482.13	444.70
482.31	395.55
482.49	416.62
482.67	379.17
482.85	402.57
483.03	430.66
483.21	433.00
483.39	407.25
483.57	519.60
483.74	433.00
483.92	395.55
484.10	362.78
484.28	437.68
484.46	428.32
484.64	411.93
484.82	388.53
485.00	337.04
485.18	383.85
485.35	428.32
485.53	273.84
485.71	433.00
485.89	440.02
486.07	430.66
486.25	491.51
486.43	437.68
486.61	461.09
486.78	395.55
486.96	362.78
487.14	442.36
487.32	437.68
487.50	395.55
487.68	475.13
487.85	402.57
488.03	400.23
488.21	390.87
488.39	367.46
488.57	461.09
488.75	416.62
488.92	500.87
489.10	402.57
489.28	550.03
489.46	346.40
489.64	383.85
489.81	402.57
489.99	358.10
490.17	423.64
490.35	451.72
490.53	456.40
490.70	421.30
490.88	402.57
491.06	465.77
491.24	479.81
491.41	449.38
491.59	411.93
491.77	400.23
491.95	411.93
492.13	400.23
492.30	390.87
492.48	337.04
492.66	353.42
492.84	458.74
493.01	433.00
493.19	388.53
493.37	433.00
493.54	468.11
493.72	369.80
493.90	393.21
494.08	440.02
494.25	447.04
494.43	397.89
494.61	475.13
494.79	393.21
494.96	365.12
495.14	425.98
495.32	379.17
495.49	430.66
495.67	409.59
495.85	388.53
496.02	386.19
496.20	442.36
496.38	414.27
496.55	348.74
496.73	411.93
496.91	477.47
497.09	440.02
497.26	400.23
497.44	475.13
497.62	379.17
497.79	491.51
497.97	409.59
498.14	395.55
498.32	383.85
498.50	376.83
498.67	369.80
498.85	360.44
499.03	411.93
499.20	454.06
499.38	454.06
499.56	365.12
499.73	383.85
499.91	400.23
500.08	442.36
500.26	372.15
500.44	362.78
500.61	442.36
500.79	458.74
500.97	351.08
501.14	454.06
501.32	414.27
501.49	472.79
501.67	411.93
501.84	449.38
502.02	383.85
502.20	414.27
502.37	496.19
502.55	386.19
502.72	344.06
502.90	461.09
503.07	528.96
503.25	468.11
503.43	402.57
503.60	346.40
503.78	428.32
503.95	418.96
504.13	447.04
504.30	435.34
504.48	416.62
504.65	479.81
504.83	437.68
505.01	430.66
505.18	402.57
505.36	425.98
505.53	454.06
505.71	421.30
505.88	411.93
506.06	423.64
506.23	395.55
506.41	393.21
506.58	414.27
506.76	442.36
506.93	440.02
507.11	428.32
507.28	409.59
507.46	355.76
507.63	496.19
507.81	400.23
507.98	407.25
508.16	379.17
508.33	444.70
508.50	379.17
508.68	440.02
508.85	449.38
509.03	351.08
509.20	372.15
509.38	407.25
509.55	397.89
509.73	461.09
509.90	451.72
510.08	362.78
510.25	442.36
510.42	383.85
510.60	411.93
510.77	393.21
510.95	407.25
511.12	421.30
511.30	433.00
511.47	397.89
511.64	395.55
511.82	461.09
511.99	376.83
512.17	437.68
512.34	383.85
512.51	437.68
512.69	449.38
512.86	376.83
513.04	341.72
513.21	409.59
513.38	390.87
513.56	367.46
513.73	423.64
513.90	374.49
514.08	461.09
514.25	416.62
514.43	449.38
514.60	440.02
514.77	351.08
514.95	456.40
515.12	416.62
515.29	433.00
515.47	456.40
515.64	444.70
515.81	423.64
515.99	400.23
516.16	409.59
516.33	418.96
516.51	440.02
516.68	388.53
516.85	500.87
517.03	334.70
517.20	381.51
517.37	400.23
517.54	379.17
517.72	409.59
517.89	428.32
518.06	381.51
518.24	477.47
518.41	484.49
518.58	437.68
518.75	428.32
518.93	482.15
519.10	505.56
519.27	400.23
519.45	402.57
519.62	407.25
519.79	477.47
519.96	442.36
520.14	491.51
520.31	503.22
520.48	451.72
520.65	322.99
520.83	486.83
521.00	428.32
521.17	465.77
521.34	458.74
521.52	414.27
521.69	397.89
521.86	411.93
522.03	461.09
522.20	341.72
522.38	393.21
522.55	428.32
522.72	407.25
522.89	475.13
523.07	491.51
523.24	421.30
523.41	390.87
523.58	414.27
523.75	379.17
523.92	430.66
524.10	421.30
524.27	400.23
524.44	451.72
524.61	479.81
524.78	425.98
524.96	479.81
525.13	421.30
525.30	390.87
525.47	337.04
525.64	423.64
525.81	402.57
525.98	440.02
526.16	496.19
526.33	395.55
526.50	423.64
526.67	395.55
526.84	407.25
527.01	376.83
527.18	454.06
527.36	402.57
527.53	393.21
527.70	400.23
527.87	400.23
528.04	463.43
528.21	428.32
528.38	496.19
528.55	379.17
528.72	458.74
528.89	409.59
529.07	397.89
529.24	442.36
529.41	348.74
529.58	390.87
529.75	355.76
529.92	397.89
530.09	322.99
530.26	421.30
530.43	465.77
530.60	414.27
530.77	379.17
530.94	468.11
531.11	409.59
531.28	381.51
531.46	433.00
531.63	386.19
531.80	482.15
531.97	500.87
532.14	407.25
532.31	430.66
532.48	379.17
532.65	470.45
532.82	444.70
532.99	535.98
533.16	433.00
533.33	409.59
533.50	428.32
533.67	358.10
533.84	454.06
534.01	440.02
534.18	486.83
534.35	440.02
534.52	435.34
534.69	451.72
534.86	388.53
535.03	339.38
535.20	393.21
535.37	395.55
535.54	402.57
535.71	428.32
535.88	435.34
536.05	447.04
536.22	393.21
536.38	407.25
536.55	458.74
536.72	442.36
536.89	414.27
537.06	437.68
537.23	400.23
537.40	414.27
537.57	425.98
537.74	465.77
537.91	449.38
538.08	416.62
538.25	376.83
538.42	447.04
538.59	400.23
538.75	416.62
538.92	444.70
539.09	442.36
539.26	374.49
539.43	423.64
539.60	369.80
539.77	437.68
539.94	449.38
540.11	421.30
540.28	428.32
540.44	461.09
540.61	430.66
540.78	365.12
540.95	381.51
541.12	428.32
541.29	381.51
541.46	463.43
541.62	416.62
541.79	379.17
541.96	404.91
542.13	482.15
542.30	418.96
542.47	435.34
542.63	402.57
542.80	374.49
542.97	425.98
543.14	447.04
543.31	404.91
543.48	411.93
543.64	435.34
543.81	421.30
543.98	407.25
544.15	442.36
544.32	437.68
544.48	449.38
544.65	496.19
544.82	425.98
544.99	442.36
545.16	435.34
545.32	374.49
545.49	425.98
545.66	400.23
545.83	362.78
546.00	470.45
546.16	383.85
546.33	451.72
546.50	358.10
546.67	397.89
546.83	444.70
547.00	418.96
547.17	461.09
547.34	472.79
547.50	463.43
547.67	376.83
547.84	456.40
548.00	397.89
548.17	404.91
548.34	444.70
548.51	507.90
548.67	470.45
548.84	470.45
549.01	379.17
549.18	472.79
549.34	449.38
549.51	440.02
549.68	456.40
549.84	437.68
550.01	402.57
550.18	514.92
550.34	454.06
550.51	337.04
550.68	435.34
550.84	400.23
551.01	395.55
551.18	440.02
551.34	397.89
551.51	449.38
551.68	528.96
551.84	379.17
552.01	372.15
552.18	372.15
552.34	535.98
552.51	386.19
552.68	388.53
552.84	421.30
553.01	374.49
553.18	440.02
553.34	433.00
553.51	425.98
553.67	428.32
553.84	442.36
554.01	416.62
554.17	458.74
554.34	395.55
554.51	409.59
554.67	400.23
554.84	341.72
555.00	386.19
555.17	451.72
555.33	414.27
555.50	456.40
555.67	479.81
555.83	402.57
556.00	400.23
556.16	454.06
556.33	402.57
556.50	440.02
556.66	411.93
556.83	430.66
556.99	355.76
557.16	433.00
557.32	390.87
557.49	367.46
557.65	444.70
557.82	395.55
557.98	440.02
558.15	444.70
558.32	465.77
558.48	447.04
558.65	407.25
558.81	447.04
558.98	402.57
559.14	437.68
559.31	479.81
559.47	491.51
559.64	454.06
559.80	390.87
559.97	425.98
560.13	344.06
560.30	348.74
560.46	388.53
560.63	456.40
560.79	449.38
560.96	358.10
561.12	479.81
561.29	365.12
561.45	409.59
561.61	418.96
561.78	500.87
561.94	454.06
562.11	376.83
562.27	477.47
562.44	358.10
562.60	388.53
562.77	411.93
562.93	465.77
563.10	404.91
563.26	397.89
563.42	409.59
563.59	458.74
563.75	400.23
563.92	367.46
564.08	454.06
564.24	367.46
564.41	444.70
564.57	381.51
564.74	416.62
564.90	416.62
565.07	423.64
565.23	447.04
565.39	418.96
565.56	437.68
565.72	301.93
565.88	393.21
566.05	451.72
566.21	447.04
566.38	479.81
566.54	505.56
566.70	390.87
566.87	503.22
567.03	444.70
567.19	423.64
567.36	451.72
567.52	449.38
567.68	447.04
567.85	416.62
568.01	353.42
568.17	374.49
568.34	435.34
568.50	440.02
568.66	416.62
568.83	468.11
568.99	386.19
569.15	472.79
569.32	339.38
569.48	397.89
569.64	425.98
569.81	395.55
569.97	451.72
570.13	430.66
570.30	400.23
570.46	411.93
570.62	397.89
570.78	400.23
570.95	379.17
571.11	468.11
571.27	461.09
571.43	456.40
571.60	397.89
571.76	397.89
571.92	435.34
572.09	367.46
572.25	451.72
572.41	369.80
572.57	386.19
572.74	395.55
572.90	404.91
573.06	493.85
573.22	395.55
573.38	379.17
573.55	374.49
573.71	376.83
573.87	451.72
574.03	334.70
574.20	416.62
574.36	428.32
574.52	386.19
574.68	369.80
574.84	390.87
575.01	386.19
575.17	463.43
575.33	407.25
575.49	463.43
575.65	425.98
575.82	425.98
575.98	428.32
576.14	442.36
576.30	381.51
576.46	451.72
576.62	433.00
576.79	423.64
576.95	496.19
577.11	351.08
577.27	407.25
577.43	418.96
577.59	416.62
577.75	402.57
577.92	425.98
578.08	407.25
578.24	447.04
578.40	425.98
578.56	444.70
578.72	454.06
578.88	376.83
579.04	369.80
579.21	430.66
579.37	386.19
579.53	449.38
579.69	395.55
579.85	299.59
580.01	409.59
580.17	393.21
580.33	430.66
580.49	425.98
580.65	425.98
580.82	447.04
580.98	423.64
581.14	402.57
581.30	393.21
581.46	402.57
581.62	451.72
581.78	348.74
581.94	369.80
582.10	423.64
582.26	395.55
582.42	475.13
582.58	425.98
582.74	428.32
582.90	454.06
583.06	386.19
583.22	458.74
583.38	358.10
583.54	458.74
583.70	465.77
583.86	397.89
584.02	416.62
584.18	442.36
584.34	388.53
584.50	390.87
584.66	388.53
584.82	393.21
584.98	390.87
585.14	407.25
585.30	428.32
585.46	433.00
585.62	430.66
585.78	395.55
585.94	503.22
586.10	416.62
586.26	428.32
586.42	449.38
586.58	402.57
586.74	322.99
586.90	355.76
587.06	379.17
587.22	409.59
587.38	407.25
587.54	409.59
587.70	458.74
587.86	330.02
588.02	404.91
588.18	451.72
588.34	449.38
588.49	425.98
588.65	449.38
588.81	458.74
588.97	334.70
589.13	437.68
589.29	397.89
589.45	458.74
589.61	425.98
589.77	393.21
589.93	482.15
590.08	379.17
590.24	456.40
590.40	449.38
590.56	498.53
590.72	421.30
590.88	423.64
591.04	435.34
591.20	395.55
591.35	428.32
591.51	461.09
591.67	442.36
591.83	393.21
591.99	514.92
592.15	402.57
592.31	395.55
592.46	451.72
592.62	402.57
592.78	418.96
592.94	433.00
593.10	390.87
593.26	402.57
593.41	447.04
593.57	421.30
593.73	423.64
593.89	355.76
594.05	390.87
594.20	411.93
594.36	428.32
594.52	376.83
594.68	407.25
594.84	477.47
594.99	465.77
595.15	430.66
595.31	409.59
595.47	421.30
595.62	388.53
595.78	418.96
595.94	414.27
596.10	503.22
596.25	379.17
596.41	383.85
596.57	463.43
596.73	318.31
596.88	311.29
597.04	337.04
597.20	430.66
597.36	418.96
597.51	461.09
597.67	402.57
597.83	404.91
597.99	416.62
598.14	404.91
598.30	458.74
598.46	423.64
598.61	456.40
598.77	374.49
598.93	454.06
599.09	341.72
599.24	510.24
599.40	505.56
599.56	409.59
599.71	390.87
599.87	409.59
600.03	437.68
600.18	472.79
600.34	360.44
600.50	425.98
600.65	400.23
600.81	416.62
600.97	416.62
601.12	449.38
601.28	414.27
601.44	418.96
601.59	447.04
601.75	421.30
601.91	468.11
602.06	416.62
602.22	437.68
602.37	440.02
602.53	416.62
602.69	442.36
602.84	383.85
603.00	437.68
603.16	421.30
603.31	397.89
603.47	414.27
603.62	421.30
603.78	465.77
603.94	442.36
604.09	404.91
604.25	409.59
604.40	479.81
604.56	472.79
604.71	390.87
604.87	407.25
605.03	381.51
605.18	447.04
605.34	435.34
605.49	428.32
605.65	447.04
605.80	407.25
605.96	477.47
606.12	397.89
606.27	428.32
606.43	418.96
606.58	369.80
606.74	409.59
606.89	325.33
607.05	500.87
607.20	454.06
607.36	430.66
607.51	376.83
607.67	461.09
607.82	456.40
607.98	433.00
608.13	418.96
608.29	395.55
608.44	477.47
608.60	507.90
608.75	484.49
608.91	454.06
609.06	484.49
609.22	442.36
609.37	400.23
609.53	376.83
609.68	463.43
609.84	339.38
609.99	355.76
610.15	397.89
