SpectraSuite Data File
++++++++++++++++++++++++++++++++++++
Date: Fri Oct 25 12:11:32 EDT 2013
User: price-jones
Dark Spectrum Present: No
Reference Spectrum Present: No
Number of Sampled Component Spectra: 1
Spectrometers: USB2+H05261
Integration Time (usec): 100000 (USB2+H05261)
Spectra Averaged: 1 (USB2+H05261)
Boxcar Smoothing: 0 (USB2+H05261)
Correct for Electrical Dark: No (USB2+H05261)
Strobe/Lamp Enabled: No (USB2+H05261)
Correct for Detector Non-linearity: No (USB2+H05261)
Correct for Stray Light: No (USB2+H05261)
Number of Pixels in Processed Spectrum: 2048
>>>>>Begin Processed Spectral Data<<<<<
365.73	344.06
365.92	344.06
366.12	344.06
366.32	346.40
366.52	299.59
366.72	238.73
366.91	264.48
367.11	255.12
367.31	283.20
367.51	283.20
367.70	327.68
367.90	238.73
368.10	262.14
368.30	198.95
368.49	278.52
368.69	269.16
368.89	220.01
369.09	231.71
369.28	283.20
369.48	250.44
369.68	271.50
369.87	311.29
370.07	395.55
370.27	381.51
370.47	290.23
370.66	341.72
370.86	344.06
371.06	369.80
371.25	404.91
371.45	444.70
371.65	341.72
371.84	386.19
372.04	341.72
372.24	395.55
372.44	418.96
372.63	421.30
372.83	365.12
373.03	418.96
373.22	404.91
373.42	402.57
373.62	390.87
373.81	402.57
374.01	430.66
374.21	456.40
374.40	402.57
374.60	447.04
374.79	430.66
374.99	433.00
375.19	353.42
375.38	374.49
375.58	458.74
375.78	440.02
375.97	423.64
376.17	379.17
376.37	362.78
376.56	409.59
376.76	348.74
376.95	409.59
377.15	423.64
377.35	404.91
377.54	440.02
377.74	390.87
377.93	388.53
378.13	489.17
378.33	423.64
378.52	383.85
378.72	423.64
378.91	383.85
379.11	433.00
379.31	458.74
379.50	351.08
379.70	381.51
379.89	400.23
380.09	433.00
380.28	400.23
380.48	393.21
380.68	393.21
380.87	395.55
381.07	428.32
381.26	496.19
381.46	369.80
381.65	454.06
381.85	372.15
382.04	395.55
382.24	444.70
382.43	402.57
382.63	376.83
382.83	451.72
383.02	437.68
383.22	416.62
383.41	428.32
383.61	381.51
383.80	402.57
384.00	407.25
384.19	416.62
384.39	409.59
384.58	355.76
384.78	397.89
384.97	425.98
385.17	372.15
385.36	360.44
385.56	430.66
385.75	383.85
385.95	404.91
386.14	402.57
386.34	472.79
386.53	402.57
386.72	418.96
386.92	444.70
387.11	423.64
387.31	395.55
387.50	369.80
387.70	358.10
387.89	458.74
388.09	470.45
388.28	491.51
388.48	407.25
388.67	468.11
388.86	376.83
389.06	407.25
389.25	428.32
389.45	435.34
389.64	437.68
389.84	479.81
390.03	430.66
390.22	386.19
390.42	409.59
390.61	428.32
390.81	411.93
391.00	447.04
391.19	404.91
391.39	379.17
391.58	376.83
391.78	400.23
391.97	440.02
392.16	369.80
392.36	458.74
392.55	423.64
392.75	447.04
392.94	388.53
393.13	390.87
393.33	437.68
393.52	407.25
393.71	376.83
393.91	402.57
394.10	348.74
394.29	442.36
394.49	337.04
394.68	409.59
394.88	404.91
395.07	482.15
395.26	358.10
395.46	299.59
395.65	376.83
395.84	447.04
396.04	458.74
396.23	425.98
396.42	479.81
396.62	400.23
396.81	498.53
397.00	437.68
397.19	407.25
397.39	411.93
397.58	386.19
397.77	369.80
397.97	425.98
398.16	423.64
398.35	362.78
398.55	409.59
398.74	376.83
398.93	470.45
399.12	418.96
399.32	400.23
399.51	428.32
399.70	423.64
399.90	425.98
400.09	374.49
400.28	449.38
400.47	442.36
400.67	421.30
400.86	482.15
401.05	423.64
401.24	475.13
401.44	400.23
401.63	435.34
401.82	379.17
402.01	367.46
402.21	528.96
402.40	386.19
402.59	435.34
402.78	386.19
402.97	444.70
403.17	374.49
403.36	388.53
403.55	404.91
403.74	376.83
403.93	437.68
404.13	447.04
404.32	369.80
404.51	348.74
404.70	461.09
404.89	421.30
405.09	454.06
405.28	456.40
405.47	428.32
405.66	484.49
405.85	414.27
406.05	386.19
406.24	454.06
406.43	437.68
406.62	381.51
406.81	379.17
407.00	374.49
407.20	334.70
407.39	404.91
407.58	362.78
407.77	360.44
407.96	428.32
408.15	465.77
408.34	451.72
408.54	440.02
408.73	430.66
408.92	458.74
409.11	418.96
409.30	489.17
409.49	407.25
409.68	411.93
409.87	447.04
410.07	437.68
410.26	337.04
410.45	348.74
410.64	369.80
410.83	400.23
411.02	376.83
411.21	470.45
411.40	409.59
411.59	390.87
411.78	383.85
411.98	430.66
412.17	421.30
412.36	388.53
412.55	376.83
412.74	463.43
412.93	411.93
413.12	435.34
413.31	447.04
413.50	400.23
413.69	465.77
413.88	407.25
414.07	393.21
414.26	430.66
414.45	341.72
414.64	437.68
414.83	423.64
415.02	404.91
415.22	458.74
415.41	358.10
415.60	351.08
415.79	376.83
415.98	465.77
416.17	442.36
416.36	411.93
416.55	456.40
416.74	376.83
416.93	407.25
417.12	425.98
417.31	421.30
417.50	470.45
417.69	376.83
417.88	402.57
418.07	407.25
418.26	376.83
418.45	416.62
418.64	463.43
418.83	451.72
419.02	390.87
419.21	344.06
419.39	428.32
419.58	468.11
419.77	386.19
419.96	372.15
420.15	425.98
420.34	416.62
420.53	411.93
420.72	440.02
420.91	381.51
421.10	404.91
421.29	390.87
421.48	404.91
421.67	411.93
421.86	468.11
422.05	428.32
422.24	327.68
422.43	435.34
422.61	330.02
422.80	383.85
422.99	521.94
423.18	414.27
423.37	407.25
423.56	407.25
423.75	440.02
423.94	402.57
424.13	393.21
424.32	409.59
424.50	390.87
424.69	433.00
424.88	355.76
425.07	409.59
425.26	416.62
425.45	454.06
425.64	425.98
425.83	409.59
426.01	397.89
426.20	454.06
426.39	379.17
426.58	358.10
426.77	416.62
426.96	423.64
427.15	465.77
427.33	390.87
427.52	404.91
427.71	423.64
427.90	397.89
428.09	407.25
428.28	437.68
428.46	449.38
428.65	395.55
428.84	400.23
429.03	433.00
429.22	395.55
429.40	437.68
429.59	388.53
429.78	435.34
429.97	451.72
430.16	421.30
430.34	437.68
430.53	444.70
430.72	486.83
430.91	440.02
431.10	430.66
431.28	379.17
431.47	388.53
431.66	388.53
431.85	423.64
432.03	393.21
432.22	475.13
432.41	372.15
432.60	491.51
432.79	409.59
432.97	409.59
433.16	440.02
433.35	454.06
433.54	444.70
433.72	390.87
433.91	365.12
434.10	374.49
434.28	381.51
434.47	421.30
434.66	423.64
434.85	437.68
435.03	437.68
435.22	461.09
435.41	440.02
435.59	332.36
435.78	421.30
435.97	388.53
436.16	456.40
436.34	381.51
436.53	418.96
436.72	440.02
436.90	414.27
437.09	433.00
437.28	388.53
437.46	407.25
437.65	430.66
437.84	461.09
438.02	360.44
438.21	393.21
438.40	386.19
438.58	393.21
438.77	472.79
438.96	425.98
439.14	346.40
439.33	428.32
439.52	411.93
439.70	435.34
439.89	430.66
440.08	393.21
440.26	411.93
440.45	397.89
440.63	423.64
440.82	383.85
441.01	372.15
441.19	365.12
441.38	416.62
441.57	411.93
441.75	451.72
441.94	428.32
442.12	397.89
442.31	404.91
442.50	390.87
442.68	409.59
442.87	372.15
443.05	393.21
443.24	409.59
443.43	477.47
443.61	454.06
443.80	407.25
443.98	355.76
444.17	414.27
444.35	428.32
444.54	414.27
444.73	444.70
444.91	461.09
445.10	294.91
445.28	355.76
445.47	447.04
445.65	418.96
445.84	451.72
446.02	465.77
446.21	421.30
446.39	461.09
446.58	425.98
446.77	397.89
446.95	374.49
447.14	437.68
447.32	339.38
447.51	393.21
447.69	414.27
447.88	477.47
448.06	397.89
448.25	393.21
448.43	437.68
448.62	472.79
448.80	451.72
448.99	409.59
449.17	388.53
449.36	395.55
449.54	416.62
449.73	407.25
449.91	477.47
450.10	414.27
450.28	397.89
450.46	461.09
450.65	411.93
450.83	386.19
451.02	409.59
451.20	358.10
451.39	379.17
451.57	390.87
451.76	390.87
451.94	465.77
452.13	451.72
452.31	376.83
452.49	442.36
452.68	362.78
452.86	388.53
453.05	484.49
453.23	388.53
453.42	421.30
453.60	433.00
453.78	407.25
453.97	435.34
454.15	423.64
454.34	346.40
454.52	444.70
454.70	449.38
454.89	369.80
455.07	416.62
455.26	440.02
455.44	444.70
455.62	423.64
455.81	414.27
455.99	430.66
456.17	430.66
456.36	400.23
456.54	355.76
456.73	475.13
456.91	423.64
457.09	383.85
457.28	423.64
457.46	451.72
457.64	421.30
457.83	416.62
458.01	425.98
458.19	414.27
458.38	351.08
458.56	449.38
458.74	430.66
458.93	388.53
459.11	416.62
459.29	444.70
459.48	418.96
459.66	528.96
459.84	355.76
460.03	402.57
460.21	430.66
460.39	440.02
460.57	411.93
460.76	456.40
460.94	388.53
461.12	442.36
461.31	430.66
461.49	304.27
461.67	456.40
461.85	428.32
462.04	416.62
462.22	751.31
462.40	397.89
462.59	379.17
462.77	454.06
462.95	463.43
463.13	390.87
463.32	351.08
463.50	414.27
463.68	416.62
463.86	440.02
464.05	402.57
464.23	444.70
464.41	440.02
464.59	414.27
464.78	416.62
464.96	414.27
465.14	444.70
465.32	369.80
465.50	484.49
465.69	402.57
465.87	362.78
466.05	367.46
466.23	418.96
466.41	386.19
466.60	393.21
466.78	397.89
466.96	482.15
467.14	425.98
467.32	465.77
467.51	435.34
467.69	362.78
467.87	449.38
468.05	498.53
468.23	451.72
468.41	461.09
468.60	418.96
468.78	414.27
468.96	425.98
469.14	472.79
469.32	393.21
469.50	465.77
469.69	447.04
469.87	411.93
470.05	472.79
470.23	386.19
470.41	381.51
470.59	388.53
470.77	402.57
470.95	482.15
471.14	430.66
471.32	444.70
471.50	425.98
471.68	437.68
471.86	447.04
472.04	379.17
472.22	411.93
472.40	393.21
472.58	472.79
472.77	416.62
472.95	493.85
473.13	447.04
473.31	358.10
473.49	409.59
473.67	484.49
473.85	418.96
474.03	411.93
474.21	428.32
474.39	477.47
474.57	482.15
474.75	390.87
474.93	418.96
475.12	400.23
475.30	414.27
475.48	421.30
475.66	348.74
475.84	390.87
476.02	442.36
476.20	428.32
476.38	418.96
476.56	503.22
476.74	433.00
476.92	400.23
477.10	379.17
477.28	428.32
477.46	306.61
477.64	416.62
477.82	393.21
478.00	400.23
478.18	430.66
478.36	395.55
478.54	428.32
478.72	430.66
478.90	407.25
479.08	428.32
479.26	423.64
479.44	386.19
479.62	355.76
479.80	409.59
479.98	358.10
480.16	416.62
480.34	444.70
480.52	425.98
480.70	437.68
480.88	330.02
481.06	402.57
481.24	433.00
481.41	390.87
481.59	425.98
481.77	379.17
481.95	430.66
482.13	447.04
482.31	437.68
482.49	294.91
482.67	491.51
482.85	428.32
483.03	409.59
483.21	418.96
483.39	390.87
483.57	433.00
483.74	425.98
483.92	435.34
484.10	458.74
484.28	449.38
484.46	397.89
484.64	379.17
484.82	386.19
485.00	435.34
485.18	423.64
485.35	358.10
485.53	411.93
485.71	468.11
485.89	449.38
486.07	414.27
486.25	484.49
486.43	393.21
486.61	414.27
486.78	423.64
486.96	416.62
487.14	390.87
487.32	383.85
487.50	390.87
487.68	454.06
487.85	416.62
488.03	407.25
488.21	437.68
488.39	322.99
488.57	463.43
488.75	395.55
488.92	524.28
489.10	451.72
489.28	402.57
489.46	411.93
489.64	411.93
489.81	322.99
489.99	449.38
490.17	390.87
490.35	491.51
490.53	440.02
490.70	367.46
490.88	463.43
491.06	376.83
491.24	379.17
491.41	400.23
491.59	400.23
491.77	358.10
491.95	425.98
492.13	437.68
492.30	484.49
492.48	440.02
492.66	404.91
492.84	416.62
493.01	407.25
493.19	468.11
493.37	435.34
493.54	454.06
493.72	449.38
493.90	421.30
494.08	381.51
494.25	369.80
494.43	421.30
494.61	379.17
494.79	407.25
494.96	322.99
495.14	430.66
495.32	491.51
495.49	468.11
495.67	348.74
495.85	402.57
496.02	404.91
496.20	416.62
496.38	315.97
496.55	355.76
496.73	465.77
496.91	400.23
497.09	444.70
497.26	423.64
497.44	367.46
497.62	386.19
497.79	449.38
497.97	372.15
498.14	470.45
498.32	411.93
498.50	416.62
498.67	470.45
498.85	451.72
499.03	491.51
499.20	381.51
499.38	423.64
499.56	337.04
499.73	482.15
499.91	442.36
500.08	425.98
500.26	484.49
500.44	418.96
500.61	367.46
500.79	442.36
500.97	383.85
501.14	421.30
501.32	437.68
501.49	407.25
501.67	388.53
501.84	491.51
502.02	411.93
502.20	428.32
502.37	374.49
502.55	397.89
502.72	400.23
502.90	411.93
503.07	505.56
503.25	451.72
503.43	409.59
503.60	418.96
503.78	409.59
503.95	407.25
504.13	479.81
504.30	428.32
504.48	454.06
504.65	440.02
504.83	386.19
505.01	451.72
505.18	437.68
505.36	383.85
505.53	423.64
505.71	486.83
505.88	470.45
506.06	397.89
506.23	491.51
506.41	451.72
506.58	390.87
506.76	447.04
506.93	404.91
507.11	470.45
507.28	355.76
507.46	376.83
507.63	437.68
507.81	414.27
507.98	433.00
508.16	388.53
508.33	451.72
508.50	414.27
508.68	388.53
508.85	369.80
509.03	348.74
509.20	458.74
509.38	388.53
509.55	409.59
509.73	449.38
509.90	470.45
510.08	421.30
510.25	447.04
510.42	447.04
510.60	362.78
510.77	468.11
510.95	468.11
511.12	407.25
511.30	393.21
511.47	365.12
511.64	437.68
511.82	376.83
511.99	374.49
512.17	379.17
512.34	355.76
512.51	372.15
512.69	400.23
512.86	458.74
513.04	390.87
513.21	404.91
513.38	425.98
513.56	400.23
513.73	451.72
513.90	372.15
514.08	442.36
514.25	458.74
514.43	484.49
514.60	383.85
514.77	409.59
514.95	409.59
515.12	400.23
515.29	477.47
515.47	372.15
515.64	407.25
515.81	456.40
515.99	468.11
516.16	425.98
516.33	454.06
516.51	421.30
516.68	423.64
516.85	423.64
517.03	390.87
517.20	400.23
517.37	435.34
517.54	517.26
517.72	418.96
517.89	372.15
518.06	482.15
518.24	475.13
518.41	503.22
518.58	379.17
518.75	414.27
518.93	407.25
519.10	393.21
519.27	418.96
519.45	379.17
519.62	414.27
519.79	449.38
519.96	425.98
520.14	430.66
520.31	561.73
520.48	400.23
520.65	428.32
520.83	449.38
521.00	411.93
521.17	461.09
521.34	468.11
521.52	449.38
521.69	355.76
521.86	430.66
522.03	470.45
522.20	477.47
522.38	430.66
522.55	440.02
522.72	475.13
522.89	477.47
523.07	414.27
523.24	416.62
523.41	463.43
523.58	454.06
523.75	395.55
523.92	444.70
524.10	353.42
524.27	374.49
524.44	461.09
524.61	451.72
524.78	362.78
524.96	430.66
525.13	423.64
525.30	456.40
525.47	463.43
525.64	456.40
525.81	379.17
525.98	437.68
526.16	362.78
526.33	360.44
526.50	425.98
526.67	395.55
526.84	442.36
527.01	461.09
527.18	449.38
527.36	395.55
527.53	500.87
527.70	435.34
527.87	498.53
528.04	437.68
528.21	400.23
528.38	423.64
528.55	388.53
528.72	411.93
528.89	433.00
529.07	374.49
529.24	430.66
529.41	470.45
529.58	388.53
529.75	425.98
529.92	393.21
530.09	390.87
530.26	440.02
530.43	447.04
530.60	496.19
530.77	395.55
530.94	458.74
531.11	404.91
531.28	397.89
531.46	418.96
531.63	456.40
531.80	421.30
531.97	416.62
532.14	402.57
532.31	430.66
532.48	414.27
532.65	379.17
532.82	407.25
532.99	383.85
533.16	461.09
533.33	400.23
533.50	393.21
533.67	402.57
533.84	407.25
534.01	444.70
534.18	423.64
534.35	397.89
534.52	362.78
534.69	456.40
534.86	414.27
535.03	451.72
535.20	454.06
535.37	381.51
535.54	468.11
535.71	433.00
535.88	437.68
536.05	416.62
536.22	465.77
536.38	470.45
536.55	477.47
536.72	433.00
536.89	430.66
537.06	393.21
537.23	409.59
537.40	444.70
537.57	418.96
537.74	470.45
537.91	533.64
538.08	407.25
538.25	484.49
538.42	437.68
538.59	416.62
538.75	367.46
538.92	433.00
539.09	435.34
539.26	454.06
539.43	428.32
539.60	376.83
539.77	456.40
539.94	407.25
540.11	468.11
540.28	442.36
540.44	381.51
540.61	437.68
540.78	369.80
540.95	435.34
541.12	360.44
541.29	447.04
541.46	465.77
541.62	442.36
541.79	458.74
541.96	367.46
542.13	381.51
542.30	402.57
542.47	475.13
542.63	463.43
542.80	428.32
542.97	465.77
543.14	369.80
543.31	414.27
543.48	435.34
543.64	500.87
543.81	442.36
543.98	437.68
544.15	372.15
544.32	397.89
544.48	449.38
544.65	444.70
544.82	404.91
544.99	388.53
545.16	425.98
545.32	383.85
545.49	409.59
545.66	444.70
545.83	297.25
546.00	376.83
546.16	433.00
546.33	351.08
546.50	486.83
546.67	468.11
546.83	421.30
547.00	468.11
547.17	365.12
547.34	407.25
547.50	379.17
547.67	447.04
547.84	421.30
548.00	407.25
548.17	414.27
548.34	505.56
548.51	425.98
548.67	435.34
548.84	482.15
549.01	451.72
549.18	472.79
549.34	451.72
549.51	433.00
549.68	491.51
549.84	433.00
550.01	388.53
550.18	507.90
550.34	437.68
550.51	421.30
550.68	442.36
550.84	433.00
551.01	379.17
551.18	463.43
551.34	428.32
551.51	475.13
551.68	470.45
551.84	360.44
552.01	407.25
552.18	449.38
552.34	388.53
552.51	390.87
552.68	425.98
552.84	395.55
553.01	407.25
553.18	463.43
553.34	433.00
553.51	463.43
553.67	421.30
553.84	491.51
554.01	404.91
554.17	369.80
554.34	372.15
554.51	383.85
554.67	390.87
554.84	451.72
555.00	341.72
555.17	449.38
555.33	430.66
555.50	407.25
555.67	500.87
555.83	528.96
556.00	404.91
556.16	524.28
556.33	409.59
556.50	440.02
556.66	451.72
556.83	334.70
556.99	400.23
557.16	416.62
557.32	425.98
557.49	407.25
557.65	409.59
557.82	395.55
557.98	313.63
558.15	362.78
558.32	433.00
558.48	416.62
558.65	470.45
558.81	463.43
558.98	454.06
559.14	407.25
559.31	433.00
559.47	468.11
559.64	425.98
559.80	437.68
559.97	425.98
560.13	512.58
560.30	437.68
560.46	402.57
560.63	437.68
560.79	402.57
560.96	463.43
561.12	409.59
561.29	470.45
561.45	425.98
561.61	374.49
561.78	444.70
561.94	348.74
562.11	451.72
562.27	447.04
562.44	425.98
562.60	433.00
562.77	458.74
562.93	477.47
563.10	491.51
563.26	444.70
563.42	440.02
563.59	379.17
563.75	346.40
563.92	393.21
564.08	411.93
564.24	519.60
564.41	482.15
564.57	430.66
564.74	407.25
564.90	498.53
565.07	435.34
565.23	421.30
565.39	416.62
565.56	402.57
565.72	362.78
565.88	369.80
566.05	451.72
566.21	414.27
566.38	447.04
566.54	468.11
566.70	411.93
566.87	416.62
567.03	421.30
567.19	430.66
567.36	358.10
567.52	454.06
567.68	369.80
567.85	435.34
568.01	435.34
568.17	362.78
568.34	372.15
568.50	428.32
568.66	411.93
568.83	465.77
568.99	489.17
569.15	507.90
569.32	379.17
569.48	435.34
569.64	428.32
569.81	472.79
569.97	400.23
570.13	393.21
570.30	425.98
570.46	404.91
570.62	407.25
570.78	381.51
570.95	423.64
571.11	463.43
571.27	430.66
571.43	388.53
571.60	388.53
571.76	489.17
571.92	458.74
572.09	407.25
572.25	383.85
572.41	411.93
572.57	390.87
572.74	416.62
572.90	395.55
573.06	421.30
573.22	430.66
573.38	484.49
573.55	451.72
573.71	465.77
573.87	383.85
574.03	442.36
574.20	423.64
574.36	442.36
574.52	379.17
574.68	442.36
574.84	437.68
575.01	468.11
575.17	411.93
575.33	458.74
575.49	386.19
575.65	505.56
575.82	430.66
575.98	456.40
576.14	425.98
576.30	404.91
576.46	404.91
576.62	414.27
576.79	411.93
576.95	425.98
577.11	358.10
577.27	433.00
577.43	407.25
577.59	411.93
577.75	458.74
577.92	482.15
578.08	470.45
578.24	411.93
578.40	318.31
578.56	365.12
578.72	458.74
578.88	472.79
579.04	411.93
579.21	355.76
579.37	433.00
579.53	400.23
579.69	433.00
579.85	428.32
580.01	397.89
580.17	348.74
580.33	451.72
580.49	351.08
580.65	407.25
580.82	428.32
580.98	461.09
581.14	440.02
581.30	404.91
581.46	372.15
581.62	407.25
581.78	351.08
581.94	383.85
582.10	358.10
582.26	397.89
582.42	470.45
582.58	451.72
582.74	397.89
582.90	411.93
583.06	444.70
583.22	472.79
583.38	484.49
583.54	423.64
583.70	484.49
583.86	456.40
584.02	372.15
584.18	397.89
584.34	397.89
584.50	390.87
584.66	425.98
584.82	442.36
584.98	400.23
585.14	383.85
585.30	489.17
585.46	362.78
585.62	344.06
585.78	425.98
585.94	428.32
586.10	440.02
586.26	437.68
586.42	447.04
586.58	346.40
586.74	388.53
586.90	369.80
587.06	360.44
587.22	372.15
587.38	358.10
587.54	404.91
587.70	500.87
587.86	404.91
588.02	435.34
588.18	393.21
588.34	409.59
588.49	407.25
588.65	421.30
588.81	421.30
588.97	414.27
589.13	451.72
589.29	376.83
589.45	491.51
589.61	355.76
589.77	372.15
589.93	400.23
590.08	386.19
590.24	383.85
590.40	433.00
590.56	440.02
590.72	402.57
590.88	362.78
591.04	416.62
591.20	372.15
591.35	428.32
591.51	451.72
591.67	416.62
591.83	381.51
591.99	383.85
592.15	454.06
592.31	430.66
592.46	411.93
592.62	411.93
592.78	423.64
592.94	383.85
593.10	402.57
593.26	400.23
593.41	456.40
593.57	440.02
593.73	381.51
593.89	442.36
594.05	397.89
594.20	379.17
594.36	451.72
594.52	393.21
594.68	493.85
594.84	365.12
594.99	500.87
595.15	374.49
595.31	383.85
595.47	402.57
595.62	374.49
595.78	454.06
595.94	451.72
596.10	451.72
596.25	355.76
596.41	372.15
596.57	442.36
596.73	451.72
596.88	451.72
597.04	383.85
597.20	407.25
597.36	437.68
597.51	465.77
597.67	393.21
597.83	425.98
597.99	486.83
598.14	458.74
598.30	470.45
598.46	425.98
598.61	423.64
598.77	407.25
598.93	348.74
599.09	493.85
599.24	376.83
599.40	418.96
599.56	393.21
599.71	388.53
599.87	454.06
600.03	423.64
600.18	358.10
600.34	430.66
600.50	435.34
600.65	381.51
600.81	418.96
600.97	435.34
601.12	367.46
601.28	437.68
601.44	421.30
601.59	330.02
601.75	397.89
601.91	425.98
602.06	404.91
602.22	451.72
602.37	411.93
602.53	428.32
602.69	433.00
602.84	458.74
603.00	409.59
603.16	386.19
603.31	416.62
603.47	498.53
603.62	379.17
603.78	435.34
603.94	411.93
604.09	395.55
604.25	414.27
604.40	458.74
604.56	379.17
604.71	358.10
604.87	397.89
605.03	355.76
605.18	381.51
605.34	407.25
605.49	463.43
605.65	407.25
605.80	362.78
605.96	414.27
606.12	397.89
606.27	358.10
606.43	482.15
606.58	514.92
606.74	444.70
606.89	435.34
607.05	402.57
607.20	470.45
607.36	468.11
607.51	393.21
607.67	435.34
607.82	465.77
607.98	444.70
608.13	365.12
608.29	365.12
608.44	421.30
608.60	489.17
608.75	456.40
608.91	367.46
609.06	456.40
609.22	423.64
609.37	395.55
609.53	414.27
609.68	428.32
609.84	454.06
609.99	330.02
610.15	383.85
