SpectraSuite Data File
++++++++++++++++++++++++++++++++++++
Date: Fri Oct 25 12:10:08 EDT 2013
User: price-jones
Dark Spectrum Present: No
Reference Spectrum Present: No
Number of Sampled Component Spectra: 1
Spectrometers: USB2+H05261
Integration Time (usec): 100000 (USB2+H05261)
Spectra Averaged: 1 (USB2+H05261)
Boxcar Smoothing: 0 (USB2+H05261)
Correct for Electrical Dark: No (USB2+H05261)
Strobe/Lamp Enabled: No (USB2+H05261)
Correct for Detector Non-linearity: No (USB2+H05261)
Correct for Stray Light: No (USB2+H05261)
Number of Pixels in Processed Spectrum: 2048
>>>>>Begin Processed Spectral Data<<<<<
365.73	308.95
365.92	308.95
366.12	308.95
366.32	299.59
366.52	234.05
366.72	306.61
366.91	283.20
367.11	156.82
367.31	208.31
367.51	198.95
367.70	222.35
367.90	222.35
368.10	236.39
368.30	318.31
368.49	245.76
368.69	231.71
368.89	264.48
369.09	250.44
369.28	259.80
369.48	290.23
369.68	241.08
369.87	299.59
370.07	290.23
370.27	372.15
370.47	308.95
370.66	297.25
370.86	372.15
371.06	397.89
371.25	390.87
371.45	358.10
371.65	381.51
371.84	456.40
372.04	346.40
372.24	315.97
372.44	402.57
372.63	322.99
372.83	397.89
373.03	393.21
373.22	346.40
373.42	367.46
373.62	479.81
373.81	428.32
374.01	477.47
374.21	458.74
374.40	400.23
374.60	479.81
374.79	353.42
374.99	416.62
375.19	400.23
375.38	393.21
375.58	411.93
375.78	395.55
375.97	458.74
376.17	435.34
376.37	470.45
376.56	421.30
376.76	358.10
376.95	411.93
377.15	404.91
377.35	337.04
377.54	442.36
377.74	425.98
377.93	379.17
378.13	454.06
378.33	482.15
378.52	358.10
378.72	447.04
378.91	456.40
379.11	376.83
379.31	430.66
379.50	416.62
379.70	355.76
379.89	388.53
380.09	442.36
380.28	393.21
380.48	414.27
380.68	411.93
380.87	290.23
381.07	423.64
381.26	365.12
381.46	407.25
381.65	381.51
381.85	388.53
382.04	369.80
382.24	447.04
382.43	423.64
382.63	442.36
382.83	425.98
383.02	470.45
383.22	411.93
383.41	404.91
383.61	386.19
383.80	390.87
384.00	388.53
384.19	395.55
384.39	383.85
384.58	365.12
384.78	395.55
384.97	447.04
385.17	360.44
385.36	402.57
385.56	411.93
385.75	409.59
385.95	407.25
386.14	395.55
386.34	376.83
386.53	379.17
386.72	367.46
386.92	472.79
387.11	461.09
387.31	330.02
387.50	383.85
387.70	365.12
387.89	351.08
388.09	411.93
388.28	379.17
388.48	376.83
388.67	409.59
388.86	372.15
389.06	418.96
389.25	397.89
389.45	409.59
389.64	442.36
389.84	477.47
390.03	409.59
390.22	411.93
390.42	444.70
390.61	418.96
390.81	425.98
391.00	358.10
391.19	374.49
391.39	400.23
391.58	311.29
391.78	376.83
391.97	358.10
392.16	402.57
392.36	376.83
392.55	475.13
392.75	416.62
392.94	397.89
393.13	404.91
393.33	346.40
393.52	365.12
393.71	402.57
393.91	379.17
394.10	344.06
394.29	400.23
394.49	414.27
394.68	423.64
394.88	465.77
395.07	404.91
395.26	440.02
395.46	374.49
395.65	458.74
395.84	376.83
396.04	470.45
396.23	355.76
396.42	362.78
396.62	341.72
396.81	400.23
397.00	428.32
397.19	379.17
397.39	402.57
397.58	430.66
397.77	372.15
397.97	374.49
398.16	465.77
398.35	414.27
398.55	402.57
398.74	386.19
398.93	440.02
399.12	362.78
399.32	442.36
399.51	440.02
399.70	433.00
399.90	435.34
400.09	414.27
400.28	470.45
400.47	407.25
400.67	493.85
400.86	374.49
401.05	386.19
401.24	416.62
401.44	418.96
401.63	372.15
401.82	367.46
402.01	411.93
402.21	379.17
402.40	318.31
402.59	433.00
402.78	353.42
402.97	358.10
403.17	416.62
403.36	442.36
403.55	369.80
403.74	404.91
403.93	428.32
404.13	486.83
404.32	409.59
404.51	346.40
404.70	458.74
404.89	341.72
405.09	428.32
405.28	444.70
405.47	374.49
405.66	465.77
405.85	416.62
406.05	482.15
406.24	379.17
406.43	451.72
406.62	386.19
406.81	477.47
407.00	423.64
407.20	451.72
407.39	362.78
407.58	414.27
407.77	404.91
407.96	451.72
408.15	444.70
408.34	465.77
408.54	414.27
408.73	374.49
408.92	454.06
409.11	386.19
409.30	449.38
409.49	388.53
409.68	390.87
409.87	482.15
410.07	388.53
410.26	393.21
410.45	407.25
410.64	454.06
410.83	440.02
411.02	430.66
411.21	428.32
411.40	381.51
411.59	416.62
411.78	355.76
411.98	479.81
412.17	425.98
412.36	507.90
412.55	451.72
412.74	379.17
412.93	418.96
413.12	374.49
413.31	435.34
413.50	320.65
413.69	447.04
413.88	428.32
414.07	402.57
414.26	425.98
414.45	341.72
414.64	437.68
414.83	470.45
415.02	425.98
415.22	531.30
415.41	376.83
415.60	444.70
415.79	397.89
415.98	418.96
416.17	365.12
416.36	463.43
416.55	444.70
416.74	447.04
416.93	449.38
417.12	348.74
417.31	390.87
417.50	440.02
417.69	407.25
417.88	423.64
418.07	416.62
418.26	390.87
418.45	379.17
418.64	433.00
418.83	440.02
419.02	301.93
419.21	365.12
419.39	383.85
419.58	353.42
419.77	287.89
419.96	402.57
420.15	440.02
420.34	400.23
420.53	386.19
420.72	456.40
420.91	433.00
421.10	416.62
421.29	365.12
421.48	447.04
421.67	447.04
421.86	411.93
422.05	374.49
422.24	407.25
422.43	437.68
422.61	428.32
422.80	372.15
422.99	390.87
423.18	383.85
423.37	365.12
423.56	400.23
423.75	428.32
423.94	379.17
424.13	411.93
424.32	362.78
424.50	383.85
424.69	344.06
424.88	404.91
425.07	454.06
425.26	421.30
425.45	372.15
425.64	381.51
425.83	418.96
426.01	433.00
426.20	451.72
426.39	397.89
426.58	376.83
426.77	423.64
426.96	451.72
427.15	428.32
427.33	416.62
427.52	367.46
427.71	397.89
427.90	404.91
428.09	409.59
428.28	365.12
428.46	355.76
428.65	454.06
428.84	472.79
429.03	416.62
429.22	393.21
429.40	421.30
429.59	358.10
429.78	411.93
429.97	388.53
430.16	456.40
430.34	383.85
430.53	416.62
430.72	341.72
430.91	456.40
431.10	411.93
431.28	433.00
431.47	414.27
431.66	402.57
431.85	337.04
432.03	418.96
432.22	416.62
432.41	430.66
432.60	475.13
432.79	421.30
432.97	400.23
433.16	369.80
433.35	395.55
433.54	404.91
433.72	414.27
433.91	430.66
434.10	416.62
434.28	428.32
434.47	332.36
434.66	374.49
434.85	430.66
435.03	353.42
435.22	503.22
435.41	472.79
435.59	430.66
435.78	353.42
435.97	393.21
436.16	425.98
436.34	414.27
436.53	482.15
436.72	458.74
436.90	409.59
437.09	379.17
437.28	341.72
437.46	358.10
437.65	454.06
437.84	386.19
438.02	369.80
438.21	376.83
438.40	414.27
438.58	369.80
438.77	409.59
438.96	421.30
439.14	428.32
439.33	374.49
439.52	411.93
439.70	421.30
439.89	395.55
440.08	390.87
440.26	386.19
440.45	411.93
440.63	393.21
440.82	449.38
441.01	374.49
441.19	386.19
441.38	404.91
441.57	358.10
441.75	393.21
441.94	437.68
442.12	510.24
442.31	404.91
442.50	402.57
442.68	397.89
442.87	358.10
443.05	395.55
443.24	411.93
443.43	451.72
443.61	416.62
443.80	341.72
443.98	404.91
444.17	330.02
444.35	451.72
444.54	423.64
444.73	423.64
444.91	482.15
445.10	379.17
445.28	393.21
445.47	433.00
445.65	355.76
445.84	423.64
446.02	433.00
446.21	433.00
446.39	374.49
446.58	428.32
446.77	482.15
446.95	477.47
447.14	449.38
447.32	475.13
447.51	461.09
447.69	414.27
447.88	393.21
448.06	475.13
448.25	440.02
448.43	386.19
448.62	372.15
448.80	528.96
448.99	433.00
449.17	423.64
449.36	388.53
449.54	444.70
449.73	409.59
449.91	449.38
450.10	407.25
450.28	475.13
450.46	468.11
450.65	402.57
450.83	421.30
451.02	404.91
451.20	400.23
451.39	379.17
451.57	379.17
451.76	393.21
451.94	409.59
452.13	411.93
452.31	437.68
452.49	416.62
452.68	372.15
452.86	400.23
453.05	503.22
453.23	383.85
453.42	362.78
453.60	440.02
453.78	379.17
453.97	397.89
454.15	372.15
454.34	482.15
454.52	348.74
454.70	418.96
454.89	482.15
455.07	454.06
455.26	437.68
455.44	472.79
455.62	397.89
455.81	334.70
455.99	458.74
456.17	404.91
456.36	379.17
456.54	393.21
456.73	404.91
456.91	409.59
457.09	376.83
457.28	344.06
457.46	404.91
457.64	440.02
457.83	472.79
458.01	402.57
458.19	482.15
458.38	435.34
458.56	390.87
458.74	442.36
458.93	402.57
459.11	409.59
459.29	390.87
459.48	475.13
459.66	418.96
459.84	447.04
460.03	444.70
460.21	411.93
460.39	447.04
460.57	407.25
460.76	449.38
460.94	390.87
461.12	435.34
461.31	437.68
461.49	433.00
461.67	442.36
461.85	416.62
462.04	428.32
462.22	772.38
462.40	397.89
462.59	461.09
462.77	428.32
462.95	454.06
463.13	418.96
463.32	463.43
463.50	435.34
463.68	390.87
463.86	397.89
464.05	409.59
464.23	407.25
464.41	437.68
464.59	376.83
464.78	360.44
464.96	339.38
465.14	414.27
465.32	358.10
465.50	425.98
465.69	414.27
465.87	418.96
466.05	411.93
466.23	395.55
466.41	404.91
466.60	414.27
466.78	428.32
466.96	451.72
467.14	463.43
467.32	533.64
467.51	416.62
467.69	409.59
467.87	500.87
468.05	461.09
468.23	411.93
468.41	409.59
468.60	397.89
468.78	411.93
468.96	461.09
469.14	388.53
469.32	402.57
469.50	351.08
469.69	325.33
469.87	454.06
470.05	369.80
470.23	435.34
470.41	409.59
470.59	411.93
470.77	360.44
470.95	374.49
471.14	430.66
471.32	440.02
471.50	386.19
471.68	421.30
471.86	465.77
472.04	454.06
472.22	379.17
472.40	381.51
472.58	479.81
472.77	351.08
472.95	383.85
473.13	526.62
473.31	379.17
473.49	376.83
473.67	463.43
473.85	447.04
474.03	493.85
474.21	411.93
474.39	390.87
474.57	458.74
474.75	379.17
474.93	367.46
475.12	395.55
475.30	344.06
475.48	369.80
475.66	416.62
475.84	458.74
476.02	402.57
476.20	376.83
476.38	458.74
476.56	456.40
476.74	353.42
476.92	402.57
477.10	421.30
477.28	447.04
477.46	440.02
477.64	507.90
477.82	374.49
478.00	376.83
478.18	514.92
478.36	397.89
478.54	407.25
478.72	337.04
478.90	381.51
479.08	407.25
479.26	449.38
479.44	351.08
479.62	374.49
479.80	409.59
479.98	376.83
480.16	353.42
480.34	444.70
480.52	367.46
480.70	430.66
480.88	353.42
481.06	414.27
481.24	358.10
481.41	372.15
481.59	461.09
481.77	423.64
481.95	416.62
482.13	423.64
482.31	442.36
482.49	369.80
482.67	376.83
482.85	402.57
483.03	353.42
483.21	435.34
483.39	447.04
483.57	425.98
483.74	507.90
483.92	346.40
484.10	365.12
484.28	407.25
484.46	475.13
484.64	355.76
484.82	411.93
485.00	433.00
485.18	416.62
485.35	388.53
485.53	409.59
485.71	414.27
485.89	337.04
486.07	428.32
486.25	435.34
486.43	393.21
486.61	458.74
486.78	454.06
486.96	372.15
487.14	353.42
487.32	402.57
487.50	386.19
487.68	440.02
487.85	393.21
488.03	411.93
488.21	496.19
488.39	360.44
488.57	479.81
488.75	433.00
488.92	559.39
489.10	475.13
489.28	442.36
489.46	416.62
489.64	435.34
489.81	360.44
489.99	402.57
490.17	433.00
490.35	475.13
490.53	447.04
490.70	404.91
490.88	435.34
491.06	362.78
491.24	468.11
491.41	482.15
491.59	411.93
491.77	425.98
491.95	390.87
492.13	390.87
492.30	435.34
492.48	411.93
492.66	348.74
492.84	425.98
493.01	465.77
493.19	411.93
493.37	339.38
493.54	318.31
493.72	435.34
493.90	372.15
494.08	365.12
494.25	463.43
494.43	442.36
494.61	369.80
494.79	484.49
494.96	358.10
495.14	465.77
495.32	393.21
495.49	451.72
495.67	465.77
495.85	351.08
496.02	397.89
496.20	351.08
496.38	447.04
496.55	390.87
496.73	437.68
496.91	386.19
497.09	379.17
497.26	423.64
497.44	440.02
497.62	433.00
497.79	397.89
497.97	381.51
498.14	442.36
498.32	421.30
498.50	418.96
498.67	397.89
498.85	379.17
499.03	332.36
499.20	320.65
499.38	365.12
499.56	433.00
499.73	416.62
499.91	526.62
500.08	379.17
500.26	397.89
500.44	458.74
500.61	500.87
500.79	397.89
500.97	416.62
501.14	500.87
501.32	400.23
501.49	475.13
501.67	425.98
501.84	379.17
502.02	423.64
502.20	472.79
502.37	351.08
502.55	372.15
502.72	456.40
502.90	484.49
503.07	421.30
503.25	400.23
503.43	435.34
503.60	383.85
503.78	428.32
503.95	390.87
504.13	425.98
504.30	407.25
504.48	402.57
504.65	390.87
504.83	414.27
505.01	388.53
505.18	470.45
505.36	407.25
505.53	369.80
505.71	402.57
505.88	411.93
506.06	423.64
506.23	444.70
506.41	498.53
506.58	369.80
506.76	416.62
506.93	341.72
507.11	411.93
507.28	416.62
507.46	402.57
507.63	442.36
507.81	397.89
507.98	425.98
508.16	346.40
508.33	374.49
508.50	437.68
508.68	407.25
508.85	423.64
509.03	407.25
509.20	418.96
509.38	428.32
509.55	400.23
509.73	355.76
509.90	411.93
510.08	397.89
510.25	507.90
510.42	414.27
510.60	543.00
510.77	400.23
510.95	444.70
511.12	402.57
511.30	395.55
511.47	416.62
511.64	374.49
511.82	411.93
511.99	451.72
512.17	440.02
512.34	404.91
512.51	433.00
512.69	404.91
512.86	496.19
513.04	425.98
513.21	376.83
513.38	388.53
513.56	358.10
513.73	454.06
513.90	383.85
514.08	386.19
514.25	421.30
514.43	400.23
514.60	407.25
514.77	418.96
514.95	381.51
515.12	409.59
515.29	388.53
515.47	409.59
515.64	468.11
515.81	479.81
515.99	409.59
516.16	379.17
516.33	491.51
516.51	393.21
516.68	449.38
516.85	393.21
517.03	456.40
517.20	409.59
517.37	491.51
517.54	425.98
517.72	486.83
517.89	465.77
518.06	472.79
518.24	440.02
518.41	440.02
518.58	353.42
518.75	404.91
518.93	461.09
519.10	416.62
519.27	409.59
519.45	421.30
519.62	381.51
519.79	386.19
519.96	440.02
520.14	383.85
520.31	442.36
520.48	454.06
520.65	369.80
520.83	418.96
521.00	376.83
521.17	423.64
521.34	355.76
521.52	423.64
521.69	341.72
521.86	379.17
522.03	416.62
522.20	409.59
522.38	355.76
522.55	458.74
522.72	372.15
522.89	479.81
523.07	470.45
523.24	444.70
523.41	397.89
523.58	388.53
523.75	421.30
523.92	388.53
524.10	423.64
524.27	381.51
524.44	458.74
524.61	458.74
524.78	395.55
524.96	339.38
525.13	397.89
525.30	461.09
525.47	447.04
525.64	463.43
525.81	409.59
525.98	404.91
526.16	407.25
526.33	444.70
526.50	344.06
526.67	433.00
526.84	369.80
527.01	390.87
527.18	374.49
527.36	479.81
527.53	416.62
527.70	451.72
527.87	374.49
528.04	414.27
528.21	369.80
528.38	402.57
528.55	425.98
528.72	472.79
528.89	512.58
529.07	337.04
529.24	404.91
529.41	435.34
529.58	425.98
529.75	505.56
529.92	409.59
530.09	379.17
530.26	458.74
530.43	397.89
530.60	313.63
530.77	425.98
530.94	442.36
531.11	418.96
531.28	395.55
531.46	423.64
531.63	435.34
531.80	409.59
531.97	433.00
532.14	400.23
532.31	381.51
532.48	461.09
532.65	491.51
532.82	400.23
532.99	447.04
533.16	355.76
533.33	430.66
533.50	414.27
533.67	454.06
533.84	404.91
534.01	423.64
534.18	409.59
534.35	435.34
534.52	421.30
534.69	486.83
534.86	386.19
535.03	351.08
535.20	351.08
535.37	454.06
535.54	402.57
535.71	423.64
535.88	486.83
536.05	440.02
536.22	386.19
536.38	416.62
536.55	437.68
536.72	444.70
536.89	425.98
537.06	437.68
537.23	430.66
537.40	346.40
537.57	472.79
537.74	468.11
537.91	435.34
538.08	344.06
538.25	425.98
538.42	435.34
538.59	416.62
538.75	454.06
538.92	369.80
539.09	472.79
539.26	386.19
539.43	493.85
539.60	428.32
539.77	449.38
539.94	463.43
540.11	458.74
540.28	404.91
540.44	491.51
540.61	430.66
540.78	409.59
540.95	433.00
541.12	435.34
541.29	425.98
541.46	362.78
541.62	458.74
541.79	374.49
541.96	449.38
542.13	393.21
542.30	421.30
542.47	458.74
542.63	414.27
542.80	465.77
542.97	411.93
543.14	351.08
543.31	367.46
543.48	454.06
543.64	454.06
543.81	414.27
543.98	416.62
544.15	367.46
544.32	447.04
544.48	421.30
544.65	402.57
544.82	451.72
544.99	435.34
545.16	442.36
545.32	327.68
545.49	416.62
545.66	397.89
545.83	428.32
546.00	334.70
546.16	421.30
546.33	353.42
546.50	470.45
546.67	418.96
546.83	449.38
547.00	465.77
547.17	376.83
547.34	379.17
547.50	374.49
547.67	482.15
547.84	360.44
548.00	435.34
548.17	458.74
548.34	451.72
548.51	447.04
548.67	393.21
548.84	451.72
549.01	447.04
549.18	376.83
549.34	421.30
549.51	355.76
549.68	313.63
549.84	442.36
550.01	449.38
550.18	482.15
550.34	463.43
550.51	433.00
550.68	421.30
550.84	374.49
551.01	428.32
551.18	407.25
551.34	484.49
551.51	395.55
551.68	456.40
551.84	482.15
552.01	479.81
552.18	386.19
552.34	411.93
552.51	423.64
552.68	468.11
552.84	486.83
553.01	362.78
553.18	435.34
553.34	360.44
553.51	372.15
553.67	472.79
553.84	437.68
554.01	425.98
554.17	390.87
554.34	374.49
554.51	461.09
554.67	479.81
554.84	390.87
555.00	430.66
555.17	369.80
555.33	463.43
555.50	423.64
555.67	433.00
555.83	470.45
556.00	409.59
556.16	552.37
556.33	404.91
556.50	379.17
556.66	341.72
556.83	341.72
556.99	395.55
557.16	393.21
557.32	421.30
557.49	395.55
557.65	381.51
557.82	435.34
557.98	414.27
558.15	423.64
558.32	433.00
558.48	332.36
558.65	374.49
558.81	381.51
558.98	461.09
559.14	409.59
559.31	421.30
559.47	440.02
559.64	379.17
559.80	440.02
559.97	425.98
560.13	379.17
560.30	418.96
560.46	442.36
560.63	477.47
560.79	486.83
560.96	461.09
561.12	400.23
561.29	379.17
561.45	437.68
561.61	379.17
561.78	454.06
561.94	390.87
562.11	388.53
562.27	423.64
562.44	393.21
562.60	416.62
562.77	449.38
562.93	484.49
563.10	416.62
563.26	386.19
563.42	451.72
563.59	421.30
563.75	430.66
563.92	442.36
564.08	409.59
564.24	451.72
564.41	458.74
564.57	430.66
564.74	365.12
564.90	425.98
565.07	458.74
565.23	447.04
565.39	463.43
565.56	449.38
565.72	437.68
565.88	425.98
566.05	390.87
566.21	425.98
566.38	477.47
566.54	393.21
566.70	365.12
566.87	428.32
567.03	339.38
567.19	421.30
567.36	386.19
567.52	397.89
567.68	456.40
567.85	475.13
568.01	433.00
568.17	421.30
568.34	463.43
568.50	400.23
568.66	388.53
568.83	454.06
568.99	374.49
569.15	388.53
569.32	444.70
569.48	353.42
569.64	440.02
569.81	386.19
569.97	472.79
570.13	423.64
570.30	447.04
570.46	458.74
570.62	355.76
570.78	456.40
570.95	447.04
571.11	447.04
571.27	430.66
571.43	374.49
571.60	458.74
571.76	461.09
571.92	379.17
572.09	390.87
572.25	496.19
572.41	395.55
572.57	414.27
572.74	449.38
572.90	444.70
573.06	428.32
573.22	327.68
573.38	383.85
573.55	402.57
573.71	414.27
573.87	418.96
574.03	348.74
574.20	409.59
574.36	407.25
574.52	433.00
574.68	451.72
574.84	444.70
575.01	423.64
575.17	397.89
575.33	409.59
575.49	355.76
575.65	442.36
575.82	437.68
575.98	409.59
576.14	444.70
576.30	353.42
576.46	395.55
576.62	444.70
576.79	411.93
576.95	440.02
577.11	433.00
577.27	414.27
577.43	477.47
577.59	433.00
577.75	414.27
577.92	423.64
578.08	379.17
578.24	421.30
578.40	468.11
578.56	414.27
578.72	393.21
578.88	393.21
579.04	435.34
579.21	440.02
579.37	421.30
579.53	465.77
579.69	376.83
579.85	409.59
580.01	442.36
580.17	409.59
580.33	449.38
580.49	423.64
580.65	430.66
580.82	437.68
580.98	376.83
581.14	379.17
581.30	428.32
581.46	423.64
581.62	428.32
581.78	423.64
581.94	449.38
582.10	447.04
582.26	367.46
582.42	393.21
582.58	414.27
582.74	374.49
582.90	395.55
583.06	411.93
583.22	418.96
583.38	372.15
583.54	433.00
583.70	433.00
583.86	463.43
584.02	358.10
584.18	383.85
584.34	358.10
584.50	365.12
584.66	388.53
584.82	435.34
584.98	418.96
585.14	404.91
585.30	435.34
585.46	433.00
585.62	444.70
585.78	407.25
585.94	400.23
586.10	435.34
586.26	355.76
586.42	404.91
586.58	444.70
586.74	454.06
586.90	425.98
587.06	482.15
587.22	397.89
587.38	381.51
587.54	430.66
587.70	482.15
587.86	400.23
588.02	395.55
588.18	390.87
588.34	475.13
588.49	428.32
588.65	404.91
588.81	416.62
588.97	355.76
589.13	393.21
589.29	337.04
589.45	463.43
589.61	451.72
589.77	428.32
589.93	435.34
590.08	395.55
590.24	428.32
590.40	404.91
590.56	381.51
590.72	411.93
590.88	402.57
591.04	463.43
591.20	451.72
591.35	428.32
591.51	437.68
591.67	390.87
591.83	437.68
591.99	447.04
592.15	421.30
592.31	409.59
592.46	447.04
592.62	482.15
592.78	428.32
592.94	425.98
593.10	418.96
593.26	397.89
593.41	395.55
593.57	404.91
593.73	390.87
593.89	486.83
594.05	416.62
594.20	440.02
594.36	397.89
594.52	425.98
594.68	416.62
594.84	404.91
594.99	454.06
595.15	454.06
595.31	449.38
595.47	491.51
595.62	421.30
595.78	449.38
595.94	428.32
596.10	416.62
596.25	442.36
596.41	400.23
596.57	386.19
596.73	418.96
596.88	409.59
597.04	421.30
597.20	454.06
597.36	395.55
597.51	414.27
597.67	421.30
597.83	414.27
597.99	465.77
598.14	327.68
598.30	500.87
598.46	440.02
598.61	425.98
598.77	423.64
598.93	407.25
599.09	435.34
599.24	428.32
599.40	425.98
599.56	400.23
599.71	444.70
599.87	454.06
600.03	411.93
600.18	435.34
600.34	456.40
600.50	454.06
600.65	367.46
600.81	400.23
600.97	433.00
601.12	400.23
601.28	407.25
601.44	362.78
601.59	433.00
601.75	456.40
601.91	414.27
602.06	430.66
602.22	528.96
602.37	442.36
602.53	510.24
602.69	411.93
602.84	369.80
603.00	397.89
603.16	416.62
603.31	388.53
603.47	454.06
603.62	400.23
603.78	365.12
603.94	402.57
604.09	341.72
604.25	461.09
604.40	437.68
604.56	416.62
604.71	381.51
604.87	433.00
605.03	407.25
605.18	435.34
605.34	489.17
605.49	393.21
605.65	358.10
605.80	388.53
605.96	407.25
606.12	442.36
606.27	451.72
606.43	393.21
606.58	444.70
606.74	447.04
606.89	404.91
607.05	404.91
607.20	395.55
607.36	433.00
607.51	374.49
607.67	379.17
607.82	407.25
607.98	463.43
608.13	456.40
608.29	395.55
608.44	416.62
608.60	447.04
608.75	404.91
608.91	449.38
609.06	400.23
609.22	358.10
609.37	379.17
609.53	437.68
609.68	416.62
609.84	444.70
609.99	409.59
610.15	454.06
