SpectraSuite Data File
++++++++++++++++++++++++++++++++++++
Date: Fri Oct 25 12:10:21 EDT 2013
User: price-jones
Dark Spectrum Present: No
Reference Spectrum Present: No
Number of Sampled Component Spectra: 1
Spectrometers: USB2+H05261
Integration Time (usec): 100000 (USB2+H05261)
Spectra Averaged: 1 (USB2+H05261)
Boxcar Smoothing: 0 (USB2+H05261)
Correct for Electrical Dark: No (USB2+H05261)
Strobe/Lamp Enabled: No (USB2+H05261)
Correct for Detector Non-linearity: No (USB2+H05261)
Correct for Stray Light: No (USB2+H05261)
Number of Pixels in Processed Spectrum: 2048
>>>>>Begin Processed Spectral Data<<<<<
365.73	442.36
365.92	442.36
366.12	442.36
366.32	308.95
366.52	266.82
366.72	222.35
366.91	234.05
367.11	212.99
367.31	201.29
367.51	238.73
367.70	238.73
367.90	198.95
368.10	257.46
368.30	189.58
368.49	236.39
368.69	311.29
368.89	327.68
369.09	290.23
369.28	215.33
369.48	238.73
369.68	271.50
369.87	369.80
370.07	276.18
370.27	383.85
370.47	311.29
370.66	285.55
370.86	330.02
371.06	402.57
371.25	367.46
371.45	383.85
371.65	376.83
371.84	383.85
372.04	395.55
372.24	381.51
372.44	374.49
372.63	402.57
372.83	414.27
373.03	447.04
373.22	461.09
373.42	400.23
373.62	395.55
373.81	313.63
374.01	440.02
374.21	531.30
374.40	435.34
374.60	449.38
374.79	395.55
374.99	437.68
375.19	447.04
375.38	381.51
375.58	388.53
375.78	402.57
375.97	344.06
376.17	496.19
376.37	407.25
376.56	390.87
376.76	362.78
376.95	337.04
377.15	416.62
377.35	430.66
377.54	444.70
377.74	337.04
377.93	400.23
378.13	320.65
378.33	451.72
378.52	430.66
378.72	365.12
378.91	381.51
379.11	470.45
379.31	440.02
379.50	395.55
379.70	400.23
379.89	360.44
380.09	355.76
380.28	351.08
380.48	386.19
380.68	348.74
380.87	433.00
381.07	395.55
381.26	440.02
381.46	376.83
381.65	416.62
381.85	374.49
382.04	397.89
382.24	421.30
382.43	423.64
382.63	348.74
382.83	395.55
383.02	461.09
383.22	465.77
383.41	454.06
383.61	376.83
383.80	421.30
384.00	407.25
384.19	313.63
384.39	374.49
384.58	376.83
384.78	433.00
384.97	414.27
385.17	367.46
385.36	423.64
385.56	369.80
385.75	332.36
385.95	423.64
386.14	383.85
386.34	430.66
386.53	404.91
386.72	386.19
386.92	411.93
387.11	435.34
387.31	369.80
387.50	397.89
387.70	383.85
387.89	409.59
388.09	388.53
388.28	423.64
388.48	414.27
388.67	397.89
388.86	418.96
389.06	414.27
389.25	411.93
389.45	372.15
389.64	404.91
389.84	449.38
390.03	425.98
390.22	395.55
390.42	463.43
390.61	440.02
390.81	414.27
391.00	430.66
391.19	430.66
391.39	379.17
391.58	346.40
391.78	411.93
391.97	423.64
392.16	372.15
392.36	418.96
392.55	449.38
392.75	440.02
392.94	395.55
393.13	449.38
393.33	395.55
393.52	472.79
393.71	484.49
393.91	468.11
394.10	397.89
394.29	360.44
394.49	411.93
394.68	411.93
394.88	435.34
395.07	440.02
395.26	435.34
395.46	418.96
395.65	404.91
395.84	374.49
396.04	451.72
396.23	444.70
396.42	353.42
396.62	409.59
396.81	337.04
397.00	381.51
397.19	465.77
397.39	449.38
397.58	433.00
397.77	447.04
397.97	477.47
398.16	407.25
398.35	465.77
398.55	421.30
398.74	416.62
398.93	397.89
399.12	397.89
399.32	348.74
399.51	456.40
399.70	409.59
399.90	418.96
400.09	465.77
400.28	423.64
400.47	386.19
400.67	409.59
400.86	430.66
401.05	407.25
401.24	440.02
401.44	393.21
401.63	379.17
401.82	346.40
402.01	409.59
402.21	390.87
402.40	447.04
402.59	332.36
402.78	358.10
402.97	299.59
403.17	285.55
403.36	351.08
403.55	482.15
403.74	360.44
403.93	425.98
404.13	397.89
404.32	339.38
404.51	451.72
404.70	433.00
404.89	421.30
405.09	428.32
405.28	409.59
405.47	365.12
405.66	456.40
405.85	454.06
406.05	358.10
406.24	376.83
406.43	409.59
406.62	358.10
406.81	386.19
407.00	409.59
407.20	339.38
407.39	365.12
407.58	463.43
407.77	381.51
407.96	437.68
408.15	433.00
408.34	358.10
408.54	365.12
408.73	461.09
408.92	421.30
409.11	355.76
409.30	442.36
409.49	472.79
409.68	383.85
409.87	372.15
410.07	383.85
410.26	381.51
410.45	428.32
410.64	437.68
410.83	423.64
411.02	402.57
411.21	418.96
411.40	440.02
411.59	395.55
411.78	428.32
411.98	414.27
412.17	407.25
412.36	376.83
412.55	381.51
412.74	369.80
412.93	416.62
413.12	421.30
413.31	395.55
413.50	411.93
413.69	428.32
413.88	402.57
414.07	437.68
414.26	440.02
414.45	430.66
414.64	409.59
414.83	477.47
415.02	423.64
415.22	355.76
415.41	472.79
415.60	376.83
415.79	397.89
415.98	435.34
416.17	421.30
416.36	421.30
416.55	376.83
416.74	383.85
416.93	404.91
417.12	360.44
417.31	423.64
417.50	381.51
417.69	437.68
417.88	428.32
418.07	468.11
418.26	376.83
418.45	367.46
418.64	484.49
418.83	472.79
419.02	477.47
419.21	379.17
419.39	435.34
419.58	456.40
419.77	393.21
419.96	421.30
420.15	428.32
420.34	433.00
420.53	435.34
420.72	386.19
420.91	421.30
421.10	388.53
421.29	423.64
421.48	421.30
421.67	447.04
421.86	416.62
422.05	400.23
422.24	489.17
422.43	355.76
422.61	423.64
422.80	395.55
422.99	414.27
423.18	367.46
423.37	423.64
423.56	428.32
423.75	369.80
423.94	355.76
424.13	376.83
424.32	428.32
424.50	409.59
424.69	395.55
424.88	479.81
425.07	365.12
425.26	433.00
425.45	418.96
425.64	376.83
425.83	402.57
426.01	435.34
426.20	402.57
426.39	449.38
426.58	458.74
426.77	400.23
426.96	411.93
427.15	404.91
427.33	437.68
427.52	456.40
427.71	372.15
427.90	402.57
428.09	416.62
428.28	400.23
428.46	395.55
428.65	465.77
428.84	369.80
429.03	351.08
429.22	416.62
429.40	383.85
429.59	360.44
429.78	411.93
429.97	425.98
430.16	318.31
430.34	421.30
430.53	428.32
430.72	369.80
430.91	456.40
431.10	306.61
431.28	381.51
431.47	395.55
431.66	397.89
431.85	388.53
432.03	407.25
432.22	475.13
432.41	390.87
432.60	477.47
432.79	421.30
432.97	393.21
433.16	362.78
433.35	423.64
433.54	423.64
433.72	369.80
433.91	393.21
434.10	425.98
434.28	444.70
434.47	358.10
434.66	430.66
434.85	341.72
435.03	428.32
435.22	390.87
435.41	388.53
435.59	393.21
435.78	423.64
435.97	430.66
436.16	418.96
436.34	362.78
436.53	486.83
436.72	479.81
436.90	416.62
437.09	442.36
437.28	440.02
437.46	458.74
437.65	444.70
437.84	491.51
438.02	463.43
438.21	461.09
438.40	465.77
438.58	404.91
438.77	463.43
438.96	447.04
439.14	416.62
439.33	379.17
439.52	456.40
439.70	479.81
439.89	383.85
440.08	374.49
440.26	416.62
440.45	383.85
440.63	393.21
440.82	402.57
441.01	381.51
441.19	390.87
441.38	355.76
441.57	353.42
441.75	435.34
441.94	411.93
442.12	411.93
442.31	388.53
442.50	390.87
442.68	430.66
442.87	411.93
443.05	327.68
443.24	390.87
443.43	484.49
443.61	428.32
443.80	407.25
443.98	418.96
444.17	418.96
444.35	498.53
444.54	458.74
444.73	400.23
444.91	416.62
445.10	411.93
445.28	425.98
445.47	409.59
445.65	400.23
445.84	337.04
446.02	456.40
446.21	360.44
446.39	458.74
446.58	395.55
446.77	433.00
446.95	423.64
447.14	451.72
447.32	372.15
447.51	411.93
447.69	367.46
447.88	454.06
448.06	372.15
448.25	461.09
448.43	435.34
448.62	491.51
448.80	486.83
448.99	386.19
449.17	440.02
449.36	407.25
449.54	411.93
449.73	379.17
449.91	353.42
450.10	367.46
450.28	510.24
450.46	409.59
450.65	425.98
450.83	348.74
451.02	458.74
451.20	407.25
451.39	383.85
451.57	440.02
451.76	379.17
451.94	421.30
452.13	337.04
452.31	468.11
452.49	423.64
452.68	358.10
452.86	444.70
453.05	418.96
453.23	449.38
453.42	491.51
453.60	416.62
453.78	409.59
453.97	393.21
454.15	362.78
454.34	437.68
454.52	381.51
454.70	404.91
454.89	411.93
455.07	322.99
455.26	369.80
455.44	463.43
455.62	449.38
455.81	437.68
455.99	425.98
456.17	428.32
456.36	388.53
456.54	407.25
456.73	463.43
456.91	421.30
457.09	465.77
457.28	491.51
457.46	397.89
457.64	435.34
457.83	440.02
458.01	379.17
458.19	348.74
458.38	402.57
458.56	379.17
458.74	383.85
458.93	430.66
459.11	418.96
459.29	442.36
459.48	461.09
459.66	458.74
459.84	461.09
460.03	484.49
460.21	409.59
460.39	463.43
460.57	430.66
460.76	449.38
460.94	456.40
461.12	411.93
461.31	470.45
461.49	418.96
461.67	470.45
461.85	519.60
462.04	386.19
462.22	765.36
462.40	418.96
462.59	374.49
462.77	486.83
462.95	421.30
463.13	437.68
463.32	440.02
463.50	409.59
463.68	411.93
463.86	404.91
464.05	386.19
464.23	463.43
464.41	433.00
464.59	383.85
464.78	421.30
464.96	365.12
465.14	465.77
465.32	409.59
465.50	388.53
465.69	414.27
465.87	397.89
466.05	425.98
466.23	421.30
466.41	383.85
466.60	411.93
466.78	395.55
466.96	454.06
467.14	449.38
467.32	409.59
467.51	381.51
467.69	461.09
467.87	451.72
468.05	444.70
468.23	428.32
468.41	393.21
468.60	472.79
468.78	383.85
468.96	451.72
469.14	397.89
469.32	388.53
469.50	404.91
469.69	418.96
469.87	418.96
470.05	418.96
470.23	400.23
470.41	416.62
470.59	444.70
470.77	390.87
470.95	365.12
471.14	449.38
471.32	365.12
471.50	477.47
471.68	423.64
471.86	430.66
472.04	435.34
472.22	362.78
472.40	330.02
472.58	451.72
472.77	407.25
472.95	421.30
473.13	484.49
473.31	437.68
473.49	402.57
473.67	521.94
473.85	440.02
474.03	430.66
474.21	433.00
474.39	386.19
474.57	428.32
474.75	416.62
474.93	407.25
475.12	454.06
475.30	381.51
475.48	402.57
475.66	418.96
475.84	404.91
476.02	388.53
476.20	451.72
476.38	397.89
476.56	414.27
476.74	433.00
476.92	421.30
477.10	367.46
477.28	404.91
477.46	409.59
477.64	379.17
477.82	320.65
478.00	358.10
478.18	414.27
478.36	456.40
478.54	447.04
478.72	409.59
478.90	463.43
479.08	430.66
479.26	449.38
479.44	395.55
479.62	418.96
479.80	479.81
479.98	433.00
480.16	409.59
480.34	411.93
480.52	355.76
480.70	339.38
480.88	393.21
481.06	344.06
481.24	390.87
481.41	348.74
481.59	376.83
481.77	451.72
481.95	376.83
482.13	411.93
482.31	425.98
482.49	365.12
482.67	440.02
482.85	458.74
483.03	456.40
483.21	435.34
483.39	435.34
483.57	376.83
483.74	449.38
483.92	407.25
484.10	390.87
484.28	433.00
484.46	468.11
484.64	475.13
484.82	430.66
485.00	425.98
485.18	447.04
485.35	465.77
485.53	454.06
485.71	369.80
485.89	414.27
486.07	456.40
486.25	416.62
486.43	365.12
486.61	482.15
486.78	407.25
486.96	418.96
487.14	409.59
487.32	390.87
487.50	451.72
487.68	430.66
487.85	428.32
488.03	418.96
488.21	435.34
488.39	362.78
488.57	381.51
488.75	428.32
488.92	472.79
489.10	381.51
489.28	444.70
489.46	421.30
489.64	468.11
489.81	369.80
489.99	435.34
490.17	395.55
490.35	470.45
490.53	484.49
490.70	362.78
490.88	447.04
491.06	379.17
491.24	456.40
491.41	463.43
491.59	458.74
491.77	430.66
491.95	411.93
492.13	423.64
492.30	414.27
492.48	390.87
492.66	433.00
492.84	484.49
493.01	447.04
493.19	388.53
493.37	458.74
493.54	489.17
493.72	472.79
493.90	362.78
494.08	348.74
494.25	397.89
494.43	440.02
494.61	458.74
494.79	435.34
494.96	411.93
495.14	461.09
495.32	437.68
495.49	435.34
495.67	372.15
495.85	521.94
496.02	437.68
496.20	454.06
496.38	442.36
496.55	393.21
496.73	355.76
496.91	421.30
497.09	430.66
497.26	381.51
497.44	362.78
497.62	418.96
497.79	355.76
497.97	425.98
498.14	435.34
498.32	456.40
498.50	468.11
498.67	360.44
498.85	444.70
499.03	360.44
499.20	470.45
499.38	414.27
499.56	442.36
499.73	491.51
499.91	454.06
500.08	421.30
500.26	491.51
500.44	421.30
500.61	475.13
500.79	421.30
500.97	414.27
501.14	468.11
501.32	449.38
501.49	470.45
501.67	433.00
501.84	454.06
502.02	416.62
502.20	402.57
502.37	362.78
502.55	374.49
502.72	402.57
502.90	435.34
503.07	334.70
503.25	393.21
503.43	395.55
503.60	418.96
503.78	393.21
503.95	465.77
504.13	414.27
504.30	437.68
504.48	414.27
504.65	486.83
504.83	444.70
505.01	372.15
505.18	409.59
505.36	407.25
505.53	472.79
505.71	442.36
505.88	521.94
506.06	372.15
506.23	425.98
506.41	433.00
506.58	449.38
506.76	444.70
506.93	479.81
507.11	379.17
507.28	386.19
507.46	447.04
507.63	451.72
507.81	423.64
507.98	414.27
508.16	440.02
508.33	449.38
508.50	444.70
508.68	479.81
508.85	472.79
509.03	353.42
509.20	386.19
509.38	376.83
509.55	430.66
509.73	416.62
509.90	465.77
510.08	435.34
510.25	451.72
510.42	383.85
510.60	409.59
510.77	433.00
510.95	463.43
511.12	435.34
511.30	470.45
511.47	440.02
511.64	447.04
511.82	393.21
511.99	400.23
512.17	407.25
512.34	367.46
512.51	355.76
512.69	416.62
512.86	414.27
513.04	402.57
513.21	407.25
513.38	388.53
513.56	423.64
513.73	351.08
513.90	440.02
514.08	341.72
514.25	346.40
514.43	440.02
514.60	435.34
514.77	411.93
514.95	355.76
515.12	400.23
515.29	479.81
515.47	449.38
515.64	393.21
515.81	463.43
515.99	428.32
516.16	381.51
516.33	454.06
516.51	482.15
516.68	463.43
516.85	444.70
517.03	372.15
517.20	482.15
517.37	400.23
517.54	390.87
517.72	411.93
517.89	376.83
518.06	402.57
518.24	468.11
518.41	465.77
518.58	435.34
518.75	465.77
518.93	425.98
519.10	451.72
519.27	400.23
519.45	388.53
519.62	423.64
519.79	416.62
519.96	367.46
520.14	388.53
520.31	477.47
520.48	379.17
520.65	423.64
520.83	440.02
521.00	395.55
521.17	465.77
521.34	353.42
521.52	447.04
521.69	425.98
521.86	372.15
522.03	430.66
522.20	456.40
522.38	393.21
522.55	348.74
522.72	458.74
522.89	344.06
523.07	362.78
523.24	442.36
523.41	322.99
523.58	454.06
523.75	435.34
523.92	393.21
524.10	390.87
524.27	411.93
524.44	437.68
524.61	482.15
524.78	428.32
524.96	414.27
525.13	404.91
525.30	397.89
525.47	479.81
525.64	395.55
525.81	414.27
525.98	402.57
526.16	411.93
526.33	461.09
526.50	458.74
526.67	423.64
526.84	360.44
527.01	402.57
527.18	395.55
527.36	411.93
527.53	444.70
527.70	447.04
527.87	372.15
528.04	379.17
528.21	397.89
528.38	451.72
528.55	454.06
528.72	470.45
528.89	430.66
529.07	451.72
529.24	369.80
529.41	430.66
529.58	334.70
529.75	503.22
529.92	423.64
530.09	470.45
530.26	510.24
530.43	369.80
530.60	397.89
530.77	404.91
530.94	379.17
531.11	435.34
531.28	386.19
531.46	423.64
531.63	430.66
531.80	482.15
531.97	390.87
532.14	435.34
532.31	425.98
532.48	402.57
532.65	465.77
532.82	449.38
532.99	454.06
533.16	428.32
533.33	416.62
533.50	407.25
533.67	376.83
533.84	479.81
534.01	407.25
534.18	344.06
534.35	416.62
534.52	411.93
534.69	472.79
534.86	290.23
535.03	397.89
535.20	440.02
535.37	418.96
535.54	421.30
535.71	386.19
535.88	404.91
536.05	365.12
536.22	421.30
536.38	393.21
536.55	454.06
536.72	411.93
536.89	447.04
537.06	381.51
537.23	435.34
537.40	458.74
537.57	369.80
537.74	411.93
537.91	416.62
538.08	416.62
538.25	470.45
538.42	430.66
538.59	404.91
538.75	423.64
538.92	407.25
539.09	458.74
539.26	454.06
539.43	404.91
539.60	393.21
539.77	465.77
539.94	383.85
540.11	320.65
540.28	475.13
540.44	505.56
540.61	416.62
540.78	418.96
540.95	470.45
541.12	449.38
541.29	421.30
541.46	428.32
541.62	383.85
541.79	423.64
541.96	418.96
542.13	463.43
542.30	442.36
542.47	423.64
542.63	390.87
542.80	402.57
542.97	395.55
543.14	437.68
543.31	376.83
543.48	348.74
543.64	454.06
543.81	360.44
543.98	435.34
544.15	477.47
544.32	456.40
544.48	447.04
544.65	477.47
544.82	449.38
544.99	400.23
545.16	449.38
545.32	395.55
545.49	369.80
545.66	425.98
545.83	393.21
546.00	404.91
546.16	362.78
546.33	470.45
546.50	470.45
546.67	451.72
546.83	433.00
547.00	416.62
547.17	416.62
547.34	421.30
547.50	430.66
547.67	418.96
547.84	348.74
548.00	458.74
548.17	425.98
548.34	433.00
548.51	475.13
548.67	423.64
548.84	430.66
549.01	353.42
549.18	454.06
549.34	421.30
549.51	454.06
549.68	444.70
549.84	447.04
550.01	423.64
550.18	444.70
550.34	461.09
550.51	418.96
550.68	425.98
550.84	456.40
551.01	447.04
551.18	421.30
551.34	425.98
551.51	489.17
551.68	425.98
551.84	437.68
552.01	447.04
552.18	423.64
552.34	397.89
552.51	454.06
552.68	437.68
552.84	440.02
553.01	454.06
553.18	433.00
553.34	449.38
553.51	362.78
553.67	395.55
553.84	414.27
554.01	416.62
554.17	390.87
554.34	341.72
554.51	351.08
554.67	498.53
554.84	395.55
555.00	418.96
555.17	449.38
555.33	411.93
555.50	400.23
555.67	416.62
555.83	381.51
556.00	425.98
556.16	510.24
556.33	421.30
556.50	456.40
556.66	435.34
556.83	358.10
556.99	407.25
557.16	411.93
557.32	400.23
557.49	400.23
557.65	362.78
557.82	414.27
557.98	447.04
558.15	418.96
558.32	428.32
558.48	416.62
558.65	428.32
558.81	449.38
558.98	433.00
559.14	416.62
559.31	402.57
559.47	447.04
559.64	407.25
559.80	433.00
559.97	425.98
560.13	414.27
560.30	388.53
560.46	451.72
560.63	367.46
560.79	425.98
560.96	414.27
561.12	327.68
561.29	430.66
561.45	423.64
561.61	433.00
561.78	425.98
561.94	322.99
562.11	367.46
562.27	444.70
562.44	393.21
562.60	404.91
562.77	475.13
562.93	498.53
563.10	358.10
563.26	493.85
563.42	456.40
563.59	486.83
563.75	507.90
563.92	484.49
564.08	433.00
564.24	468.11
564.41	477.47
564.57	423.64
564.74	437.68
564.90	414.27
565.07	388.53
565.23	444.70
565.39	425.98
565.56	414.27
565.72	404.91
565.88	458.74
566.05	458.74
566.21	400.23
566.38	416.62
566.54	388.53
566.70	411.93
566.87	428.32
567.03	421.30
567.19	440.02
567.36	482.15
567.52	451.72
567.68	407.25
567.85	444.70
568.01	341.72
568.17	355.76
568.34	430.66
568.50	449.38
568.66	416.62
568.83	447.04
568.99	348.74
569.15	421.30
569.32	407.25
569.48	421.30
569.64	416.62
569.81	414.27
569.97	430.66
570.13	407.25
570.30	404.91
570.46	493.85
570.62	400.23
570.78	428.32
570.95	421.30
571.11	489.17
571.27	433.00
571.43	402.57
571.60	442.36
571.76	369.80
571.92	500.87
572.09	355.76
572.25	451.72
572.41	397.89
572.57	461.09
572.74	477.47
572.90	381.51
573.06	447.04
573.22	440.02
573.38	442.36
573.55	437.68
573.71	437.68
573.87	402.57
574.03	491.51
574.20	374.49
574.36	491.51
574.52	468.11
574.68	327.68
574.84	433.00
575.01	381.51
575.17	475.13
575.33	451.72
575.49	475.13
575.65	411.93
575.82	444.70
575.98	475.13
576.14	411.93
576.30	454.06
576.46	430.66
576.62	433.00
576.79	407.25
576.95	418.96
577.11	479.81
577.27	423.64
577.43	440.02
577.59	486.83
577.75	374.49
577.92	423.64
578.08	444.70
578.24	393.21
578.40	421.30
578.56	444.70
578.72	461.09
578.88	416.62
579.04	414.27
579.21	414.27
579.37	395.55
579.53	372.15
579.69	393.21
579.85	435.34
580.01	479.81
580.17	451.72
580.33	407.25
580.49	416.62
580.65	404.91
580.82	416.62
580.98	430.66
581.14	407.25
581.30	468.11
581.46	388.53
581.62	423.64
581.78	400.23
581.94	402.57
582.10	376.83
582.26	330.02
582.42	435.34
582.58	475.13
582.74	421.30
582.90	428.32
583.06	435.34
583.22	374.49
583.38	442.36
583.54	407.25
583.70	470.45
583.86	428.32
584.02	400.23
584.18	404.91
584.34	435.34
584.50	372.15
584.66	421.30
584.82	304.27
584.98	425.98
585.14	337.04
585.30	428.32
585.46	461.09
585.62	425.98
585.78	418.96
585.94	444.70
586.10	395.55
586.26	449.38
586.42	491.51
586.58	425.98
586.74	393.21
586.90	416.62
587.06	372.15
587.22	383.85
587.38	421.30
587.54	418.96
587.70	416.62
587.86	545.34
588.02	418.96
588.18	477.47
588.34	433.00
588.49	318.31
588.65	379.17
588.81	423.64
588.97	451.72
589.13	351.08
589.29	428.32
589.45	444.70
589.61	447.04
589.77	491.51
589.93	425.98
590.08	423.64
590.24	374.49
590.40	369.80
590.56	388.53
590.72	444.70
590.88	440.02
591.04	416.62
591.20	449.38
591.35	423.64
591.51	393.21
591.67	393.21
591.83	411.93
591.99	468.11
592.15	486.83
592.31	430.66
592.46	442.36
592.62	449.38
592.78	388.53
592.94	369.80
593.10	400.23
593.26	411.93
593.41	367.46
593.57	468.11
593.73	456.40
593.89	477.47
594.05	428.32
594.20	376.83
594.36	418.96
594.52	393.21
594.68	400.23
594.84	393.21
594.99	416.62
595.15	407.25
595.31	407.25
595.47	468.11
595.62	484.49
595.78	402.57
595.94	435.34
596.10	465.77
596.25	423.64
596.41	440.02
596.57	381.51
596.73	411.93
596.88	486.83
597.04	437.68
597.20	482.15
597.36	468.11
597.51	444.70
597.67	383.85
597.83	458.74
597.99	376.83
598.14	437.68
598.30	425.98
598.46	493.85
598.61	524.28
598.77	449.38
598.93	416.62
599.09	418.96
599.24	440.02
599.40	505.56
599.56	414.27
599.71	458.74
599.87	428.32
600.03	416.62
600.18	386.19
600.34	358.10
600.50	409.59
600.65	374.49
600.81	402.57
600.97	449.38
601.12	416.62
601.28	477.47
601.44	411.93
601.59	358.10
601.75	379.17
601.91	383.85
602.06	397.89
602.22	440.02
602.37	430.66
602.53	425.98
602.69	402.57
602.84	465.77
603.00	423.64
603.16	339.38
603.31	425.98
603.47	369.80
603.62	425.98
603.78	395.55
603.94	425.98
604.09	414.27
604.25	397.89
604.40	348.74
604.56	428.32
604.71	475.13
604.87	421.30
605.03	388.53
605.18	449.38
605.34	449.38
605.49	383.85
605.65	423.64
605.80	397.89
605.96	358.10
606.12	421.30
606.27	423.64
606.43	409.59
606.58	461.09
606.74	440.02
606.89	421.30
607.05	416.62
607.20	428.32
607.36	402.57
607.51	472.79
607.67	461.09
607.82	430.66
607.98	465.77
608.13	362.78
608.29	318.31
608.44	440.02
608.60	454.06
608.75	414.27
608.91	358.10
609.06	461.09
609.22	437.68
609.37	428.32
609.53	437.68
609.68	383.85
609.84	367.46
609.99	367.46
610.15	477.47
