SpectraSuite Data File
++++++++++++++++++++++++++++++++++++
Date: Fri Oct 25 12:10:13 EDT 2013
User: price-jones
Dark Spectrum Present: No
Reference Spectrum Present: No
Number of Sampled Component Spectra: 1
Spectrometers: USB2+H05261
Integration Time (usec): 100000 (USB2+H05261)
Spectra Averaged: 1 (USB2+H05261)
Boxcar Smoothing: 0 (USB2+H05261)
Correct for Electrical Dark: No (USB2+H05261)
Strobe/Lamp Enabled: No (USB2+H05261)
Correct for Detector Non-linearity: No (USB2+H05261)
Correct for Stray Light: No (USB2+H05261)
Number of Pixels in Processed Spectrum: 2048
>>>>>Begin Processed Spectral Data<<<<<
365.73	330.02
365.92	330.02
366.12	330.02
366.32	301.93
366.52	243.42
366.72	245.76
366.91	229.37
367.11	234.05
367.31	159.16
367.51	262.14
367.70	227.03
367.90	259.80
368.10	208.31
368.30	248.10
368.49	229.37
368.69	203.63
368.89	259.80
369.09	252.78
369.28	220.01
369.48	250.44
369.68	245.76
369.87	301.93
370.07	241.08
370.27	334.70
370.47	264.48
370.66	304.27
370.86	348.74
371.06	397.89
371.25	449.38
371.45	423.64
371.65	262.14
371.84	372.15
372.04	372.15
372.24	411.93
372.44	353.42
372.63	327.68
372.83	365.12
373.03	437.68
373.22	383.85
373.42	390.87
373.62	379.17
373.81	411.93
374.01	486.83
374.21	414.27
374.40	393.21
374.60	463.43
374.79	468.11
374.99	435.34
375.19	407.25
375.38	414.27
375.58	372.15
375.78	423.64
375.97	442.36
376.17	500.87
376.37	407.25
376.56	451.72
376.76	407.25
376.95	386.19
377.15	393.21
377.35	362.78
377.54	454.06
377.74	376.83
377.93	402.57
378.13	461.09
378.33	367.46
378.52	362.78
378.72	376.83
378.91	437.68
379.11	355.76
379.31	416.62
379.50	369.80
379.70	402.57
379.89	362.78
380.09	407.25
380.28	376.83
380.48	374.49
380.68	374.49
380.87	292.57
381.07	353.42
381.26	388.53
381.46	388.53
381.65	372.15
381.85	430.66
382.04	421.30
382.24	362.78
382.43	418.96
382.63	440.02
382.83	440.02
383.02	423.64
383.22	421.30
383.41	411.93
383.61	418.96
383.80	486.83
384.00	411.93
384.19	383.85
384.39	414.27
384.58	365.12
384.78	369.80
384.97	442.36
385.17	414.27
385.36	369.80
385.56	404.91
385.75	383.85
385.95	379.17
386.14	479.81
386.34	346.40
386.53	433.00
386.72	433.00
386.92	418.96
387.11	376.83
387.31	449.38
387.50	355.76
387.70	416.62
387.89	500.87
388.09	386.19
388.28	362.78
388.48	433.00
388.67	376.83
388.86	397.89
389.06	409.59
389.25	374.49
389.45	383.85
389.64	416.62
389.84	479.81
390.03	404.91
390.22	418.96
390.42	430.66
390.61	365.12
390.81	351.08
391.00	418.96
391.19	423.64
391.39	355.76
391.58	369.80
391.78	397.89
391.97	477.47
392.16	395.55
392.36	425.98
392.55	449.38
392.75	428.32
392.94	390.87
393.13	407.25
393.33	423.64
393.52	390.87
393.71	458.74
393.91	355.76
394.10	447.04
394.29	383.85
394.49	365.12
394.68	428.32
394.88	428.32
395.07	461.09
395.26	365.12
395.46	461.09
395.65	428.32
395.84	376.83
396.04	512.58
396.23	444.70
396.42	400.23
396.62	383.85
396.81	344.06
397.00	355.76
397.19	339.38
397.39	367.46
397.58	451.72
397.77	428.32
397.97	320.65
398.16	395.55
398.35	430.66
398.55	409.59
398.74	348.74
398.93	411.93
399.12	327.68
399.32	381.51
399.51	416.62
399.70	402.57
399.90	477.47
400.09	400.23
400.28	407.25
400.47	404.91
400.67	416.62
400.86	390.87
401.05	442.36
401.24	418.96
401.44	390.87
401.63	383.85
401.82	339.38
402.01	334.70
402.21	400.23
402.40	425.98
402.59	400.23
402.78	383.85
402.97	400.23
403.17	383.85
403.36	365.12
403.55	379.17
403.74	442.36
403.93	383.85
404.13	400.23
404.32	423.64
404.51	414.27
404.70	498.53
404.89	346.40
405.09	461.09
405.28	414.27
405.47	407.25
405.66	449.38
405.85	416.62
406.05	418.96
406.24	386.19
406.43	358.10
406.62	430.66
406.81	543.00
407.00	482.15
407.20	425.98
407.39	418.96
407.58	421.30
407.77	369.80
407.96	498.53
408.15	454.06
408.34	407.25
408.54	395.55
408.73	430.66
408.92	418.96
409.11	390.87
409.30	374.49
409.49	308.95
409.68	386.19
409.87	411.93
410.07	379.17
410.26	404.91
410.45	379.17
410.64	390.87
410.83	383.85
411.02	386.19
411.21	379.17
411.40	386.19
411.59	355.76
411.78	435.34
411.98	400.23
412.17	393.21
412.36	425.98
412.55	423.64
412.74	379.17
412.93	440.02
413.12	383.85
413.31	442.36
413.50	381.51
413.69	393.21
413.88	369.80
414.07	402.57
414.26	447.04
414.45	339.38
414.64	409.59
414.83	442.36
415.02	479.81
415.22	395.55
415.41	397.89
415.60	346.40
415.79	346.40
415.98	454.06
416.17	379.17
416.36	430.66
416.55	372.15
416.74	414.27
416.93	425.98
417.12	425.98
417.31	428.32
417.50	428.32
417.69	404.91
417.88	414.27
418.07	374.49
418.26	355.76
418.45	320.65
418.64	463.43
418.83	365.12
419.02	372.15
419.21	475.13
419.39	451.72
419.58	348.74
419.77	355.76
419.96	425.98
420.15	404.91
420.34	477.47
420.53	433.00
420.72	411.93
420.91	393.21
421.10	402.57
421.29	390.87
421.48	421.30
421.67	465.77
421.86	381.51
422.05	379.17
422.24	397.89
422.43	416.62
422.61	414.27
422.80	367.46
422.99	388.53
423.18	400.23
423.37	400.23
423.56	386.19
423.75	360.44
423.94	374.49
424.13	409.59
424.32	421.30
424.50	404.91
424.69	407.25
424.88	379.17
425.07	362.78
425.26	393.21
425.45	358.10
425.64	430.66
425.83	507.90
426.01	381.51
426.20	374.49
426.39	358.10
426.58	414.27
426.77	454.06
426.96	456.40
427.15	381.51
427.33	325.33
427.52	421.30
427.71	430.66
427.90	456.40
428.09	407.25
428.28	447.04
428.46	353.42
428.65	337.04
428.84	353.42
429.03	362.78
429.22	430.66
429.40	390.87
429.59	428.32
429.78	425.98
429.97	376.83
430.16	433.00
430.34	355.76
430.53	379.17
430.72	393.21
430.91	416.62
431.10	383.85
431.28	397.89
431.47	425.98
431.66	409.59
431.85	402.57
432.03	341.72
432.22	447.04
432.41	428.32
432.60	491.51
432.79	477.47
432.97	435.34
433.16	383.85
433.35	416.62
433.54	461.09
433.72	470.45
433.91	400.23
434.10	456.40
434.28	376.83
434.47	411.93
434.66	397.89
434.85	440.02
435.03	463.43
435.22	440.02
435.41	411.93
435.59	402.57
435.78	388.53
435.97	372.15
436.16	348.74
436.34	447.04
436.53	479.81
436.72	428.32
436.90	402.57
437.09	428.32
437.28	402.57
437.46	381.51
437.65	369.80
437.84	435.34
438.02	449.38
438.21	451.72
438.40	395.55
438.58	407.25
438.77	369.80
438.96	425.98
439.14	400.23
439.33	418.96
439.52	355.76
439.70	346.40
439.89	404.91
440.08	393.21
440.26	402.57
440.45	500.87
440.63	416.62
440.82	418.96
441.01	400.23
441.19	416.62
441.38	416.62
441.57	484.49
441.75	388.53
441.94	402.57
442.12	386.19
442.31	423.64
442.50	454.06
442.68	437.68
442.87	416.62
443.05	428.32
443.24	409.59
443.43	404.91
443.61	440.02
443.80	348.74
443.98	449.38
444.17	379.17
444.35	402.57
444.54	355.76
444.73	332.36
444.91	463.43
445.10	400.23
445.28	416.62
445.47	393.21
445.65	397.89
445.84	411.93
446.02	451.72
446.21	367.46
446.39	404.91
446.58	390.87
446.77	475.13
446.95	393.21
447.14	376.83
447.32	444.70
447.51	369.80
447.69	390.87
447.88	409.59
448.06	472.79
448.25	444.70
448.43	386.19
448.62	433.00
448.80	437.68
448.99	465.77
449.17	444.70
449.36	428.32
449.54	435.34
449.73	395.55
449.91	435.34
450.10	379.17
450.28	482.15
450.46	505.56
450.65	386.19
450.83	393.21
451.02	404.91
451.20	482.15
451.39	376.83
451.57	409.59
451.76	362.78
451.94	430.66
452.13	493.85
452.31	472.79
452.49	376.83
452.68	433.00
452.86	472.79
453.05	468.11
453.23	409.59
453.42	404.91
453.60	477.47
453.78	468.11
453.97	397.89
454.15	407.25
454.34	409.59
454.52	451.72
454.70	395.55
454.89	421.30
455.07	411.93
455.26	477.47
455.44	486.83
455.62	358.10
455.81	449.38
455.99	454.06
456.17	358.10
456.36	388.53
456.54	372.15
456.73	423.64
456.91	383.85
457.09	428.32
457.28	435.34
457.46	414.27
457.64	477.47
457.83	421.30
458.01	444.70
458.19	461.09
458.38	440.02
458.56	477.47
458.74	507.90
458.93	393.21
459.11	372.15
459.29	365.12
459.48	414.27
459.66	421.30
459.84	425.98
460.03	454.06
460.21	409.59
460.39	421.30
460.57	404.91
460.76	463.43
460.94	430.66
461.12	407.25
461.31	395.55
461.49	468.11
461.67	407.25
461.85	430.66
462.04	475.13
462.22	772.38
462.40	397.89
462.59	472.79
462.77	416.62
462.95	404.91
463.13	362.78
463.32	465.77
463.50	402.57
463.68	372.15
463.86	334.70
464.05	423.64
464.23	386.19
464.41	491.51
464.59	367.46
464.78	454.06
464.96	397.89
465.14	411.93
465.32	510.24
465.50	461.09
465.69	397.89
465.87	447.04
466.05	421.30
466.23	376.83
466.41	409.59
466.60	451.72
466.78	402.57
466.96	376.83
467.14	397.89
467.32	435.34
467.51	442.36
467.69	454.06
467.87	407.25
468.05	440.02
468.23	379.17
468.41	416.62
468.60	479.81
468.78	379.17
468.96	512.58
469.14	407.25
469.32	365.12
469.50	414.27
469.69	423.64
469.87	416.62
470.05	482.15
470.23	435.34
470.41	454.06
470.59	425.98
470.77	451.72
470.95	390.87
471.14	468.11
471.32	425.98
471.50	444.70
471.68	404.91
471.86	393.21
472.04	397.89
472.22	376.83
472.40	433.00
472.58	395.55
472.77	418.96
472.95	433.00
473.13	479.81
473.31	407.25
473.49	395.55
473.67	505.56
473.85	381.51
474.03	404.91
474.21	388.53
474.39	416.62
474.57	379.17
474.75	407.25
474.93	449.38
475.12	353.42
475.30	388.53
475.48	465.77
475.66	416.62
475.84	351.08
476.02	444.70
476.20	407.25
476.38	381.51
476.56	435.34
476.74	332.36
476.92	447.04
477.10	351.08
477.28	421.30
477.46	458.74
477.64	437.68
477.82	390.87
478.00	421.30
478.18	376.83
478.36	442.36
478.54	348.74
478.72	409.59
478.90	386.19
479.08	339.38
479.26	404.91
479.44	414.27
479.62	404.91
479.80	369.80
479.98	390.87
480.16	400.23
480.34	440.02
480.52	360.44
480.70	421.30
480.88	409.59
481.06	360.44
481.24	421.30
481.41	409.59
481.59	465.77
481.77	418.96
481.95	402.57
482.13	461.09
482.31	477.47
482.49	411.93
482.67	421.30
482.85	404.91
483.03	379.17
483.21	458.74
483.39	404.91
483.57	386.19
483.74	418.96
483.92	395.55
484.10	411.93
484.28	409.59
484.46	451.72
484.64	395.55
484.82	440.02
485.00	416.62
485.18	388.53
485.35	451.72
485.53	313.63
485.71	463.43
485.89	369.80
486.07	442.36
486.25	465.77
486.43	458.74
486.61	437.68
486.78	463.43
486.96	423.64
487.14	404.91
487.32	332.36
487.50	416.62
487.68	430.66
487.85	353.42
488.03	383.85
488.21	442.36
488.39	418.96
488.57	440.02
488.75	390.87
488.92	477.47
489.10	423.64
489.28	411.93
489.46	374.49
489.64	421.30
489.81	376.83
489.99	386.19
490.17	421.30
490.35	416.62
490.53	404.91
490.70	339.38
490.88	430.66
491.06	416.62
491.24	423.64
491.41	496.19
491.59	475.13
491.77	449.38
491.95	360.44
492.13	395.55
492.30	416.62
492.48	402.57
492.66	400.23
492.84	425.98
493.01	383.85
493.19	381.51
493.37	468.11
493.54	440.02
493.72	440.02
493.90	465.77
494.08	374.49
494.25	458.74
494.43	421.30
494.61	393.21
494.79	376.83
494.96	376.83
495.14	416.62
495.32	425.98
495.49	325.33
495.67	414.27
495.85	421.30
496.02	463.43
496.20	456.40
496.38	484.49
496.55	444.70
496.73	428.32
496.91	404.91
497.09	437.68
497.26	416.62
497.44	386.19
497.62	358.10
497.79	428.32
497.97	374.49
498.14	416.62
498.32	425.98
498.50	468.11
498.67	477.47
498.85	400.23
499.03	442.36
499.20	468.11
499.38	304.27
499.56	388.53
499.73	465.77
499.91	362.78
500.08	444.70
500.26	433.00
500.44	381.51
500.61	402.57
500.79	425.98
500.97	435.34
501.14	444.70
501.32	435.34
501.49	418.96
501.67	430.66
501.84	400.23
502.02	379.17
502.20	447.04
502.37	421.30
502.55	411.93
502.72	423.64
502.90	433.00
503.07	372.15
503.25	376.83
503.43	390.87
503.60	411.93
503.78	414.27
503.95	374.49
504.13	407.25
504.30	379.17
504.48	409.59
504.65	461.09
504.83	418.96
505.01	388.53
505.18	390.87
505.36	451.72
505.53	418.96
505.71	376.83
505.88	346.40
506.06	430.66
506.23	463.43
506.41	423.64
506.58	442.36
506.76	393.21
506.93	407.25
507.11	451.72
507.28	397.89
507.46	435.34
507.63	388.53
507.81	416.62
507.98	362.78
508.16	428.32
508.33	390.87
508.50	374.49
508.68	393.21
508.85	386.19
509.03	444.70
509.20	400.23
509.38	369.80
509.55	433.00
509.73	458.74
509.90	428.32
510.08	397.89
510.25	435.34
510.42	393.21
510.60	475.13
510.77	465.77
510.95	440.02
511.12	393.21
511.30	451.72
511.47	458.74
511.64	395.55
511.82	425.98
511.99	479.81
512.17	374.49
512.34	404.91
512.51	365.12
512.69	517.26
512.86	500.87
513.04	423.64
513.21	402.57
513.38	400.23
513.56	430.66
513.73	414.27
513.90	374.49
514.08	414.27
514.25	472.79
514.43	374.49
514.60	351.08
514.77	449.38
514.95	414.27
515.12	468.11
515.29	404.91
515.47	442.36
515.64	407.25
515.81	390.87
515.99	491.51
516.16	393.21
516.33	444.70
516.51	383.85
516.68	381.51
516.85	430.66
517.03	416.62
517.20	346.40
517.37	409.59
517.54	449.38
517.72	477.47
517.89	475.13
518.06	355.76
518.24	437.68
518.41	451.72
518.58	456.40
518.75	428.32
518.93	458.74
519.10	496.19
519.27	433.00
519.45	418.96
519.62	442.36
519.79	386.19
519.96	304.27
520.14	393.21
520.31	447.04
520.48	482.15
520.65	376.83
520.83	451.72
521.00	407.25
521.17	491.51
521.34	423.64
521.52	402.57
521.69	435.34
521.86	390.87
522.03	409.59
522.20	484.49
522.38	479.81
522.55	379.17
522.72	407.25
522.89	423.64
523.07	433.00
523.24	325.33
523.41	402.57
523.58	386.19
523.75	388.53
523.92	416.62
524.10	440.02
524.27	393.21
524.44	386.19
524.61	458.74
524.78	332.36
524.96	421.30
525.13	456.40
525.30	444.70
525.47	425.98
525.64	397.89
525.81	430.66
525.98	393.21
526.16	383.85
526.33	355.76
526.50	402.57
526.67	444.70
526.84	379.17
527.01	421.30
527.18	416.62
527.36	428.32
527.53	411.93
527.70	447.04
527.87	416.62
528.04	456.40
528.21	461.09
528.38	465.77
528.55	472.79
528.72	414.27
528.89	416.62
529.07	414.27
529.24	472.79
529.41	498.53
529.58	404.91
529.75	379.17
529.92	397.89
530.09	374.49
530.26	428.32
530.43	390.87
530.60	411.93
530.77	421.30
530.94	430.66
531.11	472.79
531.28	442.36
531.46	447.04
531.63	475.13
531.80	440.02
531.97	411.93
532.14	402.57
532.31	437.68
532.48	468.11
532.65	400.23
532.82	447.04
532.99	479.81
533.16	407.25
533.33	451.72
533.50	475.13
533.67	383.85
533.84	407.25
534.01	374.49
534.18	442.36
534.35	449.38
534.52	447.04
534.69	514.92
534.86	395.55
535.03	449.38
535.20	449.38
535.37	440.02
535.54	390.87
535.71	486.83
535.88	362.78
536.05	468.11
536.22	440.02
536.38	411.93
536.55	414.27
536.72	407.25
536.89	397.89
537.06	416.62
537.23	372.15
537.40	433.00
537.57	433.00
537.74	468.11
537.91	423.64
538.08	411.93
538.25	468.11
538.42	425.98
538.59	493.85
538.75	458.74
538.92	411.93
539.09	433.00
539.26	435.34
539.43	484.49
539.60	395.55
539.77	461.09
539.94	383.85
540.11	423.64
540.28	423.64
540.44	456.40
540.61	383.85
540.78	402.57
540.95	367.46
541.12	496.19
541.29	388.53
541.46	388.53
541.62	423.64
541.79	444.70
541.96	409.59
542.13	353.42
542.30	428.32
542.47	449.38
542.63	414.27
542.80	463.43
542.97	400.23
543.14	411.93
543.31	428.32
543.48	425.98
543.64	470.45
543.81	472.79
543.98	440.02
544.15	416.62
544.32	362.78
544.48	414.27
544.65	451.72
544.82	400.23
544.99	409.59
545.16	463.43
545.32	418.96
545.49	435.34
545.66	423.64
545.83	344.06
546.00	365.12
546.16	386.19
546.33	395.55
546.50	477.47
546.67	411.93
546.83	458.74
547.00	407.25
547.17	418.96
547.34	423.64
547.50	449.38
547.67	444.70
547.84	418.96
548.00	404.91
548.17	423.64
548.34	440.02
548.51	430.66
548.67	482.15
548.84	402.57
549.01	416.62
549.18	400.23
549.34	334.70
549.51	468.11
549.68	493.85
549.84	430.66
550.01	390.87
550.18	400.23
550.34	477.47
550.51	390.87
550.68	454.06
550.84	449.38
551.01	454.06
551.18	433.00
551.34	447.04
551.51	428.32
551.68	299.59
551.84	374.49
552.01	346.40
552.18	416.62
552.34	360.44
552.51	365.12
552.68	411.93
552.84	444.70
553.01	472.79
553.18	465.77
553.34	421.30
553.51	461.09
553.67	428.32
553.84	440.02
554.01	341.72
554.17	372.15
554.34	468.11
554.51	440.02
554.67	395.55
554.84	428.32
555.00	468.11
555.17	346.40
555.33	498.53
555.50	397.89
555.67	388.53
555.83	496.19
556.00	440.02
556.16	599.18
556.33	456.40
556.50	447.04
556.66	479.81
556.83	444.70
556.99	360.44
557.16	397.89
557.32	372.15
557.49	409.59
557.65	379.17
557.82	430.66
557.98	510.24
558.15	470.45
558.32	437.68
558.48	376.83
558.65	447.04
558.81	458.74
558.98	327.68
559.14	442.36
559.31	447.04
559.47	435.34
559.64	423.64
559.80	437.68
559.97	402.57
560.13	355.76
560.30	374.49
560.46	376.83
560.63	397.89
560.79	425.98
560.96	386.19
561.12	409.59
561.29	437.68
561.45	393.21
561.61	372.15
561.78	425.98
561.94	365.12
562.11	449.38
562.27	437.68
562.44	421.30
562.60	430.66
562.77	435.34
562.93	442.36
563.10	400.23
563.26	379.17
563.42	444.70
563.59	409.59
563.75	425.98
563.92	468.11
564.08	407.25
564.24	484.49
564.41	447.04
564.57	428.32
564.74	416.62
564.90	435.34
565.07	390.87
565.23	437.68
565.39	386.19
565.56	404.91
565.72	425.98
565.88	449.38
566.05	423.64
566.21	397.89
566.38	374.49
566.54	388.53
566.70	400.23
566.87	404.91
567.03	402.57
567.19	414.27
567.36	400.23
567.52	456.40
567.68	411.93
567.85	423.64
568.01	463.43
568.17	381.51
568.34	386.19
568.50	393.21
568.66	414.27
568.83	414.27
568.99	418.96
569.15	500.87
569.32	433.00
569.48	423.64
569.64	379.17
569.81	374.49
569.97	472.79
570.13	433.00
570.30	365.12
570.46	397.89
570.62	379.17
570.78	397.89
570.95	360.44
571.11	351.08
571.27	505.56
571.43	510.24
571.60	482.15
571.76	376.83
571.92	444.70
572.09	425.98
572.25	402.57
572.41	461.09
572.57	418.96
572.74	451.72
572.90	489.17
573.06	407.25
573.22	367.46
573.38	421.30
573.55	489.17
573.71	451.72
573.87	449.38
574.03	435.34
574.20	407.25
574.36	416.62
574.52	440.02
574.68	358.10
574.84	423.64
575.01	416.62
575.17	451.72
575.33	418.96
575.49	437.68
575.65	421.30
575.82	418.96
575.98	393.21
576.14	423.64
576.30	388.53
576.46	461.09
576.62	374.49
576.79	430.66
576.95	444.70
577.11	404.91
577.27	381.51
577.43	435.34
577.59	458.74
577.75	393.21
577.92	388.53
578.08	353.42
578.24	454.06
578.40	423.64
578.56	493.85
578.72	346.40
578.88	449.38
579.04	386.19
579.21	395.55
579.37	430.66
579.53	430.66
579.69	435.34
579.85	463.43
580.01	454.06
580.17	484.49
580.33	404.91
580.49	409.59
580.65	430.66
580.82	524.28
580.98	358.10
581.14	402.57
581.30	456.40
581.46	425.98
581.62	447.04
581.78	344.06
581.94	372.15
582.10	362.78
582.26	355.76
582.42	337.04
582.58	418.96
582.74	418.96
582.90	482.15
583.06	411.93
583.22	430.66
583.38	404.91
583.54	404.91
583.70	510.24
583.86	400.23
584.02	386.19
584.18	437.68
584.34	491.51
584.50	407.25
584.66	351.08
584.82	404.91
584.98	318.31
585.14	360.44
585.30	430.66
585.46	360.44
585.62	351.08
585.78	379.17
585.94	433.00
586.10	374.49
586.26	451.72
586.42	458.74
586.58	425.98
586.74	400.23
586.90	418.96
587.06	475.13
587.22	430.66
587.38	386.19
587.54	400.23
587.70	367.46
587.86	393.21
588.02	423.64
588.18	440.02
588.34	407.25
588.49	365.12
588.65	461.09
588.81	386.19
588.97	393.21
589.13	402.57
589.29	390.87
589.45	442.36
589.61	423.64
589.77	428.32
589.93	346.40
590.08	379.17
590.24	486.83
590.40	444.70
590.56	449.38
590.72	397.89
590.88	390.87
591.04	414.27
591.20	449.38
591.35	465.77
591.51	367.46
591.67	411.93
591.83	372.15
591.99	528.96
592.15	402.57
592.31	404.91
592.46	418.96
592.62	393.21
592.78	451.72
592.94	393.21
593.10	414.27
593.26	395.55
593.41	430.66
593.57	372.15
593.73	395.55
593.89	404.91
594.05	374.49
594.20	447.04
594.36	437.68
594.52	407.25
594.68	383.85
594.84	463.43
594.99	451.72
595.15	451.72
595.31	489.17
595.47	454.06
595.62	339.38
595.78	425.98
595.94	400.23
596.10	461.09
596.25	409.59
596.41	416.62
596.57	351.08
596.73	381.51
596.88	348.74
597.04	456.40
597.20	411.93
597.36	440.02
597.51	421.30
597.67	397.89
597.83	416.62
597.99	482.15
598.14	503.22
598.30	407.25
598.46	379.17
598.61	423.64
598.77	475.13
598.93	362.78
599.09	414.27
599.24	475.13
599.40	416.62
599.56	428.32
599.71	437.68
599.87	358.10
600.03	458.74
600.18	437.68
600.34	440.02
600.50	393.21
600.65	433.00
600.81	451.72
600.97	351.08
601.12	400.23
601.28	409.59
601.44	486.83
601.59	428.32
601.75	358.10
601.91	423.64
602.06	416.62
602.22	428.32
602.37	365.12
602.53	423.64
602.69	411.93
602.84	376.83
603.00	451.72
603.16	433.00
603.31	386.19
603.47	435.34
603.62	322.99
603.78	388.53
603.94	372.15
604.09	404.91
604.25	381.51
604.40	461.09
604.56	376.83
604.71	388.53
604.87	381.51
605.03	451.72
605.18	404.91
605.34	484.49
605.49	395.55
605.65	409.59
605.80	383.85
605.96	379.17
606.12	484.49
606.27	461.09
606.43	454.06
606.58	425.98
606.74	433.00
606.89	479.81
607.05	440.02
607.20	425.98
607.36	463.43
607.51	430.66
607.67	423.64
607.82	440.02
607.98	433.00
608.13	407.25
608.29	449.38
608.44	402.57
608.60	409.59
608.75	463.43
608.91	388.53
609.06	456.40
609.22	468.11
609.37	362.78
609.53	444.70
609.68	437.68
609.84	404.91
609.99	369.80
610.15	418.96
