SpectraSuite Data File
++++++++++++++++++++++++++++++++++++
Date: Fri Oct 25 12:10:21 EDT 2013
User: price-jones
Dark Spectrum Present: No
Reference Spectrum Present: No
Number of Sampled Component Spectra: 1
Spectrometers: USB2+H05261
Integration Time (usec): 100000 (USB2+H05261)
Spectra Averaged: 1 (USB2+H05261)
Boxcar Smoothing: 0 (USB2+H05261)
Correct for Electrical Dark: No (USB2+H05261)
Strobe/Lamp Enabled: No (USB2+H05261)
Correct for Detector Non-linearity: No (USB2+H05261)
Correct for Stray Light: No (USB2+H05261)
Number of Pixels in Processed Spectrum: 2048
>>>>>Begin Processed Spectral Data<<<<<
365.73	330.02
365.92	330.02
366.12	330.02
366.32	255.12
366.52	222.35
366.72	287.89
366.91	313.63
367.11	215.33
367.31	222.35
367.51	234.05
367.70	313.63
367.90	227.03
368.10	210.65
368.30	287.89
368.49	245.76
368.69	250.44
368.89	259.80
369.09	229.37
369.28	259.80
369.48	262.14
369.68	217.67
369.87	292.57
370.07	290.23
370.27	358.10
370.47	325.33
370.66	360.44
370.86	315.97
371.06	411.93
371.25	451.72
371.45	360.44
371.65	355.76
371.84	325.33
372.04	416.62
372.24	369.80
372.44	404.91
372.63	416.62
372.83	423.64
373.03	327.68
373.22	472.79
373.42	395.55
373.62	344.06
373.81	440.02
374.01	430.66
374.21	418.96
374.40	430.66
374.60	489.17
374.79	500.87
374.99	400.23
375.19	386.19
375.38	423.64
375.58	428.32
375.78	433.00
375.97	449.38
376.17	428.32
376.37	447.04
376.56	402.57
376.76	491.51
376.95	388.53
377.15	402.57
377.35	400.23
377.54	503.22
377.74	442.36
377.93	315.97
378.13	416.62
378.33	435.34
378.52	379.17
378.72	482.15
378.91	397.89
379.11	416.62
379.31	344.06
379.50	411.93
379.70	409.59
379.89	421.30
380.09	428.32
380.28	390.87
380.48	348.74
380.68	369.80
380.87	393.21
381.07	400.23
381.26	447.04
381.46	390.87
381.65	404.91
381.85	421.30
382.04	397.89
382.24	416.62
382.43	372.15
382.63	372.15
382.83	409.59
383.02	334.70
383.22	428.32
383.41	388.53
383.61	440.02
383.80	491.51
384.00	367.46
384.19	344.06
384.39	360.44
384.58	341.72
384.78	397.89
384.97	423.64
385.17	423.64
385.36	390.87
385.56	472.79
385.75	437.68
385.95	400.23
386.14	421.30
386.34	411.93
386.53	379.17
386.72	416.62
386.92	433.00
387.11	463.43
387.31	433.00
387.50	381.51
387.70	379.17
387.89	395.55
388.09	407.25
388.28	386.19
388.48	407.25
388.67	367.46
388.86	442.36
389.06	395.55
389.25	362.78
389.45	435.34
389.64	402.57
389.84	447.04
390.03	416.62
390.22	475.13
390.42	404.91
390.61	463.43
390.81	358.10
391.00	416.62
391.19	404.91
391.39	325.33
391.58	440.02
391.78	339.38
391.97	376.83
392.16	418.96
392.36	402.57
392.55	524.28
392.75	425.98
392.94	407.25
393.13	461.09
393.33	404.91
393.52	376.83
393.71	477.47
393.91	477.47
394.10	358.10
394.29	381.51
394.49	449.38
394.68	404.91
394.88	418.96
395.07	428.32
395.26	437.68
395.46	470.45
395.65	411.93
395.84	465.77
396.04	456.40
396.23	458.74
396.42	315.97
396.62	411.93
396.81	404.91
397.00	360.44
397.19	421.30
397.39	519.60
397.58	435.34
397.77	449.38
397.97	344.06
398.16	367.46
398.35	440.02
398.55	425.98
398.74	449.38
398.93	430.66
399.12	423.64
399.32	414.27
399.51	358.10
399.70	383.85
399.90	465.77
400.09	393.21
400.28	346.40
400.47	353.42
400.67	437.68
400.86	482.15
401.05	428.32
401.24	395.55
401.44	465.77
401.63	477.47
401.82	395.55
402.01	386.19
402.21	407.25
402.40	379.17
402.59	433.00
402.78	351.08
402.97	327.68
403.17	390.87
403.36	433.00
403.55	468.11
403.74	393.21
403.93	435.34
404.13	470.45
404.32	411.93
404.51	395.55
404.70	433.00
404.89	306.61
405.09	477.47
405.28	409.59
405.47	376.83
405.66	428.32
405.85	456.40
406.05	404.91
406.24	461.09
406.43	454.06
406.62	346.40
406.81	409.59
407.00	383.85
407.20	348.74
407.39	440.02
407.58	395.55
407.77	447.04
407.96	416.62
408.15	519.60
408.34	383.85
408.54	430.66
408.73	367.46
408.92	397.89
409.11	327.68
409.30	421.30
409.49	425.98
409.68	404.91
409.87	395.55
410.07	393.21
410.26	358.10
410.45	470.45
410.64	433.00
410.83	388.53
411.02	383.85
411.21	449.38
411.40	390.87
411.59	383.85
411.78	416.62
411.98	449.38
412.17	376.83
412.36	332.36
412.55	423.64
412.74	355.76
412.93	456.40
413.12	381.51
413.31	404.91
413.50	463.43
413.69	404.91
413.88	400.23
414.07	358.10
414.26	425.98
414.45	491.51
414.64	402.57
414.83	428.32
415.02	362.78
415.22	362.78
415.41	430.66
415.60	402.57
415.79	418.96
415.98	423.64
416.17	472.79
416.36	433.00
416.55	416.62
416.74	437.68
416.93	407.25
417.12	369.80
417.31	421.30
417.50	437.68
417.69	351.08
417.88	355.76
418.07	376.83
418.26	428.32
418.45	369.80
418.64	430.66
418.83	451.72
419.02	379.17
419.21	360.44
419.39	369.80
419.58	475.13
419.77	397.89
419.96	456.40
420.15	411.93
420.34	404.91
420.53	404.91
420.72	374.49
420.91	379.17
421.10	430.66
421.29	435.34
421.48	425.98
421.67	433.00
421.86	414.27
422.05	404.91
422.24	409.59
422.43	393.21
422.61	369.80
422.80	351.08
422.99	451.72
423.18	449.38
423.37	475.13
423.56	489.17
423.75	388.53
423.94	374.49
424.13	411.93
424.32	451.72
424.50	386.19
424.69	449.38
424.88	468.11
425.07	428.32
425.26	425.98
425.45	386.19
425.64	397.89
425.83	386.19
426.01	451.72
426.20	414.27
426.39	402.57
426.58	395.55
426.77	400.23
426.96	402.57
427.15	428.32
427.33	407.25
427.52	393.21
427.71	428.32
427.90	362.78
428.09	421.30
428.28	379.17
428.46	428.32
428.65	440.02
428.84	386.19
429.03	425.98
429.22	416.62
429.40	411.93
429.59	437.68
429.78	442.36
429.97	390.87
430.16	418.96
430.34	414.27
430.53	365.12
430.72	430.66
430.91	407.25
431.10	449.38
431.28	437.68
431.47	395.55
431.66	397.89
431.85	395.55
432.03	472.79
432.22	440.02
432.41	402.57
432.60	395.55
432.79	386.19
432.97	341.72
433.16	390.87
433.35	355.76
433.54	339.38
433.72	376.83
433.91	390.87
434.10	437.68
434.28	379.17
434.47	313.63
434.66	320.65
434.85	294.91
435.03	411.93
435.22	433.00
435.41	400.23
435.59	477.47
435.78	369.80
435.97	421.30
436.16	482.15
436.34	379.17
436.53	465.77
436.72	442.36
436.90	493.85
437.09	395.55
437.28	456.40
437.46	376.83
437.65	447.04
437.84	425.98
438.02	435.34
438.21	430.66
438.40	463.43
438.58	458.74
438.77	463.43
438.96	486.83
439.14	386.19
439.33	444.70
439.52	421.30
439.70	456.40
439.89	423.64
440.08	393.21
440.26	393.21
440.45	526.62
440.63	440.02
440.82	411.93
441.01	463.43
441.19	437.68
441.38	433.00
441.57	379.17
441.75	449.38
441.94	461.09
442.12	447.04
442.31	411.93
442.50	381.51
442.68	369.80
442.87	372.15
443.05	407.25
443.24	435.34
443.43	465.77
443.61	456.40
443.80	367.46
443.98	416.62
444.17	461.09
444.35	395.55
444.54	416.62
444.73	409.59
444.91	393.21
445.10	435.34
445.28	379.17
445.47	400.23
445.65	428.32
445.84	437.68
446.02	411.93
446.21	337.04
446.39	397.89
446.58	327.68
446.77	397.89
446.95	444.70
447.14	402.57
447.32	395.55
447.51	454.06
447.69	397.89
447.88	428.32
448.06	475.13
448.25	372.15
448.43	395.55
448.62	411.93
448.80	411.93
448.99	442.36
449.17	376.83
449.36	369.80
449.54	402.57
449.73	414.27
449.91	447.04
450.10	341.72
450.28	430.66
450.46	458.74
450.65	421.30
450.83	255.12
451.02	447.04
451.20	418.96
451.39	451.72
451.57	435.34
451.76	454.06
451.94	376.83
452.13	423.64
452.31	430.66
452.49	393.21
452.68	344.06
452.86	393.21
453.05	512.58
453.23	414.27
453.42	362.78
453.60	407.25
453.78	437.68
453.97	409.59
454.15	393.21
454.34	411.93
454.52	454.06
454.70	475.13
454.89	507.90
455.07	461.09
455.26	404.91
455.44	414.27
455.62	365.12
455.81	397.89
455.99	447.04
456.17	414.27
456.36	379.17
456.54	435.34
456.73	418.96
456.91	407.25
457.09	404.91
457.28	498.53
457.46	414.27
457.64	428.32
457.83	409.59
458.01	409.59
458.19	355.76
458.38	358.10
458.56	456.40
458.74	414.27
458.93	355.76
459.11	409.59
459.29	362.78
459.48	374.49
459.66	435.34
459.84	454.06
460.03	479.81
460.21	428.32
460.39	430.66
460.57	383.85
460.76	400.23
460.94	451.72
461.12	454.06
461.31	456.40
461.49	365.12
461.67	388.53
461.85	353.42
462.04	425.98
462.22	753.65
462.40	390.87
462.59	437.68
462.77	374.49
462.95	411.93
463.13	360.44
463.32	437.68
463.50	447.04
463.68	388.53
463.86	449.38
464.05	400.23
464.23	437.68
464.41	411.93
464.59	374.49
464.78	381.51
464.96	397.89
465.14	430.66
465.32	414.27
465.50	430.66
465.69	437.68
465.87	374.49
466.05	411.93
466.23	475.13
466.41	395.55
466.60	440.02
466.78	486.83
466.96	493.85
467.14	390.87
467.32	428.32
467.51	397.89
467.69	440.02
467.87	395.55
468.05	416.62
468.23	381.51
468.41	381.51
468.60	365.12
468.78	451.72
468.96	440.02
469.14	482.15
469.32	393.21
469.50	395.55
469.69	332.36
469.87	461.09
470.05	372.15
470.23	339.38
470.41	475.13
470.59	400.23
470.77	390.87
470.95	428.32
471.14	407.25
471.32	428.32
471.50	365.12
471.68	433.00
471.86	379.17
472.04	430.66
472.22	407.25
472.40	362.78
472.58	339.38
472.77	388.53
472.95	374.49
473.13	435.34
473.31	444.70
473.49	360.44
473.67	437.68
473.85	416.62
474.03	425.98
474.21	369.80
474.39	386.19
474.57	456.40
474.75	449.38
474.93	369.80
475.12	423.64
475.30	367.46
475.48	423.64
475.66	411.93
475.84	428.32
476.02	351.08
476.20	423.64
476.38	409.59
476.56	486.83
476.74	400.23
476.92	381.51
477.10	404.91
477.28	507.90
477.46	409.59
477.64	395.55
477.82	365.12
478.00	421.30
478.18	400.23
478.36	437.68
478.54	409.59
478.72	433.00
478.90	414.27
479.08	461.09
479.26	447.04
479.44	381.51
479.62	369.80
479.80	430.66
479.98	367.46
480.16	400.23
480.34	442.36
480.52	421.30
480.70	344.06
480.88	344.06
481.06	388.53
481.24	379.17
481.41	407.25
481.59	395.55
481.77	435.34
481.95	369.80
482.13	465.77
482.31	444.70
482.49	437.68
482.67	425.98
482.85	365.12
483.03	465.77
483.21	423.64
483.39	402.57
483.57	489.17
483.74	393.21
483.92	348.74
484.10	418.96
484.28	390.87
484.46	428.32
484.64	421.30
484.82	463.43
485.00	367.46
485.18	416.62
485.35	423.64
485.53	395.55
485.71	414.27
485.89	404.91
486.07	400.23
486.25	477.47
486.43	414.27
486.61	454.06
486.78	395.55
486.96	451.72
487.14	409.59
487.32	421.30
487.50	435.34
487.68	409.59
487.85	423.64
488.03	379.17
488.21	430.66
488.39	346.40
488.57	421.30
488.75	442.36
488.92	535.98
489.10	351.08
489.28	468.11
489.46	404.91
489.64	388.53
489.81	447.04
489.99	367.46
490.17	404.91
490.35	454.06
490.53	437.68
490.70	397.89
490.88	442.36
491.06	400.23
491.24	416.62
491.41	381.51
491.59	322.99
491.77	414.27
491.95	409.59
492.13	430.66
492.30	484.49
492.48	404.91
492.66	437.68
492.84	447.04
493.01	433.00
493.19	470.45
493.37	379.17
493.54	348.74
493.72	372.15
493.90	442.36
494.08	428.32
494.25	428.32
494.43	402.57
494.61	484.49
494.79	372.15
494.96	421.30
495.14	456.40
495.32	395.55
495.49	449.38
495.67	437.68
495.85	383.85
496.02	374.49
496.20	430.66
496.38	428.32
496.55	433.00
496.73	348.74
496.91	416.62
497.09	409.59
497.26	395.55
497.44	308.95
497.62	353.42
497.79	376.83
497.97	414.27
498.14	411.93
498.32	440.02
498.50	414.27
498.67	390.87
498.85	461.09
499.03	365.12
499.20	428.32
499.38	433.00
499.56	418.96
499.73	433.00
499.91	414.27
500.08	402.57
500.26	449.38
500.44	407.25
500.61	341.72
500.79	428.32
500.97	461.09
501.14	472.79
501.32	421.30
501.49	543.00
501.67	472.79
501.84	407.25
502.02	416.62
502.20	374.49
502.37	433.00
502.55	423.64
502.72	447.04
502.90	421.30
503.07	430.66
503.25	484.49
503.43	381.51
503.60	369.80
503.78	428.32
503.95	395.55
504.13	388.53
504.30	442.36
504.48	425.98
504.65	461.09
504.83	386.19
505.01	358.10
505.18	444.70
505.36	381.51
505.53	376.83
505.71	463.43
505.88	397.89
506.06	414.27
506.23	374.49
506.41	358.10
506.58	409.59
506.76	456.40
506.93	449.38
507.11	376.83
507.28	397.89
507.46	358.10
507.63	428.32
507.81	360.44
507.98	411.93
508.16	374.49
508.33	482.15
508.50	372.15
508.68	334.70
508.85	444.70
509.03	397.89
509.20	397.89
509.38	447.04
509.55	430.66
509.73	437.68
509.90	425.98
510.08	381.51
510.25	489.17
510.42	451.72
510.60	416.62
510.77	442.36
510.95	355.76
511.12	386.19
511.30	386.19
511.47	454.06
511.64	454.06
511.82	423.64
511.99	451.72
512.17	390.87
512.34	388.53
512.51	383.85
512.69	454.06
512.86	493.85
513.04	461.09
513.21	409.59
513.38	433.00
513.56	372.15
513.73	411.93
513.90	351.08
514.08	437.68
514.25	383.85
514.43	409.59
514.60	458.74
514.77	428.32
514.95	397.89
515.12	332.36
515.29	461.09
515.47	449.38
515.64	437.68
515.81	468.11
515.99	430.66
516.16	381.51
516.33	374.49
516.51	458.74
516.68	365.12
516.85	440.02
517.03	484.49
517.20	400.23
517.37	449.38
517.54	449.38
517.72	423.64
517.89	400.23
518.06	409.59
518.24	425.98
518.41	388.53
518.58	414.27
518.75	360.44
518.93	355.76
519.10	423.64
519.27	418.96
519.45	430.66
519.62	386.19
519.79	414.27
519.96	451.72
520.14	348.74
520.31	386.19
520.48	496.19
520.65	367.46
520.83	475.13
521.00	407.25
521.17	423.64
521.34	344.06
521.52	393.21
521.69	440.02
521.86	414.27
522.03	428.32
522.20	423.64
522.38	437.68
522.55	367.46
522.72	346.40
522.89	404.91
523.07	369.80
523.24	447.04
523.41	395.55
523.58	393.21
523.75	372.15
523.92	409.59
524.10	397.89
524.27	435.34
524.44	397.89
524.61	440.02
524.78	479.81
524.96	414.27
525.13	411.93
525.30	402.57
525.47	472.79
525.64	435.34
525.81	311.29
525.98	393.21
526.16	393.21
526.33	414.27
526.50	454.06
526.67	397.89
526.84	369.80
527.01	418.96
527.18	428.32
527.36	397.89
527.53	421.30
527.70	379.17
527.87	449.38
528.04	407.25
528.21	369.80
528.38	355.76
528.55	475.13
528.72	400.23
528.89	369.80
529.07	397.89
529.24	421.30
529.41	456.40
529.58	400.23
529.75	444.70
529.92	465.77
530.09	404.91
530.26	400.23
530.43	365.12
530.60	400.23
530.77	423.64
530.94	423.64
531.11	400.23
531.28	484.49
531.46	365.12
531.63	407.25
531.80	423.64
531.97	388.53
532.14	407.25
532.31	386.19
532.48	404.91
532.65	379.17
532.82	367.46
532.99	454.06
533.16	447.04
533.33	407.25
533.50	376.83
533.67	397.89
533.84	437.68
534.01	437.68
534.18	498.53
534.35	421.30
534.52	386.19
534.69	381.51
534.86	442.36
535.03	409.59
535.20	376.83
535.37	430.66
535.54	395.55
535.71	372.15
535.88	463.43
536.05	390.87
536.22	367.46
536.38	402.57
536.55	400.23
536.72	461.09
536.89	440.02
537.06	400.23
537.23	482.15
537.40	447.04
537.57	414.27
537.74	484.49
537.91	451.72
538.08	425.98
538.25	421.30
538.42	416.62
538.59	411.93
538.75	400.23
538.92	402.57
539.09	390.87
539.26	358.10
539.43	454.06
539.60	388.53
539.77	435.34
539.94	423.64
540.11	355.76
540.28	444.70
540.44	440.02
540.61	407.25
540.78	414.27
540.95	376.83
541.12	416.62
541.29	418.96
541.46	458.74
541.62	365.12
541.79	402.57
541.96	397.89
542.13	428.32
542.30	332.36
542.47	440.02
542.63	388.53
542.80	472.79
542.97	365.12
543.14	397.89
543.31	423.64
543.48	355.76
543.64	407.25
543.81	449.38
543.98	355.76
544.15	355.76
544.32	404.91
544.48	395.55
544.65	433.00
544.82	407.25
544.99	423.64
545.16	458.74
545.32	407.25
545.49	416.62
545.66	477.47
545.83	390.87
546.00	454.06
546.16	451.72
546.33	421.30
546.50	451.72
546.67	472.79
546.83	379.17
547.00	444.70
547.17	404.91
547.34	353.42
547.50	407.25
547.67	430.66
547.84	337.04
548.00	456.40
548.17	374.49
548.34	407.25
548.51	440.02
548.67	418.96
548.84	416.62
549.01	411.93
549.18	379.17
549.34	355.76
549.51	421.30
549.68	463.43
549.84	468.11
550.01	442.36
550.18	402.57
550.34	507.90
550.51	491.51
550.68	465.77
550.84	325.33
551.01	355.76
551.18	411.93
551.34	400.23
551.51	458.74
551.68	437.68
551.84	362.78
552.01	374.49
552.18	409.59
552.34	362.78
552.51	454.06
552.68	411.93
552.84	353.42
553.01	388.53
553.18	409.59
553.34	397.89
553.51	416.62
553.67	374.49
553.84	447.04
554.01	407.25
554.17	440.02
554.34	425.98
554.51	416.62
554.67	395.55
554.84	416.62
555.00	435.34
555.17	444.70
555.33	451.72
555.50	433.00
555.67	402.57
555.83	435.34
556.00	449.38
556.16	524.28
556.33	437.68
556.50	458.74
556.66	397.89
556.83	388.53
556.99	416.62
557.16	372.15
557.32	367.46
557.49	416.62
557.65	430.66
557.82	500.87
557.98	482.15
558.15	409.59
558.32	355.76
558.48	374.49
558.65	395.55
558.81	383.85
558.98	444.70
559.14	456.40
559.31	421.30
559.47	400.23
559.64	386.19
559.80	327.68
559.97	369.80
560.13	372.15
560.30	414.27
560.46	449.38
560.63	491.51
560.79	468.11
560.96	482.15
561.12	372.15
561.29	463.43
561.45	433.00
561.61	421.30
561.78	451.72
561.94	358.10
562.11	381.51
562.27	407.25
562.44	400.23
562.60	344.06
562.77	397.89
562.93	442.36
563.10	416.62
563.26	369.80
563.42	407.25
563.59	383.85
563.75	440.02
563.92	475.13
564.08	435.34
564.24	386.19
564.41	470.45
564.57	430.66
564.74	393.21
564.90	404.91
565.07	449.38
565.23	437.68
565.39	404.91
565.56	369.80
565.72	465.77
565.88	397.89
566.05	397.89
566.21	383.85
566.38	416.62
566.54	428.32
566.70	416.62
566.87	400.23
567.03	348.74
567.19	404.91
567.36	451.72
567.52	376.83
567.68	402.57
567.85	402.57
568.01	376.83
568.17	421.30
568.34	390.87
568.50	454.06
568.66	402.57
568.83	458.74
568.99	374.49
569.15	442.36
569.32	285.55
569.48	414.27
569.64	428.32
569.81	433.00
569.97	376.83
570.13	383.85
570.30	454.06
570.46	369.80
570.62	463.43
570.78	425.98
570.95	404.91
571.11	489.17
571.27	372.15
571.43	430.66
571.60	444.70
571.76	423.64
571.92	500.87
572.09	444.70
572.25	454.06
572.41	400.23
572.57	433.00
572.74	409.59
572.90	418.96
573.06	458.74
573.22	372.15
573.38	440.02
573.55	440.02
573.71	437.68
573.87	388.53
574.03	388.53
574.20	292.57
574.36	416.62
574.52	421.30
574.68	470.45
574.84	407.25
575.01	449.38
575.17	463.43
575.33	440.02
575.49	454.06
575.65	407.25
575.82	496.19
575.98	402.57
576.14	376.83
576.30	423.64
576.46	360.44
576.62	440.02
576.79	404.91
576.95	435.34
577.11	353.42
577.27	407.25
577.43	416.62
577.59	416.62
577.75	362.78
577.92	402.57
578.08	414.27
578.24	402.57
578.40	423.64
578.56	435.34
578.72	411.93
578.88	435.34
579.04	358.10
579.21	418.96
579.37	463.43
579.53	393.21
579.69	444.70
579.85	449.38
580.01	418.96
580.17	376.83
580.33	407.25
580.49	482.15
580.65	437.68
580.82	325.33
580.98	360.44
581.14	400.23
581.30	456.40
581.46	395.55
581.62	428.32
581.78	376.83
581.94	451.72
582.10	404.91
582.26	374.49
582.42	360.44
582.58	372.15
582.74	447.04
582.90	465.77
583.06	416.62
583.22	395.55
583.38	451.72
583.54	390.87
583.70	447.04
583.86	400.23
584.02	449.38
584.18	482.15
584.34	402.57
584.50	367.46
584.66	430.66
584.82	376.83
584.98	358.10
585.14	416.62
585.30	418.96
585.46	407.25
585.62	358.10
585.78	414.27
585.94	454.06
586.10	414.27
586.26	337.04
586.42	465.77
586.58	465.77
586.74	372.15
586.90	435.34
587.06	404.91
587.22	440.02
587.38	444.70
587.54	435.34
587.70	507.90
587.86	454.06
588.02	362.78
588.18	425.98
588.34	421.30
588.49	334.70
588.65	367.46
588.81	442.36
588.97	433.00
589.13	472.79
589.29	428.32
589.45	449.38
589.61	447.04
589.77	475.13
589.93	407.25
590.08	376.83
590.24	437.68
590.40	344.06
590.56	444.70
590.72	433.00
590.88	435.34
591.04	395.55
591.20	416.62
591.35	475.13
591.51	414.27
591.67	369.80
591.83	423.64
591.99	468.11
592.15	465.77
592.31	521.94
592.46	425.98
592.62	463.43
592.78	425.98
592.94	444.70
593.10	444.70
593.26	330.02
593.41	407.25
593.57	425.98
593.73	374.49
593.89	379.17
594.05	388.53
594.20	482.15
594.36	358.10
594.52	402.57
594.68	463.43
594.84	414.27
594.99	454.06
595.15	383.85
595.31	423.64
595.47	386.19
595.62	407.25
595.78	421.30
595.94	425.98
596.10	421.30
596.25	414.27
596.41	435.34
596.57	397.89
596.73	332.36
596.88	351.08
597.04	365.12
597.20	388.53
597.36	411.93
597.51	435.34
597.67	362.78
597.83	325.33
597.99	407.25
598.14	425.98
598.30	425.98
598.46	397.89
598.61	435.34
598.77	435.34
598.93	404.91
599.09	461.09
599.24	440.02
599.40	451.72
599.56	421.30
599.71	404.91
599.87	400.23
600.03	414.27
600.18	407.25
600.34	386.19
600.50	454.06
600.65	404.91
600.81	493.85
600.97	397.89
601.12	372.15
601.28	458.74
601.44	372.15
601.59	304.27
601.75	360.44
601.91	418.96
602.06	400.23
602.22	486.83
602.37	484.49
602.53	428.32
602.69	484.49
602.84	468.11
603.00	379.17
603.16	514.92
603.31	472.79
603.47	435.34
603.62	297.25
603.78	383.85
603.94	395.55
604.09	411.93
604.25	440.02
604.40	430.66
604.56	339.38
604.71	449.38
604.87	442.36
605.03	388.53
605.18	397.89
605.34	477.47
605.49	433.00
605.65	456.40
605.80	451.72
605.96	454.06
606.12	470.45
606.27	449.38
606.43	402.57
606.58	416.62
606.74	362.78
606.89	381.51
607.05	451.72
607.20	376.83
607.36	479.81
607.51	386.19
607.67	468.11
607.82	362.78
607.98	409.59
608.13	491.51
608.29	498.53
608.44	404.91
608.60	428.32
608.75	472.79
608.91	358.10
609.06	388.53
609.22	383.85
609.37	414.27
609.53	395.55
609.68	456.40
609.84	404.91
609.99	402.57
610.15	407.25
