SpectraSuite Data File
++++++++++++++++++++++++++++++++++++
Date: Fri Oct 25 12:11:39 EDT 2013
User: price-jones
Dark Spectrum Present: No
Reference Spectrum Present: No
Number of Sampled Component Spectra: 1
Spectrometers: USB2+H05261
Integration Time (usec): 100000 (USB2+H05261)
Spectra Averaged: 1 (USB2+H05261)
Boxcar Smoothing: 0 (USB2+H05261)
Correct for Electrical Dark: No (USB2+H05261)
Strobe/Lamp Enabled: No (USB2+H05261)
Correct for Detector Non-linearity: No (USB2+H05261)
Correct for Stray Light: No (USB2+H05261)
Number of Pixels in Processed Spectrum: 2048
>>>>>Begin Processed Spectral Data<<<<<
365.73	339.38
365.92	339.38
366.12	339.38
366.32	339.38
366.52	297.25
366.72	297.25
366.91	140.43
367.11	262.14
367.31	250.44
367.51	250.44
367.70	238.73
367.90	220.01
368.10	278.52
368.30	196.60
368.49	308.95
368.69	264.48
368.89	264.48
369.09	234.05
369.28	250.44
369.48	318.31
369.68	299.59
369.87	287.89
370.07	311.29
370.27	301.93
370.47	322.99
370.66	248.10
370.86	388.53
371.06	404.91
371.25	390.87
371.45	402.57
371.65	395.55
371.84	390.87
372.04	341.72
372.24	369.80
372.44	418.96
372.63	381.51
372.83	367.46
373.03	388.53
373.22	397.89
373.42	428.32
373.62	423.64
373.81	468.11
374.01	423.64
374.21	465.77
374.40	372.15
374.60	409.59
374.79	449.38
374.99	510.24
375.19	393.21
375.38	479.81
375.58	374.49
375.78	416.62
375.97	428.32
376.17	533.64
376.37	397.89
376.56	400.23
376.76	395.55
376.95	365.12
377.15	390.87
377.35	374.49
377.54	433.00
377.74	461.09
377.93	444.70
378.13	397.89
378.33	437.68
378.52	423.64
378.72	369.80
378.91	461.09
379.11	379.17
379.31	407.25
379.50	369.80
379.70	416.62
379.89	447.04
380.09	388.53
380.28	404.91
380.48	395.55
380.68	407.25
380.87	489.17
381.07	367.46
381.26	411.93
381.46	458.74
381.65	372.15
381.85	458.74
382.04	416.62
382.24	465.77
382.43	390.87
382.63	400.23
382.83	428.32
383.02	437.68
383.22	395.55
383.41	411.93
383.61	461.09
383.80	362.78
384.00	395.55
384.19	402.57
384.39	395.55
384.58	360.44
384.78	463.43
384.97	458.74
385.17	393.21
385.36	400.23
385.56	421.30
385.75	404.91
385.95	402.57
386.14	468.11
386.34	440.02
386.53	407.25
386.72	409.59
386.92	486.83
387.11	341.72
387.31	468.11
387.50	409.59
387.70	409.59
387.89	400.23
388.09	407.25
388.28	407.25
388.48	430.66
388.67	463.43
388.86	444.70
389.06	472.79
389.25	351.08
389.45	402.57
389.64	418.96
389.84	475.13
390.03	395.55
390.22	416.62
390.42	337.04
390.61	416.62
390.81	395.55
391.00	404.91
391.19	395.55
391.39	379.17
391.58	423.64
391.78	390.87
391.97	381.51
392.16	332.36
392.36	428.32
392.55	482.15
392.75	463.43
392.94	451.72
393.13	472.79
393.33	435.34
393.52	437.68
393.71	444.70
393.91	440.02
394.10	418.96
394.29	362.78
394.49	404.91
394.68	381.51
394.88	437.68
395.07	400.23
395.26	472.79
395.46	440.02
395.65	379.17
395.84	444.70
396.04	456.40
396.23	414.27
396.42	395.55
396.62	437.68
396.81	430.66
397.00	379.17
397.19	414.27
397.39	430.66
397.58	468.11
397.77	421.30
397.97	381.51
398.16	395.55
398.35	435.34
398.55	362.78
398.74	421.30
398.93	418.96
399.12	456.40
399.32	404.91
399.51	327.68
399.70	379.17
399.90	393.21
400.09	409.59
400.28	468.11
400.47	290.23
400.67	458.74
400.86	407.25
401.05	442.36
401.24	360.44
401.44	407.25
401.63	428.32
401.82	423.64
402.01	374.49
402.21	451.72
402.40	369.80
402.59	397.89
402.78	360.44
402.97	372.15
403.17	407.25
403.36	414.27
403.55	447.04
403.74	407.25
403.93	397.89
404.13	440.02
404.32	381.51
404.51	437.68
404.70	428.32
404.89	402.57
405.09	437.68
405.28	383.85
405.47	379.17
405.66	451.72
405.85	500.87
406.05	393.21
406.24	463.43
406.43	395.55
406.62	491.51
406.81	458.74
407.00	440.02
407.20	400.23
407.39	393.21
407.58	390.87
407.77	367.46
407.96	444.70
408.15	435.34
408.34	451.72
408.54	409.59
408.73	414.27
408.92	463.43
409.11	433.00
409.30	337.04
409.49	442.36
409.68	512.58
409.87	451.72
410.07	402.57
410.26	372.15
410.45	442.36
410.64	388.53
410.83	428.32
411.02	423.64
411.21	402.57
411.40	468.11
411.59	428.32
411.78	367.46
411.98	416.62
412.17	444.70
412.36	411.93
412.55	402.57
412.74	414.27
412.93	379.17
413.12	442.36
413.31	435.34
413.50	395.55
413.69	390.87
413.88	388.53
414.07	402.57
414.26	430.66
414.45	435.34
414.64	395.55
414.83	498.53
415.02	444.70
415.22	414.27
415.41	465.77
415.60	409.59
415.79	280.86
415.98	395.55
416.17	390.87
416.36	355.76
416.55	301.93
416.74	521.94
416.93	402.57
417.12	430.66
417.31	430.66
417.50	409.59
417.69	435.34
417.88	393.21
418.07	451.72
418.26	393.21
418.45	388.53
418.64	332.36
418.83	379.17
419.02	409.59
419.21	456.40
419.39	435.34
419.58	409.59
419.77	411.93
419.96	430.66
420.15	381.51
420.34	418.96
420.53	430.66
420.72	381.51
420.91	372.15
421.10	465.77
421.29	390.87
421.48	458.74
421.67	458.74
421.86	390.87
422.05	397.89
422.24	442.36
422.43	411.93
422.61	437.68
422.80	416.62
422.99	360.44
423.18	451.72
423.37	423.64
423.56	402.57
423.75	400.23
423.94	355.76
424.13	458.74
424.32	475.13
424.50	409.59
424.69	388.53
424.88	430.66
425.07	372.15
425.26	447.04
425.45	449.38
425.64	442.36
425.83	344.06
426.01	468.11
426.20	379.17
426.39	421.30
426.58	400.23
426.77	400.23
426.96	411.93
427.15	418.96
427.33	404.91
427.52	407.25
427.71	402.57
427.90	463.43
428.09	447.04
428.28	341.72
428.46	454.06
428.65	400.23
428.84	423.64
429.03	458.74
429.22	376.83
429.40	428.32
429.59	383.85
429.78	444.70
429.97	416.62
430.16	500.87
430.34	430.66
430.53	414.27
430.72	414.27
430.91	461.09
431.10	393.21
431.28	407.25
431.47	437.68
431.66	421.30
431.85	374.49
432.03	348.74
432.22	444.70
432.41	461.09
432.60	421.30
432.79	360.44
432.97	465.77
433.16	449.38
433.35	390.87
433.54	383.85
433.72	463.43
433.91	430.66
434.10	407.25
434.28	418.96
434.47	440.02
434.66	454.06
434.85	393.21
435.03	484.49
435.22	468.11
435.41	468.11
435.59	318.31
435.78	418.96
435.97	355.76
436.16	440.02
436.34	430.66
436.53	386.19
436.72	393.21
436.90	477.47
437.09	458.74
437.28	407.25
437.46	458.74
437.65	493.85
437.84	435.34
438.02	491.51
438.21	400.23
438.40	475.13
438.58	390.87
438.77	386.19
438.96	369.80
439.14	421.30
439.33	433.00
439.52	451.72
439.70	498.53
439.89	472.79
440.08	402.57
440.26	489.17
440.45	461.09
440.63	444.70
440.82	416.62
441.01	355.76
441.19	358.10
441.38	418.96
441.57	402.57
441.75	512.58
441.94	444.70
442.12	433.00
442.31	444.70
442.50	390.87
442.68	428.32
442.87	418.96
443.05	372.15
443.24	486.83
443.43	423.64
443.61	388.53
443.80	348.74
443.98	369.80
444.17	409.59
444.35	421.30
444.54	376.83
444.73	409.59
444.91	442.36
445.10	344.06
445.28	393.21
445.47	407.25
445.65	437.68
445.84	416.62
446.02	334.70
446.21	393.21
446.39	414.27
446.58	428.32
446.77	491.51
446.95	414.27
447.14	458.74
447.32	514.92
447.51	386.19
447.69	444.70
447.88	421.30
448.06	456.40
448.25	498.53
448.43	423.64
448.62	320.65
448.80	407.25
448.99	486.83
449.17	435.34
449.36	386.19
449.54	456.40
449.73	411.93
449.91	358.10
450.10	388.53
450.28	449.38
450.46	421.30
450.65	372.15
450.83	381.51
451.02	367.46
451.20	416.62
451.39	381.51
451.57	465.77
451.76	390.87
451.94	454.06
452.13	519.60
452.31	421.30
452.49	444.70
452.68	411.93
452.86	442.36
453.05	416.62
453.23	379.17
453.42	386.19
453.60	334.70
453.78	428.32
453.97	386.19
454.15	437.68
454.34	383.85
454.52	365.12
454.70	454.06
454.89	454.06
455.07	393.21
455.26	458.74
455.44	451.72
455.62	386.19
455.81	411.93
455.99	425.98
456.17	311.29
456.36	409.59
456.54	395.55
456.73	402.57
456.91	407.25
457.09	374.49
457.28	407.25
457.46	379.17
457.64	414.27
457.83	416.62
458.01	404.91
458.19	353.42
458.38	435.34
458.56	397.89
458.74	379.17
458.93	337.04
459.11	404.91
459.29	400.23
459.48	477.47
459.66	472.79
459.84	447.04
460.03	388.53
460.21	433.00
460.39	365.12
460.57	456.40
460.76	416.62
460.94	428.32
461.12	402.57
461.31	468.11
461.49	376.83
461.67	400.23
461.85	421.30
462.04	414.27
462.22	812.17
462.40	465.77
462.59	397.89
462.77	440.02
462.95	421.30
463.13	337.04
463.32	365.12
463.50	421.30
463.68	489.17
463.86	411.93
464.05	376.83
464.23	442.36
464.41	388.53
464.59	416.62
464.78	397.89
464.96	404.91
465.14	374.49
465.32	407.25
465.50	407.25
465.69	416.62
465.87	416.62
466.05	390.87
466.23	463.43
466.41	423.64
466.60	400.23
466.78	409.59
466.96	475.13
467.14	440.02
467.32	421.30
467.51	365.12
467.69	468.11
467.87	440.02
468.05	470.45
468.23	444.70
468.41	383.85
468.60	451.72
468.78	395.55
468.96	425.98
469.14	416.62
469.32	437.68
469.50	421.30
469.69	390.87
469.87	409.59
470.05	411.93
470.23	393.21
470.41	418.96
470.59	372.15
470.77	486.83
470.95	468.11
471.14	386.19
471.32	390.87
471.50	388.53
471.68	421.30
471.86	437.68
472.04	315.97
472.22	454.06
472.40	442.36
472.58	437.68
472.77	360.44
472.95	463.43
473.13	449.38
473.31	468.11
473.49	381.51
473.67	360.44
473.85	411.93
474.03	390.87
474.21	428.32
474.39	416.62
474.57	463.43
474.75	393.21
474.93	486.83
475.12	353.42
475.30	447.04
475.48	383.85
475.66	430.66
475.84	390.87
476.02	465.77
476.20	430.66
476.38	381.51
476.56	477.47
476.74	414.27
476.92	411.93
477.10	395.55
477.28	423.64
477.46	367.46
477.64	428.32
477.82	397.89
478.00	348.74
478.18	425.98
478.36	442.36
478.54	400.23
478.72	383.85
478.90	395.55
479.08	425.98
479.26	449.38
479.44	404.91
479.62	444.70
479.80	369.80
479.98	437.68
480.16	454.06
480.34	461.09
480.52	472.79
480.70	437.68
480.88	430.66
481.06	407.25
481.24	479.81
481.41	334.70
481.59	418.96
481.77	353.42
481.95	404.91
482.13	449.38
482.31	451.72
482.49	428.32
482.67	447.04
482.85	428.32
483.03	482.15
483.21	418.96
483.39	395.55
483.57	418.96
483.74	442.36
483.92	386.19
484.10	477.47
484.28	418.96
484.46	514.92
484.64	482.15
484.82	400.23
485.00	355.76
485.18	374.49
485.35	411.93
485.53	379.17
485.71	351.08
485.89	313.63
486.07	402.57
486.25	538.32
486.43	491.51
486.61	477.47
486.78	440.02
486.96	430.66
487.14	451.72
487.32	383.85
487.50	397.89
487.68	440.02
487.85	477.47
488.03	397.89
488.21	451.72
488.39	351.08
488.57	393.21
488.75	397.89
488.92	493.85
489.10	423.64
489.28	456.40
489.46	376.83
489.64	543.00
489.81	404.91
489.99	360.44
490.17	433.00
490.35	435.34
490.53	444.70
490.70	383.85
490.88	461.09
491.06	500.87
491.24	423.64
491.41	470.45
491.59	402.57
491.77	437.68
491.95	409.59
492.13	351.08
492.30	390.87
492.48	407.25
492.66	458.74
492.84	414.27
493.01	423.64
493.19	437.68
493.37	423.64
493.54	423.64
493.72	463.43
493.90	353.42
494.08	393.21
494.25	421.30
494.43	430.66
494.61	402.57
494.79	409.59
494.96	348.74
495.14	379.17
495.32	484.49
495.49	418.96
495.67	451.72
495.85	465.77
496.02	454.06
496.20	451.72
496.38	388.53
496.55	423.64
496.73	365.12
496.91	484.49
497.09	486.83
497.26	428.32
497.44	451.72
497.62	435.34
497.79	383.85
497.97	421.30
498.14	454.06
498.32	348.74
498.50	430.66
498.67	447.04
498.85	395.55
499.03	395.55
499.20	388.53
499.38	411.93
499.56	365.12
499.73	411.93
499.91	440.02
500.08	451.72
500.26	461.09
500.44	397.89
500.61	440.02
500.79	388.53
500.97	528.96
501.14	393.21
501.32	421.30
501.49	416.62
501.67	416.62
501.84	456.40
502.02	402.57
502.20	454.06
502.37	367.46
502.55	353.42
502.72	355.76
502.90	400.23
503.07	433.00
503.25	461.09
503.43	397.89
503.60	365.12
503.78	430.66
503.95	414.27
504.13	421.30
504.30	416.62
504.48	327.68
504.65	510.24
504.83	451.72
505.01	374.49
505.18	423.64
505.36	437.68
505.53	369.80
505.71	395.55
505.88	440.02
506.06	374.49
506.23	456.40
506.41	397.89
506.58	395.55
506.76	360.44
506.93	421.30
507.11	500.87
507.28	423.64
507.46	475.13
507.63	437.68
507.81	353.42
507.98	428.32
508.16	379.17
508.33	430.66
508.50	414.27
508.68	456.40
508.85	440.02
509.03	360.44
509.20	411.93
509.38	388.53
509.55	423.64
509.73	503.22
509.90	440.02
510.08	479.81
510.25	444.70
510.42	404.91
510.60	411.93
510.77	456.40
510.95	521.94
511.12	451.72
511.30	430.66
511.47	496.19
511.64	463.43
511.82	447.04
511.99	421.30
512.17	423.64
512.34	388.53
512.51	416.62
512.69	348.74
512.86	484.49
513.04	500.87
513.21	367.46
513.38	418.96
513.56	486.83
513.73	351.08
513.90	447.04
514.08	400.23
514.25	367.46
514.43	517.26
514.60	421.30
514.77	379.17
514.95	369.80
515.12	451.72
515.29	503.22
515.47	444.70
515.64	493.85
515.81	383.85
515.99	411.93
516.16	388.53
516.33	395.55
516.51	433.00
516.68	416.62
516.85	407.25
517.03	395.55
517.20	374.49
517.37	465.77
517.54	425.98
517.72	430.66
517.89	402.57
518.06	386.19
518.24	409.59
518.41	489.17
518.58	386.19
518.75	416.62
518.93	447.04
519.10	388.53
519.27	409.59
519.45	369.80
519.62	461.09
519.79	447.04
519.96	458.74
520.14	402.57
520.31	390.87
520.48	397.89
520.65	414.27
520.83	449.38
521.00	418.96
521.17	425.98
521.34	414.27
521.52	388.53
521.69	444.70
521.86	381.51
522.03	395.55
522.20	365.12
522.38	433.00
522.55	402.57
522.72	428.32
522.89	456.40
523.07	416.62
523.24	416.62
523.41	388.53
523.58	414.27
523.75	437.68
523.92	430.66
524.10	423.64
524.27	421.30
524.44	430.66
524.61	496.19
524.78	425.98
524.96	414.27
525.13	423.64
525.30	423.64
525.47	416.62
525.64	365.12
525.81	390.87
525.98	449.38
526.16	440.02
526.33	444.70
526.50	425.98
526.67	402.57
526.84	458.74
527.01	355.76
527.18	379.17
527.36	416.62
527.53	425.98
527.70	465.77
527.87	386.19
528.04	388.53
528.21	404.91
528.38	411.93
528.55	362.78
528.72	397.89
528.89	362.78
529.07	500.87
529.24	411.93
529.41	440.02
529.58	404.91
529.75	411.93
529.92	388.53
530.09	388.53
530.26	433.00
530.43	367.46
530.60	421.30
530.77	390.87
530.94	449.38
531.11	376.83
531.28	435.34
531.46	421.30
531.63	425.98
531.80	458.74
531.97	409.59
532.14	404.91
532.31	306.61
532.48	461.09
532.65	425.98
532.82	383.85
532.99	404.91
533.16	379.17
533.33	456.40
533.50	442.36
533.67	414.27
533.84	451.72
534.01	444.70
534.18	414.27
534.35	451.72
534.52	388.53
534.69	456.40
534.86	386.19
535.03	402.57
535.20	451.72
535.37	390.87
535.54	365.12
535.71	444.70
535.88	468.11
536.05	414.27
536.22	407.25
536.38	365.12
536.55	440.02
536.72	404.91
536.89	435.34
537.06	379.17
537.23	411.93
537.40	463.43
537.57	444.70
537.74	447.04
537.91	414.27
538.08	346.40
538.25	435.34
538.42	404.91
538.59	428.32
538.75	444.70
538.92	428.32
539.09	395.55
539.26	339.38
539.43	418.96
539.60	430.66
539.77	433.00
539.94	486.83
540.11	447.04
540.28	498.53
540.44	451.72
540.61	407.25
540.78	425.98
540.95	355.76
541.12	402.57
541.29	409.59
541.46	449.38
541.62	433.00
541.79	428.32
541.96	322.99
542.13	456.40
542.30	372.15
542.47	372.15
542.63	423.64
542.80	503.22
542.97	454.06
543.14	451.72
543.31	421.30
543.48	430.66
543.64	435.34
543.81	440.02
543.98	325.33
544.15	379.17
544.32	374.49
544.48	374.49
544.65	414.27
544.82	409.59
544.99	393.21
545.16	447.04
545.32	402.57
545.49	433.00
545.66	433.00
545.83	409.59
546.00	395.55
546.16	393.21
546.33	400.23
546.50	451.72
546.67	397.89
546.83	351.08
547.00	402.57
547.17	393.21
547.34	351.08
547.50	355.76
547.67	358.10
547.84	517.26
548.00	372.15
548.17	393.21
548.34	470.45
548.51	404.91
548.67	395.55
548.84	313.63
549.01	400.23
549.18	388.53
549.34	435.34
549.51	381.51
549.68	393.21
549.84	428.32
550.01	414.27
550.18	479.81
550.34	496.19
550.51	472.79
550.68	433.00
550.84	404.91
551.01	400.23
551.18	411.93
551.34	425.98
551.51	381.51
551.68	407.25
551.84	458.74
552.01	386.19
552.18	393.21
552.34	468.11
552.51	425.98
552.68	383.85
552.84	411.93
553.01	449.38
553.18	404.91
553.34	365.12
553.51	348.74
553.67	416.62
553.84	407.25
554.01	411.93
554.17	407.25
554.34	430.66
554.51	404.91
554.67	425.98
554.84	397.89
555.00	421.30
555.17	463.43
555.33	451.72
555.50	428.32
555.67	411.93
555.83	472.79
556.00	449.38
556.16	500.87
556.33	421.30
556.50	402.57
556.66	475.13
556.83	400.23
556.99	306.61
557.16	423.64
557.32	440.02
557.49	416.62
557.65	418.96
557.82	442.36
557.98	409.59
558.15	402.57
558.32	339.38
558.48	454.06
558.65	435.34
558.81	416.62
558.98	421.30
559.14	409.59
559.31	510.24
559.47	430.66
559.64	451.72
559.80	407.25
559.97	395.55
560.13	496.19
560.30	440.02
560.46	425.98
560.63	344.06
560.79	414.27
560.96	433.00
561.12	411.93
561.29	393.21
561.45	526.62
561.61	440.02
561.78	423.64
561.94	416.62
562.11	414.27
562.27	435.34
562.44	418.96
562.60	479.81
562.77	437.68
562.93	348.74
563.10	386.19
563.26	418.96
563.42	411.93
563.59	514.92
563.75	381.51
563.92	468.11
564.08	437.68
564.24	440.02
564.41	512.58
564.57	463.43
564.74	379.17
564.90	454.06
565.07	435.34
565.23	475.13
565.39	416.62
565.56	461.09
565.72	416.62
565.88	381.51
566.05	351.08
566.21	416.62
566.38	444.70
566.54	465.77
566.70	447.04
566.87	404.91
567.03	435.34
567.19	411.93
567.36	402.57
567.52	407.25
567.68	468.11
567.85	374.49
568.01	390.87
568.17	383.85
568.34	341.72
568.50	470.45
568.66	318.31
568.83	451.72
568.99	423.64
569.15	421.30
569.32	374.49
569.48	493.85
569.64	463.43
569.81	409.59
569.97	423.64
570.13	416.62
570.30	435.34
570.46	447.04
570.62	388.53
570.78	369.80
570.95	339.38
571.11	496.19
571.27	500.87
571.43	402.57
571.60	454.06
571.76	369.80
571.92	337.04
572.09	393.21
572.25	386.19
572.41	444.70
572.57	400.23
572.74	358.10
572.90	437.68
573.06	430.66
573.22	381.51
573.38	472.79
573.55	456.40
573.71	456.40
573.87	437.68
574.03	397.89
574.20	409.59
574.36	517.26
574.52	447.04
574.68	374.49
574.84	372.15
575.01	393.21
575.17	372.15
575.33	411.93
575.49	421.30
575.65	451.72
575.82	395.55
575.98	365.12
576.14	479.81
576.30	395.55
576.46	440.02
576.62	381.51
576.79	414.27
576.95	463.43
577.11	435.34
577.27	397.89
577.43	449.38
577.59	493.85
577.75	411.93
577.92	381.51
578.08	395.55
578.24	402.57
578.40	433.00
578.56	468.11
578.72	425.98
578.88	344.06
579.04	416.62
579.21	397.89
579.37	463.43
579.53	442.36
579.69	442.36
579.85	435.34
580.01	458.74
580.17	339.38
580.33	428.32
580.49	395.55
580.65	414.27
580.82	407.25
580.98	353.42
581.14	386.19
581.30	447.04
581.46	442.36
581.62	479.81
581.78	393.21
581.94	395.55
582.10	486.83
582.26	430.66
582.42	353.42
582.58	428.32
582.74	383.85
582.90	407.25
583.06	421.30
583.22	491.51
583.38	437.68
583.54	397.89
583.70	482.15
583.86	390.87
584.02	353.42
584.18	416.62
584.34	341.72
584.50	444.70
584.66	430.66
584.82	461.09
584.98	414.27
585.14	407.25
585.30	461.09
585.46	360.44
585.62	411.93
585.78	360.44
585.94	440.02
586.10	334.70
586.26	416.62
586.42	449.38
586.58	421.30
586.74	407.25
586.90	409.59
587.06	402.57
587.22	414.27
587.38	430.66
587.54	411.93
587.70	458.74
587.86	444.70
588.02	365.12
588.18	440.02
588.34	421.30
588.49	475.13
588.65	451.72
588.81	400.23
588.97	400.23
589.13	435.34
589.29	414.27
589.45	433.00
589.61	411.93
589.77	418.96
589.93	383.85
590.08	416.62
590.24	330.02
590.40	416.62
590.56	421.30
590.72	458.74
590.88	458.74
591.04	348.74
591.20	444.70
591.35	407.25
591.51	447.04
591.67	435.34
591.83	395.55
591.99	367.46
592.15	409.59
592.31	416.62
592.46	444.70
592.62	440.02
592.78	341.72
592.94	358.10
593.10	425.98
593.26	435.34
593.41	428.32
593.57	456.40
593.73	437.68
593.89	430.66
594.05	444.70
594.20	407.25
594.36	517.26
594.52	407.25
594.68	407.25
594.84	486.83
594.99	449.38
595.15	355.76
595.31	472.79
595.47	458.74
595.62	388.53
595.78	440.02
595.94	397.89
596.10	409.59
596.25	430.66
596.41	472.79
596.57	416.62
596.73	430.66
596.88	458.74
597.04	362.78
597.20	334.70
597.36	451.72
597.51	463.43
597.67	430.66
597.83	430.66
597.99	393.21
598.14	414.27
598.30	435.34
598.46	414.27
598.61	449.38
598.77	430.66
598.93	425.98
599.09	463.43
599.24	418.96
599.40	402.57
599.56	346.40
599.71	355.76
599.87	409.59
600.03	433.00
600.18	395.55
600.34	421.30
600.50	400.23
600.65	365.12
600.81	362.78
600.97	414.27
601.12	397.89
601.28	421.30
601.44	313.63
601.59	440.02
601.75	411.93
601.91	512.58
602.06	351.08
602.22	517.26
602.37	433.00
602.53	500.87
602.69	393.21
602.84	440.02
603.00	440.02
603.16	468.11
603.31	458.74
603.47	393.21
603.62	400.23
603.78	355.76
603.94	423.64
604.09	369.80
604.25	451.72
604.40	402.57
604.56	400.23
604.71	411.93
604.87	397.89
605.03	498.53
605.18	416.62
605.34	447.04
605.49	423.64
605.65	454.06
605.80	433.00
605.96	407.25
606.12	456.40
606.27	407.25
606.43	418.96
606.58	442.36
606.74	463.43
606.89	461.09
607.05	416.62
607.20	362.78
607.36	383.85
607.51	332.36
607.67	376.83
607.82	425.98
607.98	409.59
608.13	423.64
608.29	376.83
608.44	423.64
608.60	362.78
608.75	388.53
608.91	393.21
609.06	545.34
609.22	411.93
609.37	402.57
609.53	388.53
609.68	433.00
609.84	372.15
609.99	416.62
610.15	367.46
