SpectraSuite Data File
++++++++++++++++++++++++++++++++++++
Date: Fri Oct 25 12:11:36 EDT 2013
User: price-jones
Dark Spectrum Present: No
Reference Spectrum Present: No
Number of Sampled Component Spectra: 1
Spectrometers: USB2+H05261
Integration Time (usec): 100000 (USB2+H05261)
Spectra Averaged: 1 (USB2+H05261)
Boxcar Smoothing: 0 (USB2+H05261)
Correct for Electrical Dark: No (USB2+H05261)
Strobe/Lamp Enabled: No (USB2+H05261)
Correct for Detector Non-linearity: No (USB2+H05261)
Correct for Stray Light: No (USB2+H05261)
Number of Pixels in Processed Spectrum: 2048
>>>>>Begin Processed Spectral Data<<<<<
365.73	393.21
365.92	393.21
366.12	393.21
366.32	266.82
366.52	257.46
366.72	285.55
366.91	166.18
367.11	182.56
367.31	283.20
367.51	259.80
367.70	238.73
367.90	236.39
368.10	210.65
368.30	210.65
368.49	241.08
368.69	248.10
368.89	241.08
369.09	248.10
369.28	264.48
369.48	278.52
369.68	238.73
369.87	306.61
370.07	238.73
370.27	372.15
370.47	379.17
370.66	290.23
370.86	339.38
371.06	372.15
371.25	372.15
371.45	437.68
371.65	409.59
371.84	341.72
372.04	395.55
372.24	379.17
372.44	358.10
372.63	437.68
372.83	351.08
373.03	362.78
373.22	360.44
373.42	386.19
373.62	376.83
373.81	447.04
374.01	463.43
374.21	423.64
374.40	440.02
374.60	482.15
374.79	353.42
374.99	383.85
375.19	402.57
375.38	433.00
375.58	437.68
375.78	409.59
375.97	430.66
376.17	414.27
376.37	341.72
376.56	456.40
376.76	404.91
376.95	304.27
377.15	416.62
377.35	390.87
377.54	461.09
377.74	423.64
377.93	404.91
378.13	411.93
378.33	456.40
378.52	386.19
378.72	411.93
378.91	369.80
379.11	409.59
379.31	404.91
379.50	407.25
379.70	423.64
379.89	428.32
380.09	358.10
380.28	353.42
380.48	388.53
380.68	390.87
380.87	287.89
381.07	367.46
381.26	409.59
381.46	383.85
381.65	440.02
381.85	435.34
382.04	454.06
382.24	379.17
382.43	425.98
382.63	407.25
382.83	381.51
383.02	430.66
383.22	402.57
383.41	411.93
383.61	393.21
383.80	484.49
384.00	290.23
384.19	346.40
384.39	423.64
384.58	404.91
384.78	411.93
384.97	322.99
385.17	435.34
385.36	351.08
385.56	423.64
385.75	358.10
385.95	388.53
386.14	393.21
386.34	379.17
386.53	409.59
386.72	442.36
386.92	409.59
387.11	411.93
387.31	451.72
387.50	430.66
387.70	379.17
387.89	423.64
388.09	344.06
388.28	365.12
388.48	369.80
388.67	367.46
388.86	421.30
389.06	362.78
389.25	409.59
389.45	454.06
389.64	449.38
389.84	454.06
390.03	479.81
390.22	362.78
390.42	404.91
390.61	409.59
390.81	395.55
391.00	440.02
391.19	414.27
391.39	428.32
391.58	458.74
391.78	404.91
391.97	414.27
392.16	409.59
392.36	454.06
392.55	414.27
392.75	402.57
392.94	409.59
393.13	416.62
393.33	369.80
393.52	465.77
393.71	470.45
393.91	397.89
394.10	369.80
394.29	428.32
394.49	362.78
394.68	416.62
394.88	428.32
395.07	423.64
395.26	374.49
395.46	423.64
395.65	421.30
395.84	421.30
396.04	416.62
396.23	355.76
396.42	472.79
396.62	458.74
396.81	341.72
397.00	395.55
397.19	414.27
397.39	393.21
397.58	458.74
397.77	372.15
397.97	475.13
398.16	468.11
398.35	531.30
398.55	409.59
398.74	386.19
398.93	306.61
399.12	421.30
399.32	468.11
399.51	491.51
399.70	337.04
399.90	421.30
400.09	435.34
400.28	416.62
400.47	355.76
400.67	306.61
400.86	458.74
401.05	388.53
401.24	444.70
401.44	355.76
401.63	416.62
401.82	428.32
402.01	411.93
402.21	376.83
402.40	299.59
402.59	388.53
402.78	440.02
402.97	409.59
403.17	430.66
403.36	451.72
403.55	372.15
403.74	416.62
403.93	348.74
404.13	433.00
404.32	315.97
404.51	393.21
404.70	397.89
404.89	423.64
405.09	461.09
405.28	414.27
405.47	414.27
405.66	430.66
405.85	358.10
406.05	475.13
406.24	421.30
406.43	402.57
406.62	383.85
406.81	407.25
407.00	456.40
407.20	383.85
407.39	374.49
407.58	390.87
407.77	463.43
407.96	461.09
408.15	393.21
408.34	414.27
408.54	454.06
408.73	379.17
408.92	409.59
409.11	381.51
409.30	388.53
409.49	409.59
409.68	372.15
409.87	353.42
410.07	381.51
410.26	421.30
410.45	390.87
410.64	416.62
410.83	388.53
411.02	397.89
411.21	425.98
411.40	414.27
411.59	332.36
411.78	397.89
411.98	369.80
412.17	407.25
412.36	458.74
412.55	437.68
412.74	372.15
412.93	444.70
413.12	458.74
413.31	407.25
413.50	374.49
413.69	479.81
413.88	388.53
414.07	346.40
414.26	376.83
414.45	369.80
414.64	381.51
414.83	360.44
415.02	397.89
415.22	358.10
415.41	402.57
415.60	437.68
415.79	395.55
415.98	461.09
416.17	440.02
416.36	421.30
416.55	351.08
416.74	358.10
416.93	428.32
417.12	430.66
417.31	468.11
417.50	376.83
417.69	388.53
417.88	409.59
418.07	388.53
418.26	472.79
418.45	418.96
418.64	372.15
418.83	395.55
419.02	402.57
419.21	411.93
419.39	393.21
419.58	451.72
419.77	430.66
419.96	440.02
420.15	468.11
420.34	423.64
420.53	416.62
420.72	395.55
420.91	376.83
421.10	444.70
421.29	402.57
421.48	472.79
421.67	437.68
421.86	428.32
422.05	416.62
422.24	395.55
422.43	425.98
422.61	463.43
422.80	388.53
422.99	397.89
423.18	430.66
423.37	386.19
423.56	337.04
423.75	376.83
423.94	393.21
424.13	463.43
424.32	416.62
424.50	411.93
424.69	435.34
424.88	390.87
425.07	379.17
425.26	411.93
425.45	418.96
425.64	400.23
425.83	425.98
426.01	423.64
426.20	418.96
426.39	381.51
426.58	388.53
426.77	442.36
426.96	440.02
427.15	465.77
427.33	428.32
427.52	388.53
427.71	498.53
427.90	444.70
428.09	383.85
428.28	327.68
428.46	437.68
428.65	355.76
428.84	449.38
429.03	397.89
429.22	355.76
429.40	369.80
429.59	461.09
429.78	507.90
429.97	433.00
430.16	381.51
430.34	381.51
430.53	376.83
430.72	367.46
430.91	414.27
431.10	367.46
431.28	435.34
431.47	414.27
431.66	353.42
431.85	425.98
432.03	362.78
432.22	489.17
432.41	376.83
432.60	400.23
432.79	351.08
432.97	414.27
433.16	386.19
433.35	407.25
433.54	404.91
433.72	503.22
433.91	449.38
434.10	383.85
434.28	414.27
434.47	381.51
434.66	425.98
434.85	411.93
435.03	395.55
435.22	421.30
435.41	402.57
435.59	423.64
435.78	433.00
435.97	414.27
436.16	458.74
436.34	442.36
436.53	397.89
436.72	468.11
436.90	344.06
437.09	472.79
437.28	430.66
437.46	433.00
437.65	447.04
437.84	423.64
438.02	461.09
438.21	472.79
438.40	344.06
438.58	425.98
438.77	395.55
438.96	430.66
439.14	369.80
439.33	428.32
439.52	388.53
439.70	433.00
439.89	416.62
440.08	442.36
440.26	386.19
440.45	498.53
440.63	425.98
440.82	447.04
441.01	409.59
441.19	374.49
441.38	435.34
441.57	404.91
441.75	425.98
441.94	498.53
442.12	376.83
442.31	379.17
442.50	409.59
442.68	397.89
442.87	397.89
443.05	395.55
443.24	435.34
443.43	468.11
443.61	388.53
443.80	418.96
443.98	374.49
444.17	463.43
444.35	437.68
444.54	372.15
444.73	430.66
444.91	493.85
445.10	416.62
445.28	482.15
445.47	451.72
445.65	454.06
445.84	404.91
446.02	397.89
446.21	404.91
446.39	470.45
446.58	468.11
446.77	416.62
446.95	381.51
447.14	461.09
447.32	454.06
447.51	360.44
447.69	360.44
447.88	411.93
448.06	411.93
448.25	444.70
448.43	433.00
448.62	393.21
448.80	416.62
448.99	386.19
449.17	376.83
449.36	435.34
449.54	449.38
449.73	414.27
449.91	435.34
450.10	308.95
450.28	437.68
450.46	482.15
450.65	442.36
450.83	430.66
451.02	442.36
451.20	400.23
451.39	454.06
451.57	325.33
451.76	472.79
451.94	484.49
452.13	433.00
452.31	444.70
452.49	437.68
452.68	339.38
452.86	376.83
453.05	428.32
453.23	393.21
453.42	435.34
453.60	472.79
453.78	482.15
453.97	369.80
454.15	360.44
454.34	458.74
454.52	381.51
454.70	507.90
454.89	407.25
455.07	484.49
455.26	381.51
455.44	397.89
455.62	400.23
455.81	411.93
455.99	397.89
456.17	442.36
456.36	428.32
456.54	505.56
456.73	381.51
456.91	330.02
457.09	395.55
457.28	468.11
457.46	390.87
457.64	428.32
457.83	407.25
458.01	496.19
458.19	414.27
458.38	383.85
458.56	409.59
458.74	379.17
458.93	440.02
459.11	397.89
459.29	428.32
459.48	362.78
459.66	496.19
459.84	447.04
460.03	423.64
460.21	437.68
460.39	379.17
460.57	395.55
460.76	477.47
460.94	414.27
461.12	461.09
461.31	442.36
461.49	369.80
461.67	470.45
461.85	444.70
462.04	409.59
462.22	720.88
462.40	430.66
462.59	409.59
462.77	433.00
462.95	397.89
463.13	341.72
463.32	360.44
463.50	348.74
463.68	393.21
463.86	379.17
464.05	341.72
464.23	435.34
464.41	416.62
464.59	444.70
464.78	444.70
464.96	390.87
465.14	444.70
465.32	430.66
465.50	376.83
465.69	407.25
465.87	360.44
466.05	437.68
466.23	386.19
466.41	484.49
466.60	428.32
466.78	390.87
466.96	449.38
467.14	423.64
467.32	416.62
467.51	376.83
467.69	447.04
467.87	418.96
468.05	400.23
468.23	416.62
468.41	421.30
468.60	383.85
468.78	430.66
468.96	395.55
469.14	358.10
469.32	365.12
469.50	440.02
469.69	454.06
469.87	430.66
470.05	388.53
470.23	428.32
470.41	365.12
470.59	430.66
470.77	351.08
470.95	351.08
471.14	500.87
471.32	414.27
471.50	454.06
471.68	440.02
471.86	409.59
472.04	404.91
472.22	451.72
472.40	402.57
472.58	433.00
472.77	400.23
472.95	418.96
473.13	451.72
473.31	514.92
473.49	423.64
473.67	442.36
473.85	383.85
474.03	449.38
474.21	430.66
474.39	461.09
474.57	411.93
474.75	409.59
474.93	491.51
475.12	306.61
475.30	341.72
475.48	409.59
475.66	454.06
475.84	379.17
476.02	388.53
476.20	395.55
476.38	400.23
476.56	456.40
476.74	414.27
476.92	390.87
477.10	393.21
477.28	376.83
477.46	468.11
477.64	447.04
477.82	400.23
478.00	425.98
478.18	386.19
478.36	381.51
478.54	386.19
478.72	430.66
478.90	430.66
479.08	388.53
479.26	341.72
479.44	393.21
479.62	425.98
479.80	409.59
479.98	402.57
480.16	383.85
480.34	428.32
480.52	440.02
480.70	407.25
480.88	407.25
481.06	428.32
481.24	397.89
481.41	425.98
481.59	362.78
481.77	416.62
481.95	351.08
482.13	386.19
482.31	383.85
482.49	379.17
482.67	423.64
482.85	454.06
483.03	397.89
483.21	425.98
483.39	505.56
483.57	348.74
483.74	444.70
483.92	416.62
484.10	360.44
484.28	400.23
484.46	447.04
484.64	449.38
484.82	484.49
485.00	442.36
485.18	365.12
485.35	430.66
485.53	404.91
485.71	451.72
485.89	397.89
486.07	393.21
486.25	444.70
486.43	433.00
486.61	458.74
486.78	428.32
486.96	395.55
487.14	414.27
487.32	409.59
487.50	416.62
487.68	454.06
487.85	346.40
488.03	507.90
488.21	454.06
488.39	463.43
488.57	409.59
488.75	456.40
488.92	521.94
489.10	369.80
489.28	489.17
489.46	454.06
489.64	435.34
489.81	475.13
489.99	423.64
490.17	479.81
490.35	393.21
490.53	456.40
490.70	425.98
490.88	440.02
491.06	372.15
491.24	402.57
491.41	365.12
491.59	388.53
491.77	381.51
491.95	458.74
492.13	409.59
492.30	379.17
492.48	425.98
492.66	421.30
492.84	442.36
493.01	458.74
493.19	482.15
493.37	484.49
493.54	351.08
493.72	430.66
493.90	402.57
494.08	423.64
494.25	447.04
494.43	381.51
494.61	449.38
494.79	442.36
494.96	442.36
495.14	390.87
495.32	425.98
495.49	449.38
495.67	433.00
495.85	454.06
496.02	365.12
496.20	440.02
496.38	414.27
496.55	393.21
496.73	482.15
496.91	383.85
497.09	397.89
497.26	393.21
497.44	400.23
497.62	376.83
497.79	407.25
497.97	421.30
498.14	386.19
498.32	409.59
498.50	418.96
498.67	416.62
498.85	402.57
499.03	376.83
499.20	425.98
499.38	411.93
499.56	433.00
499.73	418.96
499.91	449.38
500.08	437.68
500.26	440.02
500.44	409.59
500.61	365.12
500.79	411.93
500.97	379.17
501.14	423.64
501.32	372.15
501.49	381.51
501.67	369.80
501.84	383.85
502.02	430.66
502.20	411.93
502.37	465.77
502.55	418.96
502.72	456.40
502.90	461.09
503.07	470.45
503.25	407.25
503.43	507.90
503.60	440.02
503.78	421.30
503.95	383.85
504.13	402.57
504.30	430.66
504.48	507.90
504.65	404.91
504.83	418.96
505.01	425.98
505.18	451.72
505.36	407.25
505.53	430.66
505.71	425.98
505.88	444.70
506.06	388.53
506.23	355.76
506.41	404.91
506.58	393.21
506.76	421.30
506.93	390.87
507.11	353.42
507.28	468.11
507.46	470.45
507.63	430.66
507.81	388.53
507.98	437.68
508.16	409.59
508.33	407.25
508.50	440.02
508.68	376.83
508.85	388.53
509.03	388.53
509.20	407.25
509.38	416.62
509.55	447.04
509.73	435.34
509.90	486.83
510.08	358.10
510.25	456.40
510.42	418.96
510.60	404.91
510.77	447.04
510.95	400.23
511.12	433.00
511.30	451.72
511.47	404.91
511.64	470.45
511.82	421.30
511.99	346.40
512.17	334.70
512.34	421.30
512.51	344.06
512.69	472.79
512.86	379.17
513.04	348.74
513.21	498.53
513.38	423.64
513.56	397.89
513.73	437.68
513.90	402.57
514.08	355.76
514.25	409.59
514.43	430.66
514.60	393.21
514.77	322.99
514.95	428.32
515.12	423.64
515.29	397.89
515.47	465.77
515.64	475.13
515.81	376.83
515.99	414.27
516.16	423.64
516.33	451.72
516.51	425.98
516.68	383.85
516.85	379.17
517.03	414.27
517.20	414.27
517.37	411.93
517.54	435.34
517.72	322.99
517.89	425.98
518.06	430.66
518.24	397.89
518.41	468.11
518.58	372.15
518.75	348.74
518.93	411.93
519.10	421.30
519.27	358.10
519.45	390.87
519.62	397.89
519.79	402.57
519.96	461.09
520.14	409.59
520.31	449.38
520.48	388.53
520.65	437.68
520.83	433.00
521.00	491.51
521.17	362.78
521.34	411.93
521.52	383.85
521.69	437.68
521.86	414.27
522.03	395.55
522.20	451.72
522.38	416.62
522.55	461.09
522.72	449.38
522.89	428.32
523.07	458.74
523.24	454.06
523.41	451.72
523.58	479.81
523.75	414.27
523.92	451.72
524.10	458.74
524.27	433.00
524.44	346.40
524.61	402.57
524.78	430.66
524.96	425.98
525.13	465.77
525.30	430.66
525.47	456.40
525.64	402.57
525.81	407.25
525.98	372.15
526.16	390.87
526.33	489.17
526.50	458.74
526.67	390.87
526.84	409.59
527.01	461.09
527.18	440.02
527.36	400.23
527.53	418.96
527.70	376.83
527.87	421.30
528.04	454.06
528.21	430.66
528.38	418.96
528.55	433.00
528.72	444.70
528.89	379.17
529.07	491.51
529.24	447.04
529.41	498.53
529.58	383.85
529.75	493.85
529.92	475.13
530.09	461.09
530.26	486.83
530.43	449.38
530.60	425.98
530.77	393.21
530.94	390.87
531.11	409.59
531.28	414.27
531.46	411.93
531.63	325.33
531.80	475.13
531.97	428.32
532.14	430.66
532.31	409.59
532.48	447.04
532.65	400.23
532.82	402.57
532.99	421.30
533.16	374.49
533.33	475.13
533.50	421.30
533.67	374.49
533.84	454.06
534.01	444.70
534.18	433.00
534.35	425.98
534.52	397.89
534.69	407.25
534.86	360.44
535.03	402.57
535.20	465.77
535.37	411.93
535.54	421.30
535.71	489.17
535.88	496.19
536.05	411.93
536.22	379.17
536.38	418.96
536.55	353.42
536.72	402.57
536.89	365.12
537.06	393.21
537.23	451.72
537.40	407.25
537.57	409.59
537.74	521.94
537.91	409.59
538.08	463.43
538.25	416.62
538.42	411.93
538.59	430.66
538.75	440.02
538.92	374.49
539.09	402.57
539.26	416.62
539.43	475.13
539.60	358.10
539.77	463.43
539.94	400.23
540.11	423.64
540.28	465.77
540.44	442.36
540.61	395.55
540.78	423.64
540.95	348.74
541.12	435.34
541.29	355.76
541.46	437.68
541.62	430.66
541.79	425.98
541.96	367.46
542.13	437.68
542.30	423.64
542.47	409.59
542.63	447.04
542.80	444.70
542.97	397.89
543.14	470.45
543.31	425.98
543.48	430.66
543.64	440.02
543.81	418.96
543.98	418.96
544.15	367.46
544.32	395.55
544.48	365.12
544.65	395.55
544.82	454.06
544.99	461.09
545.16	458.74
545.32	430.66
545.49	454.06
545.66	472.79
545.83	400.23
546.00	372.15
546.16	390.87
546.33	411.93
546.50	416.62
546.67	416.62
546.83	482.15
547.00	414.27
547.17	447.04
547.34	423.64
547.50	437.68
547.67	425.98
547.84	407.25
548.00	451.72
548.17	404.91
548.34	409.59
548.51	440.02
548.67	407.25
548.84	463.43
549.01	334.70
549.18	425.98
549.34	423.64
549.51	379.17
549.68	428.32
549.84	437.68
550.01	339.38
550.18	456.40
550.34	557.05
550.51	423.64
550.68	376.83
550.84	414.27
551.01	308.95
551.18	475.13
551.34	395.55
551.51	449.38
551.68	421.30
551.84	414.27
552.01	444.70
552.18	409.59
552.34	365.12
552.51	404.91
552.68	421.30
552.84	414.27
553.01	423.64
553.18	393.21
553.34	503.22
553.51	449.38
553.67	409.59
553.84	472.79
554.01	486.83
554.17	428.32
554.34	423.64
554.51	465.77
554.67	425.98
554.84	440.02
555.00	496.19
555.17	491.51
555.33	421.30
555.50	404.91
555.67	440.02
555.83	461.09
556.00	416.62
556.16	531.30
556.33	486.83
556.50	444.70
556.66	358.10
556.83	320.65
556.99	395.55
557.16	411.93
557.32	418.96
557.49	374.49
557.65	454.06
557.82	395.55
557.98	404.91
558.15	400.23
558.32	423.64
558.48	369.80
558.65	440.02
558.81	428.32
558.98	388.53
559.14	440.02
559.31	411.93
559.47	393.21
559.64	498.53
559.80	428.32
559.97	393.21
560.13	358.10
560.30	397.89
560.46	386.19
560.63	372.15
560.79	449.38
560.96	400.23
561.12	409.59
561.29	463.43
561.45	414.27
561.61	447.04
561.78	489.17
561.94	411.93
562.11	390.87
562.27	411.93
562.44	414.27
562.60	358.10
562.77	458.74
562.93	409.59
563.10	374.49
563.26	458.74
563.42	428.32
563.59	444.70
563.75	374.49
563.92	458.74
564.08	475.13
564.24	444.70
564.41	379.17
564.57	440.02
564.74	437.68
564.90	428.32
565.07	449.38
565.23	390.87
565.39	444.70
565.56	395.55
565.72	454.06
565.88	484.49
566.05	369.80
566.21	425.98
566.38	416.62
566.54	447.04
566.70	418.96
566.87	407.25
567.03	320.65
567.19	470.45
567.36	444.70
567.52	435.34
567.68	388.53
567.85	423.64
568.01	418.96
568.17	435.34
568.34	402.57
568.50	496.19
568.66	423.64
568.83	461.09
568.99	388.53
569.15	559.39
569.32	447.04
569.48	477.47
569.64	421.30
569.81	372.15
569.97	362.78
570.13	402.57
570.30	416.62
570.46	418.96
570.62	475.13
570.78	388.53
570.95	428.32
571.11	411.93
571.27	456.40
571.43	416.62
571.60	461.09
571.76	383.85
571.92	388.53
572.09	390.87
572.25	360.44
572.41	414.27
572.57	461.09
572.74	449.38
572.90	418.96
573.06	484.49
573.22	435.34
573.38	472.79
573.55	454.06
573.71	395.55
573.87	418.96
574.03	447.04
574.20	409.59
574.36	402.57
574.52	411.93
574.68	414.27
574.84	372.15
575.01	390.87
575.17	395.55
575.33	428.32
575.49	461.09
575.65	461.09
575.82	500.87
575.98	437.68
576.14	414.27
576.30	428.32
576.46	348.74
576.62	465.77
576.79	433.00
576.95	411.93
577.11	489.17
577.27	425.98
577.43	421.30
577.59	447.04
577.75	409.59
577.92	425.98
578.08	390.87
578.24	423.64
578.40	456.40
578.56	472.79
578.72	442.36
578.88	425.98
579.04	433.00
579.21	433.00
579.37	465.77
579.53	414.27
579.69	400.23
579.85	376.83
580.01	444.70
580.17	395.55
580.33	449.38
580.49	397.89
580.65	416.62
580.82	400.23
580.98	447.04
581.14	388.53
581.30	428.32
581.46	383.85
581.62	479.81
581.78	423.64
581.94	425.98
582.10	407.25
582.26	447.04
582.42	393.21
582.58	411.93
582.74	430.66
582.90	407.25
583.06	376.83
583.22	454.06
583.38	442.36
583.54	442.36
583.70	400.23
583.86	428.32
584.02	411.93
584.18	437.68
584.34	381.51
584.50	416.62
584.66	442.36
584.82	395.55
584.98	430.66
585.14	465.77
585.30	423.64
585.46	472.79
585.62	435.34
585.78	381.51
585.94	397.89
586.10	379.17
586.26	528.96
586.42	477.47
586.58	411.93
586.74	444.70
586.90	411.93
587.06	461.09
587.22	346.40
587.38	400.23
587.54	463.43
587.70	451.72
587.86	374.49
588.02	362.78
588.18	484.49
588.34	477.47
588.49	383.85
588.65	465.77
588.81	404.91
588.97	376.83
589.13	442.36
589.29	475.13
589.45	393.21
589.61	390.87
589.77	423.64
589.93	407.25
590.08	395.55
590.24	430.66
590.40	440.02
590.56	463.43
590.72	470.45
590.88	365.12
591.04	362.78
591.20	433.00
591.35	423.64
591.51	421.30
591.67	535.98
591.83	425.98
591.99	477.47
592.15	500.87
592.31	449.38
592.46	433.00
592.62	411.93
592.78	411.93
592.94	346.40
593.10	451.72
593.26	437.68
593.41	472.79
593.57	386.19
593.73	383.85
593.89	491.51
594.05	423.64
594.20	400.23
594.36	475.13
594.52	416.62
594.68	418.96
594.84	395.55
594.99	418.96
595.15	409.59
595.31	475.13
595.47	393.21
595.62	468.11
595.78	425.98
595.94	390.87
596.10	425.98
596.25	477.47
596.41	397.89
596.57	397.89
596.73	339.38
596.88	348.74
597.04	348.74
597.20	400.23
597.36	374.49
597.51	472.79
597.67	440.02
597.83	440.02
597.99	365.12
598.14	402.57
598.30	458.74
598.46	456.40
598.61	463.43
598.77	409.59
598.93	440.02
599.09	425.98
599.24	416.62
599.40	465.77
599.56	463.43
599.71	374.49
599.87	451.72
600.03	451.72
600.18	435.34
600.34	465.77
600.50	355.76
600.65	454.06
600.81	414.27
600.97	505.56
601.12	388.53
601.28	465.77
601.44	411.93
601.59	442.36
601.75	404.91
601.91	498.53
602.06	433.00
602.22	444.70
602.37	308.95
602.53	440.02
602.69	383.85
602.84	365.12
603.00	491.51
603.16	421.30
603.31	442.36
603.47	505.56
603.62	461.09
603.78	454.06
603.94	383.85
604.09	428.32
604.25	435.34
604.40	444.70
604.56	369.80
604.71	409.59
604.87	435.34
605.03	458.74
605.18	397.89
605.34	444.70
605.49	451.72
605.65	395.55
605.80	339.38
605.96	435.34
606.12	407.25
606.27	404.91
606.43	402.57
606.58	430.66
606.74	433.00
606.89	395.55
607.05	423.64
607.20	400.23
607.36	421.30
607.51	346.40
607.67	428.32
607.82	449.38
607.98	468.11
608.13	421.30
608.29	400.23
608.44	416.62
608.60	435.34
608.75	395.55
608.91	442.36
609.06	503.22
609.22	482.15
609.37	374.49
609.53	379.17
609.68	404.91
609.84	348.74
609.99	409.59
610.15	463.43
