SpectraSuite Data File
++++++++++++++++++++++++++++++++++++
Date: Fri Oct 25 12:11:47 EDT 2013
User: price-jones
Dark Spectrum Present: No
Reference Spectrum Present: No
Number of Sampled Component Spectra: 1
Spectrometers: USB2+H05261
Integration Time (usec): 100000 (USB2+H05261)
Spectra Averaged: 1 (USB2+H05261)
Boxcar Smoothing: 0 (USB2+H05261)
Correct for Electrical Dark: No (USB2+H05261)
Strobe/Lamp Enabled: No (USB2+H05261)
Correct for Detector Non-linearity: No (USB2+H05261)
Correct for Stray Light: No (USB2+H05261)
Number of Pixels in Processed Spectrum: 2048
>>>>>Begin Processed Spectral Data<<<<<
365.73	383.85
365.92	383.85
366.12	383.85
366.32	271.50
366.52	245.76
366.72	255.12
366.91	287.89
367.11	297.25
367.31	177.88
367.51	212.99
367.70	227.03
367.90	311.29
368.10	273.84
368.30	163.84
368.49	245.76
368.69	271.50
368.89	297.25
369.09	229.37
369.28	290.23
369.48	259.80
369.68	278.52
369.87	337.04
370.07	294.91
370.27	390.87
370.47	292.57
370.66	376.83
370.86	304.27
371.06	421.30
371.25	369.80
371.45	322.99
371.65	402.57
371.84	327.68
372.04	447.04
372.24	416.62
372.44	362.78
372.63	376.83
372.83	386.19
373.03	447.04
373.22	437.68
373.42	451.72
373.62	411.93
373.81	447.04
374.01	456.40
374.21	482.15
374.40	444.70
374.60	454.06
374.79	402.57
374.99	404.91
375.19	416.62
375.38	458.74
375.58	425.98
375.78	400.23
375.97	376.83
376.17	397.89
376.37	341.72
376.56	442.36
376.76	428.32
376.95	414.27
377.15	440.02
377.35	400.23
377.54	402.57
377.74	383.85
377.93	447.04
378.13	404.91
378.33	407.25
378.52	360.44
378.72	388.53
378.91	411.93
379.11	393.21
379.31	411.93
379.50	444.70
379.70	383.85
379.89	376.83
380.09	369.80
380.28	397.89
380.48	428.32
380.68	379.17
380.87	414.27
381.07	472.79
381.26	428.32
381.46	430.66
381.65	386.19
381.85	456.40
382.04	416.62
382.24	379.17
382.43	451.72
382.63	346.40
382.83	330.02
383.02	433.00
383.22	470.45
383.41	393.21
383.61	428.32
383.80	386.19
384.00	421.30
384.19	425.98
384.39	442.36
384.58	428.32
384.78	386.19
384.97	484.49
385.17	416.62
385.36	390.87
385.56	463.43
385.75	423.64
385.95	444.70
386.14	458.74
386.34	451.72
386.53	376.83
386.72	358.10
386.92	428.32
387.11	437.68
387.31	451.72
387.50	411.93
387.70	379.17
387.89	416.62
388.09	393.21
388.28	358.10
388.48	421.30
388.67	416.62
388.86	461.09
389.06	374.49
389.25	454.06
389.45	390.87
389.64	421.30
389.84	428.32
390.03	444.70
390.22	456.40
390.42	374.49
390.61	437.68
390.81	372.15
391.00	383.85
391.19	430.66
391.39	365.12
391.58	355.76
391.78	425.98
391.97	433.00
392.16	386.19
392.36	404.91
392.55	463.43
392.75	463.43
392.94	407.25
393.13	433.00
393.33	365.12
393.52	421.30
393.71	447.04
393.91	379.17
394.10	416.62
394.29	402.57
394.49	322.99
394.68	362.78
394.88	418.96
395.07	383.85
395.26	404.91
395.46	409.59
395.65	463.43
395.84	402.57
396.04	449.38
396.23	425.98
396.42	348.74
396.62	447.04
396.81	449.38
397.00	346.40
397.19	437.68
397.39	430.66
397.58	433.00
397.77	461.09
397.97	425.98
398.16	411.93
398.35	386.19
398.55	411.93
398.74	409.59
398.93	442.36
399.12	430.66
399.32	435.34
399.51	383.85
399.70	430.66
399.90	409.59
400.09	442.36
400.28	433.00
400.47	369.80
400.67	372.15
400.86	430.66
401.05	393.21
401.24	386.19
401.44	404.91
401.63	351.08
401.82	454.06
402.01	397.89
402.21	491.51
402.40	454.06
402.59	404.91
402.78	430.66
402.97	418.96
403.17	386.19
403.36	416.62
403.55	447.04
403.74	360.44
403.93	395.55
404.13	442.36
404.32	383.85
404.51	433.00
404.70	414.27
404.89	421.30
405.09	451.72
405.28	461.09
405.47	428.32
405.66	386.19
405.85	440.02
406.05	475.13
406.24	496.19
406.43	369.80
406.62	437.68
406.81	400.23
407.00	421.30
407.20	418.96
407.39	334.70
407.58	409.59
407.77	407.25
407.96	442.36
408.15	407.25
408.34	367.46
408.54	367.46
408.73	351.08
408.92	390.87
409.11	381.51
409.30	437.68
409.49	435.34
409.68	458.74
409.87	442.36
410.07	404.91
410.26	390.87
410.45	425.98
410.64	416.62
410.83	353.42
411.02	388.53
411.21	393.21
411.40	430.66
411.59	428.32
411.78	344.06
411.98	414.27
412.17	348.74
412.36	369.80
412.55	428.32
412.74	393.21
412.93	489.17
413.12	400.23
413.31	337.04
413.50	489.17
413.69	468.11
413.88	465.77
414.07	423.64
414.26	402.57
414.45	353.42
414.64	397.89
414.83	423.64
415.02	444.70
415.22	383.85
415.41	341.72
415.60	440.02
415.79	421.30
415.98	390.87
416.17	365.12
416.36	330.02
416.55	397.89
416.74	423.64
416.93	425.98
417.12	367.46
417.31	393.21
417.50	376.83
417.69	486.83
417.88	395.55
418.07	374.49
418.26	425.98
418.45	477.47
418.64	463.43
418.83	374.49
419.02	421.30
419.21	393.21
419.39	477.47
419.58	470.45
419.77	365.12
419.96	425.98
420.15	498.53
420.34	383.85
420.53	418.96
420.72	425.98
420.91	423.64
421.10	369.80
421.29	407.25
421.48	430.66
421.67	397.89
421.86	320.65
422.05	388.53
422.24	400.23
422.43	449.38
422.61	402.57
422.80	435.34
422.99	383.85
423.18	397.89
423.37	440.02
423.56	339.38
423.75	472.79
423.94	376.83
424.13	348.74
424.32	367.46
424.50	409.59
424.69	365.12
424.88	360.44
425.07	259.80
425.26	393.21
425.45	477.47
425.64	433.00
425.83	341.72
426.01	493.85
426.20	447.04
426.39	425.98
426.58	334.70
426.77	423.64
426.96	383.85
427.15	393.21
427.33	433.00
427.52	374.49
427.71	428.32
427.90	468.11
428.09	418.96
428.28	423.64
428.46	372.15
428.65	353.42
428.84	411.93
429.03	454.06
429.22	491.51
429.40	386.19
429.59	505.56
429.78	428.32
429.97	449.38
430.16	355.76
430.34	379.17
430.53	444.70
430.72	395.55
430.91	479.81
431.10	400.23
431.28	444.70
431.47	360.44
431.66	404.91
431.85	416.62
432.03	409.59
432.22	456.40
432.41	444.70
432.60	479.81
432.79	442.36
432.97	407.25
433.16	489.17
433.35	402.57
433.54	416.62
433.72	444.70
433.91	411.93
434.10	374.49
434.28	442.36
434.47	456.40
434.66	346.40
434.85	447.04
435.03	454.06
435.22	365.12
435.41	348.74
435.59	470.45
435.78	418.96
435.97	463.43
436.16	454.06
436.34	418.96
436.53	381.51
436.72	503.22
436.90	433.00
437.09	409.59
437.28	397.89
437.46	472.79
437.65	400.23
437.84	451.72
438.02	418.96
438.21	423.64
438.40	339.38
438.58	425.98
438.77	486.83
438.96	447.04
439.14	428.32
439.33	402.57
439.52	416.62
439.70	393.21
439.89	428.32
440.08	409.59
440.26	416.62
440.45	463.43
440.63	400.23
440.82	400.23
441.01	416.62
441.19	390.87
441.38	355.76
441.57	388.53
441.75	428.32
441.94	416.62
442.12	442.36
442.31	430.66
442.50	351.08
442.68	435.34
442.87	372.15
443.05	407.25
443.24	454.06
443.43	393.21
443.61	437.68
443.80	418.96
443.98	388.53
444.17	435.34
444.35	425.98
444.54	454.06
444.73	414.27
444.91	411.93
445.10	425.98
445.28	425.98
445.47	327.68
445.65	442.36
445.84	461.09
446.02	428.32
446.21	388.53
446.39	449.38
446.58	444.70
446.77	395.55
446.95	397.89
447.14	416.62
447.32	486.83
447.51	461.09
447.69	400.23
447.88	400.23
448.06	407.25
448.25	458.74
448.43	341.72
448.62	383.85
448.80	458.74
448.99	425.98
449.17	407.25
449.36	369.80
449.54	416.62
449.73	418.96
449.91	437.68
450.10	416.62
450.28	430.66
450.46	449.38
450.65	440.02
450.83	491.51
451.02	400.23
451.20	416.62
451.39	451.72
451.57	358.10
451.76	400.23
451.94	482.15
452.13	503.22
452.31	395.55
452.49	388.53
452.68	379.17
452.86	440.02
453.05	444.70
453.23	468.11
453.42	411.93
453.60	470.45
453.78	369.80
453.97	381.51
454.15	400.23
454.34	411.93
454.52	404.91
454.70	475.13
454.89	479.81
455.07	381.51
455.26	470.45
455.44	418.96
455.62	409.59
455.81	393.21
455.99	421.30
456.17	383.85
456.36	395.55
456.54	386.19
456.73	402.57
456.91	477.47
457.09	421.30
457.28	465.77
457.46	346.40
457.64	503.22
457.83	435.34
458.01	414.27
458.19	503.22
458.38	376.83
458.56	484.49
458.74	400.23
458.93	430.66
459.11	421.30
459.29	454.06
459.48	414.27
459.66	374.49
459.84	397.89
460.03	447.04
460.21	388.53
460.39	428.32
460.57	458.74
460.76	322.99
460.94	353.42
461.12	409.59
461.31	397.89
461.49	376.83
461.67	428.32
461.85	454.06
462.04	454.06
462.22	788.76
462.40	435.34
462.59	442.36
462.77	423.64
462.95	411.93
463.13	430.66
463.32	468.11
463.50	468.11
463.68	430.66
463.86	428.32
464.05	479.81
464.23	496.19
464.41	367.46
464.59	409.59
464.78	330.02
464.96	351.08
465.14	428.32
465.32	402.57
465.50	428.32
465.69	465.77
465.87	397.89
466.05	470.45
466.23	404.91
466.41	376.83
466.60	388.53
466.78	451.72
466.96	461.09
467.14	433.00
467.32	491.51
467.51	444.70
467.69	500.87
467.87	486.83
468.05	397.89
468.23	465.77
468.41	430.66
468.60	390.87
468.78	449.38
468.96	428.32
469.14	451.72
469.32	498.53
469.50	383.85
469.69	397.89
469.87	374.49
470.05	475.13
470.23	435.34
470.41	379.17
470.59	425.98
470.77	407.25
470.95	442.36
471.14	393.21
471.32	367.46
471.50	503.22
471.68	461.09
471.86	503.22
472.04	393.21
472.22	383.85
472.40	402.57
472.58	451.72
472.77	416.62
472.95	402.57
473.13	390.87
473.31	521.94
473.49	411.93
473.67	393.21
473.85	421.30
474.03	486.83
474.21	416.62
474.39	407.25
474.57	358.10
474.75	381.51
474.93	447.04
475.12	367.46
475.30	379.17
475.48	423.64
475.66	358.10
475.84	388.53
476.02	404.91
476.20	393.21
476.38	397.89
476.56	475.13
476.74	428.32
476.92	423.64
477.10	365.12
477.28	444.70
477.46	367.46
477.64	386.19
477.82	404.91
478.00	395.55
478.18	433.00
478.36	421.30
478.54	353.42
478.72	348.74
478.90	355.76
479.08	379.17
479.26	428.32
479.44	454.06
479.62	330.02
479.80	358.10
479.98	393.21
480.16	435.34
480.34	395.55
480.52	393.21
480.70	400.23
480.88	430.66
481.06	388.53
481.24	435.34
481.41	423.64
481.59	423.64
481.77	465.77
481.95	437.68
482.13	430.66
482.31	442.36
482.49	451.72
482.67	458.74
482.85	433.00
483.03	435.34
483.21	362.78
483.39	351.08
483.57	397.89
483.74	433.00
483.92	397.89
484.10	386.19
484.28	475.13
484.46	428.32
484.64	355.76
484.82	411.93
485.00	393.21
485.18	468.11
485.35	423.64
485.53	451.72
485.71	407.25
485.89	451.72
486.07	447.04
486.25	458.74
486.43	451.72
486.61	404.91
486.78	461.09
486.96	395.55
487.14	353.42
487.32	365.12
487.50	372.15
487.68	346.40
487.85	454.06
488.03	404.91
488.21	404.91
488.39	395.55
488.57	369.80
488.75	442.36
488.92	561.73
489.10	491.51
489.28	430.66
489.46	395.55
489.64	433.00
489.81	454.06
489.99	440.02
490.17	470.45
490.35	433.00
490.53	402.57
490.70	451.72
490.88	404.91
491.06	393.21
491.24	423.64
491.41	470.45
491.59	369.80
491.77	498.53
491.95	444.70
492.13	400.23
492.30	348.74
492.48	465.77
492.66	456.40
492.84	437.68
493.01	393.21
493.19	472.79
493.37	477.47
493.54	442.36
493.72	433.00
493.90	379.17
494.08	393.21
494.25	430.66
494.43	433.00
494.61	404.91
494.79	428.32
494.96	421.30
495.14	425.98
495.32	423.64
495.49	372.15
495.67	372.15
495.85	430.66
496.02	416.62
496.20	465.77
496.38	376.83
496.55	421.30
496.73	461.09
496.91	411.93
497.09	433.00
497.26	362.78
497.44	425.98
497.62	327.68
497.79	517.26
497.97	451.72
498.14	444.70
498.32	379.17
498.50	430.66
498.67	379.17
498.85	411.93
499.03	461.09
499.20	402.57
499.38	353.42
499.56	470.45
499.73	500.87
499.91	404.91
500.08	404.91
500.26	355.76
500.44	344.06
500.61	440.02
500.79	383.85
500.97	409.59
501.14	407.25
501.32	365.12
501.49	444.70
501.67	416.62
501.84	477.47
502.02	433.00
502.20	440.02
502.37	470.45
502.55	362.78
502.72	468.11
502.90	388.53
503.07	400.23
503.25	461.09
503.43	404.91
503.60	430.66
503.78	390.87
503.95	404.91
504.13	397.89
504.30	463.43
504.48	433.00
504.65	447.04
504.83	505.56
505.01	353.42
505.18	414.27
505.36	451.72
505.53	428.32
505.71	397.89
505.88	374.49
506.06	339.38
506.23	433.00
506.41	451.72
506.58	421.30
506.76	425.98
506.93	433.00
507.11	376.83
507.28	393.21
507.46	386.19
507.63	418.96
507.81	444.70
507.98	393.21
508.16	423.64
508.33	491.51
508.50	461.09
508.68	402.57
508.85	486.83
509.03	397.89
509.20	393.21
509.38	411.93
509.55	414.27
509.73	400.23
509.90	475.13
510.08	383.85
510.25	465.77
510.42	461.09
510.60	400.23
510.77	372.15
510.95	393.21
511.12	440.02
511.30	430.66
511.47	428.32
511.64	454.06
511.82	461.09
511.99	442.36
512.17	416.62
512.34	358.10
512.51	400.23
512.69	400.23
512.86	486.83
513.04	379.17
513.21	451.72
513.38	428.32
513.56	458.74
513.73	407.25
513.90	411.93
514.08	386.19
514.25	393.21
514.43	407.25
514.60	365.12
514.77	383.85
514.95	374.49
515.12	454.06
515.29	393.21
515.47	416.62
515.64	484.49
515.81	395.55
515.99	435.34
516.16	526.62
516.33	456.40
516.51	442.36
516.68	374.49
516.85	353.42
517.03	451.72
517.20	418.96
517.37	388.53
517.54	379.17
517.72	393.21
517.89	428.32
518.06	414.27
518.24	449.38
518.41	463.43
518.58	470.45
518.75	407.25
518.93	447.04
519.10	456.40
519.27	433.00
519.45	369.80
519.62	451.72
519.79	440.02
519.96	447.04
520.14	456.40
520.31	411.93
520.48	440.02
520.65	351.08
520.83	442.36
521.00	318.31
521.17	449.38
521.34	411.93
521.52	472.79
521.69	468.11
521.86	402.57
522.03	397.89
522.20	442.36
522.38	386.19
522.55	393.21
522.72	479.81
522.89	360.44
523.07	468.11
523.24	435.34
523.41	447.04
523.58	285.55
523.75	393.21
523.92	486.83
524.10	428.32
524.27	484.49
524.44	442.36
524.61	442.36
524.78	454.06
524.96	482.15
525.13	442.36
525.30	470.45
525.47	423.64
525.64	463.43
525.81	374.49
525.98	465.77
526.16	339.38
526.33	348.74
526.50	404.91
526.67	456.40
526.84	358.10
527.01	346.40
527.18	423.64
527.36	437.68
527.53	430.66
527.70	468.11
527.87	528.96
528.04	409.59
528.21	386.19
528.38	381.51
528.55	456.40
528.72	351.08
528.89	409.59
529.07	409.59
529.24	416.62
529.41	479.81
529.58	528.96
529.75	334.70
529.92	437.68
530.09	395.55
530.26	430.66
530.43	372.15
530.60	428.32
530.77	440.02
530.94	496.19
531.11	444.70
531.28	411.93
531.46	430.66
531.63	402.57
531.80	437.68
531.97	461.09
532.14	428.32
532.31	468.11
532.48	444.70
532.65	414.27
532.82	442.36
532.99	409.59
533.16	477.47
533.33	374.49
533.50	393.21
533.67	484.49
533.84	435.34
534.01	418.96
534.18	372.15
534.35	479.81
534.52	383.85
534.69	430.66
534.86	425.98
535.03	411.93
535.20	423.64
535.37	447.04
535.54	402.57
535.71	418.96
535.88	425.98
536.05	395.55
536.22	465.77
536.38	416.62
536.55	423.64
536.72	442.36
536.89	456.40
537.06	486.83
537.23	442.36
537.40	407.25
537.57	463.43
537.74	449.38
537.91	458.74
538.08	470.45
538.25	390.87
538.42	367.46
538.59	449.38
538.75	404.91
538.92	454.06
539.09	428.32
539.26	407.25
539.43	447.04
539.60	390.87
539.77	442.36
539.94	376.83
540.11	479.81
540.28	437.68
540.44	388.53
540.61	409.59
540.78	421.30
540.95	397.89
541.12	512.58
541.29	440.02
541.46	407.25
541.62	496.19
541.79	341.72
541.96	344.06
542.13	468.11
542.30	416.62
542.47	348.74
542.63	449.38
542.80	339.38
542.97	463.43
543.14	435.34
543.31	482.15
543.48	442.36
543.64	463.43
543.81	393.21
543.98	390.87
544.15	395.55
544.32	468.11
544.48	376.83
544.65	435.34
544.82	367.46
544.99	386.19
545.16	404.91
545.32	437.68
545.49	390.87
545.66	313.63
545.83	337.04
546.00	449.38
546.16	472.79
546.33	440.02
546.50	407.25
546.67	407.25
546.83	491.51
547.00	409.59
547.17	386.19
547.34	400.23
547.50	451.72
547.67	379.17
547.84	428.32
548.00	409.59
548.17	374.49
548.34	388.53
548.51	407.25
548.67	379.17
548.84	440.02
549.01	449.38
549.18	337.04
549.34	407.25
549.51	428.32
549.68	409.59
549.84	393.21
550.01	360.44
550.18	430.66
550.34	440.02
550.51	404.91
550.68	465.77
550.84	458.74
551.01	416.62
551.18	428.32
551.34	447.04
551.51	411.93
551.68	451.72
551.84	388.53
552.01	409.59
552.18	409.59
552.34	479.81
552.51	491.51
552.68	381.51
552.84	414.27
553.01	454.06
553.18	393.21
553.34	372.15
553.51	404.91
553.67	402.57
553.84	369.80
554.01	430.66
554.17	407.25
554.34	440.02
554.51	454.06
554.67	440.02
554.84	386.19
555.00	337.04
555.17	393.21
555.33	477.47
555.50	449.38
555.67	416.62
555.83	472.79
556.00	456.40
556.16	533.64
556.33	472.79
556.50	482.15
556.66	477.47
556.83	430.66
556.99	414.27
557.16	411.93
557.32	341.72
557.49	461.09
557.65	447.04
557.82	376.83
557.98	388.53
558.15	416.62
558.32	374.49
558.48	407.25
558.65	388.53
558.81	470.45
558.98	402.57
559.14	407.25
559.31	397.89
559.47	411.93
559.64	404.91
559.80	423.64
559.97	454.06
560.13	386.19
560.30	470.45
560.46	381.51
560.63	430.66
560.79	388.53
560.96	395.55
561.12	397.89
561.29	454.06
561.45	442.36
561.61	482.15
561.78	493.85
561.94	425.98
562.11	376.83
562.27	465.77
562.44	381.51
562.60	437.68
562.77	418.96
562.93	428.32
563.10	409.59
563.26	458.74
563.42	425.98
563.59	430.66
563.75	390.87
563.92	421.30
564.08	428.32
564.24	500.87
564.41	468.11
564.57	360.44
564.74	449.38
564.90	428.32
565.07	449.38
565.23	440.02
565.39	362.78
565.56	444.70
565.72	447.04
565.88	456.40
566.05	355.76
566.21	360.44
566.38	458.74
566.54	442.36
566.70	442.36
566.87	393.21
567.03	322.99
567.19	425.98
567.36	468.11
567.52	491.51
567.68	400.23
567.85	409.59
568.01	449.38
568.17	402.57
568.34	470.45
568.50	433.00
568.66	461.09
568.83	397.89
568.99	451.72
569.15	437.68
569.32	306.61
569.48	407.25
569.64	414.27
569.81	486.83
569.97	458.74
570.13	444.70
570.30	407.25
570.46	416.62
570.62	451.72
570.78	322.99
570.95	397.89
571.11	421.30
571.27	496.19
571.43	449.38
571.60	346.40
571.76	376.83
571.92	472.79
572.09	428.32
572.25	416.62
572.41	437.68
572.57	374.49
572.74	395.55
572.90	454.06
573.06	442.36
573.22	435.34
573.38	418.96
573.55	557.05
573.71	447.04
573.87	358.10
574.03	421.30
574.20	409.59
574.36	500.87
574.52	348.74
574.68	449.38
574.84	425.98
575.01	454.06
575.17	414.27
575.33	388.53
575.49	437.68
575.65	489.17
575.82	449.38
575.98	486.83
576.14	393.21
576.30	379.17
576.46	451.72
576.62	496.19
576.79	442.36
576.95	463.43
577.11	458.74
577.27	395.55
577.43	468.11
577.59	397.89
577.75	374.49
577.92	528.96
578.08	404.91
578.24	407.25
578.40	428.32
578.56	318.31
578.72	346.40
578.88	411.93
579.04	414.27
579.21	397.89
579.37	421.30
579.53	428.32
579.69	433.00
579.85	433.00
580.01	404.91
580.17	313.63
580.33	421.30
580.49	423.64
580.65	400.23
580.82	437.68
580.98	428.32
581.14	482.15
581.30	390.87
581.46	437.68
581.62	486.83
581.78	414.27
581.94	465.77
582.10	381.51
582.26	411.93
582.42	491.51
582.58	404.91
582.74	444.70
582.90	468.11
583.06	435.34
583.22	409.59
583.38	421.30
583.54	440.02
583.70	379.17
583.86	435.34
584.02	383.85
584.18	458.74
584.34	395.55
584.50	409.59
584.66	423.64
584.82	388.53
584.98	400.23
585.14	351.08
585.30	447.04
585.46	433.00
585.62	418.96
585.78	404.91
585.94	477.47
586.10	365.12
586.26	416.62
586.42	496.19
586.58	437.68
586.74	402.57
586.90	437.68
587.06	472.79
587.22	348.74
587.38	407.25
587.54	409.59
587.70	498.53
587.86	418.96
588.02	433.00
588.18	376.83
588.34	442.36
588.49	416.62
588.65	451.72
588.81	423.64
588.97	416.62
589.13	500.87
589.29	400.23
589.45	447.04
589.61	458.74
589.77	447.04
589.93	407.25
590.08	390.87
590.24	423.64
590.40	376.83
590.56	456.40
590.72	507.90
590.88	428.32
591.04	428.32
591.20	362.78
591.35	421.30
591.51	388.53
591.67	440.02
591.83	381.51
591.99	390.87
592.15	386.19
592.31	418.96
592.46	465.77
592.62	449.38
592.78	376.83
592.94	397.89
593.10	498.53
593.26	386.19
593.41	437.68
593.57	404.91
593.73	444.70
593.89	449.38
594.05	334.70
594.20	433.00
594.36	376.83
594.52	393.21
594.68	423.64
594.84	397.89
594.99	447.04
595.15	428.32
595.31	456.40
595.47	454.06
595.62	458.74
595.78	388.53
595.94	379.17
596.10	433.00
596.25	463.43
596.41	465.77
596.57	409.59
596.73	418.96
596.88	423.64
597.04	390.87
597.20	433.00
597.36	379.17
597.51	376.83
597.67	376.83
597.83	409.59
597.99	496.19
598.14	400.23
598.30	447.04
598.46	425.98
598.61	449.38
598.77	416.62
598.93	451.72
599.09	454.06
599.24	444.70
599.40	423.64
599.56	402.57
599.71	449.38
599.87	430.66
600.03	468.11
600.18	449.38
600.34	407.25
600.50	456.40
600.65	411.93
600.81	475.13
600.97	437.68
601.12	348.74
601.28	430.66
601.44	440.02
601.59	381.51
601.75	442.36
601.91	397.89
602.06	428.32
602.22	458.74
602.37	409.59
602.53	430.66
602.69	372.15
602.84	393.21
603.00	390.87
603.16	393.21
603.31	456.40
603.47	458.74
603.62	388.53
603.78	433.00
603.94	374.49
604.09	383.85
604.25	491.51
604.40	430.66
604.56	330.02
604.71	395.55
604.87	365.12
605.03	402.57
605.18	369.80
605.34	475.13
605.49	449.38
605.65	374.49
605.80	376.83
605.96	397.89
606.12	456.40
606.27	489.17
606.43	461.09
606.58	418.96
606.74	535.98
606.89	430.66
607.05	369.80
607.20	437.68
607.36	360.44
607.51	395.55
607.67	451.72
607.82	463.43
607.98	470.45
608.13	402.57
608.29	493.85
608.44	458.74
608.60	367.46
608.75	463.43
608.91	433.00
609.06	458.74
609.22	479.81
609.37	395.55
609.53	409.59
609.68	351.08
609.84	372.15
609.99	379.17
610.15	491.51
