SpectraSuite Data File
++++++++++++++++++++++++++++++++++++
Date: Fri Oct 25 12:10:44 EDT 2013
User: price-jones
Dark Spectrum Present: No
Reference Spectrum Present: No
Number of Sampled Component Spectra: 1
Spectrometers: USB2+H05261
Integration Time (usec): 100000 (USB2+H05261)
Spectra Averaged: 1 (USB2+H05261)
Boxcar Smoothing: 0 (USB2+H05261)
Correct for Electrical Dark: No (USB2+H05261)
Strobe/Lamp Enabled: No (USB2+H05261)
Correct for Detector Non-linearity: No (USB2+H05261)
Correct for Stray Light: No (USB2+H05261)
Number of Pixels in Processed Spectrum: 2048
>>>>>Begin Processed Spectral Data<<<<<
365.73	271.50
365.92	271.50
366.12	271.50
366.32	297.25
366.52	280.86
366.72	236.39
366.91	205.97
367.11	252.78
367.31	304.27
367.51	208.31
367.70	287.89
367.90	250.44
368.10	217.67
368.30	212.99
368.49	252.78
368.69	245.76
368.89	299.59
369.09	266.82
369.28	290.23
369.48	259.80
369.68	297.25
369.87	290.23
370.07	273.84
370.27	299.59
370.47	320.65
370.66	383.85
370.86	365.12
371.06	393.21
371.25	388.53
371.45	322.99
371.65	344.06
371.84	416.62
372.04	339.38
372.24	376.83
372.44	379.17
372.63	425.98
372.83	402.57
373.03	339.38
373.22	414.27
373.42	414.27
373.62	355.76
373.81	461.09
374.01	458.74
374.21	386.19
374.40	435.34
374.60	447.04
374.79	358.10
374.99	479.81
375.19	395.55
375.38	390.87
375.58	418.96
375.78	416.62
375.97	461.09
376.17	435.34
376.37	407.25
376.56	402.57
376.76	416.62
376.95	397.89
377.15	461.09
377.35	414.27
377.54	365.12
377.74	393.21
377.93	365.12
378.13	437.68
378.33	390.87
378.52	393.21
378.72	433.00
378.91	428.32
379.11	442.36
379.31	341.72
379.50	397.89
379.70	409.59
379.89	486.83
380.09	367.46
380.28	404.91
380.48	304.27
380.68	386.19
380.87	330.02
381.07	379.17
381.26	402.57
381.46	376.83
381.65	358.10
381.85	386.19
382.04	470.45
382.24	454.06
382.43	395.55
382.63	379.17
382.83	442.36
383.02	418.96
383.22	430.66
383.41	351.08
383.61	411.93
383.80	433.00
384.00	393.21
384.19	402.57
384.39	383.85
384.58	358.10
384.78	383.85
384.97	482.15
385.17	470.45
385.36	390.87
385.56	421.30
385.75	416.62
385.95	348.74
386.14	404.91
386.34	379.17
386.53	418.96
386.72	416.62
386.92	404.91
387.11	404.91
387.31	404.91
387.50	458.74
387.70	430.66
387.89	449.38
388.09	423.64
388.28	409.59
388.48	393.21
388.67	397.89
388.86	430.66
389.06	411.93
389.25	400.23
389.45	423.64
389.64	440.02
389.84	433.00
390.03	435.34
390.22	461.09
390.42	397.89
390.61	437.68
390.81	381.51
391.00	451.72
391.19	451.72
391.39	390.87
391.58	447.04
391.78	355.76
391.97	444.70
392.16	351.08
392.36	503.22
392.55	484.49
392.75	311.29
392.94	456.40
393.13	388.53
393.33	386.19
393.52	311.29
393.71	353.42
393.91	430.66
394.10	358.10
394.29	374.49
394.49	393.21
394.68	437.68
394.88	404.91
395.07	456.40
395.26	451.72
395.46	433.00
395.65	433.00
395.84	456.40
396.04	486.83
396.23	409.59
396.42	344.06
396.62	397.89
396.81	437.68
397.00	423.64
397.19	402.57
397.39	337.04
397.58	423.64
397.77	390.87
397.97	449.38
398.16	353.42
398.35	468.11
398.55	393.21
398.74	416.62
398.93	362.78
399.12	402.57
399.32	407.25
399.51	416.62
399.70	461.09
399.90	414.27
400.09	418.96
400.28	456.40
400.47	442.36
400.67	411.93
400.86	437.68
401.05	433.00
401.24	393.21
401.44	379.17
401.63	428.32
401.82	440.02
402.01	376.83
402.21	386.19
402.40	362.78
402.59	400.23
402.78	344.06
402.97	351.08
403.17	388.53
403.36	393.21
403.55	472.79
403.74	433.00
403.93	435.34
404.13	433.00
404.32	348.74
404.51	381.51
404.70	383.85
404.89	430.66
405.09	451.72
405.28	411.93
405.47	418.96
405.66	367.46
405.85	433.00
406.05	390.87
406.24	428.32
406.43	390.87
406.62	482.15
406.81	475.13
407.00	465.77
407.20	465.77
407.39	440.02
407.58	362.78
407.77	383.85
407.96	416.62
408.15	477.47
408.34	423.64
408.54	449.38
408.73	470.45
408.92	388.53
409.11	409.59
409.30	397.89
409.49	421.30
409.68	411.93
409.87	313.63
410.07	360.44
410.26	332.36
410.45	435.34
410.64	411.93
410.83	360.44
411.02	383.85
411.21	400.23
411.40	421.30
411.59	440.02
411.78	376.83
411.98	411.93
412.17	430.66
412.36	367.46
412.55	376.83
412.74	428.32
412.93	376.83
413.12	365.12
413.31	437.68
413.50	484.49
413.69	463.43
413.88	458.74
414.07	437.68
414.26	416.62
414.45	461.09
414.64	374.49
414.83	404.91
415.02	416.62
415.22	404.91
415.41	400.23
415.60	414.27
415.79	407.25
415.98	418.96
416.17	414.27
416.36	451.72
416.55	393.21
416.74	468.11
416.93	433.00
417.12	395.55
417.31	498.53
417.50	369.80
417.69	390.87
417.88	421.30
418.07	341.72
418.26	381.51
418.45	444.70
418.64	454.06
418.83	407.25
419.02	407.25
419.21	397.89
419.39	425.98
419.58	388.53
419.77	337.04
419.96	425.98
420.15	465.77
420.34	372.15
420.53	411.93
420.72	386.19
420.91	402.57
421.10	400.23
421.29	456.40
421.48	407.25
421.67	393.21
421.86	381.51
422.05	442.36
422.24	423.64
422.43	388.53
422.61	367.46
422.80	395.55
422.99	451.72
423.18	327.68
423.37	489.17
423.56	395.55
423.75	322.99
423.94	407.25
424.13	449.38
424.32	425.98
424.50	418.96
424.69	430.66
424.88	430.66
425.07	404.91
425.26	437.68
425.45	400.23
425.64	353.42
425.83	423.64
426.01	470.45
426.20	360.44
426.39	447.04
426.58	493.85
426.77	444.70
426.96	447.04
427.15	423.64
427.33	365.12
427.52	428.32
427.71	402.57
427.90	437.68
428.09	386.19
428.28	348.74
428.46	407.25
428.65	479.81
428.84	447.04
429.03	383.85
429.22	369.80
429.40	416.62
429.59	484.49
429.78	414.27
429.97	444.70
430.16	425.98
430.34	407.25
430.53	341.72
430.72	400.23
430.91	519.60
431.10	461.09
431.28	386.19
431.47	418.96
431.66	409.59
431.85	383.85
432.03	386.19
432.22	538.32
432.41	383.85
432.60	465.77
432.79	472.79
432.97	435.34
433.16	369.80
433.35	369.80
433.54	381.51
433.72	348.74
433.91	482.15
434.10	381.51
434.28	468.11
434.47	442.36
434.66	437.68
434.85	416.62
435.03	386.19
435.22	472.79
435.41	365.12
435.59	470.45
435.78	400.23
435.97	409.59
436.16	334.70
436.34	423.64
436.53	423.64
436.72	381.51
436.90	425.98
437.09	423.64
437.28	402.57
437.46	402.57
437.65	461.09
437.84	409.59
438.02	395.55
438.21	435.34
438.40	411.93
438.58	376.83
438.77	451.72
438.96	489.17
439.14	330.02
439.33	386.19
439.52	416.62
439.70	355.76
439.89	493.85
440.08	411.93
440.26	365.12
440.45	447.04
440.63	414.27
440.82	386.19
441.01	393.21
441.19	435.34
441.38	428.32
441.57	400.23
441.75	404.91
441.94	395.55
442.12	411.93
442.31	407.25
442.50	397.89
442.68	404.91
442.87	433.00
443.05	437.68
443.24	416.62
443.43	463.43
443.61	407.25
443.80	437.68
443.98	372.15
444.17	355.76
444.35	451.72
444.54	449.38
444.73	414.27
444.91	407.25
445.10	404.91
445.28	353.42
445.47	341.72
445.65	428.32
445.84	433.00
446.02	362.78
446.21	379.17
446.39	418.96
446.58	465.77
446.77	428.32
446.95	435.34
447.14	358.10
447.32	456.40
447.51	423.64
447.69	444.70
447.88	402.57
448.06	416.62
448.25	484.49
448.43	440.02
448.62	369.80
448.80	372.15
448.99	442.36
449.17	454.06
449.36	362.78
449.54	463.43
449.73	440.02
449.91	395.55
450.10	397.89
450.28	390.87
450.46	447.04
450.65	395.55
450.83	461.09
451.02	369.80
451.20	440.02
451.39	404.91
451.57	320.65
451.76	404.91
451.94	360.44
452.13	386.19
452.31	402.57
452.49	433.00
452.68	400.23
452.86	416.62
453.05	461.09
453.23	411.93
453.42	397.89
453.60	468.11
453.78	458.74
453.97	411.93
454.15	440.02
454.34	358.10
454.52	416.62
454.70	425.98
454.89	456.40
455.07	418.96
455.26	397.89
455.44	489.17
455.62	468.11
455.81	430.66
455.99	409.59
456.17	379.17
456.36	383.85
456.54	440.02
456.73	353.42
456.91	414.27
457.09	428.32
457.28	400.23
457.46	430.66
457.64	475.13
457.83	374.49
458.01	386.19
458.19	482.15
458.38	421.30
458.56	418.96
458.74	411.93
458.93	383.85
459.11	344.06
459.29	374.49
459.48	442.36
459.66	468.11
459.84	414.27
460.03	519.60
460.21	425.98
460.39	374.49
460.57	475.13
460.76	411.93
460.94	414.27
461.12	479.81
461.31	458.74
461.49	416.62
461.67	376.83
461.85	322.99
462.04	454.06
462.22	770.04
462.40	475.13
462.59	411.93
462.77	430.66
462.95	430.66
463.13	365.12
463.32	376.83
463.50	348.74
463.68	493.85
463.86	458.74
464.05	505.56
464.23	411.93
464.41	423.64
464.59	440.02
464.78	449.38
464.96	470.45
465.14	428.32
465.32	330.02
465.50	418.96
465.69	440.02
465.87	425.98
466.05	425.98
466.23	386.19
466.41	395.55
466.60	362.78
466.78	423.64
466.96	440.02
467.14	454.06
467.32	482.15
467.51	489.17
467.69	390.87
467.87	390.87
468.05	496.19
468.23	440.02
468.41	407.25
468.60	411.93
468.78	411.93
468.96	447.04
469.14	369.80
469.32	444.70
469.50	351.08
469.69	421.30
469.87	393.21
470.05	423.64
470.23	367.46
470.41	367.46
470.59	393.21
470.77	416.62
470.95	407.25
471.14	468.11
471.32	411.93
471.50	428.32
471.68	414.27
471.86	414.27
472.04	395.55
472.22	397.89
472.40	465.77
472.58	407.25
472.77	442.36
472.95	393.21
473.13	463.43
473.31	461.09
473.49	360.44
473.67	421.30
473.85	486.83
474.03	458.74
474.21	353.42
474.39	365.12
474.57	442.36
474.75	428.32
474.93	402.57
475.12	362.78
475.30	421.30
475.48	416.62
475.66	404.91
475.84	381.51
476.02	409.59
476.20	458.74
476.38	416.62
476.56	538.32
476.74	409.59
476.92	372.15
477.10	383.85
477.28	425.98
477.46	409.59
477.64	440.02
477.82	475.13
478.00	475.13
478.18	369.80
478.36	407.25
478.54	411.93
478.72	454.06
478.90	472.79
479.08	386.19
479.26	416.62
479.44	376.83
479.62	402.57
479.80	386.19
479.98	351.08
480.16	318.31
480.34	468.11
480.52	379.17
480.70	407.25
480.88	360.44
481.06	390.87
481.24	379.17
481.41	339.38
481.59	416.62
481.77	416.62
481.95	362.78
482.13	425.98
482.31	433.00
482.49	407.25
482.67	404.91
482.85	449.38
483.03	397.89
483.21	428.32
483.39	381.51
483.57	449.38
483.74	477.47
483.92	369.80
484.10	301.93
484.28	512.58
484.46	482.15
484.64	348.74
484.82	440.02
485.00	414.27
485.18	425.98
485.35	390.87
485.53	397.89
485.71	444.70
485.89	365.12
486.07	376.83
486.25	472.79
486.43	418.96
486.61	418.96
486.78	393.21
486.96	365.12
487.14	346.40
487.32	372.15
487.50	379.17
487.68	358.10
487.85	383.85
488.03	339.38
488.21	379.17
488.39	440.02
488.57	390.87
488.75	355.76
488.92	491.51
489.10	435.34
489.28	498.53
489.46	449.38
489.64	470.45
489.81	440.02
489.99	463.43
490.17	442.36
490.35	458.74
490.53	344.06
490.70	416.62
490.88	414.27
491.06	402.57
491.24	367.46
491.41	475.13
491.59	465.77
491.77	365.12
491.95	383.85
492.13	397.89
492.30	404.91
492.48	402.57
492.66	383.85
492.84	430.66
493.01	449.38
493.19	365.12
493.37	383.85
493.54	440.02
493.72	388.53
493.90	425.98
494.08	402.57
494.25	447.04
494.43	407.25
494.61	444.70
494.79	395.55
494.96	423.64
495.14	372.15
495.32	358.10
495.49	388.53
495.67	416.62
495.85	402.57
496.02	390.87
496.20	409.59
496.38	393.21
496.55	423.64
496.73	425.98
496.91	407.25
497.09	390.87
497.26	374.49
497.44	409.59
497.62	388.53
497.79	477.47
497.97	397.89
498.14	428.32
498.32	416.62
498.50	435.34
498.67	369.80
498.85	365.12
499.03	444.70
499.20	409.59
499.38	437.68
499.56	404.91
499.73	454.06
499.91	379.17
500.08	409.59
500.26	468.11
500.44	409.59
500.61	425.98
500.79	402.57
500.97	381.51
501.14	451.72
501.32	383.85
501.49	444.70
501.67	428.32
501.84	418.96
502.02	355.76
502.20	369.80
502.37	458.74
502.55	418.96
502.72	383.85
502.90	402.57
503.07	397.89
503.25	442.36
503.43	433.00
503.60	475.13
503.78	423.64
503.95	414.27
504.13	383.85
504.30	404.91
504.48	386.19
504.65	423.64
504.83	482.15
505.01	421.30
505.18	430.66
505.36	400.23
505.53	358.10
505.71	376.83
505.88	444.70
506.06	442.36
506.23	381.51
506.41	381.51
506.58	369.80
506.76	360.44
506.93	451.72
507.11	517.26
507.28	404.91
507.46	433.00
507.63	386.19
507.81	414.27
507.98	369.80
508.16	423.64
508.33	421.30
508.50	463.43
508.68	414.27
508.85	440.02
509.03	383.85
509.20	386.19
509.38	381.51
509.55	442.36
509.73	407.25
509.90	376.83
510.08	395.55
510.25	475.13
510.42	423.64
510.60	423.64
510.77	475.13
510.95	421.30
511.12	386.19
511.30	503.22
511.47	355.76
511.64	550.03
511.82	411.93
511.99	386.19
512.17	430.66
512.34	407.25
512.51	381.51
512.69	355.76
512.86	435.34
513.04	393.21
513.21	456.40
513.38	437.68
513.56	465.77
513.73	437.68
513.90	442.36
514.08	362.78
514.25	365.12
514.43	390.87
514.60	390.87
514.77	362.78
514.95	416.62
515.12	500.87
515.29	397.89
515.47	442.36
515.64	414.27
515.81	381.51
515.99	461.09
516.16	430.66
516.33	458.74
516.51	416.62
516.68	423.64
516.85	437.68
517.03	409.59
517.20	390.87
517.37	454.06
517.54	451.72
517.72	421.30
517.89	440.02
518.06	367.46
518.24	442.36
518.41	465.77
518.58	409.59
518.75	365.12
518.93	381.51
519.10	421.30
519.27	383.85
519.45	433.00
519.62	428.32
519.79	472.79
519.96	437.68
520.14	435.34
520.31	411.93
520.48	430.66
520.65	332.36
520.83	484.49
521.00	421.30
521.17	404.91
521.34	381.51
521.52	423.64
521.69	386.19
521.86	411.93
522.03	418.96
522.20	451.72
522.38	372.15
522.55	451.72
522.72	402.57
522.89	428.32
523.07	421.30
523.24	428.32
523.41	407.25
523.58	414.27
523.75	386.19
523.92	425.98
524.10	411.93
524.27	456.40
524.44	414.27
524.61	386.19
524.78	472.79
524.96	442.36
525.13	365.12
525.30	486.83
525.47	386.19
525.64	437.68
525.81	360.44
525.98	440.02
526.16	409.59
526.33	411.93
526.50	442.36
526.67	414.27
526.84	425.98
527.01	388.53
527.18	327.68
527.36	337.04
527.53	409.59
527.70	451.72
527.87	433.00
528.04	444.70
528.21	383.85
528.38	423.64
528.55	437.68
528.72	491.51
528.89	451.72
529.07	411.93
529.24	407.25
529.41	477.47
529.58	440.02
529.75	454.06
529.92	456.40
530.09	397.89
530.26	388.53
530.43	409.59
530.60	456.40
530.77	369.80
530.94	388.53
531.11	449.38
531.28	381.51
531.46	411.93
531.63	407.25
531.80	463.43
531.97	482.15
532.14	407.25
532.31	442.36
532.48	411.93
532.65	402.57
532.82	400.23
532.99	416.62
533.16	416.62
533.33	444.70
533.50	376.83
533.67	369.80
533.84	425.98
534.01	444.70
534.18	353.42
534.35	395.55
534.52	416.62
534.69	402.57
534.86	395.55
535.03	489.17
535.20	447.04
535.37	547.69
535.54	386.19
535.71	400.23
535.88	500.87
536.05	372.15
536.22	437.68
536.38	447.04
536.55	440.02
536.72	402.57
536.89	376.83
537.06	397.89
537.23	447.04
537.40	442.36
537.57	454.06
537.74	433.00
537.91	468.11
538.08	479.81
538.25	435.34
538.42	409.59
538.59	423.64
538.75	416.62
538.92	379.17
539.09	423.64
539.26	456.40
539.43	428.32
539.60	365.12
539.77	430.66
539.94	386.19
540.11	437.68
540.28	528.96
540.44	400.23
540.61	482.15
540.78	447.04
540.95	409.59
541.12	510.24
541.29	381.51
541.46	470.45
541.62	550.03
541.79	456.40
541.96	404.91
542.13	440.02
542.30	386.19
542.47	414.27
542.63	411.93
542.80	409.59
542.97	468.11
543.14	367.46
543.31	414.27
543.48	435.34
543.64	456.40
543.81	383.85
543.98	395.55
544.15	416.62
544.32	367.46
544.48	437.68
544.65	421.30
544.82	390.87
544.99	454.06
545.16	414.27
545.32	402.57
545.49	512.58
545.66	414.27
545.83	376.83
546.00	367.46
546.16	367.46
546.33	397.89
546.50	442.36
546.67	346.40
546.83	472.79
547.00	395.55
547.17	383.85
547.34	428.32
547.50	411.93
547.67	411.93
547.84	383.85
548.00	404.91
548.17	395.55
548.34	369.80
548.51	421.30
548.67	418.96
548.84	423.64
549.01	344.06
549.18	388.53
549.34	421.30
549.51	404.91
549.68	402.57
549.84	458.74
550.01	374.49
550.18	543.00
550.34	496.19
550.51	395.55
550.68	454.06
550.84	472.79
551.01	414.27
551.18	517.26
551.34	440.02
551.51	402.57
551.68	402.57
551.84	433.00
552.01	418.96
552.18	388.53
552.34	440.02
552.51	433.00
552.68	458.74
552.84	454.06
553.01	465.77
553.18	414.27
553.34	395.55
553.51	367.46
553.67	449.38
553.84	416.62
554.01	435.34
554.17	507.90
554.34	428.32
554.51	449.38
554.67	463.43
554.84	437.68
555.00	433.00
555.17	386.19
555.33	393.21
555.50	395.55
555.67	362.78
555.83	348.74
556.00	386.19
556.16	519.60
556.33	486.83
556.50	468.11
556.66	407.25
556.83	416.62
556.99	383.85
557.16	421.30
557.32	308.95
557.49	442.36
557.65	437.68
557.82	388.53
557.98	411.93
558.15	416.62
558.32	503.22
558.48	437.68
558.65	393.21
558.81	442.36
558.98	381.51
559.14	484.49
559.31	409.59
559.47	409.59
559.64	362.78
559.80	440.02
559.97	388.53
560.13	416.62
560.30	465.77
560.46	514.92
560.63	414.27
560.79	447.04
560.96	472.79
561.12	444.70
561.29	376.83
561.45	407.25
561.61	428.32
561.78	510.24
561.94	390.87
562.11	454.06
562.27	344.06
562.44	374.49
562.60	374.49
562.77	386.19
562.93	463.43
563.10	393.21
563.26	456.40
563.42	447.04
563.59	397.89
563.75	388.53
563.92	496.19
564.08	400.23
564.24	372.15
564.41	507.90
564.57	313.63
564.74	444.70
564.90	407.25
565.07	433.00
565.23	376.83
565.39	362.78
565.56	428.32
565.72	383.85
565.88	475.13
566.05	369.80
566.21	395.55
566.38	411.93
566.54	454.06
566.70	341.72
566.87	383.85
567.03	423.64
567.19	416.62
567.36	360.44
567.52	379.17
567.68	437.68
567.85	458.74
568.01	430.66
568.17	379.17
568.34	444.70
568.50	493.85
568.66	440.02
568.83	472.79
568.99	461.09
569.15	451.72
569.32	407.25
569.48	456.40
569.64	437.68
569.81	407.25
569.97	447.04
570.13	444.70
570.30	390.87
570.46	428.32
570.62	353.42
570.78	430.66
570.95	393.21
571.11	465.77
571.27	475.13
571.43	374.49
571.60	395.55
571.76	444.70
571.92	383.85
572.09	353.42
572.25	390.87
572.41	416.62
572.57	447.04
572.74	456.40
572.90	402.57
573.06	475.13
573.22	390.87
573.38	428.32
573.55	367.46
573.71	440.02
573.87	477.47
574.03	334.70
574.20	397.89
574.36	407.25
574.52	482.15
574.68	425.98
574.84	444.70
575.01	475.13
575.17	458.74
575.33	407.25
575.49	423.64
575.65	411.93
575.82	388.53
575.98	526.62
576.14	390.87
576.30	404.91
576.46	472.79
576.62	484.49
576.79	421.30
576.95	421.30
577.11	362.78
577.27	386.19
577.43	437.68
577.59	456.40
577.75	472.79
577.92	409.59
578.08	435.34
578.24	393.21
578.40	292.57
578.56	442.36
578.72	435.34
578.88	454.06
579.04	442.36
579.21	461.09
579.37	425.98
579.53	409.59
579.69	374.49
579.85	435.34
580.01	454.06
580.17	381.51
580.33	479.81
580.49	372.15
580.65	351.08
580.82	442.36
580.98	421.30
581.14	409.59
581.30	547.69
581.46	418.96
581.62	411.93
581.78	397.89
581.94	369.80
582.10	346.40
582.26	430.66
582.42	372.15
582.58	393.21
582.74	390.87
582.90	374.49
583.06	404.91
583.22	369.80
583.38	409.59
583.54	451.72
583.70	461.09
583.86	390.87
584.02	458.74
584.18	418.96
584.34	393.21
584.50	372.15
584.66	416.62
584.82	397.89
584.98	440.02
585.14	330.02
585.30	355.76
585.46	395.55
585.62	383.85
585.78	414.27
585.94	409.59
586.10	411.93
586.26	414.27
586.42	425.98
586.58	449.38
586.74	414.27
586.90	362.78
587.06	428.32
587.22	416.62
587.38	409.59
587.54	360.44
587.70	440.02
587.86	440.02
588.02	372.15
588.18	388.53
588.34	428.32
588.49	407.25
588.65	390.87
588.81	503.22
588.97	414.27
589.13	337.04
589.29	404.91
589.45	479.81
589.61	376.83
589.77	463.43
589.93	444.70
590.08	381.51
590.24	430.66
590.40	472.79
590.56	491.51
590.72	402.57
590.88	369.80
591.04	407.25
591.20	470.45
591.35	423.64
591.51	400.23
591.67	301.93
591.83	435.34
591.99	369.80
592.15	416.62
592.31	465.77
592.46	407.25
592.62	360.44
592.78	444.70
592.94	397.89
593.10	421.30
593.26	418.96
593.41	477.47
593.57	447.04
593.73	463.43
593.89	470.45
594.05	475.13
594.20	428.32
594.36	421.30
594.52	414.27
594.68	442.36
594.84	414.27
594.99	435.34
595.15	461.09
595.31	447.04
595.47	505.56
595.62	454.06
595.78	362.78
595.94	435.34
596.10	484.49
596.25	425.98
596.41	433.00
596.57	416.62
596.73	383.85
596.88	456.40
597.04	435.34
597.20	456.40
597.36	461.09
597.51	409.59
597.67	472.79
597.83	428.32
597.99	372.15
598.14	386.19
598.30	449.38
598.46	416.62
598.61	397.89
598.77	407.25
598.93	433.00
599.09	479.81
599.24	393.21
599.40	498.53
599.56	428.32
599.71	418.96
599.87	458.74
600.03	421.30
600.18	374.49
600.34	416.62
600.50	430.66
600.65	390.87
600.81	444.70
600.97	425.98
601.12	400.23
601.28	444.70
601.44	397.89
601.59	442.36
601.75	416.62
601.91	440.02
602.06	365.12
602.22	507.90
602.37	496.19
602.53	418.96
602.69	386.19
602.84	376.83
603.00	447.04
603.16	444.70
603.31	421.30
603.47	374.49
603.62	400.23
603.78	428.32
603.94	318.31
604.09	390.87
604.25	421.30
604.40	409.59
604.56	402.57
604.71	414.27
604.87	428.32
605.03	425.98
605.18	416.62
605.34	479.81
605.49	463.43
605.65	411.93
605.80	425.98
605.96	475.13
606.12	491.51
606.27	383.85
606.43	332.36
606.58	423.64
606.74	386.19
606.89	428.32
607.05	423.64
607.20	503.22
607.36	404.91
607.51	393.21
607.67	381.51
607.82	372.15
607.98	367.46
608.13	428.32
608.29	433.00
608.44	463.43
608.60	404.91
608.75	444.70
608.91	440.02
609.06	468.11
609.22	440.02
609.37	360.44
609.53	383.85
609.68	411.93
609.84	376.83
609.99	402.57
610.15	418.96
