SpectraSuite Data File
++++++++++++++++++++++++++++++++++++
Date: Fri Oct 25 12:10:49 EDT 2013
User: price-jones
Dark Spectrum Present: No
Reference Spectrum Present: No
Number of Sampled Component Spectra: 1
Spectrometers: USB2+H05261
Integration Time (usec): 100000 (USB2+H05261)
Spectra Averaged: 1 (USB2+H05261)
Boxcar Smoothing: 0 (USB2+H05261)
Correct for Electrical Dark: No (USB2+H05261)
Strobe/Lamp Enabled: No (USB2+H05261)
Correct for Detector Non-linearity: No (USB2+H05261)
Correct for Stray Light: No (USB2+H05261)
Number of Pixels in Processed Spectrum: 2048
>>>>>Begin Processed Spectral Data<<<<<
365.73	411.93
365.92	411.93
366.12	411.93
366.32	248.10
366.52	269.16
366.72	318.31
366.91	212.99
367.11	210.65
367.31	250.44
367.51	259.80
367.70	224.69
367.90	266.82
368.10	248.10
368.30	283.20
368.49	238.73
368.69	278.52
368.89	234.05
369.09	248.10
369.28	273.84
369.48	220.01
369.68	283.20
369.87	269.16
370.07	390.87
370.27	409.59
370.47	285.55
370.66	372.15
370.86	346.40
371.06	353.42
371.25	339.38
371.45	351.08
371.65	425.98
371.84	390.87
372.04	341.72
372.24	386.19
372.44	332.36
372.63	383.85
372.83	395.55
373.03	418.96
373.22	348.74
373.42	383.85
373.62	409.59
373.81	477.47
374.01	470.45
374.21	458.74
374.40	444.70
374.60	468.11
374.79	437.68
374.99	397.89
375.19	411.93
375.38	416.62
375.58	351.08
375.78	447.04
375.97	402.57
376.17	477.47
376.37	341.72
376.56	451.72
376.76	423.64
376.95	425.98
377.15	440.02
377.35	418.96
377.54	421.30
377.74	327.68
377.93	346.40
378.13	404.91
378.33	390.87
378.52	346.40
378.72	388.53
378.91	430.66
379.11	374.49
379.31	470.45
379.50	430.66
379.70	383.85
379.89	435.34
380.09	407.25
380.28	386.19
380.48	360.44
380.68	367.46
380.87	374.49
381.07	468.11
381.26	404.91
381.46	353.42
381.65	369.80
381.85	444.70
382.04	414.27
382.24	353.42
382.43	465.77
382.63	409.59
382.83	393.21
383.02	386.19
383.22	470.45
383.41	414.27
383.61	416.62
383.80	416.62
384.00	437.68
384.19	346.40
384.39	381.51
384.58	437.68
384.78	404.91
384.97	418.96
385.17	386.19
385.36	360.44
385.56	351.08
385.75	388.53
385.95	388.53
386.14	470.45
386.34	381.51
386.53	379.17
386.72	379.17
386.92	365.12
387.11	442.36
387.31	400.23
387.50	362.78
387.70	430.66
387.89	376.83
388.09	440.02
388.28	423.64
388.48	367.46
388.67	355.76
388.86	360.44
389.06	374.49
389.25	411.93
389.45	367.46
389.64	330.02
389.84	409.59
390.03	458.74
390.22	404.91
390.42	428.32
390.61	397.89
390.81	320.65
391.00	388.53
391.19	475.13
391.39	409.59
391.58	369.80
391.78	362.78
391.97	379.17
392.16	393.21
392.36	430.66
392.55	365.12
392.75	383.85
392.94	404.91
393.13	365.12
393.33	383.85
393.52	386.19
393.71	390.87
393.91	369.80
394.10	379.17
394.29	369.80
394.49	414.27
394.68	416.62
394.88	388.53
395.07	458.74
395.26	440.02
395.46	456.40
395.65	442.36
395.84	383.85
396.04	440.02
396.23	411.93
396.42	337.04
396.62	404.91
396.81	409.59
397.00	344.06
397.19	383.85
397.39	433.00
397.58	388.53
397.77	411.93
397.97	475.13
398.16	407.25
398.35	447.04
398.55	358.10
398.74	423.64
398.93	400.23
399.12	400.23
399.32	379.17
399.51	461.09
399.70	442.36
399.90	433.00
400.09	379.17
400.28	388.53
400.47	423.64
400.67	397.89
400.86	315.97
401.05	428.32
401.24	402.57
401.44	428.32
401.63	388.53
401.82	390.87
402.01	379.17
402.21	341.72
402.40	416.62
402.59	442.36
402.78	355.76
402.97	358.10
403.17	365.12
403.36	388.53
403.55	404.91
403.74	421.30
403.93	421.30
404.13	383.85
404.32	418.96
404.51	341.72
404.70	374.49
404.89	395.55
405.09	433.00
405.28	447.04
405.47	390.87
405.66	393.21
405.85	458.74
406.05	458.74
406.24	360.44
406.43	395.55
406.62	414.27
406.81	435.34
407.00	369.80
407.20	365.12
407.39	395.55
407.58	423.64
407.77	470.45
407.96	458.74
408.15	472.79
408.34	402.57
408.54	409.59
408.73	369.80
408.92	416.62
409.11	433.00
409.30	416.62
409.49	374.49
409.68	433.00
409.87	381.51
410.07	409.59
410.26	451.72
410.45	374.49
410.64	411.93
410.83	262.14
411.02	381.51
411.21	407.25
411.40	421.30
411.59	386.19
411.78	428.32
411.98	390.87
412.17	381.51
412.36	388.53
412.55	383.85
412.74	491.51
412.93	414.27
413.12	447.04
413.31	454.06
413.50	477.47
413.69	395.55
413.88	423.64
414.07	418.96
414.26	425.98
414.45	381.51
414.64	451.72
414.83	348.74
415.02	369.80
415.22	442.36
415.41	489.17
415.60	337.04
415.79	447.04
415.98	468.11
416.17	440.02
416.36	430.66
416.55	402.57
416.74	428.32
416.93	407.25
417.12	367.46
417.31	433.00
417.50	388.53
417.69	451.72
417.88	458.74
418.07	430.66
418.26	383.85
418.45	418.96
418.64	449.38
418.83	386.19
419.02	372.15
419.21	395.55
419.39	383.85
419.58	315.97
419.77	348.74
419.96	451.72
420.15	433.00
420.34	454.06
420.53	440.02
420.72	388.53
420.91	383.85
421.10	395.55
421.29	430.66
421.48	397.89
421.67	376.83
421.86	320.65
422.05	374.49
422.24	423.64
422.43	320.65
422.61	397.89
422.80	353.42
422.99	381.51
423.18	372.15
423.37	421.30
423.56	437.68
423.75	386.19
423.94	358.10
424.13	395.55
424.32	388.53
424.50	447.04
424.69	395.55
424.88	425.98
425.07	435.34
425.26	489.17
425.45	468.11
425.64	437.68
425.83	409.59
426.01	440.02
426.20	411.93
426.39	454.06
426.58	383.85
426.77	400.23
426.96	461.09
427.15	425.98
427.33	409.59
427.52	414.27
427.71	369.80
427.90	390.87
428.09	461.09
428.28	416.62
428.46	456.40
428.65	484.49
428.84	409.59
429.03	407.25
429.22	376.83
429.40	414.27
429.59	430.66
429.78	461.09
429.97	423.64
430.16	418.96
430.34	430.66
430.53	397.89
430.72	437.68
430.91	423.64
431.10	486.83
431.28	418.96
431.47	433.00
431.66	381.51
431.85	433.00
432.03	374.49
432.22	496.19
432.41	386.19
432.60	430.66
432.79	344.06
432.97	416.62
433.16	409.59
433.35	428.32
433.54	390.87
433.72	416.62
433.91	451.72
434.10	421.30
434.28	442.36
434.47	355.76
434.66	421.30
434.85	477.47
435.03	440.02
435.22	456.40
435.41	430.66
435.59	437.68
435.78	425.98
435.97	428.32
436.16	320.65
436.34	440.02
436.53	372.15
436.72	423.64
436.90	423.64
437.09	383.85
437.28	397.89
437.46	376.83
437.65	440.02
437.84	376.83
438.02	402.57
438.21	437.68
438.40	402.57
438.58	290.23
438.77	388.53
438.96	383.85
439.14	386.19
439.33	465.77
439.52	428.32
439.70	454.06
439.89	411.93
440.08	425.98
440.26	369.80
440.45	479.81
440.63	503.22
440.82	402.57
441.01	404.91
441.19	416.62
441.38	365.12
441.57	454.06
441.75	425.98
441.94	425.98
442.12	383.85
442.31	500.87
442.50	449.38
442.68	330.02
442.87	442.36
443.05	386.19
443.24	346.40
443.43	449.38
443.61	423.64
443.80	402.57
443.98	423.64
444.17	409.59
444.35	388.53
444.54	407.25
444.73	362.78
444.91	411.93
445.10	425.98
445.28	430.66
445.47	402.57
445.65	393.21
445.84	372.15
446.02	411.93
446.21	390.87
446.39	400.23
446.58	447.04
446.77	409.59
446.95	435.34
447.14	444.70
447.32	493.85
447.51	442.36
447.69	414.27
447.88	395.55
448.06	416.62
448.25	395.55
448.43	423.64
448.62	418.96
448.80	449.38
448.99	461.09
449.17	433.00
449.36	449.38
449.54	449.38
449.73	395.55
449.91	355.76
450.10	400.23
450.28	451.72
450.46	428.32
450.65	416.62
450.83	400.23
451.02	344.06
451.20	425.98
451.39	482.15
451.57	358.10
451.76	425.98
451.94	510.24
452.13	468.11
452.31	444.70
452.49	402.57
452.68	409.59
452.86	444.70
453.05	493.85
453.23	454.06
453.42	447.04
453.60	433.00
453.78	472.79
453.97	353.42
454.15	367.46
454.34	411.93
454.52	440.02
454.70	425.98
454.89	435.34
455.07	421.30
455.26	367.46
455.44	409.59
455.62	428.32
455.81	395.55
455.99	463.43
456.17	465.77
456.36	404.91
456.54	418.96
456.73	365.12
456.91	416.62
457.09	465.77
457.28	388.53
457.46	428.32
457.64	475.13
457.83	344.06
458.01	304.27
458.19	416.62
458.38	414.27
458.56	404.91
458.74	346.40
458.93	418.96
459.11	404.91
459.29	362.78
459.48	444.70
459.66	442.36
459.84	433.00
460.03	428.32
460.21	388.53
460.39	430.66
460.57	456.40
460.76	442.36
460.94	381.51
461.12	449.38
461.31	465.77
461.49	358.10
461.67	407.25
461.85	428.32
462.04	386.19
462.22	772.38
462.40	475.13
462.59	454.06
462.77	470.45
462.95	425.98
463.13	388.53
463.32	472.79
463.50	491.51
463.68	409.59
463.86	442.36
464.05	397.89
464.23	423.64
464.41	388.53
464.59	390.87
464.78	339.38
464.96	416.62
465.14	416.62
465.32	374.49
465.50	402.57
465.69	411.93
465.87	344.06
466.05	395.55
466.23	374.49
466.41	344.06
466.60	372.15
466.78	418.96
466.96	372.15
467.14	365.12
467.32	444.70
467.51	463.43
467.69	388.53
467.87	402.57
468.05	409.59
468.23	379.17
468.41	451.72
468.60	374.49
468.78	393.21
468.96	407.25
469.14	447.04
469.32	306.61
469.50	402.57
469.69	454.06
469.87	449.38
470.05	414.27
470.23	383.85
470.41	397.89
470.59	418.96
470.77	397.89
470.95	428.32
471.14	496.19
471.32	411.93
471.50	430.66
471.68	437.68
471.86	404.91
472.04	400.23
472.22	435.34
472.40	414.27
472.58	395.55
472.77	421.30
472.95	411.93
473.13	395.55
473.31	430.66
473.49	428.32
473.67	369.80
473.85	351.08
474.03	414.27
474.21	449.38
474.39	402.57
474.57	381.51
474.75	430.66
474.93	376.83
475.12	388.53
475.30	400.23
475.48	379.17
475.66	383.85
475.84	454.06
476.02	435.34
476.20	456.40
476.38	428.32
476.56	430.66
476.74	440.02
476.92	411.93
477.10	402.57
477.28	440.02
477.46	458.74
477.64	362.78
477.82	437.68
478.00	435.34
478.18	390.87
478.36	421.30
478.54	442.36
478.72	411.93
478.90	447.04
479.08	383.85
479.26	407.25
479.44	479.81
479.62	416.62
479.80	358.10
479.98	423.64
480.16	482.15
480.34	433.00
480.52	425.98
480.70	449.38
480.88	414.27
481.06	423.64
481.24	353.42
481.41	433.00
481.59	425.98
481.77	393.21
481.95	430.66
482.13	421.30
482.31	461.09
482.49	334.70
482.67	341.72
482.85	428.32
483.03	409.59
483.21	430.66
483.39	435.34
483.57	376.83
483.74	451.72
483.92	411.93
484.10	430.66
484.28	451.72
484.46	451.72
484.64	421.30
484.82	482.15
485.00	353.42
485.18	362.78
485.35	435.34
485.53	444.70
485.71	416.62
485.89	362.78
486.07	383.85
486.25	414.27
486.43	486.83
486.61	465.77
486.78	444.70
486.96	442.36
487.14	482.15
487.32	430.66
487.50	353.42
487.68	454.06
487.85	454.06
488.03	397.89
488.21	442.36
488.39	381.51
488.57	465.77
488.75	397.89
488.92	489.17
489.10	369.80
489.28	435.34
489.46	407.25
489.64	367.46
489.81	458.74
489.99	388.53
490.17	411.93
490.35	503.22
490.53	425.98
490.70	362.78
490.88	458.74
491.06	430.66
491.24	409.59
491.41	395.55
491.59	379.17
491.77	400.23
491.95	430.66
492.13	397.89
492.30	404.91
492.48	449.38
492.66	458.74
492.84	390.87
493.01	409.59
493.19	360.44
493.37	430.66
493.54	454.06
493.72	437.68
493.90	376.83
494.08	423.64
494.25	425.98
494.43	411.93
494.61	421.30
494.79	400.23
494.96	322.99
495.14	346.40
495.32	400.23
495.49	449.38
495.67	425.98
495.85	322.99
496.02	395.55
496.20	400.23
496.38	477.47
496.55	369.80
496.73	444.70
496.91	402.57
497.09	461.09
497.26	435.34
497.44	376.83
497.62	421.30
497.79	444.70
497.97	437.68
498.14	425.98
498.32	479.81
498.50	461.09
498.67	407.25
498.85	458.74
499.03	362.78
499.20	491.51
499.38	435.34
499.56	407.25
499.73	449.38
499.91	414.27
500.08	465.77
500.26	386.19
500.44	440.02
500.61	423.64
500.79	437.68
500.97	430.66
501.14	449.38
501.32	374.49
501.49	430.66
501.67	358.10
501.84	386.19
502.02	433.00
502.20	440.02
502.37	383.85
502.55	440.02
502.72	388.53
502.90	489.17
503.07	409.59
503.25	454.06
503.43	369.80
503.60	404.91
503.78	386.19
503.95	351.08
504.13	395.55
504.30	383.85
504.48	355.76
504.65	521.94
504.83	437.68
505.01	428.32
505.18	418.96
505.36	414.27
505.53	416.62
505.71	388.53
505.88	468.11
506.06	440.02
506.23	414.27
506.41	449.38
506.58	381.51
506.76	383.85
506.93	437.68
507.11	374.49
507.28	404.91
507.46	400.23
507.63	402.57
507.81	421.30
507.98	416.62
508.16	470.45
508.33	407.25
508.50	418.96
508.68	388.53
508.85	477.47
509.03	346.40
509.20	341.72
509.38	468.11
509.55	440.02
509.73	400.23
509.90	528.96
510.08	376.83
510.25	454.06
510.42	348.74
510.60	437.68
510.77	379.17
510.95	477.47
511.12	437.68
511.30	411.93
511.47	367.46
511.64	400.23
511.82	416.62
511.99	461.09
512.17	407.25
512.34	456.40
512.51	491.51
512.69	372.15
512.86	482.15
513.04	451.72
513.21	379.17
513.38	442.36
513.56	433.00
513.73	397.89
513.90	369.80
514.08	463.43
514.25	465.77
514.43	463.43
514.60	390.87
514.77	367.46
514.95	393.21
515.12	372.15
515.29	397.89
515.47	383.85
515.64	411.93
515.81	463.43
515.99	383.85
516.16	400.23
516.33	440.02
516.51	411.93
516.68	428.32
516.85	423.64
517.03	414.27
517.20	425.98
517.37	409.59
517.54	440.02
517.72	423.64
517.89	423.64
518.06	433.00
518.24	486.83
518.41	454.06
518.58	482.15
518.75	512.58
518.93	409.59
519.10	414.27
519.27	393.21
519.45	477.47
519.62	433.00
519.79	437.68
519.96	395.55
520.14	421.30
520.31	390.87
520.48	400.23
520.65	416.62
520.83	418.96
521.00	472.79
521.17	433.00
521.34	346.40
521.52	374.49
521.69	404.91
521.86	454.06
522.03	418.96
522.20	435.34
522.38	407.25
522.55	472.79
522.72	400.23
522.89	381.51
523.07	489.17
523.24	477.47
523.41	379.17
523.58	355.76
523.75	407.25
523.92	362.78
524.10	393.21
524.27	437.68
524.44	411.93
524.61	512.58
524.78	458.74
524.96	402.57
525.13	372.15
525.30	430.66
525.47	358.10
525.64	430.66
525.81	449.38
525.98	376.83
526.16	383.85
526.33	449.38
526.50	430.66
526.67	461.09
526.84	484.49
527.01	402.57
527.18	421.30
527.36	362.78
527.53	416.62
527.70	381.51
527.87	369.80
528.04	430.66
528.21	393.21
528.38	463.43
528.55	435.34
528.72	489.17
528.89	491.51
529.07	430.66
529.24	421.30
529.41	433.00
529.58	397.89
529.75	510.24
529.92	435.34
530.09	433.00
530.26	458.74
530.43	484.49
530.60	404.91
530.77	341.72
530.94	454.06
531.11	360.44
531.28	404.91
531.46	442.36
531.63	465.77
531.80	463.43
531.97	421.30
532.14	376.83
532.31	440.02
532.48	421.30
532.65	451.72
532.82	390.87
532.99	451.72
533.16	463.43
533.33	428.32
533.50	407.25
533.67	367.46
533.84	362.78
534.01	418.96
534.18	416.62
534.35	458.74
534.52	402.57
534.69	409.59
534.86	404.91
535.03	451.72
535.20	411.93
535.37	442.36
535.54	402.57
535.71	330.02
535.88	358.10
536.05	334.70
536.22	409.59
536.38	421.30
536.55	440.02
536.72	402.57
536.89	397.89
537.06	428.32
537.23	400.23
537.40	397.89
537.57	414.27
537.74	470.45
537.91	404.91
538.08	367.46
538.25	423.64
538.42	376.83
538.59	402.57
538.75	421.30
538.92	418.96
539.09	470.45
539.26	409.59
539.43	451.72
539.60	414.27
539.77	421.30
539.94	433.00
540.11	472.79
540.28	425.98
540.44	493.85
540.61	461.09
540.78	440.02
540.95	411.93
541.12	470.45
541.29	400.23
541.46	425.98
541.62	393.21
541.79	425.98
541.96	367.46
542.13	393.21
542.30	407.25
542.47	414.27
542.63	379.17
542.80	421.30
542.97	386.19
543.14	454.06
543.31	496.19
543.48	346.40
543.64	404.91
543.81	430.66
543.98	369.80
544.15	409.59
544.32	421.30
544.48	435.34
544.65	402.57
544.82	388.53
544.99	416.62
545.16	383.85
545.32	386.19
545.49	433.00
545.66	456.40
545.83	407.25
546.00	423.64
546.16	437.68
546.33	400.23
546.50	402.57
546.67	479.81
546.83	421.30
547.00	409.59
547.17	435.34
547.34	435.34
547.50	454.06
547.67	404.91
547.84	400.23
548.00	381.51
548.17	383.85
548.34	465.77
548.51	390.87
548.67	411.93
548.84	386.19
549.01	369.80
549.18	444.70
549.34	369.80
549.51	400.23
549.68	407.25
549.84	484.49
550.01	379.17
550.18	510.24
550.34	465.77
550.51	395.55
550.68	397.89
550.84	444.70
551.01	428.32
551.18	440.02
551.34	325.33
551.51	475.13
551.68	395.55
551.84	435.34
552.01	442.36
552.18	393.21
552.34	407.25
552.51	369.80
552.68	421.30
552.84	428.32
553.01	416.62
553.18	395.55
553.34	407.25
553.51	402.57
553.67	482.15
553.84	402.57
554.01	390.87
554.17	447.04
554.34	418.96
554.51	430.66
554.67	383.85
554.84	416.62
555.00	372.15
555.17	456.40
555.33	458.74
555.50	440.02
555.67	353.42
555.83	414.27
556.00	414.27
556.16	458.74
556.33	388.53
556.50	444.70
556.66	454.06
556.83	379.17
556.99	344.06
557.16	486.83
557.32	390.87
557.49	379.17
557.65	437.68
557.82	348.74
557.98	428.32
558.15	461.09
558.32	304.27
558.48	346.40
558.65	400.23
558.81	351.08
558.98	433.00
559.14	493.85
559.31	409.59
559.47	435.34
559.64	339.38
559.80	372.15
559.97	456.40
560.13	418.96
560.30	428.32
560.46	390.87
560.63	379.17
560.79	447.04
560.96	400.23
561.12	416.62
561.29	477.47
561.45	425.98
561.61	362.78
561.78	458.74
561.94	411.93
562.11	404.91
562.27	444.70
562.44	423.64
562.60	465.77
562.77	433.00
562.93	447.04
563.10	365.12
563.26	404.91
563.42	433.00
563.59	353.42
563.75	381.51
563.92	454.06
564.08	425.98
564.24	411.93
564.41	358.10
564.57	411.93
564.74	449.38
564.90	425.98
565.07	505.56
565.23	425.98
565.39	383.85
565.56	409.59
565.72	400.23
565.88	390.87
566.05	444.70
566.21	435.34
566.38	381.51
566.54	437.68
566.70	407.25
566.87	397.89
567.03	383.85
567.19	395.55
567.36	360.44
567.52	440.02
567.68	454.06
567.85	404.91
568.01	449.38
568.17	414.27
568.34	372.15
568.50	407.25
568.66	383.85
568.83	454.06
568.99	360.44
569.15	531.30
569.32	451.72
569.48	416.62
569.64	381.51
569.81	435.34
569.97	381.51
570.13	404.91
570.30	397.89
570.46	454.06
570.62	425.98
570.78	411.93
570.95	428.32
571.11	423.64
571.27	498.53
571.43	442.36
571.60	440.02
571.76	353.42
571.92	435.34
572.09	454.06
572.25	379.17
572.41	458.74
572.57	433.00
572.74	465.77
572.90	444.70
573.06	407.25
573.22	360.44
573.38	418.96
573.55	409.59
573.71	454.06
573.87	407.25
574.03	287.89
574.20	365.12
574.36	440.02
574.52	374.49
574.68	421.30
574.84	402.57
575.01	400.23
575.17	447.04
575.33	461.09
575.49	458.74
575.65	372.15
575.82	374.49
575.98	475.13
576.14	505.56
576.30	519.60
576.46	421.30
576.62	435.34
576.79	458.74
576.95	482.15
577.11	411.93
577.27	379.17
577.43	428.32
577.59	484.49
577.75	376.83
577.92	400.23
578.08	395.55
578.24	411.93
578.40	519.60
578.56	402.57
578.72	395.55
578.88	407.25
579.04	423.64
579.21	402.57
579.37	411.93
579.53	414.27
579.69	449.38
579.85	355.76
580.01	470.45
580.17	430.66
580.33	388.53
580.49	456.40
580.65	395.55
580.82	514.92
580.98	433.00
581.14	414.27
581.30	393.21
581.46	458.74
581.62	411.93
581.78	358.10
581.94	411.93
582.10	463.43
582.26	425.98
582.42	393.21
582.58	461.09
582.74	390.87
582.90	433.00
583.06	482.15
583.22	442.36
583.38	367.46
583.54	379.17
583.70	465.77
583.86	367.46
584.02	404.91
584.18	444.70
584.34	395.55
584.50	442.36
584.66	451.72
584.82	400.23
584.98	407.25
585.14	397.89
585.30	369.80
585.46	400.23
585.62	386.19
585.78	470.45
585.94	407.25
586.10	411.93
586.26	430.66
586.42	447.04
586.58	393.21
586.74	395.55
586.90	416.62
587.06	404.91
587.22	444.70
587.38	428.32
587.54	449.38
587.70	489.17
587.86	402.57
588.02	458.74
588.18	409.59
588.34	388.53
588.49	381.51
588.65	388.53
588.81	454.06
588.97	416.62
589.13	318.31
589.29	425.98
589.45	430.66
589.61	411.93
589.77	433.00
589.93	407.25
590.08	430.66
590.24	425.98
590.40	433.00
590.56	482.15
590.72	374.49
590.88	458.74
591.04	463.43
591.20	428.32
591.35	479.81
591.51	409.59
591.67	421.30
591.83	447.04
591.99	435.34
592.15	500.87
592.31	449.38
592.46	416.62
592.62	404.91
592.78	421.30
592.94	440.02
593.10	381.51
593.26	388.53
593.41	458.74
593.57	372.15
593.73	386.19
593.89	430.66
594.05	449.38
594.20	428.32
594.36	433.00
594.52	393.21
594.68	402.57
594.84	463.43
594.99	423.64
595.15	444.70
595.31	463.43
595.47	414.27
595.62	411.93
595.78	409.59
595.94	442.36
596.10	416.62
596.25	440.02
596.41	358.10
596.57	395.55
596.73	458.74
596.88	381.51
597.04	404.91
597.20	407.25
597.36	425.98
597.51	395.55
597.67	447.04
597.83	430.66
597.99	411.93
598.14	433.00
598.30	461.09
598.46	409.59
598.61	437.68
598.77	379.17
598.93	404.91
599.09	414.27
599.24	404.91
599.40	482.15
599.56	479.81
599.71	390.87
599.87	367.46
600.03	442.36
600.18	414.27
600.34	428.32
600.50	411.93
600.65	390.87
600.81	461.09
600.97	376.83
601.12	407.25
601.28	430.66
601.44	416.62
601.59	465.77
601.75	414.27
601.91	425.98
602.06	402.57
602.22	458.74
602.37	348.74
602.53	397.89
602.69	418.96
602.84	449.38
603.00	472.79
603.16	411.93
603.31	390.87
603.47	456.40
603.62	381.51
603.78	402.57
603.94	451.72
604.09	395.55
604.25	521.94
604.40	372.15
604.56	395.55
604.71	458.74
604.87	388.53
605.03	435.34
605.18	479.81
605.34	411.93
605.49	409.59
605.65	435.34
605.80	358.10
605.96	475.13
606.12	428.32
606.27	435.34
606.43	416.62
606.58	430.66
606.74	465.77
606.89	411.93
607.05	489.17
607.20	477.47
607.36	404.91
607.51	313.63
607.67	433.00
607.82	386.19
607.98	369.80
608.13	433.00
608.29	421.30
608.44	435.34
608.60	414.27
608.75	505.56
608.91	442.36
609.06	379.17
609.22	404.91
609.37	372.15
609.53	390.87
609.68	344.06
609.84	416.62
609.99	318.31
610.15	418.96
