SpectraSuite Data File
++++++++++++++++++++++++++++++++++++
Date: Fri Oct 25 12:11:30 EDT 2013
User: price-jones
Dark Spectrum Present: No
Reference Spectrum Present: No
Number of Sampled Component Spectra: 1
Spectrometers: USB2+H05261
Integration Time (usec): 100000 (USB2+H05261)
Spectra Averaged: 1 (USB2+H05261)
Boxcar Smoothing: 0 (USB2+H05261)
Correct for Electrical Dark: No (USB2+H05261)
Strobe/Lamp Enabled: No (USB2+H05261)
Correct for Detector Non-linearity: No (USB2+H05261)
Correct for Stray Light: No (USB2+H05261)
Number of Pixels in Processed Spectrum: 2048
>>>>>Begin Processed Spectral Data<<<<<
365.73	346.40
365.92	346.40
366.12	346.40
366.32	297.25
366.52	259.80
366.72	278.52
366.91	243.42
367.11	255.12
367.31	299.59
367.51	182.56
367.70	203.63
367.90	266.82
368.10	210.65
368.30	182.56
368.49	259.80
368.69	243.42
368.89	283.20
369.09	262.14
369.28	292.57
369.48	313.63
369.68	283.20
369.87	257.46
370.07	290.23
370.27	369.80
370.47	402.57
370.66	313.63
370.86	358.10
371.06	374.49
371.25	402.57
371.45	337.04
371.65	376.83
371.84	348.74
372.04	395.55
372.24	372.15
372.44	379.17
372.63	372.15
372.83	383.85
373.03	381.51
373.22	425.98
373.42	402.57
373.62	393.21
373.81	442.36
374.01	456.40
374.21	465.77
374.40	379.17
374.60	407.25
374.79	461.09
374.99	461.09
375.19	374.49
375.38	409.59
375.58	449.38
375.78	533.64
375.97	433.00
376.17	440.02
376.37	425.98
376.56	379.17
376.76	379.17
376.95	456.40
377.15	393.21
377.35	442.36
377.54	428.32
377.74	423.64
377.93	430.66
378.13	433.00
378.33	325.33
378.52	367.46
378.72	360.44
378.91	440.02
379.11	430.66
379.31	365.12
379.50	414.27
379.70	409.59
379.89	404.91
380.09	437.68
380.28	428.32
380.48	479.81
380.68	428.32
380.87	381.51
381.07	318.31
381.26	440.02
381.46	435.34
381.65	390.87
381.85	374.49
382.04	435.34
382.24	395.55
382.43	355.76
382.63	374.49
382.83	433.00
383.02	437.68
383.22	435.34
383.41	423.64
383.61	400.23
383.80	383.85
384.00	414.27
384.19	383.85
384.39	353.42
384.58	418.96
384.78	397.89
384.97	360.44
385.17	351.08
385.36	435.34
385.56	376.83
385.75	376.83
385.95	479.81
386.14	470.45
386.34	402.57
386.53	423.64
386.72	400.23
386.92	428.32
387.11	421.30
387.31	463.43
387.50	409.59
387.70	325.33
387.89	456.40
388.09	421.30
388.28	390.87
388.48	353.42
388.67	383.85
388.86	440.02
389.06	376.83
389.25	369.80
389.45	465.77
389.64	456.40
389.84	395.55
390.03	440.02
390.22	348.74
390.42	395.55
390.61	353.42
390.81	360.44
391.00	397.89
391.19	496.19
391.39	404.91
391.58	379.17
391.78	383.85
391.97	447.04
392.16	397.89
392.36	360.44
392.55	475.13
392.75	407.25
392.94	353.42
393.13	400.23
393.33	388.53
393.52	397.89
393.71	383.85
393.91	388.53
394.10	369.80
394.29	360.44
394.49	393.21
394.68	475.13
394.88	367.46
395.07	411.93
395.26	372.15
395.46	411.93
395.65	395.55
395.84	383.85
396.04	421.30
396.23	393.21
396.42	400.23
396.62	367.46
396.81	388.53
397.00	400.23
397.19	393.21
397.39	435.34
397.58	435.34
397.77	362.78
397.97	358.10
398.16	477.47
398.35	395.55
398.55	390.87
398.74	423.64
398.93	423.64
399.12	428.32
399.32	400.23
399.51	463.43
399.70	397.89
399.90	444.70
400.09	402.57
400.28	346.40
400.47	407.25
400.67	365.12
400.86	437.68
401.05	428.32
401.24	437.68
401.44	442.36
401.63	423.64
401.82	447.04
402.01	430.66
402.21	407.25
402.40	435.34
402.59	451.72
402.78	449.38
402.97	365.12
403.17	437.68
403.36	381.51
403.55	346.40
403.74	421.30
403.93	402.57
404.13	402.57
404.32	397.89
404.51	390.87
404.70	472.79
404.89	407.25
405.09	430.66
405.28	397.89
405.47	365.12
405.66	442.36
405.85	409.59
406.05	381.51
406.24	407.25
406.43	463.43
406.62	414.27
406.81	376.83
407.00	461.09
407.20	409.59
407.39	444.70
407.58	365.12
407.77	421.30
407.96	468.11
408.15	465.77
408.34	454.06
408.54	468.11
408.73	400.23
408.92	395.55
409.11	444.70
409.30	440.02
409.49	447.04
409.68	397.89
409.87	414.27
410.07	404.91
410.26	463.43
410.45	423.64
410.64	388.53
410.83	409.59
411.02	402.57
411.21	395.55
411.40	456.40
411.59	383.85
411.78	372.15
411.98	433.00
412.17	360.44
412.36	433.00
412.55	395.55
412.74	454.06
412.93	465.77
413.12	421.30
413.31	407.25
413.50	365.12
413.69	440.02
413.88	440.02
414.07	440.02
414.26	433.00
414.45	390.87
414.64	376.83
414.83	374.49
415.02	430.66
415.22	430.66
415.41	479.81
415.60	395.55
415.79	440.02
415.98	418.96
416.17	341.72
416.36	433.00
416.55	386.19
416.74	423.64
416.93	423.64
417.12	374.49
417.31	341.72
417.50	365.12
417.69	463.43
417.88	456.40
418.07	435.34
418.26	365.12
418.45	449.38
418.64	437.68
418.83	404.91
419.02	393.21
419.21	428.32
419.39	428.32
419.58	400.23
419.77	421.30
419.96	414.27
420.15	367.46
420.34	461.09
420.53	351.08
420.72	416.62
420.91	386.19
421.10	386.19
421.29	397.89
421.48	421.30
421.67	423.64
421.86	379.17
422.05	428.32
422.24	390.87
422.43	458.74
422.61	451.72
422.80	447.04
422.99	491.51
423.18	400.23
423.37	407.25
423.56	379.17
423.75	407.25
423.94	451.72
424.13	379.17
424.32	376.83
424.50	491.51
424.69	437.68
424.88	472.79
425.07	449.38
425.26	409.59
425.45	433.00
425.64	402.57
425.83	409.59
426.01	395.55
426.20	395.55
426.39	440.02
426.58	421.30
426.77	372.15
426.96	440.02
427.15	416.62
427.33	344.06
427.52	337.04
427.71	447.04
427.90	423.64
428.09	465.77
428.28	470.45
428.46	425.98
428.65	407.25
428.84	351.08
429.03	411.93
429.22	454.06
429.40	358.10
429.59	402.57
429.78	374.49
429.97	493.85
430.16	510.24
430.34	397.89
430.53	407.25
430.72	486.83
430.91	447.04
431.10	393.21
431.28	379.17
431.47	484.49
431.66	440.02
431.85	393.21
432.03	374.49
432.22	454.06
432.41	444.70
432.60	414.27
432.79	379.17
432.97	430.66
433.16	362.78
433.35	440.02
433.54	355.76
433.72	440.02
433.91	430.66
434.10	435.34
434.28	379.17
434.47	416.62
434.66	386.19
434.85	411.93
435.03	421.30
435.22	449.38
435.41	404.91
435.59	435.34
435.78	379.17
435.97	404.91
436.16	465.77
436.34	407.25
436.53	437.68
436.72	440.02
436.90	449.38
437.09	461.09
437.28	407.25
437.46	395.55
437.65	388.53
437.84	379.17
438.02	423.64
438.21	341.72
438.40	322.99
438.58	400.23
438.77	407.25
438.96	404.91
439.14	383.85
439.33	416.62
439.52	423.64
439.70	339.38
439.89	379.17
440.08	414.27
440.26	383.85
440.45	418.96
440.63	489.17
440.82	348.74
441.01	353.42
441.19	437.68
441.38	484.49
441.57	470.45
441.75	390.87
441.94	428.32
442.12	416.62
442.31	447.04
442.50	376.83
442.68	383.85
442.87	430.66
443.05	447.04
443.24	437.68
443.43	428.32
443.61	428.32
443.80	400.23
443.98	414.27
444.17	388.53
444.35	458.74
444.54	404.91
444.73	395.55
444.91	381.51
445.10	369.80
445.28	320.65
445.47	397.89
445.65	472.79
445.84	365.12
446.02	339.38
446.21	404.91
446.39	369.80
446.58	477.47
446.77	425.98
446.95	423.64
447.14	423.64
447.32	381.51
447.51	407.25
447.69	407.25
447.88	418.96
448.06	414.27
448.25	402.57
448.43	428.32
448.62	498.53
448.80	484.49
448.99	418.96
449.17	470.45
449.36	407.25
449.54	442.36
449.73	411.93
449.91	437.68
450.10	470.45
450.28	475.13
450.46	496.19
450.65	383.85
450.83	355.76
451.02	402.57
451.20	395.55
451.39	428.32
451.57	437.68
451.76	372.15
451.94	437.68
452.13	454.06
452.31	470.45
452.49	461.09
452.68	442.36
452.86	428.32
453.05	451.72
453.23	372.15
453.42	395.55
453.60	374.49
453.78	423.64
453.97	397.89
454.15	430.66
454.34	355.76
454.52	468.11
454.70	468.11
454.89	435.34
455.07	390.87
455.26	465.77
455.44	407.25
455.62	374.49
455.81	479.81
455.99	404.91
456.17	430.66
456.36	433.00
456.54	484.49
456.73	374.49
456.91	369.80
457.09	472.79
457.28	376.83
457.46	362.78
457.64	433.00
457.83	456.40
458.01	414.27
458.19	383.85
458.38	418.96
458.56	447.04
458.74	407.25
458.93	472.79
459.11	414.27
459.29	306.61
459.48	437.68
459.66	430.66
459.84	433.00
460.03	491.51
460.21	383.85
460.39	404.91
460.57	468.11
460.76	414.27
460.94	477.47
461.12	425.98
461.31	454.06
461.49	390.87
461.67	395.55
461.85	400.23
462.04	383.85
462.22	819.19
462.40	456.40
462.59	451.72
462.77	395.55
462.95	428.32
463.13	433.00
463.32	442.36
463.50	484.49
463.68	362.78
463.86	379.17
464.05	423.64
464.23	456.40
464.41	367.46
464.59	369.80
464.78	486.83
464.96	346.40
465.14	475.13
465.32	463.43
465.50	393.21
465.69	442.36
465.87	418.96
466.05	458.74
466.23	327.68
466.41	400.23
466.60	402.57
466.78	404.91
466.96	521.94
467.14	449.38
467.32	416.62
467.51	409.59
467.69	428.32
467.87	440.02
468.05	369.80
468.23	479.81
468.41	360.44
468.60	400.23
468.78	411.93
468.96	444.70
469.14	372.15
469.32	393.21
469.50	372.15
469.69	425.98
469.87	433.00
470.05	437.68
470.23	433.00
470.41	465.77
470.59	428.32
470.77	423.64
470.95	414.27
471.14	428.32
471.32	435.34
471.50	456.40
471.68	437.68
471.86	440.02
472.04	435.34
472.22	425.98
472.40	369.80
472.58	322.99
472.77	390.87
472.95	381.51
473.13	440.02
473.31	397.89
473.49	423.64
473.67	379.17
473.85	423.64
474.03	367.46
474.21	437.68
474.39	482.15
474.57	411.93
474.75	423.64
474.93	409.59
475.12	407.25
475.30	388.53
475.48	425.98
475.66	465.77
475.84	383.85
476.02	470.45
476.20	463.43
476.38	425.98
476.56	512.58
476.74	409.59
476.92	418.96
477.10	388.53
477.28	442.36
477.46	414.27
477.64	411.93
477.82	365.12
478.00	376.83
478.18	423.64
478.36	404.91
478.54	437.68
478.72	367.46
478.90	383.85
479.08	451.72
479.26	351.08
479.44	433.00
479.62	404.91
479.80	444.70
479.98	325.33
480.16	433.00
480.34	346.40
480.52	440.02
480.70	393.21
480.88	414.27
481.06	395.55
481.24	397.89
481.41	411.93
481.59	358.10
481.77	409.59
481.95	414.27
482.13	383.85
482.31	365.12
482.49	383.85
482.67	407.25
482.85	376.83
483.03	381.51
483.21	442.36
483.39	409.59
483.57	430.66
483.74	482.15
483.92	421.30
484.10	411.93
484.28	456.40
484.46	449.38
484.64	477.47
484.82	430.66
485.00	451.72
485.18	435.34
485.35	423.64
485.53	395.55
485.71	454.06
485.89	367.46
486.07	372.15
486.25	454.06
486.43	395.55
486.61	447.04
486.78	358.10
486.96	470.45
487.14	402.57
487.32	351.08
487.50	388.53
487.68	437.68
487.85	454.06
488.03	447.04
488.21	524.28
488.39	404.91
488.57	409.59
488.75	440.02
488.92	535.98
489.10	365.12
489.28	418.96
489.46	437.68
489.64	442.36
489.81	440.02
489.99	428.32
490.17	407.25
490.35	500.87
490.53	449.38
490.70	402.57
490.88	442.36
491.06	407.25
491.24	430.66
491.41	428.32
491.59	374.49
491.77	372.15
491.95	409.59
492.13	376.83
492.30	346.40
492.48	404.91
492.66	397.89
492.84	386.19
493.01	442.36
493.19	344.06
493.37	430.66
493.54	409.59
493.72	435.34
493.90	416.62
494.08	409.59
494.25	381.51
494.43	423.64
494.61	428.32
494.79	444.70
494.96	372.15
495.14	437.68
495.32	367.46
495.49	315.97
495.67	461.09
495.85	407.25
496.02	454.06
496.20	463.43
496.38	472.79
496.55	411.93
496.73	339.38
496.91	416.62
497.09	393.21
497.26	449.38
497.44	468.11
497.62	404.91
497.79	400.23
497.97	470.45
498.14	383.85
498.32	383.85
498.50	479.81
498.67	435.34
498.85	407.25
499.03	498.53
499.20	447.04
499.38	447.04
499.56	407.25
499.73	470.45
499.91	407.25
500.08	463.43
500.26	416.62
500.44	402.57
500.61	475.13
500.79	376.83
500.97	367.46
501.14	472.79
501.32	418.96
501.49	376.83
501.67	421.30
501.84	404.91
502.02	461.09
502.20	503.22
502.37	409.59
502.55	390.87
502.72	334.70
502.90	423.64
503.07	369.80
503.25	414.27
503.43	449.38
503.60	407.25
503.78	421.30
503.95	395.55
504.13	421.30
504.30	386.19
504.48	479.81
504.65	484.49
504.83	421.30
505.01	400.23
505.18	402.57
505.36	440.02
505.53	433.00
505.71	395.55
505.88	390.87
506.06	447.04
506.23	456.40
506.41	461.09
506.58	351.08
506.76	458.74
506.93	477.47
507.11	437.68
507.28	444.70
507.46	402.57
507.63	372.15
507.81	416.62
507.98	418.96
508.16	423.64
508.33	463.43
508.50	437.68
508.68	376.83
508.85	400.23
509.03	388.53
509.20	395.55
509.38	428.32
509.55	386.19
509.73	489.17
509.90	468.11
510.08	362.78
510.25	477.47
510.42	493.85
510.60	393.21
510.77	390.87
510.95	470.45
511.12	449.38
511.30	430.66
511.47	430.66
511.64	454.06
511.82	440.02
511.99	444.70
512.17	437.68
512.34	411.93
512.51	393.21
512.69	421.30
512.86	404.91
513.04	447.04
513.21	395.55
513.38	449.38
513.56	400.23
513.73	386.19
513.90	444.70
514.08	388.53
514.25	409.59
514.43	372.15
514.60	411.93
514.77	442.36
514.95	465.77
515.12	449.38
515.29	395.55
515.47	414.27
515.64	449.38
515.81	402.57
515.99	409.59
516.16	409.59
516.33	421.30
516.51	433.00
516.68	393.21
516.85	486.83
517.03	437.68
517.20	463.43
517.37	461.09
517.54	379.17
517.72	411.93
517.89	430.66
518.06	491.51
518.24	461.09
518.41	444.70
518.58	416.62
518.75	402.57
518.93	454.06
519.10	369.80
519.27	327.68
519.45	390.87
519.62	444.70
519.79	454.06
519.96	428.32
520.14	447.04
520.31	498.53
520.48	388.53
520.65	341.72
520.83	411.93
521.00	414.27
521.17	470.45
521.34	381.51
521.52	425.98
521.69	435.34
521.86	416.62
522.03	414.27
522.20	388.53
522.38	327.68
522.55	404.91
522.72	416.62
522.89	372.15
523.07	482.15
523.24	433.00
523.41	386.19
523.58	465.77
523.75	404.91
523.92	442.36
524.10	393.21
524.27	451.72
524.44	411.93
524.61	425.98
524.78	339.38
524.96	461.09
525.13	472.79
525.30	442.36
525.47	435.34
525.64	407.25
525.81	402.57
525.98	402.57
526.16	379.17
526.33	393.21
526.50	437.68
526.67	423.64
526.84	379.17
527.01	402.57
527.18	423.64
527.36	414.27
527.53	404.91
527.70	409.59
527.87	449.38
528.04	479.81
528.21	388.53
528.38	388.53
528.55	437.68
528.72	486.83
528.89	409.59
529.07	400.23
529.24	414.27
529.41	482.15
529.58	353.42
529.75	433.00
529.92	458.74
530.09	407.25
530.26	444.70
530.43	463.43
530.60	395.55
530.77	379.17
530.94	442.36
531.11	395.55
531.28	458.74
531.46	458.74
531.63	411.93
531.80	416.62
531.97	449.38
532.14	367.46
532.31	430.66
532.48	447.04
532.65	416.62
532.82	423.64
532.99	369.80
533.16	496.19
533.33	428.32
533.50	461.09
533.67	437.68
533.84	397.89
534.01	386.19
534.18	472.79
534.35	454.06
534.52	451.72
534.69	374.49
534.86	414.27
535.03	411.93
535.20	376.83
535.37	454.06
535.54	397.89
535.71	341.72
535.88	491.51
536.05	479.81
536.22	414.27
536.38	475.13
536.55	411.93
536.72	400.23
536.89	372.15
537.06	407.25
537.23	475.13
537.40	332.36
537.57	470.45
537.74	557.05
537.91	470.45
538.08	388.53
538.25	519.60
538.42	383.85
538.59	397.89
538.75	400.23
538.92	465.77
539.09	411.93
539.26	402.57
539.43	468.11
539.60	376.83
539.77	472.79
539.94	372.15
540.11	409.59
540.28	470.45
540.44	454.06
540.61	461.09
540.78	421.30
540.95	374.49
541.12	484.49
541.29	393.21
541.46	440.02
541.62	442.36
541.79	428.32
541.96	360.44
542.13	386.19
542.30	456.40
542.47	404.91
542.63	390.87
542.80	425.98
542.97	472.79
543.14	388.53
543.31	510.24
543.48	503.22
543.64	437.68
543.81	440.02
543.98	404.91
544.15	444.70
544.32	416.62
544.48	390.87
544.65	397.89
544.82	393.21
544.99	421.30
545.16	402.57
545.32	379.17
545.49	430.66
545.66	339.38
545.83	442.36
546.00	388.53
546.16	423.64
546.33	414.27
546.50	409.59
546.67	407.25
546.83	461.09
547.00	435.34
547.17	414.27
547.34	428.32
547.50	383.85
547.67	407.25
547.84	411.93
548.00	390.87
548.17	367.46
548.34	430.66
548.51	376.83
548.67	449.38
548.84	416.62
549.01	475.13
549.18	400.23
549.34	461.09
549.51	486.83
549.68	454.06
549.84	461.09
550.01	447.04
550.18	458.74
550.34	465.77
550.51	411.93
550.68	449.38
550.84	365.12
551.01	362.78
551.18	416.62
551.34	475.13
551.51	484.49
551.68	365.12
551.84	341.72
552.01	355.76
552.18	416.62
552.34	444.70
552.51	430.66
552.68	454.06
552.84	447.04
553.01	435.34
553.18	425.98
553.34	444.70
553.51	440.02
553.67	477.47
553.84	503.22
554.01	461.09
554.17	447.04
554.34	386.19
554.51	447.04
554.67	442.36
554.84	411.93
555.00	409.59
555.17	475.13
555.33	512.58
555.50	344.06
555.67	435.34
555.83	484.49
556.00	390.87
556.16	568.75
556.33	552.37
556.50	414.27
556.66	465.77
556.83	470.45
556.99	540.66
557.16	428.32
557.32	411.93
557.49	400.23
557.65	372.15
557.82	421.30
557.98	348.74
558.15	458.74
558.32	425.98
558.48	386.19
558.65	465.77
558.81	388.53
558.98	411.93
559.14	409.59
559.31	425.98
559.47	514.92
559.64	428.32
559.80	383.85
559.97	442.36
560.13	458.74
560.30	369.80
560.46	353.42
560.63	407.25
560.79	418.96
560.96	454.06
561.12	442.36
561.29	477.47
561.45	491.51
561.61	451.72
561.78	468.11
561.94	449.38
562.11	379.17
562.27	397.89
562.44	444.70
562.60	381.51
562.77	381.51
562.93	521.94
563.10	484.49
563.26	440.02
563.42	440.02
563.59	402.57
563.75	353.42
563.92	463.43
564.08	411.93
564.24	440.02
564.41	465.77
564.57	397.89
564.74	407.25
564.90	411.93
565.07	456.40
565.23	409.59
565.39	397.89
565.56	411.93
565.72	362.78
565.88	442.36
566.05	433.00
566.21	433.00
566.38	351.08
566.54	425.98
566.70	374.49
566.87	444.70
567.03	400.23
567.19	416.62
567.36	369.80
567.52	451.72
567.68	489.17
567.85	477.47
568.01	435.34
568.17	402.57
568.34	407.25
568.50	433.00
568.66	365.12
568.83	411.93
568.99	449.38
569.15	451.72
569.32	433.00
569.48	435.34
569.64	369.80
569.81	423.64
569.97	379.17
570.13	386.19
570.30	351.08
570.46	365.12
570.62	428.32
570.78	402.57
570.95	416.62
571.11	491.51
571.27	461.09
571.43	451.72
571.60	451.72
571.76	440.02
571.92	337.04
572.09	496.19
572.25	440.02
572.41	393.21
572.57	402.57
572.74	404.91
572.90	498.53
573.06	437.68
573.22	451.72
573.38	411.93
573.55	341.72
573.71	418.96
573.87	414.27
574.03	454.06
574.20	402.57
574.36	519.60
574.52	421.30
574.68	393.21
574.84	440.02
575.01	416.62
575.17	472.79
575.33	430.66
575.49	456.40
575.65	449.38
575.82	451.72
575.98	442.36
576.14	444.70
576.30	442.36
576.46	362.78
576.62	383.85
576.79	395.55
576.95	388.53
577.11	425.98
577.27	461.09
577.43	379.17
577.59	517.26
577.75	449.38
577.92	456.40
578.08	400.23
578.24	442.36
578.40	470.45
578.56	461.09
578.72	451.72
578.88	369.80
579.04	416.62
579.21	463.43
579.37	433.00
579.53	433.00
579.69	444.70
579.85	362.78
580.01	397.89
580.17	451.72
580.33	421.30
580.49	440.02
580.65	477.47
580.82	404.91
580.98	374.49
581.14	454.06
581.30	411.93
581.46	425.98
581.62	456.40
581.78	458.74
581.94	393.21
582.10	500.87
582.26	444.70
582.42	315.97
582.58	479.81
582.74	393.21
582.90	372.15
583.06	414.27
583.22	409.59
583.38	470.45
583.54	379.17
583.70	433.00
583.86	388.53
584.02	423.64
584.18	493.85
584.34	442.36
584.50	414.27
584.66	421.30
584.82	351.08
584.98	418.96
585.14	365.12
585.30	475.13
585.46	430.66
585.62	379.17
585.78	390.87
585.94	400.23
586.10	397.89
586.26	411.93
586.42	458.74
586.58	496.19
586.74	402.57
586.90	400.23
587.06	355.76
587.22	425.98
587.38	423.64
587.54	428.32
587.70	447.04
587.86	435.34
588.02	365.12
588.18	461.09
588.34	395.55
588.49	353.42
588.65	425.98
588.81	456.40
588.97	425.98
589.13	376.83
589.29	402.57
589.45	470.45
589.61	500.87
589.77	489.17
589.93	397.89
590.08	447.04
590.24	470.45
590.40	437.68
590.56	433.00
590.72	411.93
590.88	414.27
591.04	404.91
591.20	428.32
591.35	454.06
591.51	383.85
591.67	414.27
591.83	428.32
591.99	407.25
592.15	489.17
592.31	425.98
592.46	456.40
592.62	376.83
592.78	421.30
592.94	428.32
593.10	374.49
593.26	444.70
593.41	409.59
593.57	332.36
593.73	386.19
593.89	358.10
594.05	383.85
594.20	393.21
594.36	440.02
594.52	362.78
594.68	390.87
594.84	433.00
594.99	416.62
595.15	430.66
595.31	505.56
595.47	433.00
595.62	468.11
595.78	458.74
595.94	421.30
596.10	470.45
596.25	409.59
596.41	454.06
596.57	440.02
596.73	433.00
596.88	430.66
597.04	416.62
597.20	395.55
597.36	437.68
597.51	425.98
597.67	404.91
597.83	388.53
597.99	444.70
598.14	425.98
598.30	395.55
598.46	383.85
598.61	390.87
598.77	407.25
598.93	390.87
599.09	435.34
599.24	458.74
599.40	409.59
599.56	425.98
599.71	346.40
599.87	437.68
600.03	456.40
600.18	404.91
600.34	344.06
600.50	421.30
600.65	311.29
600.81	463.43
600.97	322.99
601.12	456.40
601.28	430.66
601.44	421.30
601.59	430.66
601.75	411.93
601.91	440.02
602.06	447.04
602.22	484.49
602.37	423.64
602.53	358.10
602.69	402.57
602.84	379.17
603.00	381.51
603.16	369.80
603.31	456.40
603.47	402.57
603.62	418.96
603.78	383.85
603.94	514.92
604.09	365.12
604.25	393.21
604.40	367.46
604.56	409.59
604.71	402.57
604.87	383.85
605.03	390.87
605.18	362.78
605.34	421.30
605.49	369.80
605.65	418.96
605.80	376.83
605.96	454.06
606.12	447.04
606.27	479.81
606.43	423.64
606.58	374.49
606.74	376.83
606.89	374.49
607.05	395.55
607.20	447.04
607.36	475.13
607.51	416.62
607.67	442.36
607.82	409.59
607.98	472.79
608.13	456.40
608.29	411.93
608.44	421.30
608.60	393.21
608.75	423.64
608.91	456.40
609.06	386.19
609.22	444.70
609.37	395.55
609.53	414.27
609.68	386.19
609.84	397.89
609.99	360.44
610.15	437.68
