SpectraSuite Data File
++++++++++++++++++++++++++++++++++++
Date: Fri Oct 25 12:10:18 EDT 2013
User: price-jones
Dark Spectrum Present: No
Reference Spectrum Present: No
Number of Sampled Component Spectra: 1
Spectrometers: USB2+H05261
Integration Time (usec): 100000 (USB2+H05261)
Spectra Averaged: 1 (USB2+H05261)
Boxcar Smoothing: 0 (USB2+H05261)
Correct for Electrical Dark: No (USB2+H05261)
Strobe/Lamp Enabled: No (USB2+H05261)
Correct for Detector Non-linearity: No (USB2+H05261)
Correct for Stray Light: No (USB2+H05261)
Number of Pixels in Processed Spectrum: 2048
>>>>>Begin Processed Spectral Data<<<<<
365.73	322.99
365.92	322.99
366.12	322.99
366.32	266.82
366.52	238.73
366.72	238.73
366.91	273.84
367.11	182.56
367.31	290.23
367.51	252.78
367.70	194.26
367.90	238.73
368.10	191.92
368.30	257.46
368.49	234.05
368.69	187.24
368.89	196.60
369.09	252.78
369.28	229.37
369.48	278.52
369.68	266.82
369.87	325.33
370.07	306.61
370.27	351.08
370.47	315.97
370.66	365.12
370.86	290.23
371.06	440.02
371.25	428.32
371.45	374.49
371.65	388.53
371.84	374.49
372.04	348.74
372.24	365.12
372.44	334.70
372.63	367.46
372.83	421.30
373.03	447.04
373.22	440.02
373.42	365.12
373.62	381.51
373.81	416.62
374.01	369.80
374.21	397.89
374.40	376.83
374.60	472.79
374.79	463.43
374.99	458.74
375.19	430.66
375.38	472.79
375.58	444.70
375.78	468.11
375.97	456.40
376.17	461.09
376.37	400.23
376.56	493.85
376.76	386.19
376.95	423.64
377.15	451.72
377.35	381.51
377.54	451.72
377.74	379.17
377.93	409.59
378.13	369.80
378.33	367.46
378.52	500.87
378.72	423.64
378.91	425.98
379.11	400.23
379.31	442.36
379.50	463.43
379.70	409.59
379.89	367.46
380.09	393.21
380.28	306.61
380.48	332.36
380.68	416.62
380.87	390.87
381.07	374.49
381.26	400.23
381.46	372.15
381.65	423.64
381.85	330.02
382.04	409.59
382.24	402.57
382.43	360.44
382.63	397.89
382.83	397.89
383.02	418.96
383.22	458.74
383.41	395.55
383.61	325.33
383.80	430.66
384.00	414.27
384.19	404.91
384.39	449.38
384.58	442.36
384.78	418.96
384.97	400.23
385.17	407.25
385.36	325.33
385.56	421.30
385.75	320.65
385.95	411.93
386.14	421.30
386.34	433.00
386.53	386.19
386.72	435.34
386.92	409.59
387.11	435.34
387.31	397.89
387.50	428.32
387.70	327.68
387.89	386.19
388.09	418.96
388.28	374.49
388.48	404.91
388.67	414.27
388.86	449.38
389.06	337.04
389.25	374.49
389.45	390.87
389.64	404.91
389.84	397.89
390.03	418.96
390.22	421.30
390.42	400.23
390.61	465.77
390.81	411.93
391.00	418.96
391.19	451.72
391.39	458.74
391.58	383.85
391.78	425.98
391.97	425.98
392.16	374.49
392.36	491.51
392.55	465.77
392.75	458.74
392.94	423.64
393.13	444.70
393.33	416.62
393.52	386.19
393.71	421.30
393.91	362.78
394.10	449.38
394.29	451.72
394.49	362.78
394.68	407.25
394.88	407.25
395.07	447.04
395.26	381.51
395.46	482.15
395.65	442.36
395.84	414.27
396.04	433.00
396.23	381.51
396.42	414.27
396.62	369.80
396.81	390.87
397.00	402.57
397.19	344.06
397.39	416.62
397.58	393.21
397.77	404.91
397.97	341.72
398.16	423.64
398.35	339.38
398.55	388.53
398.74	337.04
398.93	449.38
399.12	519.60
399.32	393.21
399.51	449.38
399.70	386.19
399.90	425.98
400.09	442.36
400.28	421.30
400.47	376.83
400.67	479.81
400.86	376.83
401.05	461.09
401.24	421.30
401.44	381.51
401.63	435.34
401.82	507.90
402.01	374.49
402.21	381.51
402.40	393.21
402.59	383.85
402.78	430.66
402.97	444.70
403.17	489.17
403.36	425.98
403.55	360.44
403.74	395.55
403.93	416.62
404.13	447.04
404.32	409.59
404.51	404.91
404.70	444.70
404.89	360.44
405.09	416.62
405.28	465.77
405.47	388.53
405.66	456.40
405.85	456.40
406.05	468.11
406.24	332.36
406.43	414.27
406.62	372.15
406.81	465.77
407.00	521.94
407.20	423.64
407.39	468.11
407.58	362.78
407.77	442.36
407.96	454.06
408.15	386.19
408.34	388.53
408.54	435.34
408.73	442.36
408.92	409.59
409.11	367.46
409.30	423.64
409.49	374.49
409.68	339.38
409.87	381.51
410.07	400.23
410.26	400.23
410.45	418.96
410.64	355.76
410.83	447.04
411.02	367.46
411.21	400.23
411.40	404.91
411.59	381.51
411.78	402.57
411.98	339.38
412.17	404.91
412.36	440.02
412.55	411.93
412.74	435.34
412.93	411.93
413.12	381.51
413.31	421.30
413.50	372.15
413.69	456.40
413.88	390.87
414.07	358.10
414.26	397.89
414.45	383.85
414.64	475.13
414.83	322.99
415.02	430.66
415.22	486.83
415.41	409.59
415.60	381.51
415.79	414.27
415.98	435.34
416.17	423.64
416.36	322.99
416.55	472.79
416.74	414.27
416.93	388.53
417.12	346.40
417.31	421.30
417.50	383.85
417.69	379.17
417.88	407.25
418.07	456.40
418.26	409.59
418.45	409.59
418.64	425.98
418.83	402.57
419.02	461.09
419.21	468.11
419.39	402.57
419.58	454.06
419.77	379.17
419.96	404.91
420.15	411.93
420.34	379.17
420.53	421.30
420.72	416.62
420.91	456.40
421.10	334.70
421.29	428.32
421.48	461.09
421.67	442.36
421.86	388.53
422.05	414.27
422.24	346.40
422.43	402.57
422.61	381.51
422.80	287.89
422.99	400.23
423.18	421.30
423.37	402.57
423.56	409.59
423.75	348.74
423.94	393.21
424.13	425.98
424.32	367.46
424.50	369.80
424.69	372.15
424.88	402.57
425.07	416.62
425.26	404.91
425.45	437.68
425.64	383.85
425.83	311.29
426.01	367.46
426.20	500.87
426.39	449.38
426.58	400.23
426.77	379.17
426.96	397.89
427.15	397.89
427.33	320.65
427.52	423.64
427.71	414.27
427.90	470.45
428.09	440.02
428.28	437.68
428.46	414.27
428.65	470.45
428.84	339.38
429.03	414.27
429.22	411.93
429.40	468.11
429.59	397.89
429.78	386.19
429.97	440.02
430.16	418.96
430.34	414.27
430.53	386.19
430.72	358.10
430.91	442.36
431.10	400.23
431.28	344.06
431.47	454.06
431.66	435.34
431.85	421.30
432.03	477.47
432.22	458.74
432.41	395.55
432.60	404.91
432.79	386.19
432.97	454.06
433.16	379.17
433.35	402.57
433.54	463.43
433.72	418.96
433.91	444.70
434.10	358.10
434.28	477.47
434.47	395.55
434.66	374.49
434.85	332.36
435.03	383.85
435.22	407.25
435.41	395.55
435.59	416.62
435.78	414.27
435.97	409.59
436.16	367.46
436.34	451.72
436.53	365.12
436.72	381.51
436.90	414.27
437.09	496.19
437.28	374.49
437.46	437.68
437.65	428.32
437.84	386.19
438.02	491.51
438.21	472.79
438.40	393.21
438.58	397.89
438.77	449.38
438.96	463.43
439.14	369.80
439.33	390.87
439.52	383.85
439.70	411.93
439.89	400.23
440.08	435.34
440.26	425.98
440.45	449.38
440.63	395.55
440.82	360.44
441.01	332.36
441.19	400.23
441.38	421.30
441.57	423.64
441.75	496.19
441.94	496.19
442.12	388.53
442.31	418.96
442.50	444.70
442.68	425.98
442.87	437.68
443.05	407.25
443.24	414.27
443.43	400.23
443.61	428.32
443.80	400.23
443.98	416.62
444.17	447.04
444.35	461.09
444.54	386.19
444.73	376.83
444.91	388.53
445.10	407.25
445.28	418.96
445.47	358.10
445.65	423.64
445.84	407.25
446.02	421.30
446.21	383.85
446.39	358.10
446.58	437.68
446.77	404.91
446.95	430.66
447.14	386.19
447.32	437.68
447.51	437.68
447.69	447.04
447.88	456.40
448.06	402.57
448.25	477.47
448.43	416.62
448.62	388.53
448.80	428.32
448.99	463.43
449.17	386.19
449.36	353.42
449.54	397.89
449.73	372.15
449.91	393.21
450.10	372.15
450.28	435.34
450.46	388.53
450.65	437.68
450.83	425.98
451.02	400.23
451.20	369.80
451.39	346.40
451.57	404.91
451.76	400.23
451.94	454.06
452.13	449.38
452.31	477.47
452.49	423.64
452.68	379.17
452.86	433.00
453.05	393.21
453.23	447.04
453.42	409.59
453.60	367.46
453.78	395.55
453.97	407.25
454.15	402.57
454.34	414.27
454.52	388.53
454.70	425.98
454.89	390.87
455.07	454.06
455.26	428.32
455.44	444.70
455.62	411.93
455.81	451.72
455.99	388.53
456.17	351.08
456.36	414.27
456.54	404.91
456.73	470.45
456.91	418.96
457.09	393.21
457.28	418.96
457.46	362.78
457.64	402.57
457.83	418.96
458.01	496.19
458.19	442.36
458.38	341.72
458.56	360.44
458.74	395.55
458.93	416.62
459.11	454.06
459.29	440.02
459.48	428.32
459.66	407.25
459.84	355.76
460.03	440.02
460.21	449.38
460.39	395.55
460.57	470.45
460.76	440.02
460.94	489.17
461.12	451.72
461.31	411.93
461.49	374.49
461.67	388.53
461.85	416.62
462.04	433.00
462.22	767.70
462.40	437.68
462.59	470.45
462.77	430.66
462.95	416.62
463.13	383.85
463.32	428.32
463.50	477.47
463.68	409.59
463.86	374.49
464.05	470.45
464.23	440.02
464.41	461.09
464.59	409.59
464.78	358.10
464.96	409.59
465.14	381.51
465.32	383.85
465.50	409.59
465.69	360.44
465.87	334.70
466.05	376.83
466.23	416.62
466.41	393.21
466.60	407.25
466.78	496.19
466.96	395.55
467.14	402.57
467.32	397.89
467.51	442.36
467.69	379.17
467.87	341.72
468.05	463.43
468.23	435.34
468.41	425.98
468.60	367.46
468.78	430.66
468.96	416.62
469.14	416.62
469.32	454.06
469.50	423.64
469.69	379.17
469.87	475.13
470.05	479.81
470.23	428.32
470.41	407.25
470.59	470.45
470.77	379.17
470.95	379.17
471.14	461.09
471.32	437.68
471.50	451.72
471.68	440.02
471.86	390.87
472.04	416.62
472.22	402.57
472.40	360.44
472.58	414.27
472.77	407.25
472.95	468.11
473.13	402.57
473.31	468.11
473.49	433.00
473.67	395.55
473.85	421.30
474.03	372.15
474.21	379.17
474.39	449.38
474.57	411.93
474.75	397.89
474.93	409.59
475.12	423.64
475.30	365.12
475.48	358.10
475.66	435.34
475.84	388.53
476.02	388.53
476.20	442.36
476.38	437.68
476.56	421.30
476.74	365.12
476.92	435.34
477.10	381.51
477.28	435.34
477.46	388.53
477.64	407.25
477.82	423.64
478.00	360.44
478.18	404.91
478.36	514.92
478.54	395.55
478.72	407.25
478.90	444.70
479.08	428.32
479.26	386.19
479.44	409.59
479.62	400.23
479.80	456.40
479.98	376.83
480.16	374.49
480.34	491.51
480.52	416.62
480.70	411.93
480.88	489.17
481.06	360.44
481.24	456.40
481.41	447.04
481.59	383.85
481.77	386.19
481.95	365.12
482.13	477.47
482.31	449.38
482.49	449.38
482.67	393.21
482.85	449.38
483.03	414.27
483.21	397.89
483.39	344.06
483.57	393.21
483.74	463.43
483.92	376.83
484.10	428.32
484.28	437.68
484.46	491.51
484.64	437.68
484.82	407.25
485.00	388.53
485.18	376.83
485.35	414.27
485.53	360.44
485.71	409.59
485.89	423.64
486.07	404.91
486.25	435.34
486.43	472.79
486.61	440.02
486.78	449.38
486.96	442.36
487.14	423.64
487.32	444.70
487.50	418.96
487.68	402.57
487.85	475.13
488.03	451.72
488.21	351.08
488.39	393.21
488.57	425.98
488.75	444.70
488.92	470.45
489.10	433.00
489.28	425.98
489.46	344.06
489.64	367.46
489.81	440.02
489.99	402.57
490.17	425.98
490.35	428.32
490.53	390.87
490.70	374.49
490.88	425.98
491.06	433.00
491.24	374.49
491.41	444.70
491.59	465.77
491.77	451.72
491.95	444.70
492.13	386.19
492.30	433.00
492.48	337.04
492.66	425.98
492.84	402.57
493.01	451.72
493.19	472.79
493.37	428.32
493.54	416.62
493.72	402.57
493.90	447.04
494.08	414.27
494.25	430.66
494.43	381.51
494.61	425.98
494.79	404.91
494.96	425.98
495.14	393.21
495.32	479.81
495.49	437.68
495.67	393.21
495.85	388.53
496.02	404.91
496.20	447.04
496.38	475.13
496.55	407.25
496.73	372.15
496.91	428.32
497.09	444.70
497.26	409.59
497.44	425.98
497.62	418.96
497.79	486.83
497.97	493.85
498.14	386.19
498.32	409.59
498.50	454.06
498.67	369.80
498.85	416.62
499.03	365.12
499.20	421.30
499.38	491.51
499.56	395.55
499.73	400.23
499.91	477.47
500.08	451.72
500.26	437.68
500.44	416.62
500.61	404.91
500.79	418.96
500.97	414.27
501.14	374.49
501.32	418.96
501.49	451.72
501.67	367.46
501.84	447.04
502.02	423.64
502.20	425.98
502.37	507.90
502.55	421.30
502.72	440.02
502.90	404.91
503.07	421.30
503.25	535.98
503.43	409.59
503.60	449.38
503.78	346.40
503.95	381.51
504.13	330.02
504.30	383.85
504.48	402.57
504.65	440.02
504.83	388.53
505.01	454.06
505.18	414.27
505.36	514.92
505.53	418.96
505.71	411.93
505.88	440.02
506.06	369.80
506.23	418.96
506.41	470.45
506.58	463.43
506.76	435.34
506.93	440.02
507.11	465.77
507.28	402.57
507.46	351.08
507.63	421.30
507.81	393.21
507.98	325.33
508.16	358.10
508.33	365.12
508.50	414.27
508.68	390.87
508.85	348.74
509.03	341.72
509.20	351.08
509.38	402.57
509.55	397.89
509.73	386.19
509.90	423.64
510.08	344.06
510.25	376.83
510.42	404.91
510.60	468.11
510.77	411.93
510.95	409.59
511.12	414.27
511.30	472.79
511.47	458.74
511.64	440.02
511.82	379.17
511.99	440.02
512.17	440.02
512.34	397.89
512.51	425.98
512.69	393.21
512.86	425.98
513.04	379.17
513.21	402.57
513.38	390.87
513.56	358.10
513.73	402.57
513.90	337.04
514.08	390.87
514.25	430.66
514.43	447.04
514.60	423.64
514.77	437.68
514.95	425.98
515.12	400.23
515.29	430.66
515.47	449.38
515.64	440.02
515.81	400.23
515.99	400.23
516.16	376.83
516.33	416.62
516.51	463.43
516.68	379.17
516.85	416.62
517.03	409.59
517.20	393.21
517.37	470.45
517.54	423.64
517.72	353.42
517.89	351.08
518.06	388.53
518.24	514.92
518.41	477.47
518.58	461.09
518.75	393.21
518.93	388.53
519.10	372.15
519.27	362.78
519.45	475.13
519.62	386.19
519.79	425.98
519.96	444.70
520.14	390.87
520.31	440.02
520.48	468.11
520.65	369.80
520.83	472.79
521.00	390.87
521.17	421.30
521.34	402.57
521.52	454.06
521.69	442.36
521.86	461.09
522.03	397.89
522.20	430.66
522.38	496.19
522.55	421.30
522.72	461.09
522.89	411.93
523.07	456.40
523.24	421.30
523.41	447.04
523.58	449.38
523.75	451.72
523.92	409.59
524.10	435.34
524.27	423.64
524.44	407.25
524.61	381.51
524.78	447.04
524.96	404.91
525.13	416.62
525.30	407.25
525.47	402.57
525.64	514.92
525.81	395.55
525.98	503.22
526.16	465.77
526.33	454.06
526.50	425.98
526.67	353.42
526.84	411.93
527.01	411.93
527.18	411.93
527.36	433.00
527.53	381.51
527.70	423.64
527.87	433.00
528.04	456.40
528.21	433.00
528.38	491.51
528.55	409.59
528.72	451.72
528.89	463.43
529.07	491.51
529.24	423.64
529.41	381.51
529.58	416.62
529.75	381.51
529.92	404.91
530.09	425.98
530.26	472.79
530.43	381.51
530.60	411.93
530.77	458.74
530.94	430.66
531.11	430.66
531.28	430.66
531.46	334.70
531.63	416.62
531.80	397.89
531.97	479.81
532.14	421.30
532.31	440.02
532.48	404.91
532.65	442.36
532.82	411.93
532.99	454.06
533.16	423.64
533.33	411.93
533.50	358.10
533.67	423.64
533.84	383.85
534.01	409.59
534.18	475.13
534.35	353.42
534.52	395.55
534.69	423.64
534.86	414.27
535.03	428.32
535.20	374.49
535.37	416.62
535.54	437.68
535.71	447.04
535.88	386.19
536.05	493.85
536.22	444.70
536.38	449.38
536.55	468.11
536.72	400.23
536.89	402.57
537.06	423.64
537.23	369.80
537.40	440.02
537.57	482.15
537.74	456.40
537.91	388.53
538.08	444.70
538.25	433.00
538.42	383.85
538.59	449.38
538.75	411.93
538.92	416.62
539.09	454.06
539.26	365.12
539.43	447.04
539.60	416.62
539.77	477.47
539.94	430.66
540.11	393.21
540.28	369.80
540.44	390.87
540.61	444.70
540.78	451.72
540.95	381.51
541.12	493.85
541.29	365.12
541.46	404.91
541.62	472.79
541.79	369.80
541.96	390.87
542.13	425.98
542.30	411.93
542.47	418.96
542.63	482.15
542.80	411.93
542.97	468.11
543.14	437.68
543.31	348.74
543.48	435.34
543.64	465.77
543.81	468.11
543.98	304.27
544.15	381.51
544.32	428.32
544.48	388.53
544.65	407.25
544.82	461.09
544.99	409.59
545.16	447.04
545.32	402.57
545.49	444.70
545.66	376.83
545.83	372.15
546.00	425.98
546.16	362.78
546.33	397.89
546.50	482.15
546.67	451.72
546.83	393.21
547.00	458.74
547.17	402.57
547.34	393.21
547.50	414.27
547.67	472.79
547.84	402.57
548.00	449.38
548.17	425.98
548.34	407.25
548.51	409.59
548.67	430.66
548.84	386.19
549.01	376.83
549.18	423.64
549.34	444.70
549.51	386.19
549.68	454.06
549.84	397.89
550.01	379.17
550.18	451.72
550.34	461.09
550.51	381.51
550.68	479.81
550.84	463.43
551.01	440.02
551.18	390.87
551.34	433.00
551.51	505.56
551.68	468.11
551.84	465.77
552.01	440.02
552.18	386.19
552.34	367.46
552.51	407.25
552.68	442.36
552.84	320.65
553.01	444.70
553.18	416.62
553.34	411.93
553.51	360.44
553.67	425.98
553.84	465.77
554.01	423.64
554.17	409.59
554.34	250.44
554.51	348.74
554.67	465.77
554.84	451.72
555.00	388.53
555.17	428.32
555.33	381.51
555.50	437.68
555.67	358.10
555.83	416.62
556.00	416.62
556.16	547.69
556.33	407.25
556.50	404.91
556.66	425.98
556.83	376.83
556.99	414.27
557.16	404.91
557.32	423.64
557.49	451.72
557.65	390.87
557.82	418.96
557.98	376.83
558.15	454.06
558.32	390.87
558.48	456.40
558.65	456.40
558.81	379.17
558.98	400.23
559.14	400.23
559.31	423.64
559.47	407.25
559.64	435.34
559.80	402.57
559.97	397.89
560.13	437.68
560.30	341.72
560.46	395.55
560.63	407.25
560.79	465.77
560.96	351.08
561.12	353.42
561.29	449.38
561.45	423.64
561.61	423.64
561.78	547.69
561.94	416.62
562.11	465.77
562.27	454.06
562.44	400.23
562.60	437.68
562.77	449.38
562.93	444.70
563.10	447.04
563.26	418.96
563.42	402.57
563.59	369.80
563.75	400.23
563.92	428.32
564.08	491.51
564.24	463.43
564.41	428.32
564.57	461.09
564.74	416.62
564.90	468.11
565.07	456.40
565.23	510.24
565.39	430.66
565.56	440.02
565.72	440.02
565.88	367.46
566.05	433.00
566.21	379.17
566.38	404.91
566.54	503.22
566.70	404.91
566.87	404.91
567.03	369.80
567.19	395.55
567.36	423.64
567.52	407.25
567.68	421.30
567.85	482.15
568.01	418.96
568.17	369.80
568.34	397.89
568.50	465.77
568.66	322.99
568.83	540.66
568.99	423.64
569.15	414.27
569.32	498.53
569.48	449.38
569.64	435.34
569.81	470.45
569.97	416.62
570.13	353.42
570.30	397.89
570.46	339.38
570.62	409.59
570.78	423.64
570.95	433.00
571.11	456.40
571.27	479.81
571.43	407.25
571.60	411.93
571.76	379.17
571.92	395.55
572.09	409.59
572.25	503.22
572.41	404.91
572.57	423.64
572.74	465.77
572.90	402.57
573.06	486.83
573.22	451.72
573.38	437.68
573.55	379.17
573.71	409.59
573.87	400.23
574.03	409.59
574.20	458.74
574.36	409.59
574.52	493.85
574.68	442.36
574.84	423.64
575.01	472.79
575.17	404.91
575.33	386.19
575.49	423.64
575.65	458.74
575.82	440.02
575.98	369.80
576.14	393.21
576.30	437.68
576.46	423.64
576.62	428.32
576.79	437.68
576.95	421.30
577.11	409.59
577.27	468.11
577.43	369.80
577.59	390.87
577.75	362.78
577.92	430.66
578.08	428.32
578.24	451.72
578.40	451.72
578.56	440.02
578.72	468.11
578.88	433.00
579.04	402.57
579.21	428.32
579.37	458.74
579.53	400.23
579.69	461.09
579.85	423.64
580.01	397.89
580.17	449.38
580.33	418.96
580.49	435.34
580.65	395.55
580.82	372.15
580.98	430.66
581.14	428.32
581.30	472.79
581.46	425.98
581.62	421.30
581.78	411.93
581.94	430.66
582.10	395.55
582.26	416.62
582.42	433.00
582.58	407.25
582.74	428.32
582.90	449.38
583.06	376.83
583.22	430.66
583.38	430.66
583.54	348.74
583.70	433.00
583.86	430.66
584.02	447.04
584.18	447.04
584.34	484.49
584.50	393.21
584.66	440.02
584.82	409.59
584.98	449.38
585.14	418.96
585.30	430.66
585.46	433.00
585.62	423.64
585.78	358.10
585.94	423.64
586.10	451.72
586.26	395.55
586.42	395.55
586.58	393.21
586.74	381.51
586.90	463.43
587.06	461.09
587.22	414.27
587.38	372.15
587.54	388.53
587.70	491.51
587.86	423.64
588.02	402.57
588.18	425.98
588.34	472.79
588.49	428.32
588.65	428.32
588.81	435.34
588.97	358.10
589.13	332.36
589.29	477.47
589.45	447.04
589.61	369.80
589.77	423.64
589.93	421.30
590.08	440.02
590.24	381.51
590.40	465.77
590.56	486.83
590.72	409.59
590.88	393.21
591.04	437.68
591.20	449.38
591.35	477.47
591.51	372.15
591.67	315.97
591.83	407.25
591.99	423.64
592.15	458.74
592.31	407.25
592.46	411.93
592.62	470.45
592.78	372.15
592.94	428.32
593.10	440.02
593.26	414.27
593.41	454.06
593.57	435.34
593.73	416.62
593.89	465.77
594.05	388.53
594.20	411.93
594.36	423.64
594.52	407.25
594.68	447.04
594.84	376.83
594.99	479.81
595.15	416.62
595.31	433.00
595.47	409.59
595.62	409.59
595.78	395.55
595.94	390.87
596.10	400.23
596.25	444.70
596.41	372.15
596.57	475.13
596.73	430.66
596.88	369.80
597.04	435.34
597.20	339.38
597.36	463.43
597.51	397.89
597.67	489.17
597.83	477.47
597.99	444.70
598.14	395.55
598.30	475.13
598.46	388.53
598.61	440.02
598.77	409.59
598.93	404.91
599.09	409.59
599.24	383.85
599.40	393.21
599.56	393.21
599.71	374.49
599.87	444.70
600.03	435.34
600.18	463.43
600.34	404.91
600.50	395.55
600.65	414.27
600.81	374.49
600.97	395.55
601.12	444.70
601.28	411.93
601.44	477.47
601.59	411.93
601.75	365.12
601.91	365.12
602.06	463.43
602.22	521.94
602.37	514.92
602.53	433.00
602.69	388.53
602.84	393.21
603.00	381.51
603.16	428.32
603.31	421.30
603.47	390.87
603.62	381.51
603.78	433.00
603.94	428.32
604.09	393.21
604.25	386.19
604.40	376.83
604.56	442.36
604.71	454.06
604.87	367.46
605.03	449.38
605.18	407.25
605.34	500.87
605.49	435.34
605.65	465.77
605.80	400.23
605.96	386.19
606.12	395.55
606.27	409.59
606.43	423.64
606.58	468.11
606.74	409.59
606.89	454.06
607.05	397.89
607.20	374.49
607.36	388.53
607.51	449.38
607.67	423.64
607.82	425.98
607.98	465.77
608.13	475.13
608.29	486.83
608.44	376.83
608.60	395.55
608.75	437.68
608.91	440.02
609.06	475.13
609.22	451.72
609.37	327.68
609.53	395.55
609.68	456.40
609.84	425.98
609.99	346.40
610.15	360.44
