SpectraSuite Data File
++++++++++++++++++++++++++++++++++++
Date: Fri Oct 25 12:10:25 EDT 2013
User: price-jones
Dark Spectrum Present: No
Reference Spectrum Present: No
Number of Sampled Component Spectra: 1
Spectrometers: USB2+H05261
Integration Time (usec): 100000 (USB2+H05261)
Spectra Averaged: 1 (USB2+H05261)
Boxcar Smoothing: 0 (USB2+H05261)
Correct for Electrical Dark: No (USB2+H05261)
Strobe/Lamp Enabled: No (USB2+H05261)
Correct for Detector Non-linearity: No (USB2+H05261)
Correct for Stray Light: No (USB2+H05261)
Number of Pixels in Processed Spectrum: 2048
>>>>>Begin Processed Spectral Data<<<<<
365.73	327.68
365.92	327.68
366.12	327.68
366.32	259.80
366.52	280.86
366.72	234.05
366.91	259.80
367.11	255.12
367.31	266.82
367.51	215.33
367.70	252.78
367.90	259.80
368.10	271.50
368.30	248.10
368.49	217.67
368.69	238.73
368.89	250.44
369.09	259.80
369.28	320.65
369.48	273.84
369.68	290.23
369.87	327.68
370.07	283.20
370.27	325.33
370.47	348.74
370.66	306.61
370.86	285.55
371.06	374.49
371.25	409.59
371.45	414.27
371.65	365.12
371.84	383.85
372.04	376.83
372.24	472.79
372.44	423.64
372.63	400.23
372.83	425.98
373.03	376.83
373.22	472.79
373.42	353.42
373.62	435.34
373.81	397.89
374.01	423.64
374.21	381.51
374.40	428.32
374.60	435.34
374.79	374.49
374.99	374.49
375.19	465.77
375.38	451.72
375.58	409.59
375.78	454.06
375.97	327.68
376.17	425.98
376.37	393.21
376.56	365.12
376.76	285.55
376.95	423.64
377.15	407.25
377.35	395.55
377.54	454.06
377.74	388.53
377.93	341.72
378.13	463.43
378.33	393.21
378.52	355.76
378.72	383.85
378.91	386.19
379.11	351.08
379.31	386.19
379.50	465.77
379.70	372.15
379.89	454.06
380.09	407.25
380.28	409.59
380.48	435.34
380.68	416.62
380.87	388.53
381.07	395.55
381.26	437.68
381.46	496.19
381.65	411.93
381.85	388.53
382.04	489.17
382.24	372.15
382.43	304.27
382.63	395.55
382.83	358.10
383.02	395.55
383.22	381.51
383.41	397.89
383.61	433.00
383.80	505.56
384.00	365.12
384.19	362.78
384.39	458.74
384.58	423.64
384.78	428.32
384.97	416.62
385.17	390.87
385.36	362.78
385.56	404.91
385.75	362.78
385.95	376.83
386.14	414.27
386.34	444.70
386.53	430.66
386.72	395.55
386.92	428.32
387.11	374.49
387.31	435.34
387.50	425.98
387.70	404.91
387.89	297.25
388.09	376.83
388.28	437.68
388.48	461.09
388.67	407.25
388.86	437.68
389.06	435.34
389.25	433.00
389.45	449.38
389.64	449.38
389.84	440.02
390.03	393.21
390.22	475.13
390.42	379.17
390.61	407.25
390.81	388.53
391.00	472.79
391.19	435.34
391.39	320.65
391.58	325.33
391.78	360.44
391.97	400.23
392.16	400.23
392.36	435.34
392.55	458.74
392.75	362.78
392.94	407.25
393.13	461.09
393.33	404.91
393.52	428.32
393.71	449.38
393.91	435.34
394.10	334.70
394.29	393.21
394.49	407.25
394.68	320.65
394.88	435.34
395.07	414.27
395.26	341.72
395.46	353.42
395.65	428.32
395.84	400.23
396.04	521.94
396.23	440.02
396.42	379.17
396.62	397.89
396.81	454.06
397.00	479.81
397.19	407.25
397.39	400.23
397.58	423.64
397.77	404.91
397.97	425.98
398.16	425.98
398.35	402.57
398.55	442.36
398.74	468.11
398.93	496.19
399.12	428.32
399.32	388.53
399.51	341.72
399.70	397.89
399.90	414.27
400.09	400.23
400.28	379.17
400.47	372.15
400.67	390.87
400.86	381.51
401.05	447.04
401.24	425.98
401.44	306.61
401.63	444.70
401.82	465.77
402.01	404.91
402.21	388.53
402.40	322.99
402.59	407.25
402.78	355.76
402.97	351.08
403.17	374.49
403.36	430.66
403.55	416.62
403.74	346.40
403.93	437.68
404.13	374.49
404.32	374.49
404.51	477.47
404.70	447.04
404.89	425.98
405.09	486.83
405.28	418.96
405.47	411.93
405.66	461.09
405.85	400.23
406.05	365.12
406.24	423.64
406.43	341.72
406.62	428.32
406.81	402.57
407.00	428.32
407.20	414.27
407.39	454.06
407.58	374.49
407.77	386.19
407.96	503.22
408.15	362.78
408.34	383.85
408.54	388.53
408.73	386.19
408.92	365.12
409.11	409.59
409.30	449.38
409.49	381.51
409.68	397.89
409.87	393.21
410.07	346.40
410.26	409.59
410.45	341.72
410.64	430.66
410.83	369.80
411.02	322.99
411.21	425.98
411.40	414.27
411.59	397.89
411.78	444.70
411.98	383.85
412.17	454.06
412.36	440.02
412.55	358.10
412.74	365.12
412.93	430.66
413.12	397.89
413.31	407.25
413.50	423.64
413.69	390.87
413.88	414.27
414.07	409.59
414.26	360.44
414.45	341.72
414.64	400.23
414.83	383.85
415.02	402.57
415.22	435.34
415.41	425.98
415.60	437.68
415.79	451.72
415.98	433.00
416.17	395.55
416.36	451.72
416.55	351.08
416.74	397.89
416.93	421.30
417.12	423.64
417.31	374.49
417.50	390.87
417.69	409.59
417.88	423.64
418.07	435.34
418.26	369.80
418.45	454.06
418.64	418.96
418.83	454.06
419.02	416.62
419.21	428.32
419.39	465.77
419.58	402.57
419.77	346.40
419.96	470.45
420.15	442.36
420.34	411.93
420.53	383.85
420.72	348.74
420.91	451.72
421.10	339.38
421.29	367.46
421.48	381.51
421.67	379.17
421.86	376.83
422.05	416.62
422.24	425.98
422.43	437.68
422.61	425.98
422.80	505.56
422.99	411.93
423.18	461.09
423.37	486.83
423.56	386.19
423.75	444.70
423.94	428.32
424.13	393.21
424.32	353.42
424.50	379.17
424.69	440.02
424.88	379.17
425.07	447.04
425.26	365.12
425.45	517.26
425.64	433.00
425.83	404.91
426.01	449.38
426.20	409.59
426.39	498.53
426.58	407.25
426.77	433.00
426.96	383.85
427.15	407.25
427.33	372.15
427.52	388.53
427.71	437.68
427.90	418.96
428.09	437.68
428.28	418.96
428.46	423.64
428.65	379.17
428.84	428.32
429.03	397.89
429.22	440.02
429.40	430.66
429.59	400.23
429.78	465.77
429.97	444.70
430.16	367.46
430.34	430.66
430.53	433.00
430.72	454.06
430.91	468.11
431.10	404.91
431.28	381.51
431.47	465.77
431.66	456.40
431.85	374.49
432.03	334.70
432.22	428.32
432.41	430.66
432.60	421.30
432.79	397.89
432.97	475.13
433.16	421.30
433.35	444.70
433.54	454.06
433.72	423.64
433.91	348.74
434.10	437.68
434.28	430.66
434.47	437.68
434.66	379.17
434.85	430.66
435.03	418.96
435.22	369.80
435.41	430.66
435.59	407.25
435.78	397.89
435.97	393.21
436.16	400.23
436.34	421.30
436.53	411.93
436.72	458.74
436.90	475.13
437.09	393.21
437.28	407.25
437.46	407.25
437.65	372.15
437.84	402.57
438.02	437.68
438.21	433.00
438.40	372.15
438.58	428.32
438.77	454.06
438.96	421.30
439.14	374.49
439.33	423.64
439.52	433.00
439.70	454.06
439.89	390.87
440.08	409.59
440.26	411.93
440.45	428.32
440.63	407.25
440.82	372.15
441.01	383.85
441.19	362.78
441.38	447.04
441.57	358.10
441.75	411.93
441.94	411.93
442.12	440.02
442.31	428.32
442.50	407.25
442.68	503.22
442.87	414.27
443.05	376.83
443.24	433.00
443.43	379.17
443.61	477.47
443.80	435.34
443.98	451.72
444.17	376.83
444.35	444.70
444.54	444.70
444.73	372.15
444.91	491.51
445.10	360.44
445.28	355.76
445.47	393.21
445.65	454.06
445.84	397.89
446.02	414.27
446.21	376.83
446.39	386.19
446.58	435.34
446.77	379.17
446.95	355.76
447.14	423.64
447.32	440.02
447.51	423.64
447.69	414.27
447.88	402.57
448.06	433.00
448.25	407.25
448.43	433.00
448.62	447.04
448.80	461.09
448.99	393.21
449.17	362.78
449.36	421.30
449.54	477.47
449.73	369.80
449.91	440.02
450.10	407.25
450.28	433.00
450.46	407.25
450.65	386.19
450.83	440.02
451.02	449.38
451.20	381.51
451.39	360.44
451.57	374.49
451.76	330.02
451.94	397.89
452.13	486.83
452.31	456.40
452.49	456.40
452.68	428.32
452.86	456.40
453.05	449.38
453.23	369.80
453.42	358.10
453.60	374.49
453.78	425.98
453.97	411.93
454.15	362.78
454.34	423.64
454.52	435.34
454.70	526.62
454.89	367.46
455.07	416.62
455.26	418.96
455.44	388.53
455.62	428.32
455.81	400.23
455.99	404.91
456.17	468.11
456.36	388.53
456.54	369.80
456.73	374.49
456.91	411.93
457.09	369.80
457.28	458.74
457.46	416.62
457.64	433.00
457.83	379.17
458.01	400.23
458.19	390.87
458.38	423.64
458.56	383.85
458.74	418.96
458.93	372.15
459.11	374.49
459.29	411.93
459.48	334.70
459.66	418.96
459.84	400.23
460.03	423.64
460.21	430.66
460.39	404.91
460.57	393.21
460.76	315.97
460.94	447.04
461.12	477.47
461.31	416.62
461.49	379.17
461.67	334.70
461.85	388.53
462.04	362.78
462.22	770.04
462.40	458.74
462.59	395.55
462.77	435.34
462.95	400.23
463.13	428.32
463.32	437.68
463.50	430.66
463.68	454.06
463.86	411.93
464.05	369.80
464.23	430.66
464.41	400.23
464.59	388.53
464.78	355.76
464.96	369.80
465.14	430.66
465.32	470.45
465.50	423.64
465.69	383.85
465.87	418.96
466.05	411.93
466.23	369.80
466.41	372.15
466.60	435.34
466.78	407.25
466.96	472.79
467.14	444.70
467.32	482.15
467.51	447.04
467.69	437.68
467.87	470.45
468.05	365.12
468.23	402.57
468.41	444.70
468.60	383.85
468.78	365.12
468.96	449.38
469.14	376.83
469.32	397.89
469.50	327.68
469.69	407.25
469.87	409.59
470.05	454.06
470.23	416.62
470.41	376.83
470.59	472.79
470.77	491.51
470.95	402.57
471.14	416.62
471.32	433.00
471.50	374.49
471.68	479.81
471.86	421.30
472.04	337.04
472.22	440.02
472.40	367.46
472.58	332.36
472.77	463.43
472.95	447.04
473.13	465.77
473.31	444.70
473.49	463.43
473.67	486.83
473.85	386.19
474.03	496.19
474.21	372.15
474.39	512.58
474.57	475.13
474.75	407.25
474.93	447.04
475.12	442.36
475.30	475.13
475.48	365.12
475.66	409.59
475.84	470.45
476.02	407.25
476.20	437.68
476.38	367.46
476.56	510.24
476.74	493.85
476.92	400.23
477.10	421.30
477.28	416.62
477.46	374.49
477.64	369.80
477.82	418.96
478.00	416.62
478.18	374.49
478.36	404.91
478.54	374.49
478.72	390.87
478.90	465.77
479.08	402.57
479.26	404.91
479.44	332.36
479.62	433.00
479.80	428.32
479.98	404.91
480.16	423.64
480.34	447.04
480.52	358.10
480.70	386.19
480.88	479.81
481.06	404.91
481.24	400.23
481.41	435.34
481.59	379.17
481.77	470.45
481.95	383.85
482.13	451.72
482.31	430.66
482.49	381.51
482.67	381.51
482.85	376.83
483.03	451.72
483.21	372.15
483.39	418.96
483.57	449.38
483.74	386.19
483.92	383.85
484.10	414.27
484.28	435.34
484.46	524.28
484.64	404.91
484.82	414.27
485.00	374.49
485.18	411.93
485.35	374.49
485.53	341.72
485.71	374.49
485.89	360.44
486.07	430.66
486.25	479.81
486.43	517.26
486.61	484.49
486.78	454.06
486.96	400.23
487.14	351.08
487.32	425.98
487.50	416.62
487.68	435.34
487.85	306.61
488.03	425.98
488.21	451.72
488.39	376.83
488.57	496.19
488.75	390.87
488.92	500.87
489.10	482.15
489.28	484.49
489.46	444.70
489.64	367.46
489.81	468.11
489.99	451.72
490.17	435.34
490.35	463.43
490.53	414.27
490.70	379.17
490.88	447.04
491.06	358.10
491.24	414.27
491.41	526.62
491.59	440.02
491.77	383.85
491.95	404.91
492.13	353.42
492.30	437.68
492.48	386.19
492.66	458.74
492.84	351.08
493.01	440.02
493.19	355.76
493.37	388.53
493.54	449.38
493.72	414.27
493.90	402.57
494.08	425.98
494.25	376.83
494.43	472.79
494.61	381.51
494.79	397.89
494.96	407.25
495.14	400.23
495.32	456.40
495.49	404.91
495.67	421.30
495.85	421.30
496.02	425.98
496.20	414.27
496.38	390.87
496.55	381.51
496.73	381.51
496.91	393.21
497.09	327.68
497.26	423.64
497.44	372.15
497.62	433.00
497.79	414.27
497.97	498.53
498.14	423.64
498.32	449.38
498.50	472.79
498.67	411.93
498.85	442.36
499.03	402.57
499.20	470.45
499.38	372.15
499.56	404.91
499.73	411.93
499.91	437.68
500.08	372.15
500.26	465.77
500.44	407.25
500.61	475.13
500.79	451.72
500.97	421.30
501.14	425.98
501.32	360.44
501.49	388.53
501.67	395.55
501.84	472.79
502.02	423.64
502.20	465.77
502.37	414.27
502.55	386.19
502.72	444.70
502.90	390.87
503.07	351.08
503.25	458.74
503.43	360.44
503.60	437.68
503.78	428.32
503.95	404.91
504.13	334.70
504.30	456.40
504.48	477.47
504.65	430.66
504.83	433.00
505.01	404.91
505.18	402.57
505.36	376.83
505.53	393.21
505.71	397.89
505.88	423.64
506.06	451.72
506.23	421.30
506.41	414.27
506.58	372.15
506.76	351.08
506.93	393.21
507.11	416.62
507.28	414.27
507.46	416.62
507.63	372.15
507.81	348.74
507.98	449.38
508.16	442.36
508.33	400.23
508.50	367.46
508.68	355.76
508.85	388.53
509.03	322.99
509.20	461.09
509.38	390.87
509.55	402.57
509.73	404.91
509.90	489.17
510.08	390.87
510.25	472.79
510.42	367.46
510.60	425.98
510.77	470.45
510.95	482.15
511.12	409.59
511.30	454.06
511.47	463.43
511.64	444.70
511.82	442.36
511.99	423.64
512.17	341.72
512.34	379.17
512.51	449.38
512.69	374.49
512.86	444.70
513.04	397.89
513.21	433.00
513.38	360.44
513.56	444.70
513.73	470.45
513.90	409.59
514.08	388.53
514.25	416.62
514.43	407.25
514.60	404.91
514.77	402.57
514.95	447.04
515.12	397.89
515.29	390.87
515.47	451.72
515.64	477.47
515.81	395.55
515.99	465.77
516.16	463.43
516.33	461.09
516.51	416.62
516.68	351.08
516.85	437.68
517.03	409.59
517.20	393.21
517.37	372.15
517.54	430.66
517.72	407.25
517.89	458.74
518.06	362.78
518.24	475.13
518.41	468.11
518.58	440.02
518.75	407.25
518.93	477.47
519.10	369.80
519.27	369.80
519.45	433.00
519.62	425.98
519.79	395.55
519.96	416.62
520.14	402.57
520.31	465.77
520.48	411.93
520.65	454.06
520.83	454.06
521.00	404.91
521.17	383.85
521.34	423.64
521.52	428.32
521.69	411.93
521.86	402.57
522.03	418.96
522.20	449.38
522.38	416.62
522.55	376.83
522.72	440.02
522.89	386.19
523.07	435.34
523.24	381.51
523.41	330.02
523.58	390.87
523.75	465.77
523.92	414.27
524.10	468.11
524.27	393.21
524.44	381.51
524.61	505.56
524.78	381.51
524.96	428.32
525.13	414.27
525.30	468.11
525.47	414.27
525.64	411.93
525.81	472.79
525.98	447.04
526.16	374.49
526.33	451.72
526.50	351.08
526.67	407.25
526.84	404.91
527.01	360.44
527.18	449.38
527.36	416.62
527.53	425.98
527.70	407.25
527.87	341.72
528.04	411.93
528.21	383.85
528.38	411.93
528.55	400.23
528.72	390.87
528.89	458.74
529.07	395.55
529.24	411.93
529.41	414.27
529.58	376.83
529.75	411.93
529.92	416.62
530.09	400.23
530.26	395.55
530.43	395.55
530.60	425.98
530.77	390.87
530.94	355.76
531.11	383.85
531.28	379.17
531.46	409.59
531.63	386.19
531.80	449.38
531.97	442.36
532.14	404.91
532.31	409.59
532.48	393.21
532.65	454.06
532.82	425.98
532.99	418.96
533.16	411.93
533.33	369.80
533.50	395.55
533.67	416.62
533.84	414.27
534.01	472.79
534.18	383.85
534.35	428.32
534.52	423.64
534.69	393.21
534.86	381.51
535.03	444.70
535.20	355.76
535.37	472.79
535.54	491.51
535.71	416.62
535.88	503.22
536.05	381.51
536.22	416.62
536.38	376.83
536.55	442.36
536.72	435.34
536.89	348.74
537.06	395.55
537.23	425.98
537.40	475.13
537.57	409.59
537.74	454.06
537.91	416.62
538.08	425.98
538.25	430.66
538.42	397.89
538.59	430.66
538.75	386.19
538.92	414.27
539.09	449.38
539.26	411.93
539.43	526.62
539.60	407.25
539.77	383.85
539.94	388.53
540.11	451.72
540.28	470.45
540.44	418.96
540.61	470.45
540.78	400.23
540.95	444.70
541.12	447.04
541.29	393.21
541.46	423.64
541.62	472.79
541.79	386.19
541.96	414.27
542.13	383.85
542.30	381.51
542.47	416.62
542.63	397.89
542.80	400.23
542.97	437.68
543.14	388.53
543.31	435.34
543.48	489.17
543.64	505.56
543.81	407.25
543.98	407.25
544.15	416.62
544.32	409.59
544.48	374.49
544.65	407.25
544.82	402.57
544.99	491.51
545.16	472.79
545.32	416.62
545.49	386.19
545.66	397.89
545.83	365.12
546.00	409.59
546.16	395.55
546.33	416.62
546.50	360.44
546.67	421.30
546.83	428.32
547.00	407.25
547.17	421.30
547.34	433.00
547.50	402.57
547.67	496.19
547.84	386.19
548.00	500.87
548.17	442.36
548.34	435.34
548.51	449.38
548.67	437.68
548.84	433.00
549.01	470.45
549.18	418.96
549.34	397.89
549.51	393.21
549.68	442.36
549.84	344.06
550.01	341.72
550.18	414.27
550.34	461.09
550.51	325.33
550.68	491.51
550.84	428.32
551.01	454.06
551.18	339.38
551.34	339.38
551.51	407.25
551.68	381.51
551.84	404.91
552.01	411.93
552.18	433.00
552.34	409.59
552.51	447.04
552.68	390.87
552.84	444.70
553.01	365.12
553.18	449.38
553.34	397.89
553.51	451.72
553.67	428.32
553.84	409.59
554.01	442.36
554.17	435.34
554.34	423.64
554.51	451.72
554.67	411.93
554.84	421.30
555.00	447.04
555.17	390.87
555.33	444.70
555.50	454.06
555.67	400.23
555.83	430.66
556.00	468.11
556.16	592.16
556.33	381.51
556.50	365.12
556.66	470.45
556.83	477.47
556.99	409.59
557.16	365.12
557.32	381.51
557.49	360.44
557.65	358.10
557.82	440.02
557.98	400.23
558.15	400.23
558.32	421.30
558.48	348.74
558.65	353.42
558.81	393.21
558.98	376.83
559.14	454.06
559.31	442.36
559.47	496.19
559.64	442.36
559.80	440.02
559.97	421.30
560.13	418.96
560.30	376.83
560.46	416.62
560.63	463.43
560.79	486.83
560.96	390.87
561.12	379.17
561.29	400.23
561.45	360.44
561.61	433.00
561.78	458.74
561.94	414.27
562.11	351.08
562.27	440.02
562.44	416.62
562.60	418.96
562.77	430.66
562.93	489.17
563.10	465.77
563.26	372.15
563.42	421.30
563.59	437.68
563.75	402.57
563.92	512.58
564.08	468.11
564.24	465.77
564.41	507.90
564.57	435.34
564.74	383.85
564.90	442.36
565.07	414.27
565.23	411.93
565.39	400.23
565.56	390.87
565.72	433.00
565.88	393.21
566.05	491.51
566.21	461.09
566.38	463.43
566.54	477.47
566.70	477.47
566.87	430.66
567.03	404.91
567.19	437.68
567.36	416.62
567.52	486.83
567.68	386.19
567.85	411.93
568.01	341.72
568.17	433.00
568.34	456.40
568.50	428.32
568.66	395.55
568.83	521.94
568.99	404.91
569.15	451.72
569.32	383.85
569.48	428.32
569.64	421.30
569.81	407.25
569.97	437.68
570.13	440.02
570.30	327.68
570.46	458.74
570.62	409.59
570.78	381.51
570.95	449.38
571.11	400.23
571.27	400.23
571.43	353.42
571.60	433.00
571.76	447.04
571.92	400.23
572.09	393.21
572.25	463.43
572.41	407.25
572.57	447.04
572.74	435.34
572.90	465.77
573.06	423.64
573.22	477.47
573.38	496.19
573.55	404.91
573.71	383.85
573.87	327.68
574.03	383.85
574.20	381.51
574.36	454.06
574.52	409.59
574.68	433.00
574.84	428.32
575.01	355.76
575.17	393.21
575.33	418.96
575.49	395.55
575.65	425.98
575.82	416.62
575.98	472.79
576.14	451.72
576.30	388.53
576.46	423.64
576.62	421.30
576.79	449.38
576.95	367.46
577.11	397.89
577.27	346.40
577.43	461.09
577.59	489.17
577.75	414.27
577.92	374.49
578.08	409.59
578.24	393.21
578.40	465.77
578.56	404.91
578.72	430.66
578.88	402.57
579.04	393.21
579.21	407.25
579.37	414.27
579.53	402.57
579.69	444.70
579.85	430.66
580.01	430.66
580.17	402.57
580.33	421.30
580.49	435.34
580.65	423.64
580.82	393.21
580.98	402.57
581.14	437.68
581.30	505.56
581.46	451.72
581.62	418.96
581.78	395.55
581.94	440.02
582.10	411.93
582.26	376.83
582.42	414.27
582.58	425.98
582.74	465.77
582.90	421.30
583.06	449.38
583.22	390.87
583.38	395.55
583.54	367.46
583.70	416.62
583.86	400.23
584.02	465.77
584.18	463.43
584.34	418.96
584.50	351.08
584.66	447.04
584.82	430.66
584.98	397.89
585.14	423.64
585.30	433.00
585.46	360.44
585.62	407.25
585.78	418.96
585.94	491.51
586.10	428.32
586.26	369.80
586.42	442.36
586.58	388.53
586.74	402.57
586.90	449.38
587.06	433.00
587.22	425.98
587.38	355.76
587.54	425.98
587.70	402.57
587.86	435.34
588.02	351.08
588.18	442.36
588.34	421.30
588.49	475.13
588.65	369.80
588.81	358.10
588.97	475.13
589.13	421.30
589.29	465.77
589.45	491.51
589.61	435.34
589.77	421.30
589.93	472.79
590.08	397.89
590.24	386.19
590.40	468.11
590.56	334.70
590.72	440.02
590.88	428.32
591.04	475.13
591.20	404.91
591.35	365.12
591.51	430.66
591.67	367.46
591.83	442.36
591.99	442.36
592.15	435.34
592.31	400.23
592.46	344.06
592.62	374.49
592.78	418.96
592.94	430.66
593.10	400.23
593.26	383.85
593.41	390.87
593.57	395.55
593.73	411.93
593.89	435.34
594.05	430.66
594.20	458.74
594.36	526.62
594.52	440.02
594.68	351.08
594.84	463.43
594.99	451.72
595.15	465.77
595.31	372.15
595.47	414.27
595.62	465.77
595.78	388.53
595.94	379.17
596.10	456.40
596.25	461.09
596.41	423.64
596.57	500.87
596.73	430.66
596.88	486.83
597.04	421.30
597.20	423.64
597.36	411.93
597.51	374.49
597.67	409.59
597.83	414.27
597.99	372.15
598.14	411.93
598.30	383.85
598.46	287.89
598.61	435.34
598.77	430.66
598.93	416.62
599.09	351.08
599.24	379.17
599.40	435.34
599.56	421.30
599.71	444.70
599.87	440.02
600.03	327.68
600.18	433.00
600.34	451.72
600.50	390.87
600.65	367.46
600.81	444.70
600.97	374.49
601.12	451.72
601.28	505.56
601.44	442.36
601.59	397.89
601.75	442.36
601.91	451.72
602.06	409.59
602.22	566.41
602.37	454.06
602.53	407.25
602.69	454.06
602.84	353.42
603.00	416.62
603.16	383.85
603.31	472.79
603.47	409.59
603.62	425.98
603.78	379.17
603.94	449.38
604.09	437.68
604.25	416.62
604.40	444.70
604.56	414.27
604.71	440.02
604.87	402.57
605.03	416.62
605.18	414.27
605.34	482.15
605.49	451.72
605.65	416.62
605.80	428.32
605.96	374.49
606.12	491.51
606.27	433.00
606.43	355.76
606.58	484.49
606.74	425.98
606.89	369.80
607.05	447.04
607.20	456.40
607.36	428.32
607.51	470.45
607.67	374.49
607.82	383.85
607.98	423.64
608.13	425.98
608.29	507.90
608.44	402.57
608.60	393.21
608.75	435.34
608.91	390.87
609.06	449.38
609.22	390.87
609.37	451.72
609.53	381.51
609.68	407.25
609.84	365.12
609.99	407.25
610.15	365.12
