SpectraSuite Data File
++++++++++++++++++++++++++++++++++++
Date: Fri Oct 25 12:11:27 EDT 2013
User: price-jones
Dark Spectrum Present: No
Reference Spectrum Present: No
Number of Sampled Component Spectra: 1
Spectrometers: USB2+H05261
Integration Time (usec): 100000 (USB2+H05261)
Spectra Averaged: 1 (USB2+H05261)
Boxcar Smoothing: 0 (USB2+H05261)
Correct for Electrical Dark: No (USB2+H05261)
Strobe/Lamp Enabled: No (USB2+H05261)
Correct for Detector Non-linearity: No (USB2+H05261)
Correct for Stray Light: No (USB2+H05261)
Number of Pixels in Processed Spectrum: 2048
>>>>>Begin Processed Spectral Data<<<<<
365.73	320.65
365.92	320.65
366.12	320.65
366.32	210.65
366.52	255.12
366.72	222.35
366.91	198.95
367.11	301.93
367.31	243.42
367.51	224.69
367.70	149.79
367.90	224.69
368.10	180.22
368.30	259.80
368.49	152.13
368.69	264.48
368.89	313.63
369.09	269.16
369.28	327.68
369.48	299.59
369.68	266.82
369.87	280.86
370.07	269.16
370.27	278.52
370.47	348.74
370.66	306.61
370.86	383.85
371.06	330.02
371.25	465.77
371.45	374.49
371.65	337.04
371.84	456.40
372.04	372.15
372.24	388.53
372.44	372.15
372.63	341.72
372.83	430.66
373.03	374.49
373.22	433.00
373.42	393.21
373.62	430.66
373.81	418.96
374.01	442.36
374.21	411.93
374.40	390.87
374.60	360.44
374.79	414.27
374.99	444.70
375.19	442.36
375.38	418.96
375.58	369.80
375.78	435.34
375.97	454.06
376.17	433.00
376.37	414.27
376.56	348.74
376.76	407.25
376.95	416.62
377.15	397.89
377.35	458.74
377.54	440.02
377.74	414.27
377.93	397.89
378.13	355.76
378.33	400.23
378.52	430.66
378.72	390.87
378.91	383.85
379.11	381.51
379.31	435.34
379.50	393.21
379.70	414.27
379.89	402.57
380.09	407.25
380.28	362.78
380.48	425.98
380.68	458.74
380.87	433.00
381.07	465.77
381.26	393.21
381.46	369.80
381.65	390.87
381.85	440.02
382.04	440.02
382.24	418.96
382.43	428.32
382.63	386.19
382.83	402.57
383.02	367.46
383.22	409.59
383.41	381.51
383.61	433.00
383.80	461.09
384.00	374.49
384.19	367.46
384.39	332.36
384.58	365.12
384.78	390.87
384.97	456.40
385.17	423.64
385.36	517.26
385.56	414.27
385.75	381.51
385.95	435.34
386.14	367.46
386.34	409.59
386.53	461.09
386.72	437.68
386.92	411.93
387.11	416.62
387.31	407.25
387.50	266.82
387.70	484.49
387.89	393.21
388.09	433.00
388.28	395.55
388.48	353.42
388.67	447.04
388.86	418.96
389.06	353.42
389.25	437.68
389.45	409.59
389.64	437.68
389.84	404.91
390.03	447.04
390.22	362.78
390.42	367.46
390.61	362.78
390.81	348.74
391.00	411.93
391.19	416.62
391.39	423.64
391.58	409.59
391.78	381.51
391.97	465.77
392.16	395.55
392.36	423.64
392.55	449.38
392.75	395.55
392.94	348.74
393.13	512.58
393.33	414.27
393.52	400.23
393.71	395.55
393.91	388.53
394.10	407.25
394.29	407.25
394.49	414.27
394.68	362.78
394.88	470.45
395.07	451.72
395.26	390.87
395.46	444.70
395.65	351.08
395.84	402.57
396.04	475.13
396.23	430.66
396.42	456.40
396.62	475.13
396.81	379.17
397.00	411.93
397.19	458.74
397.39	390.87
397.58	456.40
397.77	423.64
397.97	433.00
398.16	414.27
398.35	337.04
398.55	414.27
398.74	383.85
398.93	524.28
399.12	475.13
399.32	449.38
399.51	376.83
399.70	461.09
399.90	381.51
400.09	435.34
400.28	442.36
400.47	407.25
400.67	435.34
400.86	435.34
401.05	402.57
401.24	465.77
401.44	407.25
401.63	400.23
401.82	402.57
402.01	395.55
402.21	442.36
402.40	358.10
402.59	402.57
402.78	332.36
402.97	440.02
403.17	360.44
403.36	404.91
403.55	444.70
403.74	477.47
403.93	411.93
404.13	411.93
404.32	393.21
404.51	374.49
404.70	383.85
404.89	400.23
405.09	393.21
405.28	470.45
405.47	369.80
405.66	390.87
405.85	381.51
406.05	374.49
406.24	435.34
406.43	449.38
406.62	444.70
406.81	468.11
407.00	372.15
407.20	402.57
407.39	386.19
407.58	369.80
407.77	400.23
407.96	386.19
408.15	421.30
408.34	407.25
408.54	402.57
408.73	433.00
408.92	444.70
409.11	374.49
409.30	430.66
409.49	362.78
409.68	388.53
409.87	472.79
410.07	421.30
410.26	416.62
410.45	423.64
410.64	397.89
410.83	381.51
411.02	337.04
411.21	428.32
411.40	402.57
411.59	416.62
411.78	379.17
411.98	390.87
412.17	393.21
412.36	390.87
412.55	447.04
412.74	477.47
412.93	447.04
413.12	423.64
413.31	416.62
413.50	397.89
413.69	365.12
413.88	519.60
414.07	397.89
414.26	444.70
414.45	388.53
414.64	444.70
414.83	428.32
415.02	372.15
415.22	463.43
415.41	358.10
415.60	369.80
415.79	365.12
415.98	430.66
416.17	425.98
416.36	362.78
416.55	418.96
416.74	351.08
416.93	414.27
417.12	390.87
417.31	435.34
417.50	447.04
417.69	423.64
417.88	435.34
418.07	320.65
418.26	491.51
418.45	407.25
418.64	470.45
418.83	362.78
419.02	435.34
419.21	407.25
419.39	425.98
419.58	433.00
419.77	390.87
419.96	400.23
420.15	442.36
420.34	454.06
420.53	379.17
420.72	437.68
420.91	435.34
421.10	409.59
421.29	416.62
421.48	451.72
421.67	383.85
421.86	393.21
422.05	421.30
422.24	381.51
422.43	348.74
422.61	411.93
422.80	428.32
422.99	407.25
423.18	409.59
423.37	472.79
423.56	451.72
423.75	400.23
423.94	318.31
424.13	397.89
424.32	440.02
424.50	437.68
424.69	440.02
424.88	425.98
425.07	367.46
425.26	416.62
425.45	433.00
425.64	353.42
425.83	425.98
426.01	430.66
426.20	355.76
426.39	362.78
426.58	521.94
426.77	442.36
426.96	407.25
427.15	433.00
427.33	402.57
427.52	437.68
427.71	444.70
427.90	430.66
428.09	435.34
428.28	400.23
428.46	423.64
428.65	433.00
428.84	409.59
429.03	479.81
429.22	442.36
429.40	390.87
429.59	365.12
429.78	437.68
429.97	465.77
430.16	395.55
430.34	486.83
430.53	393.21
430.72	400.23
430.91	461.09
431.10	374.49
431.28	430.66
431.47	404.91
431.66	348.74
431.85	407.25
432.03	440.02
432.22	505.56
432.41	440.02
432.60	430.66
432.79	435.34
432.97	416.62
433.16	456.40
433.35	470.45
433.54	400.23
433.72	440.02
433.91	435.34
434.10	461.09
434.28	421.30
434.47	402.57
434.66	416.62
434.85	383.85
435.03	414.27
435.22	421.30
435.41	409.59
435.59	395.55
435.78	388.53
435.97	447.04
436.16	374.49
436.34	433.00
436.53	414.27
436.72	379.17
436.90	454.06
437.09	395.55
437.28	458.74
437.46	491.51
437.65	411.93
437.84	468.11
438.02	409.59
438.21	430.66
438.40	449.38
438.58	428.32
438.77	372.15
438.96	468.11
439.14	430.66
439.33	500.87
439.52	442.36
439.70	470.45
439.89	461.09
440.08	402.57
440.26	411.93
440.45	475.13
440.63	428.32
440.82	341.72
441.01	367.46
441.19	372.15
441.38	447.04
441.57	407.25
441.75	374.49
441.94	414.27
442.12	341.72
442.31	390.87
442.50	461.09
442.68	433.00
442.87	402.57
443.05	411.93
443.24	414.27
443.43	365.12
443.61	514.92
443.80	430.66
443.98	437.68
444.17	397.89
444.35	365.12
444.54	407.25
444.73	365.12
444.91	463.43
445.10	428.32
445.28	449.38
445.47	374.49
445.65	491.51
445.84	433.00
446.02	355.76
446.21	390.87
446.39	388.53
446.58	437.68
446.77	409.59
446.95	404.91
447.14	477.47
447.32	400.23
447.51	407.25
447.69	397.89
447.88	383.85
448.06	458.74
448.25	332.36
448.43	430.66
448.62	423.64
448.80	423.64
448.99	414.27
449.17	414.27
449.36	416.62
449.54	416.62
449.73	280.86
449.91	468.11
450.10	411.93
450.28	416.62
450.46	435.34
450.65	381.51
450.83	414.27
451.02	418.96
451.20	440.02
451.39	421.30
451.57	416.62
451.76	376.83
451.94	351.08
452.13	437.68
452.31	442.36
452.49	381.51
452.68	402.57
452.86	428.32
453.05	498.53
453.23	489.17
453.42	465.77
453.60	447.04
453.78	418.96
453.97	423.64
454.15	442.36
454.34	388.53
454.52	421.30
454.70	397.89
454.89	472.79
455.07	433.00
455.26	428.32
455.44	433.00
455.62	451.72
455.81	451.72
455.99	409.59
456.17	409.59
456.36	425.98
456.54	374.49
456.73	358.10
456.91	365.12
457.09	402.57
457.28	486.83
457.46	458.74
457.64	372.15
457.83	421.30
458.01	360.44
458.19	372.15
458.38	393.21
458.56	404.91
458.74	386.19
458.93	407.25
459.11	437.68
459.29	456.40
459.48	409.59
459.66	477.47
459.84	423.64
460.03	519.60
460.21	430.66
460.39	416.62
460.57	423.64
460.76	449.38
460.94	447.04
461.12	454.06
461.31	423.64
461.49	407.25
461.67	484.49
461.85	397.89
462.04	456.40
462.22	791.10
462.40	381.51
462.59	456.40
462.77	456.40
462.95	430.66
463.13	397.89
463.32	475.13
463.50	393.21
463.68	367.46
463.86	418.96
464.05	423.64
464.23	423.64
464.41	416.62
464.59	367.46
464.78	425.98
464.96	374.49
465.14	435.34
465.32	393.21
465.50	425.98
465.69	421.30
465.87	400.23
466.05	409.59
466.23	351.08
466.41	353.42
466.60	409.59
466.78	416.62
466.96	433.00
467.14	442.36
467.32	416.62
467.51	433.00
467.69	414.27
467.87	437.68
468.05	402.57
468.23	442.36
468.41	482.15
468.60	344.06
468.78	437.68
468.96	526.62
469.14	425.98
469.32	421.30
469.50	433.00
469.69	435.34
469.87	390.87
470.05	386.19
470.23	440.02
470.41	404.91
470.59	425.98
470.77	440.02
470.95	407.25
471.14	477.47
471.32	489.17
471.50	374.49
471.68	402.57
471.86	411.93
472.04	454.06
472.22	358.10
472.40	407.25
472.58	407.25
472.77	358.10
472.95	507.90
473.13	409.59
473.31	423.64
473.49	423.64
473.67	376.83
473.85	367.46
474.03	440.02
474.21	365.12
474.39	411.93
474.57	395.55
474.75	369.80
474.93	418.96
475.12	379.17
475.30	400.23
475.48	390.87
475.66	465.77
475.84	421.30
476.02	397.89
476.20	351.08
476.38	418.96
476.56	482.15
476.74	376.83
476.92	393.21
477.10	393.21
477.28	407.25
477.46	458.74
477.64	449.38
477.82	402.57
478.00	407.25
478.18	409.59
478.36	322.99
478.54	425.98
478.72	428.32
478.90	383.85
479.08	465.77
479.26	430.66
479.44	404.91
479.62	367.46
479.80	362.78
479.98	435.34
480.16	374.49
480.34	465.77
480.52	402.57
480.70	411.93
480.88	390.87
481.06	416.62
481.24	458.74
481.41	440.02
481.59	442.36
481.77	500.87
481.95	367.46
482.13	491.51
482.31	414.27
482.49	442.36
482.67	411.93
482.85	414.27
483.03	390.87
483.21	435.34
483.39	397.89
483.57	425.98
483.74	463.43
483.92	407.25
484.10	411.93
484.28	514.92
484.46	463.43
484.64	451.72
484.82	395.55
485.00	400.23
485.18	491.51
485.35	383.85
485.53	425.98
485.71	484.49
485.89	409.59
486.07	496.19
486.25	440.02
486.43	498.53
486.61	393.21
486.78	383.85
486.96	423.64
487.14	418.96
487.32	358.10
487.50	365.12
487.68	411.93
487.85	477.47
488.03	416.62
488.21	479.81
488.39	374.49
488.57	451.72
488.75	416.62
488.92	491.51
489.10	435.34
489.28	451.72
489.46	428.32
489.64	395.55
489.81	360.44
489.99	381.51
490.17	320.65
490.35	409.59
490.53	416.62
490.70	376.83
490.88	381.51
491.06	346.40
491.24	433.00
491.41	454.06
491.59	454.06
491.77	444.70
491.95	437.68
492.13	372.15
492.30	416.62
492.48	407.25
492.66	376.83
492.84	407.25
493.01	430.66
493.19	411.93
493.37	479.81
493.54	477.47
493.72	411.93
493.90	444.70
494.08	468.11
494.25	449.38
494.43	379.17
494.61	416.62
494.79	358.10
494.96	461.09
495.14	458.74
495.32	397.89
495.49	386.19
495.67	440.02
495.85	402.57
496.02	437.68
496.20	372.15
496.38	435.34
496.55	353.42
496.73	404.91
496.91	440.02
497.09	447.04
497.26	397.89
497.44	376.83
497.62	442.36
497.79	423.64
497.97	393.21
498.14	484.49
498.32	454.06
498.50	402.57
498.67	407.25
498.85	418.96
499.03	454.06
499.20	395.55
499.38	409.59
499.56	437.68
499.73	470.45
499.91	372.15
500.08	407.25
500.26	442.36
500.44	418.96
500.61	358.10
500.79	395.55
500.97	372.15
501.14	418.96
501.32	418.96
501.49	421.30
501.67	447.04
501.84	411.93
502.02	390.87
502.20	433.00
502.37	360.44
502.55	369.80
502.72	500.87
502.90	507.90
503.07	451.72
503.25	393.21
503.43	409.59
503.60	440.02
503.78	458.74
503.95	390.87
504.13	346.40
504.30	402.57
504.48	404.91
504.65	463.43
504.83	388.53
505.01	386.19
505.18	414.27
505.36	416.62
505.53	351.08
505.71	430.66
505.88	468.11
506.06	454.06
506.23	339.38
506.41	390.87
506.58	407.25
506.76	421.30
506.93	463.43
507.11	383.85
507.28	440.02
507.46	433.00
507.63	383.85
507.81	454.06
507.98	433.00
508.16	440.02
508.33	479.81
508.50	388.53
508.68	454.06
508.85	390.87
509.03	433.00
509.20	383.85
509.38	454.06
509.55	402.57
509.73	447.04
509.90	425.98
510.08	400.23
510.25	425.98
510.42	444.70
510.60	351.08
510.77	472.79
510.95	440.02
511.12	346.40
511.30	388.53
511.47	379.17
511.64	433.00
511.82	360.44
511.99	397.89
512.17	454.06
512.34	404.91
512.51	493.85
512.69	395.55
512.86	395.55
513.04	400.23
513.21	390.87
513.38	409.59
513.56	393.21
513.73	451.72
513.90	402.57
514.08	397.89
514.25	463.43
514.43	486.83
514.60	379.17
514.77	348.74
514.95	397.89
515.12	479.81
515.29	346.40
515.47	442.36
515.64	395.55
515.81	454.06
515.99	400.23
516.16	400.23
516.33	465.77
516.51	428.32
516.68	393.21
516.85	416.62
517.03	369.80
517.20	447.04
517.37	348.74
517.54	435.34
517.72	409.59
517.89	390.87
518.06	447.04
518.24	500.87
518.41	486.83
518.58	409.59
518.75	404.91
518.93	449.38
519.10	440.02
519.27	367.46
519.45	423.64
519.62	477.47
519.79	433.00
519.96	402.57
520.14	383.85
520.31	447.04
520.48	407.25
520.65	414.27
520.83	428.32
521.00	414.27
521.17	409.59
521.34	430.66
521.52	409.59
521.69	360.44
521.86	348.74
522.03	456.40
522.20	458.74
522.38	418.96
522.55	376.83
522.72	395.55
522.89	468.11
523.07	451.72
523.24	451.72
523.41	409.59
523.58	400.23
523.75	423.64
523.92	388.53
524.10	369.80
524.27	393.21
524.44	482.15
524.61	496.19
524.78	465.77
524.96	465.77
525.13	435.34
525.30	409.59
525.47	479.81
525.64	416.62
525.81	416.62
525.98	482.15
526.16	418.96
526.33	421.30
526.50	376.83
526.67	386.19
526.84	402.57
527.01	430.66
527.18	400.23
527.36	440.02
527.53	418.96
527.70	374.49
527.87	435.34
528.04	461.09
528.21	346.40
528.38	376.83
528.55	393.21
528.72	463.43
528.89	404.91
529.07	407.25
529.24	421.30
529.41	519.60
529.58	414.27
529.75	390.87
529.92	383.85
530.09	461.09
530.26	493.85
530.43	367.46
530.60	400.23
530.77	440.02
530.94	423.64
531.11	360.44
531.28	449.38
531.46	425.98
531.63	404.91
531.80	355.76
531.97	374.49
532.14	447.04
532.31	397.89
532.48	458.74
532.65	437.68
532.82	339.38
532.99	463.43
533.16	461.09
533.33	416.62
533.50	418.96
533.67	353.42
533.84	496.19
534.01	418.96
534.18	442.36
534.35	337.04
534.52	421.30
534.69	463.43
534.86	449.38
535.03	330.02
535.20	411.93
535.37	463.43
535.54	397.89
535.71	479.81
535.88	468.11
536.05	449.38
536.22	444.70
536.38	344.06
536.55	435.34
536.72	369.80
536.89	484.49
537.06	421.30
537.23	397.89
537.40	493.85
537.57	372.15
537.74	456.40
537.91	458.74
538.08	383.85
538.25	379.17
538.42	444.70
538.59	444.70
538.75	465.77
538.92	404.91
539.09	353.42
539.26	425.98
539.43	482.15
539.60	430.66
539.77	451.72
539.94	365.12
540.11	414.27
540.28	442.36
540.44	430.66
540.61	390.87
540.78	369.80
540.95	451.72
541.12	454.06
541.29	386.19
541.46	465.77
541.62	442.36
541.79	423.64
541.96	400.23
542.13	409.59
542.30	449.38
542.47	456.40
542.63	428.32
542.80	386.19
542.97	397.89
543.14	388.53
543.31	465.77
543.48	447.04
543.64	437.68
543.81	397.89
543.98	463.43
544.15	421.30
544.32	404.91
544.48	404.91
544.65	423.64
544.82	332.36
544.99	351.08
545.16	400.23
545.32	390.87
545.49	463.43
545.66	362.78
545.83	421.30
546.00	425.98
546.16	433.00
546.33	414.27
546.50	433.00
546.67	475.13
546.83	475.13
547.00	411.93
547.17	337.04
547.34	418.96
547.50	393.21
547.67	475.13
547.84	416.62
548.00	454.06
548.17	418.96
548.34	470.45
548.51	430.66
548.67	435.34
548.84	449.38
549.01	390.87
549.18	393.21
549.34	402.57
549.51	463.43
549.68	418.96
549.84	411.93
550.01	475.13
550.18	451.72
550.34	531.30
550.51	484.49
550.68	423.64
550.84	437.68
551.01	465.77
551.18	381.51
551.34	393.21
551.51	484.49
551.68	428.32
551.84	430.66
552.01	393.21
552.18	421.30
552.34	447.04
552.51	447.04
552.68	386.19
552.84	393.21
553.01	423.64
553.18	444.70
553.34	407.25
553.51	451.72
553.67	444.70
553.84	430.66
554.01	414.27
554.17	327.68
554.34	400.23
554.51	393.21
554.67	418.96
554.84	362.78
555.00	433.00
555.17	430.66
555.33	416.62
555.50	475.13
555.67	482.15
555.83	346.40
556.00	409.59
556.16	545.34
556.33	454.06
556.50	374.49
556.66	360.44
556.83	360.44
556.99	414.27
557.16	411.93
557.32	383.85
557.49	463.43
557.65	486.83
557.82	407.25
557.98	411.93
558.15	421.30
558.32	493.85
558.48	407.25
558.65	411.93
558.81	411.93
558.98	430.66
559.14	444.70
559.31	402.57
559.47	421.30
559.64	489.17
559.80	458.74
559.97	428.32
560.13	472.79
560.30	433.00
560.46	418.96
560.63	489.17
560.79	470.45
560.96	440.02
561.12	416.62
561.29	461.09
561.45	428.32
561.61	400.23
561.78	507.90
561.94	397.89
562.11	395.55
562.27	484.49
562.44	444.70
562.60	447.04
562.77	449.38
562.93	507.90
563.10	407.25
563.26	416.62
563.42	442.36
563.59	435.34
563.75	402.57
563.92	461.09
564.08	386.19
564.24	407.25
564.41	402.57
564.57	428.32
564.74	393.21
564.90	395.55
565.07	440.02
565.23	454.06
565.39	388.53
565.56	397.89
565.72	386.19
565.88	386.19
566.05	395.55
566.21	360.44
566.38	407.25
566.54	395.55
566.70	386.19
566.87	444.70
567.03	388.53
567.19	393.21
567.36	409.59
567.52	381.51
567.68	400.23
567.85	433.00
568.01	409.59
568.17	416.62
568.34	449.38
568.50	475.13
568.66	447.04
568.83	416.62
568.99	374.49
569.15	400.23
569.32	407.25
569.48	433.00
569.64	379.17
569.81	351.08
569.97	400.23
570.13	423.64
570.30	449.38
570.46	472.79
570.62	416.62
570.78	390.87
570.95	449.38
571.11	458.74
571.27	402.57
571.43	353.42
571.60	465.77
571.76	454.06
571.92	461.09
572.09	395.55
572.25	472.79
572.41	409.59
572.57	496.19
572.74	447.04
572.90	416.62
573.06	428.32
573.22	351.08
573.38	479.81
573.55	454.06
573.71	458.74
573.87	489.17
574.03	442.36
574.20	458.74
574.36	479.81
574.52	395.55
574.68	344.06
574.84	423.64
575.01	400.23
575.17	381.51
575.33	374.49
575.49	379.17
575.65	451.72
575.82	430.66
575.98	435.34
576.14	360.44
576.30	409.59
576.46	465.77
576.62	355.76
576.79	414.27
576.95	383.85
577.11	381.51
577.27	376.83
577.43	489.17
577.59	449.38
577.75	430.66
577.92	418.96
578.08	383.85
578.24	388.53
578.40	437.68
578.56	472.79
578.72	444.70
578.88	437.68
579.04	451.72
579.21	437.68
579.37	414.27
579.53	421.30
579.69	416.62
579.85	402.57
580.01	447.04
580.17	428.32
580.33	386.19
580.49	325.33
580.65	404.91
580.82	367.46
580.98	444.70
581.14	430.66
581.30	463.43
581.46	379.17
581.62	407.25
581.78	489.17
581.94	409.59
582.10	423.64
582.26	414.27
582.42	360.44
582.58	397.89
582.74	447.04
582.90	451.72
583.06	486.83
583.22	402.57
583.38	395.55
583.54	407.25
583.70	468.11
583.86	521.94
584.02	301.93
584.18	411.93
584.34	423.64
584.50	402.57
584.66	430.66
584.82	346.40
584.98	416.62
585.14	428.32
585.30	435.34
585.46	463.43
585.62	393.21
585.78	440.02
585.94	433.00
586.10	416.62
586.26	393.21
586.42	418.96
586.58	395.55
586.74	430.66
586.90	374.49
587.06	428.32
587.22	496.19
587.38	362.78
587.54	458.74
587.70	433.00
587.86	468.11
588.02	543.00
588.18	395.55
588.34	409.59
588.49	341.72
588.65	416.62
588.81	390.87
588.97	440.02
589.13	423.64
589.29	395.55
589.45	369.80
589.61	388.53
589.77	458.74
589.93	507.90
590.08	465.77
590.24	442.36
590.40	451.72
590.56	409.59
590.72	383.85
590.88	334.70
591.04	390.87
591.20	404.91
591.35	425.98
591.51	498.53
591.67	430.66
591.83	479.81
591.99	425.98
592.15	428.32
592.31	482.15
592.46	449.38
592.62	414.27
592.78	379.17
592.94	402.57
593.10	400.23
593.26	421.30
593.41	402.57
593.57	465.77
593.73	388.53
593.89	407.25
594.05	414.27
594.20	451.72
594.36	475.13
594.52	348.74
594.68	503.22
594.84	465.77
594.99	479.81
595.15	440.02
595.31	451.72
595.47	414.27
595.62	400.23
595.78	381.51
595.94	381.51
596.10	437.68
596.25	414.27
596.41	468.11
596.57	344.06
596.73	404.91
596.88	402.57
597.04	355.76
597.20	327.68
597.36	465.77
597.51	484.49
597.67	451.72
597.83	435.34
597.99	486.83
598.14	435.34
598.30	454.06
598.46	407.25
598.61	435.34
598.77	451.72
598.93	423.64
599.09	421.30
599.24	423.64
599.40	409.59
599.56	425.98
599.71	491.51
599.87	344.06
600.03	386.19
600.18	402.57
600.34	416.62
600.50	379.17
600.65	327.68
600.81	482.15
600.97	454.06
601.12	423.64
601.28	451.72
601.44	444.70
601.59	409.59
601.75	409.59
601.91	489.17
602.06	475.13
602.22	507.90
602.37	425.98
602.53	348.74
602.69	428.32
602.84	407.25
603.00	440.02
603.16	414.27
603.31	402.57
603.47	362.78
603.62	428.32
603.78	442.36
603.94	447.04
604.09	418.96
604.25	423.64
604.40	404.91
604.56	407.25
604.71	437.68
604.87	381.51
605.03	421.30
605.18	442.36
605.34	435.34
605.49	388.53
605.65	414.27
605.80	407.25
605.96	430.66
606.12	447.04
606.27	409.59
606.43	397.89
606.58	449.38
606.74	425.98
606.89	379.17
607.05	440.02
607.20	351.08
607.36	407.25
607.51	435.34
607.67	376.83
607.82	447.04
607.98	407.25
608.13	358.10
608.29	376.83
608.44	423.64
608.60	442.36
608.75	430.66
608.91	470.45
609.06	449.38
609.22	451.72
609.37	395.55
609.53	465.77
609.68	440.02
609.84	395.55
609.99	416.62
610.15	409.59
