SpectraSuite Data File
++++++++++++++++++++++++++++++++++++
Date: Fri Oct 25 12:10:07 EDT 2013
User: price-jones
Dark Spectrum Present: No
Reference Spectrum Present: No
Number of Sampled Component Spectra: 1
Spectrometers: USB2+H05261
Integration Time (usec): 100000 (USB2+H05261)
Spectra Averaged: 1 (USB2+H05261)
Boxcar Smoothing: 0 (USB2+H05261)
Correct for Electrical Dark: No (USB2+H05261)
Strobe/Lamp Enabled: No (USB2+H05261)
Correct for Detector Non-linearity: No (USB2+H05261)
Correct for Stray Light: No (USB2+H05261)
Number of Pixels in Processed Spectrum: 2048
>>>>>Begin Processed Spectral Data<<<<<
365.73	290.23
365.92	290.23
366.12	290.23
366.32	243.42
366.52	241.08
366.72	238.73
366.91	245.76
367.11	222.35
367.31	220.01
367.51	238.73
367.70	285.55
367.90	212.99
368.10	257.46
368.30	217.67
368.49	245.76
368.69	248.10
368.89	339.38
369.09	269.16
369.28	276.18
369.48	299.59
369.68	241.08
369.87	337.04
370.07	292.57
370.27	332.36
370.47	348.74
370.66	327.68
370.86	306.61
371.06	395.55
371.25	376.83
371.45	383.85
371.65	400.23
371.84	381.51
372.04	362.78
372.24	433.00
372.44	407.25
372.63	416.62
372.83	362.78
373.03	458.74
373.22	444.70
373.42	388.53
373.62	407.25
373.81	416.62
374.01	456.40
374.21	397.89
374.40	428.32
374.60	369.80
374.79	404.91
374.99	383.85
375.19	325.33
375.38	442.36
375.58	421.30
375.78	418.96
375.97	491.51
376.17	482.15
376.37	386.19
376.56	428.32
376.76	381.51
376.95	334.70
377.15	418.96
377.35	369.80
377.54	461.09
377.74	332.36
377.93	395.55
378.13	418.96
378.33	381.51
378.52	418.96
378.72	433.00
378.91	388.53
379.11	341.72
379.31	379.17
379.50	447.04
379.70	456.40
379.89	440.02
380.09	409.59
380.28	416.62
380.48	348.74
380.68	365.12
380.87	381.51
381.07	397.89
381.26	433.00
381.46	411.93
381.65	376.83
381.85	348.74
382.04	411.93
382.24	447.04
382.43	390.87
382.63	332.36
382.83	388.53
383.02	484.49
383.22	418.96
383.41	393.21
383.61	386.19
383.80	346.40
384.00	355.76
384.19	381.51
384.39	435.34
384.58	369.80
384.78	372.15
384.97	418.96
385.17	397.89
385.36	360.44
385.56	435.34
385.75	369.80
385.95	381.51
386.14	386.19
386.34	409.59
386.53	454.06
386.72	454.06
386.92	437.68
387.11	365.12
387.31	369.80
387.50	414.27
387.70	437.68
387.89	430.66
388.09	444.70
388.28	456.40
388.48	346.40
388.67	421.30
388.86	383.85
389.06	362.78
389.25	407.25
389.45	376.83
389.64	489.17
389.84	482.15
390.03	351.08
390.22	388.53
390.42	379.17
390.61	437.68
390.81	397.89
391.00	395.55
391.19	449.38
391.39	376.83
391.58	447.04
391.78	414.27
391.97	402.57
392.16	393.21
392.36	449.38
392.55	393.21
392.75	381.51
392.94	414.27
393.13	444.70
393.33	416.62
393.52	386.19
393.71	374.49
393.91	444.70
394.10	414.27
394.29	395.55
394.49	404.91
394.68	367.46
394.88	470.45
395.07	402.57
395.26	479.81
395.46	362.78
395.65	386.19
395.84	386.19
396.04	505.56
396.23	411.93
396.42	437.68
396.62	433.00
396.81	435.34
397.00	423.64
397.19	428.32
397.39	355.76
397.58	418.96
397.77	444.70
397.97	451.72
398.16	425.98
398.35	409.59
398.55	374.49
398.74	393.21
398.93	454.06
399.12	388.53
399.32	400.23
399.51	393.21
399.70	411.93
399.90	461.09
400.09	386.19
400.28	411.93
400.47	360.44
400.67	407.25
400.86	449.38
401.05	444.70
401.24	318.31
401.44	395.55
401.63	369.80
401.82	395.55
402.01	362.78
402.21	425.98
402.40	414.27
402.59	456.40
402.78	341.72
402.97	381.51
403.17	402.57
403.36	465.77
403.55	400.23
403.74	362.78
403.93	397.89
404.13	470.45
404.32	372.15
404.51	449.38
404.70	402.57
404.89	418.96
405.09	505.56
405.28	379.17
405.47	383.85
405.66	376.83
405.85	430.66
406.05	456.40
406.24	430.66
406.43	430.66
406.62	425.98
406.81	463.43
407.00	355.76
407.20	430.66
407.39	327.68
407.58	381.51
407.77	411.93
407.96	379.17
408.15	421.30
408.34	383.85
408.54	423.64
408.73	360.44
408.92	353.42
409.11	365.12
409.30	463.43
409.49	379.17
409.68	428.32
409.87	425.98
410.07	411.93
410.26	379.17
410.45	365.12
410.64	379.17
410.83	418.96
411.02	425.98
411.21	421.30
411.40	407.25
411.59	416.62
411.78	456.40
411.98	421.30
412.17	407.25
412.36	395.55
412.55	435.34
412.74	355.76
412.93	463.43
413.12	421.30
413.31	348.74
413.50	440.02
413.69	435.34
413.88	447.04
414.07	388.53
414.26	404.91
414.45	393.21
414.64	388.53
414.83	362.78
415.02	327.68
415.22	444.70
415.41	402.57
415.60	383.85
415.79	414.27
415.98	418.96
416.17	362.78
416.36	454.06
416.55	430.66
416.74	414.27
416.93	400.23
417.12	468.11
417.31	421.30
417.50	402.57
417.69	454.06
417.88	395.55
418.07	367.46
418.26	381.51
418.45	400.23
418.64	470.45
418.83	418.96
419.02	411.93
419.21	421.30
419.39	390.87
419.58	447.04
419.77	435.34
419.96	479.81
420.15	341.72
420.34	433.00
420.53	411.93
420.72	418.96
420.91	449.38
421.10	353.42
421.29	337.04
421.48	407.25
421.67	376.83
421.86	404.91
422.05	367.46
422.24	365.12
422.43	449.38
422.61	379.17
422.80	442.36
422.99	386.19
423.18	395.55
423.37	421.30
423.56	393.21
423.75	500.87
423.94	428.32
424.13	461.09
424.32	442.36
424.50	447.04
424.69	465.77
424.88	395.55
425.07	372.15
425.26	402.57
425.45	381.51
425.64	444.70
425.83	402.57
426.01	512.58
426.20	379.17
426.39	386.19
426.58	404.91
426.77	404.91
426.96	404.91
427.15	395.55
427.33	433.00
427.52	388.53
427.71	407.25
427.90	390.87
428.09	337.04
428.28	428.32
428.46	407.25
428.65	416.62
428.84	411.93
429.03	472.79
429.22	404.91
429.40	351.08
429.59	416.62
429.78	379.17
429.97	461.09
430.16	383.85
430.34	393.21
430.53	379.17
430.72	423.64
430.91	411.93
431.10	409.59
431.28	390.87
431.47	435.34
431.66	393.21
431.85	418.96
432.03	418.96
432.22	383.85
432.41	400.23
432.60	418.96
432.79	470.45
432.97	496.19
433.16	388.53
433.35	402.57
433.54	428.32
433.72	381.51
433.91	397.89
434.10	372.15
434.28	428.32
434.47	369.80
434.66	444.70
434.85	554.71
435.03	397.89
435.22	484.49
435.41	437.68
435.59	435.34
435.78	374.49
435.97	463.43
436.16	428.32
436.34	404.91
436.53	362.78
436.72	428.32
436.90	491.51
437.09	442.36
437.28	433.00
437.46	430.66
437.65	390.87
437.84	437.68
438.02	407.25
438.21	428.32
438.40	386.19
438.58	369.80
438.77	337.04
438.96	409.59
439.14	383.85
439.33	486.83
439.52	440.02
439.70	386.19
439.89	311.29
440.08	440.02
440.26	416.62
440.45	421.30
440.63	430.66
440.82	362.78
441.01	468.11
441.19	341.72
441.38	390.87
441.57	470.45
441.75	437.68
441.94	458.74
442.12	376.83
442.31	390.87
442.50	461.09
442.68	397.89
442.87	397.89
443.05	365.12
443.24	416.62
443.43	390.87
443.61	402.57
443.80	379.17
443.98	358.10
444.17	351.08
444.35	447.04
444.54	381.51
444.73	376.83
444.91	498.53
445.10	442.36
445.28	407.25
445.47	425.98
445.65	367.46
445.84	381.51
446.02	402.57
446.21	421.30
446.39	409.59
446.58	470.45
446.77	353.42
446.95	365.12
447.14	414.27
447.32	372.15
447.51	372.15
447.69	468.11
447.88	414.27
448.06	447.04
448.25	425.98
448.43	388.53
448.62	447.04
448.80	470.45
448.99	425.98
449.17	308.95
449.36	449.38
449.54	376.83
449.73	433.00
449.91	414.27
450.10	372.15
450.28	451.72
450.46	458.74
450.65	437.68
450.83	437.68
451.02	374.49
451.20	376.83
451.39	475.13
451.57	400.23
451.76	489.17
451.94	327.68
452.13	421.30
452.31	456.40
452.49	444.70
452.68	383.85
452.86	330.02
453.05	365.12
453.23	468.11
453.42	388.53
453.60	409.59
453.78	393.21
453.97	390.87
454.15	400.23
454.34	358.10
454.52	404.91
454.70	440.02
454.89	411.93
455.07	379.17
455.26	407.25
455.44	463.43
455.62	447.04
455.81	423.64
455.99	451.72
456.17	369.80
456.36	386.19
456.54	442.36
456.73	421.30
456.91	428.32
457.09	397.89
457.28	456.40
457.46	376.83
457.64	437.68
457.83	442.36
458.01	353.42
458.19	358.10
458.38	393.21
458.56	435.34
458.74	344.06
458.93	437.68
459.11	461.09
459.29	365.12
459.48	423.64
459.66	475.13
459.84	440.02
460.03	507.90
460.21	430.66
460.39	334.70
460.57	404.91
460.76	407.25
460.94	409.59
461.12	456.40
461.31	421.30
461.49	388.53
461.67	411.93
461.85	383.85
462.04	418.96
462.22	767.70
462.40	430.66
462.59	484.49
462.77	437.68
462.95	358.10
463.13	397.89
463.32	400.23
463.50	461.09
463.68	461.09
463.86	379.17
464.05	423.64
464.23	489.17
464.41	475.13
464.59	388.53
464.78	322.99
464.96	320.65
465.14	465.77
465.32	437.68
465.50	411.93
465.69	465.77
465.87	404.91
466.05	442.36
466.23	470.45
466.41	463.43
466.60	425.98
466.78	421.30
466.96	472.79
467.14	414.27
467.32	372.15
467.51	465.77
467.69	507.90
467.87	444.70
468.05	379.17
468.23	468.11
468.41	491.51
468.60	435.34
468.78	409.59
468.96	416.62
469.14	447.04
469.32	360.44
469.50	369.80
469.69	388.53
469.87	458.74
470.05	400.23
470.23	454.06
470.41	386.19
470.59	372.15
470.77	430.66
470.95	454.06
471.14	402.57
471.32	376.83
471.50	374.49
471.68	442.36
471.86	433.00
472.04	376.83
472.22	390.87
472.40	355.76
472.58	435.34
472.77	388.53
472.95	423.64
473.13	409.59
473.31	425.98
473.49	325.33
473.67	383.85
473.85	411.93
474.03	390.87
474.21	381.51
474.39	440.02
474.57	390.87
474.75	444.70
474.93	428.32
475.12	351.08
475.30	435.34
475.48	475.13
475.66	416.62
475.84	430.66
476.02	400.23
476.20	430.66
476.38	379.17
476.56	447.04
476.74	379.17
476.92	421.30
477.10	348.74
477.28	496.19
477.46	393.21
477.64	498.53
477.82	388.53
478.00	402.57
478.18	423.64
478.36	400.23
478.54	470.45
478.72	479.81
478.90	409.59
479.08	418.96
479.26	458.74
479.44	425.98
479.62	414.27
479.80	379.17
479.98	369.80
480.16	468.11
480.34	433.00
480.52	402.57
480.70	428.32
480.88	418.96
481.06	418.96
481.24	440.02
481.41	374.49
481.59	428.32
481.77	423.64
481.95	365.12
482.13	416.62
482.31	348.74
482.49	418.96
482.67	440.02
482.85	454.06
483.03	477.47
483.21	444.70
483.39	365.12
483.57	442.36
483.74	407.25
483.92	404.91
484.10	400.23
484.28	458.74
484.46	404.91
484.64	400.23
484.82	428.32
485.00	397.89
485.18	397.89
485.35	411.93
485.53	440.02
485.71	386.19
485.89	418.96
486.07	411.93
486.25	393.21
486.43	355.76
486.61	414.27
486.78	330.02
486.96	397.89
487.14	416.62
487.32	486.83
487.50	421.30
487.68	428.32
487.85	402.57
488.03	449.38
488.21	404.91
488.39	400.23
488.57	463.43
488.75	447.04
488.92	498.53
489.10	407.25
489.28	437.68
489.46	437.68
489.64	400.23
489.81	386.19
489.99	465.77
490.17	414.27
490.35	465.77
490.53	428.32
490.70	404.91
490.88	423.64
491.06	372.15
491.24	369.80
491.41	437.68
491.59	341.72
491.77	451.72
491.95	418.96
492.13	397.89
492.30	416.62
492.48	458.74
492.66	315.97
492.84	444.70
493.01	414.27
493.19	402.57
493.37	461.09
493.54	376.83
493.72	423.64
493.90	468.11
494.08	404.91
494.25	400.23
494.43	341.72
494.61	348.74
494.79	376.83
494.96	383.85
495.14	362.78
495.32	325.33
495.49	430.66
495.67	440.02
495.85	369.80
496.02	484.49
496.20	372.15
496.38	414.27
496.55	402.57
496.73	489.17
496.91	437.68
497.09	369.80
497.26	355.76
497.44	358.10
497.62	386.19
497.79	365.12
497.97	468.11
498.14	416.62
498.32	463.43
498.50	447.04
498.67	374.49
498.85	437.68
499.03	407.25
499.20	346.40
499.38	383.85
499.56	444.70
499.73	503.22
499.91	468.11
500.08	454.06
500.26	376.83
500.44	351.08
500.61	440.02
500.79	428.32
500.97	397.89
501.14	486.83
501.32	423.64
501.49	423.64
501.67	388.53
501.84	414.27
502.02	374.49
502.20	519.60
502.37	409.59
502.55	418.96
502.72	433.00
502.90	425.98
503.07	444.70
503.25	423.64
503.43	397.89
503.60	479.81
503.78	514.92
503.95	400.23
504.13	451.72
504.30	430.66
504.48	435.34
504.65	477.47
504.83	442.36
505.01	468.11
505.18	449.38
505.36	390.87
505.53	395.55
505.71	489.17
505.88	458.74
506.06	449.38
506.23	423.64
506.41	416.62
506.58	496.19
506.76	430.66
506.93	397.89
507.11	442.36
507.28	404.91
507.46	348.74
507.63	463.43
507.81	456.40
507.98	444.70
508.16	503.22
508.33	393.21
508.50	383.85
508.68	442.36
508.85	461.09
509.03	440.02
509.20	496.19
509.38	435.34
509.55	470.45
509.73	400.23
509.90	409.59
510.08	337.04
510.25	447.04
510.42	365.12
510.60	414.27
510.77	437.68
510.95	411.93
511.12	386.19
511.30	458.74
511.47	416.62
511.64	416.62
511.82	409.59
511.99	423.64
512.17	397.89
512.34	397.89
512.51	411.93
512.69	447.04
512.86	456.40
513.04	451.72
513.21	454.06
513.38	358.10
513.56	423.64
513.73	351.08
513.90	360.44
514.08	362.78
514.25	372.15
514.43	458.74
514.60	414.27
514.77	358.10
514.95	397.89
515.12	433.00
515.29	409.59
515.47	421.30
515.64	383.85
515.81	388.53
515.99	444.70
516.16	423.64
516.33	425.98
516.51	428.32
516.68	404.91
516.85	376.83
517.03	348.74
517.20	337.04
517.37	322.99
517.54	327.68
517.72	362.78
517.89	369.80
518.06	428.32
518.24	409.59
518.41	489.17
518.58	440.02
518.75	379.17
518.93	402.57
519.10	472.79
519.27	386.19
519.45	416.62
519.62	374.49
519.79	465.77
519.96	444.70
520.14	423.64
520.31	447.04
520.48	369.80
520.65	416.62
520.83	430.66
521.00	505.56
521.17	463.43
521.34	458.74
521.52	451.72
521.69	435.34
521.86	362.78
522.03	447.04
522.20	435.34
522.38	402.57
522.55	433.00
522.72	533.64
522.89	421.30
523.07	440.02
523.24	463.43
523.41	454.06
523.58	447.04
523.75	376.83
523.92	423.64
524.10	411.93
524.27	437.68
524.44	409.59
524.61	472.79
524.78	409.59
524.96	444.70
525.13	440.02
525.30	472.79
525.47	425.98
525.64	479.81
525.81	493.85
525.98	418.96
526.16	395.55
526.33	411.93
526.50	381.51
526.67	381.51
526.84	430.66
527.01	423.64
527.18	444.70
527.36	421.30
527.53	421.30
527.70	339.38
527.87	327.68
528.04	496.19
528.21	404.91
528.38	414.27
528.55	454.06
528.72	451.72
528.89	409.59
529.07	395.55
529.24	475.13
529.41	524.28
529.58	372.15
529.75	425.98
529.92	435.34
530.09	358.10
530.26	454.06
530.43	425.98
530.60	327.68
530.77	416.62
530.94	348.74
531.11	463.43
531.28	421.30
531.46	437.68
531.63	418.96
531.80	425.98
531.97	437.68
532.14	465.77
532.31	468.11
532.48	435.34
532.65	442.36
532.82	416.62
532.99	379.17
533.16	428.32
533.33	395.55
533.50	458.74
533.67	409.59
533.84	456.40
534.01	409.59
534.18	388.53
534.35	491.51
534.52	465.77
534.69	393.21
534.86	503.22
535.03	381.51
535.20	397.89
535.37	430.66
535.54	449.38
535.71	440.02
535.88	400.23
536.05	416.62
536.22	444.70
536.38	416.62
536.55	456.40
536.72	409.59
536.89	428.32
537.06	390.87
537.23	383.85
537.40	388.53
537.57	388.53
537.74	472.79
537.91	425.98
538.08	395.55
538.25	442.36
538.42	433.00
538.59	346.40
538.75	383.85
538.92	355.76
539.09	383.85
539.26	447.04
539.43	428.32
539.60	416.62
539.77	428.32
539.94	421.30
540.11	348.74
540.28	463.43
540.44	486.83
540.61	402.57
540.78	339.38
540.95	365.12
541.12	479.81
541.29	397.89
541.46	458.74
541.62	440.02
541.79	416.62
541.96	404.91
542.13	465.77
542.30	447.04
542.47	416.62
542.63	423.64
542.80	456.40
542.97	442.36
543.14	418.96
543.31	430.66
543.48	397.89
543.64	407.25
543.81	440.02
543.98	416.62
544.15	435.34
544.32	428.32
544.48	395.55
544.65	437.68
544.82	435.34
544.99	346.40
545.16	454.06
545.32	411.93
545.49	435.34
545.66	421.30
545.83	409.59
546.00	521.94
546.16	475.13
546.33	388.53
546.50	425.98
546.67	428.32
546.83	397.89
547.00	411.93
547.17	353.42
547.34	414.27
547.50	402.57
547.67	379.17
547.84	409.59
548.00	416.62
548.17	425.98
548.34	411.93
548.51	437.68
548.67	421.30
548.84	404.91
549.01	374.49
549.18	372.15
549.34	386.19
549.51	381.51
549.68	411.93
549.84	400.23
550.01	444.70
550.18	477.47
550.34	409.59
550.51	374.49
550.68	468.11
550.84	491.51
551.01	444.70
551.18	428.32
551.34	489.17
551.51	383.85
551.68	383.85
551.84	442.36
552.01	407.25
552.18	425.98
552.34	437.68
552.51	416.62
552.68	444.70
552.84	397.89
553.01	484.49
553.18	421.30
553.34	440.02
553.51	376.83
553.67	386.19
553.84	465.77
554.01	435.34
554.17	404.91
554.34	397.89
554.51	465.77
554.67	461.09
554.84	484.49
555.00	421.30
555.17	379.17
555.33	414.27
555.50	447.04
555.67	498.53
555.83	372.15
556.00	451.72
556.16	571.09
556.33	461.09
556.50	400.23
556.66	372.15
556.83	454.06
556.99	479.81
557.16	454.06
557.32	376.83
557.49	379.17
557.65	449.38
557.82	344.06
557.98	449.38
558.15	404.91
558.32	383.85
558.48	451.72
558.65	507.90
558.81	465.77
558.98	351.08
559.14	425.98
559.31	407.25
559.47	418.96
559.64	418.96
559.80	395.55
559.97	379.17
560.13	341.72
560.30	456.40
560.46	428.32
560.63	433.00
560.79	393.21
560.96	435.34
561.12	440.02
561.29	449.38
561.45	444.70
561.61	479.81
561.78	430.66
561.94	386.19
562.11	365.12
562.27	461.09
562.44	458.74
562.60	362.78
562.77	369.80
562.93	430.66
563.10	381.51
563.26	365.12
563.42	454.06
563.59	414.27
563.75	447.04
563.92	477.47
564.08	493.85
564.24	400.23
564.41	505.56
564.57	416.62
564.74	402.57
564.90	421.30
565.07	355.76
565.23	479.81
565.39	433.00
565.56	423.64
565.72	435.34
565.88	360.44
566.05	430.66
566.21	430.66
566.38	447.04
566.54	477.47
566.70	374.49
566.87	360.44
567.03	369.80
567.19	397.89
567.36	400.23
567.52	337.04
567.68	430.66
567.85	442.36
568.01	383.85
568.17	468.11
568.34	461.09
568.50	369.80
568.66	355.76
568.83	451.72
568.99	423.64
569.15	409.59
569.32	442.36
569.48	393.21
569.64	493.85
569.81	372.15
569.97	416.62
570.13	456.40
570.30	388.53
570.46	393.21
570.62	435.34
570.78	395.55
570.95	418.96
571.11	454.06
571.27	489.17
571.43	400.23
571.60	451.72
571.76	388.53
571.92	423.64
572.09	407.25
572.25	292.57
572.41	442.36
572.57	397.89
572.74	404.91
572.90	407.25
573.06	458.74
573.22	435.34
573.38	355.76
573.55	360.44
573.71	468.11
573.87	393.21
574.03	411.93
574.20	440.02
574.36	409.59
574.52	360.44
574.68	400.23
574.84	376.83
575.01	433.00
575.17	418.96
575.33	395.55
575.49	447.04
575.65	421.30
575.82	484.49
575.98	435.34
576.14	397.89
576.30	430.66
576.46	449.38
576.62	407.25
576.79	418.96
576.95	430.66
577.11	451.72
577.27	353.42
577.43	479.81
577.59	362.78
577.75	505.56
577.92	411.93
578.08	425.98
578.24	428.32
578.40	423.64
578.56	505.56
578.72	435.34
578.88	369.80
579.04	334.70
579.21	379.17
579.37	444.70
579.53	407.25
579.69	447.04
579.85	376.83
580.01	404.91
580.17	463.43
580.33	390.87
580.49	482.15
580.65	447.04
580.82	416.62
580.98	313.63
581.14	351.08
581.30	475.13
581.46	423.64
581.62	386.19
581.78	421.30
581.94	430.66
582.10	390.87
582.26	470.45
582.42	397.89
582.58	503.22
582.74	400.23
582.90	451.72
583.06	433.00
583.22	404.91
583.38	437.68
583.54	404.91
583.70	482.15
583.86	449.38
584.02	463.43
584.18	472.79
584.34	372.15
584.50	437.68
584.66	435.34
584.82	451.72
584.98	315.97
585.14	376.83
585.30	435.34
585.46	461.09
585.62	440.02
585.78	393.21
585.94	386.19
586.10	395.55
586.26	447.04
586.42	437.68
586.58	402.57
586.74	458.74
586.90	433.00
587.06	404.91
587.22	386.19
587.38	425.98
587.54	379.17
587.70	458.74
587.86	472.79
588.02	430.66
588.18	461.09
588.34	402.57
588.49	397.89
588.65	414.27
588.81	418.96
588.97	395.55
589.13	409.59
589.29	491.51
589.45	435.34
589.61	369.80
589.77	456.40
589.93	402.57
590.08	390.87
590.24	463.43
590.40	472.79
590.56	454.06
590.72	505.56
590.88	433.00
591.04	435.34
591.20	383.85
591.35	423.64
591.51	374.49
591.67	411.93
591.83	386.19
591.99	463.43
592.15	500.87
592.31	388.53
592.46	456.40
592.62	423.64
592.78	430.66
592.94	414.27
593.10	330.02
593.26	416.62
593.41	397.89
593.57	362.78
593.73	402.57
593.89	372.15
594.05	416.62
594.20	369.80
594.36	442.36
594.52	428.32
594.68	397.89
594.84	411.93
594.99	404.91
595.15	423.64
595.31	383.85
595.47	428.32
595.62	447.04
595.78	414.27
595.94	421.30
596.10	454.06
596.25	407.25
596.41	470.45
596.57	411.93
596.73	451.72
596.88	400.23
597.04	407.25
597.20	409.59
597.36	402.57
597.51	423.64
597.67	409.59
597.83	379.17
597.99	451.72
598.14	379.17
598.30	470.45
598.46	374.49
598.61	510.24
598.77	416.62
598.93	418.96
599.09	428.32
599.24	402.57
599.40	425.98
599.56	414.27
599.71	407.25
599.87	437.68
600.03	400.23
600.18	374.49
600.34	416.62
600.50	428.32
600.65	409.59
600.81	409.59
600.97	416.62
601.12	337.04
601.28	409.59
601.44	402.57
601.59	423.64
601.75	418.96
601.91	435.34
602.06	437.68
602.22	442.36
602.37	454.06
602.53	402.57
602.69	425.98
602.84	390.87
603.00	437.68
603.16	355.76
603.31	407.25
603.47	425.98
603.62	486.83
603.78	425.98
603.94	421.30
604.09	454.06
604.25	449.38
604.40	430.66
604.56	397.89
604.71	512.58
604.87	388.53
605.03	421.30
605.18	414.27
605.34	425.98
605.49	440.02
605.65	468.11
605.80	470.45
605.96	463.43
606.12	388.53
606.27	484.49
606.43	435.34
606.58	397.89
606.74	414.27
606.89	402.57
607.05	388.53
607.20	425.98
607.36	503.22
607.51	423.64
607.67	423.64
607.82	386.19
607.98	458.74
608.13	407.25
608.29	435.34
608.44	444.70
608.60	353.42
608.75	416.62
608.91	379.17
609.06	409.59
609.22	440.02
609.37	437.68
609.53	344.06
609.68	435.34
609.84	442.36
609.99	407.25
610.15	461.09
