SpectraSuite Data File
++++++++++++++++++++++++++++++++++++
Date: Fri Oct 25 12:11:24 EDT 2013
User: price-jones
Dark Spectrum Present: No
Reference Spectrum Present: No
Number of Sampled Component Spectra: 1
Spectrometers: USB2+H05261
Integration Time (usec): 100000 (USB2+H05261)
Spectra Averaged: 1 (USB2+H05261)
Boxcar Smoothing: 0 (USB2+H05261)
Correct for Electrical Dark: No (USB2+H05261)
Strobe/Lamp Enabled: No (USB2+H05261)
Correct for Detector Non-linearity: No (USB2+H05261)
Correct for Stray Light: No (USB2+H05261)
Number of Pixels in Processed Spectrum: 2048
>>>>>Begin Processed Spectral Data<<<<<
365.73	308.95
365.92	308.95
366.12	308.95
366.32	215.33
366.52	156.82
366.72	201.29
366.91	241.08
367.11	248.10
367.31	196.60
367.51	271.50
367.70	264.48
367.90	266.82
368.10	290.23
368.30	262.14
368.49	271.50
368.69	259.80
368.89	231.71
369.09	292.57
369.28	278.52
369.48	224.69
369.68	276.18
369.87	341.72
370.07	341.72
370.27	369.80
370.47	311.29
370.66	369.80
370.86	376.83
371.06	362.78
371.25	374.49
371.45	376.83
371.65	411.93
371.84	332.36
372.04	344.06
372.24	435.34
372.44	393.21
372.63	411.93
372.83	416.62
373.03	414.27
373.22	379.17
373.42	388.53
373.62	440.02
373.81	386.19
374.01	390.87
374.21	477.47
374.40	423.64
374.60	477.47
374.79	444.70
374.99	414.27
375.19	433.00
375.38	397.89
375.58	381.51
375.78	444.70
375.97	451.72
376.17	489.17
376.37	468.11
376.56	465.77
376.76	411.93
376.95	400.23
377.15	404.91
377.35	416.62
377.54	376.83
377.74	339.38
377.93	397.89
378.13	397.89
378.33	374.49
378.52	421.30
378.72	360.44
378.91	355.76
379.11	325.33
379.31	379.17
379.50	372.15
379.70	414.27
379.89	409.59
380.09	383.85
380.28	383.85
380.48	437.68
380.68	430.66
380.87	330.02
381.07	404.91
381.26	421.30
381.46	416.62
381.65	388.53
381.85	407.25
382.04	351.08
382.24	442.36
382.43	365.12
382.63	325.33
382.83	360.44
383.02	423.64
383.22	437.68
383.41	430.66
383.61	369.80
383.80	388.53
384.00	416.62
384.19	379.17
384.39	414.27
384.58	388.53
384.78	521.94
384.97	447.04
385.17	433.00
385.36	379.17
385.56	379.17
385.75	425.98
385.95	430.66
386.14	416.62
386.34	437.68
386.53	479.81
386.72	334.70
386.92	381.51
387.11	486.83
387.31	433.00
387.50	397.89
387.70	334.70
387.89	400.23
388.09	397.89
388.28	388.53
388.48	437.68
388.67	409.59
388.86	402.57
389.06	358.10
389.25	444.70
389.45	465.77
389.64	416.62
389.84	458.74
390.03	418.96
390.22	444.70
390.42	421.30
390.61	409.59
390.81	437.68
391.00	423.64
391.19	442.36
391.39	421.30
391.58	418.96
391.78	390.87
391.97	449.38
392.16	395.55
392.36	395.55
392.55	393.21
392.75	449.38
392.94	365.12
393.13	421.30
393.33	330.02
393.52	425.98
393.71	435.34
393.91	395.55
394.10	407.25
394.29	367.46
394.49	411.93
394.68	421.30
394.88	437.68
395.07	430.66
395.26	311.29
395.46	393.21
395.65	421.30
395.84	346.40
396.04	367.46
396.23	461.09
396.42	428.32
396.62	451.72
396.81	381.51
397.00	351.08
397.19	365.12
397.39	444.70
397.58	414.27
397.77	463.43
397.97	463.43
398.16	477.47
398.35	402.57
398.55	430.66
398.74	393.21
398.93	482.15
399.12	374.49
399.32	465.77
399.51	423.64
399.70	496.19
399.90	493.85
400.09	362.78
400.28	451.72
400.47	475.13
400.67	435.34
400.86	376.83
401.05	348.74
401.24	386.19
401.44	428.32
401.63	437.68
401.82	489.17
402.01	374.49
402.21	416.62
402.40	416.62
402.59	437.68
402.78	423.64
402.97	449.38
403.17	297.25
403.36	475.13
403.55	430.66
403.74	416.62
403.93	414.27
404.13	463.43
404.32	390.87
404.51	416.62
404.70	393.21
404.89	440.02
405.09	498.53
405.28	416.62
405.47	388.53
405.66	369.80
405.85	402.57
406.05	383.85
406.24	407.25
406.43	444.70
406.62	381.51
406.81	472.79
407.00	395.55
407.20	416.62
407.39	374.49
407.58	444.70
407.77	397.89
407.96	454.06
408.15	381.51
408.34	418.96
408.54	416.62
408.73	334.70
408.92	390.87
409.11	386.19
409.30	423.64
409.49	433.00
409.68	372.15
409.87	395.55
410.07	409.59
410.26	440.02
410.45	418.96
410.64	353.42
410.83	400.23
411.02	393.21
411.21	376.83
411.40	421.30
411.59	334.70
411.78	409.59
411.98	339.38
412.17	376.83
412.36	353.42
412.55	397.89
412.74	383.85
412.93	454.06
413.12	351.08
413.31	442.36
413.50	365.12
413.69	430.66
413.88	458.74
414.07	369.80
414.26	402.57
414.45	409.59
414.64	360.44
414.83	374.49
415.02	425.98
415.22	409.59
415.41	423.64
415.60	454.06
415.79	315.97
415.98	458.74
416.17	411.93
416.36	416.62
416.55	386.19
416.74	344.06
416.93	409.59
417.12	393.21
417.31	407.25
417.50	390.87
417.69	463.43
417.88	376.83
418.07	355.76
418.26	388.53
418.45	447.04
418.64	423.64
418.83	425.98
419.02	414.27
419.21	334.70
419.39	400.23
419.58	367.46
419.77	393.21
419.96	411.93
420.15	479.81
420.34	397.89
420.53	386.19
420.72	433.00
420.91	362.78
421.10	397.89
421.29	411.93
421.48	402.57
421.67	472.79
421.86	339.38
422.05	397.89
422.24	433.00
422.43	395.55
422.61	369.80
422.80	390.87
422.99	449.38
423.18	437.68
423.37	437.68
423.56	374.49
423.75	447.04
423.94	423.64
424.13	374.49
424.32	346.40
424.50	348.74
424.69	386.19
424.88	423.64
425.07	416.62
425.26	437.68
425.45	484.49
425.64	374.49
425.83	442.36
426.01	395.55
426.20	449.38
426.39	409.59
426.58	379.17
426.77	451.72
426.96	425.98
427.15	428.32
427.33	428.32
427.52	407.25
427.71	395.55
427.90	407.25
428.09	400.23
428.28	393.21
428.46	456.40
428.65	437.68
428.84	397.89
429.03	447.04
429.22	421.30
429.40	393.21
429.59	479.81
429.78	491.51
429.97	428.32
430.16	400.23
430.34	374.49
430.53	451.72
430.72	376.83
430.91	498.53
431.10	360.44
431.28	330.02
431.47	400.23
431.66	383.85
431.85	355.76
432.03	425.98
432.22	430.66
432.41	430.66
432.60	435.34
432.79	421.30
432.97	454.06
433.16	437.68
433.35	376.83
433.54	428.32
433.72	397.89
433.91	367.46
434.10	435.34
434.28	358.10
434.47	383.85
434.66	456.40
434.85	388.53
435.03	402.57
435.22	477.47
435.41	482.15
435.59	409.59
435.78	386.19
435.97	365.12
436.16	416.62
436.34	414.27
436.53	374.49
436.72	440.02
436.90	477.47
437.09	430.66
437.28	428.32
437.46	430.66
437.65	477.47
437.84	435.34
438.02	442.36
438.21	337.04
438.40	395.55
438.58	383.85
438.77	524.28
438.96	465.77
439.14	465.77
439.33	404.91
439.52	358.10
439.70	365.12
439.89	458.74
440.08	383.85
440.26	393.21
440.45	367.46
440.63	468.11
440.82	442.36
441.01	372.15
441.19	400.23
441.38	409.59
441.57	397.89
441.75	447.04
441.94	468.11
442.12	440.02
442.31	451.72
442.50	484.49
442.68	383.85
442.87	407.25
443.05	407.25
443.24	402.57
443.43	404.91
443.61	477.47
443.80	404.91
443.98	402.57
444.17	360.44
444.35	416.62
444.54	383.85
444.73	386.19
444.91	444.70
445.10	468.11
445.28	365.12
445.47	411.93
445.65	430.66
445.84	423.64
446.02	376.83
446.21	421.30
446.39	425.98
446.58	400.23
446.77	444.70
446.95	386.19
447.14	449.38
447.32	486.83
447.51	418.96
447.69	454.06
447.88	379.17
448.06	393.21
448.25	503.22
448.43	409.59
448.62	430.66
448.80	383.85
448.99	407.25
449.17	402.57
449.36	425.98
449.54	416.62
449.73	344.06
449.91	468.11
450.10	418.96
450.28	451.72
450.46	442.36
450.65	395.55
450.83	421.30
451.02	407.25
451.20	400.23
451.39	409.59
451.57	425.98
451.76	414.27
451.94	362.78
452.13	332.36
452.31	477.47
452.49	479.81
452.68	442.36
452.86	433.00
453.05	442.36
453.23	388.53
453.42	390.87
453.60	416.62
453.78	407.25
453.97	437.68
454.15	433.00
454.34	369.80
454.52	407.25
454.70	442.36
454.89	444.70
455.07	484.49
455.26	409.59
455.44	425.98
455.62	461.09
455.81	461.09
455.99	404.91
456.17	416.62
456.36	482.15
456.54	400.23
456.73	416.62
456.91	421.30
457.09	421.30
457.28	404.91
457.46	421.30
457.64	444.70
457.83	400.23
458.01	393.21
458.19	390.87
458.38	444.70
458.56	407.25
458.74	433.00
458.93	376.83
459.11	351.08
459.29	395.55
459.48	449.38
459.66	472.79
459.84	421.30
460.03	505.56
460.21	425.98
460.39	397.89
460.57	402.57
460.76	383.85
460.94	463.43
461.12	463.43
461.31	416.62
461.49	475.13
461.67	414.27
461.85	435.34
462.04	449.38
462.22	725.57
462.40	390.87
462.59	416.62
462.77	346.40
462.95	390.87
463.13	397.89
463.32	430.66
463.50	421.30
463.68	369.80
463.86	381.51
464.05	454.06
464.23	437.68
464.41	386.19
464.59	402.57
464.78	440.02
464.96	388.53
465.14	421.30
465.32	367.46
465.50	402.57
465.69	472.79
465.87	315.97
466.05	461.09
466.23	400.23
466.41	351.08
466.60	423.64
466.78	470.45
466.96	468.11
467.14	414.27
467.32	369.80
467.51	428.32
467.69	468.11
467.87	479.81
468.05	414.27
468.23	500.87
468.41	479.81
468.60	369.80
468.78	447.04
468.96	454.06
469.14	402.57
469.32	365.12
469.50	379.17
469.69	486.83
469.87	386.19
470.05	510.24
470.23	414.27
470.41	447.04
470.59	414.27
470.77	456.40
470.95	402.57
471.14	397.89
471.32	383.85
471.50	390.87
471.68	416.62
471.86	456.40
472.04	381.51
472.22	435.34
472.40	369.80
472.58	449.38
472.77	341.72
472.95	428.32
473.13	440.02
473.31	395.55
473.49	339.38
473.67	390.87
473.85	479.81
474.03	411.93
474.21	407.25
474.39	400.23
474.57	444.70
474.75	388.53
474.93	442.36
475.12	433.00
475.30	425.98
475.48	430.66
475.66	479.81
475.84	472.79
476.02	393.21
476.20	386.19
476.38	491.51
476.56	535.98
476.74	477.47
476.92	418.96
477.10	456.40
477.28	503.22
477.46	400.23
477.64	397.89
477.82	395.55
478.00	402.57
478.18	444.70
478.36	442.36
478.54	409.59
478.72	390.87
478.90	414.27
479.08	400.23
479.26	365.12
479.44	435.34
479.62	421.30
479.80	348.74
479.98	447.04
480.16	381.51
480.34	348.74
480.52	409.59
480.70	383.85
480.88	407.25
481.06	386.19
481.24	388.53
481.41	383.85
481.59	456.40
481.77	404.91
481.95	402.57
482.13	428.32
482.31	433.00
482.49	428.32
482.67	496.19
482.85	411.93
483.03	423.64
483.21	402.57
483.39	425.98
483.57	444.70
483.74	444.70
483.92	423.64
484.10	423.64
484.28	423.64
484.46	484.49
484.64	341.72
484.82	456.40
485.00	390.87
485.18	407.25
485.35	454.06
485.53	456.40
485.71	411.93
485.89	360.44
486.07	395.55
486.25	367.46
486.43	456.40
486.61	437.68
486.78	430.66
486.96	409.59
487.14	395.55
487.32	416.62
487.50	379.17
487.68	430.66
487.85	388.53
488.03	411.93
488.21	428.32
488.39	470.45
488.57	470.45
488.75	393.21
488.92	482.15
489.10	440.02
489.28	388.53
489.46	358.10
489.64	418.96
489.81	402.57
489.99	418.96
490.17	407.25
490.35	477.47
490.53	348.74
490.70	313.63
490.88	437.68
491.06	400.23
491.24	472.79
491.41	517.26
491.59	500.87
491.77	390.87
491.95	461.09
492.13	390.87
492.30	388.53
492.48	381.51
492.66	421.30
492.84	418.96
493.01	376.83
493.19	390.87
493.37	425.98
493.54	449.38
493.72	423.64
493.90	397.89
494.08	362.78
494.25	421.30
494.43	440.02
494.61	423.64
494.79	344.06
494.96	416.62
495.14	425.98
495.32	393.21
495.49	367.46
495.67	435.34
495.85	402.57
496.02	365.12
496.20	475.13
496.38	374.49
496.55	402.57
496.73	404.91
496.91	379.17
497.09	386.19
497.26	428.32
497.44	491.51
497.62	461.09
497.79	379.17
497.97	433.00
498.14	458.74
498.32	407.25
498.50	397.89
498.67	440.02
498.85	526.62
499.03	411.93
499.20	447.04
499.38	418.96
499.56	393.21
499.73	428.32
499.91	381.51
500.08	369.80
500.26	374.49
500.44	421.30
500.61	411.93
500.79	430.66
500.97	409.59
501.14	369.80
501.32	411.93
501.49	468.11
501.67	393.21
501.84	472.79
502.02	416.62
502.20	423.64
502.37	346.40
502.55	402.57
502.72	407.25
502.90	475.13
503.07	374.49
503.25	379.17
503.43	421.30
503.60	404.91
503.78	423.64
503.95	400.23
504.13	433.00
504.30	407.25
504.48	489.17
504.65	409.59
504.83	393.21
505.01	449.38
505.18	437.68
505.36	447.04
505.53	372.15
505.71	449.38
505.88	430.66
506.06	418.96
506.23	318.31
506.41	433.00
506.58	409.59
506.76	390.87
506.93	404.91
507.11	421.30
507.28	451.72
507.46	411.93
507.63	416.62
507.81	393.21
507.98	379.17
508.16	454.06
508.33	451.72
508.50	393.21
508.68	451.72
508.85	372.15
509.03	397.89
509.20	395.55
509.38	407.25
509.55	470.45
509.73	407.25
509.90	376.83
510.08	379.17
510.25	456.40
510.42	430.66
510.60	442.36
510.77	433.00
510.95	407.25
511.12	411.93
511.30	475.13
511.47	388.53
511.64	442.36
511.82	344.06
511.99	458.74
512.17	433.00
512.34	374.49
512.51	409.59
512.69	409.59
512.86	470.45
513.04	381.51
513.21	454.06
513.38	341.72
513.56	444.70
513.73	402.57
513.90	360.44
514.08	362.78
514.25	425.98
514.43	416.62
514.60	465.77
514.77	355.76
514.95	440.02
515.12	409.59
515.29	449.38
515.47	468.11
515.64	418.96
515.81	416.62
515.99	423.64
516.16	416.62
516.33	409.59
516.51	379.17
516.68	407.25
516.85	425.98
517.03	472.79
517.20	379.17
517.37	463.43
517.54	472.79
517.72	407.25
517.89	360.44
518.06	374.49
518.24	461.09
518.41	484.49
518.58	421.30
518.75	344.06
518.93	362.78
519.10	456.40
519.27	465.77
519.45	425.98
519.62	365.12
519.79	367.46
519.96	358.10
520.14	379.17
520.31	447.04
520.48	447.04
520.65	407.25
520.83	454.06
521.00	372.15
521.17	351.08
521.34	423.64
521.52	386.19
521.69	402.57
521.86	421.30
522.03	407.25
522.20	416.62
522.38	430.66
522.55	440.02
522.72	461.09
522.89	428.32
523.07	440.02
523.24	381.51
523.41	390.87
523.58	355.76
523.75	388.53
523.92	425.98
524.10	451.72
524.27	433.00
524.44	397.89
524.61	472.79
524.78	379.17
524.96	519.60
525.13	409.59
525.30	423.64
525.47	447.04
525.64	437.68
525.81	425.98
525.98	428.32
526.16	369.80
526.33	423.64
526.50	372.15
526.67	440.02
526.84	423.64
527.01	425.98
527.18	458.74
527.36	444.70
527.53	346.40
527.70	465.77
527.87	395.55
528.04	458.74
528.21	433.00
528.38	395.55
528.55	435.34
528.72	454.06
528.89	416.62
529.07	461.09
529.24	355.76
529.41	414.27
529.58	463.43
529.75	400.23
529.92	409.59
530.09	479.81
530.26	388.53
530.43	374.49
530.60	393.21
530.77	341.72
530.94	444.70
531.11	425.98
531.28	383.85
531.46	355.76
531.63	472.79
531.80	423.64
531.97	409.59
532.14	454.06
532.31	418.96
532.48	395.55
532.65	423.64
532.82	479.81
532.99	390.87
533.16	404.91
533.33	454.06
533.50	390.87
533.67	421.30
533.84	421.30
534.01	383.85
534.18	376.83
534.35	409.59
534.52	435.34
534.69	407.25
534.86	430.66
535.03	411.93
535.20	421.30
535.37	416.62
535.54	411.93
535.71	435.34
535.88	458.74
536.05	430.66
536.22	482.15
536.38	430.66
536.55	507.90
536.72	428.32
536.89	477.47
537.06	456.40
537.23	404.91
537.40	440.02
537.57	437.68
537.74	477.47
537.91	479.81
538.08	493.85
538.25	454.06
538.42	421.30
538.59	449.38
538.75	421.30
538.92	430.66
539.09	423.64
539.26	407.25
539.43	444.70
539.60	386.19
539.77	418.96
539.94	421.30
540.11	456.40
540.28	411.93
540.44	479.81
540.61	416.62
540.78	454.06
540.95	437.68
541.12	472.79
541.29	442.36
541.46	475.13
541.62	442.36
541.79	430.66
541.96	425.98
542.13	379.17
542.30	414.27
542.47	484.49
542.63	442.36
542.80	444.70
542.97	435.34
543.14	461.09
543.31	444.70
543.48	409.59
543.64	367.46
543.81	435.34
543.98	477.47
544.15	381.51
544.32	397.89
544.48	376.83
544.65	395.55
544.82	454.06
544.99	402.57
545.16	442.36
545.32	444.70
545.49	449.38
545.66	393.21
545.83	475.13
546.00	540.66
546.16	400.23
546.33	397.89
546.50	519.60
546.67	379.17
546.83	482.15
547.00	404.91
547.17	332.36
547.34	442.36
547.50	395.55
547.67	372.15
547.84	400.23
548.00	454.06
548.17	465.77
548.34	393.21
548.51	454.06
548.67	365.12
548.84	440.02
549.01	362.78
549.18	421.30
549.34	402.57
549.51	407.25
549.68	449.38
549.84	416.62
550.01	482.15
550.18	493.85
550.34	458.74
550.51	325.33
550.68	498.53
550.84	397.89
551.01	423.64
551.18	428.32
551.34	381.51
551.51	444.70
551.68	365.12
551.84	454.06
552.01	484.49
552.18	367.46
552.34	416.62
552.51	421.30
552.68	447.04
552.84	428.32
553.01	444.70
553.18	433.00
553.34	430.66
553.51	414.27
553.67	409.59
553.84	482.15
554.01	421.30
554.17	435.34
554.34	381.51
554.51	409.59
554.67	402.57
554.84	463.43
555.00	435.34
555.17	428.32
555.33	325.33
555.50	280.86
555.67	409.59
555.83	348.74
556.00	372.15
556.16	524.28
556.33	400.23
556.50	379.17
556.66	383.85
556.83	395.55
556.99	395.55
557.16	379.17
557.32	454.06
557.49	430.66
557.65	393.21
557.82	393.21
557.98	430.66
558.15	402.57
558.32	444.70
558.48	456.40
558.65	374.49
558.81	383.85
558.98	421.30
559.14	491.51
559.31	404.91
559.47	477.47
559.64	423.64
559.80	376.83
559.97	390.87
560.13	348.74
560.30	440.02
560.46	404.91
560.63	388.53
560.79	383.85
560.96	327.68
561.12	421.30
561.29	393.21
561.45	435.34
561.61	404.91
561.78	395.55
561.94	393.21
562.11	395.55
562.27	442.36
562.44	330.02
562.60	381.51
562.77	393.21
562.93	486.83
563.10	447.04
563.26	440.02
563.42	383.85
563.59	313.63
563.75	404.91
563.92	393.21
564.08	386.19
564.24	444.70
564.41	528.96
564.57	379.17
564.74	407.25
564.90	498.53
565.07	475.13
565.23	348.74
565.39	433.00
565.56	458.74
565.72	468.11
565.88	404.91
566.05	376.83
566.21	411.93
566.38	395.55
566.54	402.57
566.70	388.53
566.87	372.15
567.03	318.31
567.19	423.64
567.36	491.51
567.52	416.62
567.68	437.68
567.85	433.00
568.01	456.40
568.17	423.64
568.34	428.32
568.50	386.19
568.66	290.23
568.83	456.40
568.99	416.62
569.15	397.89
569.32	454.06
569.48	411.93
569.64	383.85
569.81	421.30
569.97	414.27
570.13	339.38
570.30	416.62
570.46	456.40
570.62	421.30
570.78	353.42
570.95	421.30
571.11	470.45
571.27	484.49
571.43	425.98
571.60	507.90
571.76	386.19
571.92	451.72
572.09	449.38
572.25	388.53
572.41	465.77
572.57	433.00
572.74	451.72
572.90	444.70
573.06	407.25
573.22	367.46
573.38	411.93
573.55	463.43
573.71	407.25
573.87	435.34
574.03	449.38
574.20	355.76
574.36	416.62
574.52	404.91
574.68	367.46
574.84	458.74
575.01	416.62
575.17	428.32
575.33	390.87
575.49	407.25
575.65	416.62
575.82	442.36
575.98	397.89
576.14	386.19
576.30	425.98
576.46	404.91
576.62	372.15
576.79	463.43
576.95	447.04
577.11	468.11
577.27	512.58
577.43	430.66
577.59	428.32
577.75	379.17
577.92	433.00
578.08	440.02
578.24	374.49
578.40	407.25
578.56	381.51
578.72	402.57
578.88	433.00
579.04	369.80
579.21	386.19
579.37	418.96
579.53	414.27
579.69	456.40
579.85	444.70
580.01	472.79
580.17	456.40
580.33	454.06
580.49	510.24
580.65	428.32
580.82	447.04
580.98	421.30
581.14	440.02
581.30	493.85
581.46	454.06
581.62	493.85
581.78	411.93
581.94	447.04
582.10	447.04
582.26	451.72
582.42	449.38
582.58	463.43
582.74	463.43
582.90	409.59
583.06	440.02
583.22	433.00
583.38	437.68
583.54	402.57
583.70	421.30
583.86	416.62
584.02	386.19
584.18	489.17
584.34	458.74
584.50	435.34
584.66	407.25
584.82	365.12
584.98	407.25
585.14	463.43
585.30	430.66
585.46	479.81
585.62	414.27
585.78	360.44
585.94	383.85
586.10	416.62
586.26	372.15
586.42	444.70
586.58	416.62
586.74	444.70
586.90	458.74
587.06	425.98
587.22	437.68
587.38	355.76
587.54	418.96
587.70	360.44
587.86	407.25
588.02	411.93
588.18	393.21
588.34	423.64
588.49	414.27
588.65	423.64
588.81	461.09
588.97	395.55
589.13	372.15
589.29	463.43
589.45	491.51
589.61	383.85
589.77	500.87
589.93	407.25
590.08	299.59
590.24	484.49
590.40	435.34
590.56	454.06
590.72	353.42
590.88	447.04
591.04	454.06
591.20	327.68
591.35	430.66
591.51	472.79
591.67	397.89
591.83	376.83
591.99	414.27
592.15	454.06
592.31	351.08
592.46	423.64
592.62	463.43
592.78	444.70
592.94	486.83
593.10	351.08
593.26	416.62
593.41	465.77
593.57	433.00
593.73	454.06
593.89	435.34
594.05	454.06
594.20	365.12
594.36	400.23
594.52	344.06
594.68	451.72
594.84	440.02
594.99	390.87
595.15	440.02
595.31	435.34
595.47	395.55
595.62	372.15
595.78	470.45
595.94	475.13
596.10	414.27
596.25	414.27
596.41	447.04
596.57	332.36
596.73	404.91
596.88	440.02
597.04	395.55
597.20	449.38
597.36	454.06
597.51	304.27
597.67	425.98
597.83	517.26
597.99	442.36
598.14	404.91
598.30	444.70
598.46	433.00
598.61	383.85
598.77	374.49
598.93	465.77
599.09	388.53
599.24	411.93
599.40	365.12
599.56	463.43
599.71	383.85
599.87	447.04
600.03	461.09
600.18	430.66
600.34	400.23
600.50	433.00
600.65	447.04
600.81	451.72
600.97	404.91
601.12	433.00
601.28	437.68
601.44	346.40
601.59	414.27
601.75	400.23
601.91	390.87
602.06	491.51
602.22	409.59
602.37	400.23
602.53	421.30
602.69	416.62
602.84	353.42
603.00	416.62
603.16	360.44
603.31	465.77
603.47	444.70
603.62	463.43
603.78	318.31
603.94	383.85
604.09	440.02
604.25	404.91
604.40	421.30
604.56	395.55
604.71	414.27
604.87	421.30
605.03	365.12
605.18	414.27
605.34	393.21
605.49	433.00
605.65	409.59
605.80	395.55
605.96	358.10
606.12	468.11
606.27	484.49
606.43	339.38
606.58	442.36
606.74	414.27
606.89	386.19
607.05	423.64
607.20	400.23
607.36	428.32
607.51	407.25
607.67	472.79
607.82	388.53
607.98	416.62
608.13	458.74
608.29	433.00
608.44	440.02
608.60	447.04
608.75	440.02
608.91	376.83
609.06	421.30
609.22	390.87
609.37	409.59
609.53	456.40
609.68	400.23
609.84	407.25
609.99	404.91
610.15	397.89
