SpectraSuite Data File
++++++++++++++++++++++++++++++++++++
Date: Fri Oct 25 12:11:26 EDT 2013
User: price-jones
Dark Spectrum Present: No
Reference Spectrum Present: No
Number of Sampled Component Spectra: 1
Spectrometers: USB2+H05261
Integration Time (usec): 100000 (USB2+H05261)
Spectra Averaged: 1 (USB2+H05261)
Boxcar Smoothing: 0 (USB2+H05261)
Correct for Electrical Dark: No (USB2+H05261)
Strobe/Lamp Enabled: No (USB2+H05261)
Correct for Detector Non-linearity: No (USB2+H05261)
Correct for Stray Light: No (USB2+H05261)
Number of Pixels in Processed Spectrum: 2048
>>>>>Begin Processed Spectral Data<<<<<
365.73	297.25
365.92	297.25
366.12	297.25
366.32	212.99
366.52	262.14
366.72	196.60
366.91	217.67
367.11	215.33
367.31	255.12
367.51	236.39
367.70	264.48
367.90	243.42
368.10	234.05
368.30	224.69
368.49	222.35
368.69	238.73
368.89	212.99
369.09	271.50
369.28	297.25
369.48	255.12
369.68	238.73
369.87	273.84
370.07	346.40
370.27	276.18
370.47	376.83
370.66	304.27
370.86	358.10
371.06	332.36
371.25	383.85
371.45	334.70
371.65	362.78
371.84	409.59
372.04	400.23
372.24	362.78
372.44	435.34
372.63	437.68
372.83	428.32
373.03	444.70
373.22	372.15
373.42	351.08
373.62	355.76
373.81	397.89
374.01	435.34
374.21	458.74
374.40	358.10
374.60	428.32
374.79	414.27
374.99	425.98
375.19	442.36
375.38	430.66
375.58	402.57
375.78	447.04
375.97	404.91
376.17	374.49
376.37	451.72
376.56	395.55
376.76	407.25
376.95	383.85
377.15	458.74
377.35	418.96
377.54	411.93
377.74	395.55
377.93	379.17
378.13	433.00
378.33	372.15
378.52	458.74
378.72	437.68
378.91	367.46
379.11	400.23
379.31	383.85
379.50	346.40
379.70	355.76
379.89	402.57
380.09	407.25
380.28	411.93
380.48	416.62
380.68	346.40
380.87	388.53
381.07	379.17
381.26	444.70
381.46	440.02
381.65	407.25
381.85	416.62
382.04	470.45
382.24	407.25
382.43	367.46
382.63	437.68
382.83	416.62
383.02	414.27
383.22	374.49
383.41	339.38
383.61	372.15
383.80	435.34
384.00	414.27
384.19	440.02
384.39	416.62
384.58	348.74
384.78	437.68
384.97	440.02
385.17	379.17
385.36	425.98
385.56	332.36
385.75	379.17
385.95	458.74
386.14	449.38
386.34	334.70
386.53	402.57
386.72	381.51
386.92	418.96
387.11	444.70
387.31	496.19
387.50	402.57
387.70	337.04
387.89	456.40
388.09	397.89
388.28	379.17
388.48	402.57
388.67	472.79
388.86	381.51
389.06	400.23
389.25	465.77
389.45	433.00
389.64	337.04
389.84	437.68
390.03	465.77
390.22	414.27
390.42	379.17
390.61	348.74
390.81	346.40
391.00	402.57
391.19	416.62
391.39	358.10
391.58	444.70
391.78	400.23
391.97	301.93
392.16	372.15
392.36	421.30
392.55	493.85
392.75	447.04
392.94	409.59
393.13	379.17
393.33	330.02
393.52	418.96
393.71	379.17
393.91	397.89
394.10	383.85
394.29	407.25
394.49	451.72
394.68	411.93
394.88	421.30
395.07	454.06
395.26	423.64
395.46	376.83
395.65	425.98
395.84	433.00
396.04	482.15
396.23	402.57
396.42	409.59
396.62	418.96
396.81	442.36
397.00	400.23
397.19	383.85
397.39	346.40
397.58	397.89
397.77	435.34
397.97	386.19
398.16	379.17
398.35	421.30
398.55	369.80
398.74	379.17
398.93	440.02
399.12	409.59
399.32	468.11
399.51	418.96
399.70	416.62
399.90	463.43
400.09	500.87
400.28	463.43
400.47	423.64
400.67	362.78
400.86	400.23
401.05	458.74
401.24	425.98
401.44	479.81
401.63	404.91
401.82	463.43
402.01	411.93
402.21	421.30
402.40	407.25
402.59	430.66
402.78	447.04
402.97	344.06
403.17	430.66
403.36	447.04
403.55	365.12
403.74	332.36
403.93	409.59
404.13	489.17
404.32	383.85
404.51	388.53
404.70	358.10
404.89	383.85
405.09	409.59
405.28	421.30
405.47	430.66
405.66	447.04
405.85	535.98
406.05	414.27
406.24	409.59
406.43	425.98
406.62	418.96
406.81	496.19
407.00	482.15
407.20	390.87
407.39	407.25
407.58	435.34
407.77	416.62
407.96	400.23
408.15	425.98
408.34	395.55
408.54	477.47
408.73	388.53
408.92	423.64
409.11	379.17
409.30	456.40
409.49	404.91
409.68	442.36
409.87	362.78
410.07	337.04
410.26	334.70
410.45	454.06
410.64	341.72
410.83	472.79
411.02	458.74
411.21	407.25
411.40	407.25
411.59	355.76
411.78	383.85
411.98	360.44
412.17	400.23
412.36	402.57
412.55	365.12
412.74	372.15
412.93	416.62
413.12	351.08
413.31	374.49
413.50	383.85
413.69	400.23
413.88	400.23
414.07	376.83
414.26	451.72
414.45	416.62
414.64	400.23
414.83	369.80
415.02	358.10
415.22	355.76
415.41	381.51
415.60	411.93
415.79	433.00
415.98	428.32
416.17	440.02
416.36	428.32
416.55	397.89
416.74	409.59
416.93	428.32
417.12	454.06
417.31	353.42
417.50	411.93
417.69	456.40
417.88	351.08
418.07	348.74
418.26	435.34
418.45	395.55
418.64	425.98
418.83	379.17
419.02	433.00
419.21	407.25
419.39	433.00
419.58	416.62
419.77	397.89
419.96	358.10
420.15	454.06
420.34	416.62
420.53	430.66
420.72	411.93
420.91	437.68
421.10	397.89
421.29	433.00
421.48	367.46
421.67	372.15
421.86	355.76
422.05	430.66
422.24	365.12
422.43	402.57
422.61	386.19
422.80	393.21
422.99	386.19
423.18	330.02
423.37	423.64
423.56	388.53
423.75	390.87
423.94	369.80
424.13	407.25
424.32	397.89
424.50	461.09
424.69	414.27
424.88	444.70
425.07	390.87
425.26	428.32
425.45	463.43
425.64	381.51
425.83	351.08
426.01	411.93
426.20	500.87
426.39	402.57
426.58	386.19
426.77	407.25
426.96	418.96
427.15	416.62
427.33	425.98
427.52	456.40
427.71	461.09
427.90	433.00
428.09	491.51
428.28	400.23
428.46	458.74
428.65	423.64
428.84	379.17
429.03	437.68
429.22	372.15
429.40	463.43
429.59	433.00
429.78	369.80
429.97	390.87
430.16	416.62
430.34	400.23
430.53	400.23
430.72	379.17
430.91	400.23
431.10	414.27
431.28	435.34
431.47	414.27
431.66	416.62
431.85	411.93
432.03	353.42
432.22	404.91
432.41	376.83
432.60	414.27
432.79	374.49
432.97	360.44
433.16	400.23
433.35	367.46
433.54	489.17
433.72	456.40
433.91	358.10
434.10	353.42
434.28	433.00
434.47	409.59
434.66	433.00
434.85	353.42
435.03	397.89
435.22	397.89
435.41	435.34
435.59	423.64
435.78	458.74
435.97	409.59
436.16	393.21
436.34	374.49
436.53	482.15
436.72	411.93
436.90	475.13
437.09	416.62
437.28	463.43
437.46	461.09
437.65	433.00
437.84	411.93
438.02	407.25
438.21	416.62
438.40	416.62
438.58	440.02
438.77	468.11
438.96	381.51
439.14	404.91
439.33	510.24
439.52	440.02
439.70	390.87
439.89	301.93
440.08	383.85
440.26	383.85
440.45	404.91
440.63	397.89
440.82	468.11
441.01	369.80
441.19	421.30
441.38	379.17
441.57	390.87
441.75	404.91
441.94	463.43
442.12	451.72
442.31	458.74
442.50	390.87
442.68	376.83
442.87	367.46
443.05	414.27
443.24	442.36
443.43	468.11
443.61	390.87
443.80	301.93
443.98	397.89
444.17	393.21
444.35	454.06
444.54	388.53
444.73	472.79
444.91	435.34
445.10	365.12
445.28	414.27
445.47	428.32
445.65	486.83
445.84	362.78
446.02	397.89
446.21	440.02
446.39	442.36
446.58	383.85
446.77	360.44
446.95	372.15
447.14	461.09
447.32	444.70
447.51	287.89
447.69	531.30
447.88	372.15
448.06	458.74
448.25	421.30
448.43	355.76
448.62	360.44
448.80	402.57
448.99	433.00
449.17	470.45
449.36	442.36
449.54	407.25
449.73	390.87
449.91	346.40
450.10	374.49
450.28	367.46
450.46	423.64
450.65	379.17
450.83	404.91
451.02	416.62
451.20	393.21
451.39	365.12
451.57	447.04
451.76	397.89
451.94	468.11
452.13	397.89
452.31	414.27
452.49	388.53
452.68	388.53
452.86	423.64
453.05	433.00
453.23	416.62
453.42	414.27
453.60	400.23
453.78	442.36
453.97	369.80
454.15	393.21
454.34	395.55
454.52	372.15
454.70	418.96
454.89	390.87
455.07	379.17
455.26	435.34
455.44	409.59
455.62	360.44
455.81	430.66
455.99	430.66
456.17	376.83
456.36	414.27
456.54	337.04
456.73	383.85
456.91	390.87
457.09	435.34
457.28	472.79
457.46	379.17
457.64	458.74
457.83	407.25
458.01	388.53
458.19	372.15
458.38	430.66
458.56	355.76
458.74	425.98
458.93	402.57
459.11	425.98
459.29	414.27
459.48	425.98
459.66	442.36
459.84	411.93
460.03	540.66
460.21	423.64
460.39	430.66
460.57	449.38
460.76	388.53
460.94	393.21
461.12	362.78
461.31	423.64
461.49	322.99
461.67	393.21
461.85	311.29
462.04	435.34
462.22	795.78
462.40	437.68
462.59	454.06
462.77	376.83
462.95	468.11
463.13	395.55
463.32	437.68
463.50	470.45
463.68	458.74
463.86	449.38
464.05	393.21
464.23	418.96
464.41	430.66
464.59	470.45
464.78	433.00
464.96	367.46
465.14	362.78
465.32	397.89
465.50	388.53
465.69	440.02
465.87	372.15
466.05	360.44
466.23	386.19
466.41	322.99
466.60	404.91
466.78	381.51
466.96	407.25
467.14	425.98
467.32	376.83
467.51	386.19
467.69	418.96
467.87	479.81
468.05	388.53
468.23	444.70
468.41	465.77
468.60	444.70
468.78	397.89
468.96	477.47
469.14	397.89
469.32	404.91
469.50	442.36
469.69	374.49
469.87	379.17
470.05	414.27
470.23	444.70
470.41	386.19
470.59	435.34
470.77	458.74
470.95	386.19
471.14	400.23
471.32	421.30
471.50	463.43
471.68	423.64
471.86	393.21
472.04	411.93
472.22	397.89
472.40	428.32
472.58	390.87
472.77	313.63
472.95	404.91
473.13	449.38
473.31	484.49
473.49	400.23
473.67	444.70
473.85	409.59
474.03	451.72
474.21	421.30
474.39	442.36
474.57	440.02
474.75	372.15
474.93	407.25
475.12	379.17
475.30	383.85
475.48	411.93
475.66	369.80
475.84	404.91
476.02	404.91
476.20	463.43
476.38	388.53
476.56	416.62
476.74	465.77
476.92	510.24
477.10	449.38
477.28	435.34
477.46	395.55
477.64	465.77
477.82	444.70
478.00	402.57
478.18	397.89
478.36	414.27
478.54	381.51
478.72	379.17
478.90	425.98
479.08	409.59
479.26	440.02
479.44	465.77
479.62	435.34
479.80	411.93
479.98	414.27
480.16	397.89
480.34	365.12
480.52	407.25
480.70	411.93
480.88	465.77
481.06	315.97
481.24	442.36
481.41	409.59
481.59	414.27
481.77	360.44
481.95	369.80
482.13	468.11
482.31	362.78
482.49	425.98
482.67	442.36
482.85	430.66
483.03	395.55
483.21	430.66
483.39	407.25
483.57	400.23
483.74	355.76
483.92	416.62
484.10	360.44
484.28	447.04
484.46	400.23
484.64	421.30
484.82	409.59
485.00	369.80
485.18	437.68
485.35	447.04
485.53	421.30
485.71	461.09
485.89	383.85
486.07	390.87
486.25	482.15
486.43	409.59
486.61	416.62
486.78	386.19
486.96	437.68
487.14	442.36
487.32	411.93
487.50	407.25
487.68	468.11
487.85	409.59
488.03	493.85
488.21	435.34
488.39	444.70
488.57	444.70
488.75	484.49
488.92	540.66
489.10	440.02
489.28	440.02
489.46	411.93
489.64	428.32
489.81	402.57
489.99	458.74
490.17	383.85
490.35	421.30
490.53	287.89
490.70	397.89
490.88	428.32
491.06	444.70
491.24	425.98
491.41	472.79
491.59	421.30
491.77	418.96
491.95	425.98
492.13	437.68
492.30	402.57
492.48	400.23
492.66	400.23
492.84	449.38
493.01	404.91
493.19	376.83
493.37	456.40
493.54	346.40
493.72	409.59
493.90	411.93
494.08	437.68
494.25	337.04
494.43	418.96
494.61	353.42
494.79	388.53
494.96	414.27
495.14	512.58
495.32	301.93
495.49	435.34
495.67	418.96
495.85	468.11
496.02	411.93
496.20	409.59
496.38	477.47
496.55	395.55
496.73	395.55
496.91	475.13
497.09	451.72
497.26	362.78
497.44	381.51
497.62	442.36
497.79	407.25
497.97	407.25
498.14	395.55
498.32	442.36
498.50	365.12
498.67	330.02
498.85	411.93
499.03	418.96
499.20	376.83
499.38	456.40
499.56	386.19
499.73	456.40
499.91	369.80
500.08	402.57
500.26	390.87
500.44	411.93
500.61	379.17
500.79	416.62
500.97	475.13
501.14	461.09
501.32	400.23
501.49	435.34
501.67	369.80
501.84	381.51
502.02	390.87
502.20	411.93
502.37	369.80
502.55	411.93
502.72	334.70
502.90	409.59
503.07	353.42
503.25	388.53
503.43	407.25
503.60	425.98
503.78	355.76
503.95	402.57
504.13	379.17
504.30	404.91
504.48	421.30
504.65	407.25
504.83	428.32
505.01	337.04
505.18	489.17
505.36	409.59
505.53	381.51
505.71	374.49
505.88	428.32
506.06	404.91
506.23	386.19
506.41	383.85
506.58	355.76
506.76	421.30
506.93	433.00
507.11	365.12
507.28	470.45
507.46	346.40
507.63	395.55
507.81	444.70
507.98	475.13
508.16	388.53
508.33	477.47
508.50	388.53
508.68	341.72
508.85	351.08
509.03	404.91
509.20	402.57
509.38	386.19
509.55	463.43
509.73	461.09
509.90	416.62
510.08	447.04
510.25	447.04
510.42	433.00
510.60	397.89
510.77	425.98
510.95	451.72
511.12	428.32
511.30	411.93
511.47	425.98
511.64	470.45
511.82	451.72
511.99	447.04
512.17	435.34
512.34	430.66
512.51	482.15
512.69	442.36
512.86	437.68
513.04	428.32
513.21	379.17
513.38	351.08
513.56	444.70
513.73	505.56
513.90	407.25
514.08	360.44
514.25	444.70
514.43	409.59
514.60	393.21
514.77	334.70
514.95	407.25
515.12	416.62
515.29	379.17
515.47	339.38
515.64	372.15
515.81	372.15
515.99	404.91
516.16	447.04
516.33	442.36
516.51	458.74
516.68	461.09
516.85	367.46
517.03	447.04
517.20	440.02
517.37	451.72
517.54	430.66
517.72	411.93
517.89	409.59
518.06	404.91
518.24	526.62
518.41	447.04
518.58	444.70
518.75	372.15
518.93	428.32
519.10	500.87
519.27	440.02
519.45	418.96
519.62	411.93
519.79	411.93
519.96	430.66
520.14	423.64
520.31	409.59
520.48	433.00
520.65	423.64
520.83	472.79
521.00	505.56
521.17	451.72
521.34	468.11
521.52	411.93
521.69	416.62
521.86	416.62
522.03	440.02
522.20	484.49
522.38	376.83
522.55	442.36
522.72	379.17
522.89	425.98
523.07	388.53
523.24	433.00
523.41	456.40
523.58	416.62
523.75	482.15
523.92	430.66
524.10	451.72
524.27	416.62
524.44	451.72
524.61	454.06
524.78	421.30
524.96	402.57
525.13	390.87
525.30	447.04
525.47	414.27
525.64	400.23
525.81	386.19
525.98	409.59
526.16	496.19
526.33	465.77
526.50	355.76
526.67	477.47
526.84	339.38
527.01	397.89
527.18	437.68
527.36	372.15
527.53	463.43
527.70	397.89
527.87	470.45
528.04	433.00
528.21	451.72
528.38	444.70
528.55	479.81
528.72	411.93
528.89	472.79
529.07	421.30
529.24	418.96
529.41	435.34
529.58	421.30
529.75	351.08
529.92	416.62
530.09	400.23
530.26	428.32
530.43	402.57
530.60	390.87
530.77	435.34
530.94	372.15
531.11	451.72
531.28	313.63
531.46	470.45
531.63	433.00
531.80	414.27
531.97	447.04
532.14	379.17
532.31	402.57
532.48	400.23
532.65	451.72
532.82	454.06
532.99	440.02
533.16	383.85
533.33	437.68
533.50	418.96
533.67	337.04
533.84	372.15
534.01	372.15
534.18	400.23
534.35	407.25
534.52	409.59
534.69	418.96
534.86	397.89
535.03	369.80
535.20	437.68
535.37	435.34
535.54	404.91
535.71	367.46
535.88	451.72
536.05	407.25
536.22	402.57
536.38	493.85
536.55	444.70
536.72	383.85
536.89	437.68
537.06	430.66
537.23	381.51
537.40	428.32
537.57	400.23
537.74	414.27
537.91	449.38
538.08	442.36
538.25	451.72
538.42	388.53
538.59	458.74
538.75	449.38
538.92	423.64
539.09	393.21
539.26	407.25
539.43	468.11
539.60	435.34
539.77	400.23
539.94	440.02
540.11	411.93
540.28	423.64
540.44	423.64
540.61	372.15
540.78	505.56
540.95	423.64
541.12	463.43
541.29	400.23
541.46	355.76
541.62	458.74
541.79	433.00
541.96	355.76
542.13	463.43
542.30	444.70
542.47	486.83
542.63	411.93
542.80	411.93
542.97	388.53
543.14	421.30
543.31	404.91
543.48	402.57
543.64	416.62
543.81	388.53
543.98	444.70
544.15	411.93
544.32	360.44
544.48	388.53
544.65	447.04
544.82	369.80
544.99	428.32
545.16	498.53
545.32	360.44
545.49	404.91
545.66	407.25
545.83	404.91
546.00	404.91
546.16	437.68
546.33	358.10
546.50	362.78
546.67	463.43
546.83	433.00
547.00	465.77
547.17	372.15
547.34	484.49
547.50	353.42
547.67	454.06
547.84	374.49
548.00	421.30
548.17	355.76
548.34	402.57
548.51	421.30
548.67	416.62
548.84	423.64
549.01	440.02
549.18	416.62
549.34	449.38
549.51	409.59
549.68	463.43
549.84	402.57
550.01	381.51
550.18	491.51
550.34	477.47
550.51	454.06
550.68	447.04
550.84	442.36
551.01	435.34
551.18	381.51
551.34	358.10
551.51	449.38
551.68	372.15
551.84	421.30
552.01	388.53
552.18	308.95
552.34	400.23
552.51	409.59
552.68	418.96
552.84	409.59
553.01	376.83
553.18	477.47
553.34	418.96
553.51	411.93
553.67	442.36
553.84	461.09
554.01	393.21
554.17	428.32
554.34	393.21
554.51	407.25
554.67	376.83
554.84	390.87
555.00	444.70
555.17	435.34
555.33	447.04
555.50	482.15
555.67	447.04
555.83	390.87
556.00	287.89
556.16	482.15
556.33	470.45
556.50	414.27
556.66	421.30
556.83	409.59
556.99	400.23
557.16	414.27
557.32	477.47
557.49	425.98
557.65	386.19
557.82	437.68
557.98	411.93
558.15	421.30
558.32	437.68
558.48	344.06
558.65	416.62
558.81	433.00
558.98	440.02
559.14	416.62
559.31	440.02
559.47	435.34
559.64	402.57
559.80	430.66
559.97	372.15
560.13	430.66
560.30	468.11
560.46	461.09
560.63	395.55
560.79	383.85
560.96	430.66
561.12	451.72
561.29	421.30
561.45	496.19
561.61	489.17
561.78	524.28
561.94	409.59
562.11	381.51
562.27	447.04
562.44	397.89
562.60	383.85
562.77	421.30
562.93	456.40
563.10	376.83
563.26	353.42
563.42	395.55
563.59	440.02
563.75	428.32
563.92	414.27
564.08	409.59
564.24	430.66
564.41	425.98
564.57	407.25
564.74	421.30
564.90	418.96
565.07	388.53
565.23	451.72
565.39	418.96
565.56	477.47
565.72	402.57
565.88	381.51
566.05	444.70
566.21	407.25
566.38	437.68
566.54	486.83
566.70	433.00
566.87	421.30
567.03	325.33
567.19	430.66
567.36	407.25
567.52	315.97
567.68	528.96
567.85	491.51
568.01	444.70
568.17	484.49
568.34	376.83
568.50	486.83
568.66	355.76
568.83	496.19
568.99	407.25
569.15	418.96
569.32	381.51
569.48	440.02
569.64	395.55
569.81	407.25
569.97	372.15
570.13	400.23
570.30	388.53
570.46	425.98
570.62	442.36
570.78	423.64
570.95	400.23
571.11	484.49
571.27	430.66
571.43	353.42
571.60	414.27
571.76	411.93
571.92	395.55
572.09	454.06
572.25	454.06
572.41	381.51
572.57	468.11
572.74	437.68
572.90	444.70
573.06	414.27
573.22	444.70
573.38	444.70
573.55	440.02
573.71	451.72
573.87	451.72
574.03	477.47
574.20	397.89
574.36	409.59
574.52	425.98
574.68	360.44
574.84	440.02
575.01	440.02
575.17	430.66
575.33	374.49
575.49	484.49
575.65	475.13
575.82	430.66
575.98	484.49
576.14	358.10
576.30	463.43
576.46	411.93
576.62	442.36
576.79	418.96
576.95	402.57
577.11	355.76
577.27	428.32
577.43	416.62
577.59	458.74
577.75	416.62
577.92	402.57
578.08	386.19
578.24	409.59
578.40	374.49
578.56	423.64
578.72	393.21
578.88	388.53
579.04	416.62
579.21	376.83
579.37	442.36
579.53	454.06
579.69	428.32
579.85	395.55
580.01	418.96
580.17	376.83
580.33	423.64
580.49	503.22
580.65	463.43
580.82	451.72
580.98	447.04
581.14	400.23
581.30	489.17
581.46	433.00
581.62	421.30
581.78	458.74
581.94	397.89
582.10	444.70
582.26	475.13
582.42	496.19
582.58	449.38
582.74	442.36
582.90	472.79
583.06	498.53
583.22	393.21
583.38	414.27
583.54	372.15
583.70	456.40
583.86	461.09
584.02	425.98
584.18	423.64
584.34	372.15
584.50	428.32
584.66	421.30
584.82	440.02
584.98	390.87
585.14	395.55
585.30	414.27
585.46	411.93
585.62	400.23
585.78	390.87
585.94	383.85
586.10	440.02
586.26	386.19
586.42	397.89
586.58	435.34
586.74	330.02
586.90	407.25
587.06	360.44
587.22	425.98
587.38	444.70
587.54	383.85
587.70	463.43
587.86	437.68
588.02	437.68
588.18	416.62
588.34	402.57
588.49	341.72
588.65	353.42
588.81	456.40
588.97	402.57
589.13	433.00
589.29	383.85
589.45	449.38
589.61	442.36
589.77	428.32
589.93	390.87
590.08	414.27
590.24	451.72
590.40	496.19
590.56	411.93
590.72	393.21
590.88	437.68
591.04	500.87
591.20	470.45
591.35	482.15
591.51	372.15
591.67	433.00
591.83	435.34
591.99	404.91
592.15	433.00
592.31	409.59
592.46	484.49
592.62	421.30
592.78	425.98
592.94	386.19
593.10	440.02
593.26	404.91
593.41	355.76
593.57	428.32
593.73	447.04
593.89	433.00
594.05	442.36
594.20	393.21
594.36	386.19
594.52	351.08
594.68	414.27
594.84	463.43
594.99	421.30
595.15	358.10
595.31	493.85
595.47	454.06
595.62	407.25
595.78	355.76
595.94	449.38
596.10	409.59
596.25	409.59
596.41	404.91
596.57	465.77
596.73	449.38
596.88	428.32
597.04	353.42
597.20	400.23
597.36	435.34
597.51	470.45
597.67	414.27
597.83	440.02
597.99	475.13
598.14	360.44
598.30	418.96
598.46	409.59
598.61	348.74
598.77	416.62
598.93	416.62
599.09	327.68
599.24	400.23
599.40	447.04
599.56	425.98
599.71	470.45
599.87	344.06
600.03	374.49
600.18	423.64
600.34	423.64
600.50	395.55
600.65	379.17
600.81	433.00
600.97	470.45
601.12	411.93
601.28	496.19
601.44	362.78
601.59	372.15
601.75	400.23
601.91	388.53
602.06	449.38
602.22	451.72
602.37	421.30
602.53	444.70
602.69	423.64
602.84	458.74
603.00	468.11
603.16	423.64
603.31	440.02
603.47	386.19
603.62	416.62
603.78	386.19
603.94	444.70
604.09	379.17
604.25	411.93
604.40	437.68
604.56	428.32
604.71	458.74
604.87	468.11
605.03	402.57
605.18	365.12
605.34	491.51
605.49	332.36
605.65	479.81
605.80	367.46
605.96	430.66
606.12	381.51
606.27	489.17
606.43	393.21
606.58	458.74
606.74	440.02
606.89	454.06
607.05	433.00
607.20	423.64
607.36	404.91
607.51	369.80
607.67	435.34
607.82	409.59
607.98	365.12
608.13	444.70
608.29	421.30
608.44	416.62
608.60	402.57
608.75	397.89
608.91	454.06
609.06	407.25
609.22	402.57
609.37	463.43
609.53	297.25
609.68	358.10
609.84	388.53
609.99	425.98
610.15	404.91
