SpectraSuite Data File
++++++++++++++++++++++++++++++++++++
Date: Fri Oct 25 12:11:34 EDT 2013
User: price-jones
Dark Spectrum Present: No
Reference Spectrum Present: No
Number of Sampled Component Spectra: 1
Spectrometers: USB2+H05261
Integration Time (usec): 100000 (USB2+H05261)
Spectra Averaged: 1 (USB2+H05261)
Boxcar Smoothing: 0 (USB2+H05261)
Correct for Electrical Dark: No (USB2+H05261)
Strobe/Lamp Enabled: No (USB2+H05261)
Correct for Detector Non-linearity: No (USB2+H05261)
Correct for Stray Light: No (USB2+H05261)
Number of Pixels in Processed Spectrum: 2048
>>>>>Begin Processed Spectral Data<<<<<
365.73	306.61
365.92	306.61
366.12	306.61
366.32	306.61
366.52	227.03
366.72	255.12
366.91	243.42
367.11	220.01
367.31	187.24
367.51	248.10
367.70	170.86
367.90	276.18
368.10	278.52
368.30	252.78
368.49	168.52
368.69	273.84
368.89	194.26
369.09	243.42
369.28	250.44
369.48	184.90
369.68	248.10
369.87	292.57
370.07	290.23
370.27	355.76
370.47	334.70
370.66	304.27
370.86	365.12
371.06	402.57
371.25	428.32
371.45	393.21
371.65	414.27
371.84	327.68
372.04	358.10
372.24	395.55
372.44	423.64
372.63	416.62
372.83	376.83
373.03	346.40
373.22	440.02
373.42	421.30
373.62	407.25
373.81	451.72
374.01	463.43
374.21	470.45
374.40	491.51
374.60	458.74
374.79	344.06
374.99	402.57
375.19	428.32
375.38	383.85
375.58	418.96
375.78	456.40
375.97	465.77
376.17	416.62
376.37	400.23
376.56	435.34
376.76	454.06
376.95	433.00
377.15	437.68
377.35	348.74
377.54	430.66
377.74	381.51
377.93	435.34
378.13	383.85
378.33	456.40
378.52	437.68
378.72	390.87
378.91	393.21
379.11	407.25
379.31	416.62
379.50	353.42
379.70	423.64
379.89	491.51
380.09	442.36
380.28	390.87
380.48	423.64
380.68	346.40
380.87	397.89
381.07	409.59
381.26	379.17
381.46	411.93
381.65	482.15
381.85	390.87
382.04	447.04
382.24	402.57
382.43	344.06
382.63	348.74
382.83	397.89
383.02	393.21
383.22	421.30
383.41	339.38
383.61	383.85
383.80	421.30
384.00	416.62
384.19	430.66
384.39	451.72
384.58	428.32
384.78	388.53
384.97	365.12
385.17	365.12
385.36	365.12
385.56	383.85
385.75	372.15
385.95	414.27
386.14	440.02
386.34	444.70
386.53	409.59
386.72	421.30
386.92	444.70
387.11	435.34
387.31	397.89
387.50	390.87
387.70	367.46
387.89	409.59
388.09	341.72
388.28	442.36
388.48	421.30
388.67	360.44
388.86	358.10
389.06	362.78
389.25	411.93
389.45	442.36
389.64	390.87
389.84	411.93
390.03	454.06
390.22	463.43
390.42	358.10
390.61	379.17
390.81	421.30
391.00	437.68
391.19	404.91
391.39	390.87
391.58	407.25
391.78	397.89
391.97	465.77
392.16	407.25
392.36	402.57
392.55	498.53
392.75	416.62
392.94	430.66
393.13	409.59
393.33	456.40
393.52	372.15
393.71	390.87
393.91	393.21
394.10	369.80
394.29	376.83
394.49	458.74
394.68	447.04
394.88	468.11
395.07	395.55
395.26	397.89
395.46	372.15
395.65	442.36
395.84	372.15
396.04	479.81
396.23	344.06
396.42	411.93
396.62	360.44
396.81	416.62
397.00	386.19
397.19	409.59
397.39	393.21
397.58	444.70
397.77	397.89
397.97	379.17
398.16	341.72
398.35	447.04
398.55	374.49
398.74	411.93
398.93	414.27
399.12	418.96
399.32	440.02
399.51	409.59
399.70	379.17
399.90	458.74
400.09	388.53
400.28	430.66
400.47	423.64
400.67	390.87
400.86	449.38
401.05	444.70
401.24	374.49
401.44	428.32
401.63	407.25
401.82	360.44
402.01	454.06
402.21	437.68
402.40	388.53
402.59	475.13
402.78	381.51
402.97	346.40
403.17	409.59
403.36	395.55
403.55	365.12
403.74	386.19
403.93	376.83
404.13	468.11
404.32	365.12
404.51	444.70
404.70	383.85
404.89	425.98
405.09	388.53
405.28	447.04
405.47	447.04
405.66	421.30
405.85	416.62
406.05	395.55
406.24	397.89
406.43	362.78
406.62	355.76
406.81	360.44
407.00	444.70
407.20	435.34
407.39	395.55
407.58	397.89
407.77	407.25
407.96	395.55
408.15	404.91
408.34	447.04
408.54	449.38
408.73	393.21
408.92	390.87
409.11	411.93
409.30	409.59
409.49	437.68
409.68	468.11
409.87	348.74
410.07	381.51
410.26	397.89
410.45	337.04
410.64	402.57
410.83	393.21
411.02	332.36
411.21	491.51
411.40	428.32
411.59	444.70
411.78	421.30
411.98	407.25
412.17	416.62
412.36	451.72
412.55	339.38
412.74	416.62
412.93	472.79
413.12	507.90
413.31	447.04
413.50	400.23
413.69	379.17
413.88	407.25
414.07	411.93
414.26	397.89
414.45	397.89
414.64	388.53
414.83	404.91
415.02	388.53
415.22	447.04
415.41	416.62
415.60	332.36
415.79	388.53
415.98	423.64
416.17	383.85
416.36	428.32
416.55	414.27
416.74	388.53
416.93	369.80
417.12	381.51
417.31	470.45
417.50	369.80
417.69	472.79
417.88	440.02
418.07	433.00
418.26	423.64
418.45	337.04
418.64	425.98
418.83	388.53
419.02	365.12
419.21	425.98
419.39	404.91
419.58	409.59
419.77	393.21
419.96	360.44
420.15	451.72
420.34	395.55
420.53	393.21
420.72	407.25
420.91	456.40
421.10	404.91
421.29	407.25
421.48	390.87
421.67	423.64
421.86	348.74
422.05	400.23
422.24	353.42
422.43	435.34
422.61	374.49
422.80	395.55
422.99	451.72
423.18	442.36
423.37	437.68
423.56	367.46
423.75	418.96
423.94	390.87
424.13	425.98
424.32	437.68
424.50	430.66
424.69	344.06
424.88	463.43
425.07	486.83
425.26	444.70
425.45	454.06
425.64	437.68
425.83	379.17
426.01	390.87
426.20	458.74
426.39	355.76
426.58	416.62
426.77	400.23
426.96	437.68
427.15	414.27
427.33	372.15
427.52	470.45
427.71	397.89
427.90	376.83
428.09	386.19
428.28	489.17
428.46	430.66
428.65	425.98
428.84	400.23
429.03	440.02
429.22	411.93
429.40	454.06
429.59	407.25
429.78	414.27
429.97	423.64
430.16	416.62
430.34	311.29
430.53	365.12
430.72	454.06
430.91	395.55
431.10	395.55
431.28	475.13
431.47	351.08
431.66	416.62
431.85	367.46
432.03	456.40
432.22	428.32
432.41	407.25
432.60	388.53
432.79	388.53
432.97	433.00
433.16	440.02
433.35	411.93
433.54	355.76
433.72	416.62
433.91	400.23
434.10	430.66
434.28	463.43
434.47	390.87
434.66	411.93
434.85	437.68
435.03	372.15
435.22	416.62
435.41	433.00
435.59	390.87
435.78	376.83
435.97	334.70
436.16	423.64
436.34	360.44
436.53	437.68
436.72	430.66
436.90	472.79
437.09	498.53
437.28	407.25
437.46	344.06
437.65	414.27
437.84	444.70
438.02	367.46
438.21	421.30
438.40	381.51
438.58	465.77
438.77	496.19
438.96	381.51
439.14	456.40
439.33	444.70
439.52	383.85
439.70	367.46
439.89	339.38
440.08	454.06
440.26	376.83
440.45	402.57
440.63	451.72
440.82	425.98
441.01	425.98
441.19	381.51
441.38	416.62
441.57	390.87
441.75	447.04
441.94	372.15
442.12	482.15
442.31	374.49
442.50	365.12
442.68	430.66
442.87	393.21
443.05	390.87
443.24	400.23
443.43	430.66
443.61	491.51
443.80	463.43
443.98	355.76
444.17	468.11
444.35	376.83
444.54	440.02
444.73	454.06
444.91	451.72
445.10	390.87
445.28	416.62
445.47	428.32
445.65	404.91
445.84	418.96
446.02	423.64
446.21	365.12
446.39	400.23
446.58	409.59
446.77	430.66
446.95	414.27
447.14	386.19
447.32	423.64
447.51	451.72
447.69	435.34
447.88	465.77
448.06	465.77
448.25	362.78
448.43	379.17
448.62	404.91
448.80	489.17
448.99	489.17
449.17	491.51
449.36	442.36
449.54	486.83
449.73	411.93
449.91	512.58
450.10	346.40
450.28	444.70
450.46	517.26
450.65	393.21
450.83	423.64
451.02	409.59
451.20	493.85
451.39	421.30
451.57	409.59
451.76	346.40
451.94	407.25
452.13	442.36
452.31	388.53
452.49	440.02
452.68	440.02
452.86	433.00
453.05	477.47
453.23	454.06
453.42	386.19
453.60	395.55
453.78	428.32
453.97	379.17
454.15	414.27
454.34	451.72
454.52	388.53
454.70	454.06
454.89	383.85
455.07	334.70
455.26	428.32
455.44	430.66
455.62	346.40
455.81	425.98
455.99	404.91
456.17	472.79
456.36	440.02
456.54	404.91
456.73	425.98
456.91	351.08
457.09	402.57
457.28	435.34
457.46	351.08
457.64	437.68
457.83	444.70
458.01	489.17
458.19	517.26
458.38	390.87
458.56	463.43
458.74	388.53
458.93	407.25
459.11	393.21
459.29	358.10
459.48	400.23
459.66	435.34
459.84	456.40
460.03	465.77
460.21	409.59
460.39	409.59
460.57	451.72
460.76	425.98
460.94	414.27
461.12	454.06
461.31	472.79
461.49	416.62
461.67	407.25
461.85	397.89
462.04	458.74
462.22	772.38
462.40	409.59
462.59	367.46
462.77	449.38
462.95	463.43
463.13	397.89
463.32	430.66
463.50	383.85
463.68	376.83
463.86	437.68
464.05	367.46
464.23	482.15
464.41	442.36
464.59	397.89
464.78	358.10
464.96	430.66
465.14	461.09
465.32	440.02
465.50	374.49
465.69	458.74
465.87	334.70
466.05	440.02
466.23	433.00
466.41	395.55
466.60	479.81
466.78	376.83
466.96	444.70
467.14	395.55
467.32	393.21
467.51	395.55
467.69	428.32
467.87	423.64
468.05	423.64
468.23	491.51
468.41	390.87
468.60	381.51
468.78	400.23
468.96	456.40
469.14	411.93
469.32	435.34
469.50	423.64
469.69	411.93
469.87	404.91
470.05	491.51
470.23	407.25
470.41	362.78
470.59	416.62
470.77	451.72
470.95	475.13
471.14	437.68
471.32	390.87
471.50	465.77
471.68	465.77
471.86	437.68
472.04	388.53
472.22	472.79
472.40	425.98
472.58	409.59
472.77	402.57
472.95	444.70
473.13	425.98
473.31	465.77
473.49	400.23
473.67	423.64
473.85	402.57
474.03	411.93
474.21	433.00
474.39	461.09
474.57	388.53
474.75	440.02
474.93	379.17
475.12	383.85
475.30	397.89
475.48	411.93
475.66	386.19
475.84	383.85
476.02	376.83
476.20	411.93
476.38	376.83
476.56	454.06
476.74	372.15
476.92	348.74
477.10	416.62
477.28	465.77
477.46	376.83
477.64	428.32
477.82	344.06
478.00	337.04
478.18	477.47
478.36	468.11
478.54	322.99
478.72	372.15
478.90	430.66
479.08	360.44
479.26	381.51
479.44	425.98
479.62	414.27
479.80	362.78
479.98	442.36
480.16	425.98
480.34	400.23
480.52	402.57
480.70	433.00
480.88	409.59
481.06	372.15
481.24	442.36
481.41	435.34
481.59	386.19
481.77	411.93
481.95	367.46
482.13	484.49
482.31	449.38
482.49	372.15
482.67	383.85
482.85	409.59
483.03	421.30
483.21	409.59
483.39	461.09
483.57	444.70
483.74	423.64
483.92	365.12
484.10	386.19
484.28	404.91
484.46	395.55
484.64	418.96
484.82	468.11
485.00	351.08
485.18	390.87
485.35	430.66
485.53	381.51
485.71	409.59
485.89	381.51
486.07	414.27
486.25	430.66
486.43	369.80
486.61	393.21
486.78	447.04
486.96	418.96
487.14	372.15
487.32	409.59
487.50	421.30
487.68	404.91
487.85	379.17
488.03	411.93
488.21	423.64
488.39	458.74
488.57	425.98
488.75	409.59
488.92	451.72
489.10	397.89
489.28	461.09
489.46	421.30
489.64	435.34
489.81	381.51
489.99	386.19
490.17	351.08
490.35	428.32
490.53	421.30
490.70	369.80
490.88	440.02
491.06	386.19
491.24	477.47
491.41	423.64
491.59	442.36
491.77	421.30
491.95	407.25
492.13	442.36
492.30	397.89
492.48	365.12
492.66	416.62
492.84	470.45
493.01	468.11
493.19	435.34
493.37	440.02
493.54	461.09
493.72	383.85
493.90	353.42
494.08	358.10
494.25	390.87
494.43	393.21
494.61	395.55
494.79	334.70
494.96	395.55
495.14	435.34
495.32	332.36
495.49	397.89
495.67	430.66
495.85	407.25
496.02	369.80
496.20	407.25
496.38	421.30
496.55	479.81
496.73	421.30
496.91	449.38
497.09	402.57
497.26	369.80
497.44	435.34
497.62	388.53
497.79	346.40
497.97	358.10
498.14	369.80
498.32	386.19
498.50	409.59
498.67	386.19
498.85	430.66
499.03	484.49
499.20	447.04
499.38	486.83
499.56	416.62
499.73	470.45
499.91	484.49
500.08	468.11
500.26	493.85
500.44	423.64
500.61	369.80
500.79	332.36
500.97	423.64
501.14	470.45
501.32	451.72
501.49	440.02
501.67	327.68
501.84	395.55
502.02	416.62
502.20	468.11
502.37	454.06
502.55	395.55
502.72	383.85
502.90	430.66
503.07	465.77
503.25	425.98
503.43	430.66
503.60	407.25
503.78	414.27
503.95	404.91
504.13	440.02
504.30	458.74
504.48	442.36
504.65	411.93
504.83	430.66
505.01	456.40
505.18	479.81
505.36	444.70
505.53	444.70
505.71	388.53
505.88	435.34
506.06	447.04
506.23	414.27
506.41	409.59
506.58	374.49
506.76	461.09
506.93	407.25
507.11	437.68
507.28	383.85
507.46	472.79
507.63	404.91
507.81	449.38
507.98	379.17
508.16	400.23
508.33	404.91
508.50	407.25
508.68	475.13
508.85	470.45
509.03	435.34
509.20	461.09
509.38	430.66
509.55	421.30
509.73	355.76
509.90	416.62
510.08	433.00
510.25	418.96
510.42	400.23
510.60	383.85
510.77	348.74
510.95	435.34
511.12	409.59
511.30	418.96
511.47	407.25
511.64	407.25
511.82	416.62
511.99	346.40
512.17	383.85
512.34	416.62
512.51	470.45
512.69	449.38
512.86	449.38
513.04	477.47
513.21	411.93
513.38	407.25
513.56	374.49
513.73	388.53
513.90	407.25
514.08	447.04
514.25	486.83
514.43	423.64
514.60	503.22
514.77	444.70
514.95	454.06
515.12	484.49
515.29	414.27
515.47	400.23
515.64	475.13
515.81	397.89
515.99	428.32
516.16	390.87
516.33	376.83
516.51	505.56
516.68	353.42
516.85	418.96
517.03	372.15
517.20	475.13
517.37	437.68
517.54	463.43
517.72	433.00
517.89	407.25
518.06	444.70
518.24	425.98
518.41	428.32
518.58	390.87
518.75	409.59
518.93	397.89
519.10	428.32
519.27	407.25
519.45	425.98
519.62	470.45
519.79	447.04
519.96	428.32
520.14	411.93
520.31	414.27
520.48	423.64
520.65	404.91
520.83	400.23
521.00	440.02
521.17	437.68
521.34	454.06
521.52	447.04
521.69	402.57
521.86	397.89
522.03	444.70
522.20	458.74
522.38	397.89
522.55	404.91
522.72	383.85
522.89	418.96
523.07	430.66
523.24	362.78
523.41	430.66
523.58	376.83
523.75	442.36
523.92	388.53
524.10	348.74
524.27	407.25
524.44	383.85
524.61	444.70
524.78	414.27
524.96	428.32
525.13	390.87
525.30	456.40
525.47	442.36
525.64	435.34
525.81	463.43
525.98	454.06
526.16	390.87
526.33	461.09
526.50	365.12
526.67	437.68
526.84	418.96
527.01	475.13
527.18	418.96
527.36	416.62
527.53	465.77
527.70	386.19
527.87	430.66
528.04	381.51
528.21	437.68
528.38	409.59
528.55	512.58
528.72	395.55
528.89	416.62
529.07	355.76
529.24	367.46
529.41	440.02
529.58	477.47
529.75	376.83
529.92	461.09
530.09	393.21
530.26	451.72
530.43	400.23
530.60	442.36
530.77	402.57
530.94	409.59
531.11	411.93
531.28	400.23
531.46	416.62
531.63	423.64
531.80	402.57
531.97	454.06
532.14	416.62
532.31	379.17
532.48	386.19
532.65	458.74
532.82	423.64
532.99	433.00
533.16	440.02
533.33	470.45
533.50	461.09
533.67	374.49
533.84	365.12
534.01	360.44
534.18	418.96
534.35	496.19
534.52	468.11
534.69	468.11
534.86	376.83
535.03	395.55
535.20	472.79
535.37	411.93
535.54	404.91
535.71	388.53
535.88	433.00
536.05	397.89
536.22	369.80
536.38	468.11
536.55	470.45
536.72	428.32
536.89	421.30
537.06	402.57
537.23	411.93
537.40	475.13
537.57	404.91
537.74	465.77
537.91	395.55
538.08	425.98
538.25	386.19
538.42	390.87
538.59	456.40
538.75	468.11
538.92	421.30
539.09	393.21
539.26	435.34
539.43	402.57
539.60	423.64
539.77	423.64
539.94	421.30
540.11	440.02
540.28	425.98
540.44	461.09
540.61	404.91
540.78	470.45
540.95	332.36
541.12	428.32
541.29	414.27
541.46	414.27
541.62	418.96
541.79	381.51
541.96	395.55
542.13	409.59
542.30	381.51
542.47	383.85
542.63	423.64
542.80	451.72
542.97	470.45
543.14	383.85
543.31	404.91
543.48	449.38
543.64	449.38
543.81	463.43
543.98	416.62
544.15	341.72
544.32	411.93
544.48	435.34
544.65	397.89
544.82	358.10
544.99	383.85
545.16	379.17
545.32	461.09
545.49	369.80
545.66	416.62
545.83	379.17
546.00	351.08
546.16	383.85
546.33	407.25
546.50	322.99
546.67	444.70
546.83	449.38
547.00	421.30
547.17	444.70
547.34	393.21
547.50	440.02
547.67	472.79
547.84	440.02
548.00	442.36
548.17	421.30
548.34	461.09
548.51	489.17
548.67	440.02
548.84	451.72
549.01	465.77
549.18	423.64
549.34	461.09
549.51	449.38
549.68	475.13
549.84	381.51
550.01	407.25
550.18	416.62
550.34	451.72
550.51	404.91
550.68	468.11
550.84	407.25
551.01	440.02
551.18	468.11
551.34	414.27
551.51	479.81
551.68	402.57
551.84	440.02
552.01	447.04
552.18	397.89
552.34	442.36
552.51	376.83
552.68	477.47
552.84	425.98
553.01	477.47
553.18	400.23
553.34	418.96
553.51	390.87
553.67	435.34
553.84	484.49
554.01	440.02
554.17	451.72
554.34	390.87
554.51	397.89
554.67	421.30
554.84	402.57
555.00	440.02
555.17	367.46
555.33	472.79
555.50	425.98
555.67	411.93
555.83	418.96
556.00	411.93
556.16	489.17
556.33	456.40
556.50	346.40
556.66	386.19
556.83	369.80
556.99	346.40
557.16	428.32
557.32	444.70
557.49	383.85
557.65	407.25
557.82	365.12
557.98	430.66
558.15	421.30
558.32	451.72
558.48	461.09
558.65	456.40
558.81	428.32
558.98	451.72
559.14	369.80
559.31	430.66
559.47	423.64
559.64	463.43
559.80	456.40
559.97	365.12
560.13	411.93
560.30	425.98
560.46	360.44
560.63	404.91
560.79	435.34
560.96	383.85
561.12	454.06
561.29	425.98
561.45	416.62
561.61	383.85
561.78	472.79
561.94	454.06
562.11	444.70
562.27	339.38
562.44	346.40
562.60	517.26
562.77	433.00
562.93	498.53
563.10	430.66
563.26	449.38
563.42	437.68
563.59	449.38
563.75	433.00
563.92	454.06
564.08	409.59
564.24	493.85
564.41	535.98
564.57	437.68
564.74	390.87
564.90	435.34
565.07	442.36
565.23	421.30
565.39	458.74
565.56	416.62
565.72	404.91
565.88	423.64
566.05	388.53
566.21	358.10
566.38	430.66
566.54	454.06
566.70	437.68
566.87	433.00
567.03	390.87
567.19	449.38
567.36	404.91
567.52	454.06
567.68	404.91
567.85	409.59
568.01	430.66
568.17	414.27
568.34	404.91
568.50	418.96
568.66	337.04
568.83	500.87
568.99	362.78
569.15	435.34
569.32	409.59
569.48	458.74
569.64	428.32
569.81	461.09
569.97	416.62
570.13	393.21
570.30	465.77
570.46	418.96
570.62	365.12
570.78	404.91
570.95	383.85
571.11	402.57
571.27	447.04
571.43	423.64
571.60	435.34
571.76	433.00
571.92	383.85
572.09	428.32
572.25	468.11
572.41	468.11
572.57	393.21
572.74	437.68
572.90	411.93
573.06	402.57
573.22	393.21
573.38	414.27
573.55	468.11
573.71	353.42
573.87	386.19
574.03	472.79
574.20	386.19
574.36	470.45
574.52	425.98
574.68	400.23
574.84	411.93
575.01	440.02
575.17	533.64
575.33	353.42
575.49	435.34
575.65	493.85
575.82	421.30
575.98	379.17
576.14	440.02
576.30	447.04
576.46	440.02
576.62	465.77
576.79	456.40
576.95	411.93
577.11	482.15
577.27	372.15
577.43	458.74
577.59	425.98
577.75	388.53
577.92	388.53
578.08	376.83
578.24	423.64
578.40	433.00
578.56	423.64
578.72	388.53
578.88	451.72
579.04	386.19
579.21	393.21
579.37	433.00
579.53	409.59
579.69	402.57
579.85	521.94
580.01	442.36
580.17	482.15
580.33	400.23
580.49	395.55
580.65	416.62
580.82	444.70
580.98	428.32
581.14	367.46
581.30	447.04
581.46	442.36
581.62	475.13
581.78	404.91
581.94	404.91
582.10	400.23
582.26	407.25
582.42	425.98
582.58	430.66
582.74	435.34
582.90	463.43
583.06	369.80
583.22	465.77
583.38	390.87
583.54	440.02
583.70	435.34
583.86	470.45
584.02	456.40
584.18	456.40
584.34	423.64
584.50	416.62
584.66	449.38
584.82	423.64
584.98	402.57
585.14	353.42
585.30	433.00
585.46	449.38
585.62	390.87
585.78	458.74
585.94	367.46
586.10	430.66
586.26	433.00
586.42	451.72
586.58	362.78
586.74	383.85
586.90	456.40
587.06	428.32
587.22	461.09
587.38	402.57
587.54	353.42
587.70	472.79
587.86	463.43
588.02	390.87
588.18	428.32
588.34	500.87
588.49	393.21
588.65	416.62
588.81	407.25
588.97	416.62
589.13	383.85
589.29	397.89
589.45	372.15
589.61	437.68
589.77	430.66
589.93	360.44
590.08	463.43
590.24	320.65
590.40	418.96
590.56	465.77
590.72	437.68
590.88	327.68
591.04	437.68
591.20	430.66
591.35	498.53
591.51	411.93
591.67	383.85
591.83	423.64
591.99	454.06
592.15	416.62
592.31	440.02
592.46	397.89
592.62	505.56
592.78	435.34
592.94	346.40
593.10	430.66
593.26	409.59
593.41	414.27
593.57	477.47
593.73	454.06
593.89	411.93
594.05	374.49
594.20	414.27
594.36	479.81
594.52	447.04
594.68	423.64
594.84	524.28
594.99	428.32
595.15	367.46
595.31	386.19
595.47	482.15
595.62	454.06
595.78	440.02
595.94	376.83
596.10	320.65
596.25	437.68
596.41	409.59
596.57	425.98
596.73	472.79
596.88	472.79
597.04	425.98
597.20	374.49
597.36	395.55
597.51	437.68
597.67	440.02
597.83	409.59
597.99	383.85
598.14	418.96
598.30	388.53
598.46	421.30
598.61	435.34
598.77	442.36
598.93	416.62
599.09	472.79
599.24	397.89
599.40	449.38
599.56	390.87
599.71	379.17
599.87	418.96
600.03	456.40
600.18	444.70
600.34	433.00
600.50	435.34
600.65	402.57
600.81	475.13
600.97	418.96
601.12	351.08
601.28	472.79
601.44	435.34
601.59	360.44
601.75	383.85
601.91	458.74
602.06	442.36
602.22	517.26
602.37	456.40
602.53	407.25
602.69	397.89
602.84	484.49
603.00	409.59
603.16	437.68
603.31	416.62
603.47	397.89
603.62	409.59
603.78	414.27
603.94	416.62
604.09	409.59
604.25	421.30
604.40	369.80
604.56	400.23
604.71	327.68
604.87	397.89
605.03	428.32
605.18	407.25
605.34	430.66
605.49	444.70
605.65	379.17
605.80	334.70
605.96	435.34
606.12	409.59
606.27	421.30
606.43	369.80
606.58	456.40
606.74	500.87
606.89	348.74
607.05	404.91
607.20	435.34
607.36	397.89
607.51	383.85
607.67	425.98
607.82	433.00
607.98	423.64
608.13	454.06
608.29	372.15
608.44	425.98
608.60	409.59
608.75	454.06
608.91	409.59
609.06	423.64
609.22	334.70
609.37	414.27
609.53	367.46
609.68	372.15
609.84	433.00
609.99	397.89
610.15	435.34
