SpectraSuite Data File
++++++++++++++++++++++++++++++++++++
Date: Fri Oct 25 12:11:22 EDT 2013
User: price-jones
Dark Spectrum Present: No
Reference Spectrum Present: No
Number of Sampled Component Spectra: 1
Spectrometers: USB2+H05261
Integration Time (usec): 100000 (USB2+H05261)
Spectra Averaged: 1 (USB2+H05261)
Boxcar Smoothing: 0 (USB2+H05261)
Correct for Electrical Dark: No (USB2+H05261)
Strobe/Lamp Enabled: No (USB2+H05261)
Correct for Detector Non-linearity: No (USB2+H05261)
Correct for Stray Light: No (USB2+H05261)
Number of Pixels in Processed Spectrum: 2048
>>>>>Begin Processed Spectral Data<<<<<
365.73	341.72
365.92	341.72
366.12	341.72
366.32	259.80
366.52	243.42
366.72	241.08
366.91	159.16
367.11	273.84
367.31	259.80
367.51	304.27
367.70	224.69
367.90	173.20
368.10	217.67
368.30	234.05
368.49	212.99
368.69	283.20
368.89	294.91
369.09	259.80
369.28	299.59
369.48	248.10
369.68	308.95
369.87	280.86
370.07	269.16
370.27	372.15
370.47	386.19
370.66	332.36
370.86	346.40
371.06	383.85
371.25	397.89
371.45	339.38
371.65	369.80
371.84	367.46
372.04	308.95
372.24	440.02
372.44	376.83
372.63	421.30
372.83	395.55
373.03	379.17
373.22	330.02
373.42	411.93
373.62	379.17
373.81	395.55
374.01	521.94
374.21	498.53
374.40	449.38
374.60	475.13
374.79	442.36
374.99	456.40
375.19	463.43
375.38	430.66
375.58	393.21
375.78	454.06
375.97	388.53
376.17	433.00
376.37	404.91
376.56	442.36
376.76	358.10
376.95	383.85
377.15	423.64
377.35	383.85
377.54	458.74
377.74	390.87
377.93	351.08
378.13	400.23
378.33	428.32
378.52	444.70
378.72	397.89
378.91	369.80
379.11	409.59
379.31	341.72
379.50	365.12
379.70	423.64
379.89	397.89
380.09	374.49
380.28	320.65
380.48	421.30
380.68	362.78
380.87	397.89
381.07	454.06
381.26	440.02
381.46	369.80
381.65	411.93
381.85	440.02
382.04	440.02
382.24	397.89
382.43	346.40
382.63	353.42
382.83	362.78
383.02	362.78
383.22	477.47
383.41	376.83
383.61	330.02
383.80	425.98
384.00	430.66
384.19	423.64
384.39	444.70
384.58	355.76
384.78	400.23
384.97	433.00
385.17	451.72
385.36	372.15
385.56	477.47
385.75	402.57
385.95	447.04
386.14	468.11
386.34	411.93
386.53	463.43
386.72	381.51
386.92	400.23
387.11	393.21
387.31	418.96
387.50	407.25
387.70	390.87
387.89	416.62
388.09	390.87
388.28	416.62
388.48	369.80
388.67	374.49
388.86	430.66
389.06	416.62
389.25	451.72
389.45	416.62
389.64	447.04
389.84	423.64
390.03	383.85
390.22	411.93
390.42	388.53
390.61	402.57
390.81	320.65
391.00	423.64
391.19	397.89
391.39	418.96
391.58	437.68
391.78	402.57
391.97	400.23
392.16	451.72
392.36	472.79
392.55	461.09
392.75	489.17
392.94	423.64
393.13	407.25
393.33	339.38
393.52	367.46
393.71	416.62
393.91	390.87
394.10	355.76
394.29	297.25
394.49	367.46
394.68	463.43
394.88	351.08
395.07	451.72
395.26	379.17
395.46	374.49
395.65	428.32
395.84	440.02
396.04	433.00
396.23	393.21
396.42	444.70
396.62	458.74
396.81	400.23
397.00	351.08
397.19	477.47
397.39	430.66
397.58	381.51
397.77	421.30
397.97	451.72
398.16	433.00
398.35	451.72
398.55	362.78
398.74	383.85
398.93	470.45
399.12	442.36
399.32	407.25
399.51	397.89
399.70	402.57
399.90	437.68
400.09	348.74
400.28	374.49
400.47	372.15
400.67	383.85
400.86	425.98
401.05	425.98
401.24	414.27
401.44	425.98
401.63	360.44
401.82	390.87
402.01	411.93
402.21	390.87
402.40	479.81
402.59	414.27
402.78	430.66
402.97	386.19
403.17	374.49
403.36	332.36
403.55	428.32
403.74	388.53
403.93	428.32
404.13	418.96
404.32	386.19
404.51	402.57
404.70	358.10
404.89	369.80
405.09	395.55
405.28	407.25
405.47	358.10
405.66	397.89
405.85	390.87
406.05	437.68
406.24	440.02
406.43	393.21
406.62	433.00
406.81	475.13
407.00	435.34
407.20	390.87
407.39	472.79
407.58	418.96
407.77	327.68
407.96	369.80
408.15	421.30
408.34	404.91
408.54	470.45
408.73	491.51
408.92	393.21
409.11	386.19
409.30	411.93
409.49	461.09
409.68	372.15
409.87	365.12
410.07	437.68
410.26	386.19
410.45	407.25
410.64	430.66
410.83	404.91
411.02	374.49
411.21	423.64
411.40	447.04
411.59	428.32
411.78	430.66
411.98	414.27
412.17	447.04
412.36	437.68
412.55	395.55
412.74	388.53
412.93	421.30
413.12	337.04
413.31	468.11
413.50	461.09
413.69	322.99
413.88	360.44
414.07	390.87
414.26	369.80
414.45	430.66
414.64	423.64
414.83	425.98
415.02	451.72
415.22	409.59
415.41	428.32
415.60	411.93
415.79	390.87
415.98	449.38
416.17	411.93
416.36	423.64
416.55	400.23
416.74	442.36
416.93	418.96
417.12	402.57
417.31	386.19
417.50	341.72
417.69	400.23
417.88	388.53
418.07	374.49
418.26	425.98
418.45	456.40
418.64	510.24
418.83	458.74
419.02	437.68
419.21	367.46
419.39	437.68
419.58	430.66
419.77	374.49
419.96	425.98
420.15	444.70
420.34	411.93
420.53	449.38
420.72	421.30
420.91	416.62
421.10	393.21
421.29	341.72
421.48	388.53
421.67	430.66
421.86	395.55
422.05	484.49
422.24	458.74
422.43	320.65
422.61	367.46
422.80	456.40
422.99	433.00
423.18	430.66
423.37	454.06
423.56	372.15
423.75	411.93
423.94	407.25
424.13	379.17
424.32	383.85
424.50	418.96
424.69	404.91
424.88	430.66
425.07	402.57
425.26	390.87
425.45	463.43
425.64	496.19
425.83	458.74
426.01	418.96
426.20	428.32
426.39	360.44
426.58	416.62
426.77	428.32
426.96	421.30
427.15	444.70
427.33	402.57
427.52	355.76
427.71	414.27
427.90	418.96
428.09	425.98
428.28	383.85
428.46	372.15
428.65	442.36
428.84	470.45
429.03	428.32
429.22	379.17
429.40	416.62
429.59	358.10
429.78	414.27
429.97	442.36
430.16	393.21
430.34	393.21
430.53	454.06
430.72	430.66
430.91	442.36
431.10	346.40
431.28	428.32
431.47	362.78
431.66	381.51
431.85	355.76
432.03	416.62
432.22	376.83
432.41	409.59
432.60	409.59
432.79	393.21
432.97	454.06
433.16	418.96
433.35	454.06
433.54	449.38
433.72	362.78
433.91	327.68
434.10	461.09
434.28	404.91
434.47	411.93
434.66	430.66
434.85	409.59
435.03	428.32
435.22	425.98
435.41	470.45
435.59	444.70
435.78	428.32
435.97	411.93
436.16	423.64
436.34	418.96
436.53	505.56
436.72	430.66
436.90	423.64
437.09	423.64
437.28	369.80
437.46	315.97
437.65	463.43
437.84	423.64
438.02	435.34
438.21	437.68
438.40	482.15
438.58	397.89
438.77	418.96
438.96	414.27
439.14	475.13
439.33	397.89
439.52	386.19
439.70	404.91
439.89	470.45
440.08	402.57
440.26	390.87
440.45	428.32
440.63	383.85
440.82	458.74
441.01	390.87
441.19	348.74
441.38	404.91
441.57	383.85
441.75	348.74
441.94	390.87
442.12	418.96
442.31	367.46
442.50	355.76
442.68	423.64
442.87	449.38
443.05	437.68
443.24	390.87
443.43	416.62
443.61	433.00
443.80	463.43
443.98	386.19
444.17	472.79
444.35	491.51
444.54	397.89
444.73	435.34
444.91	465.77
445.10	407.25
445.28	404.91
445.47	428.32
445.65	454.06
445.84	447.04
446.02	397.89
446.21	351.08
446.39	397.89
446.58	353.42
446.77	477.47
446.95	425.98
447.14	440.02
447.32	442.36
447.51	521.94
447.69	430.66
447.88	442.36
448.06	369.80
448.25	414.27
448.43	404.91
448.62	376.83
448.80	416.62
448.99	430.66
449.17	407.25
449.36	304.27
449.54	482.15
449.73	393.21
449.91	428.32
450.10	447.04
450.28	484.49
450.46	486.83
450.65	470.45
450.83	475.13
451.02	468.11
451.20	423.64
451.39	383.85
451.57	463.43
451.76	418.96
451.94	479.81
452.13	461.09
452.31	489.17
452.49	461.09
452.68	400.23
452.86	437.68
453.05	463.43
453.23	458.74
453.42	369.80
453.60	451.72
453.78	430.66
453.97	416.62
454.15	383.85
454.34	365.12
454.52	416.62
454.70	447.04
454.89	451.72
455.07	456.40
455.26	411.93
455.44	496.19
455.62	381.51
455.81	381.51
455.99	362.78
456.17	433.00
456.36	407.25
456.54	414.27
456.73	440.02
456.91	362.78
457.09	454.06
457.28	374.49
457.46	376.83
457.64	498.53
457.83	461.09
458.01	395.55
458.19	346.40
458.38	519.60
458.56	484.49
458.74	365.12
458.93	383.85
459.11	437.68
459.29	400.23
459.48	463.43
459.66	397.89
459.84	365.12
460.03	447.04
460.21	454.06
460.39	440.02
460.57	486.83
460.76	440.02
460.94	390.87
461.12	428.32
461.31	433.00
461.49	442.36
461.67	442.36
461.85	414.27
462.04	397.89
462.22	725.57
462.40	376.83
462.59	486.83
462.77	440.02
462.95	374.49
463.13	390.87
463.32	458.74
463.50	414.27
463.68	491.51
463.86	400.23
464.05	390.87
464.23	442.36
464.41	400.23
464.59	404.91
464.78	468.11
464.96	447.04
465.14	416.62
465.32	433.00
465.50	400.23
465.69	416.62
465.87	360.44
466.05	400.23
466.23	383.85
466.41	327.68
466.60	437.68
466.78	376.83
466.96	337.04
467.14	416.62
467.32	428.32
467.51	402.57
467.69	461.09
467.87	456.40
468.05	381.51
468.23	440.02
468.41	433.00
468.60	393.21
468.78	454.06
468.96	428.32
469.14	409.59
469.32	463.43
469.50	404.91
469.69	456.40
469.87	388.53
470.05	514.92
470.23	470.45
470.41	414.27
470.59	369.80
470.77	465.77
470.95	390.87
471.14	458.74
471.32	461.09
471.50	402.57
471.68	376.83
471.86	470.45
472.04	433.00
472.22	477.47
472.40	397.89
472.58	376.83
472.77	376.83
472.95	456.40
473.13	395.55
473.31	435.34
473.49	386.19
473.67	421.30
473.85	428.32
474.03	383.85
474.21	395.55
474.39	447.04
474.57	449.38
474.75	414.27
474.93	407.25
475.12	400.23
475.30	393.21
475.48	365.12
475.66	395.55
475.84	358.10
476.02	376.83
476.20	402.57
476.38	409.59
476.56	407.25
476.74	330.02
476.92	404.91
477.10	416.62
477.28	484.49
477.46	435.34
477.64	479.81
477.82	397.89
478.00	456.40
478.18	379.17
478.36	437.68
478.54	386.19
478.72	393.21
478.90	397.89
479.08	416.62
479.26	395.55
479.44	435.34
479.62	407.25
479.80	362.78
479.98	430.66
480.16	421.30
480.34	435.34
480.52	330.02
480.70	442.36
480.88	449.38
481.06	425.98
481.24	397.89
481.41	425.98
481.59	425.98
481.77	327.68
481.95	421.30
482.13	444.70
482.31	407.25
482.49	416.62
482.67	402.57
482.85	433.00
483.03	423.64
483.21	360.44
483.39	503.22
483.57	365.12
483.74	376.83
483.92	482.15
484.10	334.70
484.28	402.57
484.46	435.34
484.64	400.23
484.82	393.21
485.00	386.19
485.18	390.87
485.35	407.25
485.53	404.91
485.71	376.83
485.89	383.85
486.07	435.34
486.25	414.27
486.43	407.25
486.61	472.79
486.78	425.98
486.96	404.91
487.14	454.06
487.32	402.57
487.50	444.70
487.68	395.55
487.85	425.98
488.03	393.21
488.21	461.09
488.39	362.78
488.57	411.93
488.75	351.08
488.92	543.00
489.10	404.91
489.28	407.25
489.46	355.76
489.64	341.72
489.81	344.06
489.99	411.93
490.17	372.15
490.35	393.21
490.53	414.27
490.70	411.93
490.88	416.62
491.06	404.91
491.24	449.38
491.41	400.23
491.59	454.06
491.77	421.30
491.95	404.91
492.13	397.89
492.30	348.74
492.48	348.74
492.66	404.91
492.84	397.89
493.01	444.70
493.19	397.89
493.37	461.09
493.54	414.27
493.72	388.53
493.90	437.68
494.08	362.78
494.25	404.91
494.43	484.49
494.61	442.36
494.79	423.64
494.96	332.36
495.14	362.78
495.32	386.19
495.49	423.64
495.67	395.55
495.85	414.27
496.02	360.44
496.20	404.91
496.38	461.09
496.55	397.89
496.73	456.40
496.91	451.72
497.09	416.62
497.26	423.64
497.44	397.89
497.62	444.70
497.79	435.34
497.97	372.15
498.14	416.62
498.32	531.30
498.50	435.34
498.67	418.96
498.85	423.64
499.03	461.09
499.20	409.59
499.38	416.62
499.56	425.98
499.73	484.49
499.91	390.87
500.08	454.06
500.26	358.10
500.44	402.57
500.61	372.15
500.79	409.59
500.97	402.57
501.14	491.51
501.32	404.91
501.49	397.89
501.67	301.93
501.84	437.68
502.02	496.19
502.20	472.79
502.37	447.04
502.55	463.43
502.72	404.91
502.90	477.47
503.07	402.57
503.25	404.91
503.43	388.53
503.60	411.93
503.78	404.91
503.95	411.93
504.13	423.64
504.30	491.51
504.48	456.40
504.65	456.40
504.83	442.36
505.01	407.25
505.18	449.38
505.36	430.66
505.53	395.55
505.71	418.96
505.88	397.89
506.06	418.96
506.23	379.17
506.41	365.12
506.58	463.43
506.76	407.25
506.93	351.08
507.11	344.06
507.28	458.74
507.46	409.59
507.63	437.68
507.81	512.58
507.98	423.64
508.16	484.49
508.33	381.51
508.50	404.91
508.68	449.38
508.85	440.02
509.03	334.70
509.20	353.42
509.38	383.85
509.55	435.34
509.73	400.23
509.90	484.49
510.08	379.17
510.25	400.23
510.42	418.96
510.60	433.00
510.77	425.98
510.95	435.34
511.12	444.70
511.30	447.04
511.47	409.59
511.64	428.32
511.82	409.59
511.99	418.96
512.17	397.89
512.34	447.04
512.51	437.68
512.69	472.79
512.86	397.89
513.04	402.57
513.21	367.46
513.38	372.15
513.56	388.53
513.73	402.57
513.90	437.68
514.08	376.83
514.25	423.64
514.43	421.30
514.60	337.04
514.77	376.83
514.95	383.85
515.12	425.98
515.29	430.66
515.47	372.15
515.64	414.27
515.81	454.06
515.99	421.30
516.16	456.40
516.33	414.27
516.51	442.36
516.68	418.96
516.85	442.36
517.03	435.34
517.20	407.25
517.37	416.62
517.54	402.57
517.72	449.38
517.89	435.34
518.06	402.57
518.24	486.83
518.41	421.30
518.58	437.68
518.75	355.76
518.93	402.57
519.10	351.08
519.27	388.53
519.45	416.62
519.62	442.36
519.79	486.83
519.96	402.57
520.14	425.98
520.31	468.11
520.48	421.30
520.65	404.91
520.83	449.38
521.00	411.93
521.17	472.79
521.34	430.66
521.52	524.28
521.69	454.06
521.86	388.53
522.03	414.27
522.20	411.93
522.38	433.00
522.55	444.70
522.72	383.85
522.89	393.21
523.07	393.21
523.24	383.85
523.41	425.98
523.58	421.30
523.75	435.34
523.92	414.27
524.10	411.93
524.27	411.93
524.44	416.62
524.61	500.87
524.78	395.55
524.96	365.12
525.13	435.34
525.30	418.96
525.47	433.00
525.64	423.64
525.81	437.68
525.98	400.23
526.16	416.62
526.33	411.93
526.50	414.27
526.67	388.53
526.84	339.38
527.01	388.53
527.18	433.00
527.36	388.53
527.53	409.59
527.70	468.11
527.87	442.36
528.04	416.62
528.21	407.25
528.38	425.98
528.55	372.15
528.72	360.44
528.89	475.13
529.07	395.55
529.24	365.12
529.41	428.32
529.58	407.25
529.75	465.77
529.92	362.78
530.09	404.91
530.26	428.32
530.43	447.04
530.60	435.34
530.77	365.12
530.94	353.42
531.11	447.04
531.28	416.62
531.46	344.06
531.63	353.42
531.80	393.21
531.97	421.30
532.14	416.62
532.31	379.17
532.48	411.93
532.65	451.72
532.82	402.57
532.99	402.57
533.16	388.53
533.33	409.59
533.50	376.83
533.67	449.38
533.84	362.78
534.01	484.49
534.18	409.59
534.35	337.04
534.52	393.21
534.69	395.55
534.86	428.32
535.03	456.40
535.20	369.80
535.37	428.32
535.54	414.27
535.71	440.02
535.88	472.79
536.05	437.68
536.22	430.66
536.38	397.89
536.55	442.36
536.72	503.22
536.89	367.46
537.06	468.11
537.23	393.21
537.40	374.49
537.57	362.78
537.74	500.87
537.91	440.02
538.08	430.66
538.25	388.53
538.42	383.85
538.59	374.49
538.75	407.25
538.92	465.77
539.09	400.23
539.26	379.17
539.43	465.77
539.60	400.23
539.77	402.57
539.94	458.74
540.11	411.93
540.28	505.56
540.44	428.32
540.61	451.72
540.78	458.74
540.95	388.53
541.12	484.49
541.29	468.11
541.46	425.98
541.62	407.25
541.79	402.57
541.96	435.34
542.13	507.90
542.30	379.17
542.47	425.98
542.63	433.00
542.80	451.72
542.97	486.83
543.14	400.23
543.31	489.17
543.48	397.89
543.64	390.87
543.81	458.74
543.98	409.59
544.15	411.93
544.32	393.21
544.48	388.53
544.65	447.04
544.82	444.70
544.99	440.02
545.16	418.96
545.32	360.44
545.49	351.08
545.66	393.21
545.83	444.70
546.00	395.55
546.16	351.08
546.33	440.02
546.50	409.59
546.67	447.04
546.83	447.04
547.00	451.72
547.17	458.74
547.34	339.38
547.50	407.25
547.67	416.62
547.84	348.74
548.00	493.85
548.17	493.85
548.34	404.91
548.51	430.66
548.67	400.23
548.84	458.74
549.01	360.44
549.18	416.62
549.34	433.00
549.51	456.40
549.68	416.62
549.84	458.74
550.01	381.51
550.18	440.02
550.34	449.38
550.51	381.51
550.68	416.62
550.84	344.06
551.01	491.51
551.18	454.06
551.34	442.36
551.51	435.34
551.68	400.23
551.84	451.72
552.01	449.38
552.18	507.90
552.34	444.70
552.51	402.57
552.68	402.57
552.84	461.09
553.01	444.70
553.18	386.19
553.34	451.72
553.51	390.87
553.67	418.96
553.84	440.02
554.01	428.32
554.17	411.93
554.34	383.85
554.51	519.60
554.67	454.06
554.84	425.98
555.00	365.12
555.17	425.98
555.33	447.04
555.50	372.15
555.67	402.57
555.83	411.93
556.00	479.81
556.16	512.58
556.33	517.26
556.50	360.44
556.66	449.38
556.83	365.12
556.99	376.83
557.16	409.59
557.32	449.38
557.49	397.89
557.65	393.21
557.82	393.21
557.98	479.81
558.15	407.25
558.32	397.89
558.48	425.98
558.65	444.70
558.81	414.27
558.98	369.80
559.14	449.38
559.31	484.49
559.47	379.17
559.64	425.98
559.80	461.09
559.97	381.51
560.13	437.68
560.30	454.06
560.46	425.98
560.63	365.12
560.79	442.36
560.96	444.70
561.12	454.06
561.29	409.59
561.45	395.55
561.61	423.64
561.78	454.06
561.94	407.25
562.11	440.02
562.27	442.36
562.44	447.04
562.60	402.57
562.77	428.32
562.93	454.06
563.10	442.36
563.26	404.91
563.42	435.34
563.59	456.40
563.75	437.68
563.92	365.12
564.08	425.98
564.24	388.53
564.41	454.06
564.57	407.25
564.74	423.64
564.90	472.79
565.07	470.45
565.23	454.06
565.39	428.32
565.56	447.04
565.72	386.19
565.88	381.51
566.05	454.06
566.21	447.04
566.38	472.79
566.54	402.57
566.70	447.04
566.87	299.59
567.03	381.51
567.19	355.76
567.36	369.80
567.52	423.64
567.68	451.72
567.85	500.87
568.01	360.44
568.17	381.51
568.34	418.96
568.50	423.64
568.66	451.72
568.83	456.40
568.99	411.93
569.15	421.30
569.32	402.57
569.48	449.38
569.64	423.64
569.81	449.38
569.97	428.32
570.13	414.27
570.30	381.51
570.46	400.23
570.62	440.02
570.78	376.83
570.95	325.33
571.11	449.38
571.27	505.56
571.43	393.21
571.60	489.17
571.76	454.06
571.92	407.25
572.09	444.70
572.25	369.80
572.41	414.27
572.57	390.87
572.74	468.11
572.90	402.57
573.06	437.68
573.22	440.02
573.38	388.53
573.55	440.02
573.71	390.87
573.87	437.68
574.03	381.51
574.20	447.04
574.36	381.51
574.52	407.25
574.68	437.68
574.84	322.99
575.01	447.04
575.17	404.91
575.33	332.36
575.49	465.77
575.65	402.57
575.82	421.30
575.98	470.45
576.14	334.70
576.30	367.46
576.46	414.27
576.62	395.55
576.79	407.25
576.95	444.70
577.11	414.27
577.27	414.27
577.43	425.98
577.59	428.32
577.75	433.00
577.92	395.55
578.08	397.89
578.24	484.49
578.40	449.38
578.56	409.59
578.72	477.47
578.88	430.66
579.04	376.83
579.21	433.00
579.37	334.70
579.53	440.02
579.69	500.87
579.85	435.34
580.01	404.91
580.17	397.89
580.33	421.30
580.49	400.23
580.65	451.72
580.82	430.66
580.98	353.42
581.14	447.04
581.30	447.04
581.46	428.32
581.62	386.19
581.78	390.87
581.94	447.04
582.10	355.76
582.26	365.12
582.42	372.15
582.58	409.59
582.74	379.17
582.90	381.51
583.06	393.21
583.22	463.43
583.38	461.09
583.54	337.04
583.70	475.13
583.86	376.83
584.02	442.36
584.18	402.57
584.34	423.64
584.50	444.70
584.66	395.55
584.82	477.47
584.98	468.11
585.14	447.04
585.30	458.74
585.46	414.27
585.62	388.53
585.78	437.68
585.94	491.51
586.10	379.17
586.26	444.70
586.42	451.72
586.58	428.32
586.74	451.72
586.90	456.40
587.06	390.87
587.22	411.93
587.38	421.30
587.54	393.21
587.70	409.59
587.86	414.27
588.02	409.59
588.18	348.74
588.34	479.81
588.49	388.53
588.65	465.77
588.81	407.25
588.97	346.40
589.13	341.72
589.29	482.15
589.45	498.53
589.61	365.12
589.77	470.45
589.93	425.98
590.08	463.43
590.24	442.36
590.40	461.09
590.56	388.53
590.72	372.15
590.88	411.93
591.04	400.23
591.20	437.68
591.35	397.89
591.51	362.78
591.67	440.02
591.83	442.36
591.99	479.81
592.15	442.36
592.31	433.00
592.46	365.12
592.62	383.85
592.78	395.55
592.94	397.89
593.10	369.80
593.26	442.36
593.41	390.87
593.57	477.47
593.73	449.38
593.89	430.66
594.05	433.00
594.20	447.04
594.36	491.51
594.52	454.06
594.68	367.46
594.84	442.36
594.99	421.30
595.15	414.27
595.31	491.51
595.47	416.62
595.62	402.57
595.78	386.19
595.94	400.23
596.10	484.49
596.25	454.06
596.41	435.34
596.57	381.51
596.73	472.79
596.88	433.00
597.04	351.08
597.20	393.21
597.36	435.34
597.51	358.10
597.67	444.70
597.83	433.00
597.99	440.02
598.14	416.62
598.30	470.45
598.46	435.34
598.61	435.34
598.77	430.66
598.93	418.96
599.09	407.25
599.24	400.23
599.40	339.38
599.56	458.74
599.71	353.42
599.87	344.06
600.03	362.78
600.18	402.57
600.34	472.79
600.50	444.70
600.65	437.68
600.81	463.43
600.97	416.62
601.12	379.17
601.28	388.53
601.44	470.45
601.59	449.38
601.75	475.13
601.91	468.11
602.06	351.08
602.22	486.83
602.37	430.66
602.53	463.43
602.69	425.98
602.84	433.00
603.00	395.55
603.16	397.89
603.31	433.00
603.47	496.19
603.62	416.62
603.78	440.02
603.94	470.45
604.09	367.46
604.25	470.45
604.40	351.08
604.56	397.89
604.71	414.27
604.87	430.66
605.03	440.02
605.18	458.74
605.34	390.87
605.49	358.10
605.65	388.53
605.80	402.57
605.96	416.62
606.12	395.55
606.27	428.32
606.43	491.51
606.58	442.36
606.74	379.17
606.89	444.70
607.05	447.04
607.20	393.21
607.36	428.32
607.51	407.25
607.67	449.38
607.82	451.72
607.98	444.70
608.13	395.55
608.29	390.87
608.44	409.59
608.60	444.70
608.75	440.02
608.91	416.62
609.06	383.85
609.22	369.80
609.37	479.81
609.53	383.85
609.68	470.45
609.84	421.30
609.99	456.40
610.15	407.25
