SpectraSuite Data File
++++++++++++++++++++++++++++++++++++
Date: Fri Oct 25 12:11:19 EDT 2013
User: price-jones
Dark Spectrum Present: No
Reference Spectrum Present: No
Number of Sampled Component Spectra: 1
Spectrometers: USB2+H05261
Integration Time (usec): 100000 (USB2+H05261)
Spectra Averaged: 1 (USB2+H05261)
Boxcar Smoothing: 0 (USB2+H05261)
Correct for Electrical Dark: No (USB2+H05261)
Strobe/Lamp Enabled: No (USB2+H05261)
Correct for Detector Non-linearity: No (USB2+H05261)
Correct for Stray Light: No (USB2+H05261)
Number of Pixels in Processed Spectrum: 2048
>>>>>Begin Processed Spectral Data<<<<<
365.73	346.40
365.92	346.40
366.12	346.40
366.32	189.58
366.52	227.03
366.72	248.10
366.91	203.63
367.11	278.52
367.31	241.08
367.51	229.37
367.70	241.08
367.90	271.50
368.10	203.63
368.30	243.42
368.49	259.80
368.69	262.14
368.89	276.18
369.09	248.10
369.28	227.03
369.48	205.97
369.68	264.48
369.87	264.48
370.07	304.27
370.27	301.93
370.47	297.25
370.66	379.17
370.86	346.40
371.06	407.25
371.25	393.21
371.45	360.44
371.65	379.17
371.84	374.49
372.04	381.51
372.24	400.23
372.44	355.76
372.63	435.34
372.83	395.55
373.03	344.06
373.22	442.36
373.42	430.66
373.62	470.45
373.81	442.36
374.01	430.66
374.21	430.66
374.40	526.62
374.60	393.21
374.79	404.91
374.99	416.62
375.19	414.27
375.38	454.06
375.58	383.85
375.78	411.93
375.97	423.64
376.17	449.38
376.37	400.23
376.56	360.44
376.76	407.25
376.95	386.19
377.15	376.83
377.35	421.30
377.54	454.06
377.74	411.93
377.93	442.36
378.13	440.02
378.33	458.74
378.52	397.89
378.72	454.06
378.91	465.77
379.11	418.96
379.31	367.46
379.50	393.21
379.70	433.00
379.89	454.06
380.09	423.64
380.28	381.51
380.48	355.76
380.68	402.57
380.87	393.21
381.07	355.76
381.26	496.19
381.46	451.72
381.65	355.76
381.85	404.91
382.04	442.36
382.24	353.42
382.43	388.53
382.63	433.00
382.83	458.74
383.02	475.13
383.22	388.53
383.41	435.34
383.61	372.15
383.80	449.38
384.00	379.17
384.19	407.25
384.39	386.19
384.58	479.81
384.78	397.89
384.97	400.23
385.17	369.80
385.36	365.12
385.56	379.17
385.75	395.55
385.95	376.83
386.14	365.12
386.34	400.23
386.53	367.46
386.72	374.49
386.92	444.70
387.11	437.68
387.31	461.09
387.50	435.34
387.70	409.59
387.89	442.36
388.09	355.76
388.28	365.12
388.48	369.80
388.67	517.26
388.86	341.72
389.06	433.00
389.25	418.96
389.45	374.49
389.64	472.79
389.84	454.06
390.03	440.02
390.22	428.32
390.42	414.27
390.61	393.21
390.81	334.70
391.00	325.33
391.19	388.53
391.39	409.59
391.58	388.53
391.78	388.53
391.97	407.25
392.16	388.53
392.36	449.38
392.55	421.30
392.75	451.72
392.94	475.13
393.13	421.30
393.33	360.44
393.52	416.62
393.71	517.26
393.91	430.66
394.10	425.98
394.29	454.06
394.49	433.00
394.68	360.44
394.88	479.81
395.07	454.06
395.26	404.91
395.46	407.25
395.65	442.36
395.84	369.80
396.04	442.36
396.23	379.17
396.42	442.36
396.62	423.64
396.81	379.17
397.00	496.19
397.19	437.68
397.39	383.85
397.58	332.36
397.77	374.49
397.97	351.08
398.16	404.91
398.35	428.32
398.55	423.64
398.74	444.70
398.93	416.62
399.12	348.74
399.32	411.93
399.51	362.78
399.70	355.76
399.90	355.76
400.09	393.21
400.28	440.02
400.47	332.36
400.67	449.38
400.86	414.27
401.05	374.49
401.24	503.22
401.44	465.77
401.63	472.79
401.82	428.32
402.01	393.21
402.21	409.59
402.40	444.70
402.59	458.74
402.78	407.25
402.97	355.76
403.17	433.00
403.36	365.12
403.55	454.06
403.74	393.21
403.93	390.87
404.13	411.93
404.32	397.89
404.51	437.68
404.70	372.15
404.89	428.32
405.09	465.77
405.28	409.59
405.47	278.52
405.66	449.38
405.85	514.92
406.05	425.98
406.24	461.09
406.43	423.64
406.62	355.76
406.81	411.93
407.00	390.87
407.20	404.91
407.39	407.25
407.58	416.62
407.77	414.27
407.96	454.06
408.15	444.70
408.34	449.38
408.54	407.25
408.73	402.57
408.92	456.40
409.11	386.19
409.30	327.68
409.49	355.76
409.68	393.21
409.87	421.30
410.07	411.93
410.26	372.15
410.45	435.34
410.64	376.83
410.83	430.66
411.02	409.59
411.21	334.70
411.40	435.34
411.59	362.78
411.78	381.51
411.98	383.85
412.17	484.49
412.36	435.34
412.55	362.78
412.74	416.62
412.93	411.93
413.12	390.87
413.31	388.53
413.50	386.19
413.69	447.04
413.88	433.00
414.07	418.96
414.26	376.83
414.45	397.89
414.64	381.51
414.83	430.66
415.02	517.26
415.22	484.49
415.41	390.87
415.60	430.66
415.79	454.06
415.98	440.02
416.17	322.99
416.36	383.85
416.55	337.04
416.74	397.89
416.93	409.59
417.12	400.23
417.31	433.00
417.50	407.25
417.69	484.49
417.88	442.36
418.07	346.40
418.26	404.91
418.45	386.19
418.64	423.64
418.83	428.32
419.02	330.02
419.21	346.40
419.39	421.30
419.58	390.87
419.77	374.49
419.96	472.79
420.15	486.83
420.34	423.64
420.53	379.17
420.72	418.96
420.91	407.25
421.10	388.53
421.29	407.25
421.48	393.21
421.67	407.25
421.86	360.44
422.05	440.02
422.24	428.32
422.43	489.17
422.61	393.21
422.80	498.53
422.99	421.30
423.18	433.00
423.37	423.64
423.56	393.21
423.75	423.64
423.94	393.21
424.13	402.57
424.32	475.13
424.50	372.15
424.69	442.36
424.88	362.78
425.07	407.25
425.26	397.89
425.45	433.00
425.64	423.64
425.83	407.25
426.01	416.62
426.20	379.17
426.39	400.23
426.58	397.89
426.77	411.93
426.96	484.49
427.15	430.66
427.33	414.27
427.52	444.70
427.71	435.34
427.90	433.00
428.09	425.98
428.28	369.80
428.46	360.44
428.65	430.66
428.84	414.27
429.03	477.47
429.22	440.02
429.40	454.06
429.59	372.15
429.78	465.77
429.97	402.57
430.16	416.62
430.34	416.62
430.53	383.85
430.72	435.34
430.91	421.30
431.10	341.72
431.28	409.59
431.47	397.89
431.66	437.68
431.85	414.27
432.03	435.34
432.22	458.74
432.41	428.32
432.60	381.51
432.79	346.40
432.97	449.38
433.16	514.92
433.35	421.30
433.54	393.21
433.72	404.91
433.91	435.34
434.10	505.56
434.28	423.64
434.47	433.00
434.66	428.32
434.85	395.55
435.03	341.72
435.22	475.13
435.41	400.23
435.59	409.59
435.78	423.64
435.97	442.36
436.16	440.02
436.34	484.49
436.53	386.19
436.72	379.17
436.90	470.45
437.09	440.02
437.28	416.62
437.46	433.00
437.65	404.91
437.84	470.45
438.02	433.00
438.21	456.40
438.40	418.96
438.58	404.91
438.77	442.36
438.96	416.62
439.14	440.02
439.33	400.23
439.52	470.45
439.70	383.85
439.89	416.62
440.08	461.09
440.26	475.13
440.45	425.98
440.63	348.74
440.82	425.98
441.01	449.38
441.19	414.27
441.38	393.21
441.57	418.96
441.75	428.32
441.94	388.53
442.12	386.19
442.31	369.80
442.50	423.64
442.68	334.70
442.87	339.38
443.05	376.83
443.24	433.00
443.43	393.21
443.61	404.91
443.80	425.98
443.98	369.80
444.17	379.17
444.35	442.36
444.54	386.19
444.73	404.91
444.91	414.27
445.10	374.49
445.28	433.00
445.47	458.74
445.65	451.72
445.84	374.49
446.02	503.22
446.21	404.91
446.39	425.98
446.58	479.81
446.77	376.83
446.95	393.21
447.14	425.98
447.32	425.98
447.51	411.93
447.69	339.38
447.88	400.23
448.06	344.06
448.25	425.98
448.43	400.23
448.62	400.23
448.80	379.17
448.99	386.19
449.17	372.15
449.36	418.96
449.54	463.43
449.73	411.93
449.91	411.93
450.10	456.40
450.28	430.66
450.46	463.43
450.65	421.30
450.83	362.78
451.02	372.15
451.20	379.17
451.39	365.12
451.57	397.89
451.76	416.62
451.94	414.27
452.13	440.02
452.31	402.57
452.49	430.66
452.68	416.62
452.86	465.77
453.05	402.57
453.23	407.25
453.42	367.46
453.60	402.57
453.78	433.00
453.97	442.36
454.15	407.25
454.34	390.87
454.52	400.23
454.70	449.38
454.89	397.89
455.07	449.38
455.26	414.27
455.44	440.02
455.62	447.04
455.81	461.09
455.99	421.30
456.17	435.34
456.36	381.51
456.54	395.55
456.73	479.81
456.91	440.02
457.09	409.59
457.28	407.25
457.46	414.27
457.64	440.02
457.83	374.49
458.01	348.74
458.19	468.11
458.38	463.43
458.56	407.25
458.74	330.02
458.93	402.57
459.11	374.49
459.29	404.91
459.48	447.04
459.66	437.68
459.84	454.06
460.03	491.51
460.21	470.45
460.39	475.13
460.57	433.00
460.76	414.27
460.94	458.74
461.12	421.30
461.31	454.06
461.49	430.66
461.67	435.34
461.85	402.57
462.04	390.87
462.22	770.04
462.40	430.66
462.59	430.66
462.77	470.45
462.95	365.12
463.13	416.62
463.32	428.32
463.50	428.32
463.68	423.64
463.86	433.00
464.05	451.72
464.23	353.42
464.41	442.36
464.59	395.55
464.78	372.15
464.96	372.15
465.14	381.51
465.32	470.45
465.50	456.40
465.69	383.85
465.87	388.53
466.05	437.68
466.23	332.36
466.41	339.38
466.60	362.78
466.78	430.66
466.96	407.25
467.14	386.19
467.32	402.57
467.51	362.78
467.69	381.51
467.87	418.96
468.05	428.32
468.23	512.58
468.41	447.04
468.60	362.78
468.78	393.21
468.96	430.66
469.14	421.30
469.32	404.91
469.50	418.96
469.69	458.74
469.87	383.85
470.05	449.38
470.23	440.02
470.41	421.30
470.59	444.70
470.77	344.06
470.95	376.83
471.14	374.49
471.32	451.72
471.50	437.68
471.68	386.19
471.86	430.66
472.04	393.21
472.22	418.96
472.40	407.25
472.58	404.91
472.77	355.76
472.95	395.55
473.13	461.09
473.31	491.51
473.49	386.19
473.67	383.85
473.85	386.19
474.03	421.30
474.21	395.55
474.39	416.62
474.57	386.19
474.75	465.77
474.93	376.83
475.12	379.17
475.30	425.98
475.48	433.00
475.66	395.55
475.84	416.62
476.02	348.74
476.20	437.68
476.38	374.49
476.56	440.02
476.74	451.72
476.92	381.51
477.10	372.15
477.28	468.11
477.46	437.68
477.64	416.62
477.82	355.76
478.00	458.74
478.18	395.55
478.36	402.57
478.54	400.23
478.72	479.81
478.90	458.74
479.08	461.09
479.26	435.34
479.44	414.27
479.62	393.21
479.80	409.59
479.98	447.04
480.16	454.06
480.34	456.40
480.52	416.62
480.70	416.62
480.88	390.87
481.06	372.15
481.24	400.23
481.41	463.43
481.59	482.15
481.77	433.00
481.95	404.91
482.13	463.43
482.31	428.32
482.49	407.25
482.67	423.64
482.85	442.36
483.03	454.06
483.21	374.49
483.39	397.89
483.57	407.25
483.74	465.77
483.92	423.64
484.10	376.83
484.28	444.70
484.46	454.06
484.64	379.17
484.82	383.85
485.00	409.59
485.18	454.06
485.35	458.74
485.53	346.40
485.71	447.04
485.89	451.72
486.07	444.70
486.25	486.83
486.43	475.13
486.61	472.79
486.78	425.98
486.96	433.00
487.14	442.36
487.32	411.93
487.50	388.53
487.68	409.59
487.85	435.34
488.03	376.83
488.21	461.09
488.39	397.89
488.57	386.19
488.75	372.15
488.92	433.00
489.10	435.34
489.28	482.15
489.46	376.83
489.64	458.74
489.81	409.59
489.99	360.44
490.17	383.85
490.35	421.30
490.53	425.98
490.70	407.25
490.88	454.06
491.06	407.25
491.24	475.13
491.41	400.23
491.59	381.51
491.77	374.49
491.95	425.98
492.13	339.38
492.30	418.96
492.48	437.68
492.66	435.34
492.84	395.55
493.01	409.59
493.19	447.04
493.37	437.68
493.54	414.27
493.72	447.04
493.90	395.55
494.08	416.62
494.25	407.25
494.43	383.85
494.61	425.98
494.79	318.31
494.96	505.56
495.14	465.77
495.32	421.30
495.49	404.91
495.67	386.19
495.85	433.00
496.02	433.00
496.20	456.40
496.38	435.34
496.55	402.57
496.73	409.59
496.91	280.86
497.09	379.17
497.26	407.25
497.44	414.27
497.62	437.68
497.79	407.25
497.97	456.40
498.14	355.76
498.32	428.32
498.50	341.72
498.67	409.59
498.85	409.59
499.03	454.06
499.20	430.66
499.38	355.76
499.56	463.43
499.73	395.55
499.91	451.72
500.08	414.27
500.26	393.21
500.44	475.13
500.61	386.19
500.79	425.98
500.97	430.66
501.14	374.49
501.32	440.02
501.49	447.04
501.67	456.40
501.84	470.45
502.02	428.32
502.20	435.34
502.37	435.34
502.55	447.04
502.72	489.17
502.90	433.00
503.07	416.62
503.25	402.57
503.43	397.89
503.60	425.98
503.78	430.66
503.95	339.38
504.13	397.89
504.30	442.36
504.48	407.25
504.65	449.38
504.83	367.46
505.01	402.57
505.18	402.57
505.36	400.23
505.53	386.19
505.71	348.74
505.88	416.62
506.06	475.13
506.23	423.64
506.41	425.98
506.58	430.66
506.76	418.96
506.93	470.45
507.11	489.17
507.28	421.30
507.46	440.02
507.63	482.15
507.81	367.46
507.98	440.02
508.16	355.76
508.33	423.64
508.50	440.02
508.68	418.96
508.85	463.43
509.03	433.00
509.20	376.83
509.38	437.68
509.55	447.04
509.73	430.66
509.90	407.25
510.08	421.30
510.25	411.93
510.42	407.25
510.60	388.53
510.77	437.68
510.95	458.74
511.12	372.15
511.30	470.45
511.47	400.23
511.64	404.91
511.82	367.46
511.99	379.17
512.17	482.15
512.34	416.62
512.51	465.77
512.69	372.15
512.86	433.00
513.04	379.17
513.21	430.66
513.38	505.56
513.56	353.42
513.73	430.66
513.90	404.91
514.08	407.25
514.25	283.20
514.43	367.46
514.60	346.40
514.77	425.98
514.95	388.53
515.12	435.34
515.29	414.27
515.47	421.30
515.64	437.68
515.81	423.64
515.99	451.72
516.16	461.09
516.33	386.19
516.51	416.62
516.68	468.11
516.85	442.36
517.03	386.19
517.20	458.74
517.37	433.00
517.54	372.15
517.72	362.78
517.89	393.21
518.06	423.64
518.24	484.49
518.41	390.87
518.58	365.12
518.75	344.06
518.93	437.68
519.10	477.47
519.27	337.04
519.45	451.72
519.62	400.23
519.79	414.27
519.96	374.49
520.14	421.30
520.31	461.09
520.48	409.59
520.65	367.46
520.83	346.40
521.00	430.66
521.17	416.62
521.34	498.53
521.52	433.00
521.69	351.08
521.86	402.57
522.03	472.79
522.20	433.00
522.38	402.57
522.55	407.25
522.72	397.89
522.89	407.25
523.07	425.98
523.24	409.59
523.41	376.83
523.58	348.74
523.75	388.53
523.92	381.51
524.10	435.34
524.27	449.38
524.44	442.36
524.61	409.59
524.78	428.32
524.96	423.64
525.13	386.19
525.30	416.62
525.47	430.66
525.64	430.66
525.81	475.13
525.98	341.72
526.16	463.43
526.33	472.79
526.50	341.72
526.67	362.78
526.84	386.19
527.01	379.17
527.18	425.98
527.36	414.27
527.53	433.00
527.70	430.66
527.87	423.64
528.04	428.32
528.21	442.36
528.38	416.62
528.55	458.74
528.72	461.09
528.89	465.77
529.07	411.93
529.24	449.38
529.41	444.70
529.58	421.30
529.75	344.06
529.92	449.38
530.09	440.02
530.26	491.51
530.43	330.02
530.60	393.21
530.77	395.55
530.94	519.60
531.11	365.12
531.28	447.04
531.46	367.46
531.63	369.80
531.80	395.55
531.97	477.47
532.14	374.49
532.31	388.53
532.48	449.38
532.65	423.64
532.82	402.57
532.99	416.62
533.16	416.62
533.33	386.19
533.50	484.49
533.67	381.51
533.84	402.57
534.01	437.68
534.18	411.93
534.35	397.89
534.52	482.15
534.69	463.43
534.86	386.19
535.03	414.27
535.20	362.78
535.37	418.96
535.54	430.66
535.71	376.83
535.88	458.74
536.05	482.15
536.22	409.59
536.38	430.66
536.55	437.68
536.72	353.42
536.89	381.51
537.06	376.83
537.23	433.00
537.40	440.02
537.57	437.68
537.74	433.00
537.91	451.72
538.08	440.02
538.25	421.30
538.42	327.68
538.59	395.55
538.75	339.38
538.92	397.89
539.09	402.57
539.26	337.04
539.43	404.91
539.60	409.59
539.77	428.32
539.94	428.32
540.11	386.19
540.28	423.64
540.44	348.74
540.61	414.27
540.78	404.91
540.95	437.68
541.12	437.68
541.29	351.08
541.46	411.93
541.62	372.15
541.79	430.66
541.96	409.59
542.13	461.09
542.30	393.21
542.47	390.87
542.63	383.85
542.80	449.38
542.97	418.96
543.14	451.72
543.31	484.49
543.48	409.59
543.64	393.21
543.81	414.27
543.98	379.17
544.15	381.51
544.32	386.19
544.48	414.27
544.65	458.74
544.82	379.17
544.99	423.64
545.16	449.38
545.32	372.15
545.49	353.42
545.66	397.89
545.83	421.30
546.00	470.45
546.16	390.87
546.33	397.89
546.50	414.27
546.67	409.59
546.83	435.34
547.00	437.68
547.17	414.27
547.34	433.00
547.50	367.46
547.67	449.38
547.84	397.89
548.00	435.34
548.17	442.36
548.34	454.06
548.51	444.70
548.67	472.79
548.84	393.21
549.01	435.34
549.18	479.81
549.34	423.64
549.51	447.04
549.68	425.98
549.84	531.30
550.01	451.72
550.18	545.34
550.34	433.00
550.51	362.78
550.68	477.47
550.84	475.13
551.01	404.91
551.18	379.17
551.34	484.49
551.51	458.74
551.68	461.09
551.84	421.30
552.01	381.51
552.18	423.64
552.34	458.74
552.51	348.74
552.68	425.98
552.84	514.92
553.01	414.27
553.18	449.38
553.34	404.91
553.51	414.27
553.67	454.06
553.84	512.58
554.01	369.80
554.17	383.85
554.34	411.93
554.51	404.91
554.67	463.43
554.84	425.98
555.00	425.98
555.17	397.89
555.33	423.64
555.50	472.79
555.67	440.02
555.83	454.06
556.00	468.11
556.16	503.22
556.33	428.32
556.50	407.25
556.66	383.85
556.83	362.78
556.99	388.53
557.16	435.34
557.32	383.85
557.49	353.42
557.65	411.93
557.82	374.49
557.98	367.46
558.15	407.25
558.32	472.79
558.48	454.06
558.65	339.38
558.81	416.62
558.98	386.19
559.14	435.34
559.31	367.46
559.47	421.30
559.64	447.04
559.80	454.06
559.97	433.00
560.13	416.62
560.30	365.12
560.46	449.38
560.63	470.45
560.79	388.53
560.96	423.64
561.12	411.93
561.29	407.25
561.45	393.21
561.61	381.51
561.78	421.30
561.94	440.02
562.11	423.64
562.27	395.55
562.44	397.89
562.60	489.17
562.77	404.91
562.93	425.98
563.10	423.64
563.26	388.53
563.42	461.09
563.59	449.38
563.75	376.83
563.92	451.72
564.08	393.21
564.24	369.80
564.41	409.59
564.57	351.08
564.74	470.45
564.90	477.47
565.07	486.83
565.23	393.21
565.39	505.56
565.56	444.70
565.72	435.34
565.88	444.70
566.05	470.45
566.21	444.70
566.38	430.66
566.54	479.81
566.70	367.46
566.87	423.64
567.03	425.98
567.19	390.87
567.36	465.77
567.52	411.93
567.68	362.78
567.85	451.72
568.01	404.91
568.17	421.30
568.34	407.25
568.50	454.06
568.66	365.12
568.83	486.83
568.99	442.36
569.15	482.15
569.32	496.19
569.48	440.02
569.64	390.87
569.81	386.19
569.97	465.77
570.13	430.66
570.30	416.62
570.46	425.98
570.62	421.30
570.78	425.98
570.95	390.87
571.11	435.34
571.27	468.11
571.43	416.62
571.60	444.70
571.76	435.34
571.92	369.80
572.09	491.51
572.25	451.72
572.41	372.15
572.57	416.62
572.74	514.92
572.90	416.62
573.06	428.32
573.22	461.09
573.38	430.66
573.55	430.66
573.71	425.98
573.87	400.23
574.03	498.53
574.20	388.53
574.36	444.70
574.52	449.38
574.68	365.12
574.84	472.79
575.01	454.06
575.17	430.66
575.33	484.49
575.49	404.91
575.65	477.47
575.82	421.30
575.98	400.23
576.14	353.42
576.30	423.64
576.46	421.30
576.62	367.46
576.79	449.38
576.95	491.51
577.11	390.87
577.27	421.30
577.43	365.12
577.59	451.72
577.75	503.22
577.92	381.51
578.08	400.23
578.24	425.98
578.40	437.68
578.56	449.38
578.72	507.90
578.88	409.59
579.04	440.02
579.21	414.27
579.37	418.96
579.53	372.15
579.69	440.02
579.85	358.10
580.01	486.83
580.17	351.08
580.33	433.00
580.49	393.21
580.65	442.36
580.82	411.93
580.98	381.51
581.14	358.10
581.30	425.98
581.46	454.06
581.62	407.25
581.78	440.02
581.94	442.36
582.10	400.23
582.26	369.80
582.42	421.30
582.58	430.66
582.74	362.78
582.90	465.77
583.06	428.32
583.22	433.00
583.38	411.93
583.54	404.91
583.70	409.59
583.86	416.62
584.02	379.17
584.18	407.25
584.34	451.72
584.50	393.21
584.66	383.85
584.82	425.98
584.98	491.51
585.14	402.57
585.30	442.36
585.46	397.89
585.62	374.49
585.78	507.90
585.94	465.77
586.10	381.51
586.26	428.32
586.42	437.68
586.58	416.62
586.74	435.34
586.90	449.38
587.06	435.34
587.22	402.57
587.38	433.00
587.54	461.09
587.70	456.40
587.86	458.74
588.02	395.55
588.18	456.40
588.34	402.57
588.49	416.62
588.65	358.10
588.81	442.36
588.97	435.34
589.13	411.93
589.29	402.57
589.45	505.56
589.61	489.17
589.77	407.25
589.93	402.57
590.08	367.46
590.24	416.62
590.40	433.00
590.56	454.06
590.72	411.93
590.88	386.19
591.04	482.15
591.20	409.59
591.35	470.45
591.51	449.38
591.67	379.17
591.83	416.62
591.99	407.25
592.15	437.68
592.31	414.27
592.46	402.57
592.62	437.68
592.78	465.77
592.94	407.25
593.10	421.30
593.26	477.47
593.41	390.87
593.57	458.74
593.73	402.57
593.89	402.57
594.05	433.00
594.20	425.98
594.36	440.02
594.52	395.55
594.68	423.64
594.84	435.34
594.99	493.85
595.15	449.38
595.31	433.00
595.47	397.89
595.62	404.91
595.78	428.32
595.94	454.06
596.10	435.34
596.25	444.70
596.41	411.93
596.57	435.34
596.73	423.64
596.88	355.76
597.04	461.09
597.20	416.62
597.36	442.36
597.51	386.19
597.67	351.08
597.83	411.93
597.99	362.78
598.14	472.79
598.30	440.02
598.46	430.66
598.61	451.72
598.77	449.38
598.93	444.70
599.09	372.15
599.24	451.72
599.40	421.30
599.56	409.59
599.71	393.21
599.87	500.87
600.03	409.59
600.18	486.83
600.34	475.13
600.50	411.93
600.65	409.59
600.81	433.00
600.97	393.21
601.12	496.19
601.28	437.68
601.44	397.89
601.59	372.15
601.75	428.32
601.91	355.76
602.06	465.77
602.22	444.70
602.37	458.74
602.53	411.93
602.69	475.13
602.84	404.91
603.00	451.72
603.16	454.06
603.31	503.22
603.47	486.83
603.62	367.46
603.78	351.08
603.94	454.06
604.09	435.34
604.25	418.96
604.40	451.72
604.56	395.55
604.71	388.53
604.87	451.72
605.03	388.53
605.18	351.08
605.34	397.89
605.49	458.74
605.65	383.85
605.80	425.98
605.96	468.11
606.12	468.11
606.27	479.81
606.43	442.36
606.58	437.68
606.74	388.53
606.89	435.34
607.05	463.43
607.20	444.70
607.36	379.17
607.51	376.83
607.67	397.89
607.82	402.57
607.98	337.04
608.13	407.25
608.29	416.62
608.44	402.57
608.60	400.23
608.75	355.76
608.91	372.15
609.06	442.36
609.22	425.98
609.37	395.55
609.53	337.04
609.68	482.15
609.84	423.64
609.99	393.21
610.15	416.62
