SpectraSuite Data File
++++++++++++++++++++++++++++++++++++
Date: Fri Oct 25 12:10:29 EDT 2013
User: price-jones
Dark Spectrum Present: No
Reference Spectrum Present: No
Number of Sampled Component Spectra: 1
Spectrometers: USB2+H05261
Integration Time (usec): 100000 (USB2+H05261)
Spectra Averaged: 1 (USB2+H05261)
Boxcar Smoothing: 0 (USB2+H05261)
Correct for Electrical Dark: No (USB2+H05261)
Strobe/Lamp Enabled: No (USB2+H05261)
Correct for Detector Non-linearity: No (USB2+H05261)
Correct for Stray Light: No (USB2+H05261)
Number of Pixels in Processed Spectrum: 2048
>>>>>Begin Processed Spectral Data<<<<<
365.73	416.62
365.92	416.62
366.12	416.62
366.32	220.01
366.52	320.65
366.72	271.50
366.91	212.99
367.11	231.71
367.31	154.48
367.51	217.67
367.70	252.78
367.90	273.84
368.10	269.16
368.30	236.39
368.49	217.67
368.69	297.25
368.89	252.78
369.09	285.55
369.28	278.52
369.48	217.67
369.68	287.89
369.87	222.35
370.07	304.27
370.27	414.27
370.47	308.95
370.66	278.52
370.86	299.59
371.06	388.53
371.25	411.93
371.45	386.19
371.65	374.49
371.84	367.46
372.04	393.21
372.24	393.21
372.44	386.19
372.63	414.27
372.83	512.58
373.03	404.91
373.22	414.27
373.42	402.57
373.62	393.21
373.81	444.70
374.01	454.06
374.21	400.23
374.40	367.46
374.60	376.83
374.79	341.72
374.99	400.23
375.19	402.57
375.38	437.68
375.58	374.49
375.78	407.25
375.97	477.47
376.17	430.66
376.37	451.72
376.56	451.72
376.76	393.21
376.95	404.91
377.15	393.21
377.35	458.74
377.54	402.57
377.74	379.17
377.93	341.72
378.13	437.68
378.33	402.57
378.52	425.98
378.72	486.83
378.91	454.06
379.11	397.89
379.31	416.62
379.50	383.85
379.70	435.34
379.89	395.55
380.09	430.66
380.28	423.64
380.48	386.19
380.68	423.64
380.87	491.51
381.07	404.91
381.26	407.25
381.46	451.72
381.65	402.57
381.85	362.78
382.04	454.06
382.24	393.21
382.43	463.43
382.63	365.12
382.83	374.49
383.02	437.68
383.22	425.98
383.41	404.91
383.61	390.87
383.80	418.96
384.00	421.30
384.19	383.85
384.39	409.59
384.58	367.46
384.78	440.02
384.97	358.10
385.17	416.62
385.36	428.32
385.56	433.00
385.75	386.19
385.95	318.31
386.14	376.83
386.34	372.15
386.53	381.51
386.72	404.91
386.92	433.00
387.11	386.19
387.31	393.21
387.50	341.72
387.70	395.55
387.89	421.30
388.09	458.74
388.28	322.99
388.48	421.30
388.67	411.93
388.86	362.78
389.06	327.68
389.25	482.15
389.45	421.30
389.64	355.76
389.84	404.91
390.03	383.85
390.22	388.53
390.42	374.49
390.61	388.53
390.81	383.85
391.00	430.66
391.19	484.49
391.39	416.62
391.58	388.53
391.78	440.02
391.97	421.30
392.16	423.64
392.36	393.21
392.55	428.32
392.75	393.21
392.94	418.96
393.13	447.04
393.33	395.55
393.52	381.51
393.71	430.66
393.91	463.43
394.10	456.40
394.29	360.44
394.49	423.64
394.68	397.89
394.88	414.27
395.07	393.21
395.26	381.51
395.46	411.93
395.65	454.06
395.84	383.85
396.04	482.15
396.23	374.49
396.42	351.08
396.62	472.79
396.81	407.25
397.00	369.80
397.19	395.55
397.39	400.23
397.58	496.19
397.77	381.51
397.97	402.57
398.16	374.49
398.35	383.85
398.55	327.68
398.74	325.33
398.93	423.64
399.12	369.80
399.32	379.17
399.51	376.83
399.70	374.49
399.90	409.59
400.09	440.02
400.28	505.56
400.47	435.34
400.67	409.59
400.86	407.25
401.05	390.87
401.24	437.68
401.44	482.15
401.63	503.22
401.82	493.85
402.01	348.74
402.21	381.51
402.40	400.23
402.59	379.17
402.78	416.62
402.97	365.12
403.17	388.53
403.36	376.83
403.55	360.44
403.74	372.15
403.93	409.59
404.13	402.57
404.32	440.02
404.51	472.79
404.70	454.06
404.89	451.72
405.09	442.36
405.28	402.57
405.47	374.49
405.66	416.62
405.85	430.66
406.05	475.13
406.24	386.19
406.43	348.74
406.62	416.62
406.81	458.74
407.00	390.87
407.20	458.74
407.39	400.23
407.58	367.46
407.77	367.46
407.96	416.62
408.15	425.98
408.34	376.83
408.54	493.85
408.73	397.89
408.92	423.64
409.11	376.83
409.30	313.63
409.49	388.53
409.68	348.74
409.87	386.19
410.07	409.59
410.26	360.44
410.45	421.30
410.64	447.04
410.83	411.93
411.02	379.17
411.21	407.25
411.40	465.77
411.59	442.36
411.78	388.53
411.98	440.02
412.17	461.09
412.36	393.21
412.55	409.59
412.74	402.57
412.93	423.64
413.12	362.78
413.31	435.34
413.50	383.85
413.69	444.70
413.88	449.38
414.07	372.15
414.26	477.47
414.45	358.10
414.64	423.64
414.83	411.93
415.02	451.72
415.22	341.72
415.41	475.13
415.60	421.30
415.79	407.25
415.98	393.21
416.17	386.19
416.36	395.55
416.55	355.76
416.74	400.23
416.93	433.00
417.12	393.21
417.31	430.66
417.50	346.40
417.69	470.45
417.88	374.49
418.07	435.34
418.26	395.55
418.45	390.87
418.64	430.66
418.83	383.85
419.02	367.46
419.21	423.64
419.39	367.46
419.58	421.30
419.77	362.78
419.96	404.91
420.15	461.09
420.34	437.68
420.53	411.93
420.72	416.62
420.91	346.40
421.10	322.99
421.29	379.17
421.48	437.68
421.67	395.55
421.86	442.36
422.05	411.93
422.24	395.55
422.43	428.32
422.61	418.96
422.80	440.02
422.99	444.70
423.18	337.04
423.37	470.45
423.56	390.87
423.75	468.11
423.94	416.62
424.13	430.66
424.32	404.91
424.50	383.85
424.69	393.21
424.88	444.70
425.07	449.38
425.26	430.66
425.45	433.00
425.64	430.66
425.83	362.78
426.01	414.27
426.20	404.91
426.39	372.15
426.58	433.00
426.77	376.83
426.96	416.62
427.15	407.25
427.33	372.15
427.52	397.89
427.71	400.23
427.90	330.02
428.09	395.55
428.28	442.36
428.46	386.19
428.65	404.91
428.84	409.59
429.03	479.81
429.22	386.19
429.40	360.44
429.59	409.59
429.78	397.89
429.97	416.62
430.16	402.57
430.34	383.85
430.53	444.70
430.72	423.64
430.91	449.38
431.10	465.77
431.28	454.06
431.47	447.04
431.66	461.09
431.85	409.59
432.03	407.25
432.22	423.64
432.41	451.72
432.60	449.38
432.79	421.30
432.97	393.21
433.16	550.03
433.35	463.43
433.54	449.38
433.72	395.55
433.91	421.30
434.10	416.62
434.28	440.02
434.47	430.66
434.66	447.04
434.85	435.34
435.03	397.89
435.22	505.56
435.41	435.34
435.59	423.64
435.78	479.81
435.97	447.04
436.16	442.36
436.34	376.83
436.53	395.55
436.72	425.98
436.90	468.11
437.09	423.64
437.28	465.77
437.46	430.66
437.65	463.43
437.84	468.11
438.02	456.40
438.21	386.19
438.40	360.44
438.58	318.31
438.77	386.19
438.96	388.53
439.14	486.83
439.33	409.59
439.52	402.57
439.70	416.62
439.89	362.78
440.08	395.55
440.26	423.64
440.45	468.11
440.63	414.27
440.82	404.91
441.01	423.64
441.19	404.91
441.38	416.62
441.57	386.19
441.75	379.17
441.94	339.38
442.12	397.89
442.31	416.62
442.50	369.80
442.68	381.51
442.87	465.77
443.05	425.98
443.24	451.72
443.43	437.68
443.61	472.79
443.80	433.00
443.98	393.21
444.17	402.57
444.35	465.77
444.54	444.70
444.73	402.57
444.91	472.79
445.10	395.55
445.28	433.00
445.47	414.27
445.65	470.45
445.84	418.96
446.02	440.02
446.21	423.64
446.39	355.76
446.58	482.15
446.77	397.89
446.95	369.80
447.14	407.25
447.32	428.32
447.51	418.96
447.69	463.43
447.88	402.57
448.06	402.57
448.25	447.04
448.43	402.57
448.62	451.72
448.80	351.08
448.99	372.15
449.17	397.89
449.36	362.78
449.54	440.02
449.73	416.62
449.91	341.72
450.10	428.32
450.28	496.19
450.46	484.49
450.65	477.47
450.83	388.53
451.02	418.96
451.20	376.83
451.39	374.49
451.57	435.34
451.76	442.36
451.94	451.72
452.13	430.66
452.31	423.64
452.49	386.19
452.68	379.17
452.86	440.02
453.05	465.77
453.23	451.72
453.42	372.15
453.60	402.57
453.78	367.46
453.97	425.98
454.15	404.91
454.34	395.55
454.52	421.30
454.70	449.38
454.89	374.49
455.07	433.00
455.26	414.27
455.44	388.53
455.62	414.27
455.81	433.00
455.99	397.89
456.17	421.30
456.36	404.91
456.54	332.36
456.73	344.06
456.91	409.59
457.09	381.51
457.28	411.93
457.46	482.15
457.64	449.38
457.83	461.09
458.01	395.55
458.19	428.32
458.38	404.91
458.56	414.27
458.74	367.46
458.93	411.93
459.11	451.72
459.29	386.19
459.48	465.77
459.66	423.64
459.84	376.83
460.03	449.38
460.21	372.15
460.39	362.78
460.57	433.00
460.76	374.49
460.94	360.44
461.12	458.74
461.31	458.74
461.49	402.57
461.67	472.79
461.85	383.85
462.04	414.27
462.22	744.29
462.40	388.53
462.59	433.00
462.77	425.98
462.95	402.57
463.13	454.06
463.32	444.70
463.50	421.30
463.68	442.36
463.86	395.55
464.05	390.87
464.23	475.13
464.41	442.36
464.59	416.62
464.78	449.38
464.96	390.87
465.14	514.92
465.32	430.66
465.50	409.59
465.69	456.40
465.87	395.55
466.05	472.79
466.23	383.85
466.41	353.42
466.60	320.65
466.78	395.55
466.96	451.72
467.14	437.68
467.32	397.89
467.51	489.17
467.69	447.04
467.87	444.70
468.05	451.72
468.23	409.59
468.41	428.32
468.60	348.74
468.78	402.57
468.96	498.53
469.14	400.23
469.32	428.32
469.50	374.49
469.69	397.89
469.87	437.68
470.05	395.55
470.23	517.26
470.41	404.91
470.59	414.27
470.77	386.19
470.95	428.32
471.14	341.72
471.32	358.10
471.50	390.87
471.68	425.98
471.86	489.17
472.04	376.83
472.22	402.57
472.40	367.46
472.58	454.06
472.77	330.02
472.95	440.02
473.13	456.40
473.31	397.89
473.49	386.19
473.67	365.12
473.85	447.04
474.03	433.00
474.21	433.00
474.39	379.17
474.57	472.79
474.75	407.25
474.93	390.87
475.12	381.51
475.30	416.62
475.48	451.72
475.66	437.68
475.84	381.51
476.02	442.36
476.20	421.30
476.38	456.40
476.56	472.79
476.74	351.08
476.92	397.89
477.10	372.15
477.28	428.32
477.46	404.91
477.64	376.83
477.82	362.78
478.00	390.87
478.18	411.93
478.36	353.42
478.54	360.44
478.72	395.55
478.90	418.96
479.08	510.24
479.26	421.30
479.44	292.57
479.62	395.55
479.80	362.78
479.98	367.46
480.16	484.49
480.34	404.91
480.52	390.87
480.70	430.66
480.88	379.17
481.06	393.21
481.24	374.49
481.41	372.15
481.59	390.87
481.77	383.85
481.95	400.23
482.13	435.34
482.31	421.30
482.49	374.49
482.67	454.06
482.85	416.62
483.03	400.23
483.21	414.27
483.39	397.89
483.57	386.19
483.74	393.21
483.92	388.53
484.10	414.27
484.28	430.66
484.46	449.38
484.64	407.25
484.82	388.53
485.00	414.27
485.18	381.51
485.35	365.12
485.53	355.76
485.71	407.25
485.89	372.15
486.07	379.17
486.25	341.72
486.43	362.78
486.61	451.72
486.78	465.77
486.96	465.77
487.14	409.59
487.32	425.98
487.50	409.59
487.68	423.64
487.85	393.21
488.03	407.25
488.21	489.17
488.39	496.19
488.57	390.87
488.75	383.85
488.92	517.26
489.10	383.85
489.28	442.36
489.46	411.93
489.64	444.70
489.81	500.87
489.99	421.30
490.17	383.85
490.35	454.06
490.53	423.64
490.70	454.06
490.88	435.34
491.06	418.96
491.24	393.21
491.41	479.81
491.59	449.38
491.77	390.87
491.95	440.02
492.13	397.89
492.30	379.17
492.48	463.43
492.66	430.66
492.84	297.25
493.01	430.66
493.19	418.96
493.37	479.81
493.54	397.89
493.72	442.36
493.90	475.13
494.08	372.15
494.25	379.17
494.43	479.81
494.61	425.98
494.79	374.49
494.96	388.53
495.14	360.44
495.32	362.78
495.49	468.11
495.67	383.85
495.85	411.93
496.02	437.68
496.20	395.55
496.38	358.10
496.55	360.44
496.73	402.57
496.91	444.70
497.09	400.23
497.26	458.74
497.44	421.30
497.62	423.64
497.79	332.36
497.97	390.87
498.14	430.66
498.32	372.15
498.50	351.08
498.67	313.63
498.85	395.55
499.03	325.33
499.20	479.81
499.38	404.91
499.56	383.85
499.73	421.30
499.91	400.23
500.08	454.06
500.26	437.68
500.44	425.98
500.61	337.04
500.79	418.96
500.97	411.93
501.14	510.24
501.32	442.36
501.49	393.21
501.67	440.02
501.84	433.00
502.02	355.76
502.20	456.40
502.37	435.34
502.55	379.17
502.72	447.04
502.90	374.49
503.07	409.59
503.25	402.57
503.43	346.40
503.60	376.83
503.78	472.79
503.95	411.93
504.13	348.74
504.30	461.09
504.48	493.85
504.65	411.93
504.83	449.38
505.01	454.06
505.18	360.44
505.36	430.66
505.53	458.74
505.71	454.06
505.88	468.11
506.06	421.30
506.23	465.77
506.41	442.36
506.58	493.85
506.76	397.89
506.93	433.00
507.11	411.93
507.28	463.43
507.46	425.98
507.63	440.02
507.81	351.08
507.98	365.12
508.16	489.17
508.33	402.57
508.50	428.32
508.68	456.40
508.85	454.06
509.03	468.11
509.20	393.21
509.38	447.04
509.55	416.62
509.73	425.98
509.90	470.45
510.08	372.15
510.25	351.08
510.42	390.87
510.60	418.96
510.77	332.36
510.95	526.62
511.12	414.27
511.30	407.25
511.47	484.49
511.64	454.06
511.82	409.59
511.99	407.25
512.17	437.68
512.34	437.68
512.51	346.40
512.69	409.59
512.86	505.56
513.04	383.85
513.21	395.55
513.38	383.85
513.56	421.30
513.73	451.72
513.90	402.57
514.08	465.77
514.25	351.08
514.43	404.91
514.60	386.19
514.77	407.25
514.95	451.72
515.12	388.53
515.29	425.98
515.47	397.89
515.64	346.40
515.81	400.23
515.99	386.19
516.16	416.62
516.33	458.74
516.51	421.30
516.68	355.76
516.85	407.25
517.03	376.83
517.20	435.34
517.37	425.98
517.54	379.17
517.72	376.83
517.89	337.04
518.06	433.00
518.24	468.11
518.41	458.74
518.58	435.34
518.75	393.21
518.93	411.93
519.10	416.62
519.27	407.25
519.45	409.59
519.62	463.43
519.79	447.04
519.96	372.15
520.14	414.27
520.31	425.98
520.48	435.34
520.65	411.93
520.83	418.96
521.00	425.98
521.17	465.77
521.34	411.93
521.52	425.98
521.69	322.99
521.86	374.49
522.03	418.96
522.20	514.92
522.38	393.21
522.55	447.04
522.72	353.42
522.89	447.04
523.07	421.30
523.24	409.59
523.41	383.85
523.58	425.98
523.75	449.38
523.92	386.19
524.10	454.06
524.27	425.98
524.44	379.17
524.61	423.64
524.78	437.68
524.96	493.85
525.13	414.27
525.30	550.03
525.47	390.87
525.64	449.38
525.81	472.79
525.98	421.30
526.16	386.19
526.33	425.98
526.50	416.62
526.67	440.02
526.84	388.53
527.01	451.72
527.18	425.98
527.36	463.43
527.53	414.27
527.70	430.66
527.87	402.57
528.04	496.19
528.21	409.59
528.38	442.36
528.55	397.89
528.72	360.44
528.89	479.81
529.07	425.98
529.24	393.21
529.41	444.70
529.58	351.08
529.75	414.27
529.92	482.15
530.09	372.15
530.26	425.98
530.43	376.83
530.60	454.06
530.77	400.23
530.94	421.30
531.11	388.53
531.28	425.98
531.46	362.78
531.63	379.17
531.80	463.43
531.97	463.43
532.14	386.19
532.31	463.43
532.48	393.21
532.65	423.64
532.82	381.51
532.99	442.36
533.16	435.34
533.33	402.57
533.50	407.25
533.67	344.06
533.84	360.44
534.01	463.43
534.18	402.57
534.35	332.36
534.52	362.78
534.69	393.21
534.86	449.38
535.03	409.59
535.20	404.91
535.37	449.38
535.54	372.15
535.71	365.12
535.88	456.40
536.05	395.55
536.22	477.47
536.38	390.87
536.55	458.74
536.72	404.91
536.89	358.10
537.06	423.64
537.23	409.59
537.40	430.66
537.57	383.85
537.74	519.60
537.91	416.62
538.08	451.72
538.25	372.15
538.42	433.00
538.59	400.23
538.75	344.06
538.92	454.06
539.09	461.09
539.26	468.11
539.43	500.87
539.60	449.38
539.77	447.04
539.94	454.06
540.11	400.23
540.28	367.46
540.44	475.13
540.61	367.46
540.78	407.25
540.95	437.68
541.12	442.36
541.29	465.77
541.46	393.21
541.62	449.38
541.79	381.51
541.96	376.83
542.13	421.30
542.30	367.46
542.47	433.00
542.63	433.00
542.80	418.96
542.97	456.40
543.14	428.32
543.31	395.55
543.48	470.45
543.64	423.64
543.81	409.59
543.98	454.06
544.15	414.27
544.32	414.27
544.48	390.87
544.65	416.62
544.82	393.21
544.99	395.55
545.16	451.72
545.32	447.04
545.49	421.30
545.66	348.74
545.83	360.44
546.00	421.30
546.16	360.44
546.33	383.85
546.50	381.51
546.67	423.64
546.83	442.36
547.00	404.91
547.17	383.85
547.34	400.23
547.50	374.49
547.67	447.04
547.84	433.00
548.00	440.02
548.17	407.25
548.34	430.66
548.51	454.06
548.67	414.27
548.84	404.91
549.01	379.17
549.18	395.55
549.34	414.27
549.51	409.59
549.68	423.64
549.84	395.55
550.01	479.81
550.18	475.13
550.34	463.43
550.51	486.83
550.68	454.06
550.84	461.09
551.01	463.43
551.18	503.22
551.34	320.65
551.51	351.08
551.68	407.25
551.84	442.36
552.01	409.59
552.18	486.83
552.34	416.62
552.51	472.79
552.68	449.38
552.84	390.87
553.01	383.85
553.18	468.11
553.34	379.17
553.51	418.96
553.67	435.34
553.84	411.93
554.01	451.72
554.17	472.79
554.34	437.68
554.51	435.34
554.67	435.34
554.84	456.40
555.00	430.66
555.17	414.27
555.33	433.00
555.50	374.49
555.67	449.38
555.83	334.70
556.00	339.38
556.16	564.07
556.33	456.40
556.50	397.89
556.66	355.76
556.83	404.91
556.99	451.72
557.16	372.15
557.32	397.89
557.49	379.17
557.65	416.62
557.82	433.00
557.98	400.23
558.15	404.91
558.32	430.66
558.48	442.36
558.65	388.53
558.81	411.93
558.98	425.98
559.14	416.62
559.31	435.34
559.47	367.46
559.64	407.25
559.80	383.85
559.97	355.76
560.13	414.27
560.30	458.74
560.46	400.23
560.63	421.30
560.79	372.15
560.96	414.27
561.12	376.83
561.29	447.04
561.45	482.15
561.61	376.83
561.78	416.62
561.94	423.64
562.11	402.57
562.27	362.78
562.44	372.15
562.60	365.12
562.77	397.89
562.93	425.98
563.10	447.04
563.26	425.98
563.42	428.32
563.59	395.55
563.75	395.55
563.92	491.51
564.08	425.98
564.24	461.09
564.41	550.03
564.57	379.17
564.74	311.29
564.90	428.32
565.07	444.70
565.23	456.40
565.39	444.70
565.56	416.62
565.72	465.77
565.88	381.51
566.05	454.06
566.21	386.19
566.38	470.45
566.54	477.47
566.70	362.78
566.87	311.29
567.03	393.21
567.19	411.93
567.36	409.59
567.52	414.27
567.68	388.53
567.85	454.06
568.01	449.38
568.17	369.80
568.34	414.27
568.50	440.02
568.66	409.59
568.83	491.51
568.99	461.09
569.15	416.62
569.32	390.87
569.48	472.79
569.64	397.89
569.81	400.23
569.97	407.25
570.13	451.72
570.30	315.97
570.46	428.32
570.62	418.96
570.78	428.32
570.95	365.12
571.11	402.57
571.27	437.68
571.43	447.04
571.60	407.25
571.76	383.85
571.92	383.85
572.09	437.68
572.25	437.68
572.41	414.27
572.57	440.02
572.74	482.15
572.90	430.66
573.06	484.49
573.22	418.96
573.38	454.06
573.55	451.72
573.71	442.36
573.87	404.91
574.03	454.06
574.20	379.17
574.36	498.53
574.52	475.13
574.68	418.96
574.84	369.80
575.01	386.19
575.17	461.09
575.33	379.17
575.49	428.32
575.65	437.68
575.82	440.02
575.98	442.36
576.14	435.34
576.30	362.78
576.46	409.59
576.62	386.19
576.79	442.36
576.95	404.91
577.11	409.59
577.27	433.00
577.43	449.38
577.59	486.83
577.75	402.57
577.92	383.85
578.08	315.97
578.24	381.51
578.40	451.72
578.56	390.87
578.72	425.98
578.88	386.19
579.04	383.85
579.21	428.32
579.37	449.38
579.53	339.38
579.69	468.11
579.85	332.36
580.01	379.17
580.17	400.23
580.33	397.89
580.49	425.98
580.65	409.59
580.82	435.34
580.98	372.15
581.14	428.32
581.30	379.17
581.46	390.87
581.62	505.56
581.78	325.33
581.94	435.34
582.10	393.21
582.26	449.38
582.42	418.96
582.58	409.59
582.74	397.89
582.90	411.93
583.06	430.66
583.22	479.81
583.38	451.72
583.54	468.11
583.70	454.06
583.86	458.74
584.02	423.64
584.18	362.78
584.34	468.11
584.50	341.72
584.66	447.04
584.82	360.44
584.98	397.89
585.14	437.68
585.30	468.11
585.46	528.96
585.62	435.34
585.78	397.89
585.94	442.36
586.10	339.38
586.26	472.79
586.42	433.00
586.58	465.77
586.74	369.80
586.90	451.72
587.06	447.04
587.22	416.62
587.38	381.51
587.54	369.80
587.70	425.98
587.86	463.43
588.02	449.38
588.18	440.02
588.34	430.66
588.49	484.49
588.65	447.04
588.81	404.91
588.97	374.49
589.13	372.15
589.29	463.43
589.45	472.79
589.61	444.70
589.77	423.64
589.93	440.02
590.08	383.85
590.24	416.62
590.40	454.06
590.56	463.43
590.72	449.38
590.88	437.68
591.04	423.64
591.20	440.02
591.35	447.04
591.51	470.45
591.67	418.96
591.83	348.74
591.99	404.91
592.15	425.98
592.31	383.85
592.46	397.89
592.62	414.27
592.78	468.11
592.94	395.55
593.10	404.91
593.26	435.34
593.41	414.27
593.57	400.23
593.73	458.74
593.89	362.78
594.05	365.12
594.20	374.49
594.36	379.17
594.52	442.36
594.68	435.34
594.84	451.72
594.99	468.11
595.15	461.09
595.31	430.66
595.47	428.32
595.62	369.80
595.78	461.09
595.94	386.19
596.10	463.43
596.25	454.06
596.41	365.12
596.57	454.06
596.73	428.32
596.88	465.77
597.04	423.64
597.20	374.49
597.36	433.00
597.51	381.51
597.67	358.10
597.83	486.83
597.99	407.25
598.14	416.62
598.30	447.04
598.46	512.58
598.61	414.27
598.77	383.85
598.93	433.00
599.09	402.57
599.24	386.19
599.40	409.59
599.56	374.49
599.71	468.11
599.87	489.17
600.03	416.62
600.18	339.38
600.34	418.96
600.50	367.46
600.65	341.72
600.81	451.72
600.97	376.83
601.12	425.98
601.28	449.38
601.44	472.79
601.59	468.11
601.75	428.32
601.91	390.87
602.06	454.06
602.22	442.36
602.37	454.06
602.53	421.30
602.69	407.25
602.84	458.74
603.00	475.13
603.16	365.12
603.31	423.64
603.47	402.57
603.62	395.55
603.78	386.19
603.94	458.74
604.09	402.57
604.25	325.33
604.40	428.32
604.56	393.21
604.71	318.31
604.87	407.25
605.03	428.32
605.18	421.30
605.34	456.40
605.49	423.64
605.65	414.27
605.80	433.00
605.96	369.80
606.12	351.08
606.27	489.17
606.43	358.10
606.58	447.04
606.74	484.49
606.89	355.76
607.05	423.64
607.20	407.25
607.36	454.06
607.51	402.57
607.67	421.30
607.82	479.81
607.98	528.96
608.13	404.91
608.29	376.83
608.44	442.36
608.60	463.43
608.75	444.70
608.91	433.00
609.06	348.74
609.22	400.23
609.37	470.45
609.53	402.57
609.68	404.91
609.84	381.51
609.99	475.13
610.15	390.87
