SpectraSuite Data File
++++++++++++++++++++++++++++++++++++
Date: Fri Oct 25 12:10:25 EDT 2013
User: price-jones
Dark Spectrum Present: No
Reference Spectrum Present: No
Number of Sampled Component Spectra: 1
Spectrometers: USB2+H05261
Integration Time (usec): 100000 (USB2+H05261)
Spectra Averaged: 1 (USB2+H05261)
Boxcar Smoothing: 0 (USB2+H05261)
Correct for Electrical Dark: No (USB2+H05261)
Strobe/Lamp Enabled: No (USB2+H05261)
Correct for Detector Non-linearity: No (USB2+H05261)
Correct for Stray Light: No (USB2+H05261)
Number of Pixels in Processed Spectrum: 2048
>>>>>Begin Processed Spectral Data<<<<<
365.73	346.40
365.92	346.40
366.12	346.40
366.32	262.14
366.52	287.89
366.72	308.95
366.91	266.82
367.11	255.12
367.31	243.42
367.51	208.31
367.70	238.73
367.90	269.16
368.10	196.60
368.30	210.65
368.49	241.08
368.69	194.26
368.89	208.31
369.09	231.71
369.28	266.82
369.48	306.61
369.68	266.82
369.87	299.59
370.07	308.95
370.27	367.46
370.47	330.02
370.66	409.59
370.86	332.36
371.06	365.12
371.25	372.15
371.45	369.80
371.65	365.12
371.84	395.55
372.04	435.34
372.24	407.25
372.44	383.85
372.63	442.36
372.83	444.70
373.03	379.17
373.22	409.59
373.42	397.89
373.62	369.80
373.81	470.45
374.01	489.17
374.21	430.66
374.40	449.38
374.60	447.04
374.79	454.06
374.99	479.81
375.19	402.57
375.38	390.87
375.58	393.21
375.78	477.47
375.97	486.83
376.17	482.15
376.37	404.91
376.56	376.83
376.76	334.70
376.95	383.85
377.15	444.70
377.35	407.25
377.54	390.87
377.74	421.30
377.93	437.68
378.13	393.21
378.33	435.34
378.52	402.57
378.72	411.93
378.91	463.43
379.11	322.99
379.31	416.62
379.50	411.93
379.70	393.21
379.89	407.25
380.09	440.02
380.28	365.12
380.48	437.68
380.68	355.76
380.87	367.46
381.07	411.93
381.26	433.00
381.46	437.68
381.65	454.06
381.85	367.46
382.04	409.59
382.24	435.34
382.43	440.02
382.63	397.89
382.83	355.76
383.02	372.15
383.22	433.00
383.41	388.53
383.61	390.87
383.80	486.83
384.00	458.74
384.19	411.93
384.39	388.53
384.58	390.87
384.78	400.23
384.97	404.91
385.17	388.53
385.36	404.91
385.56	404.91
385.75	388.53
385.95	411.93
386.14	428.32
386.34	404.91
386.53	332.36
386.72	475.13
386.92	486.83
387.11	437.68
387.31	421.30
387.50	367.46
387.70	395.55
387.89	372.15
388.09	435.34
388.28	416.62
388.48	334.70
388.67	442.36
388.86	400.23
389.06	437.68
389.25	372.15
389.45	386.19
389.64	435.34
389.84	430.66
390.03	395.55
390.22	353.42
390.42	390.87
390.61	365.12
390.81	411.93
391.00	404.91
391.19	311.29
391.39	414.27
391.58	444.70
391.78	409.59
391.97	365.12
392.16	390.87
392.36	454.06
392.55	444.70
392.75	435.34
392.94	393.21
393.13	472.79
393.33	362.78
393.52	425.98
393.71	425.98
393.91	451.72
394.10	341.72
394.29	400.23
394.49	407.25
394.68	404.91
394.88	451.72
395.07	465.77
395.26	433.00
395.46	393.21
395.65	449.38
395.84	428.32
396.04	491.51
396.23	411.93
396.42	463.43
396.62	428.32
396.81	402.57
397.00	402.57
397.19	395.55
397.39	339.38
397.58	444.70
397.77	334.70
397.97	395.55
398.16	418.96
398.35	411.93
398.55	449.38
398.74	491.51
398.93	372.15
399.12	482.15
399.32	444.70
399.51	344.06
399.70	444.70
399.90	358.10
400.09	418.96
400.28	428.32
400.47	400.23
400.67	397.89
400.86	348.74
401.05	435.34
401.24	425.98
401.44	414.27
401.63	425.98
401.82	425.98
402.01	386.19
402.21	435.34
402.40	395.55
402.59	416.62
402.78	407.25
402.97	444.70
403.17	468.11
403.36	449.38
403.55	402.57
403.74	386.19
403.93	365.12
404.13	475.13
404.32	433.00
404.51	341.72
404.70	374.49
404.89	362.78
405.09	418.96
405.28	374.49
405.47	362.78
405.66	388.53
405.85	388.53
406.05	435.34
406.24	435.34
406.43	360.44
406.62	362.78
406.81	449.38
407.00	442.36
407.20	400.23
407.39	374.49
407.58	397.89
407.77	475.13
407.96	463.43
408.15	428.32
408.34	372.15
408.54	390.87
408.73	449.38
408.92	372.15
409.11	421.30
409.30	407.25
409.49	433.00
409.68	400.23
409.87	421.30
410.07	332.36
410.26	397.89
410.45	428.32
410.64	379.17
410.83	386.19
411.02	423.64
411.21	416.62
411.40	383.85
411.59	416.62
411.78	407.25
411.98	409.59
412.17	409.59
412.36	416.62
412.55	393.21
412.74	411.93
412.93	393.21
413.12	470.45
413.31	451.72
413.50	456.40
413.69	367.46
413.88	496.19
414.07	386.19
414.26	388.53
414.45	442.36
414.64	461.09
414.83	435.34
415.02	393.21
415.22	388.53
415.41	440.02
415.60	433.00
415.79	390.87
415.98	416.62
416.17	416.62
416.36	428.32
416.55	440.02
416.74	369.80
416.93	433.00
417.12	318.31
417.31	400.23
417.50	341.72
417.69	430.66
417.88	407.25
418.07	327.68
418.26	428.32
418.45	358.10
418.64	461.09
418.83	407.25
419.02	407.25
419.21	416.62
419.39	404.91
419.58	393.21
419.77	465.77
419.96	411.93
420.15	496.19
420.34	418.96
420.53	435.34
420.72	400.23
420.91	491.51
421.10	486.83
421.29	451.72
421.48	369.80
421.67	442.36
421.86	395.55
422.05	369.80
422.24	433.00
422.43	435.34
422.61	428.32
422.80	400.23
422.99	346.40
423.18	411.93
423.37	435.34
423.56	447.04
423.75	461.09
423.94	381.51
424.13	360.44
424.32	442.36
424.50	465.77
424.69	416.62
424.88	440.02
425.07	465.77
425.26	433.00
425.45	418.96
425.64	379.17
425.83	397.89
426.01	379.17
426.20	425.98
426.39	400.23
426.58	461.09
426.77	379.17
426.96	397.89
427.15	421.30
427.33	433.00
427.52	437.68
427.71	334.70
427.90	360.44
428.09	449.38
428.28	407.25
428.46	416.62
428.65	348.74
428.84	376.83
429.03	430.66
429.22	374.49
429.40	404.91
429.59	433.00
429.78	444.70
429.97	390.87
430.16	442.36
430.34	449.38
430.53	395.55
430.72	411.93
430.91	447.04
431.10	425.98
431.28	444.70
431.47	409.59
431.66	437.68
431.85	428.32
432.03	472.79
432.22	503.22
432.41	437.68
432.60	447.04
432.79	456.40
432.97	346.40
433.16	400.23
433.35	444.70
433.54	369.80
433.72	402.57
433.91	376.83
434.10	421.30
434.28	425.98
434.47	365.12
434.66	369.80
434.85	425.98
435.03	421.30
435.22	437.68
435.41	451.72
435.59	449.38
435.78	386.19
435.97	379.17
436.16	421.30
436.34	430.66
436.53	454.06
436.72	500.87
436.90	395.55
437.09	409.59
437.28	418.96
437.46	400.23
437.65	425.98
437.84	428.32
438.02	404.91
438.21	496.19
438.40	433.00
438.58	381.51
438.77	393.21
438.96	388.53
439.14	372.15
439.33	393.21
439.52	395.55
439.70	425.98
439.89	337.04
440.08	365.12
440.26	386.19
440.45	428.32
440.63	437.68
440.82	458.74
441.01	397.89
441.19	451.72
441.38	372.15
441.57	465.77
441.75	451.72
441.94	433.00
442.12	360.44
442.31	477.47
442.50	379.17
442.68	407.25
442.87	449.38
443.05	505.56
443.24	390.87
443.43	507.90
443.61	425.98
443.80	421.30
443.98	381.51
444.17	397.89
444.35	374.49
444.54	393.21
444.73	465.77
444.91	449.38
445.10	346.40
445.28	355.76
445.47	409.59
445.65	388.53
445.84	395.55
446.02	372.15
446.21	379.17
446.39	358.10
446.58	404.91
446.77	374.49
446.95	369.80
447.14	451.72
447.32	428.32
447.51	386.19
447.69	411.93
447.88	409.59
448.06	369.80
448.25	390.87
448.43	355.76
448.62	397.89
448.80	458.74
448.99	423.64
449.17	475.13
449.36	388.53
449.54	430.66
449.73	404.91
449.91	400.23
450.10	461.09
450.28	447.04
450.46	449.38
450.65	395.55
450.83	365.12
451.02	409.59
451.20	372.15
451.39	414.27
451.57	435.34
451.76	449.38
451.94	393.21
452.13	388.53
452.31	376.83
452.49	440.02
452.68	344.06
452.86	383.85
453.05	416.62
453.23	393.21
453.42	437.68
453.60	418.96
453.78	423.64
453.97	390.87
454.15	393.21
454.34	383.85
454.52	407.25
454.70	409.59
454.89	351.08
455.07	447.04
455.26	489.17
455.44	477.47
455.62	442.36
455.81	458.74
455.99	442.36
456.17	393.21
456.36	409.59
456.54	407.25
456.73	416.62
456.91	418.96
457.09	390.87
457.28	449.38
457.46	407.25
457.64	374.49
457.83	442.36
458.01	414.27
458.19	461.09
458.38	402.57
458.56	407.25
458.74	433.00
458.93	402.57
459.11	449.38
459.29	444.70
459.48	440.02
459.66	472.79
459.84	402.57
460.03	524.28
460.21	470.45
460.39	348.74
460.57	376.83
460.76	404.91
460.94	374.49
461.12	498.53
461.31	435.34
461.49	404.91
461.67	418.96
461.85	447.04
462.04	440.02
462.22	774.72
462.40	442.36
462.59	393.21
462.77	449.38
462.95	404.91
463.13	414.27
463.32	402.57
463.50	379.17
463.68	369.80
463.86	421.30
464.05	421.30
464.23	498.53
464.41	425.98
464.59	397.89
464.78	390.87
464.96	418.96
465.14	386.19
465.32	383.85
465.50	463.43
465.69	430.66
465.87	411.93
466.05	369.80
466.23	397.89
466.41	435.34
466.60	379.17
466.78	451.72
466.96	447.04
467.14	418.96
467.32	381.51
467.51	355.76
467.69	444.70
467.87	447.04
468.05	444.70
468.23	456.40
468.41	404.91
468.60	454.06
468.78	388.53
468.96	416.62
469.14	433.00
469.32	348.74
469.50	454.06
469.69	344.06
469.87	418.96
470.05	409.59
470.23	358.10
470.41	454.06
470.59	496.19
470.77	416.62
470.95	374.49
471.14	393.21
471.32	423.64
471.50	517.26
471.68	430.66
471.86	463.43
472.04	418.96
472.22	423.64
472.40	374.49
472.58	428.32
472.77	428.32
472.95	404.91
473.13	418.96
473.31	498.53
473.49	383.85
473.67	393.21
473.85	404.91
474.03	498.53
474.21	430.66
474.39	397.89
474.57	447.04
474.75	461.09
474.93	449.38
475.12	416.62
475.30	433.00
475.48	381.51
475.66	416.62
475.84	442.36
476.02	451.72
476.20	416.62
476.38	393.21
476.56	507.90
476.74	397.89
476.92	416.62
477.10	444.70
477.28	414.27
477.46	451.72
477.64	411.93
477.82	491.51
478.00	395.55
478.18	433.00
478.36	390.87
478.54	341.72
478.72	386.19
478.90	381.51
479.08	404.91
479.26	372.15
479.44	461.09
479.62	407.25
479.80	376.83
479.98	388.53
480.16	400.23
480.34	388.53
480.52	430.66
480.70	486.83
480.88	411.93
481.06	428.32
481.24	400.23
481.41	465.77
481.59	449.38
481.77	449.38
481.95	461.09
482.13	393.21
482.31	433.00
482.49	482.15
482.67	404.91
482.85	404.91
483.03	395.55
483.21	430.66
483.39	437.68
483.57	353.42
483.74	451.72
483.92	416.62
484.10	435.34
484.28	411.93
484.46	416.62
484.64	500.87
484.82	416.62
485.00	425.98
485.18	362.78
485.35	400.23
485.53	402.57
485.71	440.02
485.89	425.98
486.07	402.57
486.25	435.34
486.43	386.19
486.61	437.68
486.78	468.11
486.96	435.34
487.14	472.79
487.32	379.17
487.50	423.64
487.68	425.98
487.85	423.64
488.03	425.98
488.21	444.70
488.39	458.74
488.57	400.23
488.75	430.66
488.92	486.83
489.10	402.57
489.28	482.15
489.46	430.66
489.64	447.04
489.81	465.77
489.99	435.34
490.17	428.32
490.35	496.19
490.53	381.51
490.70	440.02
490.88	440.02
491.06	400.23
491.24	320.65
491.41	475.13
491.59	318.31
491.77	449.38
491.95	374.49
492.13	397.89
492.30	477.47
492.48	484.49
492.66	414.27
492.84	383.85
493.01	402.57
493.19	397.89
493.37	444.70
493.54	390.87
493.72	360.44
493.90	388.53
494.08	423.64
494.25	421.30
494.43	479.81
494.61	444.70
494.79	369.80
494.96	379.17
495.14	414.27
495.32	423.64
495.49	365.12
495.67	393.21
495.85	437.68
496.02	416.62
496.20	414.27
496.38	425.98
496.55	418.96
496.73	468.11
496.91	461.09
497.09	411.93
497.26	360.44
497.44	442.36
497.62	440.02
497.79	428.32
497.97	447.04
498.14	449.38
498.32	458.74
498.50	404.91
498.67	362.78
498.85	433.00
499.03	421.30
499.20	390.87
499.38	454.06
499.56	400.23
499.73	393.21
499.91	447.04
500.08	456.40
500.26	411.93
500.44	430.66
500.61	407.25
500.79	402.57
500.97	411.93
501.14	465.77
501.32	482.15
501.49	360.44
501.67	404.91
501.84	383.85
502.02	367.46
502.20	428.32
502.37	435.34
502.55	411.93
502.72	395.55
502.90	411.93
503.07	440.02
503.25	411.93
503.43	388.53
503.60	407.25
503.78	400.23
503.95	409.59
504.13	379.17
504.30	456.40
504.48	472.79
504.65	458.74
504.83	425.98
505.01	437.68
505.18	388.53
505.36	397.89
505.53	390.87
505.71	388.53
505.88	454.06
506.06	444.70
506.23	444.70
506.41	489.17
506.58	458.74
506.76	372.15
506.93	374.49
507.11	402.57
507.28	421.30
507.46	369.80
507.63	376.83
507.81	421.30
507.98	458.74
508.16	409.59
508.33	444.70
508.50	425.98
508.68	423.64
508.85	386.19
509.03	393.21
509.20	400.23
509.38	437.68
509.55	442.36
509.73	442.36
509.90	482.15
510.08	358.10
510.25	444.70
510.42	409.59
510.60	428.32
510.77	409.59
510.95	465.77
511.12	400.23
511.30	437.68
511.47	351.08
511.64	418.96
511.82	428.32
511.99	351.08
512.17	411.93
512.34	514.92
512.51	365.12
512.69	423.64
512.86	381.51
513.04	458.74
513.21	390.87
513.38	411.93
513.56	344.06
513.73	376.83
513.90	395.55
514.08	369.80
514.25	444.70
514.43	383.85
514.60	395.55
514.77	433.00
514.95	367.46
515.12	416.62
515.29	383.85
515.47	437.68
515.64	423.64
515.81	355.76
515.99	430.66
516.16	484.49
516.33	418.96
516.51	383.85
516.68	355.76
516.85	390.87
517.03	383.85
517.20	479.81
517.37	451.72
517.54	386.19
517.72	409.59
517.89	367.46
518.06	400.23
518.24	512.58
518.41	383.85
518.58	458.74
518.75	428.32
518.93	425.98
519.10	428.32
519.27	423.64
519.45	411.93
519.62	444.70
519.79	416.62
519.96	411.93
520.14	372.15
520.31	465.77
520.48	383.85
520.65	463.43
520.83	428.32
521.00	407.25
521.17	470.45
521.34	486.83
521.52	428.32
521.69	409.59
521.86	411.93
522.03	421.30
522.20	456.40
522.38	411.93
522.55	451.72
522.72	423.64
522.89	428.32
523.07	505.56
523.24	374.49
523.41	458.74
523.58	407.25
523.75	461.09
523.92	447.04
524.10	442.36
524.27	355.76
524.44	430.66
524.61	416.62
524.78	404.91
524.96	444.70
525.13	409.59
525.30	416.62
525.47	435.34
525.64	444.70
525.81	416.62
525.98	442.36
526.16	397.89
526.33	447.04
526.50	351.08
526.67	414.27
526.84	383.85
527.01	440.02
527.18	433.00
527.36	451.72
527.53	409.59
527.70	496.19
527.87	379.17
528.04	376.83
528.21	346.40
528.38	451.72
528.55	444.70
528.72	440.02
528.89	437.68
529.07	440.02
529.24	407.25
529.41	440.02
529.58	381.51
529.75	400.23
529.92	369.80
530.09	428.32
530.26	458.74
530.43	381.51
530.60	344.06
530.77	444.70
530.94	411.93
531.11	433.00
531.28	367.46
531.46	397.89
531.63	402.57
531.80	409.59
531.97	425.98
532.14	435.34
532.31	397.89
532.48	393.21
532.65	397.89
532.82	374.49
532.99	428.32
533.16	442.36
533.33	418.96
533.50	362.78
533.67	346.40
533.84	437.68
534.01	414.27
534.18	386.19
534.35	402.57
534.52	411.93
534.69	379.17
534.86	390.87
535.03	411.93
535.20	395.55
535.37	367.46
535.54	383.85
535.71	362.78
535.88	402.57
536.05	433.00
536.22	493.85
536.38	393.21
536.55	383.85
536.72	386.19
536.89	425.98
537.06	360.44
537.23	369.80
537.40	407.25
537.57	449.38
537.74	503.22
537.91	463.43
538.08	425.98
538.25	463.43
538.42	400.23
538.59	440.02
538.75	500.87
538.92	425.98
539.09	468.11
539.26	451.72
539.43	496.19
539.60	447.04
539.77	388.53
539.94	386.19
540.11	409.59
540.28	517.26
540.44	472.79
540.61	411.93
540.78	395.55
540.95	383.85
541.12	423.64
541.29	395.55
541.46	440.02
541.62	472.79
541.79	418.96
541.96	454.06
542.13	409.59
542.30	423.64
542.47	400.23
542.63	404.91
542.80	414.27
542.97	397.89
543.14	395.55
543.31	372.15
543.48	423.64
543.64	390.87
543.81	402.57
543.98	388.53
544.15	407.25
544.32	411.93
544.48	372.15
544.65	402.57
544.82	397.89
544.99	402.57
545.16	477.47
545.32	411.93
545.49	397.89
545.66	407.25
545.83	414.27
546.00	416.62
546.16	447.04
546.33	322.99
546.50	456.40
546.67	444.70
546.83	449.38
547.00	428.32
547.17	395.55
547.34	390.87
547.50	442.36
547.67	418.96
547.84	425.98
548.00	400.23
548.17	421.30
548.34	428.32
548.51	440.02
548.67	341.72
548.84	395.55
549.01	442.36
549.18	430.66
549.34	433.00
549.51	517.26
549.68	479.81
549.84	477.47
550.01	353.42
550.18	449.38
550.34	449.38
550.51	360.44
550.68	479.81
550.84	421.30
551.01	388.53
551.18	411.93
551.34	416.62
551.51	430.66
551.68	421.30
551.84	409.59
552.01	395.55
552.18	442.36
552.34	409.59
552.51	440.02
552.68	449.38
552.84	425.98
553.01	456.40
553.18	411.93
553.34	430.66
553.51	400.23
553.67	449.38
553.84	386.19
554.01	423.64
554.17	411.93
554.34	411.93
554.51	416.62
554.67	461.09
554.84	437.68
555.00	428.32
555.17	437.68
555.33	503.22
555.50	404.91
555.67	421.30
555.83	440.02
556.00	416.62
556.16	486.83
556.33	484.49
556.50	358.10
556.66	423.64
556.83	435.34
556.99	395.55
557.16	486.83
557.32	437.68
557.49	409.59
557.65	353.42
557.82	468.11
557.98	493.85
558.15	400.23
558.32	465.77
558.48	449.38
558.65	482.15
558.81	423.64
558.98	421.30
559.14	407.25
559.31	397.89
559.47	463.43
559.64	447.04
559.80	444.70
559.97	388.53
560.13	463.43
560.30	444.70
560.46	430.66
560.63	435.34
560.79	381.51
560.96	423.64
561.12	468.11
561.29	512.58
561.45	383.85
561.61	404.91
561.78	484.49
561.94	390.87
562.11	454.06
562.27	388.53
562.44	425.98
562.60	430.66
562.77	404.91
562.93	407.25
563.10	346.40
563.26	447.04
563.42	386.19
563.59	409.59
563.75	409.59
563.92	404.91
564.08	386.19
564.24	388.53
564.41	400.23
564.57	407.25
564.74	346.40
564.90	369.80
565.07	404.91
565.23	411.93
565.39	397.89
565.56	402.57
565.72	381.51
565.88	430.66
566.05	409.59
566.21	386.19
566.38	339.38
566.54	372.15
566.70	402.57
566.87	400.23
567.03	409.59
567.19	409.59
567.36	416.62
567.52	402.57
567.68	430.66
567.85	404.91
568.01	369.80
568.17	423.64
568.34	456.40
568.50	404.91
568.66	404.91
568.83	543.00
568.99	414.27
569.15	442.36
569.32	440.02
569.48	423.64
569.64	421.30
569.81	465.77
569.97	433.00
570.13	365.12
570.30	395.55
570.46	461.09
570.62	425.98
570.78	383.85
570.95	418.96
571.11	454.06
571.27	496.19
571.43	444.70
571.60	489.17
571.76	397.89
571.92	379.17
572.09	372.15
572.25	383.85
572.41	435.34
572.57	456.40
572.74	421.30
572.90	451.72
573.06	465.77
573.22	400.23
573.38	428.32
573.55	435.34
573.71	430.66
573.87	484.49
574.03	400.23
574.20	395.55
574.36	374.49
574.52	409.59
574.68	390.87
574.84	418.96
575.01	444.70
575.17	418.96
575.33	360.44
575.49	383.85
575.65	465.77
575.82	463.43
575.98	421.30
576.14	428.32
576.30	428.32
576.46	454.06
576.62	421.30
576.79	451.72
576.95	425.98
577.11	447.04
577.27	304.27
577.43	437.68
577.59	418.96
577.75	458.74
577.92	386.19
578.08	425.98
578.24	379.17
578.40	430.66
578.56	447.04
578.72	482.15
578.88	458.74
579.04	374.49
579.21	358.10
579.37	395.55
579.53	437.68
579.69	425.98
579.85	348.74
580.01	386.19
580.17	388.53
580.33	393.21
580.49	440.02
580.65	409.59
580.82	418.96
580.98	407.25
581.14	465.77
581.30	407.25
581.46	423.64
581.62	470.45
581.78	444.70
581.94	402.57
582.10	386.19
582.26	409.59
582.42	458.74
582.58	507.90
582.74	458.74
582.90	423.64
583.06	404.91
583.22	390.87
583.38	423.64
583.54	404.91
583.70	440.02
583.86	433.00
584.02	351.08
584.18	456.40
584.34	425.98
584.50	402.57
584.66	374.49
584.82	421.30
584.98	365.12
585.14	451.72
585.30	308.95
585.46	369.80
585.62	360.44
585.78	374.49
585.94	423.64
586.10	416.62
586.26	400.23
586.42	435.34
586.58	421.30
586.74	425.98
586.90	400.23
587.06	470.45
587.22	355.76
587.38	400.23
587.54	425.98
587.70	416.62
587.86	482.15
588.02	379.17
588.18	407.25
588.34	421.30
588.49	416.62
588.65	400.23
588.81	358.10
588.97	344.06
589.13	463.43
589.29	376.83
589.45	418.96
589.61	407.25
589.77	465.77
589.93	358.10
590.08	440.02
590.24	461.09
590.40	449.38
590.56	423.64
590.72	468.11
590.88	402.57
591.04	390.87
591.20	437.68
591.35	411.93
591.51	437.68
591.67	365.12
591.83	367.46
591.99	397.89
592.15	451.72
592.31	411.93
592.46	402.57
592.62	421.30
592.78	421.30
592.94	369.80
593.10	416.62
593.26	386.19
593.41	479.81
593.57	365.12
593.73	397.89
593.89	468.11
594.05	409.59
594.20	407.25
594.36	407.25
594.52	388.53
594.68	332.36
594.84	442.36
594.99	437.68
595.15	402.57
595.31	505.56
595.47	472.79
595.62	425.98
595.78	454.06
595.94	491.51
596.10	437.68
596.25	362.78
596.41	449.38
596.57	428.32
596.73	437.68
596.88	365.12
597.04	447.04
597.20	346.40
597.36	414.27
597.51	463.43
597.67	428.32
597.83	428.32
597.99	325.33
598.14	400.23
598.30	416.62
598.46	437.68
598.61	493.85
598.77	339.38
598.93	365.12
599.09	414.27
599.24	411.93
599.40	365.12
599.56	416.62
599.71	489.17
599.87	379.17
600.03	367.46
600.18	353.42
600.34	407.25
600.50	456.40
600.65	423.64
600.81	451.72
600.97	397.89
601.12	447.04
601.28	437.68
601.44	430.66
601.59	472.79
601.75	386.19
601.91	461.09
602.06	383.85
602.22	416.62
602.37	503.22
602.53	435.34
602.69	440.02
602.84	367.46
603.00	383.85
603.16	456.40
603.31	430.66
603.47	393.21
603.62	332.36
603.78	425.98
603.94	430.66
604.09	449.38
604.25	402.57
604.40	461.09
604.56	425.98
604.71	449.38
604.87	416.62
605.03	365.12
605.18	390.87
605.34	411.93
605.49	491.51
605.65	397.89
605.80	402.57
605.96	402.57
606.12	400.23
606.27	425.98
606.43	428.32
606.58	475.13
606.74	330.02
606.89	383.85
607.05	381.51
607.20	423.64
607.36	404.91
607.51	440.02
607.67	493.85
607.82	442.36
607.98	440.02
608.13	440.02
608.29	402.57
608.44	477.47
608.60	435.34
608.75	465.77
608.91	423.64
609.06	440.02
609.22	454.06
609.37	451.72
609.53	369.80
609.68	430.66
609.84	344.06
609.99	477.47
610.15	468.11
