SpectraSuite Data File
++++++++++++++++++++++++++++++++++++
Date: Fri Oct 25 12:11:29 EDT 2013
User: price-jones
Dark Spectrum Present: No
Reference Spectrum Present: No
Number of Sampled Component Spectra: 1
Spectrometers: USB2+H05261
Integration Time (usec): 100000 (USB2+H05261)
Spectra Averaged: 1 (USB2+H05261)
Boxcar Smoothing: 0 (USB2+H05261)
Correct for Electrical Dark: No (USB2+H05261)
Strobe/Lamp Enabled: No (USB2+H05261)
Correct for Detector Non-linearity: No (USB2+H05261)
Correct for Stray Light: No (USB2+H05261)
Number of Pixels in Processed Spectrum: 2048
>>>>>Begin Processed Spectral Data<<<<<
365.73	257.46
365.92	257.46
366.12	257.46
366.32	311.29
366.52	276.18
366.72	224.69
366.91	259.80
367.11	243.42
367.31	220.01
367.51	210.65
367.70	252.78
367.90	205.97
368.10	231.71
368.30	161.50
368.49	217.67
368.69	236.39
368.89	241.08
369.09	229.37
369.28	262.14
369.48	308.95
369.68	330.02
369.87	292.57
370.07	325.33
370.27	376.83
370.47	346.40
370.66	311.29
370.86	360.44
371.06	409.59
371.25	463.43
371.45	348.74
371.65	369.80
371.84	318.31
372.04	330.02
372.24	397.89
372.44	425.98
372.63	381.51
372.83	418.96
373.03	409.59
373.22	416.62
373.42	428.32
373.62	435.34
373.81	428.32
374.01	442.36
374.21	519.60
374.40	372.15
374.60	383.85
374.79	383.85
374.99	404.91
375.19	437.68
375.38	376.83
375.58	404.91
375.78	496.19
375.97	461.09
376.17	491.51
376.37	425.98
376.56	430.66
376.76	458.74
376.95	360.44
377.15	461.09
377.35	437.68
377.54	437.68
377.74	404.91
377.93	423.64
378.13	390.87
378.33	421.30
378.52	435.34
378.72	386.19
378.91	402.57
379.11	372.15
379.31	383.85
379.50	365.12
379.70	451.72
379.89	435.34
380.09	388.53
380.28	388.53
380.48	381.51
380.68	400.23
380.87	369.80
381.07	407.25
381.26	503.22
381.46	376.83
381.65	393.21
381.85	393.21
382.04	404.91
382.24	500.87
382.43	428.32
382.63	393.21
382.83	451.72
383.02	409.59
383.22	379.17
383.41	411.93
383.61	367.46
383.80	376.83
384.00	393.21
384.19	393.21
384.39	397.89
384.58	381.51
384.78	369.80
384.97	451.72
385.17	379.17
385.36	447.04
385.56	397.89
385.75	454.06
385.95	454.06
386.14	449.38
386.34	404.91
386.53	437.68
386.72	449.38
386.92	423.64
387.11	344.06
387.31	390.87
387.50	390.87
387.70	315.97
387.89	442.36
388.09	402.57
388.28	341.72
388.48	456.40
388.67	374.49
388.86	369.80
389.06	456.40
389.25	433.00
389.45	428.32
389.64	407.25
389.84	470.45
390.03	472.79
390.22	421.30
390.42	418.96
390.61	428.32
390.81	425.98
391.00	435.34
391.19	430.66
391.39	369.80
391.58	421.30
391.78	428.32
391.97	383.85
392.16	346.40
392.36	442.36
392.55	386.19
392.75	421.30
392.94	376.83
393.13	416.62
393.33	477.47
393.52	407.25
393.71	468.11
393.91	393.21
394.10	379.17
394.29	423.64
394.49	400.23
394.68	433.00
394.88	404.91
395.07	353.42
395.26	386.19
395.46	393.21
395.65	442.36
395.84	425.98
396.04	479.81
396.23	372.15
396.42	440.02
396.62	374.49
396.81	402.57
397.00	468.11
397.19	440.02
397.39	444.70
397.58	468.11
397.77	355.76
397.97	379.17
398.16	320.65
398.35	374.49
398.55	374.49
398.74	404.91
398.93	444.70
399.12	425.98
399.32	395.55
399.51	440.02
399.70	442.36
399.90	386.19
400.09	435.34
400.28	404.91
400.47	444.70
400.67	416.62
400.86	388.53
401.05	463.43
401.24	386.19
401.44	437.68
401.63	416.62
401.82	390.87
402.01	407.25
402.21	416.62
402.40	393.21
402.59	425.98
402.78	358.10
402.97	325.33
403.17	440.02
403.36	416.62
403.55	425.98
403.74	411.93
403.93	365.12
404.13	421.30
404.32	351.08
404.51	374.49
404.70	428.32
404.89	451.72
405.09	442.36
405.28	388.53
405.47	425.98
405.66	421.30
405.85	440.02
406.05	435.34
406.24	393.21
406.43	414.27
406.62	444.70
406.81	463.43
407.00	397.89
407.20	388.53
407.39	447.04
407.58	404.91
407.77	367.46
407.96	397.89
408.15	440.02
408.34	365.12
408.54	400.23
408.73	437.68
408.92	442.36
409.11	425.98
409.30	484.49
409.49	440.02
409.68	386.19
409.87	358.10
410.07	353.42
410.26	447.04
410.45	397.89
410.64	334.70
410.83	341.72
411.02	404.91
411.21	451.72
411.40	437.68
411.59	468.11
411.78	351.08
411.98	411.93
412.17	334.70
412.36	421.30
412.55	407.25
412.74	440.02
412.93	428.32
413.12	346.40
413.31	362.78
413.50	404.91
413.69	362.78
413.88	402.57
414.07	393.21
414.26	472.79
414.45	369.80
414.64	411.93
414.83	423.64
415.02	447.04
415.22	404.91
415.41	407.25
415.60	416.62
415.79	386.19
415.98	414.27
416.17	421.30
416.36	428.32
416.55	379.17
416.74	393.21
416.93	486.83
417.12	383.85
417.31	449.38
417.50	430.66
417.69	339.38
417.88	442.36
418.07	404.91
418.26	414.27
418.45	451.72
418.64	444.70
418.83	404.91
419.02	449.38
419.21	442.36
419.39	379.17
419.58	369.80
419.77	381.51
419.96	395.55
420.15	503.22
420.34	414.27
420.53	433.00
420.72	395.55
420.91	456.40
421.10	425.98
421.29	493.85
421.48	433.00
421.67	402.57
421.86	397.89
422.05	440.02
422.24	421.30
422.43	365.12
422.61	383.85
422.80	360.44
422.99	395.55
423.18	414.27
423.37	421.30
423.56	409.59
423.75	440.02
423.94	416.62
424.13	468.11
424.32	348.74
424.50	437.68
424.69	390.87
424.88	440.02
425.07	463.43
425.26	489.17
425.45	425.98
425.64	437.68
425.83	383.85
426.01	402.57
426.20	416.62
426.39	442.36
426.58	414.27
426.77	421.30
426.96	376.83
427.15	379.17
427.33	348.74
427.52	365.12
427.71	390.87
427.90	393.21
428.09	404.91
428.28	407.25
428.46	339.38
428.65	381.51
428.84	449.38
429.03	458.74
429.22	404.91
429.40	325.33
429.59	383.85
429.78	451.72
429.97	395.55
430.16	465.77
430.34	477.47
430.53	411.93
430.72	442.36
430.91	456.40
431.10	428.32
431.28	425.98
431.47	482.15
431.66	461.09
431.85	374.49
432.03	402.57
432.22	428.32
432.41	414.27
432.60	472.79
432.79	390.87
432.97	482.15
433.16	409.59
433.35	386.19
433.54	337.04
433.72	423.64
433.91	339.38
434.10	444.70
434.28	463.43
434.47	404.91
434.66	435.34
434.85	388.53
435.03	418.96
435.22	409.59
435.41	463.43
435.59	402.57
435.78	344.06
435.97	435.34
436.16	348.74
436.34	393.21
436.53	416.62
436.72	430.66
436.90	418.96
437.09	425.98
437.28	423.64
437.46	458.74
437.65	386.19
437.84	425.98
438.02	442.36
438.21	444.70
438.40	386.19
438.58	376.83
438.77	433.00
438.96	505.56
439.14	444.70
439.33	407.25
439.52	430.66
439.70	381.51
439.89	454.06
440.08	400.23
440.26	402.57
440.45	444.70
440.63	386.19
440.82	409.59
441.01	334.70
441.19	482.15
441.38	306.61
441.57	393.21
441.75	444.70
441.94	416.62
442.12	409.59
442.31	433.00
442.50	393.21
442.68	404.91
442.87	421.30
443.05	407.25
443.24	440.02
443.43	369.80
443.61	468.11
443.80	409.59
443.98	416.62
444.17	383.85
444.35	451.72
444.54	470.45
444.73	444.70
444.91	402.57
445.10	411.93
445.28	442.36
445.47	430.66
445.65	440.02
445.84	351.08
446.02	425.98
446.21	376.83
446.39	444.70
446.58	390.87
446.77	404.91
446.95	393.21
447.14	367.46
447.32	458.74
447.51	449.38
447.69	421.30
447.88	440.02
448.06	463.43
448.25	470.45
448.43	402.57
448.62	425.98
448.80	447.04
448.99	386.19
449.17	381.51
449.36	320.65
449.54	519.60
449.73	374.49
449.91	355.76
450.10	421.30
450.28	425.98
450.46	400.23
450.65	423.64
450.83	390.87
451.02	461.09
451.20	423.64
451.39	451.72
451.57	383.85
451.76	390.87
451.94	440.02
452.13	447.04
452.31	395.55
452.49	416.62
452.68	421.30
452.86	484.49
453.05	421.30
453.23	372.15
453.42	395.55
453.60	433.00
453.78	484.49
453.97	475.13
454.15	440.02
454.34	468.11
454.52	447.04
454.70	418.96
454.89	465.77
455.07	433.00
455.26	332.36
455.44	437.68
455.62	411.93
455.81	435.34
455.99	433.00
456.17	449.38
456.36	360.44
456.54	313.63
456.73	393.21
456.91	411.93
457.09	400.23
457.28	428.32
457.46	442.36
457.64	437.68
457.83	465.77
458.01	376.83
458.19	423.64
458.38	468.11
458.56	465.77
458.74	409.59
458.93	418.96
459.11	395.55
459.29	355.76
459.48	505.56
459.66	407.25
459.84	456.40
460.03	475.13
460.21	440.02
460.39	407.25
460.57	442.36
460.76	500.87
460.94	325.33
461.12	498.53
461.31	425.98
461.49	407.25
461.67	388.53
461.85	425.98
462.04	428.32
462.22	699.82
462.40	461.09
462.59	418.96
462.77	416.62
462.95	430.66
463.13	407.25
463.32	355.76
463.50	428.32
463.68	463.43
463.86	407.25
464.05	402.57
464.23	433.00
464.41	449.38
464.59	407.25
464.78	428.32
464.96	409.59
465.14	437.68
465.32	381.51
465.50	365.12
465.69	430.66
465.87	400.23
466.05	393.21
466.23	386.19
466.41	463.43
466.60	433.00
466.78	428.32
466.96	358.10
467.14	454.06
467.32	440.02
467.51	449.38
467.69	402.57
467.87	479.81
468.05	437.68
468.23	479.81
468.41	456.40
468.60	409.59
468.78	433.00
468.96	374.49
469.14	507.90
469.32	369.80
469.50	374.49
469.69	400.23
469.87	451.72
470.05	411.93
470.23	407.25
470.41	402.57
470.59	397.89
470.77	393.21
470.95	447.04
471.14	465.77
471.32	416.62
471.50	379.17
471.68	386.19
471.86	390.87
472.04	360.44
472.22	421.30
472.40	416.62
472.58	407.25
472.77	409.59
472.95	418.96
473.13	421.30
473.31	395.55
473.49	444.70
473.67	409.59
473.85	409.59
474.03	428.32
474.21	510.24
474.39	360.44
474.57	463.43
474.75	395.55
474.93	440.02
475.12	421.30
475.30	360.44
475.48	400.23
475.66	409.59
475.84	379.17
476.02	444.70
476.20	365.12
476.38	425.98
476.56	447.04
476.74	339.38
476.92	374.49
477.10	402.57
477.28	418.96
477.46	402.57
477.64	425.98
477.82	437.68
478.00	402.57
478.18	388.53
478.36	447.04
478.54	407.25
478.72	383.85
478.90	383.85
479.08	402.57
479.26	409.59
479.44	397.89
479.62	374.49
479.80	475.13
479.98	437.68
480.16	442.36
480.34	440.02
480.52	362.78
480.70	440.02
480.88	414.27
481.06	351.08
481.24	325.33
481.41	404.91
481.59	306.61
481.77	451.72
481.95	442.36
482.13	423.64
482.31	411.93
482.49	332.36
482.67	428.32
482.85	440.02
483.03	379.17
483.21	397.89
483.39	365.12
483.57	447.04
483.74	442.36
483.92	369.80
484.10	404.91
484.28	416.62
484.46	430.66
484.64	409.59
484.82	437.68
485.00	388.53
485.18	514.92
485.35	386.19
485.53	442.36
485.71	416.62
485.89	341.72
486.07	390.87
486.25	428.32
486.43	374.49
486.61	400.23
486.78	341.72
486.96	344.06
487.14	407.25
487.32	409.59
487.50	379.17
487.68	374.49
487.85	461.09
488.03	444.70
488.21	395.55
488.39	425.98
488.57	390.87
488.75	440.02
488.92	514.92
489.10	369.80
489.28	458.74
489.46	463.43
489.64	388.53
489.81	503.22
489.99	381.51
490.17	423.64
490.35	493.85
490.53	421.30
490.70	451.72
490.88	311.29
491.06	440.02
491.24	365.12
491.41	440.02
491.59	388.53
491.77	411.93
491.95	416.62
492.13	341.72
492.30	433.00
492.48	379.17
492.66	334.70
492.84	430.66
493.01	383.85
493.19	388.53
493.37	395.55
493.54	416.62
493.72	430.66
493.90	322.99
494.08	351.08
494.25	442.36
494.43	461.09
494.61	491.51
494.79	325.33
494.96	325.33
495.14	411.93
495.32	346.40
495.49	365.12
495.67	430.66
495.85	390.87
496.02	433.00
496.20	447.04
496.38	400.23
496.55	348.74
496.73	416.62
496.91	461.09
497.09	475.13
497.26	461.09
497.44	390.87
497.62	433.00
497.79	383.85
497.97	416.62
498.14	372.15
498.32	482.15
498.50	418.96
498.67	411.93
498.85	339.38
499.03	428.32
499.20	388.53
499.38	390.87
499.56	421.30
499.73	388.53
499.91	472.79
500.08	449.38
500.26	468.11
500.44	409.59
500.61	430.66
500.79	428.32
500.97	397.89
501.14	390.87
501.32	409.59
501.49	444.70
501.67	421.30
501.84	322.99
502.02	393.21
502.20	463.43
502.37	482.15
502.55	454.06
502.72	414.27
502.90	407.25
503.07	447.04
503.25	430.66
503.43	409.59
503.60	437.68
503.78	411.93
503.95	355.76
504.13	372.15
504.30	341.72
504.48	433.00
504.65	390.87
504.83	411.93
505.01	433.00
505.18	365.12
505.36	407.25
505.53	400.23
505.71	470.45
505.88	456.40
506.06	388.53
506.23	454.06
506.41	407.25
506.58	447.04
506.76	425.98
506.93	397.89
507.11	416.62
507.28	376.83
507.46	418.96
507.63	423.64
507.81	475.13
507.98	400.23
508.16	393.21
508.33	390.87
508.50	437.68
508.68	416.62
508.85	477.47
509.03	383.85
509.20	416.62
509.38	458.74
509.55	393.21
509.73	447.04
509.90	402.57
510.08	440.02
510.25	423.64
510.42	421.30
510.60	423.64
510.77	484.49
510.95	418.96
511.12	409.59
511.30	479.81
511.47	421.30
511.64	444.70
511.82	411.93
511.99	437.68
512.17	418.96
512.34	367.46
512.51	433.00
512.69	334.70
512.86	465.77
513.04	379.17
513.21	444.70
513.38	397.89
513.56	411.93
513.73	400.23
513.90	414.27
514.08	330.02
514.25	458.74
514.43	430.66
514.60	390.87
514.77	376.83
514.95	416.62
515.12	475.13
515.29	444.70
515.47	444.70
515.64	442.36
515.81	423.64
515.99	475.13
516.16	435.34
516.33	397.89
516.51	388.53
516.68	358.10
516.85	458.74
517.03	393.21
517.20	414.27
517.37	458.74
517.54	421.30
517.72	372.15
517.89	376.83
518.06	440.02
518.24	465.77
518.41	433.00
518.58	416.62
518.75	397.89
518.93	430.66
519.10	442.36
519.27	404.91
519.45	414.27
519.62	444.70
519.79	514.92
519.96	440.02
520.14	367.46
520.31	498.53
520.48	421.30
520.65	433.00
520.83	498.53
521.00	442.36
521.17	472.79
521.34	463.43
521.52	383.85
521.69	365.12
521.86	477.47
522.03	341.72
522.20	472.79
522.38	376.83
522.55	393.21
522.72	440.02
522.89	493.85
523.07	477.47
523.24	404.91
523.41	430.66
523.58	423.64
523.75	458.74
523.92	332.36
524.10	458.74
524.27	376.83
524.44	414.27
524.61	393.21
524.78	463.43
524.96	355.76
525.13	418.96
525.30	442.36
525.47	435.34
525.64	360.44
525.81	468.11
525.98	411.93
526.16	374.49
526.33	362.78
526.50	337.04
526.67	402.57
526.84	379.17
527.01	332.36
527.18	365.12
527.36	465.77
527.53	402.57
527.70	545.34
527.87	456.40
528.04	484.49
528.21	423.64
528.38	440.02
528.55	425.98
528.72	421.30
528.89	500.87
529.07	395.55
529.24	407.25
529.41	425.98
529.58	348.74
529.75	479.81
529.92	416.62
530.09	383.85
530.26	444.70
530.43	383.85
530.60	421.30
530.77	339.38
530.94	463.43
531.11	435.34
531.28	430.66
531.46	458.74
531.63	454.06
531.80	428.32
531.97	482.15
532.14	348.74
532.31	353.42
532.48	400.23
532.65	440.02
532.82	388.53
532.99	386.19
533.16	428.32
533.33	470.45
533.50	489.17
533.67	440.02
533.84	454.06
534.01	430.66
534.18	458.74
534.35	402.57
534.52	414.27
534.69	339.38
534.86	423.64
535.03	360.44
535.20	379.17
535.37	447.04
535.54	463.43
535.71	425.98
535.88	442.36
536.05	414.27
536.22	428.32
536.38	393.21
536.55	440.02
536.72	428.32
536.89	437.68
537.06	411.93
537.23	416.62
537.40	409.59
537.57	360.44
537.74	435.34
537.91	423.64
538.08	440.02
538.25	390.87
538.42	376.83
538.59	411.93
538.75	491.51
538.92	456.40
539.09	346.40
539.26	402.57
539.43	365.12
539.60	421.30
539.77	433.00
539.94	493.85
540.11	421.30
540.28	433.00
540.44	437.68
540.61	393.21
540.78	379.17
540.95	379.17
541.12	440.02
541.29	437.68
541.46	435.34
541.62	463.43
541.79	472.79
541.96	437.68
542.13	388.53
542.30	493.85
542.47	351.08
542.63	374.49
542.80	444.70
542.97	400.23
543.14	437.68
543.31	416.62
543.48	472.79
543.64	468.11
543.81	418.96
543.98	379.17
544.15	407.25
544.32	388.53
544.48	381.51
544.65	447.04
544.82	421.30
544.99	402.57
545.16	421.30
545.32	325.33
545.49	390.87
545.66	348.74
545.83	425.98
546.00	409.59
546.16	409.59
546.33	510.24
546.50	421.30
546.67	369.80
546.83	425.98
547.00	355.76
547.17	407.25
547.34	411.93
547.50	458.74
547.67	423.64
547.84	400.23
548.00	341.72
548.17	353.42
548.34	425.98
548.51	395.55
548.67	414.27
548.84	367.46
549.01	414.27
549.18	454.06
549.34	395.55
549.51	444.70
549.68	463.43
549.84	451.72
550.01	465.77
550.18	395.55
550.34	484.49
550.51	461.09
550.68	395.55
550.84	390.87
551.01	397.89
551.18	421.30
551.34	454.06
551.51	411.93
551.68	409.59
551.84	393.21
552.01	428.32
552.18	458.74
552.34	465.77
552.51	407.25
552.68	402.57
552.84	362.78
553.01	435.34
553.18	447.04
553.34	468.11
553.51	304.27
553.67	407.25
553.84	430.66
554.01	435.34
554.17	433.00
554.34	451.72
554.51	414.27
554.67	463.43
554.84	397.89
555.00	463.43
555.17	397.89
555.33	393.21
555.50	390.87
555.67	444.70
555.83	447.04
556.00	411.93
556.16	528.96
556.33	451.72
556.50	430.66
556.66	430.66
556.83	390.87
556.99	409.59
557.16	519.60
557.32	416.62
557.49	437.68
557.65	330.02
557.82	423.64
557.98	383.85
558.15	390.87
558.32	411.93
558.48	407.25
558.65	353.42
558.81	388.53
558.98	411.93
559.14	423.64
559.31	372.15
559.47	397.89
559.64	433.00
559.80	447.04
559.97	461.09
560.13	404.91
560.30	442.36
560.46	477.47
560.63	397.89
560.79	351.08
560.96	437.68
561.12	437.68
561.29	416.62
561.45	433.00
561.61	362.78
561.78	468.11
561.94	327.68
562.11	414.27
562.27	461.09
562.44	411.93
562.60	442.36
562.77	360.44
562.93	449.38
563.10	369.80
563.26	379.17
563.42	451.72
563.59	470.45
563.75	444.70
563.92	437.68
564.08	512.58
564.24	355.76
564.41	500.87
564.57	337.04
564.74	444.70
564.90	425.98
565.07	409.59
565.23	458.74
565.39	425.98
565.56	376.83
565.72	397.89
565.88	456.40
566.05	440.02
566.21	404.91
566.38	470.45
566.54	430.66
566.70	402.57
566.87	402.57
567.03	369.80
567.19	386.19
567.36	425.98
567.52	404.91
567.68	440.02
567.85	414.27
568.01	407.25
568.17	418.96
568.34	409.59
568.50	414.27
568.66	400.23
568.83	423.64
568.99	358.10
569.15	489.17
569.32	435.34
569.48	472.79
569.64	393.21
569.81	404.91
569.97	447.04
570.13	444.70
570.30	435.34
570.46	444.70
570.62	355.76
570.78	395.55
570.95	351.08
571.11	505.56
571.27	369.80
571.43	433.00
571.60	423.64
571.76	369.80
571.92	355.76
572.09	447.04
572.25	468.11
572.41	458.74
572.57	442.36
572.74	496.19
572.90	402.57
573.06	479.81
573.22	430.66
573.38	472.79
573.55	512.58
573.71	486.83
573.87	402.57
574.03	421.30
574.20	503.22
574.36	435.34
574.52	367.46
574.68	447.04
574.84	430.66
575.01	444.70
575.17	458.74
575.33	444.70
575.49	430.66
575.65	435.34
575.82	442.36
575.98	353.42
576.14	423.64
576.30	367.46
576.46	433.00
576.62	416.62
576.79	491.51
576.95	470.45
577.11	400.23
577.27	383.85
577.43	430.66
577.59	407.25
577.75	402.57
577.92	437.68
578.08	390.87
578.24	397.89
578.40	461.09
578.56	458.74
578.72	444.70
578.88	416.62
579.04	416.62
579.21	444.70
579.37	397.89
579.53	407.25
579.69	486.83
579.85	430.66
580.01	425.98
580.17	430.66
580.33	393.21
580.49	425.98
580.65	395.55
580.82	451.72
580.98	409.59
581.14	479.81
581.30	430.66
581.46	414.27
581.62	472.79
581.78	423.64
581.94	402.57
582.10	388.53
582.26	341.72
582.42	425.98
582.58	367.46
582.74	409.59
582.90	407.25
583.06	510.24
583.22	402.57
583.38	400.23
583.54	430.66
583.70	435.34
583.86	486.83
584.02	400.23
584.18	383.85
584.34	421.30
584.50	461.09
584.66	376.83
584.82	421.30
584.98	461.09
585.14	381.51
585.30	437.68
585.46	454.06
585.62	411.93
585.78	447.04
585.94	416.62
586.10	454.06
586.26	409.59
586.42	430.66
586.58	402.57
586.74	421.30
586.90	416.62
587.06	472.79
587.22	465.77
587.38	388.53
587.54	386.19
587.70	477.47
587.86	454.06
588.02	435.34
588.18	397.89
588.34	442.36
588.49	430.66
588.65	332.36
588.81	404.91
588.97	456.40
589.13	433.00
589.29	461.09
589.45	407.25
589.61	400.23
589.77	451.72
589.93	477.47
590.08	437.68
590.24	430.66
590.40	425.98
590.56	416.62
590.72	407.25
590.88	400.23
591.04	386.19
591.20	409.59
591.35	395.55
591.51	402.57
591.67	369.80
591.83	383.85
591.99	454.06
592.15	395.55
592.31	442.36
592.46	421.30
592.62	416.62
592.78	433.00
592.94	416.62
593.10	440.02
593.26	423.64
593.41	447.04
593.57	379.17
593.73	526.62
593.89	402.57
594.05	414.27
594.20	397.89
594.36	451.72
594.52	341.72
594.68	472.79
594.84	437.68
594.99	442.36
595.15	404.91
595.31	472.79
595.47	430.66
595.62	407.25
595.78	458.74
595.94	411.93
596.10	458.74
596.25	409.59
596.41	421.30
596.57	409.59
596.73	447.04
596.88	404.91
597.04	430.66
597.20	409.59
597.36	454.06
597.51	425.98
597.67	367.46
597.83	407.25
597.99	428.32
598.14	365.12
598.30	397.89
598.46	428.32
598.61	430.66
598.77	421.30
598.93	397.89
599.09	449.38
599.24	433.00
599.40	346.40
599.56	428.32
599.71	416.62
599.87	425.98
600.03	468.11
600.18	447.04
600.34	451.72
600.50	395.55
600.65	489.17
600.81	430.66
600.97	503.22
601.12	423.64
601.28	402.57
601.44	447.04
601.59	433.00
601.75	461.09
601.91	351.08
602.06	393.21
602.22	514.92
602.37	475.13
602.53	404.91
602.69	468.11
602.84	395.55
603.00	411.93
603.16	423.64
603.31	463.43
603.47	430.66
603.62	393.21
603.78	411.93
603.94	407.25
604.09	430.66
604.25	440.02
604.40	435.34
604.56	416.62
604.71	482.15
604.87	437.68
605.03	451.72
605.18	390.87
605.34	470.45
605.49	418.96
605.65	374.49
605.80	442.36
605.96	451.72
606.12	388.53
606.27	404.91
606.43	486.83
606.58	404.91
606.74	461.09
606.89	397.89
607.05	468.11
607.20	428.32
607.36	397.89
607.51	388.53
607.67	400.23
607.82	503.22
607.98	444.70
608.13	402.57
608.29	470.45
608.44	451.72
608.60	414.27
608.75	444.70
608.91	390.87
609.06	498.53
609.22	404.91
609.37	411.93
609.53	433.00
609.68	374.49
609.84	397.89
609.99	358.10
610.15	468.11
