SpectraSuite Data File
++++++++++++++++++++++++++++++++++++
Date: Fri Oct 25 12:10:05 EDT 2013
User: price-jones
Dark Spectrum Present: No
Reference Spectrum Present: No
Number of Sampled Component Spectra: 1
Spectrometers: USB2+H05261
Integration Time (usec): 100000 (USB2+H05261)
Spectra Averaged: 1 (USB2+H05261)
Boxcar Smoothing: 0 (USB2+H05261)
Correct for Electrical Dark: No (USB2+H05261)
Strobe/Lamp Enabled: No (USB2+H05261)
Correct for Detector Non-linearity: No (USB2+H05261)
Correct for Stray Light: No (USB2+H05261)
Number of Pixels in Processed Spectrum: 2048
>>>>>Begin Processed Spectral Data<<<<<
365.73	442.36
365.92	442.36
366.12	442.36
366.32	313.63
366.52	201.29
366.72	264.48
366.91	229.37
367.11	229.37
367.31	166.18
367.51	266.82
367.70	217.67
367.90	273.84
368.10	290.23
368.30	250.44
368.49	264.48
368.69	346.40
368.89	161.50
369.09	224.69
369.28	257.46
369.48	269.16
369.68	266.82
369.87	325.33
370.07	243.42
370.27	337.04
370.47	372.15
370.66	353.42
370.86	320.65
371.06	341.72
371.25	390.87
371.45	339.38
371.65	320.65
371.84	325.33
372.04	334.70
372.24	395.55
372.44	416.62
372.63	353.42
372.83	440.02
373.03	400.23
373.22	461.09
373.42	374.49
373.62	381.51
373.81	430.66
374.01	440.02
374.21	449.38
374.40	397.89
374.60	435.34
374.79	465.77
374.99	463.43
375.19	482.15
375.38	404.91
375.58	463.43
375.78	449.38
375.97	348.74
376.17	437.68
376.37	418.96
376.56	414.27
376.76	418.96
376.95	414.27
377.15	393.21
377.35	400.23
377.54	409.59
377.74	402.57
377.93	388.53
378.13	404.91
378.33	397.89
378.52	369.80
378.72	386.19
378.91	430.66
379.11	379.17
379.31	393.21
379.50	388.53
379.70	465.77
379.89	355.76
380.09	400.23
380.28	355.76
380.48	400.23
380.68	374.49
380.87	440.02
381.07	374.49
381.26	383.85
381.46	407.25
381.65	376.83
381.85	435.34
382.04	421.30
382.24	461.09
382.43	327.68
382.63	383.85
382.83	400.23
383.02	425.98
383.22	468.11
383.41	372.15
383.61	421.30
383.80	456.40
384.00	388.53
384.19	411.93
384.39	365.12
384.58	400.23
384.78	372.15
384.97	388.53
385.17	442.36
385.36	442.36
385.56	383.85
385.75	411.93
385.95	428.32
386.14	402.57
386.34	409.59
386.53	367.46
386.72	348.74
386.92	440.02
387.11	430.66
387.31	430.66
387.50	358.10
387.70	332.36
387.89	341.72
388.09	388.53
388.28	344.06
388.48	416.62
388.67	414.27
388.86	365.12
389.06	486.83
389.25	437.68
389.45	402.57
389.64	416.62
389.84	423.64
390.03	355.76
390.22	381.51
390.42	402.57
390.61	383.85
390.81	365.12
391.00	454.06
391.19	454.06
391.39	360.44
391.58	388.53
391.78	393.21
391.97	365.12
392.16	358.10
392.36	407.25
392.55	393.21
392.75	365.12
392.94	383.85
393.13	421.30
393.33	386.19
393.52	393.21
393.71	404.91
393.91	433.00
394.10	409.59
394.29	456.40
394.49	360.44
394.68	376.83
394.88	447.04
395.07	388.53
395.26	428.32
395.46	416.62
395.65	437.68
395.84	407.25
396.04	449.38
396.23	409.59
396.42	376.83
396.62	402.57
396.81	351.08
397.00	360.44
397.19	379.17
397.39	440.02
397.58	393.21
397.77	437.68
397.97	482.15
398.16	428.32
398.35	346.40
398.55	367.46
398.74	402.57
398.93	430.66
399.12	454.06
399.32	409.59
399.51	449.38
399.70	409.59
399.90	411.93
400.09	372.15
400.28	411.93
400.47	437.68
400.67	400.23
400.86	414.27
401.05	365.12
401.24	430.66
401.44	395.55
401.63	379.17
401.82	475.13
402.01	334.70
402.21	383.85
402.40	468.11
402.59	435.34
402.78	435.34
402.97	411.93
403.17	491.51
403.36	395.55
403.55	400.23
403.74	414.27
403.93	433.00
404.13	372.15
404.32	390.87
404.51	372.15
404.70	407.25
404.89	400.23
405.09	400.23
405.28	388.53
405.47	414.27
405.66	402.57
405.85	411.93
406.05	332.36
406.24	318.31
406.43	409.59
406.62	425.98
406.81	465.77
407.00	425.98
407.20	400.23
407.39	395.55
407.58	449.38
407.77	465.77
407.96	383.85
408.15	404.91
408.34	325.33
408.54	369.80
408.73	428.32
408.92	402.57
409.11	383.85
409.30	433.00
409.49	355.76
409.68	409.59
409.87	388.53
410.07	430.66
410.26	351.08
410.45	379.17
410.64	360.44
410.83	355.76
411.02	318.31
411.21	428.32
411.40	393.21
411.59	407.25
411.78	390.87
411.98	472.79
412.17	379.17
412.36	437.68
412.55	440.02
412.74	428.32
412.93	411.93
413.12	428.32
413.31	425.98
413.50	411.93
413.69	454.06
413.88	421.30
414.07	425.98
414.26	334.70
414.45	416.62
414.64	404.91
414.83	500.87
415.02	421.30
415.22	346.40
415.41	500.87
415.60	428.32
415.79	388.53
415.98	496.19
416.17	425.98
416.36	449.38
416.55	409.59
416.74	435.34
416.93	510.24
417.12	421.30
417.31	369.80
417.50	411.93
417.69	404.91
417.88	423.64
418.07	386.19
418.26	400.23
418.45	367.46
418.64	409.59
418.83	376.83
419.02	351.08
419.21	433.00
419.39	414.27
419.58	388.53
419.77	395.55
419.96	425.98
420.15	447.04
420.34	383.85
420.53	411.93
420.72	404.91
420.91	470.45
421.10	344.06
421.29	393.21
421.48	362.78
421.67	442.36
421.86	381.51
422.05	411.93
422.24	414.27
422.43	374.49
422.61	383.85
422.80	369.80
422.99	442.36
423.18	369.80
423.37	418.96
423.56	472.79
423.75	390.87
423.94	393.21
424.13	416.62
424.32	369.80
424.50	372.15
424.69	388.53
424.88	425.98
425.07	381.51
425.26	423.64
425.45	344.06
425.64	383.85
425.83	383.85
426.01	458.74
426.20	416.62
426.39	444.70
426.58	454.06
426.77	458.74
426.96	435.34
427.15	390.87
427.33	402.57
427.52	400.23
427.71	393.21
427.90	376.83
428.09	353.42
428.28	449.38
428.46	458.74
428.65	428.32
428.84	423.64
429.03	514.92
429.22	388.53
429.40	428.32
429.59	468.11
429.78	435.34
429.97	386.19
430.16	386.19
430.34	397.89
430.53	381.51
430.72	409.59
430.91	451.72
431.10	393.21
431.28	454.06
431.47	397.89
431.66	416.62
431.85	430.66
432.03	411.93
432.22	435.34
432.41	393.21
432.60	442.36
432.79	367.46
432.97	369.80
433.16	395.55
433.35	339.38
433.54	355.76
433.72	355.76
433.91	386.19
434.10	449.38
434.28	318.31
434.47	367.46
434.66	416.62
434.85	486.83
435.03	477.47
435.22	451.72
435.41	479.81
435.59	526.62
435.78	395.55
435.97	444.70
436.16	416.62
436.34	344.06
436.53	376.83
436.72	442.36
436.90	433.00
437.09	346.40
437.28	418.96
437.46	346.40
437.65	465.77
437.84	411.93
438.02	393.21
438.21	407.25
438.40	379.17
438.58	360.44
438.77	421.30
438.96	404.91
439.14	376.83
439.33	440.02
439.52	454.06
439.70	402.57
439.89	475.13
440.08	397.89
440.26	425.98
440.45	435.34
440.63	496.19
440.82	482.15
441.01	339.38
441.19	400.23
441.38	454.06
441.57	451.72
441.75	390.87
441.94	451.72
442.12	475.13
442.31	456.40
442.50	400.23
442.68	444.70
442.87	409.59
443.05	409.59
443.24	372.15
443.43	437.68
443.61	458.74
443.80	355.76
443.98	388.53
444.17	402.57
444.35	447.04
444.54	395.55
444.73	346.40
444.91	437.68
445.10	397.89
445.28	397.89
445.47	442.36
445.65	414.27
445.84	390.87
446.02	395.55
446.21	433.00
446.39	430.66
446.58	388.53
446.77	416.62
446.95	404.91
447.14	416.62
447.32	423.64
447.51	355.76
447.69	365.12
447.88	379.17
448.06	437.68
448.25	433.00
448.43	388.53
448.62	358.10
448.80	362.78
448.99	411.93
449.17	437.68
449.36	348.74
449.54	463.43
449.73	376.83
449.91	449.38
450.10	311.29
450.28	475.13
450.46	454.06
450.65	461.09
450.83	383.85
451.02	369.80
451.20	463.43
451.39	421.30
451.57	414.27
451.76	425.98
451.94	442.36
452.13	505.56
452.31	386.19
452.49	308.95
452.68	386.19
452.86	400.23
453.05	414.27
453.23	362.78
453.42	400.23
453.60	421.30
453.78	376.83
453.97	383.85
454.15	353.42
454.34	374.49
454.52	449.38
454.70	463.43
454.89	425.98
455.07	400.23
455.26	383.85
455.44	400.23
455.62	468.11
455.81	435.34
455.99	414.27
456.17	486.83
456.36	498.53
456.54	430.66
456.73	376.83
456.91	393.21
457.09	388.53
457.28	418.96
457.46	416.62
457.64	444.70
457.83	433.00
458.01	397.89
458.19	404.91
458.38	374.49
458.56	416.62
458.74	414.27
458.93	482.15
459.11	444.70
459.29	435.34
459.48	418.96
459.66	451.72
459.84	381.51
460.03	449.38
460.21	334.70
460.39	369.80
460.57	409.59
460.76	461.09
460.94	468.11
461.12	470.45
461.31	482.15
461.49	461.09
461.67	425.98
461.85	435.34
462.04	369.80
462.22	793.44
462.40	468.11
462.59	372.15
462.77	337.04
462.95	428.32
463.13	353.42
463.32	414.27
463.50	444.70
463.68	423.64
463.86	423.64
464.05	418.96
464.23	390.87
464.41	456.40
464.59	395.55
464.78	423.64
464.96	358.10
465.14	463.43
465.32	409.59
465.50	402.57
465.69	468.11
465.87	461.09
466.05	461.09
466.23	372.15
466.41	376.83
466.60	372.15
466.78	409.59
466.96	358.10
467.14	430.66
467.32	386.19
467.51	393.21
467.69	435.34
467.87	461.09
468.05	416.62
468.23	524.28
468.41	409.59
468.60	365.12
468.78	411.93
468.96	372.15
469.14	395.55
469.32	454.06
469.50	451.72
469.69	425.98
469.87	344.06
470.05	386.19
470.23	456.40
470.41	447.04
470.59	374.49
470.77	395.55
470.95	411.93
471.14	383.85
471.32	334.70
471.50	444.70
471.68	360.44
471.86	444.70
472.04	444.70
472.22	400.23
472.40	414.27
472.58	397.89
472.77	386.19
472.95	433.00
473.13	454.06
473.31	355.76
473.49	360.44
473.67	393.21
473.85	430.66
474.03	430.66
474.21	402.57
474.39	416.62
474.57	383.85
474.75	386.19
474.93	367.46
475.12	367.46
475.30	423.64
475.48	386.19
475.66	433.00
475.84	437.68
476.02	404.91
476.20	374.49
476.38	414.27
476.56	437.68
476.74	407.25
476.92	409.59
477.10	435.34
477.28	461.09
477.46	400.23
477.64	376.83
477.82	461.09
478.00	428.32
478.18	407.25
478.36	411.93
478.54	447.04
478.72	376.83
478.90	447.04
479.08	423.64
479.26	402.57
479.44	386.19
479.62	360.44
479.80	414.27
479.98	421.30
480.16	376.83
480.34	437.68
480.52	390.87
480.70	395.55
480.88	409.59
481.06	383.85
481.24	376.83
481.41	400.23
481.59	451.72
481.77	358.10
481.95	379.17
482.13	397.89
482.31	388.53
482.49	404.91
482.67	404.91
482.85	369.80
483.03	425.98
483.21	383.85
483.39	447.04
483.57	449.38
483.74	470.45
483.92	458.74
484.10	397.89
484.28	435.34
484.46	470.45
484.64	383.85
484.82	425.98
485.00	386.19
485.18	425.98
485.35	414.27
485.53	425.98
485.71	451.72
485.89	414.27
486.07	423.64
486.25	514.92
486.43	381.51
486.61	428.32
486.78	376.83
486.96	404.91
487.14	407.25
487.32	486.83
487.50	472.79
487.68	402.57
487.85	430.66
488.03	395.55
488.21	442.36
488.39	468.11
488.57	433.00
488.75	362.78
488.92	514.92
489.10	454.06
489.28	475.13
489.46	395.55
489.64	458.74
489.81	465.77
489.99	383.85
490.17	451.72
490.35	477.47
490.53	444.70
490.70	454.06
490.88	423.64
491.06	416.62
491.24	433.00
491.41	376.83
491.59	430.66
491.77	416.62
491.95	402.57
492.13	379.17
492.30	362.78
492.48	425.98
492.66	468.11
492.84	409.59
493.01	372.15
493.19	388.53
493.37	407.25
493.54	451.72
493.72	409.59
493.90	402.57
494.08	444.70
494.25	407.25
494.43	404.91
494.61	299.59
494.79	386.19
494.96	458.74
495.14	447.04
495.32	430.66
495.49	407.25
495.67	425.98
495.85	351.08
496.02	379.17
496.20	458.74
496.38	397.89
496.55	461.09
496.73	430.66
496.91	470.45
497.09	418.96
497.26	454.06
497.44	383.85
497.62	421.30
497.79	444.70
497.97	414.27
498.14	414.27
498.32	409.59
498.50	437.68
498.67	337.04
498.85	470.45
499.03	355.76
499.20	393.21
499.38	367.46
499.56	407.25
499.73	421.30
499.91	428.32
500.08	421.30
500.26	428.32
500.44	383.85
500.61	404.91
500.79	386.19
500.97	463.43
501.14	433.00
501.32	344.06
501.49	472.79
501.67	390.87
501.84	440.02
502.02	407.25
502.20	330.02
502.37	390.87
502.55	402.57
502.72	376.83
502.90	404.91
503.07	456.40
503.25	444.70
503.43	414.27
503.60	414.27
503.78	416.62
503.95	451.72
504.13	425.98
504.30	447.04
504.48	472.79
504.65	388.53
504.83	433.00
505.01	411.93
505.18	440.02
505.36	388.53
505.53	449.38
505.71	447.04
505.88	428.32
506.06	407.25
506.23	414.27
506.41	404.91
506.58	470.45
506.76	505.56
506.93	416.62
507.11	437.68
507.28	386.19
507.46	376.83
507.63	458.74
507.81	498.53
507.98	362.78
508.16	374.49
508.33	388.53
508.50	477.47
508.68	451.72
508.85	400.23
509.03	358.10
509.20	367.46
509.38	421.30
509.55	409.59
509.73	369.80
509.90	437.68
510.08	376.83
510.25	447.04
510.42	451.72
510.60	465.77
510.77	440.02
510.95	444.70
511.12	484.49
511.30	456.40
511.47	425.98
511.64	428.32
511.82	409.59
511.99	437.68
512.17	437.68
512.34	418.96
512.51	479.81
512.69	461.09
512.86	351.08
513.04	418.96
513.21	411.93
513.38	442.36
513.56	404.91
513.73	388.53
513.90	444.70
514.08	383.85
514.25	376.83
514.43	454.06
514.60	395.55
514.77	411.93
514.95	456.40
515.12	437.68
515.29	395.55
515.47	360.44
515.64	388.53
515.81	400.23
515.99	447.04
516.16	402.57
516.33	479.81
516.51	435.34
516.68	337.04
516.85	409.59
517.03	369.80
517.20	402.57
517.37	416.62
517.54	428.32
517.72	367.46
517.89	397.89
518.06	477.47
518.24	386.19
518.41	449.38
518.58	409.59
518.75	383.85
518.93	449.38
519.10	411.93
519.27	442.36
519.45	404.91
519.62	456.40
519.79	388.53
519.96	358.10
520.14	418.96
520.31	374.49
520.48	442.36
520.65	421.30
520.83	430.66
521.00	465.77
521.17	461.09
521.34	423.64
521.52	411.93
521.69	418.96
521.86	388.53
522.03	512.58
522.20	533.64
522.38	458.74
522.55	369.80
522.72	388.53
522.89	437.68
523.07	475.13
523.24	524.28
523.41	416.62
523.58	388.53
523.75	444.70
523.92	433.00
524.10	315.97
524.27	421.30
524.44	365.12
524.61	463.43
524.78	407.25
524.96	465.77
525.13	393.21
525.30	400.23
525.47	400.23
525.64	414.27
525.81	383.85
525.98	430.66
526.16	411.93
526.33	332.36
526.50	437.68
526.67	411.93
526.84	381.51
527.01	402.57
527.18	440.02
527.36	437.68
527.53	435.34
527.70	463.43
527.87	430.66
528.04	383.85
528.21	409.59
528.38	404.91
528.55	416.62
528.72	414.27
528.89	425.98
529.07	500.87
529.24	437.68
529.41	423.64
529.58	360.44
529.75	381.51
529.92	397.89
530.09	414.27
530.26	454.06
530.43	421.30
530.60	395.55
530.77	367.46
530.94	486.83
531.11	479.81
531.28	433.00
531.46	395.55
531.63	430.66
531.80	400.23
531.97	383.85
532.14	416.62
532.31	409.59
532.48	444.70
532.65	372.15
532.82	379.17
532.99	404.91
533.16	425.98
533.33	430.66
533.50	416.62
533.67	386.19
533.84	367.46
534.01	423.64
534.18	400.23
534.35	402.57
534.52	414.27
534.69	447.04
534.86	444.70
535.03	409.59
535.20	395.55
535.37	447.04
535.54	414.27
535.71	461.09
535.88	465.77
536.05	397.89
536.22	461.09
536.38	418.96
536.55	414.27
536.72	430.66
536.89	367.46
537.06	341.72
537.23	411.93
537.40	423.64
537.57	376.83
537.74	514.92
537.91	418.96
538.08	376.83
538.25	374.49
538.42	339.38
538.59	416.62
538.75	444.70
538.92	463.43
539.09	388.53
539.26	449.38
539.43	491.51
539.60	395.55
539.77	430.66
539.94	479.81
540.11	440.02
540.28	388.53
540.44	433.00
540.61	421.30
540.78	400.23
540.95	383.85
541.12	418.96
541.29	376.83
541.46	423.64
541.62	468.11
541.79	416.62
541.96	456.40
542.13	409.59
542.30	381.51
542.47	414.27
542.63	395.55
542.80	433.00
542.97	449.38
543.14	374.49
543.31	407.25
543.48	461.09
543.64	407.25
543.81	475.13
543.98	358.10
544.15	440.02
544.32	341.72
544.48	407.25
544.65	367.46
544.82	440.02
544.99	383.85
545.16	514.92
545.32	505.56
545.49	402.57
545.66	421.30
545.83	365.12
546.00	402.57
546.16	374.49
546.33	386.19
546.50	367.46
546.67	442.36
546.83	374.49
547.00	369.80
547.17	395.55
547.34	449.38
547.50	433.00
547.67	404.91
547.84	430.66
548.00	386.19
548.17	418.96
548.34	372.15
548.51	447.04
548.67	440.02
548.84	367.46
549.01	456.40
549.18	463.43
549.34	409.59
549.51	409.59
549.68	437.68
549.84	393.21
550.01	348.74
550.18	479.81
550.34	470.45
550.51	482.15
550.68	484.49
550.84	388.53
551.01	411.93
551.18	376.83
551.34	411.93
551.51	414.27
551.68	418.96
551.84	388.53
552.01	400.23
552.18	400.23
552.34	400.23
552.51	402.57
552.68	379.17
552.84	433.00
553.01	430.66
553.18	451.72
553.34	428.32
553.51	381.51
553.67	393.21
553.84	489.17
554.01	456.40
554.17	360.44
554.34	411.93
554.51	449.38
554.67	454.06
554.84	404.91
555.00	395.55
555.17	428.32
555.33	421.30
555.50	435.34
555.67	390.87
555.83	372.15
556.00	430.66
556.16	566.41
556.33	468.11
556.50	430.66
556.66	479.81
556.83	351.08
556.99	425.98
557.16	482.15
557.32	475.13
557.49	360.44
557.65	407.25
557.82	393.21
557.98	503.22
558.15	414.27
558.32	486.83
558.48	376.83
558.65	400.23
558.81	411.93
558.98	355.76
559.14	442.36
559.31	444.70
559.47	442.36
559.64	425.98
559.80	402.57
559.97	416.62
560.13	388.53
560.30	383.85
560.46	461.09
560.63	402.57
560.79	458.74
560.96	372.15
561.12	390.87
561.29	407.25
561.45	435.34
561.61	383.85
561.78	493.85
561.94	444.70
562.11	433.00
562.27	407.25
562.44	397.89
562.60	451.72
562.77	421.30
562.93	503.22
563.10	379.17
563.26	472.79
563.42	395.55
563.59	468.11
563.75	423.64
563.92	397.89
564.08	461.09
564.24	404.91
564.41	440.02
564.57	362.78
564.74	383.85
564.90	454.06
565.07	458.74
565.23	390.87
565.39	397.89
565.56	496.19
565.72	411.93
565.88	395.55
566.05	390.87
566.21	374.49
566.38	442.36
566.54	454.06
566.70	379.17
566.87	444.70
567.03	430.66
567.19	454.06
567.36	472.79
567.52	437.68
567.68	407.25
567.85	425.98
568.01	428.32
568.17	484.49
568.34	428.32
568.50	442.36
568.66	374.49
568.83	444.70
568.99	332.36
569.15	496.19
569.32	418.96
569.48	437.68
569.64	463.43
569.81	416.62
569.97	416.62
570.13	397.89
570.30	346.40
570.46	433.00
570.62	407.25
570.78	404.91
570.95	428.32
571.11	463.43
571.27	418.96
571.43	428.32
571.60	470.45
571.76	374.49
571.92	465.77
572.09	402.57
572.25	423.64
572.41	472.79
572.57	435.34
572.74	440.02
572.90	479.81
573.06	407.25
573.22	362.78
573.38	418.96
573.55	496.19
573.71	362.78
573.87	402.57
574.03	440.02
574.20	425.98
574.36	456.40
574.52	414.27
574.68	360.44
574.84	451.72
575.01	475.13
575.17	435.34
575.33	414.27
575.49	390.87
575.65	423.64
575.82	447.04
575.98	456.40
576.14	447.04
576.30	388.53
576.46	360.44
576.62	430.66
576.79	447.04
576.95	437.68
577.11	322.99
577.27	393.21
577.43	395.55
577.59	414.27
577.75	416.62
577.92	362.78
578.08	430.66
578.24	430.66
578.40	442.36
578.56	379.17
578.72	393.21
578.88	430.66
579.04	430.66
579.21	433.00
579.37	423.64
579.53	374.49
579.69	475.13
579.85	468.11
580.01	411.93
580.17	411.93
580.33	339.38
580.49	421.30
580.65	416.62
580.82	381.51
580.98	407.25
581.14	376.83
581.30	456.40
581.46	454.06
581.62	374.49
581.78	470.45
581.94	379.17
582.10	409.59
582.26	428.32
582.42	423.64
582.58	416.62
582.74	428.32
582.90	390.87
583.06	479.81
583.22	428.32
583.38	404.91
583.54	397.89
583.70	395.55
583.86	409.59
584.02	367.46
584.18	414.27
584.34	407.25
584.50	383.85
584.66	402.57
584.82	437.68
584.98	395.55
585.14	411.93
585.30	395.55
585.46	418.96
585.62	428.32
585.78	423.64
585.94	369.80
586.10	402.57
586.26	479.81
586.42	479.81
586.58	383.85
586.74	440.02
586.90	433.00
587.06	407.25
587.22	409.59
587.38	367.46
587.54	376.83
587.70	414.27
587.86	358.10
588.02	397.89
588.18	461.09
588.34	444.70
588.49	381.51
588.65	456.40
588.81	425.98
588.97	355.76
589.13	416.62
589.29	489.17
589.45	421.30
589.61	421.30
589.77	465.77
589.93	332.36
590.08	404.91
590.24	332.36
590.40	409.59
590.56	381.51
590.72	341.72
590.88	423.64
591.04	437.68
591.20	407.25
591.35	463.43
591.51	437.68
591.67	393.21
591.83	444.70
591.99	468.11
592.15	402.57
592.31	402.57
592.46	465.77
592.62	444.70
592.78	423.64
592.94	484.49
593.10	411.93
593.26	472.79
593.41	418.96
593.57	414.27
593.73	386.19
593.89	367.46
594.05	395.55
594.20	325.33
594.36	423.64
594.52	360.44
594.68	451.72
594.84	521.94
594.99	505.56
595.15	400.23
595.31	470.45
595.47	465.77
595.62	484.49
595.78	341.72
595.94	365.12
596.10	374.49
596.25	428.32
596.41	425.98
596.57	433.00
596.73	451.72
596.88	362.78
597.04	376.83
597.20	400.23
597.36	454.06
597.51	430.66
597.67	470.45
597.83	327.68
597.99	449.38
598.14	395.55
598.30	400.23
598.46	397.89
598.61	489.17
598.77	425.98
598.93	428.32
599.09	393.21
599.24	395.55
599.40	449.38
599.56	440.02
599.71	395.55
599.87	414.27
600.03	372.15
600.18	397.89
600.34	418.96
600.50	430.66
600.65	341.72
600.81	470.45
600.97	421.30
601.12	397.89
601.28	421.30
601.44	381.51
601.59	402.57
601.75	451.72
601.91	468.11
602.06	386.19
602.22	519.60
602.37	463.43
602.53	388.53
602.69	444.70
602.84	372.15
603.00	442.36
603.16	470.45
603.31	423.64
603.47	411.93
603.62	423.64
603.78	404.91
603.94	437.68
604.09	374.49
604.25	454.06
604.40	449.38
604.56	423.64
604.71	456.40
604.87	442.36
605.03	397.89
605.18	372.15
605.34	379.17
605.49	463.43
605.65	423.64
605.80	477.47
605.96	369.80
606.12	381.51
606.27	409.59
606.43	388.53
606.58	447.04
606.74	407.25
606.89	390.87
607.05	418.96
607.20	355.76
607.36	397.89
607.51	449.38
607.67	372.15
607.82	409.59
607.98	388.53
608.13	416.62
608.29	435.34
608.44	372.15
608.60	400.23
608.75	451.72
608.91	498.53
609.06	454.06
609.22	409.59
609.37	374.49
609.53	440.02
609.68	442.36
609.84	344.06
609.99	404.91
610.15	428.32
