SpectraSuite Data File
++++++++++++++++++++++++++++++++++++
Date: Fri Oct 25 12:11:37 EDT 2013
User: price-jones
Dark Spectrum Present: No
Reference Spectrum Present: No
Number of Sampled Component Spectra: 1
Spectrometers: USB2+H05261
Integration Time (usec): 100000 (USB2+H05261)
Spectra Averaged: 1 (USB2+H05261)
Boxcar Smoothing: 0 (USB2+H05261)
Correct for Electrical Dark: No (USB2+H05261)
Strobe/Lamp Enabled: No (USB2+H05261)
Correct for Detector Non-linearity: No (USB2+H05261)
Correct for Stray Light: No (USB2+H05261)
Number of Pixels in Processed Spectrum: 2048
>>>>>Begin Processed Spectral Data<<<<<
365.73	292.57
365.92	292.57
366.12	292.57
366.32	231.71
366.52	273.84
366.72	215.33
366.91	266.82
367.11	290.23
367.31	238.73
367.51	170.86
367.70	245.76
367.90	304.27
368.10	311.29
368.30	322.99
368.49	266.82
368.69	189.58
368.89	220.01
369.09	236.39
369.28	346.40
369.48	334.70
369.68	241.08
369.87	315.97
370.07	322.99
370.27	292.57
370.47	243.42
370.66	285.55
370.86	304.27
371.06	379.17
371.25	381.51
371.45	418.96
371.65	397.89
371.84	390.87
372.04	362.78
372.24	341.72
372.44	393.21
372.63	369.80
372.83	425.98
373.03	407.25
373.22	468.11
373.42	393.21
373.62	409.59
373.81	447.04
374.01	425.98
374.21	397.89
374.40	320.65
374.60	491.51
374.79	381.51
374.99	423.64
375.19	435.34
375.38	409.59
375.58	400.23
375.78	470.45
375.97	397.89
376.17	449.38
376.37	402.57
376.56	468.11
376.76	348.74
376.95	379.17
377.15	447.04
377.35	430.66
377.54	393.21
377.74	454.06
377.93	409.59
378.13	395.55
378.33	318.31
378.52	330.02
378.72	477.47
378.91	388.53
379.11	440.02
379.31	325.33
379.50	381.51
379.70	433.00
379.89	454.06
380.09	395.55
380.28	374.49
380.48	393.21
380.68	479.81
380.87	435.34
381.07	421.30
381.26	402.57
381.46	414.27
381.65	486.83
381.85	395.55
382.04	409.59
382.24	376.83
382.43	500.87
382.63	388.53
382.83	433.00
383.02	444.70
383.22	472.79
383.41	444.70
383.61	449.38
383.80	479.81
384.00	409.59
384.19	447.04
384.39	425.98
384.58	388.53
384.78	444.70
384.97	395.55
385.17	390.87
385.36	355.76
385.56	458.74
385.75	353.42
385.95	362.78
386.14	379.17
386.34	339.38
386.53	409.59
386.72	442.36
386.92	341.72
387.11	421.30
387.31	339.38
387.50	376.83
387.70	379.17
387.89	379.17
388.09	369.80
388.28	353.42
388.48	454.06
388.67	407.25
388.86	440.02
389.06	402.57
389.25	423.64
389.45	411.93
389.64	428.32
389.84	418.96
390.03	428.32
390.22	407.25
390.42	360.44
390.61	369.80
390.81	393.21
391.00	468.11
391.19	362.78
391.39	341.72
391.58	315.97
391.78	362.78
391.97	372.15
392.16	418.96
392.36	465.77
392.55	440.02
392.75	435.34
392.94	414.27
393.13	477.47
393.33	397.89
393.52	390.87
393.71	341.72
393.91	381.51
394.10	397.89
394.29	355.76
394.49	383.85
394.68	393.21
394.88	411.93
395.07	400.23
395.26	404.91
395.46	479.81
395.65	440.02
395.84	381.51
396.04	465.77
396.23	425.98
396.42	402.57
396.62	430.66
396.81	390.87
397.00	315.97
397.19	358.10
397.39	369.80
397.58	372.15
397.77	418.96
397.97	418.96
398.16	407.25
398.35	411.93
398.55	449.38
398.74	437.68
398.93	416.62
399.12	442.36
399.32	435.34
399.51	428.32
399.70	449.38
399.90	353.42
400.09	367.46
400.28	444.70
400.47	390.87
400.67	416.62
400.86	334.70
401.05	397.89
401.24	430.66
401.44	360.44
401.63	374.49
401.82	416.62
402.01	404.91
402.21	414.27
402.40	475.13
402.59	353.42
402.78	425.98
402.97	397.89
403.17	376.83
403.36	475.13
403.55	456.40
403.74	397.89
403.93	411.93
404.13	386.19
404.32	376.83
404.51	313.63
404.70	325.33
404.89	451.72
405.09	381.51
405.28	372.15
405.47	346.40
405.66	416.62
405.85	442.36
406.05	416.62
406.24	421.30
406.43	428.32
406.62	390.87
406.81	458.74
407.00	418.96
407.20	372.15
407.39	430.66
407.58	339.38
407.77	395.55
407.96	489.17
408.15	456.40
408.34	407.25
408.54	369.80
408.73	411.93
408.92	423.64
409.11	435.34
409.30	468.11
409.49	454.06
409.68	425.98
409.87	416.62
410.07	444.70
410.26	404.91
410.45	355.76
410.64	418.96
410.83	416.62
411.02	411.93
411.21	367.46
411.40	404.91
411.59	367.46
411.78	407.25
411.98	397.89
412.17	393.21
412.36	358.10
412.55	376.83
412.74	402.57
412.93	465.77
413.12	437.68
413.31	411.93
413.50	456.40
413.69	463.43
413.88	393.21
414.07	381.51
414.26	486.83
414.45	334.70
414.64	404.91
414.83	447.04
415.02	425.98
415.22	376.83
415.41	421.30
415.60	386.19
415.79	365.12
415.98	418.96
416.17	421.30
416.36	327.68
416.55	409.59
416.74	390.87
416.93	402.57
417.12	376.83
417.31	414.27
417.50	444.70
417.69	428.32
417.88	447.04
418.07	411.93
418.26	395.55
418.45	428.32
418.64	465.77
418.83	418.96
419.02	475.13
419.21	365.12
419.39	470.45
419.58	344.06
419.77	395.55
419.96	440.02
420.15	414.27
420.34	400.23
420.53	416.62
420.72	409.59
420.91	442.36
421.10	428.32
421.29	423.64
421.48	421.30
421.67	393.21
421.86	367.46
422.05	423.64
422.24	454.06
422.43	468.11
422.61	369.80
422.80	386.19
422.99	416.62
423.18	372.15
423.37	404.91
423.56	451.72
423.75	386.19
423.94	397.89
424.13	411.93
424.32	407.25
424.50	425.98
424.69	388.53
424.88	470.45
425.07	451.72
425.26	468.11
425.45	381.51
425.64	402.57
425.83	397.89
426.01	437.68
426.20	435.34
426.39	454.06
426.58	437.68
426.77	407.25
426.96	449.38
427.15	386.19
427.33	435.34
427.52	353.42
427.71	388.53
427.90	479.81
428.09	383.85
428.28	348.74
428.46	430.66
428.65	421.30
428.84	411.93
429.03	444.70
429.22	402.57
429.40	416.62
429.59	468.11
429.78	418.96
429.97	372.15
430.16	404.91
430.34	362.78
430.53	379.17
430.72	407.25
430.91	428.32
431.10	299.59
431.28	358.10
431.47	484.49
431.66	428.32
431.85	404.91
432.03	465.77
432.22	407.25
432.41	437.68
432.60	447.04
432.79	447.04
432.97	416.62
433.16	444.70
433.35	376.83
433.54	428.32
433.72	393.21
433.91	409.59
434.10	393.21
434.28	386.19
434.47	425.98
434.66	463.43
434.85	393.21
435.03	456.40
435.22	428.32
435.41	430.66
435.59	411.93
435.78	428.32
435.97	390.87
436.16	458.74
436.34	414.27
436.53	433.00
436.72	451.72
436.90	388.53
437.09	322.99
437.28	437.68
437.46	442.36
437.65	388.53
437.84	433.00
438.02	463.43
438.21	449.38
438.40	390.87
438.58	463.43
438.77	461.09
438.96	444.70
439.14	376.83
439.33	444.70
439.52	411.93
439.70	409.59
439.89	404.91
440.08	383.85
440.26	379.17
440.45	407.25
440.63	353.42
440.82	355.76
441.01	430.66
441.19	454.06
441.38	388.53
441.57	418.96
441.75	465.77
441.94	381.51
442.12	404.91
442.31	418.96
442.50	423.64
442.68	400.23
442.87	388.53
443.05	318.31
443.24	416.62
443.43	421.30
443.61	470.45
443.80	381.51
443.98	404.91
444.17	388.53
444.35	449.38
444.54	374.49
444.73	505.56
444.91	468.11
445.10	416.62
445.28	383.85
445.47	353.42
445.65	411.93
445.84	360.44
446.02	367.46
446.21	374.49
446.39	442.36
446.58	397.89
446.77	416.62
446.95	379.17
447.14	416.62
447.32	430.66
447.51	402.57
447.69	404.91
447.88	409.59
448.06	486.83
448.25	484.49
448.43	437.68
448.62	393.21
448.80	407.25
448.99	404.91
449.17	402.57
449.36	386.19
449.54	444.70
449.73	397.89
449.91	489.17
450.10	381.51
450.28	435.34
450.46	486.83
450.65	365.12
450.83	353.42
451.02	428.32
451.20	362.78
451.39	379.17
451.57	430.66
451.76	348.74
451.94	493.85
452.13	449.38
452.31	425.98
452.49	358.10
452.68	341.72
452.86	344.06
453.05	484.49
453.23	435.34
453.42	390.87
453.60	477.47
453.78	409.59
453.97	311.29
454.15	355.76
454.34	407.25
454.52	388.53
454.70	435.34
454.89	407.25
455.07	514.92
455.26	437.68
455.44	512.58
455.62	386.19
455.81	395.55
455.99	390.87
456.17	404.91
456.36	402.57
456.54	341.72
456.73	353.42
456.91	440.02
457.09	400.23
457.28	390.87
457.46	451.72
457.64	456.40
457.83	435.34
458.01	407.25
458.19	402.57
458.38	400.23
458.56	397.89
458.74	362.78
458.93	423.64
459.11	374.49
459.29	418.96
459.48	423.64
459.66	440.02
459.84	442.36
460.03	510.24
460.21	437.68
460.39	423.64
460.57	418.96
460.76	402.57
460.94	369.80
461.12	468.11
461.31	456.40
461.49	421.30
461.67	423.64
461.85	454.06
462.04	425.98
462.22	765.36
462.40	397.89
462.59	477.47
462.77	369.80
462.95	369.80
463.13	435.34
463.32	372.15
463.50	402.57
463.68	409.59
463.86	402.57
464.05	379.17
464.23	503.22
464.41	381.51
464.59	334.70
464.78	421.30
464.96	334.70
465.14	465.77
465.32	416.62
465.50	449.38
465.69	421.30
465.87	447.04
466.05	444.70
466.23	414.27
466.41	493.85
466.60	376.83
466.78	425.98
466.96	447.04
467.14	416.62
467.32	475.13
467.51	411.93
467.69	404.91
467.87	547.69
468.05	414.27
468.23	456.40
468.41	428.32
468.60	379.17
468.78	468.11
468.96	397.89
469.14	402.57
469.32	393.21
469.50	390.87
469.69	425.98
469.87	470.45
470.05	475.13
470.23	393.21
470.41	395.55
470.59	395.55
470.77	528.96
470.95	461.09
471.14	409.59
471.32	386.19
471.50	402.57
471.68	456.40
471.86	400.23
472.04	358.10
472.22	383.85
472.40	388.53
472.58	435.34
472.77	397.89
472.95	379.17
473.13	374.49
473.31	425.98
473.49	418.96
473.67	503.22
473.85	470.45
474.03	388.53
474.21	379.17
474.39	440.02
474.57	458.74
474.75	407.25
474.93	383.85
475.12	386.19
475.30	383.85
475.48	344.06
475.66	442.36
475.84	444.70
476.02	381.51
476.20	390.87
476.38	397.89
476.56	496.19
476.74	395.55
476.92	470.45
477.10	374.49
477.28	355.76
477.46	390.87
477.64	423.64
477.82	416.62
478.00	325.33
478.18	461.09
478.36	404.91
478.54	402.57
478.72	418.96
478.90	344.06
479.08	411.93
479.26	477.47
479.44	362.78
479.62	463.43
479.80	393.21
479.98	425.98
480.16	447.04
480.34	404.91
480.52	386.19
480.70	430.66
480.88	435.34
481.06	376.83
481.24	388.53
481.41	461.09
481.59	362.78
481.77	428.32
481.95	423.64
482.13	421.30
482.31	367.46
482.49	346.40
482.67	423.64
482.85	372.15
483.03	386.19
483.21	365.12
483.39	435.34
483.57	369.80
483.74	470.45
483.92	409.59
484.10	454.06
484.28	484.49
484.46	440.02
484.64	407.25
484.82	411.93
485.00	411.93
485.18	449.38
485.35	421.30
485.53	388.53
485.71	425.98
485.89	463.43
486.07	451.72
486.25	514.92
486.43	461.09
486.61	411.93
486.78	358.10
486.96	444.70
487.14	454.06
487.32	386.19
487.50	390.87
487.68	421.30
487.85	454.06
488.03	433.00
488.21	416.62
488.39	332.36
488.57	341.72
488.75	416.62
488.92	489.17
489.10	402.57
489.28	465.77
489.46	386.19
489.64	416.62
489.81	418.96
489.99	397.89
490.17	353.42
490.35	447.04
490.53	423.64
490.70	468.11
490.88	458.74
491.06	421.30
491.24	468.11
491.41	409.59
491.59	390.87
491.77	400.23
491.95	463.43
492.13	400.23
492.30	397.89
492.48	414.27
492.66	383.85
492.84	407.25
493.01	428.32
493.19	428.32
493.37	444.70
493.54	404.91
493.72	355.76
493.90	414.27
494.08	365.12
494.25	407.25
494.43	447.04
494.61	388.53
494.79	390.87
494.96	425.98
495.14	414.27
495.32	395.55
495.49	430.66
495.67	414.27
495.85	402.57
496.02	388.53
496.20	409.59
496.38	388.53
496.55	414.27
496.73	393.21
496.91	540.66
497.09	313.63
497.26	409.59
497.44	376.83
497.62	435.34
497.79	395.55
497.97	458.74
498.14	418.96
498.32	376.83
498.50	397.89
498.67	418.96
498.85	430.66
499.03	409.59
499.20	500.87
499.38	442.36
499.56	414.27
499.73	451.72
499.91	416.62
500.08	430.66
500.26	397.89
500.44	437.68
500.61	386.19
500.79	423.64
500.97	435.34
501.14	404.91
501.32	395.55
501.49	451.72
501.67	337.04
501.84	461.09
502.02	397.89
502.20	372.15
502.37	451.72
502.55	416.62
502.72	428.32
502.90	379.17
503.07	409.59
503.25	444.70
503.43	383.85
503.60	423.64
503.78	440.02
503.95	381.51
504.13	381.51
504.30	463.43
504.48	379.17
504.65	369.80
504.83	404.91
505.01	411.93
505.18	372.15
505.36	414.27
505.53	369.80
505.71	444.70
505.88	470.45
506.06	465.77
506.23	447.04
506.41	404.91
506.58	409.59
506.76	435.34
506.93	360.44
507.11	407.25
507.28	376.83
507.46	381.51
507.63	409.59
507.81	440.02
507.98	447.04
508.16	447.04
508.33	367.46
508.50	433.00
508.68	355.76
508.85	456.40
509.03	435.34
509.20	425.98
509.38	379.17
509.55	540.66
509.73	437.68
509.90	402.57
510.08	367.46
510.25	430.66
510.42	451.72
510.60	402.57
510.77	402.57
510.95	397.89
511.12	409.59
511.30	400.23
511.47	423.64
511.64	449.38
511.82	475.13
511.99	479.81
512.17	416.62
512.34	379.17
512.51	400.23
512.69	416.62
512.86	456.40
513.04	430.66
513.21	437.68
513.38	416.62
513.56	465.77
513.73	421.30
513.90	411.93
514.08	383.85
514.25	475.13
514.43	433.00
514.60	421.30
514.77	376.83
514.95	383.85
515.12	491.51
515.29	355.76
515.47	470.45
515.64	447.04
515.81	320.65
515.99	362.78
516.16	507.90
516.33	397.89
516.51	393.21
516.68	423.64
516.85	390.87
517.03	440.02
517.20	425.98
517.37	386.19
517.54	444.70
517.72	322.99
517.89	355.76
518.06	393.21
518.24	444.70
518.41	493.85
518.58	435.34
518.75	414.27
518.93	414.27
519.10	402.57
519.27	425.98
519.45	404.91
519.62	383.85
519.79	454.06
519.96	418.96
520.14	437.68
520.31	468.11
520.48	409.59
520.65	425.98
520.83	510.24
521.00	411.93
521.17	430.66
521.34	386.19
521.52	381.51
521.69	479.81
521.86	442.36
522.03	442.36
522.20	428.32
522.38	372.15
522.55	440.02
522.72	358.10
522.89	393.21
523.07	458.74
523.24	433.00
523.41	456.40
523.58	369.80
523.75	376.83
523.92	449.38
524.10	407.25
524.27	433.00
524.44	437.68
524.61	437.68
524.78	458.74
524.96	334.70
525.13	414.27
525.30	496.19
525.47	442.36
525.64	414.27
525.81	367.46
525.98	461.09
526.16	465.77
526.33	461.09
526.50	435.34
526.67	355.76
526.84	351.08
527.01	493.85
527.18	367.46
527.36	376.83
527.53	404.91
527.70	449.38
527.87	425.98
528.04	458.74
528.21	395.55
528.38	404.91
528.55	381.51
528.72	409.59
528.89	411.93
529.07	433.00
529.24	407.25
529.41	404.91
529.58	447.04
529.75	409.59
529.92	430.66
530.09	461.09
530.26	423.64
530.43	486.83
530.60	437.68
530.77	374.49
530.94	395.55
531.11	360.44
531.28	418.96
531.46	374.49
531.63	404.91
531.80	451.72
531.97	458.74
532.14	379.17
532.31	519.60
532.48	454.06
532.65	454.06
532.82	437.68
532.99	416.62
533.16	367.46
533.33	402.57
533.50	416.62
533.67	411.93
533.84	421.30
534.01	437.68
534.18	414.27
534.35	404.91
534.52	397.89
534.69	458.74
534.86	475.13
535.03	341.72
535.20	430.66
535.37	505.56
535.54	390.87
535.71	395.55
535.88	404.91
536.05	402.57
536.22	430.66
536.38	402.57
536.55	458.74
536.72	449.38
536.89	397.89
537.06	393.21
537.23	402.57
537.40	503.22
537.57	425.98
537.74	465.77
537.91	447.04
538.08	482.15
538.25	414.27
538.42	428.32
538.59	386.19
538.75	456.40
538.92	423.64
539.09	500.87
539.26	416.62
539.43	423.64
539.60	456.40
539.77	437.68
539.94	430.66
540.11	477.47
540.28	435.34
540.44	418.96
540.61	369.80
540.78	437.68
540.95	414.27
541.12	444.70
541.29	421.30
541.46	414.27
541.62	442.36
541.79	433.00
541.96	418.96
542.13	449.38
542.30	348.74
542.47	442.36
542.63	444.70
542.80	416.62
542.97	425.98
543.14	337.04
543.31	447.04
543.48	461.09
543.64	428.32
543.81	393.21
543.98	435.34
544.15	442.36
544.32	388.53
544.48	435.34
544.65	374.49
544.82	444.70
544.99	435.34
545.16	433.00
545.32	376.83
545.49	458.74
545.66	397.89
545.83	475.13
546.00	315.97
546.16	332.36
546.33	411.93
546.50	379.17
546.67	379.17
546.83	428.32
547.00	456.40
547.17	421.30
547.34	477.47
547.50	430.66
547.67	437.68
547.84	383.85
548.00	435.34
548.17	388.53
548.34	461.09
548.51	397.89
548.67	468.11
548.84	468.11
549.01	404.91
549.18	425.98
549.34	428.32
549.51	447.04
549.68	440.02
549.84	379.17
550.01	411.93
550.18	442.36
550.34	465.77
550.51	409.59
550.68	479.81
550.84	379.17
551.01	433.00
551.18	409.59
551.34	458.74
551.51	393.21
551.68	442.36
551.84	386.19
552.01	449.38
552.18	421.30
552.34	409.59
552.51	402.57
552.68	477.47
552.84	482.15
553.01	435.34
553.18	421.30
553.34	372.15
553.51	470.45
553.67	388.53
553.84	425.98
554.01	430.66
554.17	479.81
554.34	491.51
554.51	430.66
554.67	503.22
554.84	409.59
555.00	404.91
555.17	341.72
555.33	407.25
555.50	435.34
555.67	402.57
555.83	451.72
556.00	444.70
556.16	638.97
556.33	493.85
556.50	442.36
556.66	423.64
556.83	374.49
556.99	447.04
557.16	465.77
557.32	416.62
557.49	348.74
557.65	416.62
557.82	402.57
557.98	416.62
558.15	407.25
558.32	332.36
558.48	447.04
558.65	507.90
558.81	416.62
558.98	456.40
559.14	496.19
559.31	451.72
559.47	451.72
559.64	369.80
559.80	437.68
559.97	402.57
560.13	411.93
560.30	388.53
560.46	416.62
560.63	451.72
560.79	404.91
560.96	397.89
561.12	449.38
561.29	465.77
561.45	379.17
561.61	416.62
561.78	477.47
561.94	362.78
562.11	360.44
562.27	425.98
562.44	360.44
562.60	358.10
562.77	372.15
562.93	463.43
563.10	390.87
563.26	372.15
563.42	428.32
563.59	447.04
563.75	355.76
563.92	379.17
564.08	402.57
564.24	402.57
564.41	433.00
564.57	440.02
564.74	393.21
564.90	430.66
565.07	475.13
565.23	461.09
565.39	416.62
565.56	395.55
565.72	404.91
565.88	407.25
566.05	409.59
566.21	390.87
566.38	440.02
566.54	325.33
566.70	346.40
566.87	463.43
567.03	444.70
567.19	395.55
567.36	400.23
567.52	440.02
567.68	423.64
567.85	416.62
568.01	353.42
568.17	451.72
568.34	423.64
568.50	358.10
568.66	351.08
568.83	479.81
568.99	430.66
569.15	404.91
569.32	374.49
569.48	407.25
569.64	437.68
569.81	402.57
569.97	369.80
570.13	451.72
570.30	437.68
570.46	397.89
570.62	428.32
570.78	428.32
570.95	461.09
571.11	444.70
571.27	425.98
571.43	428.32
571.60	414.27
571.76	435.34
571.92	346.40
572.09	390.87
572.25	423.64
572.41	369.80
572.57	444.70
572.74	486.83
572.90	449.38
573.06	379.17
573.22	409.59
573.38	400.23
573.55	510.24
573.71	451.72
573.87	433.00
574.03	404.91
574.20	425.98
574.36	400.23
574.52	369.80
574.68	348.74
574.84	465.77
575.01	374.49
575.17	491.51
575.33	442.36
575.49	472.79
575.65	442.36
575.82	425.98
575.98	395.55
576.14	435.34
576.30	414.27
576.46	421.30
576.62	322.99
576.79	409.59
576.95	463.43
577.11	418.96
577.27	304.27
577.43	416.62
577.59	475.13
577.75	369.80
577.92	400.23
578.08	442.36
578.24	449.38
578.40	425.98
578.56	411.93
578.72	451.72
578.88	435.34
579.04	440.02
579.21	449.38
579.37	379.17
579.53	458.74
579.69	479.81
579.85	482.15
580.01	444.70
580.17	395.55
580.33	418.96
580.49	423.64
580.65	425.98
580.82	409.59
580.98	447.04
581.14	360.44
581.30	444.70
581.46	430.66
581.62	496.19
581.78	404.91
581.94	433.00
582.10	425.98
582.26	456.40
582.42	383.85
582.58	390.87
582.74	383.85
582.90	407.25
583.06	449.38
583.22	463.43
583.38	383.85
583.54	402.57
583.70	456.40
583.86	475.13
584.02	437.68
584.18	493.85
584.34	374.49
584.50	461.09
584.66	351.08
584.82	397.89
584.98	348.74
585.14	425.98
585.30	430.66
585.46	367.46
585.62	437.68
585.78	383.85
585.94	444.70
586.10	425.98
586.26	409.59
586.42	493.85
586.58	414.27
586.74	430.66
586.90	425.98
587.06	442.36
587.22	430.66
587.38	402.57
587.54	454.06
587.70	395.55
587.86	421.30
588.02	369.80
588.18	428.32
588.34	454.06
588.49	418.96
588.65	538.32
588.81	397.89
588.97	404.91
589.13	435.34
589.29	383.85
589.45	489.17
589.61	451.72
589.77	386.19
589.93	447.04
590.08	411.93
590.24	400.23
590.40	416.62
590.56	465.77
590.72	442.36
590.88	322.99
591.04	372.15
591.20	496.19
591.35	372.15
591.51	433.00
591.67	421.30
591.83	461.09
591.99	425.98
592.15	365.12
592.31	449.38
592.46	444.70
592.62	386.19
592.78	409.59
592.94	390.87
593.10	414.27
593.26	404.91
593.41	355.76
593.57	447.04
593.73	376.83
593.89	437.68
594.05	376.83
594.20	423.64
594.36	461.09
594.52	409.59
594.68	421.30
594.84	472.79
594.99	449.38
595.15	362.78
595.31	407.25
595.47	458.74
595.62	358.10
595.78	351.08
595.94	435.34
596.10	451.72
596.25	435.34
596.41	421.30
596.57	407.25
596.73	435.34
596.88	440.02
597.04	393.21
597.20	383.85
597.36	444.70
597.51	447.04
597.67	418.96
597.83	397.89
597.99	388.53
598.14	388.53
598.30	425.98
598.46	409.59
598.61	423.64
598.77	440.02
598.93	372.15
599.09	440.02
599.24	482.15
599.40	454.06
599.56	393.21
599.71	428.32
599.87	416.62
600.03	447.04
600.18	365.12
600.34	414.27
600.50	454.06
600.65	383.85
600.81	451.72
600.97	404.91
601.12	465.77
601.28	493.85
601.44	449.38
601.59	428.32
601.75	484.49
601.91	449.38
602.06	433.00
602.22	435.34
602.37	376.83
602.53	468.11
602.69	433.00
602.84	379.17
603.00	454.06
603.16	376.83
603.31	461.09
603.47	416.62
603.62	423.64
603.78	379.17
603.94	421.30
604.09	411.93
604.25	425.98
604.40	409.59
604.56	423.64
604.71	358.10
604.87	402.57
605.03	376.83
605.18	411.93
605.34	456.40
605.49	402.57
605.65	388.53
605.80	409.59
605.96	397.89
606.12	395.55
606.27	470.45
606.43	442.36
606.58	381.51
606.74	402.57
606.89	484.49
607.05	454.06
607.20	430.66
607.36	470.45
607.51	341.72
607.67	423.64
607.82	397.89
607.98	433.00
608.13	454.06
608.29	440.02
608.44	444.70
608.60	372.15
608.75	418.96
608.91	395.55
609.06	437.68
609.22	475.13
609.37	505.56
609.53	430.66
609.68	442.36
609.84	407.25
609.99	372.15
610.15	475.13
