SpectraSuite Data File
++++++++++++++++++++++++++++++++++++
Date: Fri Oct 25 12:10:55 EDT 2013
User: price-jones
Dark Spectrum Present: No
Reference Spectrum Present: No
Number of Sampled Component Spectra: 1
Spectrometers: USB2+H05261
Integration Time (usec): 100000 (USB2+H05261)
Spectra Averaged: 1 (USB2+H05261)
Boxcar Smoothing: 0 (USB2+H05261)
Correct for Electrical Dark: No (USB2+H05261)
Strobe/Lamp Enabled: No (USB2+H05261)
Correct for Detector Non-linearity: No (USB2+H05261)
Correct for Stray Light: No (USB2+H05261)
Number of Pixels in Processed Spectrum: 2048
>>>>>Begin Processed Spectral Data<<<<<
365.73	337.04
365.92	337.04
366.12	337.04
366.32	285.55
366.52	278.52
366.72	241.08
366.91	276.18
367.11	255.12
367.31	217.67
367.51	212.99
367.70	222.35
367.90	276.18
368.10	262.14
368.30	224.69
368.49	208.31
368.69	271.50
368.89	273.84
369.09	315.97
369.28	283.20
369.48	297.25
369.68	346.40
369.87	341.72
370.07	367.46
370.27	273.84
370.47	362.78
370.66	344.06
370.86	306.61
371.06	304.27
371.25	433.00
371.45	379.17
371.65	381.51
371.84	372.15
372.04	407.25
372.24	451.72
372.44	454.06
372.63	393.21
372.83	418.96
373.03	383.85
373.22	449.38
373.42	416.62
373.62	409.59
373.81	383.85
374.01	407.25
374.21	507.90
374.40	404.91
374.60	449.38
374.79	461.09
374.99	456.40
375.19	425.98
375.38	428.32
375.58	383.85
375.78	355.76
375.97	468.11
376.17	489.17
376.37	404.91
376.56	425.98
376.76	433.00
376.95	440.02
377.15	528.96
377.35	400.23
377.54	376.83
377.74	468.11
377.93	393.21
378.13	409.59
378.33	458.74
378.52	339.38
378.72	477.47
378.91	395.55
379.11	381.51
379.31	423.64
379.50	400.23
379.70	360.44
379.89	400.23
380.09	409.59
380.28	383.85
380.48	437.68
380.68	337.04
380.87	383.85
381.07	472.79
381.26	360.44
381.46	386.19
381.65	503.22
381.85	407.25
382.04	348.74
382.24	397.89
382.43	386.19
382.63	372.15
382.83	367.46
383.02	468.11
383.22	458.74
383.41	353.42
383.61	477.47
383.80	372.15
384.00	344.06
384.19	437.68
384.39	390.87
384.58	416.62
384.78	411.93
384.97	421.30
385.17	425.98
385.36	390.87
385.56	390.87
385.75	255.12
385.95	376.83
386.14	475.13
386.34	507.90
386.53	411.93
386.72	400.23
386.92	414.27
387.11	423.64
387.31	433.00
387.50	393.21
387.70	425.98
387.89	414.27
388.09	376.83
388.28	386.19
388.48	447.04
388.67	433.00
388.86	411.93
389.06	435.34
389.25	475.13
389.45	348.74
389.64	353.42
389.84	454.06
390.03	381.51
390.22	407.25
390.42	353.42
390.61	355.76
390.81	388.53
391.00	465.77
391.19	404.91
391.39	421.30
391.58	437.68
391.78	369.80
391.97	430.66
392.16	433.00
392.36	411.93
392.55	447.04
392.75	461.09
392.94	367.46
393.13	411.93
393.33	397.89
393.52	383.85
393.71	383.85
393.91	472.79
394.10	362.78
394.29	430.66
394.49	400.23
394.68	386.19
394.88	418.96
395.07	409.59
395.26	397.89
395.46	400.23
395.65	402.57
395.84	421.30
396.04	489.17
396.23	409.59
396.42	351.08
396.62	433.00
396.81	440.02
397.00	482.15
397.19	388.53
397.39	407.25
397.58	397.89
397.77	304.27
397.97	372.15
398.16	423.64
398.35	456.40
398.55	444.70
398.74	454.06
398.93	353.42
399.12	416.62
399.32	411.93
399.51	355.76
399.70	430.66
399.90	500.87
400.09	435.34
400.28	425.98
400.47	433.00
400.67	484.49
400.86	390.87
401.05	423.64
401.24	428.32
401.44	442.36
401.63	379.17
401.82	430.66
402.01	442.36
402.21	433.00
402.40	479.81
402.59	435.34
402.78	339.38
402.97	414.27
403.17	435.34
403.36	372.15
403.55	468.11
403.74	440.02
403.93	435.34
404.13	395.55
404.32	437.68
404.51	393.21
404.70	388.53
404.89	402.57
405.09	461.09
405.28	374.49
405.47	416.62
405.66	479.81
405.85	437.68
406.05	411.93
406.24	435.34
406.43	507.90
406.62	404.91
406.81	461.09
407.00	365.12
407.20	461.09
407.39	435.34
407.58	400.23
407.77	383.85
407.96	376.83
408.15	414.27
408.34	416.62
408.54	344.06
408.73	376.83
408.92	395.55
409.11	465.77
409.30	390.87
409.49	339.38
409.68	433.00
409.87	451.72
410.07	360.44
410.26	418.96
410.45	388.53
410.64	409.59
410.83	458.74
411.02	433.00
411.21	360.44
411.40	510.24
411.59	400.23
411.78	395.55
411.98	472.79
412.17	425.98
412.36	372.15
412.55	435.34
412.74	315.97
412.93	425.98
413.12	374.49
413.31	433.00
413.50	379.17
413.69	358.10
413.88	423.64
414.07	433.00
414.26	428.32
414.45	454.06
414.64	418.96
414.83	381.51
415.02	360.44
415.22	365.12
415.41	437.68
415.60	400.23
415.79	435.34
415.98	428.32
416.17	411.93
416.36	447.04
416.55	407.25
416.74	404.91
416.93	468.11
417.12	447.04
417.31	348.74
417.50	437.68
417.69	346.40
417.88	456.40
418.07	463.43
418.26	404.91
418.45	437.68
418.64	447.04
418.83	442.36
419.02	388.53
419.21	449.38
419.39	414.27
419.58	449.38
419.77	379.17
419.96	437.68
420.15	468.11
420.34	416.62
420.53	372.15
420.72	418.96
420.91	418.96
421.10	435.34
421.29	456.40
421.48	411.93
421.67	414.27
421.86	381.51
422.05	404.91
422.24	411.93
422.43	374.49
422.61	414.27
422.80	442.36
422.99	397.89
423.18	390.87
423.37	433.00
423.56	395.55
423.75	411.93
423.94	383.85
424.13	416.62
424.32	414.27
424.50	521.94
424.69	505.56
424.88	489.17
425.07	346.40
425.26	374.49
425.45	353.42
425.64	355.76
425.83	423.64
426.01	447.04
426.20	421.30
426.39	386.19
426.58	409.59
426.77	475.13
426.96	444.70
427.15	421.30
427.33	374.49
427.52	454.06
427.71	433.00
427.90	397.89
428.09	418.96
428.28	400.23
428.46	376.83
428.65	418.96
428.84	409.59
429.03	425.98
429.22	346.40
429.40	376.83
429.59	414.27
429.78	470.45
429.97	444.70
430.16	381.51
430.34	395.55
430.53	393.21
430.72	425.98
430.91	437.68
431.10	407.25
431.28	332.36
431.47	451.72
431.66	423.64
431.85	428.32
432.03	433.00
432.22	416.62
432.41	489.17
432.60	470.45
432.79	344.06
432.97	358.10
433.16	395.55
433.35	421.30
433.54	414.27
433.72	369.80
433.91	472.79
434.10	447.04
434.28	400.23
434.47	374.49
434.66	444.70
434.85	442.36
435.03	440.02
435.22	472.79
435.41	449.38
435.59	435.34
435.78	416.62
435.97	407.25
436.16	428.32
436.34	409.59
436.53	388.53
436.72	468.11
436.90	416.62
437.09	423.64
437.28	463.43
437.46	381.51
437.65	517.26
437.84	463.43
438.02	435.34
438.21	451.72
438.40	376.83
438.58	451.72
438.77	456.40
438.96	411.93
439.14	428.32
439.33	360.44
439.52	430.66
439.70	355.76
439.89	449.38
440.08	379.17
440.26	409.59
440.45	477.47
440.63	374.49
440.82	454.06
441.01	428.32
441.19	421.30
441.38	351.08
441.57	367.46
441.75	390.87
441.94	339.38
442.12	369.80
442.31	449.38
442.50	402.57
442.68	421.30
442.87	407.25
443.05	442.36
443.24	341.72
443.43	435.34
443.61	414.27
443.80	386.19
443.98	386.19
444.17	383.85
444.35	386.19
444.54	395.55
444.73	428.32
444.91	486.83
445.10	402.57
445.28	395.55
445.47	404.91
445.65	414.27
445.84	393.21
446.02	416.62
446.21	379.17
446.39	428.32
446.58	440.02
446.77	411.93
446.95	367.46
447.14	493.85
447.32	383.85
447.51	461.09
447.69	440.02
447.88	430.66
448.06	428.32
448.25	454.06
448.43	365.12
448.62	362.78
448.80	451.72
448.99	418.96
449.17	411.93
449.36	418.96
449.54	360.44
449.73	393.21
449.91	442.36
450.10	358.10
450.28	498.53
450.46	454.06
450.65	416.62
450.83	414.27
451.02	421.30
451.20	449.38
451.39	454.06
451.57	395.55
451.76	386.19
451.94	442.36
452.13	430.66
452.31	418.96
452.49	435.34
452.68	463.43
452.86	411.93
453.05	470.45
453.23	449.38
453.42	402.57
453.60	486.83
453.78	409.59
453.97	346.40
454.15	409.59
454.34	393.21
454.52	393.21
454.70	351.08
454.89	383.85
455.07	430.66
455.26	386.19
455.44	458.74
455.62	475.13
455.81	440.02
455.99	421.30
456.17	358.10
456.36	479.81
456.54	456.40
456.73	409.59
456.91	449.38
457.09	444.70
457.28	390.87
457.46	402.57
457.64	322.99
457.83	451.72
458.01	416.62
458.19	404.91
458.38	414.27
458.56	430.66
458.74	376.83
458.93	475.13
459.11	435.34
459.29	435.34
459.48	379.17
459.66	402.57
459.84	416.62
460.03	456.40
460.21	465.77
460.39	362.78
460.57	447.04
460.76	456.40
460.94	456.40
461.12	498.53
461.31	409.59
461.49	470.45
461.67	411.93
461.85	400.23
462.04	409.59
462.22	753.65
462.40	437.68
462.59	468.11
462.77	458.74
462.95	421.30
463.13	428.32
463.32	376.83
463.50	416.62
463.68	491.51
463.86	367.46
464.05	400.23
464.23	477.47
464.41	367.46
464.59	456.40
464.78	360.44
464.96	411.93
465.14	388.53
465.32	383.85
465.50	458.74
465.69	442.36
465.87	397.89
466.05	475.13
466.23	390.87
466.41	444.70
466.60	440.02
466.78	442.36
466.96	461.09
467.14	407.25
467.32	414.27
467.51	386.19
467.69	484.49
467.87	409.59
468.05	381.51
468.23	456.40
468.41	458.74
468.60	435.34
468.78	433.00
468.96	390.87
469.14	369.80
469.32	376.83
469.50	402.57
469.69	404.91
469.87	461.09
470.05	383.85
470.23	435.34
470.41	442.36
470.59	327.68
470.77	482.15
470.95	430.66
471.14	386.19
471.32	383.85
471.50	393.21
471.68	465.77
471.86	411.93
472.04	360.44
472.22	390.87
472.40	369.80
472.58	447.04
472.77	489.17
472.95	414.27
473.13	475.13
473.31	465.77
473.49	397.89
473.67	484.49
473.85	395.55
474.03	442.36
474.21	421.30
474.39	421.30
474.57	461.09
474.75	393.21
474.93	397.89
475.12	428.32
475.30	418.96
475.48	440.02
475.66	416.62
475.84	442.36
476.02	379.17
476.20	393.21
476.38	376.83
476.56	458.74
476.74	418.96
476.92	428.32
477.10	381.51
477.28	372.15
477.46	386.19
477.64	437.68
477.82	414.27
478.00	388.53
478.18	447.04
478.36	442.36
478.54	351.08
478.72	325.33
478.90	348.74
479.08	423.64
479.26	477.47
479.44	390.87
479.62	362.78
479.80	395.55
479.98	402.57
480.16	416.62
480.34	416.62
480.52	376.83
480.70	407.25
480.88	423.64
481.06	463.43
481.24	360.44
481.41	456.40
481.59	479.81
481.77	418.96
481.95	409.59
482.13	414.27
482.31	491.51
482.49	421.30
482.67	440.02
482.85	454.06
483.03	440.02
483.21	339.38
483.39	376.83
483.57	440.02
483.74	416.62
483.92	433.00
484.10	362.78
484.28	470.45
484.46	496.19
484.64	440.02
484.82	397.89
485.00	484.49
485.18	416.62
485.35	397.89
485.53	381.51
485.71	409.59
485.89	400.23
486.07	428.32
486.25	440.02
486.43	447.04
486.61	383.85
486.78	500.87
486.96	437.68
487.14	374.49
487.32	425.98
487.50	402.57
487.68	395.55
487.85	430.66
488.03	395.55
488.21	402.57
488.39	346.40
488.57	430.66
488.75	477.47
488.92	498.53
489.10	496.19
489.28	463.43
489.46	456.40
489.64	447.04
489.81	461.09
489.99	395.55
490.17	425.98
490.35	472.79
490.53	433.00
490.70	381.51
490.88	341.72
491.06	365.12
491.24	409.59
491.41	433.00
491.59	416.62
491.77	416.62
491.95	421.30
492.13	449.38
492.30	423.64
492.48	383.85
492.66	393.21
492.84	423.64
493.01	402.57
493.19	433.00
493.37	428.32
493.54	409.59
493.72	442.36
493.90	379.17
494.08	372.15
494.25	395.55
494.43	437.68
494.61	397.89
494.79	362.78
494.96	418.96
495.14	465.77
495.32	447.04
495.49	437.68
495.67	344.06
495.85	383.85
496.02	409.59
496.20	372.15
496.38	425.98
496.55	451.72
496.73	454.06
496.91	402.57
497.09	395.55
497.26	362.78
497.44	444.70
497.62	444.70
497.79	390.87
497.97	418.96
498.14	418.96
498.32	397.89
498.50	404.91
498.67	463.43
498.85	416.62
499.03	407.25
499.20	447.04
499.38	423.64
499.56	390.87
499.73	409.59
499.91	465.77
500.08	414.27
500.26	402.57
500.44	465.77
500.61	463.43
500.79	372.15
500.97	369.80
501.14	470.45
501.32	397.89
501.49	451.72
501.67	344.06
501.84	411.93
502.02	489.17
502.20	423.64
502.37	468.11
502.55	440.02
502.72	299.59
502.90	414.27
503.07	498.53
503.25	428.32
503.43	409.59
503.60	430.66
503.78	430.66
503.95	444.70
504.13	416.62
504.30	411.93
504.48	440.02
504.65	477.47
504.83	416.62
505.01	435.34
505.18	376.83
505.36	458.74
505.53	430.66
505.71	428.32
505.88	440.02
506.06	416.62
506.23	367.46
506.41	425.98
506.58	393.21
506.76	414.27
506.93	409.59
507.11	383.85
507.28	416.62
507.46	435.34
507.63	437.68
507.81	360.44
507.98	411.93
508.16	421.30
508.33	416.62
508.50	379.17
508.68	416.62
508.85	386.19
509.03	376.83
509.20	393.21
509.38	416.62
509.55	430.66
509.73	393.21
509.90	449.38
510.08	421.30
510.25	477.47
510.42	428.32
510.60	423.64
510.77	442.36
510.95	486.83
511.12	379.17
511.30	395.55
511.47	395.55
511.64	449.38
511.82	458.74
511.99	470.45
512.17	404.91
512.34	449.38
512.51	421.30
512.69	395.55
512.86	482.15
513.04	454.06
513.21	376.83
513.38	440.02
513.56	423.64
513.73	468.11
513.90	404.91
514.08	421.30
514.25	447.04
514.43	463.43
514.60	440.02
514.77	442.36
514.95	437.68
515.12	376.83
515.29	444.70
515.47	475.13
515.64	416.62
515.81	397.89
515.99	449.38
516.16	402.57
516.33	386.19
516.51	425.98
516.68	390.87
516.85	395.55
517.03	395.55
517.20	428.32
517.37	430.66
517.54	472.79
517.72	475.13
517.89	341.72
518.06	458.74
518.24	500.87
518.41	442.36
518.58	425.98
518.75	468.11
518.93	360.44
519.10	383.85
519.27	402.57
519.45	372.15
519.62	437.68
519.79	437.68
519.96	447.04
520.14	409.59
520.31	430.66
520.48	397.89
520.65	428.32
520.83	479.81
521.00	397.89
521.17	400.23
521.34	381.51
521.52	414.27
521.69	376.83
521.86	395.55
522.03	416.62
522.20	397.89
522.38	388.53
522.55	416.62
522.72	442.36
522.89	428.32
523.07	498.53
523.24	444.70
523.41	337.04
523.58	383.85
523.75	327.68
523.92	362.78
524.10	404.91
524.27	376.83
524.44	330.02
524.61	468.11
524.78	355.76
524.96	355.76
525.13	390.87
525.30	456.40
525.47	423.64
525.64	388.53
525.81	395.55
525.98	402.57
526.16	386.19
526.33	416.62
526.50	379.17
526.67	400.23
526.84	379.17
527.01	379.17
527.18	332.36
527.36	388.53
527.53	339.38
527.70	505.56
527.87	461.09
528.04	433.00
528.21	351.08
528.38	435.34
528.55	477.47
528.72	444.70
528.89	437.68
529.07	400.23
529.24	418.96
529.41	414.27
529.58	374.49
529.75	334.70
529.92	461.09
530.09	407.25
530.26	477.47
530.43	376.83
530.60	421.30
530.77	428.32
530.94	468.11
531.11	493.85
531.28	416.62
531.46	423.64
531.63	428.32
531.80	414.27
531.97	437.68
532.14	489.17
532.31	402.57
532.48	430.66
532.65	484.49
532.82	435.34
532.99	428.32
533.16	430.66
533.33	421.30
533.50	421.30
533.67	440.02
533.84	449.38
534.01	369.80
534.18	411.93
534.35	425.98
534.52	390.87
534.69	449.38
534.86	493.85
535.03	423.64
535.20	461.09
535.37	421.30
535.54	374.49
535.71	411.93
535.88	463.43
536.05	475.13
536.22	454.06
536.38	353.42
536.55	465.77
536.72	451.72
536.89	386.19
537.06	269.16
537.23	390.87
537.40	376.83
537.57	386.19
537.74	414.27
537.91	444.70
538.08	451.72
538.25	430.66
538.42	449.38
538.59	437.68
538.75	386.19
538.92	386.19
539.09	472.79
539.26	383.85
539.43	444.70
539.60	369.80
539.77	395.55
539.94	379.17
540.11	397.89
540.28	486.83
540.44	381.51
540.61	510.24
540.78	362.78
540.95	433.00
541.12	514.92
541.29	425.98
541.46	355.76
541.62	423.64
541.79	489.17
541.96	383.85
542.13	381.51
542.30	360.44
542.47	477.47
542.63	388.53
542.80	451.72
542.97	376.83
543.14	418.96
543.31	414.27
543.48	456.40
543.64	404.91
543.81	454.06
543.98	367.46
544.15	386.19
544.32	482.15
544.48	395.55
544.65	348.74
544.82	393.21
544.99	428.32
545.16	395.55
545.32	411.93
545.49	346.40
545.66	358.10
545.83	414.27
546.00	360.44
546.16	395.55
546.33	397.89
546.50	435.34
546.67	409.59
546.83	404.91
547.00	365.12
547.17	365.12
547.34	461.09
547.50	423.64
547.67	449.38
547.84	407.25
548.00	465.77
548.17	440.02
548.34	376.83
548.51	514.92
548.67	383.85
548.84	376.83
549.01	421.30
549.18	423.64
549.34	416.62
549.51	418.96
549.68	433.00
549.84	437.68
550.01	475.13
550.18	463.43
550.34	477.47
550.51	400.23
550.68	409.59
550.84	433.00
551.01	428.32
551.18	482.15
551.34	430.66
551.51	484.49
551.68	444.70
551.84	425.98
552.01	383.85
552.18	372.15
552.34	491.51
552.51	437.68
552.68	433.00
552.84	435.34
553.01	461.09
553.18	444.70
553.34	381.51
553.51	400.23
553.67	435.34
553.84	454.06
554.01	454.06
554.17	411.93
554.34	425.98
554.51	425.98
554.67	456.40
554.84	477.47
555.00	468.11
555.17	433.00
555.33	444.70
555.50	470.45
555.67	437.68
555.83	409.59
556.00	477.47
556.16	564.07
556.33	477.47
556.50	437.68
556.66	425.98
556.83	416.62
556.99	395.55
557.16	454.06
557.32	435.34
557.49	440.02
557.65	411.93
557.82	397.89
557.98	442.36
558.15	442.36
558.32	341.72
558.48	411.93
558.65	491.51
558.81	461.09
558.98	397.89
559.14	465.77
559.31	435.34
559.47	393.21
559.64	423.64
559.80	486.83
559.97	465.77
560.13	386.19
560.30	428.32
560.46	346.40
560.63	369.80
560.79	397.89
560.96	433.00
561.12	477.47
561.29	437.68
561.45	360.44
561.61	414.27
561.78	468.11
561.94	465.77
562.11	393.21
562.27	372.15
562.44	458.74
562.60	407.25
562.77	510.24
562.93	433.00
563.10	451.72
563.26	428.32
563.42	440.02
563.59	517.26
563.75	456.40
563.92	465.77
564.08	397.89
564.24	425.98
564.41	428.32
564.57	423.64
564.74	463.43
564.90	444.70
565.07	456.40
565.23	397.89
565.39	423.64
565.56	461.09
565.72	374.49
565.88	400.23
566.05	435.34
566.21	472.79
566.38	472.79
566.54	386.19
566.70	444.70
566.87	411.93
567.03	400.23
567.19	421.30
567.36	451.72
567.52	418.96
567.68	388.53
567.85	435.34
568.01	344.06
568.17	510.24
568.34	440.02
568.50	433.00
568.66	388.53
568.83	477.47
568.99	376.83
569.15	411.93
569.32	402.57
569.48	416.62
569.64	407.25
569.81	402.57
569.97	454.06
570.13	430.66
570.30	337.04
570.46	372.15
570.62	433.00
570.78	386.19
570.95	484.49
571.11	435.34
571.27	425.98
571.43	418.96
571.60	440.02
571.76	383.85
571.92	435.34
572.09	423.64
572.25	437.68
572.41	418.96
572.57	388.53
572.74	456.40
572.90	482.15
573.06	400.23
573.22	454.06
573.38	425.98
573.55	482.15
573.71	493.85
573.87	430.66
574.03	393.21
574.20	437.68
574.36	463.43
574.52	425.98
574.68	430.66
574.84	416.62
575.01	386.19
575.17	442.36
575.33	451.72
575.49	400.23
575.65	411.93
575.82	425.98
575.98	416.62
576.14	465.77
576.30	360.44
576.46	400.23
576.62	390.87
576.79	444.70
576.95	510.24
577.11	463.43
577.27	447.04
577.43	407.25
577.59	388.53
577.75	383.85
577.92	393.21
578.08	461.09
578.24	444.70
578.40	421.30
578.56	475.13
578.72	449.38
578.88	484.49
579.04	444.70
579.21	475.13
579.37	433.00
579.53	411.93
579.69	475.13
579.85	395.55
580.01	433.00
580.17	435.34
580.33	430.66
580.49	390.87
580.65	416.62
580.82	421.30
580.98	397.89
581.14	454.06
581.30	409.59
581.46	395.55
581.62	414.27
581.78	468.11
581.94	437.68
582.10	437.68
582.26	425.98
582.42	409.59
582.58	425.98
582.74	388.53
582.90	468.11
583.06	376.83
583.22	402.57
583.38	351.08
583.54	374.49
583.70	414.27
583.86	437.68
584.02	477.47
584.18	348.74
584.34	421.30
584.50	360.44
584.66	348.74
584.82	393.21
584.98	369.80
585.14	379.17
585.30	421.30
585.46	418.96
585.62	358.10
585.78	407.25
585.94	348.74
586.10	376.83
586.26	388.53
586.42	510.24
586.58	489.17
586.74	440.02
586.90	430.66
587.06	418.96
587.22	447.04
587.38	402.57
587.54	360.44
587.70	463.43
587.86	442.36
588.02	435.34
588.18	477.47
588.34	550.03
588.49	416.62
588.65	458.74
588.81	418.96
588.97	416.62
589.13	388.53
589.29	454.06
589.45	430.66
589.61	411.93
589.77	444.70
589.93	425.98
590.08	337.04
590.24	369.80
590.40	433.00
590.56	470.45
590.72	397.89
590.88	360.44
591.04	339.38
591.20	414.27
591.35	435.34
591.51	400.23
591.67	365.12
591.83	414.27
591.99	416.62
592.15	411.93
592.31	440.02
592.46	390.87
592.62	379.17
592.78	390.87
592.94	461.09
593.10	388.53
593.26	470.45
593.41	386.19
593.57	451.72
593.73	348.74
593.89	442.36
594.05	428.32
594.20	404.91
594.36	404.91
594.52	479.81
594.68	367.46
594.84	454.06
594.99	440.02
595.15	437.68
595.31	449.38
595.47	435.34
595.62	421.30
595.78	454.06
595.94	388.53
596.10	500.87
596.25	404.91
596.41	461.09
596.57	451.72
596.73	388.53
596.88	320.65
597.04	390.87
597.20	496.19
597.36	421.30
597.51	358.10
597.67	348.74
597.83	367.46
597.99	435.34
598.14	348.74
598.30	435.34
598.46	390.87
598.61	414.27
598.77	496.19
598.93	437.68
599.09	468.11
599.24	416.62
599.40	421.30
599.56	360.44
599.71	388.53
599.87	430.66
600.03	458.74
600.18	440.02
600.34	475.13
600.50	367.46
600.65	423.64
600.81	437.68
600.97	322.99
601.12	470.45
601.28	498.53
601.44	400.23
601.59	376.83
601.75	468.11
601.91	444.70
602.06	433.00
602.22	435.34
602.37	428.32
602.53	365.12
602.69	475.13
602.84	430.66
603.00	402.57
603.16	395.55
603.31	461.09
603.47	425.98
603.62	379.17
603.78	425.98
603.94	472.79
604.09	437.68
604.25	468.11
604.40	393.21
604.56	397.89
604.71	397.89
604.87	369.80
605.03	376.83
605.18	435.34
605.34	435.34
605.49	390.87
605.65	437.68
605.80	388.53
605.96	381.51
606.12	407.25
606.27	547.69
606.43	449.38
606.58	353.42
606.74	386.19
606.89	395.55
607.05	379.17
607.20	430.66
607.36	400.23
607.51	451.72
607.67	430.66
607.82	454.06
607.98	535.98
608.13	421.30
608.29	442.36
608.44	440.02
608.60	507.90
608.75	411.93
608.91	437.68
609.06	472.79
609.22	397.89
609.37	346.40
609.53	362.78
609.68	407.25
609.84	444.70
609.99	404.91
610.15	430.66
