SpectraSuite Data File
++++++++++++++++++++++++++++++++++++
Date: Fri Oct 25 12:10:21 EDT 2013
User: price-jones
Dark Spectrum Present: No
Reference Spectrum Present: No
Number of Sampled Component Spectra: 1
Spectrometers: USB2+H05261
Integration Time (usec): 100000 (USB2+H05261)
Spectra Averaged: 1 (USB2+H05261)
Boxcar Smoothing: 0 (USB2+H05261)
Correct for Electrical Dark: No (USB2+H05261)
Strobe/Lamp Enabled: No (USB2+H05261)
Correct for Detector Non-linearity: No (USB2+H05261)
Correct for Stray Light: No (USB2+H05261)
Number of Pixels in Processed Spectrum: 2048
>>>>>Begin Processed Spectral Data<<<<<
365.73	346.40
365.92	346.40
366.12	346.40
366.32	198.95
366.52	182.56
366.72	161.50
366.91	262.14
367.11	250.44
367.31	191.92
367.51	264.48
367.70	269.16
367.90	227.03
368.10	285.55
368.30	212.99
368.49	234.05
368.69	252.78
368.89	241.08
369.09	266.82
369.28	301.93
369.48	194.26
369.68	259.80
369.87	308.95
370.07	322.99
370.27	348.74
370.47	372.15
370.66	271.50
370.86	301.93
371.06	369.80
371.25	341.72
371.45	360.44
371.65	353.42
371.84	416.62
372.04	308.95
372.24	421.30
372.44	386.19
372.63	414.27
372.83	458.74
373.03	421.30
373.22	435.34
373.42	404.91
373.62	407.25
373.81	505.56
374.01	355.76
374.21	510.24
374.40	421.30
374.60	484.49
374.79	351.08
374.99	463.43
375.19	418.96
375.38	381.51
375.58	409.59
375.78	428.32
375.97	435.34
376.17	498.53
376.37	437.68
376.56	489.17
376.76	383.85
376.95	388.53
377.15	386.19
377.35	456.40
377.54	386.19
377.74	468.11
377.93	388.53
378.13	360.44
378.33	484.49
378.52	376.83
378.72	447.04
378.91	456.40
379.11	414.27
379.31	425.98
379.50	407.25
379.70	407.25
379.89	383.85
380.09	395.55
380.28	418.96
380.48	395.55
380.68	416.62
380.87	472.79
381.07	372.15
381.26	402.57
381.46	348.74
381.65	383.85
381.85	428.32
382.04	362.78
382.24	355.76
382.43	358.10
382.63	372.15
382.83	390.87
383.02	440.02
383.22	418.96
383.41	416.62
383.61	449.38
383.80	341.72
384.00	404.91
384.19	409.59
384.39	376.83
384.58	365.12
384.78	479.81
384.97	348.74
385.17	332.36
385.36	327.68
385.56	388.53
385.75	407.25
385.95	435.34
386.14	423.64
386.34	379.17
386.53	388.53
386.72	348.74
386.92	442.36
387.11	360.44
387.31	437.68
387.50	444.70
387.70	416.62
387.89	421.30
388.09	433.00
388.28	430.66
388.48	355.76
388.67	418.96
388.86	409.59
389.06	393.21
389.25	435.34
389.45	404.91
389.64	395.55
389.84	369.80
390.03	346.40
390.22	414.27
390.42	437.68
390.61	423.64
390.81	395.55
391.00	414.27
391.19	454.06
391.39	411.93
391.58	383.85
391.78	362.78
391.97	416.62
392.16	437.68
392.36	388.53
392.55	423.64
392.75	414.27
392.94	358.10
393.13	433.00
393.33	362.78
393.52	390.87
393.71	393.21
393.91	442.36
394.10	404.91
394.29	454.06
394.49	362.78
394.68	369.80
394.88	440.02
395.07	482.15
395.26	409.59
395.46	463.43
395.65	416.62
395.84	411.93
396.04	482.15
396.23	409.59
396.42	388.53
396.62	332.36
396.81	315.97
397.00	383.85
397.19	393.21
397.39	418.96
397.58	444.70
397.77	411.93
397.97	416.62
398.16	381.51
398.35	397.89
398.55	383.85
398.74	423.64
398.93	393.21
399.12	395.55
399.32	430.66
399.51	374.49
399.70	397.89
399.90	470.45
400.09	475.13
400.28	379.17
400.47	407.25
400.67	449.38
400.86	365.12
401.05	404.91
401.24	437.68
401.44	407.25
401.63	423.64
401.82	414.27
402.01	451.72
402.21	395.55
402.40	388.53
402.59	395.55
402.78	407.25
402.97	390.87
403.17	362.78
403.36	421.30
403.55	414.27
403.74	465.77
403.93	395.55
404.13	468.11
404.32	442.36
404.51	365.12
404.70	451.72
404.89	400.23
405.09	454.06
405.28	355.76
405.47	369.80
405.66	444.70
405.85	407.25
406.05	444.70
406.24	421.30
406.43	395.55
406.62	402.57
406.81	421.30
407.00	386.19
407.20	435.34
407.39	386.19
407.58	458.74
407.77	414.27
407.96	454.06
408.15	390.87
408.34	435.34
408.54	458.74
408.73	390.87
408.92	437.68
409.11	381.51
409.30	475.13
409.49	367.46
409.68	437.68
409.87	437.68
410.07	468.11
410.26	390.87
410.45	388.53
410.64	416.62
410.83	409.59
411.02	390.87
411.21	404.91
411.40	367.46
411.59	409.59
411.78	407.25
411.98	414.27
412.17	360.44
412.36	430.66
412.55	402.57
412.74	404.91
412.93	468.11
413.12	407.25
413.31	402.57
413.50	421.30
413.69	430.66
413.88	465.77
414.07	433.00
414.26	447.04
414.45	435.34
414.64	425.98
414.83	418.96
415.02	447.04
415.22	383.85
415.41	400.23
415.60	428.32
415.79	393.21
415.98	416.62
416.17	395.55
416.36	444.70
416.55	425.98
416.74	468.11
416.93	386.19
417.12	458.74
417.31	433.00
417.50	418.96
417.69	512.58
417.88	353.42
418.07	440.02
418.26	365.12
418.45	369.80
418.64	395.55
418.83	428.32
419.02	411.93
419.21	447.04
419.39	425.98
419.58	430.66
419.77	409.59
419.96	402.57
420.15	447.04
420.34	397.89
420.53	421.30
420.72	402.57
420.91	299.59
421.10	463.43
421.29	414.27
421.48	381.51
421.67	358.10
421.86	393.21
422.05	404.91
422.24	425.98
422.43	409.59
422.61	421.30
422.80	381.51
422.99	435.34
423.18	367.46
423.37	428.32
423.56	442.36
423.75	454.06
423.94	414.27
424.13	381.51
424.32	428.32
424.50	433.00
424.69	400.23
424.88	444.70
425.07	411.93
425.26	430.66
425.45	435.34
425.64	407.25
425.83	407.25
426.01	400.23
426.20	423.64
426.39	418.96
426.58	381.51
426.77	437.68
426.96	458.74
427.15	430.66
427.33	409.59
427.52	456.40
427.71	386.19
427.90	435.34
428.09	376.83
428.28	409.59
428.46	444.70
428.65	411.93
428.84	442.36
429.03	414.27
429.22	475.13
429.40	411.93
429.59	425.98
429.78	477.47
429.97	409.59
430.16	430.66
430.34	414.27
430.53	381.51
430.72	425.98
430.91	407.25
431.10	498.53
431.28	390.87
431.47	418.96
431.66	390.87
431.85	430.66
432.03	411.93
432.22	505.56
432.41	400.23
432.60	348.74
432.79	388.53
432.97	442.36
433.16	397.89
433.35	456.40
433.54	407.25
433.72	393.21
433.91	435.34
434.10	379.17
434.28	376.83
434.47	430.66
434.66	372.15
434.85	386.19
435.03	430.66
435.22	521.94
435.41	423.64
435.59	423.64
435.78	390.87
435.97	339.38
436.16	397.89
436.34	456.40
436.53	351.08
436.72	442.36
436.90	449.38
437.09	383.85
437.28	437.68
437.46	365.12
437.65	486.83
437.84	414.27
438.02	365.12
438.21	472.79
438.40	414.27
438.58	376.83
438.77	416.62
438.96	456.40
439.14	386.19
439.33	477.47
439.52	447.04
439.70	407.25
439.89	430.66
440.08	339.38
440.26	386.19
440.45	430.66
440.63	383.85
440.82	386.19
441.01	440.02
441.19	397.89
441.38	454.06
441.57	458.74
441.75	454.06
441.94	388.53
442.12	381.51
442.31	374.49
442.50	428.32
442.68	386.19
442.87	341.72
443.05	430.66
443.24	430.66
443.43	468.11
443.61	393.21
443.80	369.80
443.98	388.53
444.17	442.36
444.35	416.62
444.54	421.30
444.73	425.98
444.91	381.51
445.10	397.89
445.28	423.64
445.47	447.04
445.65	418.96
445.84	402.57
446.02	421.30
446.21	376.83
446.39	444.70
446.58	437.68
446.77	435.34
446.95	414.27
447.14	414.27
447.32	388.53
447.51	383.85
447.69	397.89
447.88	456.40
448.06	496.19
448.25	442.36
448.43	477.47
448.62	397.89
448.80	423.64
448.99	451.72
449.17	388.53
449.36	428.32
449.54	383.85
449.73	383.85
449.91	472.79
450.10	430.66
450.28	416.62
450.46	430.66
450.65	379.17
450.83	299.59
451.02	411.93
451.20	416.62
451.39	390.87
451.57	379.17
451.76	437.68
451.94	376.83
452.13	407.25
452.31	393.21
452.49	402.57
452.68	456.40
452.86	337.04
453.05	444.70
453.23	355.76
453.42	463.43
453.60	428.32
453.78	390.87
453.97	409.59
454.15	374.49
454.34	430.66
454.52	414.27
454.70	437.68
454.89	381.51
455.07	407.25
455.26	449.38
455.44	470.45
455.62	390.87
455.81	379.17
455.99	423.64
456.17	421.30
456.36	381.51
456.54	430.66
456.73	425.98
456.91	388.53
457.09	433.00
457.28	444.70
457.46	482.15
457.64	463.43
457.83	414.27
458.01	454.06
458.19	447.04
458.38	386.19
458.56	409.59
458.74	383.85
458.93	397.89
459.11	425.98
459.29	430.66
459.48	416.62
459.66	496.19
459.84	479.81
460.03	454.06
460.21	402.57
460.39	418.96
460.57	393.21
460.76	458.74
460.94	386.19
461.12	435.34
461.31	386.19
461.49	386.19
461.67	381.51
461.85	418.96
462.04	444.70
462.22	753.65
462.40	372.15
462.59	397.89
462.77	341.72
462.95	465.77
463.13	390.87
463.32	435.34
463.50	437.68
463.68	381.51
463.86	437.68
464.05	388.53
464.23	428.32
464.41	428.32
464.59	433.00
464.78	383.85
464.96	407.25
465.14	472.79
465.32	437.68
465.50	369.80
465.69	470.45
465.87	341.72
466.05	355.76
466.23	360.44
466.41	411.93
466.60	339.38
466.78	423.64
466.96	440.02
467.14	388.53
467.32	360.44
467.51	425.98
467.69	456.40
467.87	430.66
468.05	397.89
468.23	465.77
468.41	479.81
468.60	400.23
468.78	404.91
468.96	486.83
469.14	358.10
469.32	402.57
469.50	411.93
469.69	400.23
469.87	381.51
470.05	355.76
470.23	372.15
470.41	425.98
470.59	339.38
470.77	418.96
470.95	435.34
471.14	414.27
471.32	369.80
471.50	451.72
471.68	416.62
471.86	437.68
472.04	374.49
472.22	440.02
472.40	449.38
472.58	365.12
472.77	421.30
472.95	393.21
473.13	465.77
473.31	425.98
473.49	414.27
473.67	409.59
473.85	484.49
474.03	418.96
474.21	447.04
474.39	444.70
474.57	407.25
474.75	409.59
474.93	390.87
475.12	414.27
475.30	463.43
475.48	449.38
475.66	360.44
475.84	465.77
476.02	351.08
476.20	456.40
476.38	430.66
476.56	468.11
476.74	409.59
476.92	437.68
477.10	428.32
477.28	430.66
477.46	414.27
477.64	421.30
477.82	416.62
478.00	376.83
478.18	379.17
478.36	367.46
478.54	320.65
478.72	327.68
478.90	437.68
479.08	465.77
479.26	402.57
479.44	437.68
479.62	402.57
479.80	447.04
479.98	440.02
480.16	454.06
480.34	421.30
480.52	437.68
480.70	430.66
480.88	388.53
481.06	393.21
481.24	470.45
481.41	435.34
481.59	365.12
481.77	404.91
481.95	470.45
482.13	461.09
482.31	393.21
482.49	433.00
482.67	454.06
482.85	402.57
483.03	402.57
483.21	418.96
483.39	416.62
483.57	376.83
483.74	388.53
483.92	400.23
484.10	351.08
484.28	386.19
484.46	390.87
484.64	442.36
484.82	416.62
485.00	397.89
485.18	465.77
485.35	369.80
485.53	393.21
485.71	423.64
485.89	440.02
486.07	409.59
486.25	444.70
486.43	393.21
486.61	475.13
486.78	442.36
486.96	444.70
487.14	425.98
487.32	425.98
487.50	423.64
487.68	425.98
487.85	388.53
488.03	468.11
488.21	411.93
488.39	423.64
488.57	372.15
488.75	386.19
488.92	461.09
489.10	400.23
489.28	425.98
489.46	393.21
489.64	388.53
489.81	463.43
489.99	425.98
490.17	435.34
490.35	430.66
490.53	369.80
490.70	433.00
490.88	404.91
491.06	402.57
491.24	447.04
491.41	416.62
491.59	437.68
491.77	407.25
491.95	430.66
492.13	409.59
492.30	409.59
492.48	437.68
492.66	409.59
492.84	407.25
493.01	482.15
493.19	489.17
493.37	437.68
493.54	505.56
493.72	428.32
493.90	379.17
494.08	454.06
494.25	400.23
494.43	414.27
494.61	421.30
494.79	416.62
494.96	388.53
495.14	383.85
495.32	351.08
495.49	395.55
495.67	465.77
495.85	458.74
496.02	409.59
496.20	386.19
496.38	425.98
496.55	423.64
496.73	416.62
496.91	400.23
497.09	353.42
497.26	407.25
497.44	379.17
497.62	437.68
497.79	358.10
497.97	386.19
498.14	358.10
498.32	381.51
498.50	374.49
498.67	386.19
498.85	362.78
499.03	409.59
499.20	393.21
499.38	365.12
499.56	423.64
499.73	381.51
499.91	416.62
500.08	402.57
500.26	409.59
500.44	463.43
500.61	418.96
500.79	395.55
500.97	421.30
501.14	395.55
501.32	374.49
501.49	430.66
501.67	315.97
501.84	407.25
502.02	383.85
502.20	416.62
502.37	486.83
502.55	381.51
502.72	421.30
502.90	500.87
503.07	388.53
503.25	365.12
503.43	444.70
503.60	395.55
503.78	376.83
503.95	435.34
504.13	430.66
504.30	433.00
504.48	402.57
504.65	416.62
504.83	449.38
505.01	393.21
505.18	435.34
505.36	421.30
505.53	437.68
505.71	379.17
505.88	409.59
506.06	337.04
506.23	355.76
506.41	330.02
506.58	374.49
506.76	454.06
506.93	386.19
507.11	411.93
507.28	369.80
507.46	376.83
507.63	411.93
507.81	372.15
507.98	337.04
508.16	416.62
508.33	437.68
508.50	428.32
508.68	367.46
508.85	409.59
509.03	442.36
509.20	411.93
509.38	442.36
509.55	383.85
509.73	458.74
509.90	435.34
510.08	411.93
510.25	341.72
510.42	404.91
510.60	423.64
510.77	402.57
510.95	365.12
511.12	425.98
511.30	465.77
511.47	400.23
511.64	423.64
511.82	407.25
511.99	425.98
512.17	409.59
512.34	423.64
512.51	402.57
512.69	369.80
512.86	386.19
513.04	381.51
513.21	479.81
513.38	435.34
513.56	428.32
513.73	496.19
513.90	407.25
514.08	461.09
514.25	367.46
514.43	458.74
514.60	421.30
514.77	397.89
514.95	428.32
515.12	428.32
515.29	444.70
515.47	433.00
515.64	400.23
515.81	454.06
515.99	442.36
516.16	414.27
516.33	407.25
516.51	379.17
516.68	411.93
516.85	397.89
517.03	369.80
517.20	456.40
517.37	421.30
517.54	386.19
517.72	388.53
517.89	477.47
518.06	393.21
518.24	496.19
518.41	454.06
518.58	489.17
518.75	423.64
518.93	433.00
519.10	461.09
519.27	435.34
519.45	458.74
519.62	430.66
519.79	421.30
519.96	372.15
520.14	374.49
520.31	451.72
520.48	407.25
520.65	421.30
520.83	393.21
521.00	423.64
521.17	428.32
521.34	402.57
521.52	372.15
521.69	402.57
521.86	346.40
522.03	428.32
522.20	433.00
522.38	402.57
522.55	421.30
522.72	409.59
522.89	437.68
523.07	442.36
523.24	409.59
523.41	435.34
523.58	437.68
523.75	386.19
523.92	404.91
524.10	397.89
524.27	458.74
524.44	486.83
524.61	400.23
524.78	503.22
524.96	442.36
525.13	400.23
525.30	454.06
525.47	390.87
525.64	440.02
525.81	407.25
525.98	409.59
526.16	416.62
526.33	425.98
526.50	489.17
526.67	388.53
526.84	379.17
527.01	447.04
527.18	491.51
527.36	428.32
527.53	421.30
527.70	447.04
527.87	334.70
528.04	447.04
528.21	416.62
528.38	454.06
528.55	479.81
528.72	454.06
528.89	507.90
529.07	444.70
529.24	430.66
529.41	475.13
529.58	369.80
529.75	386.19
529.92	470.45
530.09	411.93
530.26	456.40
530.43	425.98
530.60	393.21
530.77	376.83
530.94	407.25
531.11	365.12
531.28	369.80
531.46	468.11
531.63	400.23
531.80	484.49
531.97	458.74
532.14	360.44
532.31	433.00
532.48	463.43
532.65	388.53
532.82	381.51
532.99	388.53
533.16	337.04
533.33	400.23
533.50	386.19
533.67	400.23
533.84	461.09
534.01	468.11
534.18	372.15
534.35	449.38
534.52	355.76
534.69	482.15
534.86	437.68
535.03	365.12
535.20	355.76
535.37	449.38
535.54	393.21
535.71	425.98
535.88	404.91
536.05	374.49
536.22	524.28
536.38	442.36
536.55	404.91
536.72	437.68
536.89	449.38
537.06	360.44
537.23	449.38
537.40	430.66
537.57	386.19
537.74	479.81
537.91	383.85
538.08	360.44
538.25	449.38
538.42	344.06
538.59	407.25
538.75	381.51
538.92	440.02
539.09	442.36
539.26	402.57
539.43	383.85
539.60	430.66
539.77	437.68
539.94	395.55
540.11	484.49
540.28	461.09
540.44	463.43
540.61	409.59
540.78	400.23
540.95	411.93
541.12	463.43
541.29	416.62
541.46	449.38
541.62	388.53
541.79	388.53
541.96	425.98
542.13	388.53
542.30	379.17
542.47	451.72
542.63	489.17
542.80	407.25
542.97	425.98
543.14	472.79
543.31	437.68
543.48	465.77
543.64	390.87
543.81	440.02
543.98	463.43
544.15	435.34
544.32	409.59
544.48	442.36
544.65	461.09
544.82	400.23
544.99	416.62
545.16	463.43
545.32	365.12
545.49	468.11
545.66	404.91
545.83	416.62
546.00	369.80
546.16	440.02
546.33	477.47
546.50	428.32
546.67	388.53
546.83	468.11
547.00	402.57
547.17	379.17
547.34	425.98
547.50	444.70
547.67	423.64
547.84	442.36
548.00	411.93
548.17	433.00
548.34	498.53
548.51	477.47
548.67	510.24
548.84	449.38
549.01	400.23
549.18	395.55
549.34	437.68
549.51	447.04
549.68	458.74
549.84	393.21
550.01	442.36
550.18	454.06
550.34	512.58
550.51	512.58
550.68	503.22
550.84	477.47
551.01	411.93
551.18	442.36
551.34	395.55
551.51	437.68
551.68	447.04
551.84	484.49
552.01	444.70
552.18	409.59
552.34	482.15
552.51	442.36
552.68	421.30
552.84	461.09
553.01	430.66
553.18	477.47
553.34	353.42
553.51	411.93
553.67	454.06
553.84	447.04
554.01	451.72
554.17	440.02
554.34	423.64
554.51	414.27
554.67	442.36
554.84	493.85
555.00	512.58
555.17	353.42
555.33	416.62
555.50	393.21
555.67	390.87
555.83	423.64
556.00	468.11
556.16	559.39
556.33	503.22
556.50	381.51
556.66	472.79
556.83	388.53
556.99	360.44
557.16	355.76
557.32	388.53
557.49	386.19
557.65	472.79
557.82	390.87
557.98	440.02
558.15	393.21
558.32	437.68
558.48	454.06
558.65	458.74
558.81	367.46
558.98	437.68
559.14	444.70
559.31	486.83
559.47	416.62
559.64	365.12
559.80	393.21
559.97	369.80
560.13	428.32
560.30	362.78
560.46	402.57
560.63	362.78
560.79	472.79
560.96	442.36
561.12	437.68
561.29	402.57
561.45	411.93
561.61	430.66
561.78	456.40
561.94	449.38
562.11	393.21
562.27	421.30
562.44	372.15
562.60	388.53
562.77	442.36
562.93	470.45
563.10	360.44
563.26	390.87
563.42	475.13
563.59	423.64
563.75	404.91
563.92	470.45
564.08	447.04
564.24	418.96
564.41	451.72
564.57	383.85
564.74	425.98
564.90	362.78
565.07	507.90
565.23	479.81
565.39	409.59
565.56	440.02
565.72	433.00
565.88	381.51
566.05	433.00
566.21	425.98
566.38	381.51
566.54	496.19
566.70	442.36
566.87	416.62
567.03	402.57
567.19	400.23
567.36	402.57
567.52	379.17
567.68	367.46
567.85	447.04
568.01	395.55
568.17	433.00
568.34	402.57
568.50	409.59
568.66	383.85
568.83	430.66
568.99	428.32
569.15	454.06
569.32	416.62
569.48	411.93
569.64	395.55
569.81	393.21
569.97	407.25
570.13	428.32
570.30	362.78
570.46	458.74
570.62	456.40
570.78	395.55
570.95	339.38
571.11	411.93
571.27	482.15
571.43	465.77
571.60	402.57
571.76	409.59
571.92	395.55
572.09	365.12
572.25	390.87
572.41	442.36
572.57	472.79
572.74	510.24
572.90	444.70
573.06	411.93
573.22	444.70
573.38	486.83
573.55	376.83
573.71	402.57
573.87	498.53
574.03	468.11
574.20	358.10
574.36	496.19
574.52	414.27
574.68	400.23
574.84	430.66
575.01	435.34
575.17	402.57
575.33	461.09
575.49	500.87
575.65	430.66
575.82	379.17
575.98	430.66
576.14	447.04
576.30	440.02
576.46	402.57
576.62	369.80
576.79	442.36
576.95	458.74
577.11	386.19
577.27	414.27
577.43	463.43
577.59	465.77
577.75	423.64
577.92	400.23
578.08	397.89
578.24	376.83
578.40	440.02
578.56	414.27
578.72	491.51
578.88	475.13
579.04	400.23
579.21	358.10
579.37	416.62
579.53	423.64
579.69	411.93
579.85	369.80
580.01	416.62
580.17	379.17
580.33	379.17
580.49	395.55
580.65	461.09
580.82	411.93
580.98	337.04
581.14	358.10
581.30	447.04
581.46	379.17
581.62	472.79
581.78	369.80
581.94	418.96
582.10	414.27
582.26	423.64
582.42	444.70
582.58	435.34
582.74	451.72
582.90	465.77
583.06	404.91
583.22	388.53
583.38	458.74
583.54	404.91
583.70	477.47
583.86	440.02
584.02	404.91
584.18	416.62
584.34	404.91
584.50	411.93
584.66	367.46
584.82	367.46
584.98	411.93
585.14	393.21
585.30	461.09
585.46	435.34
585.62	440.02
585.78	423.64
585.94	463.43
586.10	379.17
586.26	411.93
586.42	435.34
586.58	414.27
586.74	379.17
586.90	433.00
587.06	440.02
587.22	337.04
587.38	383.85
587.54	381.51
587.70	503.22
587.86	423.64
588.02	362.78
588.18	484.49
588.34	461.09
588.49	346.40
588.65	435.34
588.81	393.21
588.97	451.72
589.13	428.32
589.29	428.32
589.45	463.43
589.61	416.62
589.77	404.91
589.93	374.49
590.08	430.66
590.24	404.91
590.40	454.06
590.56	386.19
590.72	386.19
590.88	397.89
591.04	428.32
591.20	475.13
591.35	400.23
591.51	374.49
591.67	409.59
591.83	353.42
591.99	454.06
592.15	482.15
592.31	440.02
592.46	423.64
592.62	423.64
592.78	404.91
592.94	402.57
593.10	369.80
593.26	411.93
593.41	421.30
593.57	402.57
593.73	418.96
593.89	423.64
594.05	463.43
594.20	353.42
594.36	416.62
594.52	428.32
594.68	388.53
594.84	428.32
594.99	477.47
595.15	437.68
595.31	402.57
595.47	437.68
595.62	430.66
595.78	421.30
595.94	421.30
596.10	533.64
596.25	486.83
596.41	386.19
596.57	435.34
596.73	372.15
596.88	425.98
597.04	449.38
597.20	379.17
597.36	442.36
597.51	400.23
597.67	440.02
597.83	369.80
597.99	444.70
598.14	447.04
598.30	498.53
598.46	379.17
598.61	416.62
598.77	456.40
598.93	402.57
599.09	437.68
599.24	400.23
599.40	461.09
599.56	376.83
599.71	362.78
599.87	386.19
600.03	470.45
600.18	479.81
600.34	470.45
600.50	411.93
600.65	428.32
600.81	461.09
600.97	435.34
601.12	383.85
601.28	433.00
601.44	383.85
601.59	465.77
601.75	397.89
601.91	442.36
602.06	395.55
602.22	531.30
602.37	416.62
602.53	414.27
602.69	372.15
602.84	397.89
603.00	465.77
603.16	390.87
603.31	379.17
603.47	418.96
603.62	383.85
603.78	409.59
603.94	454.06
604.09	409.59
604.25	423.64
604.40	341.72
604.56	386.19
604.71	442.36
604.87	428.32
605.03	484.49
605.18	355.76
605.34	360.44
605.49	365.12
605.65	386.19
605.80	404.91
605.96	397.89
606.12	524.28
606.27	409.59
606.43	404.91
606.58	388.53
606.74	468.11
606.89	381.51
607.05	369.80
607.20	461.09
607.36	388.53
607.51	402.57
607.67	482.15
607.82	395.55
607.98	435.34
608.13	475.13
608.29	430.66
608.44	461.09
608.60	428.32
608.75	409.59
608.91	402.57
609.06	386.19
609.22	435.34
609.37	388.53
609.53	402.57
609.68	414.27
609.84	451.72
609.99	388.53
610.15	477.47
