SpectraSuite Data File
++++++++++++++++++++++++++++++++++++
Date: Fri Oct 25 12:10:40 EDT 2013
User: price-jones
Dark Spectrum Present: No
Reference Spectrum Present: No
Number of Sampled Component Spectra: 1
Spectrometers: USB2+H05261
Integration Time (usec): 100000 (USB2+H05261)
Spectra Averaged: 1 (USB2+H05261)
Boxcar Smoothing: 0 (USB2+H05261)
Correct for Electrical Dark: No (USB2+H05261)
Strobe/Lamp Enabled: No (USB2+H05261)
Correct for Detector Non-linearity: No (USB2+H05261)
Correct for Stray Light: No (USB2+H05261)
Number of Pixels in Processed Spectrum: 2048
>>>>>Begin Processed Spectral Data<<<<<
365.73	304.27
365.92	304.27
366.12	304.27
366.32	304.27
366.52	212.99
366.72	252.78
366.91	191.92
367.11	194.26
367.31	182.56
367.51	259.80
367.70	315.97
367.90	236.39
368.10	250.44
368.30	297.25
368.49	238.73
368.69	259.80
368.89	266.82
369.09	210.65
369.28	241.08
369.48	290.23
369.68	224.69
369.87	327.68
370.07	278.52
370.27	388.53
370.47	381.51
370.66	306.61
370.86	437.68
371.06	344.06
371.25	334.70
371.45	383.85
371.65	393.21
371.84	393.21
372.04	353.42
372.24	355.76
372.44	315.97
372.63	433.00
372.83	395.55
373.03	409.59
373.22	397.89
373.42	435.34
373.62	355.76
373.81	409.59
374.01	442.36
374.21	411.93
374.40	355.76
374.60	440.02
374.79	418.96
374.99	411.93
375.19	444.70
375.38	498.53
375.58	418.96
375.78	386.19
375.97	465.77
376.17	454.06
376.37	390.87
376.56	416.62
376.76	418.96
376.95	435.34
377.15	374.49
377.35	433.00
377.54	411.93
377.74	367.46
377.93	418.96
378.13	411.93
378.33	397.89
378.52	355.76
378.72	468.11
378.91	381.51
379.11	433.00
379.31	430.66
379.50	369.80
379.70	449.38
379.89	372.15
380.09	397.89
380.28	341.72
380.48	416.62
380.68	388.53
380.87	358.10
381.07	409.59
381.26	465.77
381.46	416.62
381.65	433.00
381.85	395.55
382.04	430.66
382.24	454.06
382.43	369.80
382.63	404.91
382.83	397.89
383.02	435.34
383.22	416.62
383.41	381.51
383.61	348.74
383.80	416.62
384.00	400.23
384.19	407.25
384.39	388.53
384.58	409.59
384.78	423.64
384.97	430.66
385.17	372.15
385.36	407.25
385.56	369.80
385.75	304.27
385.95	320.65
386.14	444.70
386.34	383.85
386.53	402.57
386.72	465.77
386.92	447.04
387.11	374.49
387.31	409.59
387.50	390.87
387.70	451.72
387.89	423.64
388.09	397.89
388.28	465.77
388.48	325.33
388.67	458.74
388.86	355.76
389.06	418.96
389.25	435.34
389.45	454.06
389.64	379.17
389.84	433.00
390.03	414.27
390.22	388.53
390.42	416.62
390.61	381.51
390.81	430.66
391.00	388.53
391.19	423.64
391.39	430.66
391.58	433.00
391.78	369.80
391.97	437.68
392.16	451.72
392.36	376.83
392.55	435.34
392.75	404.91
392.94	362.78
393.13	402.57
393.33	440.02
393.52	423.64
393.71	428.32
393.91	414.27
394.10	355.76
394.29	425.98
394.49	442.36
394.68	351.08
394.88	407.25
395.07	395.55
395.26	463.43
395.46	409.59
395.65	416.62
395.84	418.96
396.04	428.32
396.23	486.83
396.42	416.62
396.62	376.83
396.81	454.06
397.00	491.51
397.19	416.62
397.39	407.25
397.58	390.87
397.77	463.43
397.97	449.38
398.16	400.23
398.35	327.68
398.55	440.02
398.74	395.55
398.93	383.85
399.12	367.46
399.32	407.25
399.51	411.93
399.70	383.85
399.90	454.06
400.09	390.87
400.28	381.51
400.47	393.21
400.67	435.34
400.86	395.55
401.05	393.21
401.24	402.57
401.44	346.40
401.63	407.25
401.82	447.04
402.01	418.96
402.21	395.55
402.40	346.40
402.59	381.51
402.78	409.59
402.97	322.99
403.17	383.85
403.36	315.97
403.55	393.21
403.74	437.68
403.93	376.83
404.13	444.70
404.32	425.98
404.51	414.27
404.70	425.98
404.89	376.83
405.09	475.13
405.28	379.17
405.47	407.25
405.66	425.98
405.85	423.64
406.05	407.25
406.24	425.98
406.43	435.34
406.62	421.30
406.81	465.77
407.00	421.30
407.20	360.44
407.39	369.80
407.58	367.46
407.77	423.64
407.96	414.27
408.15	416.62
408.34	475.13
408.54	456.40
408.73	411.93
408.92	484.49
409.11	393.21
409.30	428.32
409.49	386.19
409.68	442.36
409.87	433.00
410.07	360.44
410.26	346.40
410.45	397.89
410.64	358.10
410.83	369.80
411.02	433.00
411.21	376.83
411.40	376.83
411.59	416.62
411.78	390.87
411.98	397.89
412.17	416.62
412.36	451.72
412.55	447.04
412.74	423.64
412.93	407.25
413.12	421.30
413.31	428.32
413.50	437.68
413.69	395.55
413.88	421.30
414.07	386.19
414.26	381.51
414.45	402.57
414.64	421.30
414.83	381.51
415.02	411.93
415.22	425.98
415.41	353.42
415.60	337.04
415.79	409.59
415.98	454.06
416.17	404.91
416.36	414.27
416.55	362.78
416.74	397.89
416.93	425.98
417.12	372.15
417.31	433.00
417.50	428.32
417.69	440.02
417.88	365.12
418.07	388.53
418.26	423.64
418.45	447.04
418.64	470.45
418.83	374.49
419.02	402.57
419.21	435.34
419.39	425.98
419.58	458.74
419.77	355.76
419.96	402.57
420.15	414.27
420.34	407.25
420.53	409.59
420.72	404.91
420.91	437.68
421.10	383.85
421.29	404.91
421.48	430.66
421.67	414.27
421.86	386.19
422.05	372.15
422.24	423.64
422.43	407.25
422.61	360.44
422.80	414.27
422.99	390.87
423.18	421.30
423.37	411.93
423.56	355.76
423.75	465.77
423.94	374.49
424.13	393.21
424.32	411.93
424.50	407.25
424.69	442.36
424.88	404.91
425.07	372.15
425.26	418.96
425.45	348.74
425.64	383.85
425.83	425.98
426.01	416.62
426.20	440.02
426.39	388.53
426.58	353.42
426.77	325.33
426.96	386.19
427.15	496.19
427.33	383.85
427.52	395.55
427.71	330.02
427.90	402.57
428.09	447.04
428.28	390.87
428.46	397.89
428.65	395.55
428.84	428.32
429.03	470.45
429.22	393.21
429.40	337.04
429.59	486.83
429.78	397.89
429.97	397.89
430.16	437.68
430.34	393.21
430.53	437.68
430.72	449.38
430.91	433.00
431.10	454.06
431.28	381.51
431.47	421.30
431.66	425.98
431.85	386.19
432.03	414.27
432.22	425.98
432.41	428.32
432.60	440.02
432.79	395.55
432.97	421.30
433.16	409.59
433.35	395.55
433.54	360.44
433.72	479.81
433.91	374.49
434.10	358.10
434.28	423.64
434.47	404.91
434.66	386.19
434.85	430.66
435.03	451.72
435.22	362.78
435.41	400.23
435.59	372.15
435.78	496.19
435.97	397.89
436.16	393.21
436.34	332.36
436.53	411.93
436.72	393.21
436.90	409.59
437.09	395.55
437.28	362.78
437.46	433.00
437.65	442.36
437.84	414.27
438.02	421.30
438.21	411.93
438.40	456.40
438.58	311.29
438.77	365.12
438.96	404.91
439.14	360.44
439.33	479.81
439.52	402.57
439.70	355.76
439.89	423.64
440.08	397.89
440.26	404.91
440.45	383.85
440.63	421.30
440.82	423.64
441.01	435.34
441.19	472.79
441.38	407.25
441.57	409.59
441.75	451.72
441.94	437.68
442.12	428.32
442.31	407.25
442.50	411.93
442.68	456.40
442.87	440.02
443.05	402.57
443.24	367.46
443.43	400.23
443.61	390.87
443.80	472.79
443.98	433.00
444.17	353.42
444.35	332.36
444.54	421.30
444.73	390.87
444.91	463.43
445.10	411.93
445.28	397.89
445.47	449.38
445.65	360.44
445.84	411.93
446.02	397.89
446.21	407.25
446.39	428.32
446.58	407.25
446.77	435.34
446.95	400.23
447.14	374.49
447.32	465.77
447.51	402.57
447.69	470.45
447.88	423.64
448.06	423.64
448.25	435.34
448.43	372.15
448.62	461.09
448.80	383.85
448.99	353.42
449.17	376.83
449.36	400.23
449.54	388.53
449.73	374.49
449.91	353.42
450.10	374.49
450.28	421.30
450.46	416.62
450.65	393.21
450.83	421.30
451.02	461.09
451.20	330.02
451.39	414.27
451.57	348.74
451.76	393.21
451.94	337.04
452.13	447.04
452.31	425.98
452.49	386.19
452.68	404.91
452.86	414.27
453.05	479.81
453.23	379.17
453.42	425.98
453.60	341.72
453.78	475.13
453.97	423.64
454.15	409.59
454.34	339.38
454.52	444.70
454.70	383.85
454.89	442.36
455.07	360.44
455.26	430.66
455.44	447.04
455.62	409.59
455.81	374.49
455.99	423.64
456.17	468.11
456.36	465.77
456.54	433.00
456.73	444.70
456.91	374.49
457.09	423.64
457.28	472.79
457.46	358.10
457.64	402.57
457.83	393.21
458.01	414.27
458.19	388.53
458.38	440.02
458.56	369.80
458.74	346.40
458.93	409.59
459.11	402.57
459.29	367.46
459.48	395.55
459.66	451.72
459.84	386.19
460.03	493.85
460.21	386.19
460.39	407.25
460.57	435.34
460.76	409.59
460.94	437.68
461.12	418.96
461.31	393.21
461.49	418.96
461.67	465.77
461.85	351.08
462.04	435.34
462.22	741.95
462.40	458.74
462.59	393.21
462.77	337.04
462.95	458.74
463.13	449.38
463.32	404.91
463.50	400.23
463.68	414.27
463.86	411.93
464.05	430.66
464.23	461.09
464.41	463.43
464.59	463.43
464.78	348.74
464.96	472.79
465.14	428.32
465.32	411.93
465.50	400.23
465.69	465.77
465.87	414.27
466.05	430.66
466.23	428.32
466.41	369.80
466.60	421.30
466.78	388.53
466.96	397.89
467.14	404.91
467.32	409.59
467.51	421.30
467.69	411.93
467.87	433.00
468.05	458.74
468.23	447.04
468.41	416.62
468.60	507.90
468.78	390.87
468.96	372.15
469.14	421.30
469.32	437.68
469.50	353.42
469.69	360.44
469.87	372.15
470.05	400.23
470.23	416.62
470.41	376.83
470.59	376.83
470.77	442.36
470.95	461.09
471.14	463.43
471.32	425.98
471.50	425.98
471.68	365.12
471.86	376.83
472.04	390.87
472.22	458.74
472.40	433.00
472.58	421.30
472.77	451.72
472.95	416.62
473.13	442.36
473.31	369.80
473.49	440.02
473.67	353.42
473.85	402.57
474.03	475.13
474.21	409.59
474.39	374.49
474.57	418.96
474.75	428.32
474.93	388.53
475.12	442.36
475.30	374.49
475.48	362.78
475.66	407.25
475.84	418.96
476.02	475.13
476.20	409.59
476.38	428.32
476.56	484.49
476.74	322.99
476.92	421.30
477.10	393.21
477.28	372.15
477.46	388.53
477.64	428.32
477.82	416.62
478.00	404.91
478.18	404.91
478.36	388.53
478.54	454.06
478.72	428.32
478.90	397.89
479.08	369.80
479.26	428.32
479.44	435.34
479.62	390.87
479.80	393.21
479.98	369.80
480.16	430.66
480.34	388.53
480.52	386.19
480.70	416.62
480.88	451.72
481.06	397.89
481.24	423.64
481.41	400.23
481.59	423.64
481.77	447.04
481.95	390.87
482.13	479.81
482.31	360.44
482.49	379.17
482.67	388.53
482.85	409.59
483.03	463.43
483.21	383.85
483.39	430.66
483.57	414.27
483.74	372.15
483.92	442.36
484.10	435.34
484.28	435.34
484.46	430.66
484.64	374.49
484.82	339.38
485.00	456.40
485.18	484.49
485.35	458.74
485.53	348.74
485.71	435.34
485.89	423.64
486.07	409.59
486.25	477.47
486.43	395.55
486.61	379.17
486.78	388.53
486.96	287.89
487.14	390.87
487.32	416.62
487.50	358.10
487.68	442.36
487.85	353.42
488.03	414.27
488.21	477.47
488.39	374.49
488.57	463.43
488.75	386.19
488.92	496.19
489.10	411.93
489.28	402.57
489.46	348.74
489.64	308.95
489.81	416.62
489.99	428.32
490.17	393.21
490.35	395.55
490.53	374.49
490.70	428.32
490.88	503.22
491.06	435.34
491.24	468.11
491.41	428.32
491.59	421.30
491.77	418.96
491.95	367.46
492.13	388.53
492.30	407.25
492.48	416.62
492.66	388.53
492.84	355.76
493.01	379.17
493.19	411.93
493.37	418.96
493.54	393.21
493.72	430.66
493.90	468.11
494.08	379.17
494.25	355.76
494.43	374.49
494.61	390.87
494.79	414.27
494.96	386.19
495.14	327.68
495.32	430.66
495.49	468.11
495.67	454.06
495.85	397.89
496.02	372.15
496.20	514.92
496.38	440.02
496.55	388.53
496.73	386.19
496.91	400.23
497.09	404.91
497.26	388.53
497.44	362.78
497.62	465.77
497.79	367.46
497.97	411.93
498.14	433.00
498.32	444.70
498.50	423.64
498.67	430.66
498.85	318.31
499.03	433.00
499.20	400.23
499.38	388.53
499.56	416.62
499.73	470.45
499.91	461.09
500.08	395.55
500.26	390.87
500.44	435.34
500.61	425.98
500.79	414.27
500.97	484.49
501.14	435.34
501.32	337.04
501.49	423.64
501.67	358.10
501.84	379.17
502.02	421.30
502.20	421.30
502.37	393.21
502.55	468.11
502.72	400.23
502.90	437.68
503.07	409.59
503.25	383.85
503.43	353.42
503.60	437.68
503.78	414.27
503.95	437.68
504.13	395.55
504.30	430.66
504.48	430.66
504.65	428.32
504.83	348.74
505.01	334.70
505.18	393.21
505.36	430.66
505.53	390.87
505.71	376.83
505.88	365.12
506.06	468.11
506.23	428.32
506.41	425.98
506.58	379.17
506.76	411.93
506.93	365.12
507.11	404.91
507.28	397.89
507.46	435.34
507.63	465.77
507.81	395.55
507.98	444.70
508.16	379.17
508.33	479.81
508.50	404.91
508.68	372.15
508.85	381.51
509.03	313.63
509.20	402.57
509.38	379.17
509.55	381.51
509.73	411.93
509.90	369.80
510.08	465.77
510.25	390.87
510.42	449.38
510.60	447.04
510.77	402.57
510.95	390.87
511.12	360.44
511.30	454.06
511.47	468.11
511.64	372.15
511.82	407.25
511.99	409.59
512.17	360.44
512.34	458.74
512.51	404.91
512.69	395.55
512.86	425.98
513.04	442.36
513.21	444.70
513.38	369.80
513.56	451.72
513.73	376.83
513.90	493.85
514.08	430.66
514.25	362.78
514.43	337.04
514.60	393.21
514.77	421.30
514.95	454.06
515.12	425.98
515.29	367.46
515.47	425.98
515.64	447.04
515.81	395.55
515.99	409.59
516.16	491.51
516.33	454.06
516.51	407.25
516.68	383.85
516.85	372.15
517.03	475.13
517.20	456.40
517.37	407.25
517.54	386.19
517.72	376.83
517.89	470.45
518.06	444.70
518.24	421.30
518.41	414.27
518.58	461.09
518.75	454.06
518.93	393.21
519.10	395.55
519.27	397.89
519.45	353.42
519.62	475.13
519.79	430.66
519.96	351.08
520.14	463.43
520.31	425.98
520.48	348.74
520.65	397.89
520.83	414.27
521.00	395.55
521.17	444.70
521.34	440.02
521.52	435.34
521.69	430.66
521.86	390.87
522.03	437.68
522.20	423.64
522.38	411.93
522.55	421.30
522.72	379.17
522.89	423.64
523.07	524.28
523.24	409.59
523.41	423.64
523.58	341.72
523.75	451.72
523.92	400.23
524.10	407.25
524.27	379.17
524.44	444.70
524.61	348.74
524.78	458.74
524.96	353.42
525.13	484.49
525.30	440.02
525.47	388.53
525.64	463.43
525.81	461.09
525.98	418.96
526.16	393.21
526.33	379.17
526.50	367.46
526.67	362.78
526.84	393.21
527.01	428.32
527.18	404.91
527.36	421.30
527.53	376.83
527.70	479.81
527.87	383.85
528.04	454.06
528.21	444.70
528.38	428.32
528.55	444.70
528.72	489.17
528.89	411.93
529.07	461.09
529.24	393.21
529.41	456.40
529.58	423.64
529.75	449.38
529.92	409.59
530.09	404.91
530.26	449.38
530.43	489.17
530.60	395.55
530.77	390.87
530.94	393.21
531.11	444.70
531.28	379.17
531.46	423.64
531.63	407.25
531.80	468.11
531.97	458.74
532.14	421.30
532.31	339.38
532.48	444.70
532.65	402.57
532.82	477.47
532.99	465.77
533.16	369.80
533.33	447.04
533.50	447.04
533.67	423.64
533.84	409.59
534.01	390.87
534.18	327.68
534.35	463.43
534.52	444.70
534.69	447.04
534.86	463.43
535.03	414.27
535.20	414.27
535.37	376.83
535.54	383.85
535.71	358.10
535.88	428.32
536.05	362.78
536.22	430.66
536.38	390.87
536.55	425.98
536.72	503.22
536.89	470.45
537.06	430.66
537.23	447.04
537.40	386.19
537.57	383.85
537.74	447.04
537.91	414.27
538.08	404.91
538.25	416.62
538.42	397.89
538.59	397.89
538.75	386.19
538.92	411.93
539.09	400.23
539.26	390.87
539.43	402.57
539.60	397.89
539.77	442.36
539.94	435.34
540.11	425.98
540.28	430.66
540.44	407.25
540.61	386.19
540.78	416.62
540.95	383.85
541.12	470.45
541.29	519.60
541.46	430.66
541.62	435.34
541.79	416.62
541.96	411.93
542.13	447.04
542.30	330.02
542.47	540.66
542.63	418.96
542.80	393.21
542.97	428.32
543.14	418.96
543.31	456.40
543.48	404.91
543.64	449.38
543.81	437.68
543.98	397.89
544.15	430.66
544.32	461.09
544.48	402.57
544.65	418.96
544.82	454.06
544.99	416.62
545.16	437.68
545.32	402.57
545.49	435.34
545.66	344.06
545.83	379.17
546.00	449.38
546.16	395.55
546.33	299.59
546.50	458.74
546.67	423.64
546.83	486.83
547.00	507.90
547.17	390.87
547.34	421.30
547.50	372.15
547.67	465.77
547.84	425.98
548.00	395.55
548.17	374.49
548.34	433.00
548.51	409.59
548.67	383.85
548.84	383.85
549.01	393.21
549.18	372.15
549.34	395.55
549.51	440.02
549.68	444.70
549.84	418.96
550.01	393.21
550.18	489.17
550.34	491.51
550.51	416.62
550.68	451.72
550.84	463.43
551.01	411.93
551.18	383.85
551.34	404.91
551.51	374.49
551.68	393.21
551.84	468.11
552.01	330.02
552.18	423.64
552.34	367.46
552.51	372.15
552.68	409.59
552.84	351.08
553.01	484.49
553.18	416.62
553.34	383.85
553.51	334.70
553.67	393.21
553.84	393.21
554.01	418.96
554.17	458.74
554.34	397.89
554.51	470.45
554.67	411.93
554.84	411.93
555.00	465.77
555.17	423.64
555.33	372.15
555.50	379.17
555.67	383.85
555.83	449.38
556.00	390.87
556.16	521.94
556.33	533.64
556.50	414.27
556.66	407.25
556.83	369.80
556.99	360.44
557.16	454.06
557.32	437.68
557.49	472.79
557.65	428.32
557.82	456.40
557.98	437.68
558.15	369.80
558.32	423.64
558.48	374.49
558.65	383.85
558.81	475.13
558.98	322.99
559.14	440.02
559.31	433.00
559.47	444.70
559.64	358.10
559.80	461.09
559.97	440.02
560.13	456.40
560.30	346.40
560.46	444.70
560.63	425.98
560.79	465.77
560.96	400.23
561.12	388.53
561.29	381.51
561.45	411.93
561.61	374.49
561.78	496.19
561.94	402.57
562.11	351.08
562.27	407.25
562.44	393.21
562.60	414.27
562.77	430.66
562.93	433.00
563.10	365.12
563.26	444.70
563.42	393.21
563.59	423.64
563.75	402.57
563.92	372.15
564.08	372.15
564.24	440.02
564.41	421.30
564.57	397.89
564.74	365.12
564.90	449.38
565.07	418.96
565.23	395.55
565.39	332.36
565.56	517.26
565.72	374.49
565.88	379.17
566.05	339.38
566.21	451.72
566.38	461.09
566.54	491.51
566.70	360.44
566.87	414.27
567.03	397.89
567.19	425.98
567.36	416.62
567.52	369.80
567.68	507.90
567.85	411.93
568.01	442.36
568.17	418.96
568.34	416.62
568.50	430.66
568.66	435.34
568.83	472.79
568.99	416.62
569.15	433.00
569.32	447.04
569.48	400.23
569.64	388.53
569.81	477.47
569.97	381.51
570.13	512.58
570.30	416.62
570.46	430.66
570.62	447.04
570.78	362.78
570.95	428.32
571.11	475.13
571.27	465.77
571.43	454.06
571.60	461.09
571.76	449.38
571.92	421.30
572.09	461.09
572.25	395.55
572.41	341.72
572.57	376.83
572.74	442.36
572.90	447.04
573.06	421.30
573.22	374.49
573.38	416.62
573.55	379.17
573.71	374.49
573.87	376.83
574.03	400.23
574.20	411.93
574.36	430.66
574.52	442.36
574.68	386.19
574.84	447.04
575.01	320.65
575.17	365.12
575.33	447.04
575.49	447.04
575.65	442.36
575.82	503.22
575.98	493.85
576.14	416.62
576.30	425.98
576.46	444.70
576.62	421.30
576.79	435.34
576.95	416.62
577.11	397.89
577.27	386.19
577.43	379.17
577.59	409.59
577.75	463.43
577.92	428.32
578.08	379.17
578.24	327.68
578.40	470.45
578.56	510.24
578.72	383.85
578.88	477.47
579.04	395.55
579.21	390.87
579.37	409.59
579.53	409.59
579.69	463.43
579.85	421.30
580.01	444.70
580.17	322.99
580.33	484.49
580.49	423.64
580.65	449.38
580.82	376.83
580.98	475.13
581.14	390.87
581.30	461.09
581.46	397.89
581.62	425.98
581.78	393.21
581.94	428.32
582.10	433.00
582.26	304.27
582.42	365.12
582.58	369.80
582.74	355.76
582.90	421.30
583.06	435.34
583.22	486.83
583.38	383.85
583.54	386.19
583.70	339.38
583.86	482.15
584.02	444.70
584.18	423.64
584.34	395.55
584.50	475.13
584.66	402.57
584.82	351.08
584.98	414.27
585.14	433.00
585.30	437.68
585.46	407.25
585.62	451.72
585.78	409.59
585.94	372.15
586.10	489.17
586.26	407.25
586.42	421.30
586.58	454.06
586.74	372.15
586.90	437.68
587.06	447.04
587.22	440.02
587.38	390.87
587.54	393.21
587.70	477.47
587.86	440.02
588.02	388.53
588.18	372.15
588.34	461.09
588.49	353.42
588.65	447.04
588.81	421.30
588.97	442.36
589.13	376.83
589.29	379.17
589.45	447.04
589.61	428.32
589.77	465.77
589.93	339.38
590.08	379.17
590.24	402.57
590.40	400.23
590.56	425.98
590.72	423.64
590.88	355.76
591.04	395.55
591.20	447.04
591.35	449.38
591.51	428.32
591.67	418.96
591.83	418.96
591.99	418.96
592.15	397.89
592.31	430.66
592.46	437.68
592.62	449.38
592.78	376.83
592.94	411.93
593.10	379.17
593.26	416.62
593.41	372.15
593.57	369.80
593.73	470.45
593.89	435.34
594.05	442.36
594.20	437.68
594.36	470.45
594.52	463.43
594.68	346.40
594.84	454.06
594.99	503.22
595.15	418.96
595.31	458.74
595.47	414.27
595.62	407.25
595.78	383.85
595.94	400.23
596.10	416.62
596.25	379.17
596.41	458.74
596.57	484.49
596.73	395.55
596.88	463.43
597.04	400.23
597.20	442.36
597.36	390.87
597.51	433.00
597.67	437.68
597.83	395.55
597.99	465.77
598.14	402.57
598.30	395.55
598.46	390.87
598.61	444.70
598.77	425.98
598.93	428.32
599.09	437.68
599.24	407.25
599.40	465.77
599.56	400.23
599.71	407.25
599.87	472.79
600.03	388.53
600.18	397.89
600.34	374.49
600.50	475.13
600.65	430.66
600.81	397.89
600.97	393.21
601.12	447.04
601.28	416.62
601.44	362.78
601.59	496.19
601.75	505.56
601.91	390.87
602.06	416.62
602.22	489.17
602.37	428.32
602.53	397.89
602.69	409.59
602.84	388.53
603.00	442.36
603.16	344.06
603.31	423.64
603.47	423.64
603.62	334.70
603.78	367.46
603.94	468.11
604.09	383.85
604.25	461.09
604.40	374.49
604.56	386.19
604.71	479.81
604.87	374.49
605.03	463.43
605.18	454.06
605.34	416.62
605.49	414.27
605.65	437.68
605.80	409.59
605.96	437.68
606.12	447.04
606.27	449.38
606.43	479.81
606.58	423.64
606.74	400.23
606.89	437.68
607.05	400.23
607.20	400.23
607.36	433.00
607.51	407.25
607.67	458.74
607.82	348.74
607.98	390.87
608.13	414.27
608.29	390.87
608.44	477.47
608.60	493.85
608.75	472.79
608.91	397.89
609.06	435.34
609.22	498.53
609.37	425.98
609.53	386.19
609.68	397.89
609.84	400.23
609.99	355.76
610.15	528.96
