SpectraSuite Data File
++++++++++++++++++++++++++++++++++++
Date: Fri Oct 25 12:11:07 EDT 2013
User: price-jones
Dark Spectrum Present: No
Reference Spectrum Present: No
Number of Sampled Component Spectra: 1
Spectrometers: USB2+H05261
Integration Time (usec): 100000 (USB2+H05261)
Spectra Averaged: 1 (USB2+H05261)
Boxcar Smoothing: 0 (USB2+H05261)
Correct for Electrical Dark: No (USB2+H05261)
Strobe/Lamp Enabled: No (USB2+H05261)
Correct for Detector Non-linearity: No (USB2+H05261)
Correct for Stray Light: No (USB2+H05261)
Number of Pixels in Processed Spectrum: 2048
>>>>>Begin Processed Spectral Data<<<<<
365.73	322.99
365.92	322.99
366.12	322.99
366.32	271.50
366.52	222.35
366.72	243.42
366.91	264.48
367.11	273.84
367.31	201.29
367.51	234.05
367.70	224.69
367.90	287.89
368.10	224.69
368.30	215.33
368.49	304.27
368.69	320.65
368.89	187.24
369.09	301.93
369.28	231.71
369.48	243.42
369.68	259.80
369.87	285.55
370.07	301.93
370.27	358.10
370.47	367.46
370.66	273.84
370.86	351.08
371.06	477.47
371.25	344.06
371.45	402.57
371.65	458.74
371.84	430.66
372.04	367.46
372.24	430.66
372.44	425.98
372.63	390.87
372.83	353.42
373.03	393.21
373.22	414.27
373.42	447.04
373.62	397.89
373.81	428.32
374.01	418.96
374.21	519.60
374.40	458.74
374.60	379.17
374.79	374.49
374.99	449.38
375.19	397.89
375.38	386.19
375.58	463.43
375.78	449.38
375.97	353.42
376.17	414.27
376.37	428.32
376.56	430.66
376.76	461.09
376.95	381.51
377.15	423.64
377.35	458.74
377.54	407.25
377.74	430.66
377.93	381.51
378.13	435.34
378.33	433.00
378.52	355.76
378.72	430.66
378.91	428.32
379.11	376.83
379.31	418.96
379.50	418.96
379.70	425.98
379.89	451.72
380.09	369.80
380.28	383.85
380.48	379.17
380.68	479.81
380.87	409.59
381.07	416.62
381.26	468.11
381.46	449.38
381.65	472.79
381.85	458.74
382.04	388.53
382.24	358.10
382.43	411.93
382.63	369.80
382.83	421.30
383.02	461.09
383.22	440.02
383.41	383.85
383.61	393.21
383.80	416.62
384.00	348.74
384.19	407.25
384.39	402.57
384.58	376.83
384.78	421.30
384.97	393.21
385.17	390.87
385.36	393.21
385.56	386.19
385.75	435.34
385.95	414.27
386.14	444.70
386.34	514.92
386.53	318.31
386.72	425.98
386.92	425.98
387.11	397.89
387.31	437.68
387.50	416.62
387.70	355.76
387.89	390.87
388.09	304.27
388.28	383.85
388.48	344.06
388.67	407.25
388.86	430.66
389.06	433.00
389.25	381.51
389.45	397.89
389.64	433.00
389.84	376.83
390.03	407.25
390.22	395.55
390.42	393.21
390.61	411.93
390.81	435.34
391.00	374.49
391.19	376.83
391.39	395.55
391.58	444.70
391.78	393.21
391.97	362.78
392.16	418.96
392.36	458.74
392.55	465.77
392.75	437.68
392.94	428.32
393.13	489.17
393.33	358.10
393.52	470.45
393.71	440.02
393.91	402.57
394.10	409.59
394.29	407.25
394.49	383.85
394.68	369.80
394.88	416.62
395.07	388.53
395.26	411.93
395.46	400.23
395.65	416.62
395.84	409.59
396.04	491.51
396.23	402.57
396.42	393.21
396.62	491.51
396.81	393.21
397.00	423.64
397.19	435.34
397.39	397.89
397.58	402.57
397.77	383.85
397.97	367.46
398.16	365.12
398.35	442.36
398.55	400.23
398.74	423.64
398.93	437.68
399.12	437.68
399.32	423.64
399.51	400.23
399.70	418.96
399.90	418.96
400.09	444.70
400.28	433.00
400.47	379.17
400.67	390.87
400.86	400.23
401.05	414.27
401.24	444.70
401.44	458.74
401.63	442.36
401.82	461.09
402.01	404.91
402.21	456.40
402.40	444.70
402.59	414.27
402.78	397.89
402.97	369.80
403.17	433.00
403.36	334.70
403.55	341.72
403.74	397.89
403.93	402.57
404.13	414.27
404.32	433.00
404.51	458.74
404.70	425.98
404.89	388.53
405.09	421.30
405.28	465.77
405.47	395.55
405.66	334.70
405.85	470.45
406.05	423.64
406.24	273.84
406.43	433.00
406.62	444.70
406.81	386.19
407.00	442.36
407.20	418.96
407.39	388.53
407.58	451.72
407.77	372.15
407.96	477.47
408.15	411.93
408.34	402.57
408.54	421.30
408.73	435.34
408.92	388.53
409.11	440.02
409.30	454.06
409.49	407.25
409.68	489.17
409.87	440.02
410.07	381.51
410.26	423.64
410.45	414.27
410.64	458.74
410.83	346.40
411.02	404.91
411.21	447.04
411.40	444.70
411.59	330.02
411.78	358.10
411.98	430.66
412.17	402.57
412.36	404.91
412.55	411.93
412.74	430.66
412.93	475.13
413.12	430.66
413.31	433.00
413.50	437.68
413.69	433.00
413.88	332.36
414.07	416.62
414.26	374.49
414.45	383.85
414.64	395.55
414.83	393.21
415.02	498.53
415.22	393.21
415.41	425.98
415.60	447.04
415.79	402.57
415.98	437.68
416.17	325.33
416.36	454.06
416.55	486.83
416.74	393.21
416.93	421.30
417.12	409.59
417.31	393.21
417.50	390.87
417.69	486.83
417.88	428.32
418.07	468.11
418.26	423.64
418.45	355.76
418.64	423.64
418.83	386.19
419.02	393.21
419.21	383.85
419.39	468.11
419.58	395.55
419.77	383.85
419.96	433.00
420.15	360.44
420.34	454.06
420.53	461.09
420.72	346.40
420.91	358.10
421.10	372.15
421.29	411.93
421.48	374.49
421.67	386.19
421.86	374.49
422.05	395.55
422.24	358.10
422.43	425.98
422.61	442.36
422.80	339.38
422.99	388.53
423.18	344.06
423.37	390.87
423.56	416.62
423.75	425.98
423.94	409.59
424.13	500.87
424.32	449.38
424.50	315.97
424.69	383.85
424.88	430.66
425.07	411.93
425.26	458.74
425.45	463.43
425.64	367.46
425.83	454.06
426.01	393.21
426.20	428.32
426.39	449.38
426.58	404.91
426.77	550.03
426.96	484.49
427.15	435.34
427.33	402.57
427.52	414.27
427.71	360.44
427.90	402.57
428.09	409.59
428.28	407.25
428.46	388.53
428.65	435.34
428.84	456.40
429.03	425.98
429.22	393.21
429.40	358.10
429.59	414.27
429.78	423.64
429.97	395.55
430.16	393.21
430.34	393.21
430.53	407.25
430.72	294.91
430.91	386.19
431.10	325.33
431.28	414.27
431.47	451.72
431.66	362.78
431.85	428.32
432.03	421.30
432.22	388.53
432.41	344.06
432.60	433.00
432.79	449.38
432.97	435.34
433.16	353.42
433.35	411.93
433.54	355.76
433.72	390.87
433.91	496.19
434.10	379.17
434.28	416.62
434.47	388.53
434.66	435.34
434.85	376.83
435.03	425.98
435.22	468.11
435.41	468.11
435.59	414.27
435.78	409.59
435.97	430.66
436.16	475.13
436.34	428.32
436.53	395.55
436.72	458.74
436.90	397.89
437.09	348.74
437.28	404.91
437.46	404.91
437.65	390.87
437.84	428.32
438.02	393.21
438.21	482.15
438.40	360.44
438.58	346.40
438.77	430.66
438.96	463.43
439.14	397.89
439.33	418.96
439.52	351.08
439.70	458.74
439.89	430.66
440.08	379.17
440.26	425.98
440.45	461.09
440.63	409.59
440.82	414.27
441.01	346.40
441.19	395.55
441.38	409.59
441.57	400.23
441.75	421.30
441.94	411.93
442.12	458.74
442.31	409.59
442.50	348.74
442.68	463.43
442.87	365.12
443.05	430.66
443.24	367.46
443.43	393.21
443.61	409.59
443.80	421.30
443.98	386.19
444.17	393.21
444.35	388.53
444.54	400.23
444.73	444.70
444.91	491.51
445.10	416.62
445.28	374.49
445.47	374.49
445.65	414.27
445.84	372.15
446.02	353.42
446.21	482.15
446.39	355.76
446.58	421.30
446.77	376.83
446.95	409.59
447.14	367.46
447.32	440.02
447.51	360.44
447.69	409.59
447.88	435.34
448.06	510.24
448.25	423.64
448.43	435.34
448.62	360.44
448.80	433.00
448.99	421.30
449.17	386.19
449.36	325.33
449.54	475.13
449.73	372.15
449.91	383.85
450.10	407.25
450.28	435.34
450.46	442.36
450.65	404.91
450.83	411.93
451.02	430.66
451.20	404.91
451.39	418.96
451.57	477.47
451.76	404.91
451.94	463.43
452.13	456.40
452.31	519.60
452.49	477.47
452.68	435.34
452.86	442.36
453.05	454.06
453.23	400.23
453.42	344.06
453.60	435.34
453.78	379.17
453.97	379.17
454.15	433.00
454.34	433.00
454.52	489.17
454.70	447.04
454.89	372.15
455.07	421.30
455.26	447.04
455.44	463.43
455.62	395.55
455.81	411.93
455.99	374.49
456.17	440.02
456.36	421.30
456.54	379.17
456.73	395.55
456.91	360.44
457.09	428.32
457.28	433.00
457.46	440.02
457.64	400.23
457.83	358.10
458.01	390.87
458.19	477.47
458.38	463.43
458.56	374.49
458.74	393.21
458.93	400.23
459.11	397.89
459.29	437.68
459.48	402.57
459.66	510.24
459.84	433.00
460.03	449.38
460.21	379.17
460.39	318.31
460.57	355.76
460.76	425.98
460.94	402.57
461.12	456.40
461.31	486.83
461.49	358.10
461.67	411.93
461.85	425.98
462.04	367.46
462.22	809.83
462.40	416.62
462.59	411.93
462.77	379.17
462.95	451.72
463.13	421.30
463.32	447.04
463.50	362.78
463.68	428.32
463.86	421.30
464.05	397.89
464.23	475.13
464.41	344.06
464.59	374.49
464.78	360.44
464.96	475.13
465.14	400.23
465.32	414.27
465.50	489.17
465.69	458.74
465.87	367.46
466.05	449.38
466.23	440.02
466.41	444.70
466.60	402.57
466.78	397.89
466.96	428.32
467.14	404.91
467.32	531.30
467.51	442.36
467.69	451.72
467.87	430.66
468.05	402.57
468.23	414.27
468.41	461.09
468.60	393.21
468.78	454.06
468.96	393.21
469.14	355.76
469.32	423.64
469.50	409.59
469.69	437.68
469.87	437.68
470.05	393.21
470.23	421.30
470.41	360.44
470.59	414.27
470.77	463.43
470.95	416.62
471.14	430.66
471.32	505.56
471.50	421.30
471.68	409.59
471.86	458.74
472.04	421.30
472.22	400.23
472.40	365.12
472.58	421.30
472.77	442.36
472.95	411.93
473.13	447.04
473.31	409.59
473.49	388.53
473.67	360.44
473.85	383.85
474.03	444.70
474.21	402.57
474.39	388.53
474.57	510.24
474.75	404.91
474.93	360.44
475.12	360.44
475.30	416.62
475.48	425.98
475.66	449.38
475.84	388.53
476.02	451.72
476.20	428.32
476.38	498.53
476.56	468.11
476.74	372.15
476.92	369.80
477.10	360.44
477.28	463.43
477.46	404.91
477.64	444.70
477.82	414.27
478.00	407.25
478.18	440.02
478.36	386.19
478.54	379.17
478.72	388.53
478.90	418.96
479.08	416.62
479.26	468.11
479.44	444.70
479.62	416.62
479.80	400.23
479.98	376.83
480.16	355.76
480.34	425.98
480.52	411.93
480.70	386.19
480.88	451.72
481.06	388.53
481.24	360.44
481.41	393.21
481.59	404.91
481.77	381.51
481.95	477.47
482.13	437.68
482.31	369.80
482.49	400.23
482.67	404.91
482.85	449.38
483.03	416.62
483.21	390.87
483.39	428.32
483.57	416.62
483.74	437.68
483.92	400.23
484.10	440.02
484.28	416.62
484.46	461.09
484.64	393.21
484.82	414.27
485.00	425.98
485.18	444.70
485.35	482.15
485.53	463.43
485.71	505.56
485.89	341.72
486.07	484.49
486.25	505.56
486.43	407.25
486.61	472.79
486.78	503.22
486.96	421.30
487.14	435.34
487.32	449.38
487.50	365.12
487.68	498.53
487.85	393.21
488.03	451.72
488.21	411.93
488.39	425.98
488.57	353.42
488.75	374.49
488.92	519.60
489.10	425.98
489.28	479.81
489.46	386.19
489.64	400.23
489.81	437.68
489.99	447.04
490.17	475.13
490.35	498.53
490.53	353.42
490.70	381.51
490.88	407.25
491.06	404.91
491.24	393.21
491.41	400.23
491.59	379.17
491.77	407.25
491.95	454.06
492.13	386.19
492.30	418.96
492.48	404.91
492.66	393.21
492.84	430.66
493.01	428.32
493.19	442.36
493.37	339.38
493.54	491.51
493.72	475.13
493.90	400.23
494.08	388.53
494.25	393.21
494.43	482.15
494.61	479.81
494.79	397.89
494.96	416.62
495.14	416.62
495.32	393.21
495.49	437.68
495.67	440.02
495.85	456.40
496.02	341.72
496.20	404.91
496.38	423.64
496.55	421.30
496.73	407.25
496.91	360.44
497.09	332.36
497.26	376.83
497.44	409.59
497.62	393.21
497.79	381.51
497.97	376.83
498.14	421.30
498.32	458.74
498.50	433.00
498.67	372.15
498.85	442.36
499.03	437.68
499.20	386.19
499.38	447.04
499.56	414.27
499.73	383.85
499.91	339.38
500.08	404.91
500.26	381.51
500.44	397.89
500.61	425.98
500.79	369.80
500.97	402.57
501.14	381.51
501.32	388.53
501.49	484.49
501.67	489.17
501.84	433.00
502.02	416.62
502.20	411.93
502.37	404.91
502.55	346.40
502.72	376.83
502.90	477.47
503.07	409.59
503.25	327.68
503.43	374.49
503.60	369.80
503.78	468.11
503.95	465.77
504.13	423.64
504.30	433.00
504.48	477.47
504.65	440.02
504.83	440.02
505.01	390.87
505.18	435.34
505.36	470.45
505.53	351.08
505.71	376.83
505.88	482.15
506.06	330.02
506.23	344.06
506.41	367.46
506.58	386.19
506.76	444.70
506.93	440.02
507.11	411.93
507.28	416.62
507.46	442.36
507.63	472.79
507.81	388.53
507.98	409.59
508.16	435.34
508.33	388.53
508.50	400.23
508.68	411.93
508.85	447.04
509.03	395.55
509.20	339.38
509.38	421.30
509.55	491.51
509.73	461.09
509.90	430.66
510.08	308.95
510.25	442.36
510.42	442.36
510.60	451.72
510.77	454.06
510.95	369.80
511.12	451.72
511.30	444.70
511.47	341.72
511.64	512.58
511.82	404.91
511.99	409.59
512.17	409.59
512.34	430.66
512.51	423.64
512.69	355.76
512.86	414.27
513.04	416.62
513.21	416.62
513.38	400.23
513.56	376.83
513.73	320.65
513.90	416.62
514.08	433.00
514.25	440.02
514.43	421.30
514.60	383.85
514.77	456.40
514.95	395.55
515.12	444.70
515.29	444.70
515.47	402.57
515.64	402.57
515.81	428.32
515.99	414.27
516.16	362.78
516.33	428.32
516.51	388.53
516.68	430.66
516.85	475.13
517.03	353.42
517.20	416.62
517.37	475.13
517.54	444.70
517.72	512.58
517.89	451.72
518.06	423.64
518.24	486.83
518.41	440.02
518.58	411.93
518.75	407.25
518.93	400.23
519.10	393.21
519.27	367.46
519.45	430.66
519.62	416.62
519.79	388.53
519.96	416.62
520.14	421.30
520.31	440.02
520.48	390.87
520.65	407.25
520.83	393.21
521.00	442.36
521.17	411.93
521.34	397.89
521.52	421.30
521.69	423.64
521.86	395.55
522.03	421.30
522.20	381.51
522.38	425.98
522.55	444.70
522.72	367.46
522.89	468.11
523.07	444.70
523.24	409.59
523.41	397.89
523.58	388.53
523.75	386.19
523.92	437.68
524.10	442.36
524.27	503.22
524.44	444.70
524.61	407.25
524.78	351.08
524.96	421.30
525.13	447.04
525.30	407.25
525.47	484.49
525.64	458.74
525.81	388.53
525.98	433.00
526.16	327.68
526.33	416.62
526.50	379.17
526.67	418.96
526.84	337.04
527.01	346.40
527.18	463.43
527.36	416.62
527.53	437.68
527.70	444.70
527.87	404.91
528.04	428.32
528.21	444.70
528.38	435.34
528.55	433.00
528.72	458.74
528.89	423.64
529.07	355.76
529.24	374.49
529.41	407.25
529.58	451.72
529.75	407.25
529.92	493.85
530.09	425.98
530.26	393.21
530.43	437.68
530.60	435.34
530.77	402.57
530.94	421.30
531.11	428.32
531.28	425.98
531.46	381.51
531.63	390.87
531.80	449.38
531.97	358.10
532.14	402.57
532.31	458.74
532.48	421.30
532.65	411.93
532.82	393.21
532.99	411.93
533.16	334.70
533.33	322.99
533.50	402.57
533.67	400.23
533.84	435.34
534.01	442.36
534.18	479.81
534.35	395.55
534.52	461.09
534.69	435.34
534.86	353.42
535.03	435.34
535.20	367.46
535.37	414.27
535.54	397.89
535.71	386.19
535.88	390.87
536.05	390.87
536.22	393.21
536.38	435.34
536.55	430.66
536.72	472.79
536.89	379.17
537.06	376.83
537.23	402.57
537.40	381.51
537.57	353.42
537.74	479.81
537.91	489.17
538.08	423.64
538.25	374.49
538.42	482.15
538.59	402.57
538.75	372.15
538.92	416.62
539.09	456.40
539.26	458.74
539.43	500.87
539.60	477.47
539.77	416.62
539.94	454.06
540.11	425.98
540.28	433.00
540.44	411.93
540.61	393.21
540.78	365.12
540.95	355.76
541.12	440.02
541.29	411.93
541.46	503.22
541.62	404.91
541.79	423.64
541.96	461.09
542.13	411.93
542.30	442.36
542.47	468.11
542.63	414.27
542.80	428.32
542.97	435.34
543.14	498.53
543.31	381.51
543.48	402.57
543.64	416.62
543.81	409.59
543.98	421.30
544.15	341.72
544.32	430.66
544.48	454.06
544.65	447.04
544.82	440.02
544.99	400.23
545.16	486.83
545.32	404.91
545.49	451.72
545.66	444.70
545.83	393.21
546.00	388.53
546.16	400.23
546.33	353.42
546.50	341.72
546.67	416.62
546.83	465.77
547.00	454.06
547.17	414.27
547.34	376.83
547.50	383.85
547.67	461.09
547.84	433.00
548.00	479.81
548.17	351.08
548.34	383.85
548.51	470.45
548.67	355.76
548.84	454.06
549.01	461.09
549.18	456.40
549.34	489.17
549.51	362.78
549.68	400.23
549.84	468.11
550.01	393.21
550.18	458.74
550.34	388.53
550.51	451.72
550.68	465.77
550.84	362.78
551.01	437.68
551.18	383.85
551.34	400.23
551.51	444.70
551.68	358.10
551.84	365.12
552.01	330.02
552.18	390.87
552.34	397.89
552.51	414.27
552.68	475.13
552.84	404.91
553.01	411.93
553.18	409.59
553.34	430.66
553.51	339.38
553.67	416.62
553.84	468.11
554.01	418.96
554.17	519.60
554.34	353.42
554.51	425.98
554.67	435.34
554.84	449.38
555.00	411.93
555.17	421.30
555.33	407.25
555.50	470.45
555.67	404.91
555.83	425.98
556.00	449.38
556.16	540.66
556.33	404.91
556.50	376.83
556.66	430.66
556.83	381.51
556.99	409.59
557.16	365.12
557.32	372.15
557.49	407.25
557.65	409.59
557.82	390.87
557.98	386.19
558.15	376.83
558.32	409.59
558.48	428.32
558.65	418.96
558.81	418.96
558.98	390.87
559.14	402.57
559.31	362.78
559.47	447.04
559.64	400.23
559.80	425.98
559.97	454.06
560.13	402.57
560.30	339.38
560.46	423.64
560.63	397.89
560.79	379.17
560.96	383.85
561.12	390.87
561.29	421.30
561.45	383.85
561.61	454.06
561.78	472.79
561.94	425.98
562.11	442.36
562.27	482.15
562.44	376.83
562.60	418.96
562.77	449.38
562.93	468.11
563.10	423.64
563.26	367.46
563.42	379.17
563.59	425.98
563.75	390.87
563.92	440.02
564.08	421.30
564.24	390.87
564.41	411.93
564.57	383.85
564.74	425.98
564.90	430.66
565.07	402.57
565.23	510.24
565.39	486.83
565.56	425.98
565.72	346.40
565.88	414.27
566.05	402.57
566.21	449.38
566.38	430.66
566.54	383.85
566.70	395.55
566.87	458.74
567.03	367.46
567.19	393.21
567.36	325.33
567.52	440.02
567.68	404.91
567.85	486.83
568.01	369.80
568.17	400.23
568.34	388.53
568.50	468.11
568.66	367.46
568.83	498.53
568.99	332.36
569.15	400.23
569.32	355.76
569.48	402.57
569.64	407.25
569.81	390.87
569.97	456.40
570.13	404.91
570.30	425.98
570.46	409.59
570.62	397.89
570.78	414.27
570.95	320.65
571.11	451.72
571.27	503.22
571.43	360.44
571.60	428.32
571.76	451.72
571.92	435.34
572.09	477.47
572.25	442.36
572.41	393.21
572.57	367.46
572.74	365.12
572.90	423.64
573.06	491.51
573.22	416.62
573.38	454.06
573.55	425.98
573.71	442.36
573.87	407.25
574.03	400.23
574.20	421.30
574.36	456.40
574.52	454.06
574.68	418.96
574.84	435.34
575.01	395.55
575.17	381.51
575.33	430.66
575.49	500.87
575.65	423.64
575.82	486.83
575.98	433.00
576.14	372.15
576.30	423.64
576.46	376.83
576.62	447.04
576.79	458.74
576.95	468.11
577.11	388.53
577.27	414.27
577.43	512.58
577.59	524.28
577.75	411.93
577.92	400.23
578.08	372.15
578.24	430.66
578.40	411.93
578.56	374.49
578.72	458.74
578.88	386.19
579.04	416.62
579.21	421.30
579.37	414.27
579.53	379.17
579.69	383.85
579.85	381.51
580.01	418.96
580.17	388.53
580.33	421.30
580.49	360.44
580.65	421.30
580.82	397.89
580.98	393.21
581.14	409.59
581.30	503.22
581.46	437.68
581.62	442.36
581.78	374.49
581.94	477.47
582.10	489.17
582.26	440.02
582.42	388.53
582.58	409.59
582.74	372.15
582.90	451.72
583.06	414.27
583.22	440.02
583.38	496.19
583.54	451.72
583.70	325.33
583.86	433.00
584.02	442.36
584.18	472.79
584.34	383.85
584.50	383.85
584.66	402.57
584.82	386.19
584.98	433.00
585.14	369.80
585.30	388.53
585.46	390.87
585.62	383.85
585.78	409.59
585.94	379.17
586.10	367.46
586.26	428.32
586.42	500.87
586.58	470.45
586.74	390.87
586.90	367.46
587.06	451.72
587.22	411.93
587.38	444.70
587.54	376.83
587.70	454.06
587.86	381.51
588.02	395.55
588.18	465.77
588.34	400.23
588.49	397.89
588.65	360.44
588.81	416.62
588.97	449.38
589.13	351.08
589.29	425.98
589.45	393.21
589.61	423.64
589.77	472.79
589.93	458.74
590.08	418.96
590.24	472.79
590.40	451.72
590.56	393.21
590.72	397.89
590.88	374.49
591.04	407.25
591.20	447.04
591.35	386.19
591.51	428.32
591.67	425.98
591.83	425.98
591.99	383.85
592.15	484.49
592.31	470.45
592.46	444.70
592.62	437.68
592.78	416.62
592.94	416.62
593.10	421.30
593.26	428.32
593.41	458.74
593.57	433.00
593.73	418.96
593.89	468.11
594.05	388.53
594.20	435.34
594.36	512.58
594.52	437.68
594.68	388.53
594.84	372.15
594.99	379.17
595.15	437.68
595.31	374.49
595.47	482.15
595.62	372.15
595.78	451.72
595.94	341.72
596.10	346.40
596.25	421.30
596.41	486.83
596.57	369.80
596.73	442.36
596.88	461.09
597.04	418.96
597.20	440.02
597.36	376.83
597.51	348.74
597.67	421.30
597.83	428.32
597.99	421.30
598.14	397.89
598.30	393.21
598.46	430.66
598.61	435.34
598.77	416.62
598.93	484.49
599.09	397.89
599.24	491.51
599.40	463.43
599.56	444.70
599.71	365.12
599.87	451.72
600.03	379.17
600.18	376.83
600.34	365.12
600.50	407.25
600.65	372.15
600.81	440.02
600.97	449.38
601.12	355.76
601.28	383.85
601.44	390.87
601.59	447.04
601.75	470.45
601.91	423.64
602.06	472.79
602.22	489.17
602.37	418.96
602.53	440.02
602.69	407.25
602.84	369.80
603.00	397.89
603.16	470.45
603.31	484.49
603.47	498.53
603.62	397.89
603.78	409.59
603.94	486.83
604.09	442.36
604.25	442.36
604.40	440.02
604.56	451.72
604.71	461.09
604.87	444.70
605.03	383.85
605.18	402.57
605.34	486.83
605.49	358.10
605.65	407.25
605.80	428.32
605.96	430.66
606.12	395.55
606.27	468.11
606.43	470.45
606.58	489.17
606.74	503.22
606.89	500.87
607.05	418.96
607.20	414.27
607.36	362.78
607.51	468.11
607.67	395.55
607.82	428.32
607.98	451.72
608.13	484.49
608.29	393.21
608.44	414.27
608.60	444.70
608.75	351.08
608.91	484.49
609.06	430.66
609.22	472.79
609.37	421.30
609.53	414.27
609.68	395.55
609.84	435.34
609.99	416.62
610.15	418.96
