SpectraSuite Data File
++++++++++++++++++++++++++++++++++++
Date: Fri Oct 25 12:10:16 EDT 2013
User: price-jones
Dark Spectrum Present: No
Reference Spectrum Present: No
Number of Sampled Component Spectra: 1
Spectrometers: USB2+H05261
Integration Time (usec): 100000 (USB2+H05261)
Spectra Averaged: 1 (USB2+H05261)
Boxcar Smoothing: 0 (USB2+H05261)
Correct for Electrical Dark: No (USB2+H05261)
Strobe/Lamp Enabled: No (USB2+H05261)
Correct for Detector Non-linearity: No (USB2+H05261)
Correct for Stray Light: No (USB2+H05261)
Number of Pixels in Processed Spectrum: 2048
>>>>>Begin Processed Spectral Data<<<<<
365.73	367.46
365.92	367.46
366.12	367.46
366.32	262.14
366.52	217.67
366.72	215.33
366.91	187.24
367.11	215.33
367.31	245.76
367.51	229.37
367.70	201.29
367.90	215.33
368.10	149.79
368.30	231.71
368.49	245.76
368.69	313.63
368.89	276.18
369.09	250.44
369.28	294.91
369.48	203.63
369.68	346.40
369.87	264.48
370.07	271.50
370.27	292.57
370.47	320.65
370.66	292.57
370.86	362.78
371.06	402.57
371.25	330.02
371.45	397.89
371.65	395.55
371.84	367.46
372.04	425.98
372.24	374.49
372.44	383.85
372.63	339.38
372.83	402.57
373.03	386.19
373.22	327.68
373.42	435.34
373.62	425.98
373.81	430.66
374.01	395.55
374.21	451.72
374.40	372.15
374.60	533.64
374.79	411.93
374.99	440.02
375.19	465.77
375.38	468.11
375.58	472.79
375.78	421.30
375.97	407.25
376.17	437.68
376.37	400.23
376.56	442.36
376.76	440.02
376.95	430.66
377.15	463.43
377.35	351.08
377.54	393.21
377.74	376.83
377.93	360.44
378.13	428.32
378.33	411.93
378.52	468.11
378.72	421.30
378.91	374.49
379.11	400.23
379.31	404.91
379.50	447.04
379.70	449.38
379.89	491.51
380.09	330.02
380.28	402.57
380.48	397.89
380.68	334.70
380.87	421.30
381.07	423.64
381.26	348.74
381.46	409.59
381.65	402.57
381.85	414.27
382.04	409.59
382.24	404.91
382.43	451.72
382.63	404.91
382.83	433.00
383.02	404.91
383.22	416.62
383.41	386.19
383.61	454.06
383.80	362.78
384.00	423.64
384.19	332.36
384.39	390.87
384.58	388.53
384.78	379.17
384.97	428.32
385.17	339.38
385.36	411.93
385.56	449.38
385.75	353.42
385.95	409.59
386.14	416.62
386.34	407.25
386.53	393.21
386.72	390.87
386.92	409.59
387.11	435.34
387.31	376.83
387.50	386.19
387.70	369.80
387.89	372.15
388.09	355.76
388.28	369.80
388.48	411.93
388.67	381.51
388.86	397.89
389.06	358.10
389.25	428.32
389.45	430.66
389.64	428.32
389.84	407.25
390.03	411.93
390.22	311.29
390.42	444.70
390.61	425.98
390.81	444.70
391.00	430.66
391.19	428.32
391.39	447.04
391.58	447.04
391.78	397.89
391.97	351.08
392.16	315.97
392.36	472.79
392.55	367.46
392.75	351.08
392.94	395.55
393.13	465.77
393.33	376.83
393.52	367.46
393.71	416.62
393.91	440.02
394.10	407.25
394.29	437.68
394.49	318.31
394.68	486.83
394.88	339.38
395.07	404.91
395.26	425.98
395.46	344.06
395.65	482.15
395.84	409.59
396.04	484.49
396.23	416.62
396.42	386.19
396.62	388.53
396.81	477.47
397.00	414.27
397.19	395.55
397.39	402.57
397.58	423.64
397.77	358.10
397.97	409.59
398.16	381.51
398.35	381.51
398.55	339.38
398.74	348.74
398.93	341.72
399.12	362.78
399.32	409.59
399.51	416.62
399.70	447.04
399.90	390.87
400.09	458.74
400.28	451.72
400.47	383.85
400.67	407.25
400.86	418.96
401.05	435.34
401.24	416.62
401.44	388.53
401.63	468.11
401.82	397.89
402.01	362.78
402.21	379.17
402.40	386.19
402.59	428.32
402.78	456.40
402.97	421.30
403.17	358.10
403.36	369.80
403.55	372.15
403.74	402.57
403.93	390.87
404.13	421.30
404.32	372.15
404.51	367.46
404.70	428.32
404.89	411.93
405.09	461.09
405.28	376.83
405.47	376.83
405.66	339.38
405.85	425.98
406.05	414.27
406.24	437.68
406.43	383.85
406.62	437.68
406.81	404.91
407.00	414.27
407.20	330.02
407.39	416.62
407.58	414.27
407.77	454.06
407.96	463.43
408.15	402.57
408.34	447.04
408.54	458.74
408.73	409.59
408.92	379.17
409.11	390.87
409.30	477.47
409.49	421.30
409.68	435.34
409.87	449.38
410.07	447.04
410.26	383.85
410.45	430.66
410.64	390.87
410.83	362.78
411.02	404.91
411.21	430.66
411.40	355.76
411.59	421.30
411.78	379.17
411.98	435.34
412.17	430.66
412.36	381.51
412.55	393.21
412.74	365.12
412.93	463.43
413.12	395.55
413.31	409.59
413.50	395.55
413.69	397.89
413.88	437.68
414.07	435.34
414.26	383.85
414.45	369.80
414.64	531.30
414.83	465.77
415.02	381.51
415.22	447.04
415.41	430.66
415.60	393.21
415.79	430.66
415.98	433.00
416.17	425.98
416.36	475.13
416.55	409.59
416.74	400.23
416.93	538.32
417.12	388.53
417.31	414.27
417.50	489.17
417.69	470.45
417.88	414.27
418.07	369.80
418.26	379.17
418.45	442.36
418.64	348.74
418.83	404.91
419.02	510.24
419.21	458.74
419.39	437.68
419.58	451.72
419.77	376.83
419.96	496.19
420.15	383.85
420.34	353.42
420.53	423.64
420.72	421.30
420.91	374.49
421.10	383.85
421.29	418.96
421.48	390.87
421.67	425.98
421.86	440.02
422.05	447.04
422.24	428.32
422.43	348.74
422.61	390.87
422.80	435.34
422.99	388.53
423.18	416.62
423.37	435.34
423.56	442.36
423.75	454.06
423.94	409.59
424.13	418.96
424.32	390.87
424.50	423.64
424.69	425.98
424.88	388.53
425.07	428.32
425.26	428.32
425.45	428.32
425.64	416.62
425.83	393.21
426.01	451.72
426.20	423.64
426.39	395.55
426.58	390.87
426.77	475.13
426.96	454.06
427.15	440.02
427.33	367.46
427.52	465.77
427.71	390.87
427.90	409.59
428.09	451.72
428.28	390.87
428.46	440.02
428.65	407.25
428.84	367.46
429.03	407.25
429.22	369.80
429.40	388.53
429.59	360.44
429.78	447.04
429.97	440.02
430.16	418.96
430.34	468.11
430.53	416.62
430.72	334.70
430.91	461.09
431.10	411.93
431.28	444.70
431.47	386.19
431.66	472.79
431.85	390.87
432.03	400.23
432.22	505.56
432.41	472.79
432.60	435.34
432.79	374.49
432.97	404.91
433.16	383.85
433.35	397.89
433.54	423.64
433.72	423.64
433.91	433.00
434.10	379.17
434.28	433.00
434.47	484.49
434.66	416.62
434.85	367.46
435.03	430.66
435.22	449.38
435.41	393.21
435.59	423.64
435.78	470.45
435.97	435.34
436.16	418.96
436.34	421.30
436.53	414.27
436.72	423.64
436.90	376.83
437.09	376.83
437.28	355.76
437.46	372.15
437.65	433.00
437.84	526.62
438.02	407.25
438.21	461.09
438.40	386.19
438.58	454.06
438.77	430.66
438.96	421.30
439.14	458.74
439.33	390.87
439.52	386.19
439.70	428.32
439.89	449.38
440.08	416.62
440.26	423.64
440.45	430.66
440.63	322.99
440.82	454.06
441.01	447.04
441.19	390.87
441.38	468.11
441.57	390.87
441.75	456.40
441.94	400.23
442.12	451.72
442.31	433.00
442.50	423.64
442.68	379.17
442.87	393.21
443.05	383.85
443.24	479.81
443.43	414.27
443.61	416.62
443.80	358.10
443.98	430.66
444.17	369.80
444.35	428.32
444.54	400.23
444.73	414.27
444.91	444.70
445.10	411.93
445.28	400.23
445.47	369.80
445.65	449.38
445.84	409.59
446.02	346.40
446.21	402.57
446.39	409.59
446.58	423.64
446.77	395.55
446.95	409.59
447.14	402.57
447.32	421.30
447.51	388.53
447.69	407.25
447.88	447.04
448.06	465.77
448.25	428.32
448.43	425.98
448.62	411.93
448.80	489.17
448.99	416.62
449.17	383.85
449.36	468.11
449.54	376.83
449.73	421.30
449.91	482.15
450.10	365.12
450.28	430.66
450.46	433.00
450.65	435.34
450.83	397.89
451.02	381.51
451.20	421.30
451.39	447.04
451.57	400.23
451.76	444.70
451.94	358.10
452.13	437.68
452.31	454.06
452.49	440.02
452.68	475.13
452.86	479.81
453.05	451.72
453.23	470.45
453.42	381.51
453.60	395.55
453.78	411.93
453.97	421.30
454.15	442.36
454.34	430.66
454.52	430.66
454.70	433.00
454.89	428.32
455.07	374.49
455.26	416.62
455.44	395.55
455.62	367.46
455.81	442.36
455.99	376.83
456.17	440.02
456.36	444.70
456.54	402.57
456.73	388.53
456.91	470.45
457.09	433.00
457.28	390.87
457.46	442.36
457.64	512.58
457.83	423.64
458.01	423.64
458.19	451.72
458.38	400.23
458.56	482.15
458.74	379.17
458.93	379.17
459.11	423.64
459.29	423.64
459.48	444.70
459.66	418.96
459.84	465.77
460.03	418.96
460.21	407.25
460.39	411.93
460.57	407.25
460.76	468.11
460.94	407.25
461.12	437.68
461.31	482.15
461.49	367.46
461.67	470.45
461.85	489.17
462.04	430.66
462.22	746.63
462.40	404.91
462.59	421.30
462.77	444.70
462.95	397.89
463.13	381.51
463.32	423.64
463.50	395.55
463.68	416.62
463.86	376.83
464.05	409.59
464.23	416.62
464.41	411.93
464.59	400.23
464.78	400.23
464.96	423.64
465.14	395.55
465.32	341.72
465.50	442.36
465.69	374.49
465.87	449.38
466.05	416.62
466.23	374.49
466.41	376.83
466.60	376.83
466.78	449.38
466.96	421.30
467.14	423.64
467.32	428.32
467.51	390.87
467.69	430.66
467.87	435.34
468.05	402.57
468.23	454.06
468.41	409.59
468.60	465.77
468.78	409.59
468.96	402.57
469.14	402.57
469.32	470.45
469.50	367.46
469.69	416.62
469.87	430.66
470.05	397.89
470.23	386.19
470.41	362.78
470.59	442.36
470.77	369.80
470.95	435.34
471.14	447.04
471.32	379.17
471.50	407.25
471.68	498.53
471.86	458.74
472.04	397.89
472.22	465.77
472.40	418.96
472.58	404.91
472.77	374.49
472.95	451.72
473.13	390.87
473.31	440.02
473.49	327.68
473.67	430.66
473.85	416.62
474.03	451.72
474.21	447.04
474.39	489.17
474.57	463.43
474.75	435.34
474.93	444.70
475.12	315.97
475.30	411.93
475.48	367.46
475.66	365.12
475.84	369.80
476.02	430.66
476.20	444.70
476.38	404.91
476.56	433.00
476.74	447.04
476.92	404.91
477.10	461.09
477.28	435.34
477.46	416.62
477.64	433.00
477.82	400.23
478.00	383.85
478.18	421.30
478.36	351.08
478.54	397.89
478.72	400.23
478.90	397.89
479.08	355.76
479.26	379.17
479.44	400.23
479.62	456.40
479.80	435.34
479.98	393.21
480.16	437.68
480.34	470.45
480.52	423.64
480.70	444.70
480.88	449.38
481.06	437.68
481.24	433.00
481.41	491.51
481.59	381.51
481.77	440.02
481.95	451.72
482.13	409.59
482.31	437.68
482.49	407.25
482.67	486.83
482.85	330.02
483.03	409.59
483.21	388.53
483.39	353.42
483.57	393.21
483.74	433.00
483.92	442.36
484.10	360.44
484.28	449.38
484.46	451.72
484.64	433.00
484.82	383.85
485.00	386.19
485.18	451.72
485.35	470.45
485.53	397.89
485.71	402.57
485.89	437.68
486.07	454.06
486.25	489.17
486.43	390.87
486.61	390.87
486.78	372.15
486.96	386.19
487.14	409.59
487.32	442.36
487.50	390.87
487.68	388.53
487.85	376.83
488.03	486.83
488.21	437.68
488.39	365.12
488.57	470.45
488.75	425.98
488.92	507.90
489.10	433.00
489.28	416.62
489.46	425.98
489.64	475.13
489.81	402.57
489.99	397.89
490.17	428.32
490.35	416.62
490.53	376.83
490.70	428.32
490.88	330.02
491.06	407.25
491.24	416.62
491.41	447.04
491.59	444.70
491.77	397.89
491.95	393.21
492.13	430.66
492.30	372.15
492.48	386.19
492.66	404.91
492.84	414.27
493.01	386.19
493.19	421.30
493.37	381.51
493.54	435.34
493.72	458.74
493.90	334.70
494.08	458.74
494.25	458.74
494.43	400.23
494.61	365.12
494.79	418.96
494.96	404.91
495.14	444.70
495.32	390.87
495.49	376.83
495.67	461.09
495.85	472.79
496.02	362.78
496.20	367.46
496.38	376.83
496.55	348.74
496.73	376.83
496.91	411.93
497.09	498.53
497.26	397.89
497.44	407.25
497.62	435.34
497.79	425.98
497.97	416.62
498.14	447.04
498.32	442.36
498.50	423.64
498.67	435.34
498.85	376.83
499.03	423.64
499.20	390.87
499.38	374.49
499.56	388.53
499.73	456.40
499.91	423.64
500.08	442.36
500.26	447.04
500.44	395.55
500.61	440.02
500.79	433.00
500.97	416.62
501.14	414.27
501.32	477.47
501.49	447.04
501.67	369.80
501.84	402.57
502.02	348.74
502.20	421.30
502.37	379.17
502.55	379.17
502.72	388.53
502.90	395.55
503.07	437.68
503.25	451.72
503.43	388.53
503.60	376.83
503.78	362.78
503.95	421.30
504.13	397.89
504.30	402.57
504.48	369.80
504.65	416.62
504.83	407.25
505.01	327.68
505.18	397.89
505.36	388.53
505.53	409.59
505.71	376.83
505.88	440.02
506.06	416.62
506.23	351.08
506.41	407.25
506.58	423.64
506.76	360.44
506.93	425.98
507.11	451.72
507.28	386.19
507.46	404.91
507.63	367.46
507.81	418.96
507.98	379.17
508.16	407.25
508.33	423.64
508.50	465.77
508.68	463.43
508.85	367.46
509.03	379.17
509.20	433.00
509.38	447.04
509.55	451.72
509.73	437.68
509.90	400.23
510.08	376.83
510.25	418.96
510.42	440.02
510.60	395.55
510.77	372.15
510.95	442.36
511.12	393.21
511.30	414.27
511.47	444.70
511.64	458.74
511.82	442.36
511.99	416.62
512.17	414.27
512.34	395.55
512.51	374.49
512.69	421.30
512.86	386.19
513.04	411.93
513.21	379.17
513.38	430.66
513.56	414.27
513.73	465.77
513.90	362.78
514.08	454.06
514.25	456.40
514.43	421.30
514.60	475.13
514.77	437.68
514.95	379.17
515.12	447.04
515.29	454.06
515.47	322.99
515.64	468.11
515.81	435.34
515.99	374.49
516.16	383.85
516.33	458.74
516.51	414.27
516.68	425.98
516.85	397.89
517.03	381.51
517.20	414.27
517.37	393.21
517.54	470.45
517.72	451.72
517.89	393.21
518.06	388.53
518.24	430.66
518.41	430.66
518.58	461.09
518.75	407.25
518.93	414.27
519.10	505.56
519.27	465.77
519.45	465.77
519.62	468.11
519.79	451.72
519.96	318.31
520.14	411.93
520.31	437.68
520.48	409.59
520.65	362.78
520.83	503.22
521.00	400.23
521.17	486.83
521.34	425.98
521.52	416.62
521.69	409.59
521.86	386.19
522.03	411.93
522.20	449.38
522.38	358.10
522.55	381.51
522.72	449.38
522.89	437.68
523.07	468.11
523.24	362.78
523.41	440.02
523.58	402.57
523.75	425.98
523.92	339.38
524.10	409.59
524.27	421.30
524.44	416.62
524.61	531.30
524.78	365.12
524.96	379.17
525.13	313.63
525.30	472.79
525.47	388.53
525.64	360.44
525.81	299.59
525.98	372.15
526.16	458.74
526.33	393.21
526.50	379.17
526.67	390.87
526.84	437.68
527.01	379.17
527.18	402.57
527.36	482.15
527.53	393.21
527.70	454.06
527.87	404.91
528.04	418.96
528.21	454.06
528.38	447.04
528.55	472.79
528.72	430.66
528.89	430.66
529.07	470.45
529.24	433.00
529.41	458.74
529.58	440.02
529.75	482.15
529.92	407.25
530.09	465.77
530.26	397.89
530.43	402.57
530.60	402.57
530.77	409.59
530.94	360.44
531.11	486.83
531.28	400.23
531.46	404.91
531.63	318.31
531.80	505.56
531.97	449.38
532.14	430.66
532.31	482.15
532.48	477.47
532.65	374.49
532.82	414.27
532.99	386.19
533.16	411.93
533.33	409.59
533.50	421.30
533.67	402.57
533.84	416.62
534.01	519.60
534.18	463.43
534.35	458.74
534.52	423.64
534.69	409.59
534.86	421.30
535.03	367.46
535.20	475.13
535.37	465.77
535.54	414.27
535.71	344.06
535.88	397.89
536.05	416.62
536.22	477.47
536.38	437.68
536.55	402.57
536.72	433.00
536.89	379.17
537.06	421.30
537.23	449.38
537.40	411.93
537.57	411.93
537.74	477.47
537.91	421.30
538.08	369.80
538.25	374.49
538.42	407.25
538.59	372.15
538.75	353.42
538.92	348.74
539.09	447.04
539.26	402.57
539.43	514.92
539.60	444.70
539.77	374.49
539.94	428.32
540.11	421.30
540.28	414.27
540.44	414.27
540.61	346.40
540.78	414.27
540.95	367.46
541.12	465.77
541.29	351.08
541.46	447.04
541.62	409.59
541.79	423.64
541.96	374.49
542.13	428.32
542.30	379.17
542.47	465.77
542.63	381.51
542.80	416.62
542.97	423.64
543.14	414.27
543.31	425.98
543.48	393.21
543.64	381.51
543.81	416.62
543.98	458.74
544.15	388.53
544.32	409.59
544.48	393.21
544.65	425.98
544.82	442.36
544.99	449.38
545.16	444.70
545.32	369.80
545.49	428.32
545.66	444.70
545.83	423.64
546.00	383.85
546.16	376.83
546.33	463.43
546.50	418.96
546.67	358.10
546.83	479.81
547.00	421.30
547.17	447.04
547.34	341.72
547.50	475.13
547.67	346.40
547.84	360.44
548.00	430.66
548.17	362.78
548.34	404.91
548.51	414.27
548.67	409.59
548.84	386.19
549.01	430.66
549.18	503.22
549.34	416.62
549.51	418.96
549.68	355.76
549.84	395.55
550.01	449.38
550.18	479.81
550.34	433.00
550.51	463.43
550.68	437.68
550.84	393.21
551.01	564.07
551.18	381.51
551.34	404.91
551.51	489.17
551.68	456.40
551.84	454.06
552.01	458.74
552.18	414.27
552.34	383.85
552.51	409.59
552.68	365.12
552.84	463.43
553.01	388.53
553.18	411.93
553.34	358.10
553.51	484.49
553.67	332.36
553.84	358.10
554.01	435.34
554.17	444.70
554.34	395.55
554.51	381.51
554.67	430.66
554.84	477.47
555.00	442.36
555.17	454.06
555.33	395.55
555.50	475.13
555.67	482.15
555.83	421.30
556.00	454.06
556.16	521.94
556.33	479.81
556.50	362.78
556.66	381.51
556.83	388.53
556.99	332.36
557.16	360.44
557.32	437.68
557.49	400.23
557.65	395.55
557.82	397.89
557.98	348.74
558.15	397.89
558.32	421.30
558.48	416.62
558.65	386.19
558.81	395.55
558.98	414.27
559.14	463.43
559.31	379.17
559.47	386.19
559.64	425.98
559.80	390.87
559.97	388.53
560.13	416.62
560.30	407.25
560.46	383.85
560.63	440.02
560.79	376.83
560.96	365.12
561.12	409.59
561.29	463.43
561.45	440.02
561.61	409.59
561.78	552.37
561.94	428.32
562.11	369.80
562.27	447.04
562.44	425.98
562.60	425.98
562.77	369.80
562.93	451.72
563.10	472.79
563.26	442.36
563.42	437.68
563.59	400.23
563.75	418.96
563.92	404.91
564.08	489.17
564.24	325.33
564.41	411.93
564.57	344.06
564.74	440.02
564.90	428.32
565.07	416.62
565.23	447.04
565.39	383.85
565.56	489.17
565.72	433.00
565.88	411.93
566.05	461.09
566.21	379.17
566.38	458.74
566.54	447.04
566.70	414.27
566.87	386.19
567.03	334.70
567.19	374.49
567.36	355.76
567.52	423.64
567.68	395.55
567.85	468.11
568.01	444.70
568.17	454.06
568.34	365.12
568.50	433.00
568.66	437.68
568.83	482.15
568.99	442.36
569.15	442.36
569.32	313.63
569.48	451.72
569.64	367.46
569.81	440.02
569.97	442.36
570.13	440.02
570.30	442.36
570.46	423.64
570.62	395.55
570.78	477.47
570.95	362.78
571.11	411.93
571.27	514.92
571.43	355.76
571.60	416.62
571.76	425.98
571.92	414.27
572.09	461.09
572.25	456.40
572.41	330.02
572.57	477.47
572.74	461.09
572.90	437.68
573.06	425.98
573.22	475.13
573.38	407.25
573.55	486.83
573.71	402.57
573.87	421.30
574.03	360.44
574.20	393.21
574.36	465.77
574.52	386.19
574.68	346.40
574.84	409.59
575.01	463.43
575.17	376.83
575.33	461.09
575.49	418.96
575.65	397.89
575.82	482.15
575.98	477.47
576.14	430.66
576.30	346.40
576.46	386.19
576.62	402.57
576.79	402.57
576.95	435.34
577.11	416.62
577.27	374.49
577.43	425.98
577.59	381.51
577.75	456.40
577.92	395.55
578.08	402.57
578.24	430.66
578.40	444.70
578.56	414.27
578.72	451.72
578.88	388.53
579.04	447.04
579.21	454.06
579.37	411.93
579.53	430.66
579.69	435.34
579.85	388.53
580.01	435.34
580.17	400.23
580.33	393.21
580.49	418.96
580.65	444.70
580.82	395.55
580.98	423.64
581.14	458.74
581.30	440.02
581.46	421.30
581.62	407.25
581.78	365.12
581.94	386.19
582.10	425.98
582.26	435.34
582.42	402.57
582.58	386.19
582.74	376.83
582.90	433.00
583.06	407.25
583.22	421.30
583.38	386.19
583.54	372.15
583.70	458.74
583.86	461.09
584.02	393.21
584.18	456.40
584.34	423.64
584.50	341.72
584.66	402.57
584.82	423.64
584.98	435.34
585.14	486.83
585.30	383.85
585.46	402.57
585.62	390.87
585.78	407.25
585.94	454.06
586.10	383.85
586.26	386.19
586.42	421.30
586.58	407.25
586.74	425.98
586.90	451.72
587.06	421.30
587.22	393.21
587.38	430.66
587.54	351.08
587.70	423.64
587.86	379.17
588.02	395.55
588.18	369.80
588.34	468.11
588.49	372.15
588.65	468.11
588.81	381.51
588.97	362.78
589.13	383.85
589.29	454.06
589.45	489.17
589.61	444.70
589.77	472.79
589.93	449.38
590.08	456.40
590.24	404.91
590.40	493.85
590.56	447.04
590.72	451.72
590.88	456.40
591.04	449.38
591.20	435.34
591.35	447.04
591.51	461.09
591.67	425.98
591.83	341.72
591.99	437.68
592.15	348.74
592.31	416.62
592.46	341.72
592.62	393.21
592.78	360.44
592.94	390.87
593.10	367.46
593.26	365.12
593.41	330.02
593.57	454.06
593.73	358.10
593.89	440.02
594.05	486.83
594.20	447.04
594.36	465.77
594.52	440.02
594.68	470.45
594.84	397.89
594.99	540.66
595.15	519.60
595.31	369.80
595.47	409.59
595.62	433.00
595.78	423.64
595.94	402.57
596.10	425.98
596.25	418.96
596.41	491.51
596.57	344.06
596.73	390.87
596.88	367.46
597.04	477.47
597.20	526.62
597.36	507.90
597.51	355.76
597.67	400.23
597.83	421.30
597.99	418.96
598.14	449.38
598.30	447.04
598.46	472.79
598.61	456.40
598.77	390.87
598.93	435.34
599.09	461.09
599.24	404.91
599.40	449.38
599.56	433.00
599.71	334.70
599.87	362.78
600.03	407.25
600.18	407.25
600.34	461.09
600.50	402.57
600.65	409.59
600.81	421.30
600.97	372.15
601.12	423.64
601.28	451.72
601.44	388.53
601.59	400.23
601.75	367.46
601.91	470.45
602.06	425.98
602.22	447.04
602.37	428.32
602.53	395.55
602.69	416.62
602.84	304.27
603.00	390.87
603.16	395.55
603.31	367.46
603.47	365.12
603.62	351.08
603.78	468.11
603.94	442.36
604.09	402.57
604.25	430.66
604.40	390.87
604.56	447.04
604.71	358.10
604.87	414.27
605.03	421.30
605.18	500.87
605.34	397.89
605.49	421.30
605.65	372.15
605.80	390.87
605.96	435.34
606.12	346.40
606.27	428.32
606.43	425.98
606.58	493.85
606.74	407.25
606.89	430.66
607.05	437.68
607.20	381.51
607.36	449.38
607.51	449.38
607.67	458.74
607.82	437.68
607.98	337.04
608.13	428.32
608.29	437.68
608.44	409.59
608.60	355.76
608.75	472.79
608.91	388.53
609.06	440.02
609.22	463.43
609.37	435.34
609.53	388.53
609.68	362.78
609.84	428.32
609.99	400.23
610.15	440.02
