SpectraSuite Data File
++++++++++++++++++++++++++++++++++++
Date: Fri Oct 25 12:10:56 EDT 2013
User: price-jones
Dark Spectrum Present: No
Reference Spectrum Present: No
Number of Sampled Component Spectra: 1
Spectrometers: USB2+H05261
Integration Time (usec): 100000 (USB2+H05261)
Spectra Averaged: 1 (USB2+H05261)
Boxcar Smoothing: 0 (USB2+H05261)
Correct for Electrical Dark: No (USB2+H05261)
Strobe/Lamp Enabled: No (USB2+H05261)
Correct for Detector Non-linearity: No (USB2+H05261)
Correct for Stray Light: No (USB2+H05261)
Number of Pixels in Processed Spectrum: 2048
>>>>>Begin Processed Spectral Data<<<<<
365.73	315.97
365.92	315.97
366.12	315.97
366.32	250.44
366.52	205.97
366.72	238.73
366.91	241.08
367.11	271.50
367.31	222.35
367.51	241.08
367.70	196.60
367.90	236.39
368.10	159.16
368.30	208.31
368.49	262.14
368.69	290.23
368.89	236.39
369.09	290.23
369.28	287.89
369.48	276.18
369.68	250.44
369.87	280.86
370.07	276.18
370.27	383.85
370.47	397.89
370.66	262.14
370.86	337.04
371.06	433.00
371.25	330.02
371.45	372.15
371.65	411.93
371.84	348.74
372.04	337.04
372.24	397.89
372.44	327.68
372.63	430.66
372.83	425.98
373.03	339.38
373.22	442.36
373.42	400.23
373.62	374.49
373.81	440.02
374.01	411.93
374.21	379.17
374.40	430.66
374.60	470.45
374.79	407.25
374.99	400.23
375.19	458.74
375.38	444.70
375.58	313.63
375.78	390.87
375.97	376.83
376.17	463.43
376.37	409.59
376.56	437.68
376.76	416.62
376.95	440.02
377.15	416.62
377.35	447.04
377.54	421.30
377.74	411.93
377.93	383.85
378.13	365.12
378.33	372.15
378.52	407.25
378.72	421.30
378.91	407.25
379.11	411.93
379.31	376.83
379.50	372.15
379.70	421.30
379.89	383.85
380.09	386.19
380.28	418.96
380.48	400.23
380.68	430.66
380.87	376.83
381.07	395.55
381.26	411.93
381.46	421.30
381.65	444.70
381.85	365.12
382.04	379.17
382.24	423.64
382.43	425.98
382.63	362.78
382.83	388.53
383.02	374.49
383.22	444.70
383.41	425.98
383.61	367.46
383.80	430.66
384.00	505.56
384.19	421.30
384.39	425.98
384.58	393.21
384.78	454.06
384.97	393.21
385.17	505.56
385.36	425.98
385.56	318.31
385.75	407.25
385.95	461.09
386.14	437.68
386.34	337.04
386.53	395.55
386.72	386.19
386.92	456.40
387.11	433.00
387.31	393.21
387.50	381.51
387.70	400.23
387.89	440.02
388.09	386.19
388.28	430.66
388.48	353.42
388.67	475.13
388.86	465.77
389.06	381.51
389.25	386.19
389.45	367.46
389.64	358.10
389.84	407.25
390.03	393.21
390.22	383.85
390.42	304.27
390.61	362.78
390.81	372.15
391.00	475.13
391.19	411.93
391.39	407.25
391.58	374.49
391.78	451.72
391.97	411.93
392.16	397.89
392.36	430.66
392.55	369.80
392.75	470.45
392.94	437.68
393.13	486.83
393.33	468.11
393.52	355.76
393.71	468.11
393.91	416.62
394.10	374.49
394.29	440.02
394.49	381.51
394.68	409.59
394.88	411.93
395.07	449.38
395.26	425.98
395.46	386.19
395.65	383.85
395.84	442.36
396.04	407.25
396.23	418.96
396.42	404.91
396.62	339.38
396.81	428.32
397.00	409.59
397.19	463.43
397.39	465.77
397.58	404.91
397.77	407.25
397.97	416.62
398.16	395.55
398.35	486.83
398.55	449.38
398.74	383.85
398.93	390.87
399.12	407.25
399.32	435.34
399.51	381.51
399.70	472.79
399.90	411.93
400.09	451.72
400.28	449.38
400.47	367.46
400.67	402.57
400.86	390.87
401.05	358.10
401.24	435.34
401.44	461.09
401.63	395.55
401.82	355.76
402.01	383.85
402.21	348.74
402.40	430.66
402.59	409.59
402.78	458.74
402.97	388.53
403.17	425.98
403.36	423.64
403.55	428.32
403.74	381.51
403.93	472.79
404.13	423.64
404.32	449.38
404.51	395.55
404.70	458.74
404.89	355.76
405.09	491.51
405.28	430.66
405.47	393.21
405.66	428.32
405.85	428.32
406.05	379.17
406.24	339.38
406.43	381.51
406.62	454.06
406.81	402.57
407.00	435.34
407.20	402.57
407.39	390.87
407.58	372.15
407.77	407.25
407.96	386.19
408.15	430.66
408.34	411.93
408.54	477.47
408.73	461.09
408.92	341.72
409.11	374.49
409.30	393.21
409.49	395.55
409.68	449.38
409.87	433.00
410.07	383.85
410.26	433.00
410.45	318.31
410.64	344.06
410.83	393.21
411.02	430.66
411.21	454.06
411.40	381.51
411.59	461.09
411.78	395.55
411.98	472.79
412.17	362.78
412.36	397.89
412.55	325.33
412.74	372.15
412.93	409.59
413.12	423.64
413.31	428.32
413.50	409.59
413.69	397.89
413.88	437.68
414.07	500.87
414.26	451.72
414.45	409.59
414.64	461.09
414.83	404.91
415.02	379.17
415.22	425.98
415.41	463.43
415.60	383.85
415.79	414.27
415.98	435.34
416.17	425.98
416.36	465.77
416.55	332.36
416.74	411.93
416.93	428.32
417.12	444.70
417.31	503.22
417.50	346.40
417.69	482.15
417.88	454.06
418.07	330.02
418.26	409.59
418.45	393.21
418.64	388.53
418.83	308.95
419.02	400.23
419.21	418.96
419.39	416.62
419.58	425.98
419.77	423.64
419.96	447.04
420.15	433.00
420.34	407.25
420.53	383.85
420.72	447.04
420.91	388.53
421.10	395.55
421.29	425.98
421.48	402.57
421.67	461.09
421.86	444.70
422.05	351.08
422.24	414.27
422.43	430.66
422.61	327.68
422.80	367.46
422.99	442.36
423.18	301.93
423.37	418.96
423.56	374.49
423.75	400.23
423.94	435.34
424.13	395.55
424.32	386.19
424.50	425.98
424.69	390.87
424.88	397.89
425.07	430.66
425.26	428.32
425.45	383.85
425.64	365.12
425.83	456.40
426.01	369.80
426.20	367.46
426.39	318.31
426.58	355.76
426.77	348.74
426.96	421.30
427.15	390.87
427.33	374.49
427.52	456.40
427.71	411.93
427.90	393.21
428.09	397.89
428.28	411.93
428.46	421.30
428.65	416.62
428.84	425.98
429.03	454.06
429.22	449.38
429.40	451.72
429.59	365.12
429.78	425.98
429.97	423.64
430.16	381.51
430.34	451.72
430.53	393.21
430.72	440.02
430.91	423.64
431.10	393.21
431.28	390.87
431.47	465.77
431.66	428.32
431.85	418.96
432.03	411.93
432.22	425.98
432.41	393.21
432.60	454.06
432.79	430.66
432.97	458.74
433.16	442.36
433.35	451.72
433.54	435.34
433.72	409.59
433.91	430.66
434.10	433.00
434.28	437.68
434.47	390.87
434.66	449.38
434.85	376.83
435.03	400.23
435.22	351.08
435.41	393.21
435.59	402.57
435.78	510.24
435.97	444.70
436.16	435.34
436.34	402.57
436.53	428.32
436.72	423.64
436.90	461.09
437.09	397.89
437.28	425.98
437.46	407.25
437.65	423.64
437.84	402.57
438.02	440.02
438.21	395.55
438.40	388.53
438.58	449.38
438.77	374.49
438.96	416.62
439.14	416.62
439.33	463.43
439.52	456.40
439.70	376.83
439.89	454.06
440.08	409.59
440.26	348.74
440.45	395.55
440.63	428.32
440.82	395.55
441.01	433.00
441.19	292.57
441.38	313.63
441.57	351.08
441.75	414.27
441.94	444.70
442.12	386.19
442.31	334.70
442.50	447.04
442.68	381.51
442.87	320.65
443.05	418.96
443.24	425.98
443.43	416.62
443.61	404.91
443.80	456.40
443.98	458.74
444.17	383.85
444.35	367.46
444.54	376.83
444.73	351.08
444.91	437.68
445.10	404.91
445.28	407.25
445.47	425.98
445.65	440.02
445.84	404.91
446.02	393.21
446.21	400.23
446.39	353.42
446.58	393.21
446.77	355.76
446.95	440.02
447.14	411.93
447.32	440.02
447.51	383.85
447.69	418.96
447.88	498.53
448.06	374.49
448.25	449.38
448.43	472.79
448.62	416.62
448.80	355.76
448.99	484.49
449.17	475.13
449.36	395.55
449.54	376.83
449.73	411.93
449.91	440.02
450.10	388.53
450.28	512.58
450.46	418.96
450.65	362.78
450.83	437.68
451.02	437.68
451.20	418.96
451.39	400.23
451.57	435.34
451.76	425.98
451.94	411.93
452.13	442.36
452.31	358.10
452.49	379.17
452.68	435.34
452.86	386.19
453.05	393.21
453.23	390.87
453.42	425.98
453.60	444.70
453.78	440.02
453.97	433.00
454.15	433.00
454.34	425.98
454.52	362.78
454.70	411.93
454.89	353.42
455.07	374.49
455.26	470.45
455.44	463.43
455.62	451.72
455.81	374.49
455.99	449.38
456.17	383.85
456.36	451.72
456.54	397.89
456.73	418.96
456.91	425.98
457.09	411.93
457.28	379.17
457.46	423.64
457.64	465.77
457.83	421.30
458.01	372.15
458.19	493.85
458.38	395.55
458.56	421.30
458.74	369.80
458.93	479.81
459.11	425.98
459.29	383.85
459.48	379.17
459.66	404.91
459.84	421.30
460.03	475.13
460.21	404.91
460.39	383.85
460.57	416.62
460.76	358.10
460.94	423.64
461.12	428.32
461.31	411.93
461.49	397.89
461.67	414.27
461.85	379.17
462.04	376.83
462.22	699.82
462.40	440.02
462.59	458.74
462.77	400.23
462.95	383.85
463.13	339.38
463.32	435.34
463.50	407.25
463.68	444.70
463.86	400.23
464.05	433.00
464.23	402.57
464.41	444.70
464.59	365.12
464.78	411.93
464.96	433.00
465.14	400.23
465.32	454.06
465.50	468.11
465.69	461.09
465.87	421.30
466.05	444.70
466.23	428.32
466.41	393.21
466.60	414.27
466.78	423.64
466.96	383.85
467.14	468.11
467.32	444.70
467.51	449.38
467.69	444.70
467.87	470.45
468.05	449.38
468.23	458.74
468.41	433.00
468.60	407.25
468.78	400.23
468.96	346.40
469.14	386.19
469.32	355.76
469.50	390.87
469.69	346.40
469.87	456.40
470.05	428.32
470.23	489.17
470.41	346.40
470.59	376.83
470.77	353.42
470.95	433.00
471.14	425.98
471.32	365.12
471.50	437.68
471.68	397.89
471.86	477.47
472.04	383.85
472.22	388.53
472.40	365.12
472.58	374.49
472.77	416.62
472.95	402.57
473.13	454.06
473.31	404.91
473.49	411.93
473.67	414.27
473.85	367.46
474.03	465.77
474.21	404.91
474.39	435.34
474.57	456.40
474.75	390.87
474.93	337.04
475.12	402.57
475.30	404.91
475.48	435.34
475.66	407.25
475.84	383.85
476.02	430.66
476.20	498.53
476.38	456.40
476.56	472.79
476.74	435.34
476.92	430.66
477.10	463.43
477.28	496.19
477.46	360.44
477.64	521.94
477.82	411.93
478.00	416.62
478.18	482.15
478.36	449.38
478.54	358.10
478.72	407.25
478.90	430.66
479.08	428.32
479.26	430.66
479.44	386.19
479.62	418.96
479.80	416.62
479.98	397.89
480.16	409.59
480.34	451.72
480.52	386.19
480.70	411.93
480.88	388.53
481.06	423.64
481.24	376.83
481.41	383.85
481.59	425.98
481.77	376.83
481.95	402.57
482.13	482.15
482.31	376.83
482.49	451.72
482.67	416.62
482.85	374.49
483.03	411.93
483.21	423.64
483.39	447.04
483.57	400.23
483.74	388.53
483.92	381.51
484.10	390.87
484.28	519.60
484.46	486.83
484.64	339.38
484.82	454.06
485.00	430.66
485.18	437.68
485.35	330.02
485.53	388.53
485.71	428.32
485.89	454.06
486.07	440.02
486.25	442.36
486.43	416.62
486.61	493.85
486.78	390.87
486.96	318.31
487.14	411.93
487.32	395.55
487.50	381.51
487.68	428.32
487.85	400.23
488.03	475.13
488.21	442.36
488.39	404.91
488.57	404.91
488.75	376.83
488.92	475.13
489.10	381.51
489.28	379.17
489.46	418.96
489.64	414.27
489.81	440.02
489.99	475.13
490.17	322.99
490.35	489.17
490.53	430.66
490.70	428.32
490.88	423.64
491.06	404.91
491.24	449.38
491.41	402.57
491.59	388.53
491.77	372.15
491.95	353.42
492.13	332.36
492.30	437.68
492.48	428.32
492.66	418.96
492.84	383.85
493.01	416.62
493.19	416.62
493.37	454.06
493.54	493.85
493.72	423.64
493.90	404.91
494.08	425.98
494.25	402.57
494.43	388.53
494.61	454.06
494.79	411.93
494.96	393.21
495.14	435.34
495.32	393.21
495.49	468.11
495.67	421.30
495.85	397.89
496.02	400.23
496.20	395.55
496.38	383.85
496.55	411.93
496.73	444.70
496.91	372.15
497.09	479.81
497.26	425.98
497.44	376.83
497.62	358.10
497.79	369.80
497.97	416.62
498.14	400.23
498.32	449.38
498.50	440.02
498.67	409.59
498.85	409.59
499.03	388.53
499.20	428.32
499.38	470.45
499.56	463.43
499.73	449.38
499.91	369.80
500.08	433.00
500.26	411.93
500.44	444.70
500.61	428.32
500.79	362.78
500.97	461.09
501.14	339.38
501.32	397.89
501.49	407.25
501.67	395.55
501.84	500.87
502.02	416.62
502.20	395.55
502.37	348.74
502.55	411.93
502.72	491.51
502.90	407.25
503.07	418.96
503.25	418.96
503.43	388.53
503.60	402.57
503.78	379.17
503.95	402.57
504.13	381.51
504.30	435.34
504.48	416.62
504.65	491.51
504.83	435.34
505.01	416.62
505.18	400.23
505.36	442.36
505.53	393.21
505.71	425.98
505.88	461.09
506.06	383.85
506.23	461.09
506.41	425.98
506.58	411.93
506.76	402.57
506.93	360.44
507.11	327.68
507.28	360.44
507.46	409.59
507.63	428.32
507.81	395.55
507.98	454.06
508.16	404.91
508.33	461.09
508.50	416.62
508.68	395.55
508.85	456.40
509.03	461.09
509.20	353.42
509.38	379.17
509.55	486.83
509.73	430.66
509.90	421.30
510.08	484.49
510.25	372.15
510.42	358.10
510.60	395.55
510.77	428.32
510.95	486.83
511.12	397.89
511.30	425.98
511.47	421.30
511.64	437.68
511.82	437.68
511.99	421.30
512.17	433.00
512.34	423.64
512.51	442.36
512.69	472.79
512.86	435.34
513.04	393.21
513.21	409.59
513.38	428.32
513.56	425.98
513.73	376.83
513.90	470.45
514.08	292.57
514.25	404.91
514.43	397.89
514.60	442.36
514.77	425.98
514.95	475.13
515.12	353.42
515.29	437.68
515.47	447.04
515.64	376.83
515.81	425.98
515.99	461.09
516.16	437.68
516.33	430.66
516.51	428.32
516.68	414.27
516.85	395.55
517.03	421.30
517.20	383.85
517.37	390.87
517.54	451.72
517.72	430.66
517.89	400.23
518.06	451.72
518.24	491.51
518.41	423.64
518.58	355.76
518.75	341.72
518.93	456.40
519.10	374.49
519.27	458.74
519.45	423.64
519.62	388.53
519.79	404.91
519.96	407.25
520.14	428.32
520.31	470.45
520.48	454.06
520.65	374.49
520.83	418.96
521.00	486.83
521.17	411.93
521.34	430.66
521.52	358.10
521.69	463.43
521.86	395.55
522.03	395.55
522.20	454.06
522.38	393.21
522.55	479.81
522.72	409.59
522.89	402.57
523.07	465.77
523.24	425.98
523.41	444.70
523.58	388.53
523.75	430.66
523.92	409.59
524.10	428.32
524.27	341.72
524.44	411.93
524.61	390.87
524.78	404.91
524.96	468.11
525.13	423.64
525.30	421.30
525.47	447.04
525.64	449.38
525.81	477.47
525.98	470.45
526.16	472.79
526.33	346.40
526.50	404.91
526.67	341.72
526.84	421.30
527.01	388.53
527.18	418.96
527.36	463.43
527.53	404.91
527.70	407.25
527.87	388.53
528.04	425.98
528.21	390.87
528.38	440.02
528.55	456.40
528.72	435.34
528.89	465.77
529.07	503.22
529.24	500.87
529.41	451.72
529.58	440.02
529.75	430.66
529.92	461.09
530.09	348.74
530.26	428.32
530.43	428.32
530.60	407.25
530.77	407.25
530.94	437.68
531.11	454.06
531.28	468.11
531.46	397.89
531.63	440.02
531.80	524.28
531.97	374.49
532.14	444.70
532.31	468.11
532.48	454.06
532.65	444.70
532.82	428.32
532.99	395.55
533.16	360.44
533.33	397.89
533.50	461.09
533.67	344.06
533.84	479.81
534.01	409.59
534.18	449.38
534.35	409.59
534.52	440.02
534.69	468.11
534.86	451.72
535.03	400.23
535.20	454.06
535.37	411.93
535.54	404.91
535.71	489.17
535.88	496.19
536.05	386.19
536.22	395.55
536.38	442.36
536.55	411.93
536.72	470.45
536.89	407.25
537.06	421.30
537.23	435.34
537.40	400.23
537.57	404.91
537.74	437.68
537.91	383.85
538.08	425.98
538.25	428.32
538.42	409.59
538.59	442.36
538.75	409.59
538.92	409.59
539.09	475.13
539.26	379.17
539.43	447.04
539.60	400.23
539.77	470.45
539.94	411.93
540.11	400.23
540.28	390.87
540.44	404.91
540.61	461.09
540.78	402.57
540.95	411.93
541.12	435.34
541.29	409.59
541.46	390.87
541.62	404.91
541.79	332.36
541.96	411.93
542.13	449.38
542.30	393.21
542.47	423.64
542.63	435.34
542.80	409.59
542.97	414.27
543.14	435.34
543.31	454.06
543.48	421.30
543.64	456.40
543.81	440.02
543.98	407.25
544.15	430.66
544.32	362.78
544.48	346.40
544.65	386.19
544.82	360.44
544.99	472.79
545.16	444.70
545.32	433.00
545.49	376.83
545.66	397.89
545.83	435.34
546.00	440.02
546.16	404.91
546.33	386.19
546.50	418.96
546.67	433.00
546.83	374.49
547.00	372.15
547.17	425.98
547.34	442.36
547.50	484.49
547.67	360.44
547.84	456.40
548.00	451.72
548.17	409.59
548.34	465.77
548.51	423.64
548.67	374.49
548.84	423.64
549.01	437.68
549.18	442.36
549.34	421.30
549.51	386.19
549.68	430.66
549.84	395.55
550.01	423.64
550.18	535.98
550.34	447.04
550.51	425.98
550.68	421.30
550.84	388.53
551.01	416.62
551.18	449.38
551.34	379.17
551.51	428.32
551.68	447.04
551.84	472.79
552.01	447.04
552.18	414.27
552.34	449.38
552.51	421.30
552.68	510.24
552.84	433.00
553.01	447.04
553.18	416.62
553.34	435.34
553.51	421.30
553.67	449.38
553.84	472.79
554.01	440.02
554.17	440.02
554.34	400.23
554.51	491.51
554.67	397.89
554.84	449.38
555.00	390.87
555.17	442.36
555.33	433.00
555.50	493.85
555.67	465.77
555.83	463.43
556.00	388.53
556.16	557.05
556.33	444.70
556.50	376.83
556.66	430.66
556.83	386.19
556.99	442.36
557.16	444.70
557.32	400.23
557.49	444.70
557.65	447.04
557.82	421.30
557.98	365.12
558.15	411.93
558.32	489.17
558.48	475.13
558.65	379.17
558.81	447.04
558.98	414.27
559.14	449.38
559.31	390.87
559.47	411.93
559.64	425.98
559.80	409.59
559.97	362.78
560.13	454.06
560.30	386.19
560.46	388.53
560.63	376.83
560.79	365.12
560.96	374.49
561.12	437.68
561.29	402.57
561.45	430.66
561.61	388.53
561.78	468.11
561.94	376.83
562.11	428.32
562.27	456.40
562.44	421.30
562.60	397.89
562.77	404.91
562.93	468.11
563.10	463.43
563.26	435.34
563.42	491.51
563.59	437.68
563.75	447.04
563.92	507.90
564.08	433.00
564.24	440.02
564.41	393.21
564.57	369.80
564.74	353.42
564.90	393.21
565.07	477.47
565.23	444.70
565.39	421.30
565.56	400.23
565.72	423.64
565.88	491.51
566.05	311.29
566.21	449.38
566.38	449.38
566.54	444.70
566.70	482.15
566.87	435.34
567.03	404.91
567.19	484.49
567.36	409.59
567.52	397.89
567.68	411.93
567.85	400.23
568.01	397.89
568.17	440.02
568.34	386.19
568.50	458.74
568.66	362.78
568.83	458.74
568.99	351.08
569.15	444.70
569.32	404.91
569.48	416.62
569.64	400.23
569.81	458.74
569.97	358.10
570.13	414.27
570.30	369.80
570.46	395.55
570.62	433.00
570.78	451.72
570.95	341.72
571.11	402.57
571.27	442.36
571.43	367.46
571.60	411.93
571.76	423.64
571.92	395.55
572.09	400.23
572.25	383.85
572.41	416.62
572.57	393.21
572.74	470.45
572.90	458.74
573.06	449.38
573.22	493.85
573.38	463.43
573.55	421.30
573.71	430.66
573.87	454.06
574.03	322.99
574.20	374.49
574.36	388.53
574.52	344.06
574.68	479.81
574.84	458.74
575.01	425.98
575.17	458.74
575.33	477.47
575.49	393.21
575.65	411.93
575.82	468.11
575.98	468.11
576.14	416.62
576.30	348.74
576.46	400.23
576.62	418.96
576.79	456.40
576.95	367.46
577.11	381.51
577.27	430.66
577.43	409.59
577.59	486.83
577.75	414.27
577.92	409.59
578.08	383.85
578.24	440.02
578.40	449.38
578.56	383.85
578.72	510.24
578.88	402.57
579.04	397.89
579.21	475.13
579.37	407.25
579.53	472.79
579.69	425.98
579.85	393.21
580.01	379.17
580.17	388.53
580.33	397.89
580.49	440.02
580.65	339.38
580.82	400.23
580.98	397.89
581.14	360.44
581.30	461.09
581.46	430.66
581.62	435.34
581.78	416.62
581.94	428.32
582.10	482.15
582.26	428.32
582.42	421.30
582.58	407.25
582.74	404.91
582.90	489.17
583.06	521.94
583.22	404.91
583.38	322.99
583.54	397.89
583.70	425.98
583.86	411.93
584.02	461.09
584.18	444.70
584.34	358.10
584.50	437.68
584.66	416.62
584.82	360.44
584.98	379.17
585.14	404.91
585.30	491.51
585.46	411.93
585.62	456.40
585.78	463.43
585.94	433.00
586.10	386.19
586.26	407.25
586.42	418.96
586.58	468.11
586.74	407.25
586.90	461.09
587.06	463.43
587.22	393.21
587.38	362.78
587.54	465.77
587.70	418.96
587.86	442.36
588.02	362.78
588.18	440.02
588.34	517.26
588.49	416.62
588.65	421.30
588.81	461.09
588.97	393.21
589.13	351.08
589.29	332.36
589.45	470.45
589.61	372.15
589.77	489.17
589.93	409.59
590.08	393.21
590.24	423.64
590.40	409.59
590.56	440.02
590.72	444.70
590.88	365.12
591.04	428.32
591.20	447.04
591.35	472.79
591.51	482.15
591.67	411.93
591.83	428.32
591.99	421.30
592.15	470.45
592.31	444.70
592.46	353.42
592.62	433.00
592.78	388.53
592.94	341.72
593.10	418.96
593.26	418.96
593.41	449.38
593.57	409.59
593.73	456.40
593.89	425.98
594.05	440.02
594.20	458.74
594.36	423.64
594.52	388.53
594.68	393.21
594.84	449.38
594.99	402.57
595.15	400.23
595.31	472.79
595.47	454.06
595.62	379.17
595.78	386.19
595.94	346.40
596.10	355.76
596.25	437.68
596.41	372.15
596.57	374.49
596.73	458.74
596.88	430.66
597.04	397.89
597.20	393.21
597.36	409.59
597.51	491.51
597.67	428.32
597.83	472.79
597.99	475.13
598.14	416.62
598.30	454.06
598.46	322.99
598.61	479.81
598.77	423.64
598.93	400.23
599.09	374.49
599.24	451.72
599.40	390.87
599.56	393.21
599.71	458.74
599.87	386.19
600.03	425.98
600.18	400.23
600.34	449.38
600.50	486.83
600.65	454.06
600.81	510.24
600.97	449.38
601.12	351.08
601.28	397.89
601.44	491.51
601.59	414.27
601.75	451.72
601.91	369.80
602.06	395.55
602.22	428.32
602.37	430.66
602.53	437.68
602.69	456.40
602.84	428.32
603.00	447.04
603.16	444.70
603.31	423.64
603.47	470.45
603.62	454.06
603.78	437.68
603.94	472.79
604.09	376.83
604.25	395.55
604.40	454.06
604.56	358.10
604.71	437.68
604.87	411.93
605.03	447.04
605.18	411.93
605.34	454.06
605.49	503.22
605.65	425.98
605.80	390.87
605.96	430.66
606.12	463.43
606.27	383.85
606.43	397.89
606.58	477.47
606.74	442.36
606.89	393.21
607.05	386.19
607.20	428.32
607.36	475.13
607.51	411.93
607.67	451.72
607.82	407.25
607.98	447.04
608.13	407.25
608.29	404.91
608.44	442.36
608.60	402.57
608.75	507.90
608.91	463.43
609.06	393.21
609.22	379.17
609.37	411.93
609.53	433.00
609.68	451.72
609.84	353.42
609.99	404.91
610.15	454.06
