SpectraSuite Data File
++++++++++++++++++++++++++++++++++++
Date: Fri Oct 25 12:10:09 EDT 2013
User: price-jones
Dark Spectrum Present: No
Reference Spectrum Present: No
Number of Sampled Component Spectra: 1
Spectrometers: USB2+H05261
Integration Time (usec): 100000 (USB2+H05261)
Spectra Averaged: 1 (USB2+H05261)
Boxcar Smoothing: 0 (USB2+H05261)
Correct for Electrical Dark: No (USB2+H05261)
Strobe/Lamp Enabled: No (USB2+H05261)
Correct for Detector Non-linearity: No (USB2+H05261)
Correct for Stray Light: No (USB2+H05261)
Number of Pixels in Processed Spectrum: 2048
>>>>>Begin Processed Spectral Data<<<<<
365.73	294.91
365.92	294.91
366.12	294.91
366.32	297.25
366.52	238.73
366.72	271.50
366.91	217.67
367.11	290.23
367.31	229.37
367.51	215.33
367.70	194.26
367.90	273.84
368.10	220.01
368.30	250.44
368.49	266.82
368.69	294.91
368.89	280.86
369.09	318.31
369.28	217.67
369.48	315.97
369.68	306.61
369.87	224.69
370.07	320.65
370.27	337.04
370.47	369.80
370.66	325.33
370.86	294.91
371.06	325.33
371.25	416.62
371.45	414.27
371.65	479.81
371.84	360.44
372.04	344.06
372.24	421.30
372.44	351.08
372.63	430.66
372.83	292.57
373.03	386.19
373.22	390.87
373.42	416.62
373.62	454.06
373.81	477.47
374.01	397.89
374.21	404.91
374.40	400.23
374.60	425.98
374.79	404.91
374.99	507.90
375.19	376.83
375.38	472.79
375.58	465.77
375.78	442.36
375.97	386.19
376.17	465.77
376.37	428.32
376.56	414.27
376.76	482.15
376.95	383.85
377.15	505.56
377.35	437.68
377.54	440.02
377.74	376.83
377.93	400.23
378.13	376.83
378.33	376.83
378.52	430.66
378.72	372.15
378.91	463.43
379.11	390.87
379.31	397.89
379.50	421.30
379.70	423.64
379.89	433.00
380.09	482.15
380.28	479.81
380.48	372.15
380.68	381.51
380.87	442.36
381.07	374.49
381.26	500.87
381.46	409.59
381.65	435.34
381.85	451.72
382.04	418.96
382.24	365.12
382.43	337.04
382.63	428.32
382.83	442.36
383.02	404.91
383.22	393.21
383.41	400.23
383.61	379.17
383.80	435.34
384.00	428.32
384.19	421.30
384.39	442.36
384.58	421.30
384.78	423.64
384.97	397.89
385.17	456.40
385.36	423.64
385.56	435.34
385.75	416.62
385.95	344.06
386.14	433.00
386.34	411.93
386.53	393.21
386.72	390.87
386.92	367.46
387.11	435.34
387.31	353.42
387.50	332.36
387.70	393.21
387.89	330.02
388.09	402.57
388.28	327.68
388.48	451.72
388.67	416.62
388.86	344.06
389.06	365.12
389.25	322.99
389.45	407.25
389.64	381.51
389.84	400.23
390.03	416.62
390.22	437.68
390.42	447.04
390.61	421.30
390.81	393.21
391.00	367.46
391.19	416.62
391.39	425.98
391.58	388.53
391.78	435.34
391.97	414.27
392.16	358.10
392.36	430.66
392.55	360.44
392.75	416.62
392.94	358.10
393.13	430.66
393.33	362.78
393.52	376.83
393.71	454.06
393.91	414.27
394.10	423.64
394.29	407.25
394.49	365.12
394.68	451.72
394.88	430.66
395.07	372.15
395.26	360.44
395.46	311.29
395.65	397.89
395.84	346.40
396.04	451.72
396.23	414.27
396.42	376.83
396.62	433.00
396.81	374.49
397.00	411.93
397.19	435.34
397.39	386.19
397.58	376.83
397.77	444.70
397.97	409.59
398.16	425.98
398.35	393.21
398.55	367.46
398.74	425.98
398.93	397.89
399.12	383.85
399.32	435.34
399.51	411.93
399.70	451.72
399.90	400.23
400.09	440.02
400.28	388.53
400.47	374.49
400.67	372.15
400.86	372.15
401.05	423.64
401.24	456.40
401.44	447.04
401.63	386.19
401.82	390.87
402.01	360.44
402.21	454.06
402.40	404.91
402.59	433.00
402.78	369.80
402.97	383.85
403.17	440.02
403.36	472.79
403.55	374.49
403.74	400.23
403.93	423.64
404.13	423.64
404.32	362.78
404.51	358.10
404.70	454.06
404.89	428.32
405.09	521.94
405.28	418.96
405.47	369.80
405.66	416.62
405.85	444.70
406.05	386.19
406.24	383.85
406.43	407.25
406.62	437.68
406.81	447.04
407.00	475.13
407.20	386.19
407.39	449.38
407.58	423.64
407.77	430.66
407.96	360.44
408.15	456.40
408.34	390.87
408.54	437.68
408.73	447.04
408.92	322.99
409.11	447.04
409.30	437.68
409.49	395.55
409.68	393.21
409.87	414.27
410.07	433.00
410.26	421.30
410.45	447.04
410.64	416.62
410.83	414.27
411.02	395.55
411.21	437.68
411.40	468.11
411.59	411.93
411.78	348.74
411.98	423.64
412.17	386.19
412.36	320.65
412.55	374.49
412.74	400.23
412.93	468.11
413.12	374.49
413.31	416.62
413.50	421.30
413.69	461.09
413.88	489.17
414.07	404.91
414.26	451.72
414.45	451.72
414.64	503.22
414.83	397.89
415.02	318.31
415.22	451.72
415.41	425.98
415.60	386.19
415.79	390.87
415.98	379.17
416.17	355.76
416.36	447.04
416.55	437.68
416.74	379.17
416.93	402.57
417.12	402.57
417.31	463.43
417.50	388.53
417.69	472.79
417.88	414.27
418.07	383.85
418.26	365.12
418.45	372.15
418.64	411.93
418.83	379.17
419.02	393.21
419.21	437.68
419.39	332.36
419.58	433.00
419.77	400.23
419.96	341.72
420.15	374.49
420.34	411.93
420.53	325.33
420.72	416.62
420.91	444.70
421.10	355.76
421.29	400.23
421.48	390.87
421.67	404.91
421.86	400.23
422.05	383.85
422.24	395.55
422.43	449.38
422.61	395.55
422.80	337.04
422.99	428.32
423.18	369.80
423.37	454.06
423.56	383.85
423.75	451.72
423.94	414.27
424.13	374.49
424.32	367.46
424.50	409.59
424.69	442.36
424.88	416.62
425.07	416.62
425.26	437.68
425.45	393.21
425.64	418.96
425.83	416.62
426.01	402.57
426.20	454.06
426.39	386.19
426.58	423.64
426.77	428.32
426.96	393.21
427.15	428.32
427.33	442.36
427.52	395.55
427.71	395.55
427.90	395.55
428.09	411.93
428.28	327.68
428.46	358.10
428.65	510.24
428.84	404.91
429.03	437.68
429.22	404.91
429.40	435.34
429.59	376.83
429.78	404.91
429.97	381.51
430.16	423.64
430.34	362.78
430.53	423.64
430.72	449.38
430.91	479.81
431.10	430.66
431.28	491.51
431.47	395.55
431.66	428.32
431.85	447.04
432.03	430.66
432.22	409.59
432.41	465.77
432.60	386.19
432.79	320.65
432.97	428.32
433.16	430.66
433.35	456.40
433.54	395.55
433.72	374.49
433.91	442.36
434.10	397.89
434.28	369.80
434.47	365.12
434.66	491.51
434.85	397.89
435.03	423.64
435.22	444.70
435.41	407.25
435.59	404.91
435.78	355.76
435.97	334.70
436.16	423.64
436.34	409.59
436.53	421.30
436.72	475.13
436.90	379.17
437.09	402.57
437.28	437.68
437.46	407.25
437.65	397.89
437.84	510.24
438.02	440.02
438.21	475.13
438.40	409.59
438.58	402.57
438.77	397.89
438.96	407.25
439.14	402.57
439.33	444.70
439.52	390.87
439.70	390.87
439.89	425.98
440.08	421.30
440.26	386.19
440.45	423.64
440.63	444.70
440.82	484.49
441.01	451.72
441.19	400.23
441.38	308.95
441.57	409.59
441.75	461.09
441.94	517.26
442.12	344.06
442.31	395.55
442.50	334.70
442.68	388.53
442.87	372.15
443.05	479.81
443.24	322.99
443.43	414.27
443.61	351.08
443.80	404.91
443.98	365.12
444.17	379.17
444.35	379.17
444.54	456.40
444.73	341.72
444.91	425.98
445.10	381.51
445.28	397.89
445.47	423.64
445.65	409.59
445.84	425.98
446.02	425.98
446.21	367.46
446.39	362.78
446.58	383.85
446.77	390.87
446.95	388.53
447.14	486.83
447.32	435.34
447.51	390.87
447.69	454.06
447.88	468.11
448.06	435.34
448.25	411.93
448.43	454.06
448.62	414.27
448.80	507.90
448.99	435.34
449.17	440.02
449.36	332.36
449.54	477.47
449.73	397.89
449.91	433.00
450.10	400.23
450.28	461.09
450.46	418.96
450.65	379.17
450.83	449.38
451.02	409.59
451.20	479.81
451.39	346.40
451.57	379.17
451.76	409.59
451.94	409.59
452.13	372.15
452.31	444.70
452.49	416.62
452.68	397.89
452.86	418.96
453.05	423.64
453.23	433.00
453.42	348.74
453.60	423.64
453.78	330.02
453.97	365.12
454.15	442.36
454.34	355.76
454.52	428.32
454.70	372.15
454.89	402.57
455.07	433.00
455.26	437.68
455.44	433.00
455.62	393.21
455.81	418.96
455.99	397.89
456.17	404.91
456.36	388.53
456.54	437.68
456.73	475.13
456.91	404.91
457.09	482.15
457.28	423.64
457.46	414.27
457.64	374.49
457.83	451.72
458.01	379.17
458.19	388.53
458.38	428.32
458.56	435.34
458.74	461.09
458.93	407.25
459.11	414.27
459.29	386.19
459.48	430.66
459.66	418.96
459.84	402.57
460.03	435.34
460.21	360.44
460.39	416.62
460.57	433.00
460.76	404.91
460.94	383.85
461.12	428.32
461.31	421.30
461.49	465.77
461.67	430.66
461.85	430.66
462.04	358.10
462.22	805.14
462.40	402.57
462.59	393.21
462.77	416.62
462.95	390.87
463.13	402.57
463.32	440.02
463.50	465.77
463.68	425.98
463.86	440.02
464.05	360.44
464.23	475.13
464.41	362.78
464.59	395.55
464.78	341.72
464.96	374.49
465.14	418.96
465.32	456.40
465.50	433.00
465.69	447.04
465.87	407.25
466.05	475.13
466.23	437.68
466.41	397.89
466.60	461.09
466.78	451.72
466.96	353.42
467.14	468.11
467.32	454.06
467.51	507.90
467.69	402.57
467.87	395.55
468.05	400.23
468.23	395.55
468.41	465.77
468.60	421.30
468.78	468.11
468.96	362.78
469.14	437.68
469.32	425.98
469.50	346.40
469.69	433.00
469.87	386.19
470.05	421.30
470.23	414.27
470.41	393.21
470.59	430.66
470.77	468.11
470.95	381.51
471.14	418.96
471.32	376.83
471.50	435.34
471.68	404.91
471.86	379.17
472.04	374.49
472.22	437.68
472.40	404.91
472.58	393.21
472.77	411.93
472.95	423.64
473.13	512.58
473.31	355.76
473.49	360.44
473.67	376.83
473.85	353.42
474.03	423.64
474.21	447.04
474.39	468.11
474.57	454.06
474.75	372.15
474.93	346.40
475.12	344.06
475.30	376.83
475.48	379.17
475.66	437.68
475.84	388.53
476.02	458.74
476.20	386.19
476.38	418.96
476.56	409.59
476.74	444.70
476.92	395.55
477.10	362.78
477.28	409.59
477.46	416.62
477.64	423.64
477.82	418.96
478.00	444.70
478.18	465.77
478.36	381.51
478.54	397.89
478.72	433.00
478.90	475.13
479.08	379.17
479.26	397.89
479.44	430.66
479.62	418.96
479.80	425.98
479.98	395.55
480.16	456.40
480.34	477.47
480.52	430.66
480.70	423.64
480.88	447.04
481.06	404.91
481.24	423.64
481.41	468.11
481.59	365.12
481.77	447.04
481.95	423.64
482.13	430.66
482.31	367.46
482.49	461.09
482.67	461.09
482.85	425.98
483.03	402.57
483.21	367.46
483.39	442.36
483.57	404.91
483.74	435.34
483.92	407.25
484.10	444.70
484.28	428.32
484.46	468.11
484.64	381.51
484.82	435.34
485.00	428.32
485.18	400.23
485.35	400.23
485.53	369.80
485.71	411.93
485.89	409.59
486.07	442.36
486.25	430.66
486.43	465.77
486.61	369.80
486.78	416.62
486.96	388.53
487.14	418.96
487.32	395.55
487.50	397.89
487.68	383.85
487.85	376.83
488.03	447.04
488.21	421.30
488.39	376.83
488.57	414.27
488.75	454.06
488.92	510.24
489.10	477.47
489.28	404.91
489.46	351.08
489.64	365.12
489.81	400.23
489.99	430.66
490.17	402.57
490.35	404.91
490.53	372.15
490.70	411.93
490.88	402.57
491.06	393.21
491.24	418.96
491.41	430.66
491.59	418.96
491.77	395.55
491.95	334.70
492.13	383.85
492.30	351.08
492.48	339.38
492.66	458.74
492.84	409.59
493.01	402.57
493.19	414.27
493.37	472.79
493.54	440.02
493.72	442.36
493.90	393.21
494.08	330.02
494.25	411.93
494.43	454.06
494.61	379.17
494.79	407.25
494.96	372.15
495.14	414.27
495.32	409.59
495.49	447.04
495.67	425.98
495.85	414.27
496.02	334.70
496.20	337.04
496.38	388.53
496.55	362.78
496.73	423.64
496.91	451.72
497.09	374.49
497.26	416.62
497.44	360.44
497.62	360.44
497.79	437.68
497.97	430.66
498.14	411.93
498.32	428.32
498.50	433.00
498.67	425.98
498.85	409.59
499.03	390.87
499.20	407.25
499.38	381.51
499.56	442.36
499.73	430.66
499.91	430.66
500.08	358.10
500.26	447.04
500.44	369.80
500.61	407.25
500.79	416.62
500.97	372.15
501.14	496.19
501.32	437.68
501.49	430.66
501.67	390.87
501.84	393.21
502.02	400.23
502.20	383.85
502.37	444.70
502.55	444.70
502.72	454.06
502.90	451.72
503.07	428.32
503.25	440.02
503.43	456.40
503.60	479.81
503.78	435.34
503.95	367.46
504.13	334.70
504.30	374.49
504.48	407.25
504.65	458.74
504.83	437.68
505.01	372.15
505.18	372.15
505.36	365.12
505.53	365.12
505.71	402.57
505.88	435.34
506.06	442.36
506.23	402.57
506.41	477.47
506.58	418.96
506.76	372.15
506.93	430.66
507.11	411.93
507.28	444.70
507.46	451.72
507.63	411.93
507.81	362.78
507.98	374.49
508.16	411.93
508.33	428.32
508.50	397.89
508.68	430.66
508.85	416.62
509.03	369.80
509.20	397.89
509.38	456.40
509.55	393.21
509.73	425.98
509.90	496.19
510.08	416.62
510.25	386.19
510.42	440.02
510.60	395.55
510.77	374.49
510.95	454.06
511.12	454.06
511.30	486.83
511.47	414.27
511.64	411.93
511.82	365.12
511.99	404.91
512.17	383.85
512.34	433.00
512.51	411.93
512.69	367.46
512.86	390.87
513.04	374.49
513.21	346.40
513.38	362.78
513.56	456.40
513.73	386.19
513.90	404.91
514.08	463.43
514.25	454.06
514.43	442.36
514.60	423.64
514.77	348.74
514.95	423.64
515.12	416.62
515.29	454.06
515.47	355.76
515.64	409.59
515.81	442.36
515.99	475.13
516.16	437.68
516.33	395.55
516.51	418.96
516.68	463.43
516.85	421.30
517.03	416.62
517.20	348.74
517.37	407.25
517.54	425.98
517.72	400.23
517.89	404.91
518.06	411.93
518.24	503.22
518.41	440.02
518.58	430.66
518.75	374.49
518.93	404.91
519.10	423.64
519.27	355.76
519.45	430.66
519.62	503.22
519.79	425.98
519.96	381.51
520.14	437.68
520.31	425.98
520.48	411.93
520.65	484.49
520.83	393.21
521.00	397.89
521.17	451.72
521.34	465.77
521.52	339.38
521.69	421.30
521.86	414.27
522.03	365.12
522.20	458.74
522.38	390.87
522.55	404.91
522.72	395.55
522.89	414.27
523.07	414.27
523.24	421.30
523.41	430.66
523.58	372.15
523.75	418.96
523.92	318.31
524.10	376.83
524.27	414.27
524.44	360.44
524.61	447.04
524.78	400.23
524.96	428.32
525.13	332.36
525.30	442.36
525.47	463.43
525.64	437.68
525.81	449.38
525.98	482.15
526.16	393.21
526.33	383.85
526.50	411.93
526.67	365.12
526.84	374.49
527.01	388.53
527.18	428.32
527.36	479.81
527.53	383.85
527.70	435.34
527.87	365.12
528.04	435.34
528.21	472.79
528.38	407.25
528.55	388.53
528.72	433.00
528.89	449.38
529.07	449.38
529.24	458.74
529.41	440.02
529.58	374.49
529.75	355.76
529.92	390.87
530.09	479.81
530.26	416.62
530.43	411.93
530.60	425.98
530.77	379.17
530.94	458.74
531.11	447.04
531.28	409.59
531.46	442.36
531.63	386.19
531.80	360.44
531.97	437.68
532.14	428.32
532.31	418.96
532.48	400.23
532.65	475.13
532.82	358.10
532.99	339.38
533.16	402.57
533.33	442.36
533.50	393.21
533.67	374.49
533.84	435.34
534.01	458.74
534.18	421.30
534.35	381.51
534.52	358.10
534.69	447.04
534.86	442.36
535.03	337.04
535.20	379.17
535.37	355.76
535.54	498.53
535.71	421.30
535.88	470.45
536.05	440.02
536.22	388.53
536.38	458.74
536.55	447.04
536.72	393.21
536.89	440.02
537.06	458.74
537.23	393.21
537.40	353.42
537.57	435.34
537.74	507.90
537.91	486.83
538.08	402.57
538.25	348.74
538.42	379.17
538.59	407.25
538.75	428.32
538.92	402.57
539.09	409.59
539.26	435.34
539.43	400.23
539.60	435.34
539.77	449.38
539.94	470.45
540.11	409.59
540.28	425.98
540.44	496.19
540.61	517.26
540.78	421.30
540.95	418.96
541.12	517.26
541.29	433.00
541.46	463.43
541.62	337.04
541.79	458.74
541.96	388.53
542.13	465.77
542.30	472.79
542.47	404.91
542.63	447.04
542.80	407.25
542.97	367.46
543.14	374.49
543.31	376.83
543.48	407.25
543.64	397.89
543.81	454.06
543.98	402.57
544.15	365.12
544.32	395.55
544.48	472.79
544.65	454.06
544.82	393.21
544.99	353.42
545.16	395.55
545.32	404.91
545.49	383.85
545.66	372.15
545.83	449.38
546.00	351.08
546.16	416.62
546.33	423.64
546.50	425.98
546.67	407.25
546.83	479.81
547.00	402.57
547.17	411.93
547.34	404.91
547.50	367.46
547.67	348.74
547.84	475.13
548.00	440.02
548.17	402.57
548.34	400.23
548.51	449.38
548.67	456.40
548.84	376.83
549.01	423.64
549.18	416.62
549.34	418.96
549.51	411.93
549.68	409.59
549.84	383.85
550.01	383.85
550.18	430.66
550.34	447.04
550.51	440.02
550.68	566.41
550.84	456.40
551.01	388.53
551.18	456.40
551.34	362.78
551.51	435.34
551.68	418.96
551.84	435.34
552.01	400.23
552.18	348.74
552.34	390.87
552.51	404.91
552.68	447.04
552.84	414.27
553.01	383.85
553.18	440.02
553.34	404.91
553.51	409.59
553.67	475.13
553.84	423.64
554.01	458.74
554.17	430.66
554.34	404.91
554.51	435.34
554.67	461.09
554.84	468.11
555.00	458.74
555.17	416.62
555.33	484.49
555.50	383.85
555.67	458.74
555.83	400.23
556.00	484.49
556.16	510.24
556.33	461.09
556.50	425.98
556.66	416.62
556.83	423.64
556.99	416.62
557.16	440.02
557.32	379.17
557.49	416.62
557.65	416.62
557.82	341.72
557.98	458.74
558.15	477.47
558.32	421.30
558.48	468.11
558.65	404.91
558.81	447.04
558.98	379.17
559.14	414.27
559.31	397.89
559.47	421.30
559.64	411.93
559.80	461.09
559.97	379.17
560.13	414.27
560.30	355.76
560.46	486.83
560.63	463.43
560.79	430.66
560.96	344.06
561.12	383.85
561.29	463.43
561.45	503.22
561.61	416.62
561.78	472.79
561.94	404.91
562.11	402.57
562.27	437.68
562.44	372.15
562.60	390.87
562.77	430.66
562.93	507.90
563.10	465.77
563.26	402.57
563.42	444.70
563.59	376.83
563.75	440.02
563.92	444.70
564.08	390.87
564.24	407.25
564.41	451.72
564.57	395.55
564.74	386.19
564.90	409.59
565.07	402.57
565.23	472.79
565.39	425.98
565.56	407.25
565.72	386.19
565.88	451.72
566.05	360.44
566.21	425.98
566.38	433.00
566.54	400.23
566.70	484.49
566.87	379.17
567.03	332.36
567.19	449.38
567.36	407.25
567.52	456.40
567.68	360.44
567.85	440.02
568.01	397.89
568.17	407.25
568.34	353.42
568.50	437.68
568.66	442.36
568.83	517.26
568.99	367.46
569.15	397.89
569.32	362.78
569.48	341.72
569.64	346.40
569.81	400.23
569.97	444.70
570.13	451.72
570.30	461.09
570.46	386.19
570.62	517.26
570.78	332.36
570.95	372.15
571.11	379.17
571.27	454.06
571.43	423.64
571.60	514.92
571.76	376.83
571.92	435.34
572.09	393.21
572.25	416.62
572.41	482.15
572.57	365.12
572.74	454.06
572.90	379.17
573.06	402.57
573.22	472.79
573.38	465.77
573.55	379.17
573.71	440.02
573.87	442.36
574.03	383.85
574.20	454.06
574.36	477.47
574.52	454.06
574.68	507.90
574.84	449.38
575.01	372.15
575.17	458.74
575.33	418.96
575.49	409.59
575.65	409.59
575.82	433.00
575.98	318.31
576.14	411.93
576.30	470.45
576.46	386.19
576.62	458.74
576.79	390.87
576.95	461.09
577.11	402.57
577.27	383.85
577.43	470.45
577.59	458.74
577.75	390.87
577.92	365.12
578.08	416.62
578.24	367.46
578.40	442.36
578.56	341.72
578.72	477.47
578.88	395.55
579.04	360.44
579.21	468.11
579.37	461.09
579.53	397.89
579.69	440.02
579.85	376.83
580.01	402.57
580.17	397.89
580.33	435.34
580.49	416.62
580.65	393.21
580.82	400.23
580.98	402.57
581.14	348.74
581.30	374.49
581.46	393.21
581.62	430.66
581.78	362.78
581.94	372.15
582.10	381.51
582.26	337.04
582.42	402.57
582.58	402.57
582.74	369.80
582.90	447.04
583.06	428.32
583.22	437.68
583.38	383.85
583.54	376.83
583.70	479.81
583.86	402.57
584.02	423.64
584.18	395.55
584.34	397.89
584.50	451.72
584.66	353.42
584.82	367.46
584.98	461.09
585.14	360.44
585.30	491.51
585.46	404.91
585.62	428.32
585.78	479.81
585.94	393.21
586.10	449.38
586.26	430.66
586.42	463.43
586.58	418.96
586.74	407.25
586.90	423.64
587.06	451.72
587.22	409.59
587.38	470.45
587.54	435.34
587.70	416.62
587.86	400.23
588.02	348.74
588.18	386.19
588.34	447.04
588.49	414.27
588.65	475.13
588.81	437.68
588.97	376.83
589.13	411.93
589.29	407.25
589.45	433.00
589.61	482.15
589.77	430.66
589.93	468.11
590.08	337.04
590.24	470.45
590.40	475.13
590.56	447.04
590.72	409.59
590.88	379.17
591.04	409.59
591.20	447.04
591.35	433.00
591.51	306.61
591.67	397.89
591.83	437.68
591.99	465.77
592.15	451.72
592.31	437.68
592.46	376.83
592.62	425.98
592.78	404.91
592.94	449.38
593.10	404.91
593.26	435.34
593.41	379.17
593.57	428.32
593.73	381.51
593.89	411.93
594.05	437.68
594.20	372.15
594.36	388.53
594.52	379.17
594.68	437.68
594.84	451.72
594.99	388.53
595.15	442.36
595.31	407.25
595.47	447.04
595.62	442.36
595.78	421.30
595.94	440.02
596.10	351.08
596.25	388.53
596.41	407.25
596.57	447.04
596.73	437.68
596.88	393.21
597.04	444.70
597.20	475.13
597.36	433.00
597.51	372.15
597.67	369.80
597.83	421.30
597.99	386.19
598.14	461.09
598.30	395.55
598.46	369.80
598.61	395.55
598.77	407.25
598.93	416.62
599.09	397.89
599.24	381.51
599.40	402.57
599.56	418.96
599.71	444.70
599.87	407.25
600.03	411.93
600.18	454.06
600.34	433.00
600.50	407.25
600.65	376.83
600.81	400.23
600.97	379.17
601.12	449.38
601.28	440.02
601.44	440.02
601.59	463.43
601.75	458.74
601.91	418.96
602.06	409.59
602.22	451.72
602.37	425.98
602.53	393.21
602.69	386.19
602.84	386.19
603.00	327.68
603.16	418.96
603.31	447.04
603.47	383.85
603.62	411.93
603.78	461.09
603.94	411.93
604.09	468.11
604.25	404.91
604.40	395.55
604.56	482.15
604.71	407.25
604.87	390.87
605.03	447.04
605.18	418.96
605.34	425.98
605.49	498.53
605.65	437.68
605.80	376.83
605.96	449.38
606.12	503.22
606.27	486.83
606.43	418.96
606.58	465.77
606.74	444.70
606.89	404.91
607.05	407.25
607.20	433.00
607.36	402.57
607.51	365.12
607.67	397.89
607.82	425.98
607.98	407.25
608.13	430.66
608.29	416.62
608.44	365.12
608.60	355.76
608.75	397.89
608.91	514.92
609.06	489.17
609.22	402.57
609.37	421.30
609.53	369.80
609.68	367.46
609.84	418.96
609.99	348.74
610.15	449.38
