SpectraSuite Data File
++++++++++++++++++++++++++++++++++++
Date: Fri Oct 25 12:11:17 EDT 2013
User: price-jones
Dark Spectrum Present: No
Reference Spectrum Present: No
Number of Sampled Component Spectra: 1
Spectrometers: USB2+H05261
Integration Time (usec): 100000 (USB2+H05261)
Spectra Averaged: 1 (USB2+H05261)
Boxcar Smoothing: 0 (USB2+H05261)
Correct for Electrical Dark: No (USB2+H05261)
Strobe/Lamp Enabled: No (USB2+H05261)
Correct for Detector Non-linearity: No (USB2+H05261)
Correct for Stray Light: No (USB2+H05261)
Number of Pixels in Processed Spectrum: 2048
>>>>>Begin Processed Spectral Data<<<<<
365.73	292.57
365.92	292.57
366.12	292.57
366.32	315.97
366.52	250.44
366.72	327.68
366.91	308.95
367.11	227.03
367.31	250.44
367.51	220.01
367.70	250.44
367.90	196.60
368.10	231.71
368.30	245.76
368.49	187.24
368.69	173.20
368.89	283.20
369.09	285.55
369.28	299.59
369.48	262.14
369.68	273.84
369.87	449.38
370.07	285.55
370.27	337.04
370.47	294.91
370.66	369.80
370.86	362.78
371.06	414.27
371.25	397.89
371.45	393.21
371.65	386.19
371.84	386.19
372.04	365.12
372.24	409.59
372.44	353.42
372.63	386.19
372.83	376.83
373.03	383.85
373.22	386.19
373.42	362.78
373.62	416.62
373.81	386.19
374.01	428.32
374.21	437.68
374.40	397.89
374.60	393.21
374.79	402.57
374.99	379.17
375.19	411.93
375.38	435.34
375.58	458.74
375.78	346.40
375.97	437.68
376.17	379.17
376.37	418.96
376.56	477.47
376.76	386.19
376.95	386.19
377.15	379.17
377.35	458.74
377.54	400.23
377.74	454.06
377.93	442.36
378.13	330.02
378.33	482.15
378.52	344.06
378.72	414.27
378.91	404.91
379.11	407.25
379.31	404.91
379.50	393.21
379.70	388.53
379.89	383.85
380.09	365.12
380.28	409.59
380.48	404.91
380.68	386.19
380.87	442.36
381.07	390.87
381.26	428.32
381.46	418.96
381.65	463.43
381.85	358.10
382.04	395.55
382.24	463.43
382.43	425.98
382.63	437.68
382.83	411.93
383.02	409.59
383.22	397.89
383.41	402.57
383.61	395.55
383.80	393.21
384.00	351.08
384.19	386.19
384.39	461.09
384.58	353.42
384.78	395.55
384.97	344.06
385.17	409.59
385.36	348.74
385.56	367.46
385.75	440.02
385.95	407.25
386.14	418.96
386.34	472.79
386.53	367.46
386.72	433.00
386.92	369.80
387.11	409.59
387.31	421.30
387.50	397.89
387.70	383.85
387.89	381.51
388.09	358.10
388.28	330.02
388.48	395.55
388.67	386.19
388.86	430.66
389.06	482.15
389.25	461.09
389.45	437.68
389.64	390.87
389.84	451.72
390.03	388.53
390.22	418.96
390.42	381.51
390.61	461.09
390.81	393.21
391.00	407.25
391.19	395.55
391.39	351.08
391.58	397.89
391.78	330.02
391.97	320.65
392.16	416.62
392.36	449.38
392.55	365.12
392.75	407.25
392.94	397.89
393.13	440.02
393.33	383.85
393.52	388.53
393.71	440.02
393.91	341.72
394.10	376.83
394.29	395.55
394.49	341.72
394.68	411.93
394.88	423.64
395.07	409.59
395.26	451.72
395.46	369.80
395.65	486.83
395.84	437.68
396.04	433.00
396.23	395.55
396.42	451.72
396.62	376.83
396.81	376.83
397.00	418.96
397.19	435.34
397.39	390.87
397.58	425.98
397.77	465.77
397.97	376.83
398.16	404.91
398.35	423.64
398.55	404.91
398.74	388.53
398.93	367.46
399.12	409.59
399.32	369.80
399.51	440.02
399.70	421.30
399.90	416.62
400.09	334.70
400.28	465.77
400.47	447.04
400.67	463.43
400.86	334.70
401.05	411.93
401.24	407.25
401.44	423.64
401.63	395.55
401.82	388.53
402.01	430.66
402.21	383.85
402.40	393.21
402.59	304.27
402.78	346.40
402.97	454.06
403.17	430.66
403.36	409.59
403.55	402.57
403.74	400.23
403.93	346.40
404.13	475.13
404.32	365.12
404.51	360.44
404.70	433.00
404.89	348.74
405.09	362.78
405.28	414.27
405.47	376.83
405.66	416.62
405.85	449.38
406.05	421.30
406.24	369.80
406.43	369.80
406.62	376.83
406.81	440.02
407.00	449.38
407.20	379.17
407.39	395.55
407.58	414.27
407.77	456.40
407.96	461.09
408.15	407.25
408.34	423.64
408.54	479.81
408.73	428.32
408.92	360.44
409.11	416.62
409.30	360.44
409.49	451.72
409.68	369.80
409.87	400.23
410.07	344.06
410.26	365.12
410.45	430.66
410.64	433.00
410.83	376.83
411.02	416.62
411.21	355.76
411.40	423.64
411.59	414.27
411.78	395.55
411.98	383.85
412.17	435.34
412.36	397.89
412.55	402.57
412.74	421.30
412.93	358.10
413.12	341.72
413.31	414.27
413.50	388.53
413.69	414.27
413.88	465.77
414.07	423.64
414.26	489.17
414.45	451.72
414.64	388.53
414.83	470.45
415.02	386.19
415.22	444.70
415.41	486.83
415.60	421.30
415.79	414.27
415.98	374.49
416.17	402.57
416.36	376.83
416.55	409.59
416.74	374.49
416.93	365.12
417.12	372.15
417.31	369.80
417.50	341.72
417.69	409.59
417.88	381.51
418.07	374.49
418.26	393.21
418.45	390.87
418.64	433.00
418.83	362.78
419.02	465.77
419.21	379.17
419.39	463.43
419.58	440.02
419.77	341.72
419.96	433.00
420.15	444.70
420.34	440.02
420.53	421.30
420.72	447.04
420.91	435.34
421.10	390.87
421.29	414.27
421.48	468.11
421.67	465.77
421.86	393.21
422.05	386.19
422.24	418.96
422.43	402.57
422.61	362.78
422.80	376.83
422.99	409.59
423.18	409.59
423.37	465.77
423.56	423.64
423.75	425.98
423.94	381.51
424.13	332.36
424.32	461.09
424.50	430.66
424.69	411.93
424.88	482.15
425.07	425.98
425.26	463.43
425.45	418.96
425.64	393.21
425.83	421.30
426.01	433.00
426.20	355.76
426.39	409.59
426.58	386.19
426.77	437.68
426.96	507.90
427.15	418.96
427.33	353.42
427.52	372.15
427.71	444.70
427.90	409.59
428.09	348.74
428.28	372.15
428.46	430.66
428.65	416.62
428.84	409.59
429.03	484.49
429.22	381.51
429.40	365.12
429.59	435.34
429.78	372.15
429.97	418.96
430.16	437.68
430.34	486.83
430.53	425.98
430.72	355.76
430.91	475.13
431.10	355.76
431.28	430.66
431.47	503.22
431.66	468.11
431.85	425.98
432.03	425.98
432.22	449.38
432.41	379.17
432.60	472.79
432.79	369.80
432.97	433.00
433.16	407.25
433.35	376.83
433.54	383.85
433.72	477.47
433.91	500.87
434.10	425.98
434.28	393.21
434.47	418.96
434.66	421.30
434.85	414.27
435.03	395.55
435.22	477.47
435.41	423.64
435.59	416.62
435.78	414.27
435.97	348.74
436.16	369.80
436.34	418.96
436.53	440.02
436.72	393.21
436.90	393.21
437.09	393.21
437.28	381.51
437.46	433.00
437.65	418.96
437.84	362.78
438.02	428.32
438.21	411.93
438.40	397.89
438.58	332.36
438.77	484.49
438.96	372.15
439.14	397.89
439.33	402.57
439.52	437.68
439.70	381.51
439.89	365.12
440.08	402.57
440.26	451.72
440.45	423.64
440.63	454.06
440.82	409.59
441.01	407.25
441.19	414.27
441.38	362.78
441.57	348.74
441.75	451.72
441.94	493.85
442.12	416.62
442.31	362.78
442.50	449.38
442.68	435.34
442.87	423.64
443.05	433.00
443.24	433.00
443.43	402.57
443.61	372.15
443.80	411.93
443.98	381.51
444.17	386.19
444.35	430.66
444.54	388.53
444.73	416.62
444.91	440.02
445.10	355.76
445.28	447.04
445.47	393.21
445.65	442.36
445.84	416.62
446.02	449.38
446.21	390.87
446.39	411.93
446.58	397.89
446.77	372.15
446.95	386.19
447.14	421.30
447.32	393.21
447.51	409.59
447.69	437.68
447.88	400.23
448.06	407.25
448.25	437.68
448.43	388.53
448.62	421.30
448.80	402.57
448.99	365.12
449.17	435.34
449.36	372.15
449.54	465.77
449.73	407.25
449.91	435.34
450.10	451.72
450.28	510.24
450.46	489.17
450.65	423.64
450.83	435.34
451.02	404.91
451.20	404.91
451.39	416.62
451.57	435.34
451.76	341.72
451.94	369.80
452.13	463.43
452.31	437.68
452.49	442.36
452.68	437.68
452.86	475.13
453.05	433.00
453.23	411.93
453.42	332.36
453.60	395.55
453.78	472.79
453.97	433.00
454.15	409.59
454.34	423.64
454.52	407.25
454.70	489.17
454.89	449.38
455.07	421.30
455.26	428.32
455.44	444.70
455.62	393.21
455.81	435.34
455.99	442.36
456.17	477.47
456.36	393.21
456.54	437.68
456.73	442.36
456.91	433.00
457.09	482.15
457.28	447.04
457.46	454.06
457.64	369.80
457.83	407.25
458.01	397.89
458.19	428.32
458.38	421.30
458.56	423.64
458.74	425.98
458.93	449.38
459.11	418.96
459.29	355.76
459.48	461.09
459.66	397.89
459.84	468.11
460.03	458.74
460.21	383.85
460.39	428.32
460.57	362.78
460.76	418.96
460.94	402.57
461.12	442.36
461.31	472.79
461.49	430.66
461.67	367.46
461.85	437.68
462.04	433.00
462.22	798.12
462.40	337.04
462.59	486.83
462.77	425.98
462.95	437.68
463.13	409.59
463.32	447.04
463.50	425.98
463.68	393.21
463.86	404.91
464.05	379.17
464.23	395.55
464.41	423.64
464.59	404.91
464.78	395.55
464.96	388.53
465.14	470.45
465.32	463.43
465.50	430.66
465.69	386.19
465.87	444.70
466.05	386.19
466.23	468.11
466.41	362.78
466.60	458.74
466.78	472.79
466.96	437.68
467.14	362.78
467.32	355.76
467.51	442.36
467.69	369.80
467.87	435.34
468.05	388.53
468.23	458.74
468.41	449.38
468.60	355.76
468.78	407.25
468.96	454.06
469.14	383.85
469.32	383.85
469.50	327.68
469.69	489.17
469.87	449.38
470.05	341.72
470.23	351.08
470.41	433.00
470.59	421.30
470.77	449.38
470.95	489.17
471.14	484.49
471.32	451.72
471.50	440.02
471.68	493.85
471.86	468.11
472.04	400.23
472.22	379.17
472.40	468.11
472.58	414.27
472.77	367.46
472.95	372.15
473.13	458.74
473.31	463.43
473.49	404.91
473.67	444.70
473.85	400.23
474.03	482.15
474.21	449.38
474.39	407.25
474.57	428.32
474.75	353.42
474.93	344.06
475.12	414.27
475.30	407.25
475.48	376.83
475.66	355.76
475.84	411.93
476.02	402.57
476.20	437.68
476.38	423.64
476.56	440.02
476.74	430.66
476.92	465.77
477.10	437.68
477.28	421.30
477.46	454.06
477.64	470.45
477.82	458.74
478.00	411.93
478.18	414.27
478.36	395.55
478.54	451.72
478.72	353.42
478.90	458.74
479.08	390.87
479.26	461.09
479.44	428.32
479.62	440.02
479.80	390.87
479.98	447.04
480.16	440.02
480.34	458.74
480.52	411.93
480.70	435.34
480.88	416.62
481.06	320.65
481.24	386.19
481.41	433.00
481.59	346.40
481.77	428.32
481.95	365.12
482.13	505.56
482.31	372.15
482.49	425.98
482.67	456.40
482.85	367.46
483.03	421.30
483.21	327.68
483.39	388.53
483.57	433.00
483.74	454.06
483.92	402.57
484.10	395.55
484.28	482.15
484.46	440.02
484.64	425.98
484.82	458.74
485.00	376.83
485.18	451.72
485.35	449.38
485.53	367.46
485.71	416.62
485.89	393.21
486.07	388.53
486.25	470.45
486.43	355.76
486.61	411.93
486.78	404.91
486.96	409.59
487.14	425.98
487.32	409.59
487.50	444.70
487.68	440.02
487.85	458.74
488.03	489.17
488.21	430.66
488.39	421.30
488.57	442.36
488.75	348.74
488.92	493.85
489.10	477.47
489.28	444.70
489.46	444.70
489.64	362.78
489.81	379.17
489.99	388.53
490.17	369.80
490.35	528.96
490.53	388.53
490.70	421.30
490.88	416.62
491.06	388.53
491.24	414.27
491.41	433.00
491.59	500.87
491.77	360.44
491.95	379.17
492.13	409.59
492.30	418.96
492.48	447.04
492.66	423.64
492.84	386.19
493.01	428.32
493.19	423.64
493.37	451.72
493.54	395.55
493.72	407.25
493.90	327.68
494.08	428.32
494.25	379.17
494.43	393.21
494.61	372.15
494.79	425.98
494.96	311.29
495.14	393.21
495.32	351.08
495.49	390.87
495.67	414.27
495.85	433.00
496.02	409.59
496.20	374.49
496.38	444.70
496.55	360.44
496.73	465.77
496.91	393.21
497.09	458.74
497.26	425.98
497.44	463.43
497.62	414.27
497.79	456.40
497.97	465.77
498.14	421.30
498.32	367.46
498.50	423.64
498.67	372.15
498.85	409.59
499.03	390.87
499.20	433.00
499.38	411.93
499.56	418.96
499.73	421.30
499.91	400.23
500.08	433.00
500.26	416.62
500.44	411.93
500.61	425.98
500.79	428.32
500.97	433.00
501.14	353.42
501.32	454.06
501.49	463.43
501.67	400.23
501.84	400.23
502.02	386.19
502.20	418.96
502.37	395.55
502.55	463.43
502.72	409.59
502.90	407.25
503.07	458.74
503.25	428.32
503.43	369.80
503.60	390.87
503.78	470.45
503.95	393.21
504.13	322.99
504.30	451.72
504.48	444.70
504.65	493.85
504.83	425.98
505.01	428.32
505.18	411.93
505.36	402.57
505.53	430.66
505.71	409.59
505.88	416.62
506.06	372.15
506.23	379.17
506.41	423.64
506.58	449.38
506.76	390.87
506.93	414.27
507.11	503.22
507.28	435.34
507.46	470.45
507.63	407.25
507.81	447.04
507.98	482.15
508.16	433.00
508.33	425.98
508.50	351.08
508.68	418.96
508.85	444.70
509.03	404.91
509.20	358.10
509.38	444.70
509.55	440.02
509.73	423.64
509.90	416.62
510.08	381.51
510.25	351.08
510.42	493.85
510.60	437.68
510.77	372.15
510.95	374.49
511.12	367.46
511.30	388.53
511.47	456.40
511.64	479.81
511.82	372.15
511.99	491.51
512.17	362.78
512.34	402.57
512.51	360.44
512.69	367.46
512.86	409.59
513.04	411.93
513.21	416.62
513.38	414.27
513.56	458.74
513.73	414.27
513.90	362.78
514.08	447.04
514.25	374.49
514.43	344.06
514.60	369.80
514.77	418.96
514.95	341.72
515.12	348.74
515.29	374.49
515.47	475.13
515.64	369.80
515.81	332.36
515.99	425.98
516.16	435.34
516.33	409.59
516.51	411.93
516.68	409.59
516.85	397.89
517.03	397.89
517.20	414.27
517.37	404.91
517.54	458.74
517.72	475.13
517.89	447.04
518.06	425.98
518.24	479.81
518.41	451.72
518.58	379.17
518.75	360.44
518.93	383.85
519.10	451.72
519.27	365.12
519.45	388.53
519.62	454.06
519.79	449.38
519.96	411.93
520.14	404.91
520.31	447.04
520.48	440.02
520.65	472.79
520.83	395.55
521.00	404.91
521.17	425.98
521.34	334.70
521.52	362.78
521.69	358.10
521.86	411.93
522.03	514.92
522.20	423.64
522.38	404.91
522.55	421.30
522.72	407.25
522.89	472.79
523.07	447.04
523.24	468.11
523.41	381.51
523.58	442.36
523.75	407.25
523.92	444.70
524.10	407.25
524.27	477.47
524.44	402.57
524.61	402.57
524.78	421.30
524.96	388.53
525.13	449.38
525.30	451.72
525.47	428.32
525.64	397.89
525.81	458.74
525.98	428.32
526.16	388.53
526.33	383.85
526.50	451.72
526.67	404.91
526.84	440.02
527.01	416.62
527.18	414.27
527.36	470.45
527.53	355.76
527.70	395.55
527.87	425.98
528.04	470.45
528.21	421.30
528.38	400.23
528.55	461.09
528.72	411.93
528.89	376.83
529.07	463.43
529.24	421.30
529.41	442.36
529.58	447.04
529.75	402.57
529.92	425.98
530.09	414.27
530.26	428.32
530.43	379.17
530.60	437.68
530.77	418.96
530.94	454.06
531.11	409.59
531.28	325.33
531.46	416.62
531.63	397.89
531.80	414.27
531.97	465.77
532.14	475.13
532.31	484.49
532.48	433.00
532.65	388.53
532.82	465.77
532.99	423.64
533.16	376.83
533.33	454.06
533.50	409.59
533.67	341.72
533.84	418.96
534.01	423.64
534.18	423.64
534.35	397.89
534.52	400.23
534.69	421.30
534.86	404.91
535.03	400.23
535.20	414.27
535.37	423.64
535.54	433.00
535.71	381.51
535.88	503.22
536.05	395.55
536.22	465.77
536.38	388.53
536.55	414.27
536.72	395.55
536.89	355.76
537.06	421.30
537.23	440.02
537.40	425.98
537.57	395.55
537.74	437.68
537.91	411.93
538.08	376.83
538.25	393.21
538.42	447.04
538.59	437.68
538.75	407.25
538.92	395.55
539.09	416.62
539.26	346.40
539.43	411.93
539.60	421.30
539.77	496.19
539.94	421.30
540.11	425.98
540.28	416.62
540.44	381.51
540.61	390.87
540.78	411.93
540.95	447.04
541.12	470.45
541.29	472.79
541.46	435.34
541.62	493.85
541.79	402.57
541.96	351.08
542.13	383.85
542.30	414.27
542.47	358.10
542.63	358.10
542.80	376.83
542.97	442.36
543.14	456.40
543.31	444.70
543.48	339.38
543.64	386.19
543.81	400.23
543.98	505.56
544.15	404.91
544.32	493.85
544.48	447.04
544.65	379.17
544.82	465.77
544.99	421.30
545.16	442.36
545.32	360.44
545.49	463.43
545.66	418.96
545.83	358.10
546.00	404.91
546.16	447.04
546.33	430.66
546.50	409.59
546.67	423.64
546.83	367.46
547.00	444.70
547.17	376.83
547.34	423.64
547.50	423.64
547.67	407.25
547.84	451.72
548.00	451.72
548.17	402.57
548.34	379.17
548.51	475.13
548.67	348.74
548.84	435.34
549.01	433.00
549.18	395.55
549.34	418.96
549.51	440.02
549.68	484.49
549.84	447.04
550.01	390.87
550.18	468.11
550.34	496.19
550.51	425.98
550.68	447.04
550.84	383.85
551.01	486.83
551.18	451.72
551.34	421.30
551.51	374.49
551.68	458.74
551.84	447.04
552.01	344.06
552.18	423.64
552.34	369.80
552.51	332.36
552.68	472.79
552.84	395.55
553.01	367.46
553.18	456.40
553.34	334.70
553.51	372.15
553.67	435.34
553.84	369.80
554.01	402.57
554.17	358.10
554.34	376.83
554.51	393.21
554.67	435.34
554.84	411.93
555.00	402.57
555.17	435.34
555.33	442.36
555.50	372.15
555.67	390.87
555.83	353.42
556.00	395.55
556.16	554.71
556.33	451.72
556.50	482.15
556.66	428.32
556.83	411.93
556.99	372.15
557.16	341.72
557.32	435.34
557.49	381.51
557.65	397.89
557.82	388.53
557.98	437.68
558.15	442.36
558.32	404.91
558.48	339.38
558.65	442.36
558.81	400.23
558.98	423.64
559.14	449.38
559.31	383.85
559.47	409.59
559.64	454.06
559.80	447.04
559.97	433.00
560.13	414.27
560.30	355.76
560.46	404.91
560.63	449.38
560.79	449.38
560.96	425.98
561.12	348.74
561.29	442.36
561.45	475.13
561.61	500.87
561.78	514.92
561.94	341.72
562.11	472.79
562.27	444.70
562.44	402.57
562.60	451.72
562.77	442.36
562.93	435.34
563.10	433.00
563.26	463.43
563.42	449.38
563.59	470.45
563.75	379.17
563.92	402.57
564.08	440.02
564.24	437.68
564.41	428.32
564.57	315.97
564.74	374.49
564.90	348.74
565.07	430.66
565.23	409.59
565.39	482.15
565.56	456.40
565.72	482.15
565.88	369.80
566.05	418.96
566.21	437.68
566.38	362.78
566.54	416.62
566.70	437.68
566.87	484.49
567.03	388.53
567.19	416.62
567.36	491.51
567.52	428.32
567.68	456.40
567.85	386.19
568.01	369.80
568.17	416.62
568.34	369.80
568.50	414.27
568.66	435.34
568.83	468.11
568.99	397.89
569.15	397.89
569.32	440.02
569.48	390.87
569.64	327.68
569.81	397.89
569.97	472.79
570.13	423.64
570.30	416.62
570.46	407.25
570.62	423.64
570.78	402.57
570.95	346.40
571.11	435.34
571.27	402.57
571.43	409.59
571.60	414.27
571.76	400.23
571.92	402.57
572.09	393.21
572.25	442.36
572.41	402.57
572.57	428.32
572.74	411.93
572.90	458.74
573.06	444.70
573.22	404.91
573.38	402.57
573.55	341.72
573.71	407.25
573.87	461.09
574.03	423.64
574.20	369.80
574.36	416.62
574.52	383.85
574.68	320.65
574.84	428.32
575.01	353.42
575.17	440.02
575.33	397.89
575.49	416.62
575.65	416.62
575.82	449.38
575.98	442.36
576.14	435.34
576.30	414.27
576.46	397.89
576.62	433.00
576.79	409.59
576.95	463.43
577.11	348.74
577.27	433.00
577.43	421.30
577.59	454.06
577.75	418.96
577.92	444.70
578.08	388.53
578.24	414.27
578.40	470.45
578.56	449.38
578.72	430.66
578.88	362.78
579.04	425.98
579.21	381.51
579.37	379.17
579.53	454.06
579.69	433.00
579.85	425.98
580.01	486.83
580.17	390.87
580.33	517.26
580.49	379.17
580.65	430.66
580.82	421.30
580.98	425.98
581.14	388.53
581.30	425.98
581.46	428.32
581.62	400.23
581.78	435.34
581.94	458.74
582.10	360.44
582.26	440.02
582.42	397.89
582.58	421.30
582.74	379.17
582.90	437.68
583.06	374.49
583.22	402.57
583.38	458.74
583.54	484.49
583.70	435.34
583.86	332.36
584.02	397.89
584.18	456.40
584.34	411.93
584.50	496.19
584.66	388.53
584.82	400.23
584.98	437.68
585.14	365.12
585.30	440.02
585.46	440.02
585.62	372.15
585.78	470.45
585.94	543.00
586.10	423.64
586.26	447.04
586.42	440.02
586.58	435.34
586.74	430.66
586.90	402.57
587.06	404.91
587.22	423.64
587.38	376.83
587.54	437.68
587.70	454.06
587.86	365.12
588.02	423.64
588.18	442.36
588.34	479.81
588.49	400.23
588.65	383.85
588.81	456.40
588.97	468.11
589.13	484.49
589.29	442.36
589.45	470.45
589.61	468.11
589.77	507.90
589.93	400.23
590.08	383.85
590.24	435.34
590.40	437.68
590.56	423.64
590.72	397.89
590.88	367.46
591.04	407.25
591.20	416.62
591.35	461.09
591.51	425.98
591.67	379.17
591.83	390.87
591.99	411.93
592.15	390.87
592.31	407.25
592.46	425.98
592.62	447.04
592.78	418.96
592.94	479.81
593.10	386.19
593.26	407.25
593.41	454.06
593.57	393.21
593.73	465.77
593.89	454.06
594.05	379.17
594.20	433.00
594.36	456.40
594.52	369.80
594.68	475.13
594.84	390.87
594.99	437.68
595.15	376.83
595.31	491.51
595.47	423.64
595.62	437.68
595.78	423.64
595.94	367.46
596.10	416.62
596.25	409.59
596.41	463.43
596.57	376.83
596.73	421.30
596.88	454.06
597.04	353.42
597.20	390.87
597.36	383.85
597.51	451.72
597.67	428.32
597.83	430.66
597.99	437.68
598.14	449.38
598.30	442.36
598.46	440.02
598.61	360.44
598.77	491.51
598.93	362.78
599.09	388.53
599.24	379.17
599.40	461.09
599.56	397.89
599.71	407.25
599.87	379.17
600.03	362.78
600.18	482.15
600.34	409.59
600.50	433.00
600.65	444.70
600.81	395.55
600.97	503.22
601.12	461.09
601.28	449.38
601.44	423.64
601.59	386.19
601.75	428.32
601.91	381.51
602.06	454.06
602.22	491.51
602.37	458.74
602.53	388.53
602.69	383.85
602.84	353.42
603.00	386.19
603.16	411.93
603.31	435.34
603.47	407.25
603.62	381.51
603.78	437.68
603.94	505.56
604.09	402.57
604.25	407.25
604.40	437.68
604.56	421.30
604.71	428.32
604.87	425.98
605.03	423.64
605.18	451.72
605.34	353.42
605.49	411.93
605.65	423.64
605.80	372.15
605.96	386.19
606.12	337.04
606.27	449.38
606.43	435.34
606.58	449.38
606.74	451.72
606.89	411.93
607.05	407.25
607.20	411.93
607.36	404.91
607.51	308.95
607.67	365.12
607.82	433.00
607.98	498.53
608.13	451.72
608.29	390.87
608.44	397.89
608.60	430.66
608.75	409.59
608.91	475.13
609.06	521.94
609.22	444.70
609.37	369.80
609.53	402.57
609.68	360.44
609.84	409.59
609.99	411.93
610.15	376.83
