SpectraSuite Data File
++++++++++++++++++++++++++++++++++++
Date: Fri Oct 25 12:11:11 EDT 2013
User: price-jones
Dark Spectrum Present: No
Reference Spectrum Present: No
Number of Sampled Component Spectra: 1
Spectrometers: USB2+H05261
Integration Time (usec): 100000 (USB2+H05261)
Spectra Averaged: 1 (USB2+H05261)
Boxcar Smoothing: 0 (USB2+H05261)
Correct for Electrical Dark: No (USB2+H05261)
Strobe/Lamp Enabled: No (USB2+H05261)
Correct for Detector Non-linearity: No (USB2+H05261)
Correct for Stray Light: No (USB2+H05261)
Number of Pixels in Processed Spectrum: 2048
>>>>>Begin Processed Spectral Data<<<<<
365.73	395.55
365.92	395.55
366.12	395.55
366.32	313.63
366.52	210.65
366.72	154.48
366.91	292.57
367.11	227.03
367.31	161.50
367.51	264.48
367.70	215.33
367.90	255.12
368.10	266.82
368.30	236.39
368.49	241.08
368.69	273.84
368.89	231.71
369.09	182.56
369.28	222.35
369.48	276.18
369.68	215.33
369.87	327.68
370.07	276.18
370.27	341.72
370.47	315.97
370.66	360.44
370.86	383.85
371.06	383.85
371.25	433.00
371.45	428.32
371.65	362.78
371.84	362.78
372.04	344.06
372.24	358.10
372.44	337.04
372.63	393.21
372.83	447.04
373.03	409.59
373.22	449.38
373.42	388.53
373.62	318.31
373.81	475.13
374.01	463.43
374.21	423.64
374.40	428.32
374.60	456.40
374.79	388.53
374.99	418.96
375.19	400.23
375.38	379.17
375.58	423.64
375.78	393.21
375.97	526.62
376.17	461.09
376.37	421.30
376.56	418.96
376.76	383.85
376.95	367.46
377.15	379.17
377.35	400.23
377.54	383.85
377.74	397.89
377.93	409.59
378.13	418.96
378.33	388.53
378.52	400.23
378.72	458.74
378.91	444.70
379.11	402.57
379.31	449.38
379.50	400.23
379.70	411.93
379.89	447.04
380.09	414.27
380.28	360.44
380.48	374.49
380.68	437.68
380.87	358.10
381.07	423.64
381.26	428.32
381.46	369.80
381.65	411.93
381.85	386.19
382.04	435.34
382.24	308.95
382.43	365.12
382.63	407.25
382.83	456.40
383.02	444.70
383.22	472.79
383.41	369.80
383.61	390.87
383.80	440.02
384.00	339.38
384.19	442.36
384.39	346.40
384.58	407.25
384.78	409.59
384.97	397.89
385.17	388.53
385.36	341.72
385.56	421.30
385.75	351.08
385.95	381.51
386.14	379.17
386.34	416.62
386.53	440.02
386.72	437.68
386.92	360.44
387.11	402.57
387.31	416.62
387.50	372.15
387.70	489.17
387.89	400.23
388.09	402.57
388.28	339.38
388.48	360.44
388.67	360.44
388.86	411.93
389.06	386.19
389.25	423.64
389.45	423.64
389.64	374.49
389.84	407.25
390.03	421.30
390.22	430.66
390.42	353.42
390.61	367.46
390.81	358.10
391.00	393.21
391.19	404.91
391.39	393.21
391.58	402.57
391.78	348.74
391.97	388.53
392.16	449.38
392.36	514.92
392.55	479.81
392.75	404.91
392.94	313.63
393.13	409.59
393.33	440.02
393.52	360.44
393.71	479.81
393.91	397.89
394.10	444.70
394.29	327.68
394.49	397.89
394.68	447.04
394.88	416.62
395.07	407.25
395.26	395.55
395.46	393.21
395.65	447.04
395.84	369.80
396.04	451.72
396.23	372.15
396.42	418.96
396.62	404.91
396.81	379.17
397.00	362.78
397.19	325.33
397.39	425.98
397.58	433.00
397.77	435.34
397.97	514.92
398.16	395.55
398.35	437.68
398.55	390.87
398.74	456.40
398.93	397.89
399.12	433.00
399.32	395.55
399.51	332.36
399.70	404.91
399.90	379.17
400.09	348.74
400.28	386.19
400.47	360.44
400.67	390.87
400.86	407.25
401.05	411.93
401.24	344.06
401.44	461.09
401.63	407.25
401.82	374.49
402.01	400.23
402.21	442.36
402.40	393.21
402.59	479.81
402.78	381.51
402.97	404.91
403.17	330.02
403.36	428.32
403.55	409.59
403.74	390.87
403.93	386.19
404.13	433.00
404.32	376.83
404.51	388.53
404.70	407.25
404.89	433.00
405.09	475.13
405.28	383.85
405.47	388.53
405.66	433.00
405.85	374.49
406.05	423.64
406.24	367.46
406.43	409.59
406.62	379.17
406.81	421.30
407.00	409.59
407.20	418.96
407.39	348.74
407.58	346.40
407.77	404.91
407.96	454.06
408.15	374.49
408.34	402.57
408.54	425.98
408.73	421.30
408.92	372.15
409.11	418.96
409.30	472.79
409.49	407.25
409.68	430.66
409.87	451.72
410.07	362.78
410.26	360.44
410.45	393.21
410.64	428.32
410.83	475.13
411.02	346.40
411.21	400.23
411.40	451.72
411.59	358.10
411.78	353.42
411.98	395.55
412.17	376.83
412.36	348.74
412.55	411.93
412.74	383.85
412.93	365.12
413.12	381.51
413.31	409.59
413.50	454.06
413.69	367.46
413.88	437.68
414.07	433.00
414.26	351.08
414.45	458.74
414.64	395.55
414.83	440.02
415.02	454.06
415.22	416.62
415.41	451.72
415.60	351.08
415.79	393.21
415.98	346.40
416.17	376.83
416.36	449.38
416.55	402.57
416.74	301.93
416.93	428.32
417.12	440.02
417.31	454.06
417.50	362.78
417.69	496.19
417.88	409.59
418.07	421.30
418.26	444.70
418.45	367.46
418.64	468.11
418.83	414.27
419.02	451.72
419.21	397.89
419.39	386.19
419.58	397.89
419.77	348.74
419.96	400.23
420.15	407.25
420.34	477.47
420.53	414.27
420.72	404.91
420.91	430.66
421.10	437.68
421.29	442.36
421.48	463.43
421.67	456.40
421.86	458.74
422.05	339.38
422.24	397.89
422.43	397.89
422.61	423.64
422.80	367.46
422.99	376.83
423.18	369.80
423.37	482.15
423.56	421.30
423.75	395.55
423.94	348.74
424.13	355.76
424.32	447.04
424.50	409.59
424.69	376.83
424.88	423.64
425.07	379.17
425.26	491.51
425.45	423.64
425.64	409.59
425.83	365.12
426.01	393.21
426.20	386.19
426.39	447.04
426.58	397.89
426.77	414.27
426.96	454.06
427.15	505.56
427.33	362.78
427.52	461.09
427.71	407.25
427.90	465.77
428.09	318.31
428.28	376.83
428.46	379.17
428.65	451.72
428.84	411.93
429.03	402.57
429.22	468.11
429.40	383.85
429.59	386.19
429.78	440.02
429.97	362.78
430.16	386.19
430.34	334.70
430.53	430.66
430.72	437.68
430.91	411.93
431.10	358.10
431.28	404.91
431.47	404.91
431.66	430.66
431.85	409.59
432.03	362.78
432.22	430.66
432.41	355.76
432.60	435.34
432.79	482.15
432.97	409.59
433.16	447.04
433.35	383.85
433.54	442.36
433.72	395.55
433.91	425.98
434.10	362.78
434.28	418.96
434.47	379.17
434.66	421.30
434.85	404.91
435.03	411.93
435.22	421.30
435.41	418.96
435.59	435.34
435.78	416.62
435.97	372.15
436.16	454.06
436.34	313.63
436.53	390.87
436.72	414.27
436.90	484.49
437.09	365.12
437.28	353.42
437.46	433.00
437.65	407.25
437.84	423.64
438.02	407.25
438.21	428.32
438.40	402.57
438.58	400.23
438.77	428.32
438.96	390.87
439.14	418.96
439.33	442.36
439.52	334.70
439.70	425.98
439.89	409.59
440.08	411.93
440.26	390.87
440.45	416.62
440.63	428.32
440.82	456.40
441.01	416.62
441.19	435.34
441.38	407.25
441.57	367.46
441.75	442.36
441.94	454.06
442.12	411.93
442.31	421.30
442.50	372.15
442.68	421.30
442.87	449.38
443.05	442.36
443.24	402.57
443.43	428.32
443.61	430.66
443.80	353.42
443.98	381.51
444.17	433.00
444.35	456.40
444.54	496.19
444.73	430.66
444.91	416.62
445.10	374.49
445.28	358.10
445.47	507.90
445.65	425.98
445.84	430.66
446.02	416.62
446.21	447.04
446.39	421.30
446.58	484.49
446.77	482.15
446.95	435.34
447.14	404.91
447.32	447.04
447.51	393.21
447.69	435.34
447.88	404.91
448.06	430.66
448.25	475.13
448.43	358.10
448.62	409.59
448.80	395.55
448.99	411.93
449.17	404.91
449.36	468.11
449.54	414.27
449.73	400.23
449.91	447.04
450.10	344.06
450.28	418.96
450.46	463.43
450.65	400.23
450.83	390.87
451.02	397.89
451.20	414.27
451.39	423.64
451.57	351.08
451.76	437.68
451.94	421.30
452.13	430.66
452.31	421.30
452.49	411.93
452.68	442.36
452.86	482.15
453.05	456.40
453.23	435.34
453.42	374.49
453.60	468.11
453.78	491.51
453.97	386.19
454.15	411.93
454.34	447.04
454.52	395.55
454.70	444.70
454.89	430.66
455.07	337.04
455.26	484.49
455.44	500.87
455.62	447.04
455.81	360.44
455.99	465.77
456.17	393.21
456.36	404.91
456.54	374.49
456.73	414.27
456.91	449.38
457.09	423.64
457.28	409.59
457.46	360.44
457.64	451.72
457.83	390.87
458.01	390.87
458.19	479.81
458.38	416.62
458.56	421.30
458.74	393.21
458.93	458.74
459.11	465.77
459.29	381.51
459.48	362.78
459.66	397.89
459.84	444.70
460.03	433.00
460.21	374.49
460.39	435.34
460.57	442.36
460.76	348.74
460.94	442.36
461.12	468.11
461.31	456.40
461.49	362.78
461.67	383.85
461.85	423.64
462.04	423.64
462.22	732.59
462.40	465.77
462.59	458.74
462.77	451.72
462.95	411.93
463.13	397.89
463.32	383.85
463.50	402.57
463.68	433.00
463.86	381.51
464.05	369.80
464.23	458.74
464.41	451.72
464.59	472.79
464.78	449.38
464.96	390.87
465.14	411.93
465.32	477.47
465.50	456.40
465.69	454.06
465.87	418.96
466.05	386.19
466.23	433.00
466.41	454.06
466.60	414.27
466.78	376.83
466.96	442.36
467.14	409.59
467.32	400.23
467.51	409.59
467.69	433.00
467.87	430.66
468.05	397.89
468.23	379.17
468.41	428.32
468.60	449.38
468.78	402.57
468.96	477.47
469.14	463.43
469.32	388.53
469.50	496.19
469.69	486.83
469.87	379.17
470.05	444.70
470.23	416.62
470.41	411.93
470.59	360.44
470.77	395.55
470.95	402.57
471.14	531.30
471.32	404.91
471.50	440.02
471.68	444.70
471.86	416.62
472.04	388.53
472.22	414.27
472.40	351.08
472.58	433.00
472.77	325.33
472.95	421.30
473.13	465.77
473.31	449.38
473.49	430.66
473.67	402.57
473.85	390.87
474.03	433.00
474.21	458.74
474.39	440.02
474.57	430.66
474.75	376.83
474.93	341.72
475.12	362.78
475.30	425.98
475.48	444.70
475.66	369.80
475.84	456.40
476.02	355.76
476.20	447.04
476.38	372.15
476.56	496.19
476.74	404.91
476.92	404.91
477.10	433.00
477.28	407.25
477.46	461.09
477.64	435.34
477.82	440.02
478.00	414.27
478.18	507.90
478.36	355.76
478.54	351.08
478.72	425.98
478.90	362.78
479.08	472.79
479.26	440.02
479.44	414.27
479.62	313.63
479.80	402.57
479.98	435.34
480.16	341.72
480.34	437.68
480.52	358.10
480.70	346.40
480.88	407.25
481.06	435.34
481.24	376.83
481.41	433.00
481.59	416.62
481.77	423.64
481.95	376.83
482.13	442.36
482.31	458.74
482.49	442.36
482.67	435.34
482.85	444.70
483.03	423.64
483.21	374.49
483.39	360.44
483.57	367.46
483.74	414.27
483.92	428.32
484.10	379.17
484.28	355.76
484.46	409.59
484.64	425.98
484.82	435.34
485.00	416.62
485.18	388.53
485.35	400.23
485.53	402.57
485.71	454.06
485.89	418.96
486.07	470.45
486.25	519.60
486.43	444.70
486.61	421.30
486.78	440.02
486.96	423.64
487.14	360.44
487.32	423.64
487.50	362.78
487.68	409.59
487.85	411.93
488.03	486.83
488.21	517.26
488.39	433.00
488.57	454.06
488.75	360.44
488.92	475.13
489.10	379.17
489.28	404.91
489.46	416.62
489.64	461.09
489.81	351.08
489.99	463.43
490.17	479.81
490.35	447.04
490.53	440.02
490.70	393.21
490.88	430.66
491.06	388.53
491.24	465.77
491.41	491.51
491.59	423.64
491.77	414.27
491.95	454.06
492.13	362.78
492.30	402.57
492.48	433.00
492.66	407.25
492.84	365.12
493.01	461.09
493.19	416.62
493.37	402.57
493.54	463.43
493.72	458.74
493.90	428.32
494.08	360.44
494.25	407.25
494.43	442.36
494.61	418.96
494.79	451.72
494.96	428.32
495.14	409.59
495.32	430.66
495.49	437.68
495.67	442.36
495.85	372.15
496.02	393.21
496.20	440.02
496.38	409.59
496.55	393.21
496.73	477.47
496.91	409.59
497.09	437.68
497.26	372.15
497.44	411.93
497.62	334.70
497.79	411.93
497.97	402.57
498.14	442.36
498.32	435.34
498.50	360.44
498.67	425.98
498.85	355.76
499.03	379.17
499.20	442.36
499.38	418.96
499.56	482.15
499.73	442.36
499.91	362.78
500.08	369.80
500.26	425.98
500.44	355.76
500.61	468.11
500.79	397.89
500.97	465.77
501.14	444.70
501.32	444.70
501.49	435.34
501.67	400.23
501.84	395.55
502.02	393.21
502.20	404.91
502.37	435.34
502.55	404.91
502.72	379.17
502.90	433.00
503.07	397.89
503.25	458.74
503.43	388.53
503.60	365.12
503.78	395.55
503.95	369.80
504.13	447.04
504.30	381.51
504.48	428.32
504.65	475.13
504.83	430.66
505.01	407.25
505.18	421.30
505.36	468.11
505.53	353.42
505.71	397.89
505.88	435.34
506.06	421.30
506.23	430.66
506.41	435.34
506.58	402.57
506.76	376.83
506.93	351.08
507.11	355.76
507.28	421.30
507.46	372.15
507.63	423.64
507.81	454.06
507.98	479.81
508.16	430.66
508.33	440.02
508.50	435.34
508.68	463.43
508.85	456.40
509.03	416.62
509.20	468.11
509.38	374.49
509.55	341.72
509.73	461.09
509.90	470.45
510.08	388.53
510.25	360.44
510.42	360.44
510.60	390.87
510.77	404.91
510.95	397.89
511.12	325.33
511.30	381.51
511.47	332.36
511.64	421.30
511.82	421.30
511.99	444.70
512.17	332.36
512.34	421.30
512.51	404.91
512.69	411.93
512.86	442.36
513.04	362.78
513.21	430.66
513.38	390.87
513.56	409.59
513.73	395.55
513.90	442.36
514.08	435.34
514.25	383.85
514.43	433.00
514.60	379.17
514.77	440.02
514.95	388.53
515.12	428.32
515.29	402.57
515.47	390.87
515.64	351.08
515.81	372.15
515.99	493.85
516.16	383.85
516.33	425.98
516.51	353.42
516.68	383.85
516.85	388.53
517.03	397.89
517.20	353.42
517.37	407.25
517.54	379.17
517.72	379.17
517.89	341.72
518.06	374.49
518.24	444.70
518.41	404.91
518.58	425.98
518.75	353.42
518.93	360.44
519.10	423.64
519.27	411.93
519.45	395.55
519.62	418.96
519.79	388.53
519.96	454.06
520.14	379.17
520.31	440.02
520.48	414.27
520.65	383.85
520.83	414.27
521.00	510.24
521.17	430.66
521.34	395.55
521.52	393.21
521.69	423.64
521.86	421.30
522.03	397.89
522.20	383.85
522.38	353.42
522.55	414.27
522.72	395.55
522.89	404.91
523.07	482.15
523.24	360.44
523.41	376.83
523.58	444.70
523.75	376.83
523.92	456.40
524.10	463.43
524.27	404.91
524.44	479.81
524.61	386.19
524.78	421.30
524.96	458.74
525.13	440.02
525.30	411.93
525.47	465.77
525.64	444.70
525.81	407.25
525.98	402.57
526.16	416.62
526.33	440.02
526.50	416.62
526.67	383.85
526.84	470.45
527.01	465.77
527.18	402.57
527.36	451.72
527.53	428.32
527.70	411.93
527.87	397.89
528.04	407.25
528.21	444.70
528.38	503.22
528.55	430.66
528.72	465.77
528.89	451.72
529.07	475.13
529.24	461.09
529.41	416.62
529.58	425.98
529.75	414.27
529.92	414.27
530.09	433.00
530.26	461.09
530.43	395.55
530.60	409.59
530.77	411.93
530.94	383.85
531.11	423.64
531.28	433.00
531.46	461.09
531.63	416.62
531.80	386.19
531.97	435.34
532.14	379.17
532.31	369.80
532.48	386.19
532.65	468.11
532.82	397.89
532.99	386.19
533.16	440.02
533.33	421.30
533.50	416.62
533.67	433.00
533.84	360.44
534.01	388.53
534.18	376.83
534.35	393.21
534.52	447.04
534.69	435.34
534.86	425.98
535.03	379.17
535.20	440.02
535.37	435.34
535.54	353.42
535.71	353.42
535.88	425.98
536.05	376.83
536.22	376.83
536.38	425.98
536.55	418.96
536.72	430.66
536.89	404.91
537.06	393.21
537.23	372.15
537.40	414.27
537.57	383.85
537.74	442.36
537.91	418.96
538.08	418.96
538.25	465.77
538.42	470.45
538.59	430.66
538.75	414.27
538.92	425.98
539.09	421.30
539.26	477.47
539.43	374.49
539.60	486.83
539.77	386.19
539.94	421.30
540.11	421.30
540.28	423.64
540.44	465.77
540.61	409.59
540.78	355.76
540.95	454.06
541.12	411.93
541.29	430.66
541.46	379.17
541.62	430.66
541.79	421.30
541.96	362.78
542.13	386.19
542.30	355.76
542.47	416.62
542.63	393.21
542.80	430.66
542.97	472.79
543.14	454.06
543.31	465.77
543.48	369.80
543.64	433.00
543.81	425.98
543.98	393.21
544.15	454.06
544.32	395.55
544.48	416.62
544.65	397.89
544.82	449.38
544.99	409.59
545.16	468.11
545.32	402.57
545.49	430.66
545.66	442.36
545.83	418.96
546.00	430.66
546.16	411.93
546.33	339.38
546.50	411.93
546.67	397.89
546.83	479.81
547.00	437.68
547.17	355.76
547.34	386.19
547.50	482.15
547.67	388.53
547.84	388.53
548.00	397.89
548.17	421.30
548.34	351.08
548.51	402.57
548.67	407.25
548.84	414.27
549.01	430.66
549.18	414.27
549.34	442.36
549.51	339.38
549.68	416.62
549.84	416.62
550.01	376.83
550.18	425.98
550.34	456.40
550.51	365.12
550.68	458.74
550.84	435.34
551.01	395.55
551.18	461.09
551.34	383.85
551.51	470.45
551.68	365.12
551.84	395.55
552.01	458.74
552.18	374.49
552.34	437.68
552.51	479.81
552.68	430.66
552.84	491.51
553.01	388.53
553.18	470.45
553.34	393.21
553.51	397.89
553.67	407.25
553.84	472.79
554.01	458.74
554.17	500.87
554.34	449.38
554.51	428.32
554.67	381.51
554.84	395.55
555.00	456.40
555.17	437.68
555.33	456.40
555.50	472.79
555.67	477.47
555.83	421.30
556.00	472.79
556.16	543.00
556.33	444.70
556.50	463.43
556.66	374.49
556.83	397.89
556.99	421.30
557.16	397.89
557.32	400.23
557.49	416.62
557.65	428.32
557.82	430.66
557.98	458.74
558.15	400.23
558.32	393.21
558.48	402.57
558.65	442.36
558.81	386.19
558.98	379.17
559.14	376.83
559.31	393.21
559.47	465.77
559.64	421.30
559.80	374.49
559.97	330.02
560.13	454.06
560.30	390.87
560.46	365.12
560.63	451.72
560.79	353.42
560.96	423.64
561.12	411.93
561.29	353.42
561.45	463.43
561.61	407.25
561.78	461.09
561.94	425.98
562.11	423.64
562.27	423.64
562.44	339.38
562.60	393.21
562.77	376.83
562.93	463.43
563.10	451.72
563.26	383.85
563.42	442.36
563.59	456.40
563.75	390.87
563.92	458.74
564.08	430.66
564.24	393.21
564.41	393.21
564.57	442.36
564.74	353.42
564.90	418.96
565.07	404.91
565.23	428.32
565.39	381.51
565.56	374.49
565.72	404.91
565.88	430.66
566.05	440.02
566.21	393.21
566.38	447.04
566.54	442.36
566.70	390.87
566.87	433.00
567.03	411.93
567.19	393.21
567.36	498.53
567.52	477.47
567.68	435.34
567.85	428.32
568.01	402.57
568.17	337.04
568.34	397.89
568.50	418.96
568.66	465.77
568.83	442.36
568.99	376.83
569.15	397.89
569.32	418.96
569.48	421.30
569.64	458.74
569.81	402.57
569.97	458.74
570.13	383.85
570.30	416.62
570.46	421.30
570.62	388.53
570.78	400.23
570.95	416.62
571.11	451.72
571.27	425.98
571.43	423.64
571.60	444.70
571.76	440.02
571.92	400.23
572.09	423.64
572.25	397.89
572.41	390.87
572.57	433.00
572.74	433.00
572.90	451.72
573.06	407.25
573.22	372.15
573.38	433.00
573.55	372.15
573.71	477.47
573.87	498.53
574.03	442.36
574.20	437.68
574.36	440.02
574.52	362.78
574.68	433.00
574.84	468.11
575.01	395.55
575.17	421.30
575.33	409.59
575.49	444.70
575.65	463.43
575.82	360.44
575.98	381.51
576.14	409.59
576.30	355.76
576.46	482.15
576.62	500.87
576.79	425.98
576.95	440.02
577.11	479.81
577.27	444.70
577.43	451.72
577.59	433.00
577.75	479.81
577.92	407.25
578.08	386.19
578.24	386.19
578.40	379.17
578.56	489.17
578.72	475.13
578.88	447.04
579.04	456.40
579.21	411.93
579.37	397.89
579.53	339.38
579.69	395.55
579.85	346.40
580.01	409.59
580.17	447.04
580.33	383.85
580.49	423.64
580.65	472.79
580.82	449.38
580.98	442.36
581.14	402.57
581.30	416.62
581.46	416.62
581.62	454.06
581.78	442.36
581.94	395.55
582.10	440.02
582.26	388.53
582.42	393.21
582.58	367.46
582.74	486.83
582.90	451.72
583.06	433.00
583.22	416.62
583.38	461.09
583.54	430.66
583.70	463.43
583.86	456.40
584.02	393.21
584.18	465.77
584.34	332.36
584.50	407.25
584.66	486.83
584.82	454.06
584.98	386.19
585.14	461.09
585.30	468.11
585.46	393.21
585.62	390.87
585.78	470.45
585.94	454.06
586.10	416.62
586.26	395.55
586.42	447.04
586.58	386.19
586.74	348.74
586.90	435.34
587.06	447.04
587.22	468.11
587.38	421.30
587.54	351.08
587.70	442.36
587.86	423.64
588.02	376.83
588.18	365.12
588.34	435.34
588.49	404.91
588.65	461.09
588.81	447.04
588.97	358.10
589.13	421.30
589.29	468.11
589.45	444.70
589.61	400.23
589.77	423.64
589.93	367.46
590.08	435.34
590.24	404.91
590.40	381.51
590.56	475.13
590.72	409.59
590.88	449.38
591.04	355.76
591.20	367.46
591.35	402.57
591.51	482.15
591.67	437.68
591.83	433.00
591.99	435.34
592.15	407.25
592.31	425.98
592.46	388.53
592.62	397.89
592.78	400.23
592.94	390.87
593.10	414.27
593.26	346.40
593.41	486.83
593.57	360.44
593.73	458.74
593.89	407.25
594.05	332.36
594.20	313.63
594.36	451.72
594.52	397.89
594.68	418.96
594.84	454.06
594.99	447.04
595.15	456.40
595.31	386.19
595.47	409.59
595.62	451.72
595.78	442.36
595.94	442.36
596.10	407.25
596.25	407.25
596.41	435.34
596.57	414.27
596.73	421.30
596.88	437.68
597.04	414.27
597.20	425.98
597.36	433.00
597.51	428.32
597.67	397.89
597.83	465.77
597.99	447.04
598.14	344.06
598.30	491.51
598.46	381.51
598.61	414.27
598.77	425.98
598.93	351.08
599.09	489.17
599.24	437.68
599.40	435.34
599.56	397.89
599.71	465.77
599.87	407.25
600.03	428.32
600.18	423.64
600.34	402.57
600.50	428.32
600.65	442.36
600.81	470.45
600.97	360.44
601.12	414.27
601.28	407.25
601.44	362.78
601.59	341.72
601.75	407.25
601.91	437.68
602.06	397.89
602.22	440.02
602.37	489.17
602.53	418.96
602.69	489.17
602.84	376.83
603.00	395.55
603.16	510.24
603.31	395.55
603.47	404.91
603.62	409.59
603.78	402.57
603.94	433.00
604.09	456.40
604.25	425.98
604.40	468.11
604.56	390.87
604.71	456.40
604.87	447.04
605.03	411.93
605.18	346.40
605.34	433.00
605.49	430.66
605.65	397.89
605.80	491.51
605.96	435.34
606.12	400.23
606.27	458.74
606.43	418.96
606.58	367.46
606.74	404.91
606.89	421.30
607.05	395.55
607.20	447.04
607.36	423.64
607.51	376.83
607.67	404.91
607.82	468.11
607.98	440.02
608.13	402.57
608.29	353.42
608.44	416.62
608.60	454.06
608.75	423.64
608.91	376.83
609.06	416.62
609.22	442.36
609.37	437.68
609.53	360.44
609.68	372.15
609.84	397.89
609.99	418.96
610.15	404.91
