SpectraSuite Data File
++++++++++++++++++++++++++++++++++++
Date: Fri Oct 25 12:10:49 EDT 2013
User: price-jones
Dark Spectrum Present: No
Reference Spectrum Present: No
Number of Sampled Component Spectra: 1
Spectrometers: USB2+H05261
Integration Time (usec): 100000 (USB2+H05261)
Spectra Averaged: 1 (USB2+H05261)
Boxcar Smoothing: 0 (USB2+H05261)
Correct for Electrical Dark: No (USB2+H05261)
Strobe/Lamp Enabled: No (USB2+H05261)
Correct for Detector Non-linearity: No (USB2+H05261)
Correct for Stray Light: No (USB2+H05261)
Number of Pixels in Processed Spectrum: 2048
>>>>>Begin Processed Spectral Data<<<<<
365.73	365.12
365.92	365.12
366.12	365.12
366.32	287.89
366.52	203.63
366.72	245.76
366.91	250.44
367.11	257.46
367.31	212.99
367.51	227.03
367.70	217.67
367.90	308.95
368.10	243.42
368.30	217.67
368.49	283.20
368.69	299.59
368.89	311.29
369.09	278.52
369.28	276.18
369.48	334.70
369.68	257.46
369.87	278.52
370.07	266.82
370.27	337.04
370.47	341.72
370.66	290.23
370.86	341.72
371.06	390.87
371.25	395.55
371.45	358.10
371.65	383.85
371.84	372.15
372.04	358.10
372.24	376.83
372.44	428.32
372.63	372.15
372.83	435.34
373.03	355.76
373.22	367.46
373.42	395.55
373.62	358.10
373.81	407.25
374.01	411.93
374.21	402.57
374.40	435.34
374.60	388.53
374.79	425.98
374.99	454.06
375.19	449.38
375.38	418.96
375.58	404.91
375.78	341.72
375.97	414.27
376.17	461.09
376.37	381.51
376.56	369.80
376.76	360.44
376.95	402.57
377.15	433.00
377.35	416.62
377.54	402.57
377.74	421.30
377.93	435.34
378.13	482.15
378.33	526.62
378.52	425.98
378.72	440.02
378.91	449.38
379.11	400.23
379.31	358.10
379.50	411.93
379.70	458.74
379.89	458.74
380.09	393.21
380.28	437.68
380.48	414.27
380.68	414.27
380.87	435.34
381.07	395.55
381.26	458.74
381.46	372.15
381.65	397.89
381.85	393.21
382.04	313.63
382.24	409.59
382.43	425.98
382.63	393.21
382.83	355.76
383.02	428.32
383.22	381.51
383.41	402.57
383.61	402.57
383.80	409.59
384.00	372.15
384.19	383.85
384.39	360.44
384.58	402.57
384.78	454.06
384.97	372.15
385.17	418.96
385.36	430.66
385.56	374.49
385.75	397.89
385.95	362.78
386.14	348.74
386.34	337.04
386.53	388.53
386.72	440.02
386.92	475.13
387.11	372.15
387.31	477.47
387.50	353.42
387.70	397.89
387.89	428.32
388.09	449.38
388.28	374.49
388.48	381.51
388.67	365.12
388.86	362.78
389.06	362.78
389.25	383.85
389.45	360.44
389.64	456.40
389.84	397.89
390.03	393.21
390.22	418.96
390.42	393.21
390.61	444.70
390.81	376.83
391.00	327.68
391.19	468.11
391.39	388.53
391.58	503.22
391.78	409.59
391.97	411.93
392.16	411.93
392.36	498.53
392.55	418.96
392.75	393.21
392.94	390.87
393.13	379.17
393.33	337.04
393.52	393.21
393.71	486.83
393.91	423.64
394.10	447.04
394.29	418.96
394.49	362.78
394.68	372.15
394.88	365.12
395.07	374.49
395.26	341.72
395.46	433.00
395.65	411.93
395.84	425.98
396.04	358.10
396.23	379.17
396.42	428.32
396.62	507.90
396.81	409.59
397.00	402.57
397.19	365.12
397.39	353.42
397.58	489.17
397.77	430.66
397.97	437.68
398.16	442.36
398.35	414.27
398.55	451.72
398.74	456.40
398.93	440.02
399.12	475.13
399.32	397.89
399.51	388.53
399.70	510.24
399.90	390.87
400.09	463.43
400.28	402.57
400.47	423.64
400.67	451.72
400.86	402.57
401.05	435.34
401.24	367.46
401.44	444.70
401.63	414.27
401.82	381.51
402.01	337.04
402.21	362.78
402.40	416.62
402.59	330.02
402.78	404.91
402.97	414.27
403.17	418.96
403.36	423.64
403.55	344.06
403.74	299.59
403.93	379.17
404.13	409.59
404.32	409.59
404.51	409.59
404.70	362.78
404.89	437.68
405.09	451.72
405.28	407.25
405.47	355.76
405.66	395.55
405.85	458.74
406.05	444.70
406.24	360.44
406.43	428.32
406.62	348.74
406.81	447.04
407.00	372.15
407.20	334.70
407.39	425.98
407.58	404.91
407.77	374.49
407.96	393.21
408.15	451.72
408.34	407.25
408.54	386.19
408.73	383.85
408.92	367.46
409.11	402.57
409.30	425.98
409.49	425.98
409.68	437.68
409.87	414.27
410.07	400.23
410.26	337.04
410.45	428.32
410.64	376.83
410.83	430.66
411.02	369.80
411.21	402.57
411.40	409.59
411.59	514.92
411.78	421.30
411.98	433.00
412.17	393.21
412.36	348.74
412.55	423.64
412.74	470.45
412.93	463.43
413.12	388.53
413.31	430.66
413.50	367.46
413.69	449.38
413.88	421.30
414.07	435.34
414.26	416.62
414.45	315.97
414.64	379.17
414.83	458.74
415.02	442.36
415.22	411.93
415.41	423.64
415.60	440.02
415.79	430.66
415.98	404.91
416.17	456.40
416.36	454.06
416.55	367.46
416.74	458.74
416.93	386.19
417.12	418.96
417.31	421.30
417.50	402.57
417.69	444.70
417.88	418.96
418.07	437.68
418.26	402.57
418.45	379.17
418.64	442.36
418.83	400.23
419.02	397.89
419.21	365.12
419.39	334.70
419.58	369.80
419.77	416.62
419.96	397.89
420.15	418.96
420.34	486.83
420.53	411.93
420.72	479.81
420.91	435.34
421.10	358.10
421.29	379.17
421.48	416.62
421.67	482.15
421.86	433.00
422.05	379.17
422.24	482.15
422.43	465.77
422.61	372.15
422.80	390.87
422.99	383.85
423.18	416.62
423.37	402.57
423.56	444.70
423.75	421.30
423.94	386.19
424.13	383.85
424.32	353.42
424.50	411.93
424.69	381.51
424.88	397.89
425.07	421.30
425.26	475.13
425.45	451.72
425.64	381.51
425.83	397.89
426.01	465.77
426.20	451.72
426.39	374.49
426.58	428.32
426.77	376.83
426.96	463.43
427.15	355.76
427.33	407.25
427.52	437.68
427.71	482.15
427.90	428.32
428.09	437.68
428.28	416.62
428.46	404.91
428.65	433.00
428.84	449.38
429.03	442.36
429.22	477.47
429.40	374.49
429.59	447.04
429.78	421.30
429.97	428.32
430.16	388.53
430.34	444.70
430.53	388.53
430.72	376.83
430.91	482.15
431.10	386.19
431.28	404.91
431.47	430.66
431.66	423.64
431.85	423.64
432.03	395.55
432.22	428.32
432.41	393.21
432.60	414.27
432.79	437.68
432.97	472.79
433.16	386.19
433.35	404.91
433.54	414.27
433.72	425.98
433.91	383.85
434.10	418.96
434.28	458.74
434.47	437.68
434.66	449.38
434.85	362.78
435.03	409.59
435.22	425.98
435.41	442.36
435.59	416.62
435.78	327.68
435.97	348.74
436.16	454.06
436.34	468.11
436.53	484.49
436.72	395.55
436.90	468.11
437.09	449.38
437.28	421.30
437.46	435.34
437.65	430.66
437.84	423.64
438.02	447.04
438.21	421.30
438.40	421.30
438.58	428.32
438.77	393.21
438.96	414.27
439.14	468.11
439.33	379.17
439.52	402.57
439.70	332.36
439.89	425.98
440.08	386.19
440.26	402.57
440.45	418.96
440.63	402.57
440.82	414.27
441.01	411.93
441.19	390.87
441.38	430.66
441.57	493.85
441.75	437.68
441.94	503.22
442.12	461.09
442.31	425.98
442.50	421.30
442.68	442.36
442.87	379.17
443.05	390.87
443.24	416.62
443.43	421.30
443.61	482.15
443.80	339.38
443.98	379.17
444.17	376.83
444.35	388.53
444.54	379.17
444.73	433.00
444.91	379.17
445.10	411.93
445.28	430.66
445.47	334.70
445.65	404.91
445.84	400.23
446.02	390.87
446.21	400.23
446.39	344.06
446.58	393.21
446.77	348.74
446.95	470.45
447.14	418.96
447.32	425.98
447.51	416.62
447.69	351.08
447.88	435.34
448.06	447.04
448.25	362.78
448.43	355.76
448.62	428.32
448.80	458.74
448.99	402.57
449.17	397.89
449.36	393.21
449.54	407.25
449.73	407.25
449.91	435.34
450.10	416.62
450.28	505.56
450.46	454.06
450.65	397.89
450.83	379.17
451.02	418.96
451.20	416.62
451.39	489.17
451.57	493.85
451.76	454.06
451.94	334.70
452.13	456.40
452.31	397.89
452.49	437.68
452.68	395.55
452.86	348.74
453.05	479.81
453.23	442.36
453.42	418.96
453.60	411.93
453.78	423.64
453.97	428.32
454.15	428.32
454.34	339.38
454.52	402.57
454.70	411.93
454.89	358.10
455.07	416.62
455.26	465.77
455.44	372.15
455.62	404.91
455.81	486.83
455.99	386.19
456.17	388.53
456.36	463.43
456.54	423.64
456.73	505.56
456.91	451.72
457.09	376.83
457.28	435.34
457.46	440.02
457.64	430.66
457.83	411.93
458.01	433.00
458.19	409.59
458.38	437.68
458.56	468.11
458.74	388.53
458.93	409.59
459.11	437.68
459.29	400.23
459.48	447.04
459.66	437.68
459.84	360.44
460.03	428.32
460.21	458.74
460.39	430.66
460.57	449.38
460.76	409.59
460.94	425.98
461.12	472.79
461.31	409.59
461.49	376.83
461.67	435.34
461.85	442.36
462.04	468.11
462.22	720.88
462.40	411.93
462.59	409.59
462.77	456.40
462.95	407.25
463.13	458.74
463.32	414.27
463.50	388.53
463.68	393.21
463.86	414.27
464.05	362.78
464.23	393.21
464.41	386.19
464.59	430.66
464.78	421.30
464.96	390.87
465.14	388.53
465.32	337.04
465.50	456.40
465.69	365.12
465.87	428.32
466.05	362.78
466.23	440.02
466.41	423.64
466.60	425.98
466.78	414.27
466.96	395.55
467.14	400.23
467.32	456.40
467.51	416.62
467.69	409.59
467.87	465.77
468.05	414.27
468.23	428.32
468.41	411.93
468.60	433.00
468.78	367.46
468.96	475.13
469.14	440.02
469.32	437.68
469.50	322.99
469.69	411.93
469.87	414.27
470.05	454.06
470.23	435.34
470.41	472.79
470.59	411.93
470.77	454.06
470.95	395.55
471.14	465.77
471.32	365.12
471.50	418.96
471.68	454.06
471.86	395.55
472.04	388.53
472.22	428.32
472.40	472.79
472.58	444.70
472.77	407.25
472.95	402.57
473.13	472.79
473.31	451.72
473.49	358.10
473.67	395.55
473.85	510.24
474.03	456.40
474.21	491.51
474.39	372.15
474.57	482.15
474.75	430.66
474.93	390.87
475.12	404.91
475.30	348.74
475.48	449.38
475.66	430.66
475.84	458.74
476.02	430.66
476.20	458.74
476.38	458.74
476.56	409.59
476.74	411.93
476.92	379.17
477.10	404.91
477.28	402.57
477.46	369.80
477.64	430.66
477.82	402.57
478.00	404.91
478.18	337.04
478.36	383.85
478.54	418.96
478.72	390.87
478.90	416.62
479.08	395.55
479.26	379.17
479.44	428.32
479.62	367.46
479.80	425.98
479.98	442.36
480.16	369.80
480.34	444.70
480.52	390.87
480.70	423.64
480.88	397.89
481.06	404.91
481.24	395.55
481.41	449.38
481.59	383.85
481.77	468.11
481.95	402.57
482.13	397.89
482.31	414.27
482.49	512.58
482.67	468.11
482.85	369.80
483.03	404.91
483.21	411.93
483.39	458.74
483.57	425.98
483.74	404.91
483.92	414.27
484.10	444.70
484.28	411.93
484.46	463.43
484.64	346.40
484.82	404.91
485.00	369.80
485.18	381.51
485.35	416.62
485.53	404.91
485.71	418.96
485.89	430.66
486.07	381.51
486.25	451.72
486.43	433.00
486.61	437.68
486.78	430.66
486.96	346.40
487.14	435.34
487.32	383.85
487.50	402.57
487.68	416.62
487.85	402.57
488.03	411.93
488.21	463.43
488.39	423.64
488.57	451.72
488.75	397.89
488.92	468.11
489.10	440.02
489.28	428.32
489.46	383.85
489.64	393.21
489.81	388.53
489.99	435.34
490.17	444.70
490.35	470.45
490.53	388.53
490.70	367.46
490.88	430.66
491.06	423.64
491.24	397.89
491.41	463.43
491.59	376.83
491.77	376.83
491.95	458.74
492.13	451.72
492.30	393.21
492.48	442.36
492.66	418.96
492.84	423.64
493.01	449.38
493.19	395.55
493.37	449.38
493.54	454.06
493.72	418.96
493.90	360.44
494.08	444.70
494.25	454.06
494.43	407.25
494.61	468.11
494.79	437.68
494.96	463.43
495.14	454.06
495.32	430.66
495.49	397.89
495.67	451.72
495.85	411.93
496.02	376.83
496.20	346.40
496.38	393.21
496.55	435.34
496.73	339.38
496.91	416.62
497.09	489.17
497.26	386.19
497.44	489.17
497.62	421.30
497.79	458.74
497.97	388.53
498.14	416.62
498.32	449.38
498.50	376.83
498.67	411.93
498.85	465.77
499.03	400.23
499.20	386.19
499.38	397.89
499.56	411.93
499.73	423.64
499.91	416.62
500.08	428.32
500.26	376.83
500.44	472.79
500.61	428.32
500.79	425.98
500.97	435.34
501.14	393.21
501.32	484.49
501.49	449.38
501.67	383.85
501.84	327.68
502.02	346.40
502.20	484.49
502.37	440.02
502.55	379.17
502.72	479.81
502.90	451.72
503.07	348.74
503.25	393.21
503.43	416.62
503.60	411.93
503.78	507.90
503.95	444.70
504.13	397.89
504.30	430.66
504.48	440.02
504.65	486.83
504.83	489.17
505.01	437.68
505.18	386.19
505.36	388.53
505.53	463.43
505.71	362.78
505.88	402.57
506.06	397.89
506.23	456.40
506.41	383.85
506.58	435.34
506.76	428.32
506.93	458.74
507.11	379.17
507.28	411.93
507.46	430.66
507.63	404.91
507.81	372.15
507.98	430.66
508.16	397.89
508.33	414.27
508.50	409.59
508.68	397.89
508.85	409.59
509.03	383.85
509.20	482.15
509.38	374.49
509.55	503.22
509.73	428.32
509.90	421.30
510.08	386.19
510.25	425.98
510.42	402.57
510.60	407.25
510.77	421.30
510.95	435.34
511.12	440.02
511.30	472.79
511.47	425.98
511.64	519.60
511.82	348.74
511.99	397.89
512.17	491.51
512.34	339.38
512.51	440.02
512.69	386.19
512.86	472.79
513.04	425.98
513.21	381.51
513.38	461.09
513.56	358.10
513.73	362.78
513.90	365.12
514.08	428.32
514.25	393.21
514.43	447.04
514.60	402.57
514.77	477.47
514.95	505.56
515.12	470.45
515.29	444.70
515.47	423.64
515.64	337.04
515.81	435.34
515.99	433.00
516.16	456.40
516.33	425.98
516.51	339.38
516.68	475.13
516.85	435.34
517.03	337.04
517.20	477.47
517.37	407.25
517.54	451.72
517.72	421.30
517.89	428.32
518.06	334.70
518.24	470.45
518.41	444.70
518.58	430.66
518.75	435.34
518.93	348.74
519.10	449.38
519.27	388.53
519.45	421.30
519.62	404.91
519.79	425.98
519.96	388.53
520.14	433.00
520.31	418.96
520.48	381.51
520.65	393.21
520.83	440.02
521.00	454.06
521.17	500.87
521.34	425.98
521.52	456.40
521.69	402.57
521.86	374.49
522.03	463.43
522.20	430.66
522.38	496.19
522.55	425.98
522.72	409.59
522.89	414.27
523.07	447.04
523.24	383.85
523.41	435.34
523.58	430.66
523.75	360.44
523.92	381.51
524.10	479.81
524.27	475.13
524.44	402.57
524.61	440.02
524.78	421.30
524.96	404.91
525.13	395.55
525.30	379.17
525.47	383.85
525.64	479.81
525.81	404.91
525.98	461.09
526.16	423.64
526.33	360.44
526.50	397.89
526.67	440.02
526.84	409.59
527.01	395.55
527.18	315.97
527.36	381.51
527.53	402.57
527.70	414.27
527.87	395.55
528.04	449.38
528.21	395.55
528.38	416.62
528.55	416.62
528.72	418.96
528.89	472.79
529.07	369.80
529.24	409.59
529.41	365.12
529.58	435.34
529.75	423.64
529.92	440.02
530.09	421.30
530.26	468.11
530.43	414.27
530.60	423.64
530.77	416.62
530.94	421.30
531.11	386.19
531.28	393.21
531.46	437.68
531.63	435.34
531.80	447.04
531.97	407.25
532.14	416.62
532.31	418.96
532.48	428.32
532.65	397.89
532.82	402.57
532.99	416.62
533.16	330.02
533.33	491.51
533.50	416.62
533.67	379.17
533.84	397.89
534.01	447.04
534.18	397.89
534.35	428.32
534.52	437.68
534.69	414.27
534.86	358.10
535.03	400.23
535.20	418.96
535.37	451.72
535.54	407.25
535.71	454.06
535.88	479.81
536.05	409.59
536.22	500.87
536.38	454.06
536.55	416.62
536.72	458.74
536.89	433.00
537.06	407.25
537.23	376.83
537.40	390.87
537.57	402.57
537.74	500.87
537.91	545.34
538.08	454.06
538.25	402.57
538.42	440.02
538.59	433.00
538.75	388.53
538.92	362.78
539.09	381.51
539.26	365.12
539.43	372.15
539.60	465.77
539.77	428.32
539.94	421.30
540.11	386.19
540.28	465.77
540.44	409.59
540.61	458.74
540.78	404.91
540.95	395.55
541.12	456.40
541.29	351.08
541.46	435.34
541.62	418.96
541.79	472.79
541.96	393.21
542.13	381.51
542.30	386.19
542.47	404.91
542.63	484.49
542.80	463.43
542.97	447.04
543.14	374.49
543.31	472.79
543.48	411.93
543.64	395.55
543.81	454.06
543.98	423.64
544.15	362.78
544.32	353.42
544.48	440.02
544.65	475.13
544.82	381.51
544.99	418.96
545.16	463.43
545.32	444.70
545.49	411.93
545.66	440.02
545.83	407.25
546.00	404.91
546.16	423.64
546.33	381.51
546.50	332.36
546.67	458.74
546.83	444.70
547.00	437.68
547.17	369.80
547.34	416.62
547.50	397.89
547.67	409.59
547.84	395.55
548.00	447.04
548.17	484.49
548.34	362.78
548.51	461.09
548.67	416.62
548.84	435.34
549.01	374.49
549.18	365.12
549.34	428.32
549.51	402.57
549.68	477.47
549.84	477.47
550.01	365.12
550.18	507.90
550.34	477.47
550.51	397.89
550.68	489.17
550.84	407.25
551.01	444.70
551.18	418.96
551.34	538.32
551.51	444.70
551.68	365.12
551.84	421.30
552.01	428.32
552.18	346.40
552.34	440.02
552.51	477.47
552.68	404.91
552.84	400.23
553.01	416.62
553.18	454.06
553.34	372.15
553.51	346.40
553.67	433.00
553.84	442.36
554.01	526.62
554.17	486.83
554.34	369.80
554.51	468.11
554.67	390.87
554.84	376.83
555.00	397.89
555.17	447.04
555.33	402.57
555.50	388.53
555.67	397.89
555.83	365.12
556.00	351.08
556.16	580.45
556.33	573.43
556.50	423.64
556.66	402.57
556.83	332.36
556.99	367.46
557.16	372.15
557.32	430.66
557.49	372.15
557.65	482.15
557.82	390.87
557.98	397.89
558.15	430.66
558.32	437.68
558.48	475.13
558.65	404.91
558.81	425.98
558.98	423.64
559.14	500.87
559.31	379.17
559.47	444.70
559.64	433.00
559.80	437.68
559.97	383.85
560.13	435.34
560.30	386.19
560.46	362.78
560.63	397.89
560.79	362.78
560.96	423.64
561.12	411.93
561.29	430.66
561.45	435.34
561.61	433.00
561.78	440.02
561.94	376.83
562.11	409.59
562.27	418.96
562.44	409.59
562.60	456.40
562.77	376.83
562.93	491.51
563.10	442.36
563.26	465.77
563.42	430.66
563.59	423.64
563.75	416.62
563.92	397.89
564.08	416.62
564.24	437.68
564.41	449.38
564.57	358.10
564.74	388.53
564.90	411.93
565.07	470.45
565.23	407.25
565.39	416.62
565.56	484.49
565.72	400.23
565.88	461.09
566.05	386.19
566.21	390.87
566.38	463.43
566.54	475.13
566.70	475.13
566.87	404.91
567.03	404.91
567.19	409.59
567.36	411.93
567.52	470.45
567.68	447.04
567.85	486.83
568.01	442.36
568.17	306.61
568.34	437.68
568.50	428.32
568.66	433.00
568.83	472.79
568.99	374.49
569.15	437.68
569.32	386.19
569.48	416.62
569.64	414.27
569.81	456.40
569.97	444.70
570.13	416.62
570.30	404.91
570.46	353.42
570.62	435.34
570.78	456.40
570.95	390.87
571.11	477.47
571.27	498.53
571.43	330.02
571.60	451.72
571.76	444.70
571.92	475.13
572.09	407.25
572.25	407.25
572.41	430.66
572.57	461.09
572.74	400.23
572.90	454.06
573.06	393.21
573.22	376.83
573.38	334.70
573.55	425.98
573.71	376.83
573.87	451.72
574.03	428.32
574.20	433.00
574.36	409.59
574.52	411.93
574.68	388.53
574.84	360.44
575.01	444.70
575.17	449.38
575.33	411.93
575.49	400.23
575.65	379.17
575.82	430.66
575.98	524.28
576.14	404.91
576.30	482.15
576.46	395.55
576.62	449.38
576.79	407.25
576.95	440.02
577.11	402.57
577.27	447.04
577.43	477.47
577.59	437.68
577.75	409.59
577.92	423.64
578.08	433.00
578.24	411.93
578.40	491.51
578.56	428.32
578.72	367.46
578.88	440.02
579.04	433.00
579.21	447.04
579.37	444.70
579.53	390.87
579.69	376.83
579.85	376.83
580.01	421.30
580.17	390.87
580.33	411.93
580.49	372.15
580.65	334.70
580.82	402.57
580.98	433.00
581.14	435.34
581.30	430.66
581.46	386.19
581.62	400.23
581.78	425.98
581.94	416.62
582.10	407.25
582.26	407.25
582.42	367.46
582.58	461.09
582.74	395.55
582.90	372.15
583.06	444.70
583.22	418.96
583.38	416.62
583.54	402.57
583.70	433.00
583.86	407.25
584.02	367.46
584.18	388.53
584.34	440.02
584.50	442.36
584.66	447.04
584.82	416.62
584.98	390.87
585.14	355.76
585.30	444.70
585.46	472.79
585.62	423.64
585.78	451.72
585.94	465.77
586.10	393.21
586.26	482.15
586.42	468.11
586.58	440.02
586.74	425.98
586.90	425.98
587.06	404.91
587.22	393.21
587.38	475.13
587.54	411.93
587.70	428.32
587.86	454.06
588.02	416.62
588.18	468.11
588.34	348.74
588.49	379.17
588.65	433.00
588.81	463.43
588.97	437.68
589.13	379.17
589.29	423.64
589.45	423.64
589.61	379.17
589.77	402.57
589.93	397.89
590.08	379.17
590.24	393.21
590.40	409.59
590.56	393.21
590.72	386.19
590.88	440.02
591.04	376.83
591.20	414.27
591.35	425.98
591.51	414.27
591.67	465.77
591.83	374.49
591.99	456.40
592.15	383.85
592.31	447.04
592.46	458.74
592.62	433.00
592.78	404.91
592.94	400.23
593.10	425.98
593.26	388.53
593.41	447.04
593.57	400.23
593.73	514.92
593.89	430.66
594.05	390.87
594.20	390.87
594.36	442.36
594.52	416.62
594.68	428.32
594.84	393.21
594.99	414.27
595.15	437.68
595.31	461.09
595.47	423.64
595.62	393.21
595.78	472.79
595.94	411.93
596.10	428.32
596.25	411.93
596.41	526.62
596.57	390.87
596.73	454.06
596.88	435.34
597.04	383.85
597.20	404.91
597.36	428.32
597.51	395.55
597.67	367.46
597.83	524.28
597.99	442.36
598.14	465.77
598.30	386.19
598.46	489.17
598.61	442.36
598.77	404.91
598.93	404.91
599.09	430.66
599.24	451.72
599.40	346.40
599.56	395.55
599.71	416.62
599.87	355.76
600.03	379.17
600.18	416.62
600.34	430.66
600.50	430.66
600.65	407.25
600.81	374.49
600.97	355.76
601.12	454.06
601.28	475.13
601.44	425.98
601.59	435.34
601.75	360.44
601.91	416.62
602.06	454.06
602.22	477.47
602.37	449.38
602.53	390.87
602.69	416.62
602.84	407.25
603.00	386.19
603.16	423.64
603.31	449.38
603.47	414.27
603.62	341.72
603.78	458.74
603.94	440.02
604.09	386.19
604.25	397.89
604.40	425.98
604.56	376.83
604.71	458.74
604.87	411.93
605.03	365.12
605.18	388.53
605.34	447.04
605.49	402.57
605.65	423.64
605.80	372.15
605.96	339.38
606.12	433.00
606.27	454.06
606.43	414.27
606.58	440.02
606.74	451.72
606.89	388.53
607.05	437.68
607.20	346.40
607.36	390.87
607.51	418.96
607.67	444.70
607.82	381.51
607.98	425.98
608.13	386.19
608.29	390.87
608.44	409.59
608.60	440.02
608.75	437.68
608.91	409.59
609.06	365.12
609.22	388.53
609.37	355.76
609.53	409.59
609.68	407.25
609.84	397.89
609.99	475.13
610.15	421.30
