SpectraSuite Data File
++++++++++++++++++++++++++++++++++++
Date: Fri Oct 25 12:10:55 EDT 2013
User: price-jones
Dark Spectrum Present: No
Reference Spectrum Present: No
Number of Sampled Component Spectra: 1
Spectrometers: USB2+H05261
Integration Time (usec): 100000 (USB2+H05261)
Spectra Averaged: 1 (USB2+H05261)
Boxcar Smoothing: 0 (USB2+H05261)
Correct for Electrical Dark: No (USB2+H05261)
Strobe/Lamp Enabled: No (USB2+H05261)
Correct for Detector Non-linearity: No (USB2+H05261)
Correct for Stray Light: No (USB2+H05261)
Number of Pixels in Processed Spectrum: 2048
>>>>>Begin Processed Spectral Data<<<<<
365.73	386.19
365.92	386.19
366.12	386.19
366.32	236.39
366.52	248.10
366.72	348.74
366.91	266.82
367.11	238.73
367.31	248.10
367.51	234.05
367.70	196.60
367.90	278.52
368.10	259.80
368.30	229.37
368.49	208.31
368.69	273.84
368.89	248.10
369.09	264.48
369.28	320.65
369.48	341.72
369.68	255.12
369.87	327.68
370.07	285.55
370.27	315.97
370.47	407.25
370.66	348.74
370.86	348.74
371.06	320.65
371.25	393.21
371.45	395.55
371.65	440.02
371.84	428.32
372.04	369.80
372.24	414.27
372.44	393.21
372.63	407.25
372.83	367.46
373.03	383.85
373.22	390.87
373.42	428.32
373.62	344.06
373.81	430.66
374.01	393.21
374.21	519.60
374.40	390.87
374.60	388.53
374.79	435.34
374.99	402.57
375.19	486.83
375.38	505.56
375.58	379.17
375.78	423.64
375.97	379.17
376.17	463.43
376.37	433.00
376.56	470.45
376.76	407.25
376.95	330.02
377.15	388.53
377.35	493.85
377.54	447.04
377.74	444.70
377.93	393.21
378.13	397.89
378.33	407.25
378.52	379.17
378.72	463.43
378.91	395.55
379.11	369.80
379.31	381.51
379.50	344.06
379.70	402.57
379.89	435.34
380.09	411.93
380.28	393.21
380.48	409.59
380.68	416.62
380.87	402.57
381.07	425.98
381.26	421.30
381.46	423.64
381.65	421.30
381.85	346.40
382.04	390.87
382.24	360.44
382.43	388.53
382.63	381.51
382.83	456.40
383.02	400.23
383.22	447.04
383.41	418.96
383.61	397.89
383.80	442.36
384.00	402.57
384.19	374.49
384.39	444.70
384.58	411.93
384.78	344.06
384.97	423.64
385.17	416.62
385.36	393.21
385.56	393.21
385.75	451.72
385.95	418.96
386.14	386.19
386.34	374.49
386.53	425.98
386.72	322.99
386.92	425.98
387.11	362.78
387.31	393.21
387.50	362.78
387.70	355.76
387.89	393.21
388.09	390.87
388.28	348.74
388.48	397.89
388.67	374.49
388.86	444.70
389.06	433.00
389.25	423.64
389.45	395.55
389.64	456.40
389.84	461.09
390.03	444.70
390.22	404.91
390.42	393.21
390.61	395.55
390.81	418.96
391.00	374.49
391.19	442.36
391.39	397.89
391.58	390.87
391.78	388.53
391.97	411.93
392.16	440.02
392.36	489.17
392.55	451.72
392.75	367.46
392.94	381.51
393.13	360.44
393.33	390.87
393.52	414.27
393.71	404.91
393.91	444.70
394.10	376.83
394.29	383.85
394.49	423.64
394.68	416.62
394.88	428.32
395.07	353.42
395.26	437.68
395.46	454.06
395.65	386.19
395.84	456.40
396.04	428.32
396.23	418.96
396.42	402.57
396.62	423.64
396.81	433.00
397.00	362.78
397.19	475.13
397.39	440.02
397.58	477.47
397.77	372.15
397.97	428.32
398.16	367.46
398.35	416.62
398.55	313.63
398.74	442.36
398.93	390.87
399.12	386.19
399.32	486.83
399.51	407.25
399.70	395.55
399.90	388.53
400.09	447.04
400.28	395.55
400.47	489.17
400.67	433.00
400.86	449.38
401.05	435.34
401.24	404.91
401.44	330.02
401.63	414.27
401.82	430.66
402.01	397.89
402.21	411.93
402.40	330.02
402.59	353.42
402.78	367.46
402.97	397.89
403.17	379.17
403.36	416.62
403.55	400.23
403.74	339.38
403.93	341.72
404.13	447.04
404.32	369.80
404.51	388.53
404.70	400.23
404.89	353.42
405.09	435.34
405.28	404.91
405.47	402.57
405.66	339.38
405.85	383.85
406.05	383.85
406.24	425.98
406.43	435.34
406.62	463.43
406.81	489.17
407.00	447.04
407.20	411.93
407.39	397.89
407.58	428.32
407.77	433.00
407.96	484.49
408.15	449.38
408.34	383.85
408.54	428.32
408.73	383.85
408.92	411.93
409.11	449.38
409.30	400.23
409.49	376.83
409.68	421.30
409.87	482.15
410.07	362.78
410.26	418.96
410.45	374.49
410.64	367.46
410.83	425.98
411.02	407.25
411.21	411.93
411.40	374.49
411.59	404.91
411.78	393.21
411.98	451.72
412.17	372.15
412.36	369.80
412.55	456.40
412.74	355.76
412.93	397.89
413.12	348.74
413.31	428.32
413.50	330.02
413.69	409.59
413.88	442.36
414.07	482.15
414.26	484.49
414.45	416.62
414.64	411.93
414.83	451.72
415.02	465.77
415.22	442.36
415.41	482.15
415.60	393.21
415.79	409.59
415.98	386.19
416.17	376.83
416.36	442.36
416.55	479.81
416.74	472.79
416.93	400.23
417.12	423.64
417.31	411.93
417.50	395.55
417.69	503.22
417.88	409.59
418.07	407.25
418.26	393.21
418.45	409.59
418.64	395.55
418.83	461.09
419.02	404.91
419.21	390.87
419.39	397.89
419.58	416.62
419.77	308.95
419.96	381.51
420.15	395.55
420.34	344.06
420.53	461.09
420.72	414.27
420.91	386.19
421.10	449.38
421.29	433.00
421.48	421.30
421.67	346.40
421.86	416.62
422.05	372.15
422.24	416.62
422.43	374.49
422.61	421.30
422.80	383.85
422.99	442.36
423.18	433.00
423.37	444.70
423.56	442.36
423.75	360.44
423.94	411.93
424.13	388.53
424.32	367.46
424.50	404.91
424.69	353.42
424.88	423.64
425.07	369.80
425.26	369.80
425.45	418.96
425.64	351.08
425.83	383.85
426.01	418.96
426.20	348.74
426.39	372.15
426.58	367.46
426.77	458.74
426.96	435.34
427.15	437.68
427.33	456.40
427.52	447.04
427.71	430.66
427.90	411.93
428.09	355.76
428.28	477.47
428.46	428.32
428.65	465.77
428.84	423.64
429.03	461.09
429.22	435.34
429.40	367.46
429.59	423.64
429.78	421.30
429.97	369.80
430.16	407.25
430.34	362.78
430.53	421.30
430.72	409.59
430.91	390.87
431.10	393.21
431.28	414.27
431.47	306.61
431.66	397.89
431.85	421.30
432.03	414.27
432.22	458.74
432.41	414.27
432.60	458.74
432.79	409.59
432.97	428.32
433.16	461.09
433.35	458.74
433.54	388.53
433.72	456.40
433.91	404.91
434.10	414.27
434.28	472.79
434.47	379.17
434.66	383.85
434.85	463.43
435.03	437.68
435.22	472.79
435.41	454.06
435.59	444.70
435.78	397.89
435.97	468.11
436.16	430.66
436.34	376.83
436.53	402.57
436.72	395.55
436.90	468.11
437.09	449.38
437.28	416.62
437.46	404.91
437.65	397.89
437.84	435.34
438.02	444.70
438.21	386.19
438.40	503.22
438.58	386.19
438.77	440.02
438.96	372.15
439.14	362.78
439.33	477.47
439.52	475.13
439.70	404.91
439.89	353.42
440.08	397.89
440.26	360.44
440.45	458.74
440.63	451.72
440.82	376.83
441.01	355.76
441.19	428.32
441.38	451.72
441.57	440.02
441.75	482.15
441.94	486.83
442.12	468.11
442.31	355.76
442.50	362.78
442.68	423.64
442.87	360.44
443.05	407.25
443.24	482.15
443.43	454.06
443.61	416.62
443.80	402.57
443.98	451.72
444.17	374.49
444.35	355.76
444.54	393.21
444.73	409.59
444.91	416.62
445.10	353.42
445.28	482.15
445.47	456.40
445.65	404.91
445.84	442.36
446.02	479.81
446.21	353.42
446.39	425.98
446.58	433.00
446.77	416.62
446.95	414.27
447.14	397.89
447.32	365.12
447.51	355.76
447.69	395.55
447.88	397.89
448.06	341.72
448.25	414.27
448.43	379.17
448.62	374.49
448.80	407.25
448.99	411.93
449.17	400.23
449.36	444.70
449.54	444.70
449.73	416.62
449.91	379.17
450.10	409.59
450.28	479.81
450.46	470.45
450.65	409.59
450.83	330.02
451.02	390.87
451.20	425.98
451.39	456.40
451.57	414.27
451.76	379.17
451.94	369.80
452.13	428.32
452.31	461.09
452.49	390.87
452.68	430.66
452.86	449.38
453.05	433.00
453.23	400.23
453.42	435.34
453.60	447.04
453.78	444.70
453.97	379.17
454.15	456.40
454.34	402.57
454.52	461.09
454.70	421.30
454.89	388.53
455.07	449.38
455.26	463.43
455.44	409.59
455.62	433.00
455.81	447.04
455.99	472.79
456.17	512.58
456.36	400.23
456.54	411.93
456.73	418.96
456.91	379.17
457.09	386.19
457.28	461.09
457.46	383.85
457.64	433.00
457.83	383.85
458.01	332.36
458.19	465.77
458.38	402.57
458.56	470.45
458.74	397.89
458.93	374.49
459.11	491.51
459.29	402.57
459.48	491.51
459.66	440.02
459.84	498.53
460.03	451.72
460.21	423.64
460.39	397.89
460.57	437.68
460.76	463.43
460.94	428.32
461.12	535.98
461.31	447.04
461.49	397.89
461.67	430.66
461.85	456.40
462.04	383.85
462.22	758.33
462.40	444.70
462.59	524.28
462.77	454.06
462.95	421.30
463.13	395.55
463.32	386.19
463.50	435.34
463.68	383.85
463.86	463.43
464.05	379.17
464.23	428.32
464.41	393.21
464.59	496.19
464.78	421.30
464.96	376.83
465.14	402.57
465.32	395.55
465.50	407.25
465.69	451.72
465.87	416.62
466.05	468.11
466.23	393.21
466.41	390.87
466.60	381.51
466.78	458.74
466.96	379.17
467.14	430.66
467.32	433.00
467.51	437.68
467.69	400.23
467.87	397.89
468.05	407.25
468.23	493.85
468.41	479.81
468.60	393.21
468.78	395.55
468.96	414.27
469.14	519.60
469.32	402.57
469.50	421.30
469.69	365.12
469.87	411.93
470.05	390.87
470.23	411.93
470.41	447.04
470.59	421.30
470.77	423.64
470.95	470.45
471.14	416.62
471.32	348.74
471.50	383.85
471.68	393.21
471.86	404.91
472.04	409.59
472.22	454.06
472.40	425.98
472.58	360.44
472.77	433.00
472.95	367.46
473.13	472.79
473.31	374.49
473.49	416.62
473.67	393.21
473.85	463.43
474.03	449.38
474.21	379.17
474.39	451.72
474.57	458.74
474.75	442.36
474.93	454.06
475.12	386.19
475.30	383.85
475.48	395.55
475.66	397.89
475.84	433.00
476.02	440.02
476.20	423.64
476.38	465.77
476.56	463.43
476.74	442.36
476.92	393.21
477.10	437.68
477.28	440.02
477.46	414.27
477.64	447.04
477.82	470.45
478.00	397.89
478.18	395.55
478.36	428.32
478.54	430.66
478.72	325.33
478.90	369.80
479.08	407.25
479.26	411.93
479.44	489.17
479.62	418.96
479.80	369.80
479.98	433.00
480.16	433.00
480.34	348.74
480.52	444.70
480.70	381.51
480.88	479.81
481.06	376.83
481.24	383.85
481.41	390.87
481.59	409.59
481.77	418.96
481.95	547.69
482.13	433.00
482.31	348.74
482.49	447.04
482.67	430.66
482.85	468.11
483.03	341.72
483.21	400.23
483.39	470.45
483.57	442.36
483.74	423.64
483.92	461.09
484.10	411.93
484.28	376.83
484.46	397.89
484.64	372.15
484.82	411.93
485.00	397.89
485.18	379.17
485.35	449.38
485.53	517.26
485.71	428.32
485.89	425.98
486.07	411.93
486.25	470.45
486.43	442.36
486.61	372.15
486.78	430.66
486.96	355.76
487.14	421.30
487.32	468.11
487.50	369.80
487.68	470.45
487.85	435.34
488.03	472.79
488.21	428.32
488.39	472.79
488.57	442.36
488.75	374.49
488.92	416.62
489.10	479.81
489.28	437.68
489.46	362.78
489.64	334.70
489.81	355.76
489.99	444.70
490.17	367.46
490.35	461.09
490.53	360.44
490.70	397.89
490.88	409.59
491.06	402.57
491.24	409.59
491.41	433.00
491.59	388.53
491.77	360.44
491.95	376.83
492.13	374.49
492.30	393.21
492.48	449.38
492.66	442.36
492.84	411.93
493.01	404.91
493.19	442.36
493.37	484.49
493.54	409.59
493.72	430.66
493.90	365.12
494.08	463.43
494.25	404.91
494.43	451.72
494.61	442.36
494.79	423.64
494.96	458.74
495.14	395.55
495.32	437.68
495.49	454.06
495.67	444.70
495.85	390.87
496.02	348.74
496.20	449.38
496.38	449.38
496.55	402.57
496.73	428.32
496.91	372.15
497.09	442.36
497.26	418.96
497.44	447.04
497.62	393.21
497.79	358.10
497.97	425.98
498.14	416.62
498.32	451.72
498.50	454.06
498.67	337.04
498.85	482.15
499.03	381.51
499.20	458.74
499.38	423.64
499.56	390.87
499.73	444.70
499.91	372.15
500.08	383.85
500.26	400.23
500.44	477.47
500.61	449.38
500.79	390.87
500.97	491.51
501.14	468.11
501.32	517.26
501.49	447.04
501.67	315.97
501.84	454.06
502.02	414.27
502.20	421.30
502.37	388.53
502.55	395.55
502.72	411.93
502.90	418.96
503.07	435.34
503.25	388.53
503.43	428.32
503.60	444.70
503.78	372.15
503.95	470.45
504.13	428.32
504.30	425.98
504.48	430.66
504.65	442.36
504.83	414.27
505.01	358.10
505.18	383.85
505.36	379.17
505.53	367.46
505.71	423.64
505.88	428.32
506.06	376.83
506.23	451.72
506.41	400.23
506.58	388.53
506.76	440.02
506.93	400.23
507.11	475.13
507.28	334.70
507.46	440.02
507.63	414.27
507.81	430.66
507.98	437.68
508.16	383.85
508.33	365.12
508.50	390.87
508.68	440.02
508.85	386.19
509.03	369.80
509.20	397.89
509.38	402.57
509.55	421.30
509.73	416.62
509.90	367.46
510.08	355.76
510.25	447.04
510.42	369.80
510.60	388.53
510.77	374.49
510.95	351.08
511.12	409.59
511.30	369.80
511.47	428.32
511.64	482.15
511.82	414.27
511.99	416.62
512.17	351.08
512.34	383.85
512.51	400.23
512.69	468.11
512.86	479.81
513.04	376.83
513.21	482.15
513.38	372.15
513.56	428.32
513.73	456.40
513.90	379.17
514.08	390.87
514.25	383.85
514.43	440.02
514.60	365.12
514.77	344.06
514.95	407.25
515.12	442.36
515.29	449.38
515.47	395.55
515.64	411.93
515.81	376.83
515.99	423.64
516.16	423.64
516.33	496.19
516.51	418.96
516.68	411.93
516.85	416.62
517.03	404.91
517.20	428.32
517.37	402.57
517.54	442.36
517.72	468.11
517.89	442.36
518.06	355.76
518.24	390.87
518.41	404.91
518.58	440.02
518.75	388.53
518.93	390.87
519.10	463.43
519.27	414.27
519.45	381.51
519.62	418.96
519.79	425.98
519.96	365.12
520.14	414.27
520.31	421.30
520.48	465.77
520.65	383.85
520.83	407.25
521.00	435.34
521.17	519.60
521.34	348.74
521.52	390.87
521.69	397.89
521.86	397.89
522.03	386.19
522.20	425.98
522.38	416.62
522.55	379.17
522.72	458.74
522.89	386.19
523.07	472.79
523.24	400.23
523.41	470.45
523.58	444.70
523.75	428.32
523.92	348.74
524.10	353.42
524.27	437.68
524.44	430.66
524.61	433.00
524.78	433.00
524.96	388.53
525.13	421.30
525.30	407.25
525.47	425.98
525.64	433.00
525.81	414.27
525.98	425.98
526.16	428.32
526.33	404.91
526.50	397.89
526.67	430.66
526.84	379.17
527.01	454.06
527.18	388.53
527.36	407.25
527.53	374.49
527.70	444.70
527.87	407.25
528.04	493.85
528.21	383.85
528.38	440.02
528.55	400.23
528.72	470.45
528.89	411.93
529.07	449.38
529.24	395.55
529.41	482.15
529.58	449.38
529.75	393.21
529.92	461.09
530.09	348.74
530.26	374.49
530.43	418.96
530.60	344.06
530.77	444.70
530.94	397.89
531.11	414.27
531.28	444.70
531.46	395.55
531.63	430.66
531.80	435.34
531.97	444.70
532.14	496.19
532.31	416.62
532.48	358.10
532.65	416.62
532.82	365.12
532.99	397.89
533.16	393.21
533.33	423.64
533.50	418.96
533.67	421.30
533.84	489.17
534.01	418.96
534.18	383.85
534.35	409.59
534.52	449.38
534.69	407.25
534.86	383.85
535.03	440.02
535.20	400.23
535.37	437.68
535.54	444.70
535.71	470.45
535.88	390.87
536.05	416.62
536.22	407.25
536.38	463.43
536.55	407.25
536.72	468.11
536.89	383.85
537.06	447.04
537.23	433.00
537.40	423.64
537.57	484.49
537.74	486.83
537.91	421.30
538.08	437.68
538.25	430.66
538.42	414.27
538.59	435.34
538.75	461.09
538.92	421.30
539.09	416.62
539.26	397.89
539.43	440.02
539.60	428.32
539.77	440.02
539.94	498.53
540.11	381.51
540.28	421.30
540.44	468.11
540.61	433.00
540.78	367.46
540.95	411.93
541.12	486.83
541.29	369.80
541.46	393.21
541.62	472.79
541.79	425.98
541.96	458.74
542.13	484.49
542.30	416.62
542.47	433.00
542.63	407.25
542.80	451.72
542.97	442.36
543.14	397.89
543.31	437.68
543.48	395.55
543.64	407.25
543.81	468.11
543.98	383.85
544.15	330.02
544.32	400.23
544.48	386.19
544.65	400.23
544.82	393.21
544.99	425.98
545.16	414.27
545.32	454.06
545.49	454.06
545.66	444.70
545.83	367.46
546.00	463.43
546.16	451.72
546.33	388.53
546.50	397.89
546.67	383.85
546.83	425.98
547.00	400.23
547.17	365.12
547.34	381.51
547.50	425.98
547.67	362.78
547.84	442.36
548.00	376.83
548.17	400.23
548.34	400.23
548.51	449.38
548.67	381.51
548.84	313.63
549.01	472.79
549.18	411.93
549.34	435.34
549.51	440.02
549.68	479.81
549.84	372.15
550.01	484.49
550.18	425.98
550.34	463.43
550.51	463.43
550.68	510.24
550.84	433.00
551.01	472.79
551.18	447.04
551.34	407.25
551.51	348.74
551.68	425.98
551.84	440.02
552.01	404.91
552.18	435.34
552.34	430.66
552.51	367.46
552.68	425.98
552.84	400.23
553.01	533.64
553.18	411.93
553.34	395.55
553.51	346.40
553.67	482.15
553.84	444.70
554.01	435.34
554.17	484.49
554.34	390.87
554.51	393.21
554.67	463.43
554.84	423.64
555.00	449.38
555.17	451.72
555.33	435.34
555.50	451.72
555.67	353.42
555.83	379.17
556.00	376.83
556.16	512.58
556.33	468.11
556.50	418.96
556.66	411.93
556.83	341.72
556.99	425.98
557.16	379.17
557.32	430.66
557.49	444.70
557.65	423.64
557.82	409.59
557.98	395.55
558.15	411.93
558.32	444.70
558.48	428.32
558.65	475.13
558.81	433.00
558.98	465.77
559.14	425.98
559.31	421.30
559.47	376.83
559.64	447.04
559.80	414.27
559.97	411.93
560.13	416.62
560.30	489.17
560.46	383.85
560.63	404.91
560.79	369.80
560.96	360.44
561.12	402.57
561.29	397.89
561.45	454.06
561.61	407.25
561.78	503.22
561.94	397.89
562.11	416.62
562.27	407.25
562.44	402.57
562.60	353.42
562.77	428.32
562.93	411.93
563.10	379.17
563.26	451.72
563.42	402.57
563.59	381.51
563.75	440.02
563.92	425.98
564.08	395.55
564.24	418.96
564.41	468.11
564.57	393.21
564.74	430.66
564.90	423.64
565.07	454.06
565.23	381.51
565.39	388.53
565.56	430.66
565.72	318.31
565.88	428.32
566.05	461.09
566.21	447.04
566.38	400.23
566.54	444.70
566.70	437.68
566.87	470.45
567.03	383.85
567.19	334.70
567.36	409.59
567.52	449.38
567.68	465.77
567.85	423.64
568.01	409.59
568.17	402.57
568.34	411.93
568.50	409.59
568.66	430.66
568.83	475.13
568.99	383.85
569.15	470.45
569.32	440.02
569.48	407.25
569.64	451.72
569.81	369.80
569.97	376.83
570.13	400.23
570.30	409.59
570.46	409.59
570.62	423.64
570.78	416.62
570.95	358.10
571.11	465.77
571.27	507.90
571.43	414.27
571.60	454.06
571.76	383.85
571.92	388.53
572.09	332.36
572.25	416.62
572.41	355.76
572.57	425.98
572.74	477.47
572.90	465.77
573.06	397.89
573.22	423.64
573.38	400.23
573.55	444.70
573.71	486.83
573.87	444.70
574.03	411.93
574.20	411.93
574.36	447.04
574.52	409.59
574.68	344.06
574.84	470.45
575.01	388.53
575.17	383.85
575.33	407.25
575.49	423.64
575.65	337.04
575.82	416.62
575.98	383.85
576.14	409.59
576.30	493.85
576.46	461.09
576.62	402.57
576.79	425.98
576.95	404.91
577.11	397.89
577.27	437.68
577.43	414.27
577.59	486.83
577.75	421.30
577.92	442.36
578.08	407.25
578.24	407.25
578.40	449.38
578.56	358.10
578.72	397.89
578.88	407.25
579.04	325.33
579.21	397.89
579.37	416.62
579.53	395.55
579.69	468.11
579.85	369.80
580.01	402.57
580.17	404.91
580.33	388.53
580.49	358.10
580.65	397.89
580.82	425.98
580.98	442.36
581.14	461.09
581.30	461.09
581.46	442.36
581.62	463.43
581.78	397.89
581.94	348.74
582.10	456.40
582.26	390.87
582.42	418.96
582.58	451.72
582.74	486.83
582.90	423.64
583.06	423.64
583.22	407.25
583.38	355.76
583.54	383.85
583.70	407.25
583.86	402.57
584.02	409.59
584.18	440.02
584.34	414.27
584.50	400.23
584.66	393.21
584.82	421.30
584.98	458.74
585.14	463.43
585.30	442.36
585.46	372.15
585.62	369.80
585.78	390.87
585.94	500.87
586.10	409.59
586.26	437.68
586.42	477.47
586.58	484.49
586.74	397.89
586.90	477.47
587.06	407.25
587.22	409.59
587.38	416.62
587.54	414.27
587.70	395.55
587.86	454.06
588.02	407.25
588.18	421.30
588.34	421.30
588.49	346.40
588.65	409.59
588.81	360.44
588.97	418.96
589.13	421.30
589.29	475.13
589.45	470.45
589.61	304.27
589.77	493.85
589.93	435.34
590.08	351.08
590.24	404.91
590.40	383.85
590.56	437.68
590.72	376.83
590.88	430.66
591.04	374.49
591.20	437.68
591.35	458.74
591.51	430.66
591.67	421.30
591.83	437.68
591.99	458.74
592.15	435.34
592.31	376.83
592.46	454.06
592.62	404.91
592.78	376.83
592.94	381.51
593.10	376.83
593.26	400.23
593.41	461.09
593.57	360.44
593.73	369.80
593.89	400.23
594.05	535.98
594.20	458.74
594.36	383.85
594.52	449.38
594.68	433.00
594.84	421.30
594.99	425.98
595.15	461.09
595.31	444.70
595.47	360.44
595.62	411.93
595.78	428.32
595.94	376.83
596.10	442.36
596.25	428.32
596.41	402.57
596.57	367.46
596.73	400.23
596.88	414.27
597.04	461.09
597.20	428.32
597.36	461.09
597.51	388.53
597.67	421.30
597.83	444.70
597.99	425.98
598.14	425.98
598.30	442.36
598.46	454.06
598.61	435.34
598.77	365.12
598.93	386.19
599.09	470.45
599.24	381.51
599.40	451.72
599.56	414.27
599.71	454.06
599.87	367.46
600.03	468.11
600.18	416.62
600.34	400.23
600.50	486.83
600.65	409.59
600.81	472.79
600.97	425.98
601.12	468.11
601.28	423.64
601.44	388.53
601.59	404.91
601.75	393.21
601.91	348.74
602.06	397.89
602.22	475.13
602.37	402.57
602.53	362.78
602.69	430.66
602.84	416.62
603.00	383.85
603.16	435.34
603.31	435.34
603.47	416.62
603.62	442.36
603.78	346.40
603.94	383.85
604.09	430.66
604.25	404.91
604.40	407.25
604.56	383.85
604.71	456.40
604.87	430.66
605.03	442.36
605.18	390.87
605.34	379.17
605.49	388.53
605.65	463.43
605.80	379.17
605.96	362.78
606.12	428.32
606.27	404.91
606.43	386.19
606.58	428.32
606.74	397.89
606.89	447.04
607.05	491.51
607.20	475.13
607.36	404.91
607.51	383.85
607.67	355.76
607.82	444.70
607.98	454.06
608.13	381.51
608.29	369.80
608.44	430.66
608.60	463.43
608.75	416.62
608.91	463.43
609.06	414.27
609.22	421.30
609.37	442.36
609.53	414.27
609.68	367.46
609.84	402.57
609.99	404.91
610.15	381.51
