SpectraSuite Data File
++++++++++++++++++++++++++++++++++++
Date: Fri Oct 25 12:10:25 EDT 2013
User: price-jones
Dark Spectrum Present: No
Reference Spectrum Present: No
Number of Sampled Component Spectra: 1
Spectrometers: USB2+H05261
Integration Time (usec): 100000 (USB2+H05261)
Spectra Averaged: 1 (USB2+H05261)
Boxcar Smoothing: 0 (USB2+H05261)
Correct for Electrical Dark: No (USB2+H05261)
Strobe/Lamp Enabled: No (USB2+H05261)
Correct for Detector Non-linearity: No (USB2+H05261)
Correct for Stray Light: No (USB2+H05261)
Number of Pixels in Processed Spectrum: 2048
>>>>>Begin Processed Spectral Data<<<<<
365.73	318.31
365.92	318.31
366.12	318.31
366.32	236.39
366.52	285.55
366.72	276.18
366.91	203.63
367.11	194.26
367.31	276.18
367.51	287.89
367.70	257.46
367.90	285.55
368.10	243.42
368.30	250.44
368.49	297.25
368.69	276.18
368.89	315.97
369.09	250.44
369.28	322.99
369.48	227.03
369.68	257.46
369.87	332.36
370.07	271.50
370.27	320.65
370.47	304.27
370.66	351.08
370.86	315.97
371.06	332.36
371.25	409.59
371.45	367.46
371.65	372.15
371.84	390.87
372.04	374.49
372.24	430.66
372.44	442.36
372.63	337.04
372.83	423.64
373.03	418.96
373.22	449.38
373.42	477.47
373.62	440.02
373.81	442.36
374.01	367.46
374.21	449.38
374.40	447.04
374.60	376.83
374.79	379.17
374.99	409.59
375.19	416.62
375.38	486.83
375.58	407.25
375.78	397.89
375.97	414.27
376.17	395.55
376.37	428.32
376.56	409.59
376.76	435.34
376.95	409.59
377.15	463.43
377.35	482.15
377.54	458.74
377.74	390.87
377.93	416.62
378.13	402.57
378.33	489.17
378.52	416.62
378.72	472.79
378.91	440.02
379.11	397.89
379.31	348.74
379.50	400.23
379.70	369.80
379.89	400.23
380.09	430.66
380.28	379.17
380.48	447.04
380.68	358.10
380.87	318.31
381.07	484.49
381.26	486.83
381.46	414.27
381.65	407.25
381.85	388.53
382.04	479.81
382.24	411.93
382.43	433.00
382.63	470.45
382.83	416.62
383.02	435.34
383.22	437.68
383.41	362.78
383.61	458.74
383.80	334.70
384.00	374.49
384.19	409.59
384.39	430.66
384.58	365.12
384.78	362.78
384.97	388.53
385.17	367.46
385.36	367.46
385.56	381.51
385.75	407.25
385.95	421.30
386.14	465.77
386.34	428.32
386.53	348.74
386.72	332.36
386.92	463.43
387.11	341.72
387.31	400.23
387.50	376.83
387.70	414.27
387.89	521.94
388.09	400.23
388.28	393.21
388.48	484.49
388.67	404.91
388.86	381.51
389.06	507.90
389.25	482.15
389.45	411.93
389.64	388.53
389.84	423.64
390.03	393.21
390.22	393.21
390.42	362.78
390.61	369.80
390.81	395.55
391.00	383.85
391.19	414.27
391.39	330.02
391.58	351.08
391.78	320.65
391.97	409.59
392.16	381.51
392.36	400.23
392.55	407.25
392.75	458.74
392.94	435.34
393.13	393.21
393.33	411.93
393.52	395.55
393.71	475.13
393.91	393.21
394.10	393.21
394.29	388.53
394.49	409.59
394.68	482.15
394.88	430.66
395.07	351.08
395.26	355.76
395.46	440.02
395.65	435.34
395.84	409.59
396.04	449.38
396.23	435.34
396.42	330.02
396.62	379.17
396.81	402.57
397.00	330.02
397.19	437.68
397.39	440.02
397.58	409.59
397.77	348.74
397.97	376.83
398.16	404.91
398.35	461.09
398.55	423.64
398.74	337.04
398.93	503.22
399.12	407.25
399.32	395.55
399.51	362.78
399.70	400.23
399.90	381.51
400.09	381.51
400.28	416.62
400.47	369.80
400.67	376.83
400.86	372.15
401.05	433.00
401.24	470.45
401.44	472.79
401.63	402.57
401.82	444.70
402.01	433.00
402.21	411.93
402.40	358.10
402.59	407.25
402.78	404.91
402.97	339.38
403.17	442.36
403.36	409.59
403.55	418.96
403.74	400.23
403.93	388.53
404.13	386.19
404.32	400.23
404.51	411.93
404.70	463.43
404.89	418.96
405.09	414.27
405.28	421.30
405.47	402.57
405.66	442.36
405.85	402.57
406.05	348.74
406.24	346.40
406.43	437.68
406.62	416.62
406.81	454.06
407.00	435.34
407.20	381.51
407.39	411.93
407.58	367.46
407.77	423.64
407.96	344.06
408.15	463.43
408.34	449.38
408.54	404.91
408.73	407.25
408.92	454.06
409.11	376.83
409.30	425.98
409.49	437.68
409.68	348.74
409.87	353.42
410.07	390.87
410.26	428.32
410.45	414.27
410.64	362.78
410.83	341.72
411.02	397.89
411.21	386.19
411.40	461.09
411.59	449.38
411.78	379.17
411.98	418.96
412.17	339.38
412.36	428.32
412.55	463.43
412.74	404.91
412.93	418.96
413.12	414.27
413.31	423.64
413.50	404.91
413.69	435.34
413.88	411.93
414.07	397.89
414.26	383.85
414.45	379.17
414.64	367.46
414.83	365.12
415.02	374.49
415.22	386.19
415.41	379.17
415.60	369.80
415.79	351.08
415.98	362.78
416.17	498.53
416.36	414.27
416.55	437.68
416.74	407.25
416.93	451.72
417.12	395.55
417.31	430.66
417.50	381.51
417.69	402.57
417.88	395.55
418.07	421.30
418.26	447.04
418.45	386.19
418.64	411.93
418.83	442.36
419.02	418.96
419.21	390.87
419.39	454.06
419.58	355.76
419.77	320.65
419.96	428.32
420.15	414.27
420.34	461.09
420.53	397.89
420.72	451.72
420.91	421.30
421.10	433.00
421.29	433.00
421.48	397.89
421.67	433.00
421.86	355.76
422.05	407.25
422.24	367.46
422.43	423.64
422.61	390.87
422.80	416.62
422.99	372.15
423.18	402.57
423.37	407.25
423.56	339.38
423.75	425.98
423.94	341.72
424.13	383.85
424.32	381.51
424.50	383.85
424.69	440.02
424.88	414.27
425.07	393.21
425.26	423.64
425.45	449.38
425.64	430.66
425.83	325.33
426.01	479.81
426.20	395.55
426.39	369.80
426.58	334.70
426.77	318.31
426.96	418.96
427.15	421.30
427.33	430.66
427.52	390.87
427.71	447.04
427.90	461.09
428.09	379.17
428.28	418.96
428.46	397.89
428.65	423.64
428.84	372.15
429.03	376.83
429.22	444.70
429.40	411.93
429.59	365.12
429.78	372.15
429.97	358.10
430.16	444.70
430.34	465.77
430.53	437.68
430.72	472.79
430.91	416.62
431.10	390.87
431.28	454.06
431.47	416.62
431.66	433.00
431.85	428.32
432.03	400.23
432.22	411.93
432.41	458.74
432.60	379.17
432.79	332.36
432.97	367.46
433.16	365.12
433.35	440.02
433.54	393.21
433.72	383.85
433.91	428.32
434.10	465.77
434.28	395.55
434.47	440.02
434.66	402.57
434.85	463.43
435.03	383.85
435.22	505.56
435.41	521.94
435.59	472.79
435.78	498.53
435.97	369.80
436.16	447.04
436.34	407.25
436.53	472.79
436.72	449.38
436.90	472.79
437.09	400.23
437.28	404.91
437.46	470.45
437.65	435.34
437.84	407.25
438.02	402.57
438.21	449.38
438.40	411.93
438.58	440.02
438.77	435.34
438.96	442.36
439.14	402.57
439.33	430.66
439.52	449.38
439.70	433.00
439.89	358.10
440.08	390.87
440.26	423.64
440.45	407.25
440.63	472.79
440.82	423.64
441.01	454.06
441.19	409.59
441.38	402.57
441.57	425.98
441.75	425.98
441.94	468.11
442.12	440.02
442.31	407.25
442.50	437.68
442.68	418.96
442.87	489.17
443.05	447.04
443.24	404.91
443.43	440.02
443.61	475.13
443.80	411.93
443.98	402.57
444.17	395.55
444.35	428.32
444.54	428.32
444.73	381.51
444.91	470.45
445.10	294.91
445.28	442.36
445.47	447.04
445.65	489.17
445.84	353.42
446.02	388.53
446.21	444.70
446.39	402.57
446.58	402.57
446.77	477.47
446.95	423.64
447.14	440.02
447.32	440.02
447.51	374.49
447.69	479.81
447.88	411.93
448.06	416.62
448.25	463.43
448.43	315.97
448.62	348.74
448.80	425.98
448.99	411.93
449.17	344.06
449.36	437.68
449.54	521.94
449.73	484.49
449.91	416.62
450.10	395.55
450.28	475.13
450.46	496.19
450.65	414.27
450.83	386.19
451.02	376.83
451.20	402.57
451.39	440.02
451.57	519.60
451.76	388.53
451.94	362.78
452.13	390.87
452.31	454.06
452.49	393.21
452.68	365.12
452.86	447.04
453.05	475.13
453.23	397.89
453.42	374.49
453.60	395.55
453.78	393.21
453.97	386.19
454.15	456.40
454.34	404.91
454.52	430.66
454.70	418.96
454.89	376.83
455.07	369.80
455.26	505.56
455.44	433.00
455.62	367.46
455.81	397.89
455.99	454.06
456.17	423.64
456.36	451.72
456.54	379.17
456.73	437.68
456.91	402.57
457.09	362.78
457.28	451.72
457.46	372.15
457.64	430.66
457.83	407.25
458.01	339.38
458.19	449.38
458.38	437.68
458.56	440.02
458.74	404.91
458.93	428.32
459.11	435.34
459.29	470.45
459.48	372.15
459.66	414.27
459.84	428.32
460.03	500.87
460.21	393.21
460.39	367.46
460.57	517.26
460.76	437.68
460.94	334.70
461.12	482.15
461.31	510.24
461.49	367.46
461.67	418.96
461.85	409.59
462.04	388.53
462.22	774.72
462.40	493.85
462.59	409.59
462.77	404.91
462.95	456.40
463.13	442.36
463.32	463.43
463.50	428.32
463.68	428.32
463.86	430.66
464.05	386.19
464.23	454.06
464.41	414.27
464.59	400.23
464.78	430.66
464.96	416.62
465.14	388.53
465.32	442.36
465.50	435.34
465.69	454.06
465.87	369.80
466.05	472.79
466.23	468.11
466.41	444.70
466.60	489.17
466.78	334.70
466.96	374.49
467.14	442.36
467.32	440.02
467.51	451.72
467.69	365.12
467.87	348.74
468.05	376.83
468.23	461.09
468.41	400.23
468.60	416.62
468.78	447.04
468.96	433.00
469.14	407.25
469.32	404.91
469.50	433.00
469.69	470.45
469.87	435.34
470.05	414.27
470.23	440.02
470.41	400.23
470.59	482.15
470.77	479.81
470.95	472.79
471.14	414.27
471.32	360.44
471.50	402.57
471.68	425.98
471.86	451.72
472.04	479.81
472.22	379.17
472.40	472.79
472.58	365.12
472.77	383.85
472.95	369.80
473.13	447.04
473.31	395.55
473.49	407.25
473.67	369.80
473.85	435.34
474.03	435.34
474.21	425.98
474.39	428.32
474.57	484.49
474.75	433.00
474.93	346.40
475.12	388.53
475.30	425.98
475.48	383.85
475.66	372.15
475.84	447.04
476.02	358.10
476.20	451.72
476.38	444.70
476.56	519.60
476.74	442.36
476.92	423.64
477.10	379.17
477.28	414.27
477.46	365.12
477.64	447.04
477.82	379.17
478.00	400.23
478.18	407.25
478.36	411.93
478.54	449.38
478.72	358.10
478.90	430.66
479.08	444.70
479.26	372.15
479.44	351.08
479.62	346.40
479.80	411.93
479.98	397.89
480.16	390.87
480.34	486.83
480.52	428.32
480.70	447.04
480.88	355.76
481.06	437.68
481.24	414.27
481.41	372.15
481.59	362.78
481.77	475.13
481.95	435.34
482.13	437.68
482.31	468.11
482.49	374.49
482.67	482.15
482.85	440.02
483.03	484.49
483.21	376.83
483.39	400.23
483.57	411.93
483.74	437.68
483.92	402.57
484.10	423.64
484.28	447.04
484.46	461.09
484.64	386.19
484.82	376.83
485.00	440.02
485.18	411.93
485.35	353.42
485.53	381.51
485.71	440.02
485.89	440.02
486.07	484.49
486.25	465.77
486.43	395.55
486.61	451.72
486.78	479.81
486.96	430.66
487.14	418.96
487.32	463.43
487.50	470.45
487.68	470.45
487.85	430.66
488.03	477.47
488.21	365.12
488.39	386.19
488.57	437.68
488.75	362.78
488.92	456.40
489.10	449.38
489.28	468.11
489.46	416.62
489.64	390.87
489.81	461.09
489.99	362.78
490.17	397.89
490.35	409.59
490.53	433.00
490.70	451.72
490.88	337.04
491.06	355.76
491.24	404.91
491.41	477.47
491.59	430.66
491.77	409.59
491.95	425.98
492.13	451.72
492.30	383.85
492.48	428.32
492.66	397.89
492.84	383.85
493.01	421.30
493.19	388.53
493.37	416.62
493.54	465.77
493.72	472.79
493.90	400.23
494.08	414.27
494.25	327.68
494.43	360.44
494.61	416.62
494.79	379.17
494.96	411.93
495.14	528.96
495.32	402.57
495.49	395.55
495.67	440.02
495.85	400.23
496.02	388.53
496.20	404.91
496.38	456.40
496.55	395.55
496.73	397.89
496.91	400.23
497.09	449.38
497.26	411.93
497.44	400.23
497.62	435.34
497.79	423.64
497.97	524.28
498.14	400.23
498.32	444.70
498.50	313.63
498.67	428.32
498.85	400.23
499.03	369.80
499.20	425.98
499.38	381.51
499.56	400.23
499.73	489.17
499.91	442.36
500.08	458.74
500.26	463.43
500.44	482.15
500.61	379.17
500.79	423.64
500.97	465.77
501.14	435.34
501.32	369.80
501.49	435.34
501.67	433.00
501.84	454.06
502.02	397.89
502.20	418.96
502.37	442.36
502.55	444.70
502.72	334.70
502.90	435.34
503.07	433.00
503.25	468.11
503.43	388.53
503.60	404.91
503.78	414.27
503.95	477.47
504.13	381.51
504.30	435.34
504.48	477.47
504.65	407.25
504.83	479.81
505.01	393.21
505.18	440.02
505.36	421.30
505.53	402.57
505.71	367.46
505.88	479.81
506.06	367.46
506.23	468.11
506.41	451.72
506.58	477.47
506.76	360.44
506.93	414.27
507.11	383.85
507.28	440.02
507.46	416.62
507.63	458.74
507.81	388.53
507.98	423.64
508.16	390.87
508.33	433.00
508.50	524.28
508.68	437.68
508.85	437.68
509.03	411.93
509.20	395.55
509.38	383.85
509.55	454.06
509.73	421.30
509.90	379.17
510.08	465.77
510.25	486.83
510.42	418.96
510.60	463.43
510.77	463.43
510.95	425.98
511.12	395.55
511.30	442.36
511.47	472.79
511.64	451.72
511.82	407.25
511.99	393.21
512.17	409.59
512.34	404.91
512.51	428.32
512.69	435.34
512.86	465.77
513.04	379.17
513.21	461.09
513.38	423.64
513.56	407.25
513.73	325.33
513.90	369.80
514.08	306.61
514.25	423.64
514.43	393.21
514.60	414.27
514.77	400.23
514.95	444.70
515.12	470.45
515.29	458.74
515.47	444.70
515.64	456.40
515.81	442.36
515.99	472.79
516.16	421.30
516.33	386.19
516.51	416.62
516.68	390.87
516.85	395.55
517.03	461.09
517.20	465.77
517.37	454.06
517.54	433.00
517.72	411.93
517.89	327.68
518.06	390.87
518.24	437.68
518.41	430.66
518.58	376.83
518.75	447.04
518.93	365.12
519.10	369.80
519.27	449.38
519.45	409.59
519.62	435.34
519.79	421.30
519.96	418.96
520.14	379.17
520.31	383.85
520.48	379.17
520.65	395.55
520.83	425.98
521.00	517.26
521.17	449.38
521.34	433.00
521.52	388.53
521.69	430.66
521.86	425.98
522.03	393.21
522.20	418.96
522.38	414.27
522.55	407.25
522.72	365.12
522.89	489.17
523.07	463.43
523.24	360.44
523.41	428.32
523.58	447.04
523.75	393.21
523.92	358.10
524.10	411.93
524.27	341.72
524.44	433.00
524.61	433.00
524.78	425.98
524.96	451.72
525.13	402.57
525.30	433.00
525.47	393.21
525.64	393.21
525.81	440.02
525.98	409.59
526.16	493.85
526.33	379.17
526.50	325.33
526.67	355.76
526.84	423.64
527.01	346.40
527.18	390.87
527.36	383.85
527.53	447.04
527.70	442.36
527.87	416.62
528.04	411.93
528.21	451.72
528.38	376.83
528.55	486.83
528.72	435.34
528.89	475.13
529.07	390.87
529.24	379.17
529.41	430.66
529.58	414.27
529.75	477.47
529.92	430.66
530.09	402.57
530.26	407.25
530.43	423.64
530.60	447.04
530.77	351.08
530.94	411.93
531.11	381.51
531.28	393.21
531.46	435.34
531.63	409.59
531.80	372.15
531.97	458.74
532.14	381.51
532.31	374.49
532.48	440.02
532.65	416.62
532.82	421.30
532.99	414.27
533.16	447.04
533.33	372.15
533.50	461.09
533.67	376.83
533.84	447.04
534.01	402.57
534.18	372.15
534.35	397.89
534.52	468.11
534.69	404.91
534.86	383.85
535.03	395.55
535.20	388.53
535.37	397.89
535.54	416.62
535.71	440.02
535.88	386.19
536.05	418.96
536.22	489.17
536.38	404.91
536.55	402.57
536.72	416.62
536.89	381.51
537.06	353.42
537.23	433.00
537.40	451.72
537.57	435.34
537.74	571.09
537.91	447.04
538.08	425.98
538.25	388.53
538.42	400.23
538.59	421.30
538.75	430.66
538.92	479.81
539.09	477.47
539.26	355.76
539.43	444.70
539.60	418.96
539.77	505.56
539.94	393.21
540.11	512.58
540.28	390.87
540.44	433.00
540.61	390.87
540.78	376.83
540.95	433.00
541.12	416.62
541.29	409.59
541.46	472.79
541.62	365.12
541.79	346.40
541.96	411.93
542.13	416.62
542.30	440.02
542.47	435.34
542.63	386.19
542.80	409.59
542.97	514.92
543.14	411.93
543.31	465.77
543.48	500.87
543.64	374.49
543.81	390.87
543.98	386.19
544.15	339.38
544.32	372.15
544.48	440.02
544.65	414.27
544.82	376.83
544.99	383.85
545.16	465.77
545.32	425.98
545.49	397.89
545.66	381.51
545.83	428.32
546.00	409.59
546.16	461.09
546.33	411.93
546.50	416.62
546.67	379.17
546.83	444.70
547.00	383.85
547.17	409.59
547.34	395.55
547.50	400.23
547.67	416.62
547.84	428.32
548.00	461.09
548.17	416.62
548.34	472.79
548.51	388.53
548.67	458.74
548.84	402.57
549.01	454.06
549.18	365.12
549.34	383.85
549.51	433.00
549.68	376.83
549.84	430.66
550.01	367.46
550.18	491.51
550.34	456.40
550.51	369.80
550.68	470.45
550.84	390.87
551.01	369.80
551.18	489.17
551.34	425.98
551.51	383.85
551.68	484.49
551.84	421.30
552.01	407.25
552.18	423.64
552.34	416.62
552.51	421.30
552.68	444.70
552.84	423.64
553.01	416.62
553.18	404.91
553.34	430.66
553.51	393.21
553.67	447.04
553.84	435.34
554.01	491.51
554.17	430.66
554.34	414.27
554.51	416.62
554.67	409.59
554.84	383.85
555.00	388.53
555.17	416.62
555.33	341.72
555.50	435.34
555.67	475.13
555.83	397.89
556.00	404.91
556.16	528.96
556.33	402.57
556.50	437.68
556.66	440.02
556.83	409.59
556.99	435.34
557.16	404.91
557.32	409.59
557.49	430.66
557.65	414.27
557.82	386.19
557.98	503.22
558.15	404.91
558.32	404.91
558.48	425.98
558.65	472.79
558.81	421.30
558.98	367.46
559.14	458.74
559.31	449.38
559.47	395.55
559.64	442.36
559.80	454.06
559.97	409.59
560.13	390.87
560.30	393.21
560.46	437.68
560.63	442.36
560.79	435.34
560.96	395.55
561.12	407.25
561.29	400.23
561.45	435.34
561.61	414.27
561.78	425.98
561.94	365.12
562.11	414.27
562.27	388.53
562.44	433.00
562.60	337.04
562.77	428.32
562.93	470.45
563.10	411.93
563.26	376.83
563.42	489.17
563.59	393.21
563.75	379.17
563.92	444.70
564.08	451.72
564.24	461.09
564.41	461.09
564.57	472.79
564.74	388.53
564.90	425.98
565.07	470.45
565.23	418.96
565.39	416.62
565.56	416.62
565.72	442.36
565.88	383.85
566.05	447.04
566.21	428.32
566.38	451.72
566.54	416.62
566.70	451.72
566.87	369.80
567.03	386.19
567.19	447.04
567.36	463.43
567.52	433.00
567.68	470.45
567.85	470.45
568.01	437.68
568.17	414.27
568.34	454.06
568.50	447.04
568.66	383.85
568.83	442.36
568.99	423.64
569.15	425.98
569.32	421.30
569.48	444.70
569.64	418.96
569.81	374.49
569.97	341.72
570.13	435.34
570.30	456.40
570.46	411.93
570.62	437.68
570.78	468.11
570.95	341.72
571.11	447.04
571.27	390.87
571.43	390.87
571.60	390.87
571.76	458.74
571.92	442.36
572.09	461.09
572.25	395.55
572.41	447.04
572.57	454.06
572.74	411.93
572.90	472.79
573.06	430.66
573.22	472.79
573.38	374.49
573.55	472.79
573.71	444.70
573.87	482.15
574.03	435.34
574.20	423.64
574.36	404.91
574.52	430.66
574.68	479.81
574.84	404.91
575.01	475.13
575.17	430.66
575.33	482.15
575.49	496.19
575.65	393.21
575.82	430.66
575.98	376.83
576.14	430.66
576.30	407.25
576.46	376.83
576.62	472.79
576.79	358.10
576.95	383.85
577.11	416.62
577.27	400.23
577.43	451.72
577.59	451.72
577.75	486.83
577.92	454.06
578.08	447.04
578.24	449.38
578.40	470.45
578.56	400.23
578.72	465.77
578.88	407.25
579.04	404.91
579.21	440.02
579.37	489.17
579.53	355.76
579.69	411.93
579.85	425.98
580.01	479.81
580.17	337.04
580.33	458.74
580.49	444.70
580.65	423.64
580.82	463.43
580.98	477.47
581.14	425.98
581.30	444.70
581.46	430.66
581.62	456.40
581.78	388.53
581.94	402.57
582.10	381.51
582.26	379.17
582.42	500.87
582.58	421.30
582.74	400.23
582.90	435.34
583.06	423.64
583.22	386.19
583.38	369.80
583.54	430.66
583.70	414.27
583.86	416.62
584.02	418.96
584.18	409.59
584.34	505.56
584.50	400.23
584.66	407.25
584.82	379.17
584.98	496.19
585.14	437.68
585.30	414.27
585.46	421.30
585.62	449.38
585.78	386.19
585.94	404.91
586.10	395.55
586.26	433.00
586.42	456.40
586.58	449.38
586.74	397.89
586.90	362.78
587.06	454.06
587.22	395.55
587.38	447.04
587.54	463.43
587.70	486.83
587.86	449.38
588.02	306.61
588.18	379.17
588.34	423.64
588.49	390.87
588.65	376.83
588.81	400.23
588.97	400.23
589.13	393.21
589.29	402.57
589.45	425.98
589.61	444.70
589.77	463.43
589.93	407.25
590.08	355.76
590.24	351.08
590.40	388.53
590.56	409.59
590.72	449.38
590.88	390.87
591.04	486.83
591.20	393.21
591.35	425.98
591.51	383.85
591.67	421.30
591.83	402.57
591.99	416.62
592.15	372.15
592.31	362.78
592.46	444.70
592.62	409.59
592.78	435.34
592.94	362.78
593.10	339.38
593.26	437.68
593.41	458.74
593.57	381.51
593.73	435.34
593.89	430.66
594.05	451.72
594.20	444.70
594.36	454.06
594.52	393.21
594.68	379.17
594.84	421.30
594.99	444.70
595.15	437.68
595.31	484.49
595.47	397.89
595.62	428.32
595.78	411.93
595.94	362.78
596.10	400.23
596.25	353.42
596.41	428.32
596.57	379.17
596.73	383.85
596.88	374.49
597.04	395.55
597.20	407.25
597.36	484.49
597.51	435.34
597.67	423.64
597.83	404.91
597.99	482.15
598.14	482.15
598.30	409.59
598.46	407.25
598.61	395.55
598.77	414.27
598.93	407.25
599.09	433.00
599.24	498.53
599.40	423.64
599.56	367.46
599.71	381.51
599.87	425.98
600.03	409.59
600.18	442.36
600.34	477.47
600.50	451.72
600.65	395.55
600.81	465.77
600.97	442.36
601.12	367.46
601.28	477.47
601.44	390.87
601.59	409.59
601.75	402.57
601.91	376.83
602.06	418.96
602.22	491.51
602.37	440.02
602.53	440.02
602.69	327.68
602.84	353.42
603.00	351.08
603.16	374.49
603.31	491.51
603.47	425.98
603.62	393.21
603.78	421.30
603.94	433.00
604.09	458.74
604.25	479.81
604.40	470.45
604.56	421.30
604.71	444.70
604.87	493.85
605.03	369.80
605.18	442.36
605.34	451.72
605.49	376.83
605.65	381.51
605.80	376.83
605.96	428.32
606.12	381.51
606.27	435.34
606.43	376.83
606.58	500.87
606.74	393.21
606.89	470.45
607.05	409.59
607.20	454.06
607.36	369.80
607.51	386.19
607.67	430.66
607.82	341.72
607.98	482.15
608.13	444.70
608.29	486.83
608.44	388.53
608.60	386.19
608.75	447.04
608.91	386.19
609.06	444.70
609.22	383.85
609.37	395.55
609.53	409.59
609.68	414.27
609.84	418.96
609.99	470.45
610.15	423.64
