SpectraSuite Data File
++++++++++++++++++++++++++++++++++++
Date: Fri Oct 25 12:10:46 EDT 2013
User: price-jones
Dark Spectrum Present: No
Reference Spectrum Present: No
Number of Sampled Component Spectra: 1
Spectrometers: USB2+H05261
Integration Time (usec): 100000 (USB2+H05261)
Spectra Averaged: 1 (USB2+H05261)
Boxcar Smoothing: 0 (USB2+H05261)
Correct for Electrical Dark: No (USB2+H05261)
Strobe/Lamp Enabled: No (USB2+H05261)
Correct for Detector Non-linearity: No (USB2+H05261)
Correct for Stray Light: No (USB2+H05261)
Number of Pixels in Processed Spectrum: 2048
>>>>>Begin Processed Spectral Data<<<<<
365.73	315.97
365.92	315.97
366.12	315.97
366.32	259.80
366.52	290.23
366.72	217.67
366.91	243.42
367.11	255.12
367.31	212.99
367.51	297.25
367.70	234.05
367.90	217.67
368.10	294.91
368.30	269.16
368.49	252.78
368.69	297.25
368.89	234.05
369.09	227.03
369.28	306.61
369.48	255.12
369.68	243.42
369.87	227.03
370.07	299.59
370.27	393.21
370.47	276.18
370.66	294.91
370.86	339.38
371.06	386.19
371.25	397.89
371.45	379.17
371.65	325.33
371.84	376.83
372.04	390.87
372.24	423.64
372.44	355.76
372.63	341.72
372.83	409.59
373.03	400.23
373.22	388.53
373.42	372.15
373.62	397.89
373.81	386.19
374.01	468.11
374.21	430.66
374.40	339.38
374.60	482.15
374.79	465.77
374.99	414.27
375.19	409.59
375.38	388.53
375.58	404.91
375.78	454.06
375.97	472.79
376.17	521.94
376.37	468.11
376.56	442.36
376.76	444.70
376.95	395.55
377.15	442.36
377.35	332.36
377.54	442.36
377.74	414.27
377.93	390.87
378.13	325.33
378.33	423.64
378.52	397.89
378.72	423.64
378.91	456.40
379.11	315.97
379.31	437.68
379.50	397.89
379.70	449.38
379.89	320.65
380.09	381.51
380.28	414.27
380.48	346.40
380.68	402.57
380.87	407.25
381.07	372.15
381.26	414.27
381.46	423.64
381.65	416.62
381.85	388.53
382.04	362.78
382.24	388.53
382.43	404.91
382.63	374.49
382.83	465.77
383.02	433.00
383.22	416.62
383.41	388.53
383.61	425.98
383.80	430.66
384.00	301.93
384.19	393.21
384.39	395.55
384.58	379.17
384.78	440.02
384.97	397.89
385.17	367.46
385.36	360.44
385.56	430.66
385.75	425.98
385.95	440.02
386.14	381.51
386.34	358.10
386.53	313.63
386.72	360.44
386.92	472.79
387.11	433.00
387.31	388.53
387.50	346.40
387.70	407.25
387.89	390.87
388.09	442.36
388.28	442.36
388.48	414.27
388.67	444.70
388.86	400.23
389.06	421.30
389.25	500.87
389.45	423.64
389.64	400.23
389.84	461.09
390.03	397.89
390.22	437.68
390.42	428.32
390.61	451.72
390.81	433.00
391.00	355.76
391.19	479.81
391.39	414.27
391.58	393.21
391.78	409.59
391.97	402.57
392.16	404.91
392.36	440.02
392.55	425.98
392.75	418.96
392.94	435.34
393.13	468.11
393.33	414.27
393.52	411.93
393.71	402.57
393.91	322.99
394.10	379.17
394.29	367.46
394.49	423.64
394.68	402.57
394.88	433.00
395.07	437.68
395.26	404.91
395.46	416.62
395.65	374.49
395.84	390.87
396.04	493.85
396.23	386.19
396.42	409.59
396.62	423.64
396.81	407.25
397.00	341.72
397.19	435.34
397.39	407.25
397.58	484.49
397.77	383.85
397.97	346.40
398.16	414.27
398.35	433.00
398.55	435.34
398.74	414.27
398.93	409.59
399.12	414.27
399.32	376.83
399.51	440.02
399.70	454.06
399.90	374.49
400.09	416.62
400.28	395.55
400.47	421.30
400.67	400.23
400.86	351.08
401.05	397.89
401.24	381.51
401.44	376.83
401.63	447.04
401.82	355.76
402.01	397.89
402.21	421.30
402.40	418.96
402.59	418.96
402.78	376.83
402.97	376.83
403.17	360.44
403.36	383.85
403.55	493.85
403.74	386.19
403.93	409.59
404.13	543.00
404.32	421.30
404.51	414.27
404.70	418.96
404.89	395.55
405.09	425.98
405.28	365.12
405.47	402.57
405.66	402.57
405.85	376.83
406.05	383.85
406.24	388.53
406.43	400.23
406.62	447.04
406.81	409.59
407.00	430.66
407.20	395.55
407.39	351.08
407.58	395.55
407.77	437.68
407.96	383.85
408.15	395.55
408.34	433.00
408.54	444.70
408.73	454.06
408.92	440.02
409.11	383.85
409.30	397.89
409.49	397.89
409.68	395.55
409.87	421.30
410.07	386.19
410.26	428.32
410.45	416.62
410.64	425.98
410.83	388.53
411.02	423.64
411.21	491.51
411.40	440.02
411.59	388.53
411.78	411.93
411.98	444.70
412.17	456.40
412.36	418.96
412.55	454.06
412.74	404.91
412.93	355.76
413.12	365.12
413.31	447.04
413.50	341.72
413.69	433.00
413.88	376.83
414.07	411.93
414.26	414.27
414.45	393.21
414.64	400.23
414.83	437.68
415.02	381.51
415.22	451.72
415.41	409.59
415.60	358.10
415.79	353.42
415.98	404.91
416.17	409.59
416.36	381.51
416.55	369.80
416.74	430.66
416.93	423.64
417.12	428.32
417.31	397.89
417.50	425.98
417.69	374.49
417.88	393.21
418.07	414.27
418.26	451.72
418.45	402.57
418.64	390.87
418.83	374.49
419.02	489.17
419.21	397.89
419.39	360.44
419.58	411.93
419.77	409.59
419.96	425.98
420.15	407.25
420.34	414.27
420.53	521.94
420.72	374.49
420.91	423.64
421.10	411.93
421.29	421.30
421.48	449.38
421.67	374.49
421.86	369.80
422.05	423.64
422.24	440.02
422.43	400.23
422.61	397.89
422.80	456.40
422.99	381.51
423.18	383.85
423.37	440.02
423.56	444.70
423.75	421.30
423.94	369.80
424.13	388.53
424.32	386.19
424.50	362.78
424.69	346.40
424.88	468.11
425.07	442.36
425.26	486.83
425.45	416.62
425.64	414.27
425.83	360.44
426.01	447.04
426.20	355.76
426.39	379.17
426.58	423.64
426.77	395.55
426.96	388.53
427.15	444.70
427.33	367.46
427.52	400.23
427.71	442.36
427.90	400.23
428.09	428.32
428.28	388.53
428.46	379.17
428.65	372.15
428.84	404.91
429.03	465.77
429.22	411.93
429.40	386.19
429.59	411.93
429.78	390.87
429.97	447.04
430.16	418.96
430.34	486.83
430.53	454.06
430.72	418.96
430.91	390.87
431.10	386.19
431.28	437.68
431.47	456.40
431.66	404.91
431.85	418.96
432.03	332.36
432.22	428.32
432.41	372.15
432.60	463.43
432.79	428.32
432.97	409.59
433.16	388.53
433.35	440.02
433.54	440.02
433.72	454.06
433.91	435.34
434.10	365.12
434.28	320.65
434.47	393.21
434.66	348.74
434.85	416.62
435.03	465.77
435.22	416.62
435.41	421.30
435.59	440.02
435.78	409.59
435.97	400.23
436.16	372.15
436.34	463.43
436.53	395.55
436.72	458.74
436.90	440.02
437.09	447.04
437.28	454.06
437.46	444.70
437.65	414.27
437.84	358.10
438.02	395.55
438.21	463.43
438.40	421.30
438.58	489.17
438.77	456.40
438.96	430.66
439.14	468.11
439.33	472.79
439.52	449.38
439.70	367.46
439.89	404.91
440.08	456.40
440.26	447.04
440.45	493.85
440.63	449.38
440.82	404.91
441.01	390.87
441.19	472.79
441.38	517.26
441.57	379.17
441.75	437.68
441.94	355.76
442.12	423.64
442.31	411.93
442.50	416.62
442.68	421.30
442.87	416.62
443.05	404.91
443.24	428.32
443.43	425.98
443.61	418.96
443.80	353.42
443.98	402.57
444.17	496.19
444.35	376.83
444.54	437.68
444.73	372.15
444.91	402.57
445.10	346.40
445.28	400.23
445.47	421.30
445.65	395.55
445.84	425.98
446.02	416.62
446.21	440.02
446.39	433.00
446.58	362.78
446.77	451.72
446.95	383.85
447.14	421.30
447.32	470.45
447.51	362.78
447.69	421.30
447.88	407.25
448.06	440.02
448.25	425.98
448.43	425.98
448.62	416.62
448.80	482.15
448.99	444.70
449.17	451.72
449.36	416.62
449.54	444.70
449.73	390.87
449.91	402.57
450.10	376.83
450.28	451.72
450.46	447.04
450.65	423.64
450.83	393.21
451.02	362.78
451.20	365.12
451.39	482.15
451.57	404.91
451.76	486.83
451.94	341.72
452.13	421.30
452.31	388.53
452.49	456.40
452.68	411.93
452.86	383.85
453.05	393.21
453.23	447.04
453.42	393.21
453.60	383.85
453.78	386.19
453.97	379.17
454.15	383.85
454.34	390.87
454.52	358.10
454.70	386.19
454.89	430.66
455.07	388.53
455.26	465.77
455.44	510.24
455.62	416.62
455.81	449.38
455.99	414.27
456.17	430.66
456.36	388.53
456.54	407.25
456.73	367.46
456.91	397.89
457.09	437.68
457.28	449.38
457.46	449.38
457.64	454.06
457.83	428.32
458.01	358.10
458.19	416.62
458.38	440.02
458.56	428.32
458.74	402.57
458.93	454.06
459.11	383.85
459.29	472.79
459.48	451.72
459.66	472.79
459.84	425.98
460.03	505.56
460.21	409.59
460.39	383.85
460.57	404.91
460.76	425.98
460.94	386.19
461.12	423.64
461.31	463.43
461.49	463.43
461.67	395.55
461.85	409.59
462.04	395.55
462.22	770.04
462.40	386.19
462.59	421.30
462.77	358.10
462.95	440.02
463.13	348.74
463.32	404.91
463.50	425.98
463.68	390.87
463.86	381.51
464.05	369.80
464.23	456.40
464.41	456.40
464.59	444.70
464.78	355.76
464.96	416.62
465.14	418.96
465.32	407.25
465.50	458.74
465.69	376.83
465.87	414.27
466.05	407.25
466.23	486.83
466.41	379.17
466.60	442.36
466.78	411.93
466.96	346.40
467.14	404.91
467.32	404.91
467.51	362.78
467.69	374.49
467.87	472.79
468.05	465.77
468.23	505.56
468.41	430.66
468.60	437.68
468.78	463.43
468.96	367.46
469.14	437.68
469.32	430.66
469.50	418.96
469.69	381.51
469.87	435.34
470.05	503.22
470.23	409.59
470.41	428.32
470.59	348.74
470.77	402.57
470.95	386.19
471.14	435.34
471.32	388.53
471.50	451.72
471.68	421.30
471.86	367.46
472.04	400.23
472.22	409.59
472.40	400.23
472.58	358.10
472.77	367.46
472.95	397.89
473.13	407.25
473.31	383.85
473.49	358.10
473.67	379.17
473.85	407.25
474.03	393.21
474.21	458.74
474.39	465.77
474.57	454.06
474.75	379.17
474.93	397.89
475.12	458.74
475.30	386.19
475.48	440.02
475.66	465.77
475.84	393.21
476.02	390.87
476.20	444.70
476.38	353.42
476.56	442.36
476.74	475.13
476.92	468.11
477.10	372.15
477.28	428.32
477.46	463.43
477.64	383.85
477.82	440.02
478.00	367.46
478.18	440.02
478.36	369.80
478.54	423.64
478.72	409.59
478.90	376.83
479.08	418.96
479.26	440.02
479.44	416.62
479.62	320.65
479.80	395.55
479.98	428.32
480.16	376.83
480.34	477.47
480.52	510.24
480.70	423.64
480.88	369.80
481.06	447.04
481.24	407.25
481.41	379.17
481.59	409.59
481.77	407.25
481.95	442.36
482.13	390.87
482.31	390.87
482.49	400.23
482.67	465.77
482.85	447.04
483.03	402.57
483.21	372.15
483.39	421.30
483.57	440.02
483.74	402.57
483.92	372.15
484.10	376.83
484.28	416.62
484.46	402.57
484.64	376.83
484.82	400.23
485.00	397.89
485.18	374.49
485.35	409.59
485.53	402.57
485.71	444.70
485.89	383.85
486.07	353.42
486.25	458.74
486.43	484.49
486.61	379.17
486.78	479.81
486.96	428.32
487.14	393.21
487.32	348.74
487.50	416.62
487.68	390.87
487.85	461.09
488.03	409.59
488.21	500.87
488.39	407.25
488.57	447.04
488.75	414.27
488.92	414.27
489.10	344.06
489.28	437.68
489.46	430.66
489.64	458.74
489.81	390.87
489.99	383.85
490.17	355.76
490.35	463.43
490.53	423.64
490.70	339.38
490.88	498.53
491.06	416.62
491.24	416.62
491.41	482.15
491.59	404.91
491.77	454.06
491.95	404.91
492.13	440.02
492.30	414.27
492.48	367.46
492.66	358.10
492.84	414.27
493.01	425.98
493.19	355.76
493.37	425.98
493.54	477.47
493.72	418.96
493.90	369.80
494.08	395.55
494.25	463.43
494.43	470.45
494.61	435.34
494.79	390.87
494.96	404.91
495.14	365.12
495.32	379.17
495.49	400.23
495.67	425.98
495.85	442.36
496.02	456.40
496.20	521.94
496.38	463.43
496.55	456.40
496.73	322.99
496.91	365.12
497.09	376.83
497.26	365.12
497.44	425.98
497.62	402.57
497.79	390.87
497.97	456.40
498.14	400.23
498.32	416.62
498.50	475.13
498.67	404.91
498.85	409.59
499.03	386.19
499.20	430.66
499.38	421.30
499.56	414.27
499.73	498.53
499.91	400.23
500.08	454.06
500.26	407.25
500.44	465.77
500.61	327.68
500.79	374.49
500.97	428.32
501.14	444.70
501.32	365.12
501.49	521.94
501.67	409.59
501.84	482.15
502.02	386.19
502.20	470.45
502.37	418.96
502.55	407.25
502.72	428.32
502.90	437.68
503.07	475.13
503.25	423.64
503.43	376.83
503.60	365.12
503.78	416.62
503.95	498.53
504.13	416.62
504.30	454.06
504.48	407.25
504.65	400.23
504.83	458.74
505.01	348.74
505.18	440.02
505.36	451.72
505.53	400.23
505.71	449.38
505.88	477.47
506.06	418.96
506.23	425.98
506.41	454.06
506.58	425.98
506.76	351.08
506.93	411.93
507.11	454.06
507.28	383.85
507.46	402.57
507.63	458.74
507.81	393.21
507.98	409.59
508.16	327.68
508.33	367.46
508.50	477.47
508.68	482.15
508.85	416.62
509.03	400.23
509.20	388.53
509.38	379.17
509.55	442.36
509.73	458.74
509.90	468.11
510.08	355.76
510.25	423.64
510.42	428.32
510.60	379.17
510.77	372.15
510.95	435.34
511.12	395.55
511.30	395.55
511.47	402.57
511.64	414.27
511.82	468.11
511.99	348.74
512.17	444.70
512.34	297.25
512.51	393.21
512.69	411.93
512.86	491.51
513.04	421.30
513.21	500.87
513.38	437.68
513.56	362.78
513.73	327.68
513.90	444.70
514.08	367.46
514.25	416.62
514.43	430.66
514.60	418.96
514.77	379.17
514.95	372.15
515.12	390.87
515.29	484.49
515.47	397.89
515.64	472.79
515.81	451.72
515.99	440.02
516.16	407.25
516.33	409.59
516.51	454.06
516.68	433.00
516.85	458.74
517.03	409.59
517.20	337.04
517.37	358.10
517.54	404.91
517.72	383.85
517.89	442.36
518.06	456.40
518.24	381.51
518.41	395.55
518.58	416.62
518.75	416.62
518.93	468.11
519.10	386.19
519.27	440.02
519.45	444.70
519.62	404.91
519.79	458.74
519.96	444.70
520.14	437.68
520.31	456.40
520.48	456.40
520.65	374.49
520.83	472.79
521.00	395.55
521.17	430.66
521.34	428.32
521.52	433.00
521.69	440.02
521.86	395.55
522.03	435.34
522.20	435.34
522.38	442.36
522.55	386.19
522.72	404.91
522.89	479.81
523.07	425.98
523.24	418.96
523.41	493.85
523.58	400.23
523.75	362.78
523.92	416.62
524.10	428.32
524.27	440.02
524.44	433.00
524.61	381.51
524.78	440.02
524.96	421.30
525.13	409.59
525.30	365.12
525.47	430.66
525.64	444.70
525.81	444.70
525.98	407.25
526.16	390.87
526.33	402.57
526.50	407.25
526.67	479.81
526.84	465.77
527.01	365.12
527.18	458.74
527.36	376.83
527.53	435.34
527.70	402.57
527.87	388.53
528.04	496.19
528.21	395.55
528.38	404.91
528.55	397.89
528.72	454.06
528.89	461.09
529.07	402.57
529.24	423.64
529.41	482.15
529.58	390.87
529.75	418.96
529.92	416.62
530.09	390.87
530.26	411.93
530.43	372.15
530.60	362.78
530.77	379.17
530.94	435.34
531.11	461.09
531.28	456.40
531.46	463.43
531.63	454.06
531.80	437.68
531.97	433.00
532.14	404.91
532.31	491.51
532.48	493.85
532.65	400.23
532.82	381.51
532.99	421.30
533.16	425.98
533.33	374.49
533.50	430.66
533.67	435.34
533.84	425.98
534.01	407.25
534.18	346.40
534.35	428.32
534.52	372.15
534.69	463.43
534.86	409.59
535.03	365.12
535.20	381.51
535.37	465.77
535.54	402.57
535.71	449.38
535.88	416.62
536.05	369.80
536.22	404.91
536.38	411.93
536.55	381.51
536.72	423.64
536.89	447.04
537.06	383.85
537.23	421.30
537.40	470.45
537.57	451.72
537.74	435.34
537.91	472.79
538.08	435.34
538.25	435.34
538.42	409.59
538.59	404.91
538.75	418.96
538.92	369.80
539.09	351.08
539.26	402.57
539.43	393.21
539.60	416.62
539.77	416.62
539.94	456.40
540.11	442.36
540.28	491.51
540.44	491.51
540.61	437.68
540.78	395.55
540.95	381.51
541.12	470.45
541.29	351.08
541.46	440.02
541.62	421.30
541.79	395.55
541.96	379.17
542.13	416.62
542.30	418.96
542.47	477.47
542.63	423.64
542.80	411.93
542.97	479.81
543.14	386.19
543.31	498.53
543.48	369.80
543.64	454.06
543.81	479.81
543.98	388.53
544.15	379.17
544.32	346.40
544.48	416.62
544.65	442.36
544.82	428.32
544.99	447.04
545.16	369.80
545.32	404.91
545.49	407.25
545.66	407.25
545.83	365.12
546.00	470.45
546.16	507.90
546.33	416.62
546.50	421.30
546.67	404.91
546.83	414.27
547.00	458.74
547.17	374.49
547.34	346.40
547.50	421.30
547.67	449.38
547.84	358.10
548.00	430.66
548.17	414.27
548.34	470.45
548.51	454.06
548.67	430.66
548.84	433.00
549.01	409.59
549.18	383.85
549.34	451.72
549.51	477.47
549.68	421.30
549.84	409.59
550.01	402.57
550.18	491.51
550.34	505.56
550.51	447.04
550.68	531.30
550.84	449.38
551.01	472.79
551.18	409.59
551.34	444.70
551.51	479.81
551.68	447.04
551.84	477.47
552.01	465.77
552.18	379.17
552.34	397.89
552.51	400.23
552.68	444.70
552.84	397.89
553.01	465.77
553.18	433.00
553.34	430.66
553.51	433.00
553.67	421.30
553.84	330.02
554.01	458.74
554.17	465.77
554.34	414.27
554.51	404.91
554.67	393.21
554.84	440.02
555.00	383.85
555.17	496.19
555.33	437.68
555.50	395.55
555.67	418.96
555.83	351.08
556.00	372.15
556.16	526.62
556.33	479.81
556.50	341.72
556.66	461.09
556.83	437.68
556.99	463.43
557.16	393.21
557.32	379.17
557.49	393.21
557.65	411.93
557.82	456.40
557.98	479.81
558.15	334.70
558.32	397.89
558.48	491.51
558.65	388.53
558.81	425.98
558.98	402.57
559.14	381.51
559.31	390.87
559.47	435.34
559.64	395.55
559.80	383.85
559.97	414.27
560.13	449.38
560.30	397.89
560.46	465.77
560.63	402.57
560.79	397.89
560.96	430.66
561.12	416.62
561.29	358.10
561.45	386.19
561.61	383.85
561.78	472.79
561.94	393.21
562.11	451.72
562.27	479.81
562.44	379.17
562.60	444.70
562.77	468.11
562.93	514.92
563.10	355.76
563.26	430.66
563.42	404.91
563.59	397.89
563.75	386.19
563.92	433.00
564.08	421.30
564.24	430.66
564.41	489.17
564.57	386.19
564.74	346.40
564.90	404.91
565.07	418.96
565.23	404.91
565.39	390.87
565.56	503.22
565.72	437.68
565.88	404.91
566.05	428.32
566.21	369.80
566.38	416.62
566.54	311.29
566.70	383.85
566.87	482.15
567.03	402.57
567.19	390.87
567.36	440.02
567.52	423.64
567.68	440.02
567.85	442.36
568.01	365.12
568.17	383.85
568.34	449.38
568.50	425.98
568.66	468.11
568.83	437.68
568.99	379.17
569.15	447.04
569.32	397.89
569.48	397.89
569.64	468.11
569.81	430.66
569.97	388.53
570.13	383.85
570.30	411.93
570.46	402.57
570.62	367.46
570.78	475.13
570.95	414.27
571.11	437.68
571.27	472.79
571.43	393.21
571.60	454.06
571.76	526.62
571.92	425.98
572.09	374.49
572.25	388.53
572.41	383.85
572.57	400.23
572.74	404.91
572.90	468.11
573.06	437.68
573.22	402.57
573.38	421.30
573.55	395.55
573.71	475.13
573.87	397.89
574.03	390.87
574.20	383.85
574.36	383.85
574.52	411.93
574.68	411.93
574.84	428.32
575.01	428.32
575.17	409.59
575.33	395.55
575.49	484.49
575.65	442.36
575.82	505.56
575.98	435.34
576.14	397.89
576.30	383.85
576.46	400.23
576.62	411.93
576.79	367.46
576.95	456.40
577.11	423.64
577.27	383.85
577.43	409.59
577.59	435.34
577.75	449.38
577.92	433.00
578.08	376.83
578.24	383.85
578.40	407.25
578.56	463.43
578.72	421.30
578.88	468.11
579.04	395.55
579.21	465.77
579.37	376.83
579.53	346.40
579.69	430.66
579.85	423.64
580.01	454.06
580.17	374.49
580.33	423.64
580.49	454.06
580.65	430.66
580.82	447.04
580.98	440.02
581.14	341.72
581.30	472.79
581.46	456.40
581.62	388.53
581.78	461.09
581.94	465.77
582.10	395.55
582.26	376.83
582.42	437.68
582.58	437.68
582.74	379.17
582.90	390.87
583.06	461.09
583.22	454.06
583.38	397.89
583.54	400.23
583.70	428.32
583.86	425.98
584.02	379.17
584.18	409.59
584.34	442.36
584.50	409.59
584.66	451.72
584.82	395.55
584.98	400.23
585.14	442.36
585.30	409.59
585.46	388.53
585.62	388.53
585.78	444.70
585.94	425.98
586.10	379.17
586.26	423.64
586.42	456.40
586.58	418.96
586.74	430.66
586.90	390.87
587.06	353.42
587.22	435.34
587.38	418.96
587.54	367.46
587.70	407.25
587.86	470.45
588.02	402.57
588.18	433.00
588.34	376.83
588.49	397.89
588.65	376.83
588.81	411.93
588.97	433.00
589.13	475.13
589.29	442.36
589.45	414.27
589.61	437.68
589.77	433.00
589.93	395.55
590.08	376.83
590.24	322.99
590.40	428.32
590.56	365.12
590.72	388.53
590.88	423.64
591.04	430.66
591.20	435.34
591.35	484.49
591.51	428.32
591.67	407.25
591.83	386.19
591.99	456.40
592.15	358.10
592.31	393.21
592.46	421.30
592.62	442.36
592.78	517.26
592.94	287.89
593.10	416.62
593.26	425.98
593.41	383.85
593.57	372.15
593.73	437.68
593.89	463.43
594.05	414.27
594.20	400.23
594.36	435.34
594.52	400.23
594.68	442.36
594.84	440.02
594.99	409.59
595.15	456.40
595.31	493.85
595.47	458.74
595.62	463.43
595.78	430.66
595.94	414.27
596.10	379.17
596.25	437.68
596.41	358.10
596.57	433.00
596.73	407.25
596.88	472.79
597.04	402.57
597.20	374.49
597.36	425.98
597.51	433.00
597.67	418.96
597.83	444.70
597.99	407.25
598.14	463.43
598.30	418.96
598.46	425.98
598.61	465.77
598.77	423.64
598.93	367.46
599.09	411.93
599.24	440.02
599.40	465.77
599.56	386.19
599.71	449.38
599.87	383.85
600.03	414.27
600.18	407.25
600.34	400.23
600.50	489.17
600.65	381.51
600.81	454.06
600.97	334.70
601.12	407.25
601.28	348.74
601.44	365.12
601.59	423.64
601.75	428.32
601.91	409.59
602.06	414.27
602.22	531.30
602.37	482.15
602.53	425.98
602.69	444.70
602.84	465.77
603.00	428.32
603.16	379.17
603.31	428.32
603.47	444.70
603.62	325.33
603.78	369.80
603.94	346.40
604.09	421.30
604.25	397.89
604.40	433.00
604.56	327.68
604.71	393.21
604.87	463.43
605.03	425.98
605.18	362.78
605.34	414.27
605.49	418.96
605.65	442.36
605.80	390.87
605.96	447.04
606.12	390.87
606.27	416.62
606.43	379.17
606.58	514.92
606.74	416.62
606.89	421.30
607.05	477.47
607.20	416.62
607.36	428.32
607.51	386.19
607.67	416.62
607.82	411.93
607.98	416.62
608.13	454.06
608.29	414.27
608.44	444.70
608.60	433.00
608.75	423.64
608.91	393.21
609.06	454.06
609.22	397.89
609.37	414.27
609.53	416.62
609.68	367.46
609.84	454.06
609.99	444.70
610.15	404.91
