SpectraSuite Data File
++++++++++++++++++++++++++++++++++++
Date: Fri Oct 25 12:11:42 EDT 2013
User: price-jones
Dark Spectrum Present: No
Reference Spectrum Present: No
Number of Sampled Component Spectra: 1
Spectrometers: USB2+H05261
Integration Time (usec): 100000 (USB2+H05261)
Spectra Averaged: 1 (USB2+H05261)
Boxcar Smoothing: 0 (USB2+H05261)
Correct for Electrical Dark: No (USB2+H05261)
Strobe/Lamp Enabled: No (USB2+H05261)
Correct for Detector Non-linearity: No (USB2+H05261)
Correct for Stray Light: No (USB2+H05261)
Number of Pixels in Processed Spectrum: 2048
>>>>>Begin Processed Spectral Data<<<<<
365.73	241.08
365.92	241.08
366.12	241.08
366.32	243.42
366.52	238.73
366.72	290.23
366.91	243.42
367.11	238.73
367.31	264.48
367.51	271.50
367.70	222.35
367.90	255.12
368.10	271.50
368.30	273.84
368.49	264.48
368.69	243.42
368.89	217.67
369.09	241.08
369.28	327.68
369.48	273.84
369.68	201.29
369.87	234.05
370.07	250.44
370.27	353.42
370.47	351.08
370.66	276.18
370.86	297.25
371.06	374.49
371.25	430.66
371.45	404.91
371.65	383.85
371.84	353.42
372.04	414.27
372.24	402.57
372.44	283.20
372.63	386.19
372.83	383.85
373.03	358.10
373.22	428.32
373.42	416.62
373.62	379.17
373.81	423.64
374.01	409.59
374.21	430.66
374.40	437.68
374.60	430.66
374.79	479.81
374.99	444.70
375.19	369.80
375.38	435.34
375.58	369.80
375.78	484.49
375.97	435.34
376.17	447.04
376.37	393.21
376.56	475.13
376.76	390.87
376.95	353.42
377.15	463.43
377.35	362.78
377.54	393.21
377.74	353.42
377.93	423.64
378.13	376.83
378.33	458.74
378.52	402.57
378.72	423.64
378.91	407.25
379.11	430.66
379.31	388.53
379.50	388.53
379.70	397.89
379.89	428.32
380.09	454.06
380.28	409.59
380.48	418.96
380.68	376.83
380.87	344.06
381.07	435.34
381.26	423.64
381.46	388.53
381.65	416.62
381.85	463.43
382.04	360.44
382.24	435.34
382.43	475.13
382.63	395.55
382.83	372.15
383.02	425.98
383.22	489.17
383.41	362.78
383.61	402.57
383.80	440.02
384.00	386.19
384.19	369.80
384.39	437.68
384.58	390.87
384.78	472.79
384.97	440.02
385.17	470.45
385.36	411.93
385.56	423.64
385.75	395.55
385.95	395.55
386.14	472.79
386.34	409.59
386.53	433.00
386.72	381.51
386.92	308.95
387.11	388.53
387.31	418.96
387.50	379.17
387.70	393.21
387.89	351.08
388.09	372.15
388.28	397.89
388.48	367.46
388.67	449.38
388.86	486.83
389.06	369.80
389.25	346.40
389.45	421.30
389.64	393.21
389.84	454.06
390.03	341.72
390.22	353.42
390.42	418.96
390.61	376.83
390.81	374.49
391.00	372.15
391.19	475.13
391.39	409.59
391.58	402.57
391.78	423.64
391.97	348.74
392.16	444.70
392.36	442.36
392.55	425.98
392.75	372.15
392.94	430.66
393.13	423.64
393.33	351.08
393.52	430.66
393.71	437.68
393.91	346.40
394.10	386.19
394.29	365.12
394.49	376.83
394.68	358.10
394.88	447.04
395.07	489.17
395.26	390.87
395.46	425.98
395.65	390.87
395.84	444.70
396.04	491.51
396.23	411.93
396.42	416.62
396.62	456.40
396.81	451.72
397.00	367.46
397.19	444.70
397.39	344.06
397.58	416.62
397.77	414.27
397.97	379.17
398.16	362.78
398.35	447.04
398.55	451.72
398.74	360.44
398.93	362.78
399.12	407.25
399.32	428.32
399.51	318.31
399.70	461.09
399.90	411.93
400.09	433.00
400.28	465.77
400.47	437.68
400.67	435.34
400.86	423.64
401.05	449.38
401.24	339.38
401.44	388.53
401.63	416.62
401.82	416.62
402.01	381.51
402.21	395.55
402.40	369.80
402.59	397.89
402.78	437.68
402.97	411.93
403.17	395.55
403.36	376.83
403.55	416.62
403.74	407.25
403.93	386.19
404.13	428.32
404.32	425.98
404.51	390.87
404.70	388.53
404.89	409.59
405.09	465.77
405.28	475.13
405.47	369.80
405.66	409.59
405.85	472.79
406.05	496.19
406.24	379.17
406.43	395.55
406.62	421.30
406.81	554.71
407.00	531.30
407.20	435.34
407.39	430.66
407.58	395.55
407.77	409.59
407.96	407.25
408.15	369.80
408.34	421.30
408.54	397.89
408.73	362.78
408.92	374.49
409.11	486.83
409.30	404.91
409.49	447.04
409.68	411.93
409.87	468.11
410.07	322.99
410.26	416.62
410.45	430.66
410.64	414.27
410.83	416.62
411.02	400.23
411.21	430.66
411.40	411.93
411.59	395.55
411.78	442.36
411.98	404.91
412.17	400.23
412.36	320.65
412.55	404.91
412.74	451.72
412.93	437.68
413.12	393.21
413.31	411.93
413.50	454.06
413.69	428.32
413.88	456.40
414.07	372.15
414.26	367.46
414.45	381.51
414.64	372.15
414.83	381.51
415.02	411.93
415.22	468.11
415.41	465.77
415.60	425.98
415.79	482.15
415.98	383.85
416.17	442.36
416.36	451.72
416.55	346.40
416.74	409.59
416.93	388.53
417.12	425.98
417.31	388.53
417.50	414.27
417.69	470.45
417.88	451.72
418.07	353.42
418.26	411.93
418.45	428.32
418.64	505.56
418.83	418.96
419.02	397.89
419.21	351.08
419.39	362.78
419.58	388.53
419.77	369.80
419.96	421.30
420.15	465.77
420.34	440.02
420.53	428.32
420.72	416.62
420.91	301.93
421.10	393.21
421.29	435.34
421.48	463.43
421.67	390.87
421.86	362.78
422.05	390.87
422.24	388.53
422.43	463.43
422.61	421.30
422.80	465.77
422.99	414.27
423.18	337.04
423.37	409.59
423.56	435.34
423.75	482.15
423.94	411.93
424.13	437.68
424.32	325.33
424.50	341.72
424.69	379.17
424.88	400.23
425.07	409.59
425.26	475.13
425.45	423.64
425.64	358.10
425.83	463.43
426.01	418.96
426.20	365.12
426.39	393.21
426.58	341.72
426.77	395.55
426.96	362.78
427.15	430.66
427.33	437.68
427.52	465.77
427.71	444.70
427.90	402.57
428.09	463.43
428.28	360.44
428.46	393.21
428.65	437.68
428.84	461.09
429.03	379.17
429.22	477.47
429.40	397.89
429.59	430.66
429.78	440.02
429.97	372.15
430.16	456.40
430.34	425.98
430.53	360.44
430.72	414.27
430.91	409.59
431.10	437.68
431.28	376.83
431.47	397.89
431.66	444.70
431.85	346.40
432.03	447.04
432.22	463.43
432.41	491.51
432.60	437.68
432.79	421.30
432.97	435.34
433.16	379.17
433.35	425.98
433.54	414.27
433.72	353.42
433.91	510.24
434.10	433.00
434.28	381.51
434.47	425.98
434.66	465.77
434.85	414.27
435.03	425.98
435.22	402.57
435.41	479.81
435.59	404.91
435.78	395.55
435.97	468.11
436.16	423.64
436.34	498.53
436.53	395.55
436.72	465.77
436.90	491.51
437.09	386.19
437.28	365.12
437.46	414.27
437.65	468.11
437.84	423.64
438.02	470.45
438.21	367.46
438.40	407.25
438.58	454.06
438.77	393.21
438.96	400.23
439.14	386.19
439.33	437.68
439.52	411.93
439.70	407.25
439.89	468.11
440.08	440.02
440.26	437.68
440.45	470.45
440.63	437.68
440.82	458.74
441.01	430.66
441.19	397.89
441.38	414.27
441.57	421.30
441.75	416.62
441.94	416.62
442.12	482.15
442.31	416.62
442.50	421.30
442.68	376.83
442.87	369.80
443.05	400.23
443.24	339.38
443.43	386.19
443.61	458.74
443.80	510.24
443.98	386.19
444.17	416.62
444.35	472.79
444.54	444.70
444.73	390.87
444.91	374.49
445.10	421.30
445.28	407.25
445.47	365.12
445.65	456.40
445.84	486.83
446.02	414.27
446.21	404.91
446.39	388.53
446.58	470.45
446.77	423.64
446.95	358.10
447.14	404.91
447.32	395.55
447.51	418.96
447.69	451.72
447.88	461.09
448.06	428.32
448.25	351.08
448.43	477.47
448.62	421.30
448.80	397.89
448.99	433.00
449.17	341.72
449.36	463.43
449.54	486.83
449.73	388.53
449.91	402.57
450.10	449.38
450.28	447.04
450.46	477.47
450.65	353.42
450.83	440.02
451.02	451.72
451.20	442.36
451.39	409.59
451.57	425.98
451.76	341.72
451.94	491.51
452.13	479.81
452.31	470.45
452.49	416.62
452.68	374.49
452.86	465.77
453.05	496.19
453.23	444.70
453.42	360.44
453.60	463.43
453.78	386.19
453.97	358.10
454.15	395.55
454.34	358.10
454.52	451.72
454.70	451.72
454.89	381.51
455.07	437.68
455.26	440.02
455.44	461.09
455.62	395.55
455.81	416.62
455.99	388.53
456.17	348.74
456.36	428.32
456.54	372.15
456.73	472.79
456.91	400.23
457.09	411.93
457.28	390.87
457.46	435.34
457.64	451.72
457.83	369.80
458.01	428.32
458.19	458.74
458.38	397.89
458.56	393.21
458.74	369.80
458.93	416.62
459.11	395.55
459.29	425.98
459.48	423.64
459.66	416.62
459.84	376.83
460.03	538.32
460.21	407.25
460.39	411.93
460.57	479.81
460.76	444.70
460.94	374.49
461.12	433.00
461.31	411.93
461.49	451.72
461.67	409.59
461.85	486.83
462.04	376.83
462.22	781.74
462.40	489.17
462.59	451.72
462.77	400.23
462.95	435.34
463.13	428.32
463.32	461.09
463.50	423.64
463.68	418.96
463.86	425.98
464.05	451.72
464.23	421.30
464.41	435.34
464.59	397.89
464.78	395.55
464.96	407.25
465.14	444.70
465.32	386.19
465.50	379.17
465.69	430.66
465.87	414.27
466.05	388.53
466.23	402.57
466.41	409.59
466.60	388.53
466.78	390.87
466.96	437.68
467.14	416.62
467.32	425.98
467.51	486.83
467.69	435.34
467.87	472.79
468.05	379.17
468.23	482.15
468.41	395.55
468.60	397.89
468.78	397.89
468.96	437.68
469.14	402.57
469.32	393.21
469.50	414.27
469.69	397.89
469.87	414.27
470.05	369.80
470.23	428.32
470.41	416.62
470.59	351.08
470.77	470.45
470.95	402.57
471.14	507.90
471.32	484.49
471.50	505.56
471.68	407.25
471.86	433.00
472.04	433.00
472.22	433.00
472.40	360.44
472.58	409.59
472.77	386.19
472.95	435.34
473.13	400.23
473.31	477.47
473.49	416.62
473.67	418.96
473.85	458.74
474.03	374.49
474.21	379.17
474.39	433.00
474.57	484.49
474.75	381.51
474.93	369.80
475.12	388.53
475.30	437.68
475.48	437.68
475.66	451.72
475.84	400.23
476.02	383.85
476.20	407.25
476.38	428.32
476.56	496.19
476.74	332.36
476.92	423.64
477.10	402.57
477.28	456.40
477.46	346.40
477.64	421.30
477.82	414.27
478.00	430.66
478.18	393.21
478.36	311.29
478.54	327.68
478.72	440.02
478.90	442.36
479.08	358.10
479.26	388.53
479.44	397.89
479.62	400.23
479.80	423.64
479.98	454.06
480.16	367.46
480.34	440.02
480.52	393.21
480.70	381.51
480.88	348.74
481.06	404.91
481.24	383.85
481.41	435.34
481.59	437.68
481.77	428.32
481.95	425.98
482.13	507.90
482.31	428.32
482.49	421.30
482.67	421.30
482.85	430.66
483.03	414.27
483.21	447.04
483.39	402.57
483.57	428.32
483.74	353.42
483.92	437.68
484.10	383.85
484.28	437.68
484.46	440.02
484.64	393.21
484.82	358.10
485.00	367.46
485.18	409.59
485.35	449.38
485.53	433.00
485.71	482.15
485.89	414.27
486.07	411.93
486.25	428.32
486.43	472.79
486.61	430.66
486.78	461.09
486.96	383.85
487.14	400.23
487.32	381.51
487.50	407.25
487.68	388.53
487.85	386.19
488.03	362.78
488.21	374.49
488.39	416.62
488.57	465.77
488.75	393.21
488.92	486.83
489.10	379.17
489.28	407.25
489.46	428.32
489.64	404.91
489.81	365.12
489.99	421.30
490.17	374.49
490.35	496.19
490.53	440.02
490.70	444.70
490.88	472.79
491.06	332.36
491.24	440.02
491.41	414.27
491.59	489.17
491.77	402.57
491.95	484.49
492.13	418.96
492.30	454.06
492.48	461.09
492.66	376.83
492.84	365.12
493.01	430.66
493.19	470.45
493.37	454.06
493.54	503.22
493.72	353.42
493.90	369.80
494.08	397.89
494.25	430.66
494.43	437.68
494.61	390.87
494.79	421.30
494.96	442.36
495.14	423.64
495.32	393.21
495.49	456.40
495.67	442.36
495.85	397.89
496.02	374.49
496.20	409.59
496.38	409.59
496.55	393.21
496.73	458.74
496.91	379.17
497.09	435.34
497.26	435.34
497.44	416.62
497.62	386.19
497.79	463.43
497.97	425.98
498.14	428.32
498.32	430.66
498.50	482.15
498.67	379.17
498.85	397.89
499.03	496.19
499.20	416.62
499.38	442.36
499.56	433.00
499.73	454.06
499.91	416.62
500.08	456.40
500.26	421.30
500.44	423.64
500.61	425.98
500.79	430.66
500.97	379.17
501.14	428.32
501.32	409.59
501.49	416.62
501.67	409.59
501.84	414.27
502.02	367.46
502.20	381.51
502.37	332.36
502.55	451.72
502.72	379.17
502.90	458.74
503.07	425.98
503.25	400.23
503.43	355.76
503.60	374.49
503.78	433.00
503.95	365.12
504.13	465.77
504.30	435.34
504.48	393.21
504.65	425.98
504.83	411.93
505.01	411.93
505.18	367.46
505.36	461.09
505.53	360.44
505.71	381.51
505.88	451.72
506.06	437.68
506.23	472.79
506.41	465.77
506.58	430.66
506.76	381.51
506.93	390.87
507.11	409.59
507.28	346.40
507.46	367.46
507.63	400.23
507.81	447.04
507.98	381.51
508.16	334.70
508.33	433.00
508.50	468.11
508.68	425.98
508.85	451.72
509.03	306.61
509.20	433.00
509.38	341.72
509.55	458.74
509.73	465.77
509.90	411.93
510.08	362.78
510.25	430.66
510.42	456.40
510.60	423.64
510.77	430.66
510.95	402.57
511.12	428.32
511.30	435.34
511.47	430.66
511.64	430.66
511.82	475.13
511.99	440.02
512.17	428.32
512.34	444.70
512.51	397.89
512.69	379.17
512.86	510.24
513.04	409.59
513.21	374.49
513.38	421.30
513.56	454.06
513.73	395.55
513.90	379.17
514.08	414.27
514.25	416.62
514.43	437.68
514.60	400.23
514.77	498.53
514.95	435.34
515.12	491.51
515.29	433.00
515.47	407.25
515.64	400.23
515.81	402.57
515.99	397.89
516.16	447.04
516.33	386.19
516.51	425.98
516.68	400.23
516.85	379.17
517.03	465.77
517.20	489.17
517.37	376.83
517.54	362.78
517.72	346.40
517.89	322.99
518.06	407.25
518.24	383.85
518.41	433.00
518.58	407.25
518.75	383.85
518.93	341.72
519.10	393.21
519.27	425.98
519.45	430.66
519.62	449.38
519.79	418.96
519.96	386.19
520.14	388.53
520.31	465.77
520.48	442.36
520.65	428.32
520.83	442.36
521.00	468.11
521.17	461.09
521.34	416.62
521.52	397.89
521.69	407.25
521.86	414.27
522.03	444.70
522.20	400.23
522.38	435.34
522.55	479.81
522.72	376.83
522.89	395.55
523.07	447.04
523.24	376.83
523.41	390.87
523.58	379.17
523.75	423.64
523.92	397.89
524.10	451.72
524.27	468.11
524.44	500.87
524.61	454.06
524.78	428.32
524.96	409.59
525.13	433.00
525.30	458.74
525.47	435.34
525.64	421.30
525.81	397.89
525.98	461.09
526.16	390.87
526.33	374.49
526.50	332.36
526.67	390.87
526.84	386.19
527.01	423.64
527.18	386.19
527.36	433.00
527.53	430.66
527.70	379.17
527.87	372.15
528.04	411.93
528.21	395.55
528.38	418.96
528.55	430.66
528.72	425.98
528.89	454.06
529.07	430.66
529.24	404.91
529.41	433.00
529.58	418.96
529.75	374.49
529.92	451.72
530.09	463.43
530.26	456.40
530.43	414.27
530.60	381.51
530.77	386.19
530.94	440.02
531.11	461.09
531.28	461.09
531.46	383.85
531.63	428.32
531.80	393.21
531.97	421.30
532.14	447.04
532.31	395.55
532.48	454.06
532.65	383.85
532.82	437.68
532.99	365.12
533.16	386.19
533.33	421.30
533.50	341.72
533.67	386.19
533.84	444.70
534.01	409.59
534.18	435.34
534.35	440.02
534.52	433.00
534.69	404.91
534.86	402.57
535.03	372.15
535.20	365.12
535.37	435.34
535.54	416.62
535.71	444.70
535.88	440.02
536.05	451.72
536.22	346.40
536.38	475.13
536.55	428.32
536.72	402.57
536.89	425.98
537.06	498.53
537.23	421.30
537.40	365.12
537.57	379.17
537.74	351.08
537.91	428.32
538.08	423.64
538.25	414.27
538.42	489.17
538.59	472.79
538.75	486.83
538.92	327.68
539.09	383.85
539.26	397.89
539.43	468.11
539.60	470.45
539.77	440.02
539.94	358.10
540.11	407.25
540.28	369.80
540.44	388.53
540.61	428.32
540.78	454.06
540.95	472.79
541.12	353.42
541.29	454.06
541.46	477.47
541.62	428.32
541.79	444.70
541.96	409.59
542.13	435.34
542.30	393.21
542.47	454.06
542.63	397.89
542.80	409.59
542.97	360.44
543.14	376.83
543.31	435.34
543.48	372.15
543.64	440.02
543.81	414.27
543.98	430.66
544.15	428.32
544.32	456.40
544.48	458.74
544.65	465.77
544.82	421.30
544.99	472.79
545.16	402.57
545.32	479.81
545.49	437.68
545.66	428.32
545.83	362.78
546.00	435.34
546.16	367.46
546.33	388.53
546.50	440.02
546.67	362.78
546.83	423.64
547.00	475.13
547.17	449.38
547.34	404.91
547.50	411.93
547.67	362.78
547.84	353.42
548.00	423.64
548.17	435.34
548.34	428.32
548.51	411.93
548.67	409.59
548.84	479.81
549.01	407.25
549.18	461.09
549.34	465.77
549.51	322.99
549.68	372.15
549.84	461.09
550.01	447.04
550.18	543.00
550.34	411.93
550.51	442.36
550.68	388.53
550.84	404.91
551.01	409.59
551.18	444.70
551.34	465.77
551.51	388.53
551.68	388.53
551.84	461.09
552.01	348.74
552.18	411.93
552.34	428.32
552.51	407.25
552.68	437.68
552.84	355.76
553.01	456.40
553.18	510.24
553.34	425.98
553.51	372.15
553.67	430.66
553.84	442.36
554.01	421.30
554.17	407.25
554.34	421.30
554.51	397.89
554.67	409.59
554.84	353.42
555.00	395.55
555.17	482.15
555.33	479.81
555.50	477.47
555.67	477.47
555.83	386.19
556.00	428.32
556.16	566.41
556.33	458.74
556.50	334.70
556.66	372.15
556.83	409.59
556.99	341.72
557.16	463.43
557.32	393.21
557.49	388.53
557.65	468.11
557.82	402.57
557.98	400.23
558.15	390.87
558.32	433.00
558.48	397.89
558.65	402.57
558.81	397.89
558.98	416.62
559.14	425.98
559.31	402.57
559.47	369.80
559.64	402.57
559.80	308.95
559.97	423.64
560.13	409.59
560.30	416.62
560.46	463.43
560.63	425.98
560.79	409.59
560.96	404.91
561.12	468.11
561.29	440.02
561.45	395.55
561.61	348.74
561.78	444.70
561.94	404.91
562.11	411.93
562.27	304.27
562.44	404.91
562.60	482.15
562.77	449.38
562.93	482.15
563.10	379.17
563.26	409.59
563.42	409.59
563.59	388.53
563.75	470.45
563.92	449.38
564.08	444.70
564.24	444.70
564.41	404.91
564.57	388.53
564.74	430.66
564.90	409.59
565.07	449.38
565.23	425.98
565.39	358.10
565.56	454.06
565.72	451.72
565.88	449.38
566.05	393.21
566.21	379.17
566.38	463.43
566.54	388.53
566.70	468.11
566.87	433.00
567.03	397.89
567.19	479.81
567.36	397.89
567.52	393.21
567.68	407.25
567.85	358.10
568.01	433.00
568.17	386.19
568.34	500.87
568.50	433.00
568.66	395.55
568.83	433.00
568.99	346.40
569.15	486.83
569.32	388.53
569.48	416.62
569.64	451.72
569.81	458.74
569.97	416.62
570.13	451.72
570.30	374.49
570.46	425.98
570.62	409.59
570.78	393.21
570.95	362.78
571.11	423.64
571.27	475.13
571.43	454.06
571.60	425.98
571.76	449.38
571.92	489.17
572.09	418.96
572.25	463.43
572.41	428.32
572.57	449.38
572.74	486.83
572.90	435.34
573.06	449.38
573.22	369.80
573.38	402.57
573.55	449.38
573.71	425.98
573.87	395.55
574.03	421.30
574.20	393.21
574.36	458.74
574.52	421.30
574.68	451.72
574.84	346.40
575.01	416.62
575.17	397.89
575.33	440.02
575.49	404.91
575.65	400.23
575.82	374.49
575.98	437.68
576.14	425.98
576.30	379.17
576.46	369.80
576.62	449.38
576.79	500.87
576.95	365.12
577.11	428.32
577.27	365.12
577.43	437.68
577.59	456.40
577.75	437.68
577.92	418.96
578.08	395.55
578.24	449.38
578.40	416.62
578.56	475.13
578.72	498.53
578.88	367.46
579.04	397.89
579.21	482.15
579.37	425.98
579.53	393.21
579.69	404.91
579.85	425.98
580.01	433.00
580.17	369.80
580.33	365.12
580.49	521.94
580.65	461.09
580.82	493.85
580.98	433.00
581.14	428.32
581.30	447.04
581.46	425.98
581.62	468.11
581.78	369.80
581.94	433.00
582.10	411.93
582.26	470.45
582.42	463.43
582.58	533.64
582.74	418.96
582.90	428.32
583.06	400.23
583.22	355.76
583.38	346.40
583.54	447.04
583.70	449.38
583.86	397.89
584.02	376.83
584.18	444.70
584.34	400.23
584.50	372.15
584.66	381.51
584.82	362.78
584.98	486.83
585.14	416.62
585.30	463.43
585.46	395.55
585.62	454.06
585.78	400.23
585.94	379.17
586.10	440.02
586.26	479.81
586.42	437.68
586.58	358.10
586.74	369.80
586.90	322.99
587.06	444.70
587.22	451.72
587.38	346.40
587.54	404.91
587.70	433.00
587.86	440.02
588.02	376.83
588.18	454.06
588.34	386.19
588.49	372.15
588.65	327.68
588.81	461.09
588.97	428.32
589.13	395.55
589.29	456.40
589.45	463.43
589.61	418.96
589.77	416.62
589.93	425.98
590.08	423.64
590.24	423.64
590.40	449.38
590.56	493.85
590.72	381.51
590.88	423.64
591.04	390.87
591.20	430.66
591.35	411.93
591.51	327.68
591.67	430.66
591.83	355.76
591.99	456.40
592.15	451.72
592.31	372.15
592.46	383.85
592.62	493.85
592.78	367.46
592.94	437.68
593.10	435.34
593.26	369.80
593.41	411.93
593.57	425.98
593.73	414.27
593.89	489.17
594.05	402.57
594.20	451.72
594.36	447.04
594.52	428.32
594.68	374.49
594.84	402.57
594.99	456.40
595.15	416.62
595.31	395.55
595.47	376.83
595.62	346.40
595.78	449.38
595.94	489.17
596.10	465.77
596.25	437.68
596.41	388.53
596.57	404.91
596.73	418.96
596.88	468.11
597.04	435.34
597.20	416.62
597.36	421.30
597.51	397.89
597.67	440.02
597.83	409.59
597.99	470.45
598.14	461.09
598.30	517.26
598.46	433.00
598.61	512.58
598.77	425.98
598.93	437.68
599.09	411.93
599.24	437.68
599.40	425.98
599.56	400.23
599.71	381.51
599.87	472.79
600.03	393.21
600.18	411.93
600.34	477.47
600.50	444.70
600.65	433.00
600.81	435.34
600.97	362.78
601.12	355.76
601.28	437.68
601.44	440.02
601.59	351.08
601.75	430.66
601.91	383.85
602.06	416.62
602.22	477.47
602.37	411.93
602.53	414.27
602.69	444.70
602.84	447.04
603.00	407.25
603.16	470.45
603.31	484.49
603.47	435.34
603.62	348.74
603.78	456.40
603.94	470.45
604.09	423.64
604.25	393.21
604.40	444.70
604.56	367.46
604.71	390.87
604.87	435.34
605.03	425.98
605.18	416.62
605.34	454.06
605.49	353.42
605.65	353.42
605.80	407.25
605.96	428.32
606.12	411.93
606.27	493.85
606.43	454.06
606.58	449.38
606.74	367.46
606.89	442.36
607.05	435.34
607.20	458.74
607.36	411.93
607.51	339.38
607.67	498.53
607.82	465.77
607.98	512.58
608.13	414.27
608.29	470.45
608.44	491.51
608.60	360.44
608.75	425.98
608.91	433.00
609.06	461.09
609.22	435.34
609.37	404.91
609.53	400.23
609.68	407.25
609.84	376.83
609.99	369.80
610.15	334.70
