SpectraSuite Data File
++++++++++++++++++++++++++++++++++++
Date: Fri Oct 25 12:10:22 EDT 2013
User: price-jones
Dark Spectrum Present: No
Reference Spectrum Present: No
Number of Sampled Component Spectra: 1
Spectrometers: USB2+H05261
Integration Time (usec): 100000 (USB2+H05261)
Spectra Averaged: 1 (USB2+H05261)
Boxcar Smoothing: 0 (USB2+H05261)
Correct for Electrical Dark: No (USB2+H05261)
Strobe/Lamp Enabled: No (USB2+H05261)
Correct for Detector Non-linearity: No (USB2+H05261)
Correct for Stray Light: No (USB2+H05261)
Number of Pixels in Processed Spectrum: 2048
>>>>>Begin Processed Spectral Data<<<<<
365.73	330.02
365.92	330.02
366.12	330.02
366.32	299.59
366.52	208.31
366.72	222.35
366.91	285.55
367.11	294.91
367.31	215.33
367.51	215.33
367.70	269.16
367.90	220.01
368.10	248.10
368.30	252.78
368.49	287.89
368.69	248.10
368.89	217.67
369.09	252.78
369.28	266.82
369.48	229.37
369.68	337.04
369.87	276.18
370.07	257.46
370.27	276.18
370.47	283.20
370.66	301.93
370.86	313.63
371.06	334.70
371.25	367.46
371.45	428.32
371.65	374.49
371.84	379.17
372.04	365.12
372.24	355.76
372.44	346.40
372.63	447.04
372.83	414.27
373.03	365.12
373.22	348.74
373.42	437.68
373.62	437.68
373.81	433.00
374.01	409.59
374.21	491.51
374.40	411.93
374.60	477.47
374.79	428.32
374.99	393.21
375.19	397.89
375.38	461.09
375.58	353.42
375.78	402.57
375.97	376.83
376.17	465.77
376.37	430.66
376.56	393.21
376.76	451.72
376.95	362.78
377.15	402.57
377.35	451.72
377.54	372.15
377.74	390.87
377.93	484.49
378.13	407.25
378.33	451.72
378.52	404.91
378.72	442.36
378.91	388.53
379.11	369.80
379.31	379.17
379.50	407.25
379.70	442.36
379.89	351.08
380.09	433.00
380.28	449.38
380.48	428.32
380.68	351.08
380.87	334.70
381.07	395.55
381.26	479.81
381.46	435.34
381.65	447.04
381.85	360.44
382.04	404.91
382.24	390.87
382.43	397.89
382.63	444.70
382.83	416.62
383.02	369.80
383.22	411.93
383.41	449.38
383.61	372.15
383.80	440.02
384.00	407.25
384.19	367.46
384.39	400.23
384.58	400.23
384.78	409.59
384.97	367.46
385.17	458.74
385.36	386.19
385.56	421.30
385.75	388.53
385.95	393.21
386.14	407.25
386.34	454.06
386.53	423.64
386.72	297.25
386.92	433.00
387.11	414.27
387.31	360.44
387.50	379.17
387.70	414.27
387.89	351.08
388.09	409.59
388.28	423.64
388.48	351.08
388.67	423.64
388.86	390.87
389.06	442.36
389.25	353.42
389.45	400.23
389.64	379.17
389.84	482.15
390.03	381.51
390.22	400.23
390.42	440.02
390.61	456.40
390.81	414.27
391.00	449.38
391.19	433.00
391.39	362.78
391.58	358.10
391.78	402.57
391.97	451.72
392.16	414.27
392.36	407.25
392.55	351.08
392.75	461.09
392.94	369.80
393.13	390.87
393.33	407.25
393.52	390.87
393.71	447.04
393.91	362.78
394.10	344.06
394.29	411.93
394.49	339.38
394.68	362.78
394.88	369.80
395.07	334.70
395.26	458.74
395.46	463.43
395.65	447.04
395.84	416.62
396.04	475.13
396.23	358.10
396.42	393.21
396.62	482.15
396.81	411.93
397.00	330.02
397.19	397.89
397.39	475.13
397.58	437.68
397.77	409.59
397.97	374.49
398.16	379.17
398.35	437.68
398.55	381.51
398.74	365.12
398.93	379.17
399.12	421.30
399.32	433.00
399.51	416.62
399.70	404.91
399.90	463.43
400.09	353.42
400.28	395.55
400.47	440.02
400.67	437.68
400.86	402.57
401.05	458.74
401.24	425.98
401.44	447.04
401.63	376.83
401.82	461.09
402.01	414.27
402.21	383.85
402.40	421.30
402.59	346.40
402.78	433.00
402.97	444.70
403.17	418.96
403.36	411.93
403.55	346.40
403.74	428.32
403.93	404.91
404.13	409.59
404.32	407.25
404.51	390.87
404.70	365.12
404.89	367.46
405.09	411.93
405.28	381.51
405.47	383.85
405.66	395.55
405.85	376.83
406.05	360.44
406.24	423.64
406.43	393.21
406.62	435.34
406.81	449.38
407.00	344.06
407.20	376.83
407.39	425.98
407.58	425.98
407.77	470.45
407.96	411.93
408.15	388.53
408.34	393.21
408.54	402.57
408.73	390.87
408.92	367.46
409.11	383.85
409.30	404.91
409.49	388.53
409.68	395.55
409.87	425.98
410.07	367.46
410.26	402.57
410.45	407.25
410.64	423.64
410.83	447.04
411.02	407.25
411.21	397.89
411.40	355.76
411.59	395.55
411.78	348.74
411.98	374.49
412.17	454.06
412.36	367.46
412.55	334.70
412.74	407.25
412.93	465.77
413.12	454.06
413.31	475.13
413.50	437.68
413.69	344.06
413.88	372.15
414.07	461.09
414.26	479.81
414.45	369.80
414.64	393.21
414.83	367.46
415.02	409.59
415.22	395.55
415.41	451.72
415.60	381.51
415.79	435.34
415.98	397.89
416.17	400.23
416.36	496.19
416.55	430.66
416.74	365.12
416.93	421.30
417.12	339.38
417.31	416.62
417.50	383.85
417.69	451.72
417.88	369.80
418.07	428.32
418.26	440.02
418.45	442.36
418.64	367.46
418.83	341.72
419.02	395.55
419.21	454.06
419.39	386.19
419.58	369.80
419.77	486.83
419.96	428.32
420.15	393.21
420.34	386.19
420.53	379.17
420.72	404.91
420.91	379.17
421.10	390.87
421.29	400.23
421.48	414.27
421.67	372.15
421.86	409.59
422.05	376.83
422.24	395.55
422.43	442.36
422.61	470.45
422.80	322.99
422.99	447.04
423.18	374.49
423.37	372.15
423.56	376.83
423.75	397.89
423.94	334.70
424.13	404.91
424.32	388.53
424.50	430.66
424.69	440.02
424.88	437.68
425.07	400.23
425.26	414.27
425.45	442.36
425.64	355.76
425.83	454.06
426.01	425.98
426.20	437.68
426.39	402.57
426.58	376.83
426.77	404.91
426.96	421.30
427.15	379.17
427.33	414.27
427.52	393.21
427.71	379.17
427.90	330.02
428.09	348.74
428.28	411.93
428.46	433.00
428.65	395.55
428.84	470.45
429.03	444.70
429.22	470.45
429.40	365.12
429.59	351.08
429.78	334.70
429.97	365.12
430.16	447.04
430.34	425.98
430.53	411.93
430.72	400.23
430.91	468.11
431.10	372.15
431.28	418.96
431.47	461.09
431.66	388.53
431.85	456.40
432.03	531.30
432.22	421.30
432.41	395.55
432.60	393.21
432.79	400.23
432.97	393.21
433.16	477.47
433.35	367.46
433.54	400.23
433.72	409.59
433.91	505.56
434.10	416.62
434.28	379.17
434.47	411.93
434.66	423.64
434.85	437.68
435.03	409.59
435.22	414.27
435.41	447.04
435.59	463.43
435.78	437.68
435.97	369.80
436.16	418.96
436.34	472.79
436.53	472.79
436.72	449.38
436.90	390.87
437.09	404.91
437.28	423.64
437.46	351.08
437.65	369.80
437.84	425.98
438.02	379.17
438.21	397.89
438.40	393.21
438.58	395.55
438.77	414.27
438.96	425.98
439.14	355.76
439.33	451.72
439.52	411.93
439.70	435.34
439.89	444.70
440.08	367.46
440.26	334.70
440.45	428.32
440.63	353.42
440.82	308.95
441.01	365.12
441.19	397.89
441.38	414.27
441.57	397.89
441.75	540.66
441.94	458.74
442.12	402.57
442.31	428.32
442.50	400.23
442.68	390.87
442.87	372.15
443.05	435.34
443.24	414.27
443.43	383.85
443.61	407.25
443.80	393.21
443.98	388.53
444.17	416.62
444.35	365.12
444.54	388.53
444.73	360.44
444.91	372.15
445.10	372.15
445.28	409.59
445.47	437.68
445.65	362.78
445.84	381.51
446.02	425.98
446.21	433.00
446.39	411.93
446.58	435.34
446.77	395.55
446.95	447.04
447.14	442.36
447.32	393.21
447.51	496.19
447.69	414.27
447.88	447.04
448.06	386.19
448.25	423.64
448.43	447.04
448.62	451.72
448.80	367.46
448.99	428.32
449.17	475.13
449.36	311.29
449.54	322.99
449.73	388.53
449.91	425.98
450.10	383.85
450.28	444.70
450.46	463.43
450.65	397.89
450.83	449.38
451.02	433.00
451.20	390.87
451.39	386.19
451.57	425.98
451.76	360.44
451.94	428.32
452.13	414.27
452.31	444.70
452.49	421.30
452.68	458.74
452.86	477.47
453.05	447.04
453.23	395.55
453.42	402.57
453.60	386.19
453.78	484.49
453.97	393.21
454.15	341.72
454.34	397.89
454.52	458.74
454.70	435.34
454.89	414.27
455.07	447.04
455.26	444.70
455.44	465.77
455.62	430.66
455.81	411.93
455.99	435.34
456.17	416.62
456.36	456.40
456.54	402.57
456.73	367.46
456.91	430.66
457.09	395.55
457.28	454.06
457.46	388.53
457.64	425.98
457.83	442.36
458.01	447.04
458.19	404.91
458.38	402.57
458.56	447.04
458.74	372.15
458.93	409.59
459.11	402.57
459.29	402.57
459.48	472.79
459.66	390.87
459.84	386.19
460.03	538.32
460.21	409.59
460.39	411.93
460.57	407.25
460.76	372.15
460.94	437.68
461.12	477.47
461.31	402.57
461.49	395.55
461.67	313.63
461.85	393.21
462.04	400.23
462.22	692.80
462.40	404.91
462.59	404.91
462.77	372.15
462.95	440.02
463.13	418.96
463.32	477.47
463.50	430.66
463.68	393.21
463.86	388.53
464.05	435.34
464.23	444.70
464.41	440.02
464.59	458.74
464.78	477.47
464.96	388.53
465.14	456.40
465.32	346.40
465.50	468.11
465.69	390.87
465.87	430.66
466.05	458.74
466.23	325.33
466.41	334.70
466.60	369.80
466.78	308.95
466.96	451.72
467.14	369.80
467.32	433.00
467.51	365.12
467.69	430.66
467.87	486.83
468.05	402.57
468.23	463.43
468.41	407.25
468.60	393.21
468.78	379.17
468.96	447.04
469.14	409.59
469.32	444.70
469.50	472.79
469.69	386.19
469.87	449.38
470.05	374.49
470.23	393.21
470.41	414.27
470.59	360.44
470.77	433.00
470.95	463.43
471.14	365.12
471.32	433.00
471.50	411.93
471.68	383.85
471.86	402.57
472.04	402.57
472.22	433.00
472.40	428.32
472.58	479.81
472.77	428.32
472.95	418.96
473.13	437.68
473.31	425.98
473.49	374.49
473.67	433.00
473.85	468.11
474.03	433.00
474.21	388.53
474.39	411.93
474.57	423.64
474.75	447.04
474.93	442.36
475.12	411.93
475.30	395.55
475.48	416.62
475.66	393.21
475.84	468.11
476.02	477.47
476.20	414.27
476.38	435.34
476.56	425.98
476.74	449.38
476.92	456.40
477.10	409.59
477.28	397.89
477.46	425.98
477.64	451.72
477.82	400.23
478.00	414.27
478.18	428.32
478.36	397.89
478.54	334.70
478.72	449.38
478.90	327.68
479.08	418.96
479.26	367.46
479.44	465.77
479.62	367.46
479.80	500.87
479.98	421.30
480.16	423.64
480.34	320.65
480.52	334.70
480.70	393.21
480.88	404.91
481.06	400.23
481.24	433.00
481.41	404.91
481.59	372.15
481.77	344.06
481.95	402.57
482.13	433.00
482.31	416.62
482.49	395.55
482.67	416.62
482.85	475.13
483.03	416.62
483.21	435.34
483.39	381.51
483.57	414.27
483.74	479.81
483.92	418.96
484.10	402.57
484.28	383.85
484.46	482.15
484.64	411.93
484.82	425.98
485.00	416.62
485.18	479.81
485.35	386.19
485.53	444.70
485.71	400.23
485.89	353.42
486.07	458.74
486.25	519.60
486.43	379.17
486.61	407.25
486.78	416.62
486.96	367.46
487.14	416.62
487.32	369.80
487.50	393.21
487.68	393.21
487.85	451.72
488.03	418.96
488.21	461.09
488.39	418.96
488.57	451.72
488.75	465.77
488.92	442.36
489.10	461.09
489.28	468.11
489.46	421.30
489.64	388.53
489.81	416.62
489.99	332.36
490.17	447.04
490.35	440.02
490.53	341.72
490.70	388.53
490.88	404.91
491.06	334.70
491.24	447.04
491.41	416.62
491.59	402.57
491.77	339.38
491.95	388.53
492.13	404.91
492.30	351.08
492.48	404.91
492.66	390.87
492.84	435.34
493.01	437.68
493.19	369.80
493.37	449.38
493.54	468.11
493.72	339.38
493.90	374.49
494.08	505.56
494.25	334.70
494.43	390.87
494.61	416.62
494.79	360.44
494.96	372.15
495.14	423.64
495.32	458.74
495.49	402.57
495.67	465.77
495.85	390.87
496.02	400.23
496.20	463.43
496.38	386.19
496.55	418.96
496.73	395.55
496.91	421.30
497.09	425.98
497.26	395.55
497.44	358.10
497.62	411.93
497.79	425.98
497.97	482.15
498.14	372.15
498.32	458.74
498.50	409.59
498.67	379.17
498.85	454.06
499.03	362.78
499.20	437.68
499.38	447.04
499.56	428.32
499.73	484.49
499.91	397.89
500.08	425.98
500.26	411.93
500.44	421.30
500.61	461.09
500.79	383.85
500.97	381.51
501.14	442.36
501.32	449.38
501.49	449.38
501.67	369.80
501.84	456.40
502.02	435.34
502.20	409.59
502.37	397.89
502.55	493.85
502.72	407.25
502.90	475.13
503.07	369.80
503.25	463.43
503.43	376.83
503.60	421.30
503.78	418.96
503.95	423.64
504.13	404.91
504.30	409.59
504.48	486.83
504.65	425.98
504.83	442.36
505.01	404.91
505.18	447.04
505.36	416.62
505.53	423.64
505.71	395.55
505.88	430.66
506.06	470.45
506.23	468.11
506.41	339.38
506.58	428.32
506.76	418.96
506.93	416.62
507.11	454.06
507.28	437.68
507.46	407.25
507.63	430.66
507.81	411.93
507.98	416.62
508.16	440.02
508.33	400.23
508.50	498.53
508.68	379.17
508.85	463.43
509.03	449.38
509.20	512.58
509.38	353.42
509.55	472.79
509.73	482.15
509.90	404.91
510.08	402.57
510.25	402.57
510.42	339.38
510.60	393.21
510.77	381.51
510.95	423.64
511.12	381.51
511.30	348.74
511.47	418.96
511.64	442.36
511.82	395.55
511.99	344.06
512.17	376.83
512.34	444.70
512.51	360.44
512.69	456.40
512.86	418.96
513.04	475.13
513.21	353.42
513.38	372.15
513.56	428.32
513.73	388.53
513.90	418.96
514.08	367.46
514.25	416.62
514.43	414.27
514.60	402.57
514.77	383.85
514.95	404.91
515.12	395.55
515.29	393.21
515.47	428.32
515.64	463.43
515.81	486.83
515.99	465.77
516.16	428.32
516.33	454.06
516.51	435.34
516.68	390.87
516.85	423.64
517.03	388.53
517.20	418.96
517.37	447.04
517.54	369.80
517.72	444.70
517.89	411.93
518.06	440.02
518.24	376.83
518.41	484.49
518.58	496.19
518.75	416.62
518.93	393.21
519.10	388.53
519.27	381.51
519.45	454.06
519.62	409.59
519.79	407.25
519.96	404.91
520.14	369.80
520.31	433.00
520.48	484.49
520.65	423.64
520.83	395.55
521.00	442.36
521.17	421.30
521.34	369.80
521.52	428.32
521.69	407.25
521.86	365.12
522.03	423.64
522.20	418.96
522.38	393.21
522.55	421.30
522.72	435.34
522.89	416.62
523.07	430.66
523.24	416.62
523.41	440.02
523.58	386.19
523.75	407.25
523.92	397.89
524.10	381.51
524.27	447.04
524.44	341.72
524.61	437.68
524.78	407.25
524.96	442.36
525.13	465.77
525.30	393.21
525.47	454.06
525.64	337.04
525.81	390.87
525.98	512.58
526.16	451.72
526.33	421.30
526.50	346.40
526.67	416.62
526.84	402.57
527.01	440.02
527.18	423.64
527.36	330.02
527.53	360.44
527.70	456.40
527.87	390.87
528.04	400.23
528.21	416.62
528.38	442.36
528.55	486.83
528.72	416.62
528.89	388.53
529.07	428.32
529.24	486.83
529.41	440.02
529.58	414.27
529.75	456.40
529.92	390.87
530.09	383.85
530.26	493.85
530.43	365.12
530.60	421.30
530.77	383.85
530.94	369.80
531.11	409.59
531.28	393.21
531.46	442.36
531.63	397.89
531.80	454.06
531.97	428.32
532.14	416.62
532.31	430.66
532.48	472.79
532.65	416.62
532.82	358.10
532.99	374.49
533.16	402.57
533.33	407.25
533.50	470.45
533.67	348.74
533.84	348.74
534.01	496.19
534.18	402.57
534.35	491.51
534.52	458.74
534.69	407.25
534.86	388.53
535.03	355.76
535.20	407.25
535.37	421.30
535.54	454.06
535.71	437.68
535.88	491.51
536.05	428.32
536.22	444.70
536.38	369.80
536.55	402.57
536.72	414.27
536.89	386.19
537.06	425.98
537.23	376.83
537.40	407.25
537.57	407.25
537.74	440.02
537.91	393.21
538.08	386.19
538.25	477.47
538.42	458.74
538.59	383.85
538.75	407.25
538.92	411.93
539.09	458.74
539.26	447.04
539.43	414.27
539.60	376.83
539.77	472.79
539.94	470.45
540.11	458.74
540.28	414.27
540.44	493.85
540.61	395.55
540.78	390.87
540.95	430.66
541.12	461.09
541.29	369.80
541.46	449.38
541.62	442.36
541.79	322.99
541.96	461.09
542.13	484.49
542.30	435.34
542.47	397.89
542.63	435.34
542.80	440.02
542.97	472.79
543.14	355.76
543.31	468.11
543.48	365.12
543.64	433.00
543.81	430.66
543.98	383.85
544.15	395.55
544.32	390.87
544.48	386.19
544.65	306.61
544.82	390.87
544.99	369.80
545.16	407.25
545.32	454.06
545.49	423.64
545.66	444.70
545.83	454.06
546.00	442.36
546.16	337.04
546.33	407.25
546.50	411.93
546.67	435.34
546.83	400.23
547.00	395.55
547.17	372.15
547.34	484.49
547.50	416.62
547.67	421.30
547.84	454.06
548.00	463.43
548.17	489.17
548.34	433.00
548.51	414.27
548.67	440.02
548.84	407.25
549.01	344.06
549.18	411.93
549.34	454.06
549.51	409.59
549.68	358.10
549.84	449.38
550.01	388.53
550.18	517.26
550.34	458.74
550.51	514.92
550.68	482.15
550.84	348.74
551.01	468.11
551.18	404.91
551.34	472.79
551.51	416.62
551.68	386.19
551.84	358.10
552.01	411.93
552.18	421.30
552.34	442.36
552.51	411.93
552.68	491.51
552.84	374.49
553.01	390.87
553.18	418.96
553.34	425.98
553.51	334.70
553.67	400.23
553.84	444.70
554.01	442.36
554.17	358.10
554.34	465.77
554.51	454.06
554.67	449.38
554.84	411.93
555.00	437.68
555.17	475.13
555.33	503.22
555.50	430.66
555.67	388.53
555.83	341.72
556.00	440.02
556.16	585.13
556.33	411.93
556.50	440.02
556.66	433.00
556.83	421.30
556.99	437.68
557.16	383.85
557.32	411.93
557.49	386.19
557.65	437.68
557.82	416.62
557.98	447.04
558.15	367.46
558.32	468.11
558.48	479.81
558.65	461.09
558.81	365.12
558.98	334.70
559.14	381.51
559.31	411.93
559.47	425.98
559.64	376.83
559.80	489.17
559.97	437.68
560.13	388.53
560.30	447.04
560.46	376.83
560.63	461.09
560.79	433.00
560.96	449.38
561.12	353.42
561.29	411.93
561.45	433.00
561.61	437.68
561.78	491.51
561.94	440.02
562.11	360.44
562.27	409.59
562.44	421.30
562.60	367.46
562.77	348.74
562.93	456.40
563.10	400.23
563.26	402.57
563.42	428.32
563.59	496.19
563.75	367.46
563.92	397.89
564.08	402.57
564.24	463.43
564.41	437.68
564.57	416.62
564.74	346.40
564.90	433.00
565.07	470.45
565.23	428.32
565.39	395.55
565.56	430.66
565.72	402.57
565.88	449.38
566.05	430.66
566.21	454.06
566.38	397.89
566.54	433.00
566.70	327.68
566.87	437.68
567.03	451.72
567.19	383.85
567.36	381.51
567.52	402.57
567.68	414.27
567.85	411.93
568.01	416.62
568.17	400.23
568.34	395.55
568.50	423.64
568.66	437.68
568.83	484.49
568.99	421.30
569.15	404.91
569.32	428.32
569.48	447.04
569.64	402.57
569.81	428.32
569.97	433.00
570.13	404.91
570.30	444.70
570.46	435.34
570.62	416.62
570.78	465.77
570.95	397.89
571.11	479.81
571.27	423.64
571.43	444.70
571.60	411.93
571.76	388.53
571.92	372.15
572.09	430.66
572.25	428.32
572.41	379.17
572.57	416.62
572.74	428.32
572.90	472.79
573.06	386.19
573.22	376.83
573.38	519.60
573.55	442.36
573.71	557.05
573.87	461.09
574.03	482.15
574.20	444.70
574.36	416.62
574.52	388.53
574.68	383.85
574.84	456.40
575.01	388.53
575.17	418.96
575.33	334.70
575.49	428.32
575.65	386.19
575.82	435.34
575.98	435.34
576.14	381.51
576.30	416.62
576.46	435.34
576.62	449.38
576.79	365.12
576.95	449.38
577.11	397.89
577.27	451.72
577.43	489.17
577.59	510.24
577.75	386.19
577.92	362.78
578.08	381.51
578.24	388.53
578.40	407.25
578.56	477.47
578.72	421.30
578.88	433.00
579.04	367.46
579.21	397.89
579.37	365.12
579.53	428.32
579.69	341.72
579.85	421.30
580.01	411.93
580.17	397.89
580.33	358.10
580.49	390.87
580.65	468.11
580.82	447.04
580.98	402.57
581.14	425.98
581.30	374.49
581.46	374.49
581.62	404.91
581.78	444.70
581.94	397.89
582.10	451.72
582.26	381.51
582.42	388.53
582.58	437.68
582.74	428.32
582.90	395.55
583.06	379.17
583.22	421.30
583.38	404.91
583.54	362.78
583.70	411.93
583.86	386.19
584.02	402.57
584.18	367.46
584.34	430.66
584.50	400.23
584.66	372.15
584.82	414.27
584.98	416.62
585.14	407.25
585.30	425.98
585.46	381.51
585.62	379.17
585.78	353.42
585.94	421.30
586.10	369.80
586.26	365.12
586.42	374.49
586.58	423.64
586.74	477.47
586.90	327.68
587.06	367.46
587.22	383.85
587.38	346.40
587.54	381.51
587.70	407.25
587.86	369.80
588.02	330.02
588.18	444.70
588.34	372.15
588.49	404.91
588.65	482.15
588.81	425.98
588.97	388.53
589.13	395.55
589.29	440.02
589.45	442.36
589.61	428.32
589.77	421.30
589.93	463.43
590.08	425.98
590.24	351.08
590.40	332.36
590.56	400.23
590.72	430.66
590.88	418.96
591.04	447.04
591.20	353.42
591.35	442.36
591.51	383.85
591.67	379.17
591.83	409.59
591.99	479.81
592.15	440.02
592.31	407.25
592.46	435.34
592.62	386.19
592.78	362.78
592.94	337.04
593.10	423.64
593.26	440.02
593.41	440.02
593.57	369.80
593.73	440.02
593.89	510.24
594.05	447.04
594.20	381.51
594.36	447.04
594.52	425.98
594.68	479.81
594.84	402.57
594.99	428.32
595.15	397.89
595.31	442.36
595.47	444.70
595.62	437.68
595.78	395.55
595.94	372.15
596.10	444.70
596.25	409.59
596.41	418.96
596.57	369.80
596.73	442.36
596.88	454.06
597.04	451.72
597.20	414.27
597.36	407.25
597.51	390.87
597.67	372.15
597.83	379.17
597.99	404.91
598.14	414.27
598.30	442.36
598.46	444.70
598.61	355.76
598.77	404.91
598.93	383.85
599.09	400.23
599.24	440.02
599.40	442.36
599.56	402.57
599.71	407.25
599.87	404.91
600.03	463.43
600.18	444.70
600.34	428.32
600.50	400.23
600.65	414.27
600.81	423.64
600.97	334.70
601.12	444.70
601.28	442.36
601.44	425.98
601.59	416.62
601.75	423.64
601.91	437.68
602.06	402.57
602.22	496.19
602.37	418.96
602.53	414.27
602.69	397.89
602.84	465.77
603.00	388.53
603.16	470.45
603.31	444.70
603.47	465.77
603.62	423.64
603.78	418.96
603.94	458.74
604.09	416.62
604.25	435.34
604.40	447.04
604.56	393.21
604.71	332.36
604.87	315.97
605.03	461.09
605.18	454.06
605.34	407.25
605.49	393.21
605.65	433.00
605.80	390.87
605.96	442.36
606.12	444.70
606.27	442.36
606.43	411.93
606.58	327.68
606.74	442.36
606.89	337.04
607.05	369.80
607.20	383.85
607.36	447.04
607.51	468.11
607.67	397.89
607.82	423.64
607.98	440.02
608.13	425.98
608.29	444.70
608.44	416.62
608.60	416.62
608.75	454.06
608.91	372.15
609.06	447.04
609.22	416.62
609.37	435.34
609.53	372.15
609.68	435.34
609.84	414.27
609.99	449.38
610.15	407.25
