SpectraSuite Data File
++++++++++++++++++++++++++++++++++++
Date: Fri Oct 25 12:11:14 EDT 2013
User: price-jones
Dark Spectrum Present: No
Reference Spectrum Present: No
Number of Sampled Component Spectra: 1
Spectrometers: USB2+H05261
Integration Time (usec): 100000 (USB2+H05261)
Spectra Averaged: 1 (USB2+H05261)
Boxcar Smoothing: 0 (USB2+H05261)
Correct for Electrical Dark: No (USB2+H05261)
Strobe/Lamp Enabled: No (USB2+H05261)
Correct for Detector Non-linearity: No (USB2+H05261)
Correct for Stray Light: No (USB2+H05261)
Number of Pixels in Processed Spectrum: 2048
>>>>>Begin Processed Spectral Data<<<<<
365.73	273.84
365.92	273.84
366.12	273.84
366.32	243.42
366.52	217.67
366.72	224.69
366.91	294.91
367.11	273.84
367.31	259.80
367.51	222.35
367.70	346.40
367.90	255.12
368.10	210.65
368.30	252.78
368.49	238.73
368.69	276.18
368.89	236.39
369.09	273.84
369.28	250.44
369.48	215.33
369.68	238.73
369.87	348.74
370.07	294.91
370.27	297.25
370.47	330.02
370.66	362.78
370.86	374.49
371.06	397.89
371.25	344.06
371.45	341.72
371.65	381.51
371.84	430.66
372.04	362.78
372.24	369.80
372.44	423.64
372.63	372.15
372.83	376.83
373.03	430.66
373.22	390.87
373.42	435.34
373.62	423.64
373.81	358.10
374.01	444.70
374.21	447.04
374.40	449.38
374.60	397.89
374.79	393.21
374.99	414.27
375.19	433.00
375.38	479.81
375.58	388.53
375.78	486.83
375.97	437.68
376.17	451.72
376.37	383.85
376.56	456.40
376.76	454.06
376.95	430.66
377.15	454.06
377.35	444.70
377.54	418.96
377.74	369.80
377.93	435.34
378.13	444.70
378.33	416.62
378.52	484.49
378.72	489.17
378.91	461.09
379.11	362.78
379.31	320.65
379.50	327.68
379.70	388.53
379.89	362.78
380.09	327.68
380.28	458.74
380.48	433.00
380.68	388.53
380.87	442.36
381.07	388.53
381.26	444.70
381.46	372.15
381.65	397.89
381.85	376.83
382.04	339.38
382.24	290.23
382.43	409.59
382.63	374.49
382.83	447.04
383.02	463.43
383.22	423.64
383.41	433.00
383.61	411.93
383.80	365.12
384.00	362.78
384.19	411.93
384.39	435.34
384.58	421.30
384.78	365.12
384.97	358.10
385.17	465.77
385.36	395.55
385.56	393.21
385.75	344.06
385.95	365.12
386.14	416.62
386.34	379.17
386.53	346.40
386.72	454.06
386.92	475.13
387.11	383.85
387.31	297.25
387.50	376.83
387.70	451.72
387.89	423.64
388.09	395.55
388.28	423.64
388.48	355.76
388.67	393.21
388.86	367.46
389.06	428.32
389.25	372.15
389.45	482.15
389.64	428.32
389.84	416.62
390.03	435.34
390.22	374.49
390.42	430.66
390.61	390.87
390.81	393.21
391.00	421.30
391.19	388.53
391.39	393.21
391.58	416.62
391.78	348.74
391.97	449.38
392.16	365.12
392.36	430.66
392.55	444.70
392.75	365.12
392.94	365.12
393.13	358.10
393.33	353.42
393.52	428.32
393.71	421.30
393.91	411.93
394.10	425.98
394.29	425.98
394.49	395.55
394.68	411.93
394.88	437.68
395.07	362.78
395.26	416.62
395.46	423.64
395.65	440.02
395.84	435.34
396.04	475.13
396.23	374.49
396.42	414.27
396.62	407.25
396.81	355.76
397.00	463.43
397.19	428.32
397.39	421.30
397.58	416.62
397.77	418.96
397.97	442.36
398.16	360.44
398.35	376.83
398.55	299.59
398.74	454.06
398.93	390.87
399.12	409.59
399.32	372.15
399.51	353.42
399.70	451.72
399.90	383.85
400.09	393.21
400.28	470.45
400.47	433.00
400.67	388.53
400.86	475.13
401.05	402.57
401.24	397.89
401.44	341.72
401.63	395.55
401.82	418.96
402.01	440.02
402.21	411.93
402.40	386.19
402.59	407.25
402.78	383.85
402.97	362.78
403.17	440.02
403.36	423.64
403.55	388.53
403.74	402.57
403.93	381.51
404.13	416.62
404.32	433.00
404.51	330.02
404.70	365.12
404.89	421.30
405.09	430.66
405.28	390.87
405.47	433.00
405.66	381.51
405.85	435.34
406.05	449.38
406.24	433.00
406.43	454.06
406.62	425.98
406.81	486.83
407.00	505.56
407.20	423.64
407.39	395.55
407.58	322.99
407.77	386.19
407.96	416.62
408.15	386.19
408.34	395.55
408.54	468.11
408.73	383.85
408.92	407.25
409.11	475.13
409.30	411.93
409.49	407.25
409.68	454.06
409.87	416.62
410.07	449.38
410.26	458.74
410.45	482.15
410.64	447.04
410.83	458.74
411.02	372.15
411.21	454.06
411.40	407.25
411.59	411.93
411.78	407.25
411.98	372.15
412.17	437.68
412.36	435.34
412.55	444.70
412.74	367.46
412.93	470.45
413.12	461.09
413.31	402.57
413.50	440.02
413.69	334.70
413.88	430.66
414.07	414.27
414.26	425.98
414.45	421.30
414.64	414.27
414.83	454.06
415.02	442.36
415.22	428.32
415.41	414.27
415.60	444.70
415.79	425.98
415.98	390.87
416.17	428.32
416.36	372.15
416.55	402.57
416.74	383.85
416.93	414.27
417.12	379.17
417.31	411.93
417.50	454.06
417.69	414.27
417.88	454.06
418.07	395.55
418.26	421.30
418.45	444.70
418.64	369.80
418.83	440.02
419.02	355.76
419.21	468.11
419.39	458.74
419.58	400.23
419.77	402.57
419.96	486.83
420.15	477.47
420.34	402.57
420.53	369.80
420.72	346.40
420.91	451.72
421.10	451.72
421.29	435.34
421.48	444.70
421.67	461.09
421.86	421.30
422.05	409.59
422.24	477.47
422.43	416.62
422.61	416.62
422.80	428.32
422.99	444.70
423.18	397.89
423.37	428.32
423.56	362.78
423.75	351.08
423.94	456.40
424.13	421.30
424.32	409.59
424.50	400.23
424.69	353.42
424.88	442.36
425.07	362.78
425.26	358.10
425.45	521.94
425.64	358.10
425.83	400.23
426.01	444.70
426.20	397.89
426.39	358.10
426.58	374.49
426.77	390.87
426.96	393.21
427.15	428.32
427.33	402.57
427.52	447.04
427.71	383.85
427.90	435.34
428.09	435.34
428.28	416.62
428.46	339.38
428.65	449.38
428.84	400.23
429.03	358.10
429.22	442.36
429.40	393.21
429.59	444.70
429.78	411.93
429.97	435.34
430.16	330.02
430.34	421.30
430.53	402.57
430.72	334.70
430.91	411.93
431.10	407.25
431.28	367.46
431.47	454.06
431.66	400.23
431.85	449.38
432.03	416.62
432.22	472.79
432.41	461.09
432.60	442.36
432.79	365.12
432.97	402.57
433.16	437.68
433.35	374.49
433.54	358.10
433.72	425.98
433.91	430.66
434.10	407.25
434.28	409.59
434.47	416.62
434.66	404.91
434.85	344.06
435.03	442.36
435.22	465.77
435.41	449.38
435.59	440.02
435.78	470.45
435.97	407.25
436.16	482.15
436.34	472.79
436.53	411.93
436.72	414.27
436.90	435.34
437.09	514.92
437.28	440.02
437.46	369.80
437.65	486.83
437.84	388.53
438.02	409.59
438.21	397.89
438.40	433.00
438.58	447.04
438.77	491.51
438.96	461.09
439.14	435.34
439.33	493.85
439.52	400.23
439.70	435.34
439.89	409.59
440.08	425.98
440.26	351.08
440.45	416.62
440.63	362.78
440.82	397.89
441.01	461.09
441.19	447.04
441.38	451.72
441.57	461.09
441.75	416.62
441.94	374.49
442.12	496.19
442.31	463.43
442.50	465.77
442.68	390.87
442.87	531.30
443.05	318.31
443.24	381.51
443.43	454.06
443.61	468.11
443.80	418.96
443.98	367.46
444.17	472.79
444.35	465.77
444.54	430.66
444.73	435.34
444.91	472.79
445.10	369.80
445.28	437.68
445.47	470.45
445.65	386.19
445.84	414.27
446.02	433.00
446.21	440.02
446.39	430.66
446.58	482.15
446.77	461.09
446.95	400.23
447.14	456.40
447.32	407.25
447.51	451.72
447.69	369.80
447.88	390.87
448.06	388.53
448.25	437.68
448.43	386.19
448.62	447.04
448.80	500.87
448.99	414.27
449.17	454.06
449.36	414.27
449.54	393.21
449.73	414.27
449.91	388.53
450.10	407.25
450.28	442.36
450.46	411.93
450.65	414.27
450.83	433.00
451.02	397.89
451.20	435.34
451.39	437.68
451.57	362.78
451.76	461.09
451.94	388.53
452.13	421.30
452.31	428.32
452.49	442.36
452.68	442.36
452.86	428.32
453.05	456.40
453.23	365.12
453.42	334.70
453.60	409.59
453.78	409.59
453.97	409.59
454.15	362.78
454.34	374.49
454.52	437.68
454.70	411.93
454.89	465.77
455.07	433.00
455.26	447.04
455.44	456.40
455.62	404.91
455.81	433.00
455.99	447.04
456.17	435.34
456.36	346.40
456.54	418.96
456.73	397.89
456.91	468.11
457.09	479.81
457.28	477.47
457.46	463.43
457.64	428.32
457.83	435.34
458.01	440.02
458.19	425.98
458.38	425.98
458.56	416.62
458.74	360.44
458.93	433.00
459.11	468.11
459.29	479.81
459.48	428.32
459.66	442.36
459.84	425.98
460.03	463.43
460.21	472.79
460.39	325.33
460.57	393.21
460.76	418.96
460.94	421.30
461.12	440.02
461.31	465.77
461.49	374.49
461.67	433.00
461.85	449.38
462.04	416.62
462.22	802.80
462.40	416.62
462.59	451.72
462.77	386.19
462.95	407.25
463.13	337.04
463.32	425.98
463.50	409.59
463.68	386.19
463.86	400.23
464.05	337.04
464.23	388.53
464.41	433.00
464.59	365.12
464.78	407.25
464.96	383.85
465.14	376.83
465.32	362.78
465.50	440.02
465.69	395.55
465.87	404.91
466.05	456.40
466.23	430.66
466.41	404.91
466.60	397.89
466.78	365.12
466.96	400.23
467.14	418.96
467.32	447.04
467.51	449.38
467.69	519.60
467.87	423.64
468.05	447.04
468.23	479.81
468.41	461.09
468.60	433.00
468.78	428.32
468.96	454.06
469.14	381.51
469.32	440.02
469.50	470.45
469.69	369.80
469.87	482.15
470.05	383.85
470.23	416.62
470.41	418.96
470.59	440.02
470.77	395.55
470.95	418.96
471.14	482.15
471.32	388.53
471.50	381.51
471.68	430.66
471.86	402.57
472.04	437.68
472.22	397.89
472.40	348.74
472.58	367.46
472.77	376.83
472.95	376.83
473.13	461.09
473.31	493.85
473.49	498.53
473.67	414.27
473.85	447.04
474.03	447.04
474.21	498.53
474.39	444.70
474.57	428.32
474.75	372.15
474.93	400.23
475.12	353.42
475.30	414.27
475.48	407.25
475.66	348.74
475.84	372.15
476.02	386.19
476.20	423.64
476.38	411.93
476.56	437.68
476.74	416.62
476.92	407.25
477.10	397.89
477.28	430.66
477.46	379.17
477.64	425.98
477.82	390.87
478.00	402.57
478.18	507.90
478.36	461.09
478.54	421.30
478.72	360.44
478.90	465.77
479.08	456.40
479.26	418.96
479.44	397.89
479.62	390.87
479.80	397.89
479.98	414.27
480.16	428.32
480.34	393.21
480.52	437.68
480.70	397.89
480.88	397.89
481.06	409.59
481.24	367.46
481.41	404.91
481.59	440.02
481.77	458.74
481.95	416.62
482.13	493.85
482.31	444.70
482.49	395.55
482.67	449.38
482.85	463.43
483.03	397.89
483.21	404.91
483.39	414.27
483.57	423.64
483.74	411.93
483.92	479.81
484.10	500.87
484.28	454.06
484.46	559.39
484.64	435.34
484.82	458.74
485.00	458.74
485.18	416.62
485.35	348.74
485.53	379.17
485.71	468.11
485.89	390.87
486.07	351.08
486.25	468.11
486.43	400.23
486.61	416.62
486.78	458.74
486.96	433.00
487.14	437.68
487.32	425.98
487.50	409.59
487.68	400.23
487.85	365.12
488.03	383.85
488.21	428.32
488.39	379.17
488.57	395.55
488.75	428.32
488.92	566.41
489.10	372.15
489.28	404.91
489.46	381.51
489.64	409.59
489.81	414.27
489.99	397.89
490.17	332.36
490.35	395.55
490.53	402.57
490.70	428.32
490.88	418.96
491.06	400.23
491.24	418.96
491.41	430.66
491.59	456.40
491.77	477.47
491.95	362.78
492.13	418.96
492.30	428.32
492.48	374.49
492.66	433.00
492.84	383.85
493.01	322.99
493.19	393.21
493.37	416.62
493.54	437.68
493.72	430.66
493.90	430.66
494.08	425.98
494.25	388.53
494.43	407.25
494.61	348.74
494.79	374.49
494.96	376.83
495.14	456.40
495.32	367.46
495.49	421.30
495.67	397.89
495.85	421.30
496.02	451.72
496.20	472.79
496.38	433.00
496.55	386.19
496.73	451.72
496.91	423.64
497.09	386.19
497.26	458.74
497.44	397.89
497.62	416.62
497.79	442.36
497.97	325.33
498.14	402.57
498.32	449.38
498.50	451.72
498.67	423.64
498.85	346.40
499.03	444.70
499.20	353.42
499.38	388.53
499.56	425.98
499.73	449.38
499.91	409.59
500.08	397.89
500.26	454.06
500.44	341.72
500.61	386.19
500.79	472.79
500.97	440.02
501.14	414.27
501.32	479.81
501.49	425.98
501.67	402.57
501.84	463.43
502.02	430.66
502.20	444.70
502.37	348.74
502.55	407.25
502.72	379.17
502.90	355.76
503.07	355.76
503.25	461.09
503.43	390.87
503.60	348.74
503.78	442.36
503.95	454.06
504.13	454.06
504.30	428.32
504.48	376.83
504.65	416.62
504.83	402.57
505.01	395.55
505.18	458.74
505.36	414.27
505.53	430.66
505.71	365.12
505.88	479.81
506.06	393.21
506.23	428.32
506.41	458.74
506.58	456.40
506.76	367.46
506.93	409.59
507.11	447.04
507.28	454.06
507.46	463.43
507.63	423.64
507.81	407.25
507.98	402.57
508.16	491.51
508.33	404.91
508.50	360.44
508.68	395.55
508.85	423.64
509.03	416.62
509.20	418.96
509.38	493.85
509.55	482.15
509.73	404.91
509.90	470.45
510.08	430.66
510.25	407.25
510.42	454.06
510.60	430.66
510.77	423.64
510.95	433.00
511.12	409.59
511.30	465.77
511.47	463.43
511.64	379.17
511.82	407.25
511.99	393.21
512.17	362.78
512.34	437.68
512.51	383.85
512.69	433.00
512.86	454.06
513.04	397.89
513.21	484.49
513.38	355.76
513.56	355.76
513.73	372.15
513.90	437.68
514.08	449.38
514.25	397.89
514.43	397.89
514.60	355.76
514.77	386.19
514.95	409.59
515.12	449.38
515.29	449.38
515.47	449.38
515.64	437.68
515.81	337.04
515.99	355.76
516.16	458.74
516.33	477.47
516.51	440.02
516.68	447.04
516.85	367.46
517.03	423.64
517.20	414.27
517.37	425.98
517.54	390.87
517.72	390.87
517.89	437.68
518.06	393.21
518.24	496.19
518.41	484.49
518.58	423.64
518.75	353.42
518.93	383.85
519.10	409.59
519.27	430.66
519.45	365.12
519.62	461.09
519.79	411.93
519.96	383.85
520.14	407.25
520.31	454.06
520.48	512.58
520.65	416.62
520.83	404.91
521.00	430.66
521.17	388.53
521.34	482.15
521.52	444.70
521.69	383.85
521.86	421.30
522.03	454.06
522.20	400.23
522.38	379.17
522.55	423.64
522.72	379.17
522.89	414.27
523.07	449.38
523.24	423.64
523.41	386.19
523.58	425.98
523.75	320.65
523.92	365.12
524.10	423.64
524.27	430.66
524.44	454.06
524.61	517.26
524.78	421.30
524.96	416.62
525.13	449.38
525.30	458.74
525.47	442.36
525.64	397.89
525.81	379.17
525.98	386.19
526.16	358.10
526.33	404.91
526.50	451.72
526.67	407.25
526.84	418.96
527.01	334.70
527.18	395.55
527.36	383.85
527.53	390.87
527.70	461.09
527.87	442.36
528.04	465.77
528.21	386.19
528.38	444.70
528.55	400.23
528.72	449.38
528.89	547.69
529.07	374.49
529.24	472.79
529.41	414.27
529.58	418.96
529.75	372.15
529.92	365.12
530.09	440.02
530.26	465.77
530.43	451.72
530.60	400.23
530.77	395.55
530.94	388.53
531.11	505.56
531.28	348.74
531.46	425.98
531.63	470.45
531.80	416.62
531.97	449.38
532.14	437.68
532.31	430.66
532.48	407.25
532.65	458.74
532.82	372.15
532.99	388.53
533.16	465.77
533.33	421.30
533.50	468.11
533.67	332.36
533.84	376.83
534.01	402.57
534.18	404.91
534.35	444.70
534.52	416.62
534.69	393.21
534.86	402.57
535.03	395.55
535.20	425.98
535.37	414.27
535.54	411.93
535.71	393.21
535.88	500.87
536.05	463.43
536.22	355.76
536.38	454.06
536.55	456.40
536.72	402.57
536.89	411.93
537.06	414.27
537.23	383.85
537.40	379.17
537.57	493.85
537.74	428.32
537.91	409.59
538.08	433.00
538.25	386.19
538.42	407.25
538.59	425.98
538.75	390.87
538.92	374.49
539.09	463.43
539.26	416.62
539.43	454.06
539.60	472.79
539.77	479.81
539.94	414.27
540.11	409.59
540.28	486.83
540.44	447.04
540.61	458.74
540.78	484.49
540.95	395.55
541.12	538.32
541.29	381.51
541.46	456.40
541.62	444.70
541.79	433.00
541.96	355.76
542.13	421.30
542.30	430.66
542.47	447.04
542.63	365.12
542.80	322.99
542.97	468.11
543.14	367.46
543.31	388.53
543.48	407.25
543.64	451.72
543.81	428.32
543.98	395.55
544.15	437.68
544.32	451.72
544.48	404.91
544.65	374.49
544.82	369.80
544.99	400.23
545.16	418.96
545.32	440.02
545.49	421.30
545.66	397.89
545.83	461.09
546.00	463.43
546.16	411.93
546.33	489.17
546.50	388.53
546.67	421.30
546.83	421.30
547.00	449.38
547.17	430.66
547.34	430.66
547.50	486.83
547.67	400.23
547.84	491.51
548.00	475.13
548.17	351.08
548.34	411.93
548.51	418.96
548.67	470.45
548.84	409.59
549.01	435.34
549.18	435.34
549.34	461.09
549.51	500.87
549.68	383.85
549.84	435.34
550.01	393.21
550.18	482.15
550.34	496.19
550.51	388.53
550.68	418.96
550.84	376.83
551.01	425.98
551.18	416.62
551.34	339.38
551.51	393.21
551.68	428.32
551.84	404.91
552.01	449.38
552.18	386.19
552.34	493.85
552.51	414.27
552.68	442.36
552.84	479.81
553.01	402.57
553.18	472.79
553.34	423.64
553.51	404.91
553.67	449.38
553.84	461.09
554.01	491.51
554.17	395.55
554.34	400.23
554.51	414.27
554.67	435.34
554.84	418.96
555.00	351.08
555.17	437.68
555.33	423.64
555.50	404.91
555.67	374.49
555.83	465.77
556.00	470.45
556.16	564.07
556.33	447.04
556.50	376.83
556.66	404.91
556.83	376.83
556.99	400.23
557.16	421.30
557.32	465.77
557.49	421.30
557.65	430.66
557.82	458.74
557.98	435.34
558.15	411.93
558.32	465.77
558.48	407.25
558.65	444.70
558.81	479.81
558.98	367.46
559.14	503.22
559.31	416.62
559.47	468.11
559.64	402.57
559.80	435.34
559.97	423.64
560.13	463.43
560.30	409.59
560.46	409.59
560.63	393.21
560.79	449.38
560.96	472.79
561.12	404.91
561.29	407.25
561.45	414.27
561.61	496.19
561.78	519.60
561.94	402.57
562.11	381.51
562.27	423.64
562.44	428.32
562.60	418.96
562.77	442.36
562.93	540.66
563.10	444.70
563.26	425.98
563.42	395.55
563.59	407.25
563.75	367.46
563.92	498.53
564.08	411.93
564.24	496.19
564.41	421.30
564.57	365.12
564.74	358.10
564.90	454.06
565.07	440.02
565.23	365.12
565.39	402.57
565.56	447.04
565.72	383.85
565.88	414.27
566.05	458.74
566.21	430.66
566.38	414.27
566.54	435.34
566.70	409.59
566.87	475.13
567.03	386.19
567.19	447.04
567.36	444.70
567.52	454.06
567.68	479.81
567.85	447.04
568.01	493.85
568.17	355.76
568.34	416.62
568.50	435.34
568.66	437.68
568.83	503.22
568.99	449.38
569.15	404.91
569.32	393.21
569.48	423.64
569.64	388.53
569.81	496.19
569.97	407.25
570.13	425.98
570.30	421.30
570.46	411.93
570.62	465.77
570.78	461.09
570.95	390.87
571.11	507.90
571.27	454.06
571.43	475.13
571.60	400.23
571.76	423.64
571.92	423.64
572.09	411.93
572.25	503.22
572.41	407.25
572.57	414.27
572.74	449.38
572.90	507.90
573.06	409.59
573.22	517.26
573.38	440.02
573.55	477.47
573.71	440.02
573.87	337.04
574.03	418.96
574.20	409.59
574.36	360.44
574.52	475.13
574.68	376.83
574.84	369.80
575.01	353.42
575.17	411.93
575.33	440.02
575.49	465.77
575.65	433.00
575.82	409.59
575.98	449.38
576.14	397.89
576.30	372.15
576.46	397.89
576.62	379.17
576.79	411.93
576.95	397.89
577.11	362.78
577.27	411.93
577.43	447.04
577.59	454.06
577.75	430.66
577.92	395.55
578.08	425.98
578.24	433.00
578.40	479.81
578.56	440.02
578.72	449.38
578.88	458.74
579.04	468.11
579.21	409.59
579.37	411.93
579.53	444.70
579.69	437.68
579.85	454.06
580.01	496.19
580.17	372.15
580.33	407.25
580.49	451.72
580.65	388.53
580.82	418.96
580.98	447.04
581.14	409.59
581.30	477.47
581.46	444.70
581.62	482.15
581.78	440.02
581.94	395.55
582.10	402.57
582.26	428.32
582.42	465.77
582.58	442.36
582.74	449.38
582.90	407.25
583.06	451.72
583.22	428.32
583.38	404.91
583.54	409.59
583.70	486.83
583.86	388.53
584.02	423.64
584.18	461.09
584.34	367.46
584.50	416.62
584.66	393.21
584.82	458.74
584.98	400.23
585.14	421.30
585.30	454.06
585.46	383.85
585.62	416.62
585.78	369.80
585.94	374.49
586.10	379.17
586.26	402.57
586.42	393.21
586.58	477.47
586.74	416.62
586.90	374.49
587.06	451.72
587.22	461.09
587.38	386.19
587.54	491.51
587.70	393.21
587.86	442.36
588.02	435.34
588.18	458.74
588.34	400.23
588.49	330.02
588.65	397.89
588.81	444.70
588.97	416.62
589.13	430.66
589.29	526.62
589.45	463.43
589.61	411.93
589.77	463.43
589.93	421.30
590.08	390.87
590.24	428.32
590.40	395.55
590.56	468.11
590.72	381.51
590.88	369.80
591.04	423.64
591.20	379.17
591.35	369.80
591.51	395.55
591.67	379.17
591.83	379.17
591.99	409.59
592.15	418.96
592.31	437.68
592.46	444.70
592.62	421.30
592.78	393.21
592.94	395.55
593.10	402.57
593.26	381.51
593.41	430.66
593.57	355.76
593.73	421.30
593.89	381.51
594.05	407.25
594.20	435.34
594.36	491.51
594.52	386.19
594.68	435.34
594.84	425.98
594.99	482.15
595.15	423.64
595.31	416.62
595.47	421.30
595.62	440.02
595.78	411.93
595.94	411.93
596.10	479.81
596.25	409.59
596.41	409.59
596.57	397.89
596.73	433.00
596.88	402.57
597.04	400.23
597.20	458.74
597.36	374.49
597.51	376.83
597.67	411.93
597.83	440.02
597.99	418.96
598.14	360.44
598.30	470.45
598.46	400.23
598.61	327.68
598.77	416.62
598.93	362.78
599.09	430.66
599.24	461.09
599.40	444.70
599.56	395.55
599.71	353.42
599.87	416.62
600.03	416.62
600.18	437.68
600.34	402.57
600.50	330.02
600.65	397.89
600.81	430.66
600.97	402.57
601.12	418.96
601.28	456.40
601.44	477.47
601.59	430.66
601.75	503.22
601.91	433.00
602.06	430.66
602.22	465.77
602.37	475.13
602.53	463.43
602.69	400.23
602.84	414.27
603.00	348.74
603.16	437.68
603.31	425.98
603.47	379.17
603.62	472.79
603.78	449.38
603.94	306.61
604.09	463.43
604.25	435.34
604.40	418.96
604.56	395.55
604.71	472.79
604.87	423.64
605.03	425.98
605.18	409.59
605.34	409.59
605.49	416.62
605.65	447.04
605.80	418.96
605.96	369.80
606.12	409.59
606.27	442.36
606.43	458.74
606.58	465.77
606.74	440.02
606.89	449.38
607.05	395.55
607.20	386.19
607.36	451.72
607.51	430.66
607.67	425.98
607.82	433.00
607.98	496.19
608.13	477.47
608.29	372.15
608.44	449.38
608.60	386.19
608.75	416.62
608.91	390.87
609.06	479.81
609.22	451.72
609.37	320.65
609.53	344.06
609.68	367.46
609.84	402.57
609.99	414.27
610.15	402.57
