SpectraSuite Data File
++++++++++++++++++++++++++++++++++++
Date: Fri Oct 25 12:10:50 EDT 2013
User: price-jones
Dark Spectrum Present: No
Reference Spectrum Present: No
Number of Sampled Component Spectra: 1
Spectrometers: USB2+H05261
Integration Time (usec): 100000 (USB2+H05261)
Spectra Averaged: 1 (USB2+H05261)
Boxcar Smoothing: 0 (USB2+H05261)
Correct for Electrical Dark: No (USB2+H05261)
Strobe/Lamp Enabled: No (USB2+H05261)
Correct for Detector Non-linearity: No (USB2+H05261)
Correct for Stray Light: No (USB2+H05261)
Number of Pixels in Processed Spectrum: 2048
>>>>>Begin Processed Spectral Data<<<<<
365.73	325.33
365.92	325.33
366.12	325.33
366.32	149.79
366.52	208.31
366.72	287.89
366.91	198.95
367.11	196.60
367.31	196.60
367.51	248.10
367.70	128.73
367.90	191.92
368.10	198.95
368.30	241.08
368.49	271.50
368.69	231.71
368.89	294.91
369.09	243.42
369.28	297.25
369.48	290.23
369.68	234.05
369.87	304.27
370.07	315.97
370.27	290.23
370.47	344.06
370.66	348.74
370.86	355.76
371.06	409.59
371.25	414.27
371.45	393.21
371.65	437.68
371.84	339.38
372.04	327.68
372.24	458.74
372.44	348.74
372.63	360.44
372.83	388.53
373.03	404.91
373.22	418.96
373.42	358.10
373.62	374.49
373.81	404.91
374.01	421.30
374.21	404.91
374.40	337.04
374.60	477.47
374.79	442.36
374.99	369.80
375.19	435.34
375.38	414.27
375.58	402.57
375.78	402.57
375.97	400.23
376.17	395.55
376.37	386.19
376.56	442.36
376.76	407.25
376.95	458.74
377.15	489.17
377.35	418.96
377.54	390.87
377.74	440.02
377.93	355.76
378.13	472.79
378.33	447.04
378.52	376.83
378.72	362.78
378.91	390.87
379.11	365.12
379.31	390.87
379.50	372.15
379.70	388.53
379.89	454.06
380.09	411.93
380.28	425.98
380.48	451.72
380.68	449.38
380.87	404.91
381.07	362.78
381.26	482.15
381.46	414.27
381.65	493.85
381.85	355.76
382.04	372.15
382.24	397.89
382.43	428.32
382.63	418.96
382.83	407.25
383.02	421.30
383.22	447.04
383.41	447.04
383.61	362.78
383.80	411.93
384.00	423.64
384.19	442.36
384.39	418.96
384.58	379.17
384.78	383.85
384.97	362.78
385.17	395.55
385.36	418.96
385.56	372.15
385.75	440.02
385.95	454.06
386.14	437.68
386.34	393.21
386.53	444.70
386.72	409.59
386.92	482.15
387.11	458.74
387.31	346.40
387.50	428.32
387.70	362.78
387.89	334.70
388.09	369.80
388.28	388.53
388.48	327.68
388.67	404.91
388.86	423.64
389.06	402.57
389.25	365.12
389.45	337.04
389.64	381.51
389.84	442.36
390.03	386.19
390.22	505.56
390.42	388.53
390.61	409.59
390.81	308.95
391.00	390.87
391.19	351.08
391.39	458.74
391.58	489.17
391.78	416.62
391.97	411.93
392.16	388.53
392.36	376.83
392.55	404.91
392.75	400.23
392.94	400.23
393.13	465.77
393.33	358.10
393.52	306.61
393.71	435.34
393.91	374.49
394.10	332.36
394.29	440.02
394.49	379.17
394.68	479.81
394.88	486.83
395.07	477.47
395.26	351.08
395.46	407.25
395.65	491.51
395.84	397.89
396.04	444.70
396.23	447.04
396.42	418.96
396.62	411.93
396.81	470.45
397.00	437.68
397.19	365.12
397.39	447.04
397.58	430.66
397.77	444.70
397.97	299.59
398.16	414.27
398.35	449.38
398.55	367.46
398.74	348.74
398.93	388.53
399.12	376.83
399.32	425.98
399.51	355.76
399.70	367.46
399.90	456.40
400.09	358.10
400.28	372.15
400.47	386.19
400.67	423.64
400.86	381.51
401.05	430.66
401.24	442.36
401.44	433.00
401.63	430.66
401.82	463.43
402.01	376.83
402.21	301.93
402.40	470.45
402.59	395.55
402.78	374.49
402.97	430.66
403.17	409.59
403.36	472.79
403.55	386.19
403.74	423.64
403.93	376.83
404.13	435.34
404.32	470.45
404.51	381.51
404.70	461.09
404.89	416.62
405.09	411.93
405.28	409.59
405.47	372.15
405.66	411.93
405.85	433.00
406.05	425.98
406.24	372.15
406.43	440.02
406.62	414.27
406.81	369.80
407.00	421.30
407.20	418.96
407.39	271.50
407.58	362.78
407.77	379.17
407.96	346.40
408.15	514.92
408.34	454.06
408.54	472.79
408.73	447.04
408.92	442.36
409.11	393.21
409.30	369.80
409.49	395.55
409.68	407.25
409.87	397.89
410.07	360.44
410.26	435.34
410.45	400.23
410.64	369.80
410.83	451.72
411.02	409.59
411.21	407.25
411.40	496.19
411.59	397.89
411.78	404.91
411.98	395.55
412.17	477.47
412.36	369.80
412.55	397.89
412.74	346.40
412.93	486.83
413.12	411.93
413.31	397.89
413.50	491.51
413.69	400.23
413.88	390.87
414.07	351.08
414.26	360.44
414.45	397.89
414.64	374.49
414.83	430.66
415.02	400.23
415.22	449.38
415.41	454.06
415.60	411.93
415.79	440.02
415.98	484.49
416.17	404.91
416.36	390.87
416.55	285.55
416.74	397.89
416.93	435.34
417.12	388.53
417.31	404.91
417.50	449.38
417.69	435.34
417.88	444.70
418.07	402.57
418.26	463.43
418.45	435.34
418.64	404.91
418.83	430.66
419.02	423.64
419.21	400.23
419.39	379.17
419.58	433.00
419.77	402.57
419.96	402.57
420.15	348.74
420.34	367.46
420.53	409.59
420.72	451.72
420.91	425.98
421.10	468.11
421.29	390.87
421.48	404.91
421.67	416.62
421.86	440.02
422.05	433.00
422.24	390.87
422.43	421.30
422.61	374.49
422.80	409.59
422.99	390.87
423.18	451.72
423.37	433.00
423.56	365.12
423.75	362.78
423.94	351.08
424.13	449.38
424.32	404.91
424.50	404.91
424.69	414.27
424.88	465.77
425.07	297.25
425.26	407.25
425.45	388.53
425.64	416.62
425.83	374.49
426.01	425.98
426.20	374.49
426.39	470.45
426.58	402.57
426.77	414.27
426.96	383.85
427.15	451.72
427.33	390.87
427.52	435.34
427.71	472.79
427.90	379.17
428.09	423.64
428.28	416.62
428.46	379.17
428.65	407.25
428.84	393.21
429.03	416.62
429.22	390.87
429.40	407.25
429.59	376.83
429.78	442.36
429.97	409.59
430.16	458.74
430.34	440.02
430.53	381.51
430.72	402.57
430.91	447.04
431.10	397.89
431.28	421.30
431.47	456.40
431.66	376.83
431.85	376.83
432.03	435.34
432.22	451.72
432.41	463.43
432.60	458.74
432.79	477.47
432.97	425.98
433.16	414.27
433.35	334.70
433.54	421.30
433.72	418.96
433.91	423.64
434.10	386.19
434.28	444.70
434.47	381.51
434.66	374.49
434.85	374.49
435.03	423.64
435.22	440.02
435.41	489.17
435.59	461.09
435.78	489.17
435.97	449.38
436.16	428.32
436.34	372.15
436.53	416.62
436.72	433.00
436.90	442.36
437.09	430.66
437.28	486.83
437.46	421.30
437.65	418.96
437.84	404.91
438.02	402.57
438.21	390.87
438.40	339.38
438.58	386.19
438.77	496.19
438.96	395.55
439.14	386.19
439.33	390.87
439.52	395.55
439.70	388.53
439.89	379.17
440.08	451.72
440.26	341.72
440.45	416.62
440.63	435.34
440.82	407.25
441.01	376.83
441.19	395.55
441.38	430.66
441.57	437.68
441.75	470.45
441.94	449.38
442.12	479.81
442.31	451.72
442.50	395.55
442.68	423.64
442.87	381.51
443.05	468.11
443.24	337.04
443.43	444.70
443.61	482.15
443.80	367.46
443.98	400.23
444.17	379.17
444.35	376.83
444.54	404.91
444.73	440.02
444.91	482.15
445.10	388.53
445.28	437.68
445.47	372.15
445.65	355.76
445.84	386.19
446.02	482.15
446.21	414.27
446.39	360.44
446.58	444.70
446.77	400.23
446.95	381.51
447.14	386.19
447.32	491.51
447.51	404.91
447.69	411.93
447.88	423.64
448.06	433.00
448.25	318.31
448.43	358.10
448.62	407.25
448.80	402.57
448.99	461.09
449.17	334.70
449.36	320.65
449.54	416.62
449.73	358.10
449.91	409.59
450.10	461.09
450.28	435.34
450.46	425.98
450.65	430.66
450.83	351.08
451.02	390.87
451.20	425.98
451.39	386.19
451.57	444.70
451.76	327.68
451.94	327.68
452.13	379.17
452.31	449.38
452.49	416.62
452.68	402.57
452.86	372.15
453.05	533.64
453.23	374.49
453.42	386.19
453.60	447.04
453.78	390.87
453.97	423.64
454.15	407.25
454.34	472.79
454.52	388.53
454.70	395.55
454.89	400.23
455.07	421.30
455.26	416.62
455.44	367.46
455.62	402.57
455.81	402.57
455.99	425.98
456.17	421.30
456.36	484.49
456.54	425.98
456.73	332.36
456.91	351.08
457.09	407.25
457.28	435.34
457.46	294.91
457.64	414.27
457.83	407.25
458.01	428.32
458.19	404.91
458.38	393.21
458.56	360.44
458.74	447.04
458.93	451.72
459.11	383.85
459.29	358.10
459.48	393.21
459.66	435.34
459.84	388.53
460.03	538.32
460.21	414.27
460.39	454.06
460.57	386.19
460.76	374.49
460.94	376.83
461.12	435.34
461.31	451.72
461.49	430.66
461.67	351.08
461.85	416.62
462.04	414.27
462.22	713.86
462.40	421.30
462.59	388.53
462.77	402.57
462.95	397.89
463.13	386.19
463.32	428.32
463.50	442.36
463.68	428.32
463.86	388.53
464.05	369.80
464.23	458.74
464.41	430.66
464.59	465.77
464.78	397.89
464.96	393.21
465.14	362.78
465.32	433.00
465.50	362.78
465.69	374.49
465.87	374.49
466.05	393.21
466.23	423.64
466.41	404.91
466.60	437.68
466.78	372.15
466.96	430.66
467.14	397.89
467.32	395.55
467.51	374.49
467.69	400.23
467.87	449.38
468.05	433.00
468.23	528.96
468.41	423.64
468.60	369.80
468.78	475.13
468.96	496.19
469.14	442.36
469.32	433.00
469.50	388.53
469.69	416.62
469.87	447.04
470.05	472.79
470.23	353.42
470.41	388.53
470.59	437.68
470.77	454.06
470.95	447.04
471.14	447.04
471.32	442.36
471.50	449.38
471.68	390.87
471.86	423.64
472.04	440.02
472.22	360.44
472.40	414.27
472.58	414.27
472.77	407.25
472.95	365.12
473.13	430.66
473.31	454.06
473.49	451.72
473.67	416.62
473.85	367.46
474.03	458.74
474.21	322.99
474.39	379.17
474.57	395.55
474.75	454.06
474.93	327.68
475.12	461.09
475.30	390.87
475.48	383.85
475.66	437.68
475.84	444.70
476.02	414.27
476.20	437.68
476.38	404.91
476.56	449.38
476.74	437.68
476.92	423.64
477.10	433.00
477.28	409.59
477.46	418.96
477.64	440.02
477.82	386.19
478.00	470.45
478.18	433.00
478.36	435.34
478.54	416.62
478.72	411.93
478.90	409.59
479.08	414.27
479.26	428.32
479.44	390.87
479.62	454.06
479.80	454.06
479.98	482.15
480.16	402.57
480.34	435.34
480.52	367.46
480.70	428.32
480.88	395.55
481.06	362.78
481.24	334.70
481.41	358.10
481.59	351.08
481.77	414.27
481.95	383.85
482.13	358.10
482.31	449.38
482.49	374.49
482.67	414.27
482.85	454.06
483.03	372.15
483.21	395.55
483.39	393.21
483.57	325.33
483.74	477.47
483.92	440.02
484.10	381.51
484.28	463.43
484.46	468.11
484.64	421.30
484.82	407.25
485.00	369.80
485.18	454.06
485.35	435.34
485.53	379.17
485.71	393.21
485.89	407.25
486.07	421.30
486.25	496.19
486.43	411.93
486.61	407.25
486.78	421.30
486.96	407.25
487.14	425.98
487.32	435.34
487.50	437.68
487.68	468.11
487.85	369.80
488.03	339.38
488.21	465.77
488.39	390.87
488.57	428.32
488.75	395.55
488.92	475.13
489.10	411.93
489.28	440.02
489.46	388.53
489.64	360.44
489.81	484.49
489.99	442.36
490.17	388.53
490.35	433.00
490.53	461.09
490.70	353.42
490.88	456.40
491.06	411.93
491.24	444.70
491.41	430.66
491.59	482.15
491.77	440.02
491.95	409.59
492.13	411.93
492.30	353.42
492.48	393.21
492.66	435.34
492.84	416.62
493.01	428.32
493.19	360.44
493.37	376.83
493.54	416.62
493.72	386.19
493.90	435.34
494.08	418.96
494.25	433.00
494.43	355.76
494.61	395.55
494.79	362.78
494.96	386.19
495.14	428.32
495.32	388.53
495.49	383.85
495.67	423.64
495.85	383.85
496.02	390.87
496.20	430.66
496.38	437.68
496.55	437.68
496.73	465.77
496.91	465.77
497.09	458.74
497.26	461.09
497.44	369.80
497.62	344.06
497.79	479.81
497.97	491.51
498.14	407.25
498.32	393.21
498.50	444.70
498.67	447.04
498.85	470.45
499.03	374.49
499.20	362.78
499.38	416.62
499.56	498.53
499.73	395.55
499.91	425.98
500.08	463.43
500.26	421.30
500.44	395.55
500.61	386.19
500.79	397.89
500.97	475.13
501.14	512.58
501.32	414.27
501.49	423.64
501.67	428.32
501.84	428.32
502.02	407.25
502.20	472.79
502.37	409.59
502.55	465.77
502.72	425.98
502.90	388.53
503.07	418.96
503.25	421.30
503.43	404.91
503.60	428.32
503.78	421.30
503.95	449.38
504.13	463.43
504.30	397.89
504.48	395.55
504.65	461.09
504.83	402.57
505.01	440.02
505.18	416.62
505.36	388.53
505.53	451.72
505.71	454.06
505.88	430.66
506.06	423.64
506.23	437.68
506.41	330.02
506.58	435.34
506.76	409.59
506.93	414.27
507.11	456.40
507.28	337.04
507.46	388.53
507.63	447.04
507.81	407.25
507.98	414.27
508.16	369.80
508.33	337.04
508.50	376.83
508.68	423.64
508.85	388.53
509.03	411.93
509.20	425.98
509.38	407.25
509.55	400.23
509.73	454.06
509.90	454.06
510.08	482.15
510.25	339.38
510.42	395.55
510.60	379.17
510.77	442.36
510.95	416.62
511.12	447.04
511.30	507.90
511.47	374.49
511.64	430.66
511.82	421.30
511.99	390.87
512.17	355.76
512.34	470.45
512.51	346.40
512.69	341.72
512.86	341.72
513.04	337.04
513.21	500.87
513.38	444.70
513.56	400.23
513.73	461.09
513.90	421.30
514.08	358.10
514.25	365.12
514.43	379.17
514.60	386.19
514.77	428.32
514.95	435.34
515.12	381.51
515.29	475.13
515.47	376.83
515.64	468.11
515.81	461.09
515.99	414.27
516.16	395.55
516.33	440.02
516.51	461.09
516.68	433.00
516.85	369.80
517.03	400.23
517.20	465.77
517.37	475.13
517.54	411.93
517.72	463.43
517.89	421.30
518.06	346.40
518.24	402.57
518.41	498.53
518.58	465.77
518.75	353.42
518.93	414.27
519.10	386.19
519.27	442.36
519.45	400.23
519.62	376.83
519.79	458.74
519.96	421.30
520.14	390.87
520.31	416.62
520.48	379.17
520.65	456.40
520.83	493.85
521.00	484.49
521.17	486.83
521.34	449.38
521.52	465.77
521.69	433.00
521.86	388.53
522.03	505.56
522.20	463.43
522.38	449.38
522.55	369.80
522.72	418.96
522.89	372.15
523.07	507.90
523.24	411.93
523.41	430.66
523.58	355.76
523.75	374.49
523.92	468.11
524.10	470.45
524.27	369.80
524.44	418.96
524.61	418.96
524.78	435.34
524.96	433.00
525.13	358.10
525.30	505.56
525.47	465.77
525.64	435.34
525.81	463.43
525.98	386.19
526.16	449.38
526.33	425.98
526.50	456.40
526.67	379.17
526.84	383.85
527.01	341.72
527.18	454.06
527.36	414.27
527.53	393.21
527.70	416.62
527.87	449.38
528.04	383.85
528.21	470.45
528.38	447.04
528.55	454.06
528.72	484.49
528.89	449.38
529.07	409.59
529.24	407.25
529.41	409.59
529.58	444.70
529.75	388.53
529.92	447.04
530.09	390.87
530.26	409.59
530.43	444.70
530.60	416.62
530.77	421.30
530.94	418.96
531.11	437.68
531.28	395.55
531.46	430.66
531.63	386.19
531.80	444.70
531.97	437.68
532.14	358.10
532.31	500.87
532.48	369.80
532.65	440.02
532.82	365.12
532.99	400.23
533.16	388.53
533.33	418.96
533.50	397.89
533.67	318.31
533.84	430.66
534.01	369.80
534.18	418.96
534.35	475.13
534.52	390.87
534.69	421.30
534.86	440.02
535.03	444.70
535.20	390.87
535.37	472.79
535.54	414.27
535.71	355.76
535.88	465.77
536.05	407.25
536.22	372.15
536.38	440.02
536.55	482.15
536.72	418.96
536.89	409.59
537.06	397.89
537.23	463.43
537.40	388.53
537.57	393.21
537.74	510.24
537.91	458.74
538.08	463.43
538.25	369.80
538.42	409.59
538.59	461.09
538.75	444.70
538.92	388.53
539.09	369.80
539.26	407.25
539.43	376.83
539.60	414.27
539.77	367.46
539.94	421.30
540.11	362.78
540.28	463.43
540.44	484.49
540.61	463.43
540.78	423.64
540.95	430.66
541.12	444.70
541.29	411.93
541.46	451.72
541.62	463.43
541.79	454.06
541.96	418.96
542.13	444.70
542.30	442.36
542.47	435.34
542.63	423.64
542.80	425.98
542.97	433.00
543.14	390.87
543.31	409.59
543.48	416.62
543.64	400.23
543.81	454.06
543.98	461.09
544.15	435.34
544.32	470.45
544.48	447.04
544.65	393.21
544.82	425.98
544.99	440.02
545.16	404.91
545.32	463.43
545.49	386.19
545.66	383.85
545.83	407.25
546.00	348.74
546.16	484.49
546.33	400.23
546.50	428.32
546.67	411.93
546.83	435.34
547.00	416.62
547.17	334.70
547.34	400.23
547.50	423.64
547.67	423.64
547.84	393.21
548.00	341.72
548.17	407.25
548.34	458.74
548.51	500.87
548.67	393.21
548.84	369.80
549.01	477.47
549.18	456.40
549.34	475.13
549.51	365.12
549.68	458.74
549.84	404.91
550.01	449.38
550.18	468.11
550.34	475.13
550.51	397.89
550.68	440.02
550.84	395.55
551.01	390.87
551.18	383.85
551.34	404.91
551.51	358.10
551.68	489.17
551.84	367.46
552.01	425.98
552.18	423.64
552.34	479.81
552.51	465.77
552.68	421.30
552.84	369.80
553.01	421.30
553.18	444.70
553.34	365.12
553.51	461.09
553.67	416.62
553.84	409.59
554.01	437.68
554.17	482.15
554.34	451.72
554.51	407.25
554.67	411.93
554.84	414.27
555.00	451.72
555.17	393.21
555.33	442.36
555.50	388.53
555.67	435.34
555.83	418.96
556.00	456.40
556.16	510.24
556.33	449.38
556.50	477.47
556.66	477.47
556.83	369.80
556.99	330.02
557.16	386.19
557.32	369.80
557.49	477.47
557.65	451.72
557.82	397.89
557.98	421.30
558.15	421.30
558.32	407.25
558.48	465.77
558.65	393.21
558.81	430.66
558.98	477.47
559.14	383.85
559.31	367.46
559.47	388.53
559.64	376.83
559.80	440.02
559.97	376.83
560.13	374.49
560.30	397.89
560.46	355.76
560.63	442.36
560.79	454.06
560.96	442.36
561.12	341.72
561.29	428.32
561.45	444.70
561.61	451.72
561.78	374.49
561.94	397.89
562.11	465.77
562.27	416.62
562.44	425.98
562.60	351.08
562.77	421.30
562.93	484.49
563.10	376.83
563.26	383.85
563.42	393.21
563.59	376.83
563.75	365.12
563.92	367.46
564.08	414.27
564.24	395.55
564.41	524.28
564.57	411.93
564.74	411.93
564.90	479.81
565.07	407.25
565.23	376.83
565.39	456.40
565.56	425.98
565.72	339.38
565.88	414.27
566.05	388.53
566.21	402.57
566.38	400.23
566.54	367.46
566.70	395.55
566.87	456.40
567.03	404.91
567.19	369.80
567.36	428.32
567.52	402.57
567.68	425.98
567.85	346.40
568.01	418.96
568.17	404.91
568.34	409.59
568.50	423.64
568.66	395.55
568.83	484.49
568.99	369.80
569.15	470.45
569.32	442.36
569.48	330.02
569.64	472.79
569.81	447.04
569.97	442.36
570.13	397.89
570.30	425.98
570.46	423.64
570.62	463.43
570.78	454.06
570.95	407.25
571.11	449.38
571.27	458.74
571.43	397.89
571.60	425.98
571.76	407.25
571.92	400.23
572.09	397.89
572.25	376.83
572.41	437.68
572.57	379.17
572.74	449.38
572.90	444.70
573.06	372.15
573.22	402.57
573.38	395.55
573.55	372.15
573.71	374.49
573.87	414.27
574.03	400.23
574.20	416.62
574.36	491.51
574.52	475.13
574.68	418.96
574.84	383.85
575.01	484.49
575.17	409.59
575.33	400.23
575.49	449.38
575.65	423.64
575.82	475.13
575.98	458.74
576.14	369.80
576.30	423.64
576.46	437.68
576.62	407.25
576.79	491.51
576.95	407.25
577.11	421.30
577.27	428.32
577.43	430.66
577.59	437.68
577.75	484.49
577.92	433.00
578.08	400.23
578.24	402.57
578.40	468.11
578.56	447.04
578.72	435.34
578.88	390.87
579.04	365.12
579.21	430.66
579.37	407.25
579.53	362.78
579.69	442.36
579.85	383.85
580.01	388.53
580.17	379.17
580.33	360.44
580.49	465.77
580.65	465.77
580.82	390.87
580.98	360.44
581.14	421.30
581.30	458.74
581.46	355.76
581.62	510.24
581.78	463.43
581.94	365.12
582.10	365.12
582.26	409.59
582.42	423.64
582.58	491.51
582.74	451.72
582.90	416.62
583.06	421.30
583.22	414.27
583.38	528.96
583.54	440.02
583.70	435.34
583.86	402.57
584.02	341.72
584.18	458.74
584.34	428.32
584.50	430.66
584.66	430.66
584.82	425.98
584.98	355.76
585.14	458.74
585.30	451.72
585.46	433.00
585.62	423.64
585.78	393.21
585.94	386.19
586.10	423.64
586.26	411.93
586.42	463.43
586.58	341.72
586.74	430.66
586.90	449.38
587.06	458.74
587.22	379.17
587.38	369.80
587.54	435.34
587.70	425.98
587.86	444.70
588.02	374.49
588.18	465.77
588.34	388.53
588.49	372.15
588.65	493.85
588.81	386.19
588.97	411.93
589.13	440.02
589.29	425.98
589.45	404.91
589.61	383.85
589.77	393.21
589.93	351.08
590.08	416.62
590.24	458.74
590.40	360.44
590.56	461.09
590.72	404.91
590.88	404.91
591.04	421.30
591.20	383.85
591.35	449.38
591.51	423.64
591.67	404.91
591.83	433.00
591.99	386.19
592.15	383.85
592.31	365.12
592.46	393.21
592.62	402.57
592.78	390.87
592.94	395.55
593.10	482.15
593.26	421.30
593.41	425.98
593.57	421.30
593.73	463.43
593.89	418.96
594.05	411.93
594.20	425.98
594.36	395.55
594.52	358.10
594.68	395.55
594.84	477.47
594.99	416.62
595.15	355.76
595.31	400.23
595.47	383.85
595.62	465.77
595.78	339.38
595.94	393.21
596.10	372.15
596.25	414.27
596.41	430.66
596.57	386.19
596.73	379.17
596.88	416.62
597.04	400.23
597.20	421.30
597.36	472.79
597.51	400.23
597.67	472.79
597.83	407.25
597.99	423.64
598.14	458.74
598.30	440.02
598.46	400.23
598.61	475.13
598.77	421.30
598.93	332.36
599.09	411.93
599.24	386.19
599.40	435.34
599.56	386.19
599.71	379.17
599.87	447.04
600.03	381.51
600.18	397.89
600.34	440.02
600.50	360.44
600.65	449.38
600.81	479.81
600.97	519.60
601.12	414.27
601.28	418.96
601.44	393.21
601.59	395.55
601.75	409.59
601.91	388.53
602.06	395.55
602.22	500.87
602.37	425.98
602.53	425.98
602.69	435.34
602.84	416.62
603.00	407.25
603.16	418.96
603.31	418.96
603.47	383.85
603.62	411.93
603.78	369.80
603.94	379.17
604.09	374.49
604.25	381.51
604.40	479.81
604.56	390.87
604.71	402.57
604.87	456.40
605.03	484.49
605.18	463.43
605.34	418.96
605.49	454.06
605.65	421.30
605.80	409.59
605.96	421.30
606.12	390.87
606.27	486.83
606.43	435.34
606.58	425.98
606.74	449.38
606.89	454.06
607.05	393.21
607.20	440.02
607.36	400.23
607.51	491.51
607.67	425.98
607.82	442.36
607.98	381.51
608.13	461.09
608.29	358.10
608.44	425.98
608.60	365.12
608.75	454.06
608.91	442.36
609.06	320.65
609.22	435.34
609.37	369.80
609.53	416.62
609.68	418.96
609.84	400.23
609.99	372.15
610.15	430.66
