SpectraSuite Data File
++++++++++++++++++++++++++++++++++++
Date: Fri Oct 25 12:11:22 EDT 2013
User: price-jones
Dark Spectrum Present: No
Reference Spectrum Present: No
Number of Sampled Component Spectra: 1
Spectrometers: USB2+H05261
Integration Time (usec): 100000 (USB2+H05261)
Spectra Averaged: 1 (USB2+H05261)
Boxcar Smoothing: 0 (USB2+H05261)
Correct for Electrical Dark: No (USB2+H05261)
Strobe/Lamp Enabled: No (USB2+H05261)
Correct for Detector Non-linearity: No (USB2+H05261)
Correct for Stray Light: No (USB2+H05261)
Number of Pixels in Processed Spectrum: 2048
>>>>>Begin Processed Spectral Data<<<<<
365.73	362.78
365.92	362.78
366.12	362.78
366.32	215.33
366.52	250.44
366.72	245.76
366.91	184.90
367.11	313.63
367.31	191.92
367.51	184.90
367.70	173.20
367.90	287.89
368.10	243.42
368.30	245.76
368.49	215.33
368.69	278.52
368.89	276.18
369.09	266.82
369.28	266.82
369.48	285.55
369.68	201.29
369.87	255.12
370.07	308.95
370.27	325.33
370.47	304.27
370.66	383.85
370.86	372.15
371.06	379.17
371.25	416.62
371.45	358.10
371.65	430.66
371.84	388.53
372.04	341.72
372.24	418.96
372.44	376.83
372.63	388.53
372.83	360.44
373.03	411.93
373.22	404.91
373.42	367.46
373.62	348.74
373.81	500.87
374.01	440.02
374.21	444.70
374.40	470.45
374.60	463.43
374.79	395.55
374.99	414.27
375.19	386.19
375.38	404.91
375.58	402.57
375.78	348.74
375.97	444.70
376.17	369.80
376.37	407.25
376.56	418.96
376.76	440.02
376.95	407.25
377.15	489.17
377.35	449.38
377.54	372.15
377.74	393.21
377.93	456.40
378.13	414.27
378.33	430.66
378.52	414.27
378.72	414.27
378.91	423.64
379.11	390.87
379.31	402.57
379.50	423.64
379.70	435.34
379.89	423.64
380.09	414.27
380.28	402.57
380.48	351.08
380.68	409.59
380.87	341.72
381.07	425.98
381.26	454.06
381.46	367.46
381.65	404.91
381.85	404.91
382.04	381.51
382.24	418.96
382.43	454.06
382.63	416.62
382.83	418.96
383.02	437.68
383.22	428.32
383.41	454.06
383.61	390.87
383.80	404.91
384.00	351.08
384.19	407.25
384.39	381.51
384.58	390.87
384.78	416.62
384.97	449.38
385.17	409.59
385.36	425.98
385.56	367.46
385.75	337.04
385.95	393.21
386.14	383.85
386.34	386.19
386.53	444.70
386.72	430.66
386.92	423.64
387.11	423.64
387.31	421.30
387.50	416.62
387.70	383.85
387.89	430.66
388.09	402.57
388.28	355.76
388.48	386.19
388.67	411.93
388.86	355.76
389.06	351.08
389.25	425.98
389.45	430.66
389.64	440.02
389.84	388.53
390.03	418.96
390.22	454.06
390.42	451.72
390.61	437.68
390.81	409.59
391.00	479.81
391.19	444.70
391.39	433.00
391.58	442.36
391.78	348.74
391.97	332.36
392.16	416.62
392.36	409.59
392.55	386.19
392.75	423.64
392.94	510.24
393.13	461.09
393.33	386.19
393.52	386.19
393.71	425.98
393.91	418.96
394.10	369.80
394.29	348.74
394.49	353.42
394.68	400.23
394.88	423.64
395.07	416.62
395.26	435.34
395.46	416.62
395.65	404.91
395.84	507.90
396.04	414.27
396.23	430.66
396.42	337.04
396.62	454.06
396.81	358.10
397.00	496.19
397.19	440.02
397.39	397.89
397.58	358.10
397.77	369.80
397.97	372.15
398.16	400.23
398.35	479.81
398.55	393.21
398.74	447.04
398.93	458.74
399.12	423.64
399.32	423.64
399.51	437.68
399.70	449.38
399.90	418.96
400.09	418.96
400.28	430.66
400.47	449.38
400.67	404.91
400.86	451.72
401.05	425.98
401.24	435.34
401.44	367.46
401.63	435.34
401.82	367.46
402.01	374.49
402.21	444.70
402.40	400.23
402.59	386.19
402.78	437.68
402.97	416.62
403.17	292.57
403.36	332.36
403.55	416.62
403.74	409.59
403.93	447.04
404.13	402.57
404.32	395.55
404.51	388.53
404.70	409.59
404.89	393.21
405.09	458.74
405.28	451.72
405.47	397.89
405.66	404.91
405.85	451.72
406.05	454.06
406.24	379.17
406.43	433.00
406.62	425.98
406.81	395.55
407.00	451.72
407.20	400.23
407.39	430.66
407.58	395.55
407.77	440.02
407.96	458.74
408.15	449.38
408.34	428.32
408.54	456.40
408.73	433.00
408.92	358.10
409.11	395.55
409.30	444.70
409.49	381.51
409.68	418.96
409.87	414.27
410.07	344.06
410.26	369.80
410.45	388.53
410.64	416.62
410.83	365.12
411.02	348.74
411.21	397.89
411.40	468.11
411.59	395.55
411.78	468.11
411.98	433.00
412.17	374.49
412.36	388.53
412.55	301.93
412.74	454.06
412.93	414.27
413.12	383.85
413.31	421.30
413.50	444.70
413.69	397.89
413.88	472.79
414.07	411.93
414.26	369.80
414.45	400.23
414.64	388.53
414.83	430.66
415.02	407.25
415.22	409.59
415.41	433.00
415.60	390.87
415.79	351.08
415.98	386.19
416.17	416.62
416.36	402.57
416.55	397.89
416.74	437.68
416.93	442.36
417.12	437.68
417.31	475.13
417.50	437.68
417.69	411.93
417.88	407.25
418.07	304.27
418.26	425.98
418.45	402.57
418.64	390.87
418.83	407.25
419.02	409.59
419.21	428.32
419.39	416.62
419.58	337.04
419.77	425.98
419.96	447.04
420.15	411.93
420.34	456.40
420.53	379.17
420.72	489.17
420.91	404.91
421.10	414.27
421.29	404.91
421.48	456.40
421.67	414.27
421.86	447.04
422.05	416.62
422.24	418.96
422.43	390.87
422.61	409.59
422.80	454.06
422.99	463.43
423.18	409.59
423.37	374.49
423.56	421.30
423.75	376.83
423.94	353.42
424.13	486.83
424.32	365.12
424.50	444.70
424.69	383.85
424.88	538.32
425.07	402.57
425.26	397.89
425.45	383.85
425.64	435.34
425.83	449.38
426.01	484.49
426.20	437.68
426.39	444.70
426.58	379.17
426.77	395.55
426.96	468.11
427.15	425.98
427.33	348.74
427.52	355.76
427.71	365.12
427.90	379.17
428.09	444.70
428.28	358.10
428.46	409.59
428.65	425.98
428.84	468.11
429.03	407.25
429.22	365.12
429.40	390.87
429.59	334.70
429.78	409.59
429.97	411.93
430.16	402.57
430.34	454.06
430.53	372.15
430.72	381.51
430.91	433.00
431.10	374.49
431.28	414.27
431.47	390.87
431.66	402.57
431.85	447.04
432.03	395.55
432.22	505.56
432.41	404.91
432.60	444.70
432.79	454.06
432.97	437.68
433.16	421.30
433.35	355.76
433.54	395.55
433.72	465.77
433.91	442.36
434.10	353.42
434.28	465.77
434.47	428.32
434.66	383.85
434.85	400.23
435.03	470.45
435.22	395.55
435.41	409.59
435.59	444.70
435.78	451.72
435.97	395.55
436.16	435.34
436.34	348.74
436.53	369.80
436.72	393.21
436.90	440.02
437.09	472.79
437.28	425.98
437.46	322.99
437.65	386.19
437.84	367.46
438.02	414.27
438.21	454.06
438.40	383.85
438.58	397.89
438.77	360.44
438.96	430.66
439.14	433.00
439.33	402.57
439.52	430.66
439.70	461.09
439.89	395.55
440.08	461.09
440.26	411.93
440.45	454.06
440.63	444.70
440.82	409.59
441.01	433.00
441.19	477.47
441.38	358.10
441.57	367.46
441.75	409.59
441.94	440.02
442.12	451.72
442.31	388.53
442.50	388.53
442.68	372.15
442.87	379.17
443.05	393.21
443.24	435.34
443.43	435.34
443.61	496.19
443.80	447.04
443.98	400.23
444.17	425.98
444.35	456.40
444.54	390.87
444.73	358.10
444.91	414.27
445.10	423.64
445.28	362.78
445.47	414.27
445.65	386.19
445.84	430.66
446.02	332.36
446.21	372.15
446.39	414.27
446.58	395.55
446.77	416.62
446.95	447.04
447.14	454.06
447.32	421.30
447.51	348.74
447.69	402.57
447.88	407.25
448.06	470.45
448.25	365.12
448.43	414.27
448.62	395.55
448.80	404.91
448.99	393.21
449.17	409.59
449.36	395.55
449.54	458.74
449.73	337.04
449.91	407.25
450.10	397.89
450.28	482.15
450.46	463.43
450.65	437.68
450.83	416.62
451.02	484.49
451.20	425.98
451.39	369.80
451.57	444.70
451.76	400.23
451.94	451.72
452.13	440.02
452.31	379.17
452.49	402.57
452.68	409.59
452.86	440.02
453.05	351.08
453.23	327.68
453.42	404.91
453.60	362.78
453.78	402.57
453.97	381.51
454.15	407.25
454.34	374.49
454.52	435.34
454.70	397.89
454.89	475.13
455.07	372.15
455.26	421.30
455.44	330.02
455.62	451.72
455.81	425.98
455.99	414.27
456.17	341.72
456.36	369.80
456.54	407.25
456.73	430.66
456.91	400.23
457.09	489.17
457.28	411.93
457.46	416.62
457.64	400.23
457.83	388.53
458.01	369.80
458.19	425.98
458.38	498.53
458.56	416.62
458.74	388.53
458.93	409.59
459.11	418.96
459.29	425.98
459.48	454.06
459.66	442.36
459.84	430.66
460.03	430.66
460.21	397.89
460.39	423.64
460.57	360.44
460.76	489.17
460.94	393.21
461.12	468.11
461.31	390.87
461.49	402.57
461.67	449.38
461.85	447.04
462.04	449.38
462.22	791.10
462.40	458.74
462.59	479.81
462.77	386.19
462.95	482.15
463.13	442.36
463.32	407.25
463.50	489.17
463.68	454.06
463.86	351.08
464.05	397.89
464.23	425.98
464.41	411.93
464.59	440.02
464.78	421.30
464.96	407.25
465.14	397.89
465.32	386.19
465.50	402.57
465.69	479.81
465.87	376.83
466.05	458.74
466.23	404.91
466.41	428.32
466.60	344.06
466.78	404.91
466.96	386.19
467.14	421.30
467.32	505.56
467.51	404.91
467.69	456.40
467.87	442.36
468.05	411.93
468.23	463.43
468.41	440.02
468.60	402.57
468.78	374.49
468.96	414.27
469.14	442.36
469.32	374.49
469.50	395.55
469.69	454.06
469.87	327.68
470.05	472.79
470.23	451.72
470.41	400.23
470.59	379.17
470.77	414.27
470.95	395.55
471.14	456.40
471.32	418.96
471.50	414.27
471.68	402.57
471.86	468.11
472.04	444.70
472.22	344.06
472.40	418.96
472.58	482.15
472.77	376.83
472.95	330.02
473.13	442.36
473.31	500.87
473.49	341.72
473.67	461.09
473.85	512.58
474.03	444.70
474.21	430.66
474.39	489.17
474.57	493.85
474.75	475.13
474.93	416.62
475.12	407.25
475.30	479.81
475.48	468.11
475.66	456.40
475.84	440.02
476.02	395.55
476.20	397.89
476.38	402.57
476.56	512.58
476.74	409.59
476.92	386.19
477.10	330.02
477.28	393.21
477.46	491.51
477.64	447.04
477.82	414.27
478.00	395.55
478.18	491.51
478.36	425.98
478.54	451.72
478.72	421.30
478.90	430.66
479.08	451.72
479.26	409.59
479.44	463.43
479.62	428.32
479.80	440.02
479.98	346.40
480.16	433.00
480.34	470.45
480.52	390.87
480.70	404.91
480.88	393.21
481.06	304.27
481.24	372.15
481.41	449.38
481.59	449.38
481.77	397.89
481.95	402.57
482.13	411.93
482.31	428.32
482.49	411.93
482.67	444.70
482.85	416.62
483.03	444.70
483.21	463.43
483.39	449.38
483.57	358.10
483.74	496.19
483.92	489.17
484.10	423.64
484.28	407.25
484.46	498.53
484.64	461.09
484.82	414.27
485.00	409.59
485.18	442.36
485.35	404.91
485.53	437.68
485.71	475.13
485.89	376.83
486.07	348.74
486.25	433.00
486.43	425.98
486.61	465.77
486.78	428.32
486.96	442.36
487.14	423.64
487.32	444.70
487.50	447.04
487.68	430.66
487.85	365.12
488.03	421.30
488.21	430.66
488.39	430.66
488.57	512.58
488.75	463.43
488.92	477.47
489.10	397.89
489.28	454.06
489.46	418.96
489.64	397.89
489.81	393.21
489.99	416.62
490.17	418.96
490.35	444.70
490.53	437.68
490.70	437.68
490.88	339.38
491.06	409.59
491.24	496.19
491.41	428.32
491.59	409.59
491.77	461.09
491.95	409.59
492.13	409.59
492.30	407.25
492.48	409.59
492.66	374.49
492.84	435.34
493.01	482.15
493.19	442.36
493.37	442.36
493.54	397.89
493.72	433.00
493.90	369.80
494.08	334.70
494.25	435.34
494.43	409.59
494.61	425.98
494.79	407.25
494.96	337.04
495.14	379.17
495.32	416.62
495.49	400.23
495.67	437.68
495.85	383.85
496.02	503.22
496.20	472.79
496.38	388.53
496.55	477.47
496.73	414.27
496.91	437.68
497.09	433.00
497.26	362.78
497.44	463.43
497.62	451.72
497.79	451.72
497.97	386.19
498.14	409.59
498.32	418.96
498.50	393.21
498.67	393.21
498.85	372.15
499.03	393.21
499.20	411.93
499.38	393.21
499.56	425.98
499.73	475.13
499.91	388.53
500.08	411.93
500.26	454.06
500.44	409.59
500.61	465.77
500.79	365.12
500.97	437.68
501.14	428.32
501.32	472.79
501.49	503.22
501.67	365.12
501.84	468.11
502.02	360.44
502.20	449.38
502.37	437.68
502.55	393.21
502.72	400.23
502.90	411.93
503.07	351.08
503.25	388.53
503.43	369.80
503.60	400.23
503.78	437.68
503.95	365.12
504.13	435.34
504.30	442.36
504.48	397.89
504.65	454.06
504.83	505.56
505.01	456.40
505.18	325.33
505.36	400.23
505.53	414.27
505.71	360.44
505.88	407.25
506.06	414.27
506.23	313.63
506.41	449.38
506.58	437.68
506.76	414.27
506.93	437.68
507.11	407.25
507.28	404.91
507.46	416.62
507.63	386.19
507.81	407.25
507.98	407.25
508.16	435.34
508.33	425.98
508.50	456.40
508.68	414.27
508.85	514.92
509.03	402.57
509.20	421.30
509.38	472.79
509.55	411.93
509.73	451.72
509.90	374.49
510.08	369.80
510.25	395.55
510.42	386.19
510.60	430.66
510.77	386.19
510.95	440.02
511.12	367.46
511.30	421.30
511.47	503.22
511.64	498.53
511.82	416.62
511.99	416.62
512.17	407.25
512.34	435.34
512.51	390.87
512.69	475.13
512.86	430.66
513.04	400.23
513.21	449.38
513.38	379.17
513.56	423.64
513.73	383.85
513.90	484.49
514.08	393.21
514.25	358.10
514.43	376.83
514.60	521.94
514.77	433.00
514.95	416.62
515.12	369.80
515.29	360.44
515.47	475.13
515.64	451.72
515.81	397.89
515.99	479.81
516.16	416.62
516.33	440.02
516.51	360.44
516.68	365.12
516.85	421.30
517.03	358.10
517.20	475.13
517.37	376.83
517.54	468.11
517.72	337.04
517.89	404.91
518.06	416.62
518.24	447.04
518.41	444.70
518.58	430.66
518.75	311.29
518.93	475.13
519.10	433.00
519.27	435.34
519.45	402.57
519.62	358.10
519.79	341.72
519.96	395.55
520.14	423.64
520.31	433.00
520.48	428.32
520.65	322.99
520.83	470.45
521.00	454.06
521.17	386.19
521.34	411.93
521.52	444.70
521.69	372.15
521.86	451.72
522.03	442.36
522.20	437.68
522.38	416.62
522.55	451.72
522.72	421.30
522.89	477.47
523.07	479.81
523.24	383.85
523.41	416.62
523.58	465.77
523.75	461.09
523.92	468.11
524.10	430.66
524.27	468.11
524.44	386.19
524.61	407.25
524.78	465.77
524.96	411.93
525.13	409.59
525.30	451.72
525.47	351.08
525.64	414.27
525.81	463.43
525.98	451.72
526.16	428.32
526.33	395.55
526.50	404.91
526.67	411.93
526.84	367.46
527.01	425.98
527.18	402.57
527.36	416.62
527.53	369.80
527.70	447.04
527.87	449.38
528.04	411.93
528.21	411.93
528.38	386.19
528.55	456.40
528.72	425.98
528.89	390.87
529.07	388.53
529.24	425.98
529.41	444.70
529.58	393.21
529.75	416.62
529.92	463.43
530.09	372.15
530.26	442.36
530.43	374.49
530.60	416.62
530.77	451.72
530.94	322.99
531.11	475.13
531.28	393.21
531.46	372.15
531.63	407.25
531.80	451.72
531.97	461.09
532.14	447.04
532.31	470.45
532.48	428.32
532.65	423.64
532.82	369.80
532.99	407.25
533.16	444.70
533.33	369.80
533.50	425.98
533.67	346.40
533.84	477.47
534.01	402.57
534.18	461.09
534.35	397.89
534.52	454.06
534.69	517.26
534.86	411.93
535.03	397.89
535.20	428.32
535.37	411.93
535.54	404.91
535.71	381.51
535.88	425.98
536.05	383.85
536.22	440.02
536.38	472.79
536.55	430.66
536.72	395.55
536.89	320.65
537.06	428.32
537.23	440.02
537.40	365.12
537.57	451.72
537.74	407.25
537.91	397.89
538.08	397.89
538.25	379.17
538.42	437.68
538.59	437.68
538.75	416.62
538.92	416.62
539.09	435.34
539.26	388.53
539.43	402.57
539.60	397.89
539.77	437.68
539.94	456.40
540.11	409.59
540.28	397.89
540.44	463.43
540.61	400.23
540.78	433.00
540.95	430.66
541.12	510.24
541.29	372.15
541.46	512.58
541.62	437.68
541.79	397.89
541.96	447.04
542.13	433.00
542.30	393.21
542.47	416.62
542.63	411.93
542.80	390.87
542.97	409.59
543.14	379.17
543.31	435.34
543.48	374.49
543.64	442.36
543.81	369.80
543.98	404.91
544.15	472.79
544.32	451.72
544.48	421.30
544.65	454.06
544.82	374.49
544.99	404.91
545.16	393.21
545.32	397.89
545.49	388.53
545.66	468.11
545.83	390.87
546.00	355.76
546.16	433.00
546.33	463.43
546.50	437.68
546.67	454.06
546.83	390.87
547.00	400.23
547.17	423.64
547.34	418.96
547.50	386.19
547.67	437.68
547.84	428.32
548.00	437.68
548.17	379.17
548.34	447.04
548.51	514.92
548.67	456.40
548.84	433.00
549.01	440.02
549.18	409.59
549.34	449.38
549.51	440.02
549.68	458.74
549.84	440.02
550.01	362.78
550.18	470.45
550.34	428.32
550.51	367.46
550.68	463.43
550.84	404.91
551.01	428.32
551.18	383.85
551.34	395.55
551.51	414.27
551.68	411.93
551.84	367.46
552.01	409.59
552.18	339.38
552.34	374.49
552.51	430.66
552.68	514.92
552.84	358.10
553.01	369.80
553.18	454.06
553.34	447.04
553.51	451.72
553.67	447.04
553.84	390.87
554.01	411.93
554.17	449.38
554.34	404.91
554.51	402.57
554.67	414.27
554.84	421.30
555.00	444.70
555.17	409.59
555.33	435.34
555.50	444.70
555.67	407.25
555.83	465.77
556.00	416.62
556.16	535.98
556.33	482.15
556.50	447.04
556.66	433.00
556.83	407.25
556.99	407.25
557.16	430.66
557.32	482.15
557.49	348.74
557.65	486.83
557.82	428.32
557.98	411.93
558.15	437.68
558.32	430.66
558.48	402.57
558.65	454.06
558.81	393.21
558.98	390.87
559.14	433.00
559.31	461.09
559.47	416.62
559.64	454.06
559.80	416.62
559.97	365.12
560.13	449.38
560.30	337.04
560.46	416.62
560.63	458.74
560.79	447.04
560.96	447.04
561.12	416.62
561.29	477.47
561.45	402.57
561.61	451.72
561.78	400.23
561.94	428.32
562.11	454.06
562.27	437.68
562.44	472.79
562.60	425.98
562.77	355.76
562.93	507.90
563.10	479.81
563.26	390.87
563.42	465.77
563.59	423.64
563.75	390.87
563.92	456.40
564.08	500.87
564.24	416.62
564.41	447.04
564.57	344.06
564.74	433.00
564.90	376.83
565.07	463.43
565.23	421.30
565.39	379.17
565.56	428.32
565.72	341.72
565.88	458.74
566.05	421.30
566.21	442.36
566.38	404.91
566.54	486.83
566.70	416.62
566.87	414.27
567.03	407.25
567.19	379.17
567.36	423.64
567.52	397.89
567.68	437.68
567.85	456.40
568.01	379.17
568.17	414.27
568.34	484.49
568.50	465.77
568.66	423.64
568.83	489.17
568.99	400.23
569.15	433.00
569.32	463.43
569.48	451.72
569.64	437.68
569.81	400.23
569.97	414.27
570.13	369.80
570.30	402.57
570.46	388.53
570.62	435.34
570.78	388.53
570.95	421.30
571.11	386.19
571.27	484.49
571.43	402.57
571.60	395.55
571.76	425.98
571.92	449.38
572.09	395.55
572.25	444.70
572.41	440.02
572.57	397.89
572.74	435.34
572.90	372.15
573.06	351.08
573.22	402.57
573.38	454.06
573.55	367.46
573.71	430.66
573.87	463.43
574.03	400.23
574.20	407.25
574.36	444.70
574.52	423.64
574.68	423.64
574.84	369.80
575.01	430.66
575.17	388.53
575.33	397.89
575.49	477.47
575.65	421.30
575.82	444.70
575.98	395.55
576.14	433.00
576.30	407.25
576.46	344.06
576.62	407.25
576.79	454.06
576.95	526.62
577.11	444.70
577.27	463.43
577.43	442.36
577.59	351.08
577.75	379.17
577.92	374.49
578.08	425.98
578.24	421.30
578.40	351.08
578.56	430.66
578.72	381.51
578.88	418.96
579.04	372.15
579.21	430.66
579.37	479.81
579.53	465.77
579.69	402.57
579.85	421.30
580.01	440.02
580.17	437.68
580.33	367.46
580.49	365.12
580.65	440.02
580.82	388.53
580.98	435.34
581.14	461.09
581.30	461.09
581.46	440.02
581.62	425.98
581.78	409.59
581.94	383.85
582.10	390.87
582.26	400.23
582.42	379.17
582.58	395.55
582.74	454.06
582.90	365.12
583.06	454.06
583.22	498.53
583.38	379.17
583.54	425.98
583.70	402.57
583.86	407.25
584.02	369.80
584.18	454.06
584.34	507.90
584.50	475.13
584.66	465.77
584.82	454.06
584.98	451.72
585.14	423.64
585.30	418.96
585.46	458.74
585.62	388.53
585.78	381.51
585.94	423.64
586.10	400.23
586.26	421.30
586.42	444.70
586.58	454.06
586.74	330.02
586.90	402.57
587.06	404.91
587.22	428.32
587.38	409.59
587.54	423.64
587.70	435.34
587.86	458.74
588.02	381.51
588.18	454.06
588.34	447.04
588.49	346.40
588.65	433.00
588.81	435.34
588.97	416.62
589.13	369.80
589.29	416.62
589.45	428.32
589.61	416.62
589.77	374.49
589.93	376.83
590.08	397.89
590.24	416.62
590.40	425.98
590.56	416.62
590.72	421.30
590.88	484.49
591.04	397.89
591.20	365.12
591.35	423.64
591.51	393.21
591.67	374.49
591.83	433.00
591.99	479.81
592.15	383.85
592.31	400.23
592.46	451.72
592.62	430.66
592.78	418.96
592.94	369.80
593.10	475.13
593.26	353.42
593.41	400.23
593.57	397.89
593.73	468.11
593.89	456.40
594.05	414.27
594.20	472.79
594.36	442.36
594.52	395.55
594.68	433.00
594.84	428.32
594.99	437.68
595.15	388.53
595.31	491.51
595.47	472.79
595.62	374.49
595.78	486.83
595.94	458.74
596.10	407.25
596.25	428.32
596.41	409.59
596.57	395.55
596.73	423.64
596.88	447.04
597.04	472.79
597.20	449.38
597.36	433.00
597.51	402.57
597.67	330.02
597.83	458.74
597.99	409.59
598.14	430.66
598.30	376.83
598.46	379.17
598.61	425.98
598.77	402.57
598.93	456.40
599.09	393.21
599.24	451.72
599.40	423.64
599.56	369.80
599.71	397.89
599.87	454.06
600.03	430.66
600.18	414.27
600.34	451.72
600.50	379.17
600.65	409.59
600.81	397.89
600.97	400.23
601.12	491.51
601.28	475.13
601.44	416.62
601.59	351.08
601.75	390.87
601.91	437.68
602.06	423.64
602.22	512.58
602.37	379.17
602.53	433.00
602.69	451.72
602.84	418.96
603.00	411.93
603.16	440.02
603.31	351.08
603.47	447.04
603.62	444.70
603.78	400.23
603.94	428.32
604.09	376.83
604.25	421.30
604.40	379.17
604.56	447.04
604.71	454.06
604.87	454.06
605.03	374.49
605.18	418.96
605.34	425.98
605.49	519.60
605.65	404.91
605.80	393.21
605.96	404.91
606.12	416.62
606.27	386.19
606.43	437.68
606.58	425.98
606.74	425.98
606.89	355.76
607.05	418.96
607.20	407.25
607.36	409.59
607.51	292.57
607.67	482.15
607.82	435.34
607.98	386.19
608.13	458.74
608.29	428.32
608.44	472.79
608.60	456.40
608.75	470.45
608.91	475.13
609.06	379.17
609.22	451.72
609.37	388.53
609.53	461.09
609.68	383.85
609.84	327.68
609.99	442.36
610.15	400.23
