SpectraSuite Data File
++++++++++++++++++++++++++++++++++++
Date: Fri Oct 25 12:11:01 EDT 2013
User: price-jones
Dark Spectrum Present: No
Reference Spectrum Present: No
Number of Sampled Component Spectra: 1
Spectrometers: USB2+H05261
Integration Time (usec): 100000 (USB2+H05261)
Spectra Averaged: 1 (USB2+H05261)
Boxcar Smoothing: 0 (USB2+H05261)
Correct for Electrical Dark: No (USB2+H05261)
Strobe/Lamp Enabled: No (USB2+H05261)
Correct for Detector Non-linearity: No (USB2+H05261)
Correct for Stray Light: No (USB2+H05261)
Number of Pixels in Processed Spectrum: 2048
>>>>>Begin Processed Spectral Data<<<<<
365.73	341.72
365.92	341.72
366.12	341.72
366.32	269.16
366.52	231.71
366.72	290.23
366.91	297.25
367.11	304.27
367.31	250.44
367.51	196.60
367.70	278.52
367.90	241.08
368.10	262.14
368.30	205.97
368.49	245.76
368.69	234.05
368.89	255.12
369.09	262.14
369.28	236.39
369.48	330.02
369.68	287.89
369.87	301.93
370.07	280.86
370.27	229.37
370.47	327.68
370.66	297.25
370.86	367.46
371.06	299.59
371.25	449.38
371.45	421.30
371.65	348.74
371.84	369.80
372.04	409.59
372.24	397.89
372.44	383.85
372.63	416.62
372.83	369.80
373.03	409.59
373.22	360.44
373.42	430.66
373.62	390.87
373.81	365.12
374.01	390.87
374.21	430.66
374.40	411.93
374.60	444.70
374.79	454.06
374.99	468.11
375.19	440.02
375.38	435.34
375.58	440.02
375.78	400.23
375.97	337.04
376.17	365.12
376.37	447.04
376.56	383.85
376.76	407.25
376.95	418.96
377.15	433.00
377.35	402.57
377.54	395.55
377.74	435.34
377.93	388.53
378.13	388.53
378.33	449.38
378.52	463.43
378.72	425.98
378.91	451.72
379.11	360.44
379.31	341.72
379.50	365.12
379.70	447.04
379.89	430.66
380.09	386.19
380.28	339.38
380.48	393.21
380.68	386.19
380.87	367.46
381.07	442.36
381.26	503.22
381.46	346.40
381.65	411.93
381.85	472.79
382.04	372.15
382.24	334.70
382.43	411.93
382.63	386.19
382.83	381.51
383.02	416.62
383.22	535.98
383.41	332.36
383.61	374.49
383.80	463.43
384.00	386.19
384.19	402.57
384.39	414.27
384.58	393.21
384.78	402.57
384.97	358.10
385.17	376.83
385.36	360.44
385.56	402.57
385.75	402.57
385.95	360.44
386.14	454.06
386.34	362.78
386.53	414.27
386.72	388.53
386.92	433.00
387.11	404.91
387.31	390.87
387.50	421.30
387.70	358.10
387.89	367.46
388.09	393.21
388.28	407.25
388.48	376.83
388.67	397.89
388.86	409.59
389.06	414.27
389.25	337.04
389.45	376.83
389.64	315.97
389.84	376.83
390.03	416.62
390.22	465.77
390.42	472.79
390.61	414.27
390.81	404.91
391.00	395.55
391.19	435.34
391.39	442.36
391.58	444.70
391.78	402.57
391.97	332.36
392.16	400.23
392.36	465.77
392.55	395.55
392.75	440.02
392.94	367.46
393.13	376.83
393.33	425.98
393.52	372.15
393.71	430.66
393.91	388.53
394.10	411.93
394.29	456.40
394.49	390.87
394.68	344.06
394.88	461.09
395.07	381.51
395.26	390.87
395.46	425.98
395.65	449.38
395.84	393.21
396.04	390.87
396.23	442.36
396.42	465.77
396.62	444.70
396.81	374.49
397.00	381.51
397.19	423.64
397.39	421.30
397.58	369.80
397.77	320.65
397.97	435.34
398.16	404.91
398.35	437.68
398.55	409.59
398.74	339.38
398.93	442.36
399.12	397.89
399.32	444.70
399.51	456.40
399.70	433.00
399.90	318.31
400.09	458.74
400.28	477.47
400.47	442.36
400.67	425.98
400.86	428.32
401.05	374.49
401.24	428.32
401.44	390.87
401.63	463.43
401.82	449.38
402.01	365.12
402.21	418.96
402.40	390.87
402.59	404.91
402.78	360.44
402.97	416.62
403.17	388.53
403.36	383.85
403.55	369.80
403.74	369.80
403.93	433.00
404.13	433.00
404.32	308.95
404.51	351.08
404.70	463.43
404.89	372.15
405.09	433.00
405.28	418.96
405.47	404.91
405.66	421.30
405.85	454.06
406.05	449.38
406.24	418.96
406.43	430.66
406.62	402.57
406.81	437.68
407.00	437.68
407.20	376.83
407.39	390.87
407.58	404.91
407.77	430.66
407.96	407.25
408.15	388.53
408.34	383.85
408.54	379.17
408.73	395.55
408.92	458.74
409.11	428.32
409.30	423.64
409.49	388.53
409.68	461.09
409.87	425.98
410.07	461.09
410.26	433.00
410.45	402.57
410.64	437.68
410.83	421.30
411.02	372.15
411.21	390.87
411.40	402.57
411.59	337.04
411.78	379.17
411.98	404.91
412.17	353.42
412.36	280.86
412.55	383.85
412.74	451.72
412.93	468.11
413.12	397.89
413.31	388.53
413.50	447.04
413.69	407.25
413.88	454.06
414.07	362.78
414.26	379.17
414.45	355.76
414.64	430.66
414.83	442.36
415.02	414.27
415.22	381.51
415.41	472.79
415.60	358.10
415.79	374.49
415.98	409.59
416.17	334.70
416.36	402.57
416.55	442.36
416.74	411.93
416.93	463.43
417.12	397.89
417.31	358.10
417.50	451.72
417.69	449.38
417.88	458.74
418.07	355.76
418.26	416.62
418.45	418.96
418.64	470.45
418.83	390.87
419.02	395.55
419.21	397.89
419.39	428.32
419.58	397.89
419.77	444.70
419.96	435.34
420.15	404.91
420.34	379.17
420.53	369.80
420.72	428.32
420.91	372.15
421.10	388.53
421.29	404.91
421.48	374.49
421.67	433.00
421.86	390.87
422.05	433.00
422.24	433.00
422.43	454.06
422.61	479.81
422.80	395.55
422.99	390.87
423.18	388.53
423.37	470.45
423.56	395.55
423.75	435.34
423.94	404.91
424.13	369.80
424.32	440.02
424.50	386.19
424.69	451.72
424.88	451.72
425.07	334.70
425.26	451.72
425.45	437.68
425.64	376.83
425.83	372.15
426.01	395.55
426.20	393.21
426.39	449.38
426.58	425.98
426.77	381.51
426.96	381.51
427.15	428.32
427.33	369.80
427.52	437.68
427.71	409.59
427.90	416.62
428.09	454.06
428.28	397.89
428.46	409.59
428.65	367.46
428.84	482.15
429.03	400.23
429.22	428.32
429.40	407.25
429.59	374.49
429.78	423.64
429.97	414.27
430.16	381.51
430.34	423.64
430.53	379.17
430.72	433.00
430.91	442.36
431.10	400.23
431.28	472.79
431.47	404.91
431.66	376.83
431.85	409.59
432.03	423.64
432.22	503.22
432.41	351.08
432.60	351.08
432.79	402.57
432.97	475.13
433.16	421.30
433.35	397.89
433.54	418.96
433.72	440.02
433.91	409.59
434.10	449.38
434.28	433.00
434.47	440.02
434.66	407.25
434.85	379.17
435.03	444.70
435.22	400.23
435.41	470.45
435.59	435.34
435.78	397.89
435.97	418.96
436.16	423.64
436.34	430.66
436.53	435.34
436.72	440.02
436.90	428.32
437.09	479.81
437.28	395.55
437.46	428.32
437.65	437.68
437.84	418.96
438.02	393.21
438.21	416.62
438.40	294.91
438.58	404.91
438.77	374.49
438.96	400.23
439.14	365.12
439.33	433.00
439.52	407.25
439.70	451.72
439.89	358.10
440.08	400.23
440.26	395.55
440.45	435.34
440.63	428.32
440.82	376.83
441.01	388.53
441.19	465.77
441.38	437.68
441.57	369.80
441.75	430.66
441.94	428.32
442.12	390.87
442.31	411.93
442.50	411.93
442.68	442.36
442.87	388.53
443.05	393.21
443.24	428.32
443.43	456.40
443.61	369.80
443.80	430.66
443.98	423.64
444.17	383.85
444.35	444.70
444.54	376.83
444.73	414.27
444.91	418.96
445.10	353.42
445.28	341.72
445.47	423.64
445.65	411.93
445.84	456.40
446.02	421.30
446.21	402.57
446.39	386.19
446.58	442.36
446.77	381.51
446.95	407.25
447.14	433.00
447.32	465.77
447.51	393.21
447.69	418.96
447.88	435.34
448.06	463.43
448.25	395.55
448.43	365.12
448.62	395.55
448.80	421.30
448.99	463.43
449.17	444.70
449.36	379.17
449.54	421.30
449.73	390.87
449.91	395.55
450.10	425.98
450.28	514.92
450.46	510.24
450.65	411.93
450.83	330.02
451.02	344.06
451.20	395.55
451.39	374.49
451.57	468.11
451.76	404.91
451.94	411.93
452.13	400.23
452.31	442.36
452.49	498.53
452.68	407.25
452.86	484.49
453.05	486.83
453.23	435.34
453.42	440.02
453.60	381.51
453.78	411.93
453.97	440.02
454.15	461.09
454.34	397.89
454.52	379.17
454.70	395.55
454.89	442.36
455.07	367.46
455.26	395.55
455.44	411.93
455.62	383.85
455.81	362.78
455.99	376.83
456.17	407.25
456.36	381.51
456.54	444.70
456.73	416.62
456.91	486.83
457.09	472.79
457.28	468.11
457.46	447.04
457.64	423.64
457.83	442.36
458.01	409.59
458.19	454.06
458.38	428.32
458.56	447.04
458.74	423.64
458.93	404.91
459.11	461.09
459.29	425.98
459.48	414.27
459.66	472.79
459.84	390.87
460.03	465.77
460.21	416.62
460.39	430.66
460.57	461.09
460.76	362.78
460.94	456.40
461.12	393.21
461.31	484.49
461.49	440.02
461.67	482.15
461.85	433.00
462.04	358.10
462.22	461.09
462.40	451.72
462.59	395.55
462.77	430.66
462.95	414.27
463.13	425.98
463.32	465.77
463.50	447.04
463.68	411.93
463.86	404.91
464.05	358.10
464.23	519.60
464.41	416.62
464.59	440.02
464.78	351.08
464.96	440.02
465.14	374.49
465.32	425.98
465.50	400.23
465.69	456.40
465.87	372.15
466.05	383.85
466.23	409.59
466.41	418.96
466.60	430.66
466.78	435.34
466.96	437.68
467.14	454.06
467.32	442.36
467.51	463.43
467.69	418.96
467.87	454.06
468.05	423.64
468.23	477.47
468.41	456.40
468.60	411.93
468.78	402.57
468.96	475.13
469.14	358.10
469.32	360.44
469.50	376.83
469.69	444.70
469.87	454.06
470.05	447.04
470.23	386.19
470.41	437.68
470.59	421.30
470.77	440.02
470.95	348.74
471.14	433.00
471.32	390.87
471.50	447.04
471.68	421.30
471.86	435.34
472.04	348.74
472.22	493.85
472.40	353.42
472.58	458.74
472.77	395.55
472.95	386.19
473.13	383.85
473.31	440.02
473.49	428.32
473.67	395.55
473.85	437.68
474.03	442.36
474.21	421.30
474.39	402.57
474.57	437.68
474.75	423.64
474.93	475.13
475.12	351.08
475.30	435.34
475.48	479.81
475.66	430.66
475.84	442.36
476.02	435.34
476.20	498.53
476.38	454.06
476.56	484.49
476.74	386.19
476.92	418.96
477.10	433.00
477.28	402.57
477.46	461.09
477.64	454.06
477.82	425.98
478.00	421.30
478.18	402.57
478.36	458.74
478.54	465.77
478.72	456.40
478.90	418.96
479.08	442.36
479.26	442.36
479.44	386.19
479.62	423.64
479.80	404.91
479.98	404.91
480.16	430.66
480.34	449.38
480.52	409.59
480.70	407.25
480.88	493.85
481.06	428.32
481.24	397.89
481.41	414.27
481.59	496.19
481.77	440.02
481.95	400.23
482.13	440.02
482.31	489.17
482.49	341.72
482.67	435.34
482.85	397.89
483.03	458.74
483.21	425.98
483.39	365.12
483.57	360.44
483.74	409.59
483.92	465.77
484.10	454.06
484.28	393.21
484.46	545.34
484.64	425.98
484.82	454.06
485.00	311.29
485.18	397.89
485.35	365.12
485.53	409.59
485.71	395.55
485.89	346.40
486.07	393.21
486.25	484.49
486.43	440.02
486.61	458.74
486.78	395.55
486.96	369.80
487.14	416.62
487.32	395.55
487.50	433.00
487.68	372.15
487.85	355.76
488.03	433.00
488.21	519.60
488.39	320.65
488.57	402.57
488.75	355.76
488.92	543.00
489.10	421.30
489.28	526.62
489.46	404.91
489.64	440.02
489.81	407.25
489.99	400.23
490.17	404.91
490.35	461.09
490.53	355.76
490.70	376.83
490.88	404.91
491.06	428.32
491.24	418.96
491.41	390.87
491.59	430.66
491.77	435.34
491.95	402.57
492.13	388.53
492.30	355.76
492.48	395.55
492.66	456.40
492.84	409.59
493.01	491.51
493.19	337.04
493.37	393.21
493.54	440.02
493.72	435.34
493.90	454.06
494.08	374.49
494.25	498.53
494.43	395.55
494.61	425.98
494.79	374.49
494.96	379.17
495.14	475.13
495.32	402.57
495.49	351.08
495.67	407.25
495.85	430.66
496.02	379.17
496.20	421.30
496.38	500.87
496.55	402.57
496.73	451.72
496.91	393.21
497.09	334.70
497.26	402.57
497.44	358.10
497.62	477.47
497.79	400.23
497.97	428.32
498.14	397.89
498.32	477.47
498.50	411.93
498.67	454.06
498.85	416.62
499.03	442.36
499.20	430.66
499.38	383.85
499.56	423.64
499.73	496.19
499.91	433.00
500.08	404.91
500.26	423.64
500.44	421.30
500.61	362.78
500.79	390.87
500.97	477.47
501.14	404.91
501.32	379.17
501.49	411.93
501.67	400.23
501.84	451.72
502.02	386.19
502.20	514.92
502.37	437.68
502.55	362.78
502.72	416.62
502.90	367.46
503.07	456.40
503.25	360.44
503.43	409.59
503.60	433.00
503.78	437.68
503.95	358.10
504.13	355.76
504.30	353.42
504.48	507.90
504.65	383.85
504.83	430.66
505.01	353.42
505.18	435.34
505.36	416.62
505.53	390.87
505.71	383.85
505.88	397.89
506.06	461.09
506.23	442.36
506.41	381.51
506.58	416.62
506.76	482.15
506.93	468.11
507.11	463.43
507.28	454.06
507.46	388.53
507.63	461.09
507.81	393.21
507.98	437.68
508.16	332.36
508.33	428.32
508.50	390.87
508.68	428.32
508.85	400.23
509.03	400.23
509.20	395.55
509.38	407.25
509.55	423.64
509.73	421.30
509.90	421.30
510.08	423.64
510.25	416.62
510.42	383.85
510.60	402.57
510.77	496.19
510.95	447.04
511.12	395.55
511.30	395.55
511.47	390.87
511.64	433.00
511.82	458.74
511.99	365.12
512.17	304.27
512.34	418.96
512.51	351.08
512.69	395.55
512.86	538.32
513.04	353.42
513.21	402.57
513.38	479.81
513.56	390.87
513.73	449.38
513.90	369.80
514.08	435.34
514.25	433.00
514.43	416.62
514.60	395.55
514.77	374.49
514.95	365.12
515.12	337.04
515.29	416.62
515.47	500.87
515.64	397.89
515.81	402.57
515.99	355.76
516.16	451.72
516.33	416.62
516.51	369.80
516.68	411.93
516.85	386.19
517.03	421.30
517.20	493.85
517.37	386.19
517.54	442.36
517.72	418.96
517.89	332.36
518.06	479.81
518.24	489.17
518.41	416.62
518.58	409.59
518.75	440.02
518.93	397.89
519.10	440.02
519.27	388.53
519.45	393.21
519.62	414.27
519.79	393.21
519.96	386.19
520.14	435.34
520.31	442.36
520.48	379.17
520.65	425.98
520.83	435.34
521.00	381.51
521.17	414.27
521.34	433.00
521.52	407.25
521.69	404.91
521.86	416.62
522.03	458.74
522.20	425.98
522.38	407.25
522.55	416.62
522.72	454.06
522.89	376.83
523.07	470.45
523.24	379.17
523.41	479.81
523.58	451.72
523.75	468.11
523.92	421.30
524.10	411.93
524.27	402.57
524.44	409.59
524.61	435.34
524.78	372.15
524.96	416.62
525.13	397.89
525.30	407.25
525.47	409.59
525.64	379.17
525.81	477.47
525.98	493.85
526.16	447.04
526.33	390.87
526.50	388.53
526.67	390.87
526.84	358.10
527.01	327.68
527.18	418.96
527.36	437.68
527.53	423.64
527.70	468.11
527.87	362.78
528.04	456.40
528.21	390.87
528.38	437.68
528.55	437.68
528.72	395.55
528.89	381.51
529.07	435.34
529.24	407.25
529.41	435.34
529.58	425.98
529.75	414.27
529.92	411.93
530.09	376.83
530.26	400.23
530.43	465.77
530.60	404.91
530.77	372.15
530.94	421.30
531.11	491.51
531.28	437.68
531.46	475.13
531.63	447.04
531.80	440.02
531.97	435.34
532.14	418.96
532.31	423.64
532.48	430.66
532.65	444.70
532.82	468.11
532.99	440.02
533.16	498.53
533.33	425.98
533.50	369.80
533.67	414.27
533.84	428.32
534.01	468.11
534.18	390.87
534.35	430.66
534.52	367.46
534.69	454.06
534.86	379.17
535.03	383.85
535.20	414.27
535.37	404.91
535.54	458.74
535.71	395.55
535.88	454.06
536.05	341.72
536.22	404.91
536.38	430.66
536.55	498.53
536.72	500.87
536.89	433.00
537.06	402.57
537.23	423.64
537.40	393.21
537.57	383.85
537.74	433.00
537.91	390.87
538.08	348.74
538.25	484.49
538.42	425.98
538.59	409.59
538.75	451.72
538.92	500.87
539.09	470.45
539.26	386.19
539.43	388.53
539.60	409.59
539.77	390.87
539.94	442.36
540.11	444.70
540.28	409.59
540.44	528.96
540.61	390.87
540.78	365.12
540.95	418.96
541.12	451.72
541.29	447.04
541.46	437.68
541.62	383.85
541.79	479.81
541.96	346.40
542.13	404.91
542.30	442.36
542.47	400.23
542.63	428.32
542.80	437.68
542.97	411.93
543.14	374.49
543.31	451.72
543.48	463.43
543.64	470.45
543.81	397.89
543.98	400.23
544.15	465.77
544.32	407.25
544.48	416.62
544.65	449.38
544.82	339.38
544.99	433.00
545.16	437.68
545.32	381.51
545.49	320.65
545.66	416.62
545.83	442.36
546.00	362.78
546.16	348.74
546.33	351.08
546.50	440.02
546.67	451.72
546.83	428.32
547.00	355.76
547.17	433.00
547.34	395.55
547.50	404.91
547.67	418.96
547.84	414.27
548.00	400.23
548.17	425.98
548.34	409.59
548.51	425.98
548.67	423.64
548.84	430.66
549.01	449.38
549.18	444.70
549.34	411.93
549.51	409.59
549.68	428.32
549.84	386.19
550.01	416.62
550.18	477.47
550.34	465.77
550.51	447.04
550.68	482.15
550.84	402.57
551.01	407.25
551.18	433.00
551.34	395.55
551.51	386.19
551.68	430.66
551.84	444.70
552.01	397.89
552.18	444.70
552.34	404.91
552.51	409.59
552.68	416.62
552.84	458.74
553.01	482.15
553.18	393.21
553.34	400.23
553.51	353.42
553.67	414.27
553.84	437.68
554.01	442.36
554.17	447.04
554.34	372.15
554.51	482.15
554.67	400.23
554.84	381.51
555.00	369.80
555.17	423.64
555.33	400.23
555.50	498.53
555.67	475.13
555.83	423.64
556.00	421.30
556.16	484.49
556.33	465.77
556.50	456.40
556.66	418.96
556.83	409.59
556.99	447.04
557.16	390.87
557.32	344.06
557.49	393.21
557.65	388.53
557.82	393.21
557.98	456.40
558.15	477.47
558.32	381.51
558.48	440.02
558.65	463.43
558.81	475.13
558.98	428.32
559.14	454.06
559.31	381.51
559.47	425.98
559.64	433.00
559.80	411.93
559.97	451.72
560.13	449.38
560.30	442.36
560.46	407.25
560.63	332.36
560.79	390.87
560.96	386.19
561.12	393.21
561.29	484.49
561.45	379.17
561.61	421.30
561.78	449.38
561.94	430.66
562.11	393.21
562.27	458.74
562.44	400.23
562.60	433.00
562.77	468.11
562.93	463.43
563.10	390.87
563.26	358.10
563.42	479.81
563.59	393.21
563.75	489.17
563.92	337.04
564.08	479.81
564.24	479.81
564.41	472.79
564.57	414.27
564.74	423.64
564.90	400.23
565.07	341.72
565.23	437.68
565.39	355.76
565.56	407.25
565.72	423.64
565.88	475.13
566.05	479.81
566.21	341.72
566.38	400.23
566.54	411.93
566.70	472.79
566.87	433.00
567.03	430.66
567.19	430.66
567.36	482.15
567.52	355.76
567.68	379.17
567.85	461.09
568.01	404.91
568.17	411.93
568.34	449.38
568.50	433.00
568.66	400.23
568.83	411.93
568.99	416.62
569.15	442.36
569.32	435.34
569.48	430.66
569.64	440.02
569.81	334.70
569.97	379.17
570.13	381.51
570.30	409.59
570.46	374.49
570.62	428.32
570.78	435.34
570.95	442.36
571.11	454.06
571.27	449.38
571.43	388.53
571.60	367.46
571.76	386.19
571.92	411.93
572.09	428.32
572.25	433.00
572.41	472.79
572.57	358.10
572.74	402.57
572.90	400.23
573.06	400.23
573.22	383.85
573.38	416.62
573.55	449.38
573.71	414.27
573.87	435.34
574.03	351.08
574.20	386.19
574.36	397.89
574.52	447.04
574.68	369.80
574.84	390.87
575.01	418.96
575.17	463.43
575.33	435.34
575.49	407.25
575.65	454.06
575.82	372.15
575.98	444.70
576.14	435.34
576.30	402.57
576.46	416.62
576.62	390.87
576.79	447.04
576.95	472.79
577.11	390.87
577.27	425.98
577.43	449.38
577.59	461.09
577.75	461.09
577.92	404.91
578.08	433.00
578.24	369.80
578.40	430.66
578.56	498.53
578.72	390.87
578.88	404.91
579.04	395.55
579.21	425.98
579.37	397.89
579.53	372.15
579.69	428.32
579.85	402.57
580.01	461.09
580.17	458.74
580.33	444.70
580.49	425.98
580.65	407.25
580.82	386.19
580.98	468.11
581.14	315.97
581.30	372.15
581.46	369.80
581.62	454.06
581.78	383.85
581.94	428.32
582.10	386.19
582.26	386.19
582.42	395.55
582.58	428.32
582.74	407.25
582.90	365.12
583.06	444.70
583.22	390.87
583.38	355.76
583.54	381.51
583.70	400.23
583.86	379.17
584.02	470.45
584.18	421.30
584.34	395.55
584.50	344.06
584.66	442.36
584.82	379.17
584.98	444.70
585.14	538.32
585.30	404.91
585.46	381.51
585.62	425.98
585.78	376.83
585.94	423.64
586.10	397.89
586.26	447.04
586.42	540.66
586.58	475.13
586.74	482.15
586.90	433.00
587.06	374.49
587.22	463.43
587.38	402.57
587.54	418.96
587.70	393.21
587.86	411.93
588.02	397.89
588.18	402.57
588.34	437.68
588.49	395.55
588.65	449.38
588.81	374.49
588.97	421.30
589.13	369.80
589.29	390.87
589.45	428.32
589.61	360.44
589.77	442.36
589.93	454.06
590.08	355.76
590.24	397.89
590.40	330.02
590.56	500.87
590.72	433.00
590.88	430.66
591.04	411.93
591.20	351.08
591.35	430.66
591.51	456.40
591.67	409.59
591.83	393.21
591.99	430.66
592.15	383.85
592.31	454.06
592.46	444.70
592.62	423.64
592.78	444.70
592.94	421.30
593.10	486.83
593.26	362.78
593.41	365.12
593.57	372.15
593.73	327.68
593.89	461.09
594.05	332.36
594.20	409.59
594.36	423.64
594.52	344.06
594.68	369.80
594.84	484.49
594.99	468.11
595.15	355.76
595.31	437.68
595.47	475.13
595.62	339.38
595.78	463.43
595.94	428.32
596.10	414.27
596.25	390.87
596.41	433.00
596.57	388.53
596.73	409.59
596.88	404.91
597.04	430.66
597.20	332.36
597.36	397.89
597.51	451.72
597.67	421.30
597.83	503.22
597.99	435.34
598.14	388.53
598.30	404.91
598.46	442.36
598.61	430.66
598.77	444.70
598.93	388.53
599.09	386.19
599.24	381.51
599.40	404.91
599.56	433.00
599.71	435.34
599.87	423.64
600.03	507.90
600.18	393.21
600.34	393.21
600.50	407.25
600.65	411.93
600.81	440.02
600.97	339.38
601.12	442.36
601.28	433.00
601.44	470.45
601.59	428.32
601.75	463.43
601.91	437.68
602.06	400.23
602.22	470.45
602.37	400.23
602.53	411.93
602.69	482.15
602.84	416.62
603.00	442.36
603.16	416.62
603.31	435.34
603.47	409.59
603.62	484.49
603.78	404.91
603.94	397.89
604.09	334.70
604.25	430.66
604.40	442.36
604.56	440.02
604.71	418.96
604.87	465.77
605.03	386.19
605.18	440.02
605.34	386.19
605.49	425.98
605.65	428.32
605.80	407.25
605.96	451.72
606.12	451.72
606.27	454.06
606.43	512.58
606.58	418.96
606.74	393.21
606.89	414.27
607.05	442.36
607.20	437.68
607.36	472.79
607.51	400.23
607.67	454.06
607.82	437.68
607.98	447.04
608.13	395.55
608.29	425.98
608.44	472.79
608.60	421.30
608.75	437.68
608.91	393.21
609.06	435.34
609.22	456.40
609.37	423.64
609.53	423.64
609.68	390.87
609.84	395.55
609.99	470.45
610.15	437.68
