SpectraSuite Data File
++++++++++++++++++++++++++++++++++++
Date: Fri Oct 25 12:11:15 EDT 2013
User: price-jones
Dark Spectrum Present: No
Reference Spectrum Present: No
Number of Sampled Component Spectra: 1
Spectrometers: USB2+H05261
Integration Time (usec): 100000 (USB2+H05261)
Spectra Averaged: 1 (USB2+H05261)
Boxcar Smoothing: 0 (USB2+H05261)
Correct for Electrical Dark: No (USB2+H05261)
Strobe/Lamp Enabled: No (USB2+H05261)
Correct for Detector Non-linearity: No (USB2+H05261)
Correct for Stray Light: No (USB2+H05261)
Number of Pixels in Processed Spectrum: 2048
>>>>>Begin Processed Spectral Data<<<<<
365.73	313.63
365.92	313.63
366.12	313.63
366.32	301.93
366.52	212.99
366.72	285.55
366.91	149.79
367.11	208.31
367.31	264.48
367.51	264.48
367.70	238.73
367.90	250.44
368.10	250.44
368.30	259.80
368.49	238.73
368.69	348.74
368.89	255.12
369.09	315.97
369.28	210.65
369.48	301.93
369.68	297.25
369.87	325.33
370.07	334.70
370.27	325.33
370.47	327.68
370.66	341.72
370.86	348.74
371.06	362.78
371.25	435.34
371.45	425.98
371.65	344.06
371.84	407.25
372.04	407.25
372.24	435.34
372.44	390.87
372.63	428.32
372.83	430.66
373.03	397.89
373.22	425.98
373.42	402.57
373.62	454.06
373.81	456.40
374.01	425.98
374.21	430.66
374.40	465.77
374.60	465.77
374.79	402.57
374.99	411.93
375.19	416.62
375.38	400.23
375.58	411.93
375.78	430.66
375.97	486.83
376.17	440.02
376.37	435.34
376.56	376.83
376.76	414.27
376.95	433.00
377.15	451.72
377.35	437.68
377.54	390.87
377.74	409.59
377.93	447.04
378.13	397.89
378.33	409.59
378.52	409.59
378.72	418.96
378.91	430.66
379.11	397.89
379.31	437.68
379.50	425.98
379.70	428.32
379.89	407.25
380.09	437.68
380.28	409.59
380.48	482.15
380.68	437.68
380.87	400.23
381.07	344.06
381.26	383.85
381.46	456.40
381.65	383.85
381.85	404.91
382.04	379.17
382.24	395.55
382.43	454.06
382.63	440.02
382.83	407.25
383.02	409.59
383.22	472.79
383.41	428.32
383.61	437.68
383.80	414.27
384.00	463.43
384.19	404.91
384.39	449.38
384.58	402.57
384.78	400.23
384.97	479.81
385.17	425.98
385.36	372.15
385.56	411.93
385.75	428.32
385.95	454.06
386.14	428.32
386.34	428.32
386.53	388.53
386.72	458.74
386.92	484.49
387.11	433.00
387.31	388.53
387.50	400.23
387.70	454.06
387.89	430.66
388.09	346.40
388.28	388.53
388.48	339.38
388.67	393.21
388.86	442.36
389.06	374.49
389.25	395.55
389.45	451.72
389.64	449.38
389.84	489.17
390.03	362.78
390.22	372.15
390.42	428.32
390.61	407.25
390.81	362.78
391.00	416.62
391.19	444.70
391.39	409.59
391.58	437.68
391.78	395.55
391.97	442.36
392.16	416.62
392.36	423.64
392.55	472.79
392.75	334.70
392.94	341.72
393.13	383.85
393.33	411.93
393.52	369.80
393.71	468.11
393.91	383.85
394.10	400.23
394.29	386.19
394.49	388.53
394.68	435.34
394.88	512.58
395.07	393.21
395.26	442.36
395.46	409.59
395.65	318.31
395.84	437.68
396.04	437.68
396.23	372.15
396.42	351.08
396.62	440.02
396.81	433.00
397.00	425.98
397.19	411.93
397.39	442.36
397.58	411.93
397.77	372.15
397.97	418.96
398.16	449.38
398.35	458.74
398.55	479.81
398.74	395.55
398.93	463.43
399.12	433.00
399.32	430.66
399.51	449.38
399.70	440.02
399.90	468.11
400.09	428.32
400.28	472.79
400.47	430.66
400.67	428.32
400.86	369.80
401.05	428.32
401.24	407.25
401.44	374.49
401.63	447.04
401.82	404.91
402.01	454.06
402.21	425.98
402.40	409.59
402.59	416.62
402.78	461.09
402.97	379.17
403.17	461.09
403.36	381.51
403.55	400.23
403.74	423.64
403.93	423.64
404.13	355.76
404.32	376.83
404.51	402.57
404.70	421.30
404.89	346.40
405.09	365.12
405.28	360.44
405.47	379.17
405.66	318.31
405.85	397.89
406.05	423.64
406.24	421.30
406.43	374.49
406.62	416.62
406.81	416.62
407.00	414.27
407.20	447.04
407.39	353.42
407.58	444.70
407.77	517.26
407.96	454.06
408.15	482.15
408.34	386.19
408.54	440.02
408.73	404.91
408.92	383.85
409.11	407.25
409.30	416.62
409.49	416.62
409.68	440.02
409.87	447.04
410.07	388.53
410.26	386.19
410.45	418.96
410.64	433.00
410.83	344.06
411.02	383.85
411.21	402.57
411.40	489.17
411.59	423.64
411.78	486.83
411.98	400.23
412.17	367.46
412.36	458.74
412.55	393.21
412.74	430.66
412.93	489.17
413.12	440.02
413.31	404.91
413.50	402.57
413.69	407.25
413.88	444.70
414.07	355.76
414.26	447.04
414.45	416.62
414.64	383.85
414.83	470.45
415.02	463.43
415.22	386.19
415.41	454.06
415.60	388.53
415.79	365.12
415.98	425.98
416.17	421.30
416.36	496.19
416.55	440.02
416.74	458.74
416.93	430.66
417.12	444.70
417.31	484.49
417.50	433.00
417.69	472.79
417.88	386.19
418.07	393.21
418.26	430.66
418.45	475.13
418.64	442.36
418.83	454.06
419.02	383.85
419.21	353.42
419.39	367.46
419.58	454.06
419.77	442.36
419.96	404.91
420.15	425.98
420.34	423.64
420.53	418.96
420.72	470.45
420.91	414.27
421.10	444.70
421.29	454.06
421.48	472.79
421.67	458.74
421.86	437.68
422.05	379.17
422.24	346.40
422.43	374.49
422.61	383.85
422.80	484.49
422.99	442.36
423.18	465.77
423.37	411.93
423.56	418.96
423.75	468.11
423.94	383.85
424.13	428.32
424.32	341.72
424.50	423.64
424.69	421.30
424.88	479.81
425.07	454.06
425.26	414.27
425.45	435.34
425.64	447.04
425.83	404.91
426.01	344.06
426.20	327.68
426.39	458.74
426.58	339.38
426.77	416.62
426.96	430.66
427.15	468.11
427.33	400.23
427.52	402.57
427.71	400.23
427.90	451.72
428.09	367.46
428.28	383.85
428.46	454.06
428.65	465.77
428.84	379.17
429.03	423.64
429.22	421.30
429.40	355.76
429.59	409.59
429.78	425.98
429.97	444.70
430.16	451.72
430.34	379.17
430.53	423.64
430.72	461.09
430.91	451.72
431.10	447.04
431.28	388.53
431.47	386.19
431.66	447.04
431.85	433.00
432.03	353.42
432.22	489.17
432.41	409.59
432.60	458.74
432.79	386.19
432.97	369.80
433.16	411.93
433.35	397.89
433.54	463.43
433.72	421.30
433.91	425.98
434.10	458.74
434.28	404.91
434.47	362.78
434.66	440.02
434.85	444.70
435.03	390.87
435.22	435.34
435.41	458.74
435.59	362.78
435.78	339.38
435.97	428.32
436.16	444.70
436.34	348.74
436.53	379.17
436.72	447.04
436.90	444.70
437.09	407.25
437.28	344.06
437.46	362.78
437.65	376.83
437.84	449.38
438.02	440.02
438.21	430.66
438.40	395.55
438.58	383.85
438.77	362.78
438.96	353.42
439.14	395.55
439.33	411.93
439.52	374.49
439.70	341.72
439.89	470.45
440.08	475.13
440.26	437.68
440.45	433.00
440.63	386.19
440.82	470.45
441.01	388.53
441.19	444.70
441.38	435.34
441.57	397.89
441.75	463.43
441.94	397.89
442.12	397.89
442.31	433.00
442.50	409.59
442.68	440.02
442.87	449.38
443.05	353.42
443.24	463.43
443.43	465.77
443.61	409.59
443.80	442.36
443.98	423.64
444.17	402.57
444.35	404.91
444.54	477.47
444.73	433.00
444.91	414.27
445.10	369.80
445.28	465.77
445.47	397.89
445.65	376.83
445.84	418.96
446.02	397.89
446.21	463.43
446.39	430.66
446.58	390.87
446.77	388.53
446.95	402.57
447.14	372.15
447.32	435.34
447.51	369.80
447.69	414.27
447.88	372.15
448.06	458.74
448.25	451.72
448.43	409.59
448.62	421.30
448.80	409.59
448.99	498.53
449.17	397.89
449.36	386.19
449.54	479.81
449.73	397.89
449.91	411.93
450.10	376.83
450.28	393.21
450.46	416.62
450.65	468.11
450.83	433.00
451.02	423.64
451.20	376.83
451.39	327.68
451.57	411.93
451.76	435.34
451.94	390.87
452.13	444.70
452.31	447.04
452.49	411.93
452.68	451.72
452.86	430.66
453.05	477.47
453.23	482.15
453.42	421.30
453.60	386.19
453.78	404.91
453.97	355.76
454.15	465.77
454.34	383.85
454.52	409.59
454.70	397.89
454.89	456.40
455.07	397.89
455.26	416.62
455.44	381.51
455.62	423.64
455.81	411.93
455.99	433.00
456.17	376.83
456.36	393.21
456.54	390.87
456.73	381.51
456.91	388.53
457.09	390.87
457.28	402.57
457.46	428.32
457.64	395.55
457.83	433.00
458.01	411.93
458.19	451.72
458.38	327.68
458.56	440.02
458.74	402.57
458.93	428.32
459.11	444.70
459.29	437.68
459.48	397.89
459.66	430.66
459.84	447.04
460.03	510.24
460.21	468.11
460.39	458.74
460.57	437.68
460.76	428.32
460.94	383.85
461.12	402.57
461.31	409.59
461.49	383.85
461.67	372.15
461.85	435.34
462.04	402.57
462.22	755.99
462.40	468.11
462.59	451.72
462.77	376.83
462.95	454.06
463.13	465.77
463.32	393.21
463.50	440.02
463.68	440.02
463.86	458.74
464.05	388.53
464.23	472.79
464.41	503.22
464.59	458.74
464.78	423.64
464.96	477.47
465.14	437.68
465.32	346.40
465.50	416.62
465.69	416.62
465.87	348.74
466.05	418.96
466.23	414.27
466.41	404.91
466.60	414.27
466.78	468.11
466.96	463.43
467.14	381.51
467.32	397.89
467.51	416.62
467.69	442.36
467.87	327.68
468.05	411.93
468.23	489.17
468.41	489.17
468.60	484.49
468.78	376.83
468.96	411.93
469.14	414.27
469.32	444.70
469.50	411.93
469.69	423.64
469.87	376.83
470.05	472.79
470.23	430.66
470.41	386.19
470.59	442.36
470.77	369.80
470.95	425.98
471.14	421.30
471.32	339.38
471.50	451.72
471.68	388.53
471.86	491.51
472.04	395.55
472.22	402.57
472.40	397.89
472.58	411.93
472.77	425.98
472.95	381.51
473.13	414.27
473.31	409.59
473.49	440.02
473.67	386.19
473.85	461.09
474.03	430.66
474.21	379.17
474.39	444.70
474.57	393.21
474.75	374.49
474.93	381.51
475.12	362.78
475.30	360.44
475.48	496.19
475.66	449.38
475.84	379.17
476.02	386.19
476.20	395.55
476.38	381.51
476.56	433.00
476.74	325.33
476.92	409.59
477.10	442.36
477.28	376.83
477.46	449.38
477.64	437.68
477.82	433.00
478.00	433.00
478.18	433.00
478.36	416.62
478.54	489.17
478.72	337.04
478.90	381.51
479.08	421.30
479.26	376.83
479.44	454.06
479.62	409.59
479.80	416.62
479.98	372.15
480.16	348.74
480.34	416.62
480.52	449.38
480.70	418.96
480.88	447.04
481.06	374.49
481.24	435.34
481.41	348.74
481.59	383.85
481.77	393.21
481.95	386.19
482.13	381.51
482.31	442.36
482.49	433.00
482.67	489.17
482.85	444.70
483.03	367.46
483.21	388.53
483.39	449.38
483.57	409.59
483.74	428.32
483.92	407.25
484.10	330.02
484.28	465.77
484.46	402.57
484.64	416.62
484.82	376.83
485.00	418.96
485.18	418.96
485.35	482.15
485.53	348.74
485.71	484.49
485.89	372.15
486.07	386.19
486.25	447.04
486.43	475.13
486.61	482.15
486.78	381.51
486.96	402.57
487.14	362.78
487.32	433.00
487.50	416.62
487.68	528.96
487.85	416.62
488.03	383.85
488.21	517.26
488.39	414.27
488.57	451.72
488.75	454.06
488.92	428.32
489.10	404.91
489.28	442.36
489.46	428.32
489.64	447.04
489.81	447.04
489.99	440.02
490.17	400.23
490.35	433.00
490.53	475.13
490.70	402.57
490.88	482.15
491.06	428.32
491.24	440.02
491.41	465.77
491.59	440.02
491.77	414.27
491.95	402.57
492.13	437.68
492.30	463.43
492.48	484.49
492.66	376.83
492.84	388.53
493.01	388.53
493.19	428.32
493.37	456.40
493.54	456.40
493.72	414.27
493.90	416.62
494.08	372.15
494.25	437.68
494.43	440.02
494.61	374.49
494.79	498.53
494.96	388.53
495.14	444.70
495.32	423.64
495.49	400.23
495.67	510.24
495.85	376.83
496.02	425.98
496.20	454.06
496.38	512.58
496.55	360.44
496.73	440.02
496.91	433.00
497.09	454.06
497.26	425.98
497.44	470.45
497.62	362.78
497.79	442.36
497.97	482.15
498.14	386.19
498.32	468.11
498.50	428.32
498.67	437.68
498.85	402.57
499.03	437.68
499.20	404.91
499.38	397.89
499.56	374.49
499.73	451.72
499.91	411.93
500.08	374.49
500.26	390.87
500.44	402.57
500.61	404.91
500.79	433.00
500.97	430.66
501.14	442.36
501.32	433.00
501.49	393.21
501.67	430.66
501.84	409.59
502.02	444.70
502.20	409.59
502.37	374.49
502.55	416.62
502.72	393.21
502.90	468.11
503.07	416.62
503.25	376.83
503.43	351.08
503.60	425.98
503.78	407.25
503.95	449.38
504.13	430.66
504.30	416.62
504.48	369.80
504.65	442.36
504.83	367.46
505.01	351.08
505.18	475.13
505.36	365.12
505.53	414.27
505.71	444.70
505.88	454.06
506.06	402.57
506.23	498.53
506.41	367.46
506.58	425.98
506.76	390.87
506.93	433.00
507.11	404.91
507.28	369.80
507.46	447.04
507.63	470.45
507.81	430.66
507.98	421.30
508.16	395.55
508.33	437.68
508.50	433.00
508.68	421.30
508.85	411.93
509.03	381.51
509.20	470.45
509.38	435.34
509.55	411.93
509.73	442.36
509.90	430.66
510.08	365.12
510.25	449.38
510.42	468.11
510.60	365.12
510.77	416.62
510.95	454.06
511.12	409.59
511.30	437.68
511.47	449.38
511.64	512.58
511.82	472.79
511.99	428.32
512.17	475.13
512.34	351.08
512.51	346.40
512.69	428.32
512.86	470.45
513.04	433.00
513.21	393.21
513.38	425.98
513.56	435.34
513.73	397.89
513.90	386.19
514.08	348.74
514.25	437.68
514.43	458.74
514.60	402.57
514.77	374.49
514.95	383.85
515.12	379.17
515.29	435.34
515.47	414.27
515.64	409.59
515.81	379.17
515.99	390.87
516.16	360.44
516.33	442.36
516.51	397.89
516.68	402.57
516.85	397.89
517.03	498.53
517.20	479.81
517.37	454.06
517.54	482.15
517.72	404.91
517.89	444.70
518.06	449.38
518.24	437.68
518.41	482.15
518.58	461.09
518.75	449.38
518.93	402.57
519.10	404.91
519.27	440.02
519.45	390.87
519.62	393.21
519.79	505.56
519.96	468.11
520.14	440.02
520.31	440.02
520.48	433.00
520.65	421.30
520.83	468.11
521.00	489.17
521.17	421.30
521.34	411.93
521.52	430.66
521.69	451.72
521.86	409.59
522.03	402.57
522.20	449.38
522.38	390.87
522.55	386.19
522.72	393.21
522.89	463.43
523.07	496.19
523.24	425.98
523.41	372.15
523.58	411.93
523.75	358.10
523.92	390.87
524.10	444.70
524.27	444.70
524.44	414.27
524.61	407.25
524.78	407.25
524.96	358.10
525.13	393.21
525.30	397.89
525.47	433.00
525.64	456.40
525.81	388.53
525.98	430.66
526.16	400.23
526.33	390.87
526.50	461.09
526.67	381.51
526.84	332.36
527.01	407.25
527.18	383.85
527.36	367.46
527.53	423.64
527.70	447.04
527.87	477.47
528.04	472.79
528.21	351.08
528.38	498.53
528.55	393.21
528.72	440.02
528.89	423.64
529.07	381.51
529.24	402.57
529.41	416.62
529.58	414.27
529.75	404.91
529.92	390.87
530.09	433.00
530.26	402.57
530.43	433.00
530.60	402.57
530.77	341.72
530.94	423.64
531.11	388.53
531.28	409.59
531.46	397.89
531.63	477.47
531.80	404.91
531.97	388.53
532.14	386.19
532.31	416.62
532.48	451.72
532.65	402.57
532.82	404.91
532.99	351.08
533.16	353.42
533.33	477.47
533.50	416.62
533.67	379.17
533.84	404.91
534.01	369.80
534.18	447.04
534.35	386.19
534.52	465.77
534.69	423.64
534.86	479.81
535.03	444.70
535.20	388.53
535.37	407.25
535.54	458.74
535.71	421.30
535.88	458.74
536.05	381.51
536.22	425.98
536.38	428.32
536.55	423.64
536.72	381.51
536.89	365.12
537.06	379.17
537.23	365.12
537.40	390.87
537.57	409.59
537.74	440.02
537.91	425.98
538.08	468.11
538.25	451.72
538.42	393.21
538.59	397.89
538.75	414.27
538.92	395.55
539.09	451.72
539.26	430.66
539.43	402.57
539.60	479.81
539.77	484.49
539.94	395.55
540.11	390.87
540.28	421.30
540.44	374.49
540.61	365.12
540.78	383.85
540.95	367.46
541.12	482.15
541.29	451.72
541.46	496.19
541.62	444.70
541.79	444.70
541.96	440.02
542.13	386.19
542.30	395.55
542.47	435.34
542.63	442.36
542.80	545.34
542.97	454.06
543.14	362.78
543.31	477.47
543.48	430.66
543.64	348.74
543.81	428.32
543.98	479.81
544.15	418.96
544.32	456.40
544.48	447.04
544.65	451.72
544.82	440.02
544.99	388.53
545.16	416.62
545.32	367.46
545.49	507.90
545.66	353.42
545.83	374.49
546.00	395.55
546.16	458.74
546.33	374.49
546.50	468.11
546.67	472.79
546.83	430.66
547.00	407.25
547.17	503.22
547.34	402.57
547.50	383.85
547.67	454.06
547.84	407.25
548.00	435.34
548.17	372.15
548.34	411.93
548.51	428.32
548.67	390.87
548.84	386.19
549.01	482.15
549.18	421.30
549.34	416.62
549.51	468.11
549.68	435.34
549.84	358.10
550.01	416.62
550.18	517.26
550.34	535.98
550.51	435.34
550.68	437.68
550.84	430.66
551.01	442.36
551.18	475.13
551.34	404.91
551.51	428.32
551.68	400.23
551.84	390.87
552.01	414.27
552.18	395.55
552.34	407.25
552.51	404.91
552.68	404.91
552.84	390.87
553.01	447.04
553.18	393.21
553.34	381.51
553.51	428.32
553.67	465.77
553.84	411.93
554.01	486.83
554.17	437.68
554.34	369.80
554.51	416.62
554.67	421.30
554.84	383.85
555.00	449.38
555.17	416.62
555.33	477.47
555.50	383.85
555.67	468.11
555.83	425.98
556.00	407.25
556.16	554.71
556.33	390.87
556.50	369.80
556.66	465.77
556.83	461.09
556.99	435.34
557.16	397.89
557.32	444.70
557.49	433.00
557.65	437.68
557.82	397.89
557.98	379.17
558.15	442.36
558.32	451.72
558.48	423.64
558.65	430.66
558.81	374.49
558.98	428.32
559.14	414.27
559.31	475.13
559.47	425.98
559.64	435.34
559.80	411.93
559.97	411.93
560.13	416.62
560.30	365.12
560.46	468.11
560.63	461.09
560.79	428.32
560.96	372.15
561.12	395.55
561.29	482.15
561.45	454.06
561.61	430.66
561.78	425.98
561.94	372.15
562.11	402.57
562.27	430.66
562.44	449.38
562.60	447.04
562.77	444.70
562.93	442.36
563.10	437.68
563.26	395.55
563.42	440.02
563.59	428.32
563.75	402.57
563.92	416.62
564.08	416.62
564.24	458.74
564.41	475.13
564.57	407.25
564.74	383.85
564.90	409.59
565.07	358.10
565.23	381.51
565.39	388.53
565.56	430.66
565.72	440.02
565.88	435.34
566.05	355.76
566.21	425.98
566.38	440.02
566.54	454.06
566.70	369.80
566.87	379.17
567.03	400.23
567.19	374.49
567.36	395.55
567.52	365.12
567.68	425.98
567.85	489.17
568.01	393.21
568.17	334.70
568.34	435.34
568.50	442.36
568.66	404.91
568.83	472.79
568.99	416.62
569.15	463.43
569.32	395.55
569.48	414.27
569.64	395.55
569.81	404.91
569.97	435.34
570.13	414.27
570.30	456.40
570.46	411.93
570.62	388.53
570.78	367.46
570.95	418.96
571.11	447.04
571.27	433.00
571.43	468.11
571.60	421.30
571.76	458.74
571.92	489.17
572.09	402.57
572.25	458.74
572.41	383.85
572.57	388.53
572.74	444.70
572.90	440.02
573.06	372.15
573.22	538.32
573.38	475.13
573.55	409.59
573.71	454.06
573.87	346.40
574.03	454.06
574.20	374.49
574.36	341.72
574.52	386.19
574.68	367.46
574.84	430.66
575.01	341.72
575.17	442.36
575.33	362.78
575.49	425.98
575.65	454.06
575.82	461.09
575.98	430.66
576.14	428.32
576.30	465.77
576.46	428.32
576.62	383.85
576.79	414.27
576.95	451.72
577.11	435.34
577.27	472.79
577.43	379.17
577.59	404.91
577.75	409.59
577.92	379.17
578.08	379.17
578.24	482.15
578.40	444.70
578.56	479.81
578.72	535.98
578.88	456.40
579.04	344.06
579.21	421.30
579.37	512.58
579.53	390.87
579.69	395.55
579.85	454.06
580.01	442.36
580.17	367.46
580.33	423.64
580.49	416.62
580.65	463.43
580.82	472.79
580.98	330.02
581.14	428.32
581.30	400.23
581.46	425.98
581.62	414.27
581.78	461.09
581.94	421.30
582.10	411.93
582.26	486.83
582.42	451.72
582.58	374.49
582.74	437.68
582.90	407.25
583.06	454.06
583.22	435.34
583.38	414.27
583.54	397.89
583.70	435.34
583.86	435.34
584.02	430.66
584.18	362.78
584.34	440.02
584.50	397.89
584.66	367.46
584.82	447.04
584.98	395.55
585.14	409.59
585.30	416.62
585.46	425.98
585.62	395.55
585.78	360.44
585.94	458.74
586.10	381.51
586.26	376.83
586.42	395.55
586.58	475.13
586.74	390.87
586.90	386.19
587.06	442.36
587.22	430.66
587.38	435.34
587.54	383.85
587.70	374.49
587.86	496.19
588.02	407.25
588.18	531.30
588.34	454.06
588.49	482.15
588.65	407.25
588.81	411.93
588.97	447.04
589.13	365.12
589.29	383.85
589.45	451.72
589.61	430.66
589.77	447.04
589.93	372.15
590.08	395.55
590.24	468.11
590.40	404.91
590.56	486.83
590.72	533.64
590.88	381.51
591.04	484.49
591.20	353.42
591.35	458.74
591.51	355.76
591.67	315.97
591.83	449.38
591.99	388.53
592.15	486.83
592.31	395.55
592.46	430.66
592.62	395.55
592.78	397.89
592.94	428.32
593.10	365.12
593.26	388.53
593.41	435.34
593.57	510.24
593.73	442.36
593.89	428.32
594.05	400.23
594.20	404.91
594.36	418.96
594.52	393.21
594.68	386.19
594.84	479.81
594.99	414.27
595.15	435.34
595.31	479.81
595.47	500.87
595.62	440.02
595.78	411.93
595.94	397.89
596.10	423.64
596.25	416.62
596.41	402.57
596.57	411.93
596.73	465.77
596.88	423.64
597.04	433.00
597.20	416.62
597.36	482.15
597.51	367.46
597.67	400.23
597.83	379.17
597.99	428.32
598.14	416.62
598.30	344.06
598.46	397.89
598.61	404.91
598.77	456.40
598.93	440.02
599.09	425.98
599.24	428.32
599.40	503.22
599.56	395.55
599.71	376.83
599.87	379.17
600.03	416.62
600.18	425.98
600.34	463.43
600.50	400.23
600.65	337.04
600.81	411.93
600.97	451.72
601.12	372.15
601.28	411.93
601.44	397.89
601.59	418.96
601.75	465.77
601.91	418.96
602.06	454.06
602.22	418.96
602.37	379.17
602.53	461.09
602.69	444.70
602.84	442.36
603.00	374.49
603.16	428.32
603.31	393.21
603.47	421.30
603.62	414.27
603.78	404.91
603.94	507.90
604.09	440.02
604.25	402.57
604.40	435.34
604.56	461.09
604.71	423.64
604.87	475.13
605.03	376.83
605.18	451.72
605.34	390.87
605.49	383.85
605.65	507.90
605.80	451.72
605.96	414.27
606.12	379.17
606.27	386.19
606.43	456.40
606.58	465.77
606.74	379.17
606.89	442.36
607.05	393.21
607.20	411.93
607.36	409.59
607.51	393.21
607.67	409.59
607.82	404.91
607.98	433.00
608.13	395.55
608.29	418.96
608.44	430.66
608.60	390.87
608.75	372.15
608.91	397.89
609.06	428.32
609.22	388.53
609.37	468.11
609.53	418.96
609.68	442.36
609.84	465.77
609.99	416.62
610.15	425.98
