SpectraSuite Data File
++++++++++++++++++++++++++++++++++++
Date: Fri Oct 25 12:11:11 EDT 2013
User: price-jones
Dark Spectrum Present: No
Reference Spectrum Present: No
Number of Sampled Component Spectra: 1
Spectrometers: USB2+H05261
Integration Time (usec): 100000 (USB2+H05261)
Spectra Averaged: 1 (USB2+H05261)
Boxcar Smoothing: 0 (USB2+H05261)
Correct for Electrical Dark: No (USB2+H05261)
Strobe/Lamp Enabled: No (USB2+H05261)
Correct for Detector Non-linearity: No (USB2+H05261)
Correct for Stray Light: No (USB2+H05261)
Number of Pixels in Processed Spectrum: 2048
>>>>>Begin Processed Spectral Data<<<<<
365.73	334.70
365.92	334.70
366.12	334.70
366.32	264.48
366.52	227.03
366.72	243.42
366.91	243.42
367.11	234.05
367.31	196.60
367.51	250.44
367.70	220.01
367.90	318.31
368.10	201.29
368.30	306.61
368.49	257.46
368.69	196.60
368.89	285.55
369.09	229.37
369.28	264.48
369.48	285.55
369.68	287.89
369.87	262.14
370.07	334.70
370.27	273.84
370.47	327.68
370.66	311.29
370.86	315.97
371.06	402.57
371.25	348.74
371.45	407.25
371.65	358.10
371.84	393.21
372.04	400.23
372.24	409.59
372.44	395.55
372.63	468.11
372.83	437.68
373.03	388.53
373.22	461.09
373.42	423.64
373.62	404.91
373.81	416.62
374.01	411.93
374.21	416.62
374.40	458.74
374.60	484.49
374.79	395.55
374.99	425.98
375.19	428.32
375.38	395.55
375.58	386.19
375.78	461.09
375.97	440.02
376.17	477.47
376.37	468.11
376.56	365.12
376.76	369.80
376.95	440.02
377.15	437.68
377.35	425.98
377.54	414.27
377.74	379.17
377.93	395.55
378.13	414.27
378.33	390.87
378.52	395.55
378.72	386.19
378.91	367.46
379.11	430.66
379.31	362.78
379.50	407.25
379.70	369.80
379.89	397.89
380.09	367.46
380.28	395.55
380.48	395.55
380.68	376.83
380.87	395.55
381.07	437.68
381.26	465.77
381.46	423.64
381.65	421.30
381.85	421.30
382.04	341.72
382.24	367.46
382.43	306.61
382.63	362.78
382.83	344.06
383.02	407.25
383.22	383.85
383.41	341.72
383.61	472.79
383.80	470.45
384.00	414.27
384.19	400.23
384.39	360.44
384.58	388.53
384.78	421.30
384.97	393.21
385.17	390.87
385.36	475.13
385.56	433.00
385.75	358.10
385.95	386.19
386.14	383.85
386.34	470.45
386.53	402.57
386.72	435.34
386.92	400.23
387.11	444.70
387.31	468.11
387.50	442.36
387.70	379.17
387.89	437.68
388.09	313.63
388.28	402.57
388.48	402.57
388.67	390.87
388.86	360.44
389.06	468.11
389.25	437.68
389.45	386.19
389.64	444.70
389.84	458.74
390.03	379.17
390.22	454.06
390.42	388.53
390.61	341.72
390.81	362.78
391.00	362.78
391.19	407.25
391.39	458.74
391.58	496.19
391.78	393.21
391.97	395.55
392.16	369.80
392.36	393.21
392.55	425.98
392.75	463.43
392.94	470.45
393.13	411.93
393.33	472.79
393.52	400.23
393.71	416.62
393.91	437.68
394.10	330.02
394.29	372.15
394.49	416.62
394.68	411.93
394.88	414.27
395.07	386.19
395.26	353.42
395.46	376.83
395.65	367.46
395.84	463.43
396.04	428.32
396.23	416.62
396.42	346.40
396.62	327.68
396.81	416.62
397.00	407.25
397.19	425.98
397.39	414.27
397.58	397.89
397.77	407.25
397.97	409.59
398.16	327.68
398.35	374.49
398.55	362.78
398.74	418.96
398.93	395.55
399.12	376.83
399.32	435.34
399.51	416.62
399.70	390.87
399.90	484.49
400.09	437.68
400.28	372.15
400.47	465.77
400.67	458.74
400.86	442.36
401.05	414.27
401.24	430.66
401.44	383.85
401.63	402.57
401.82	418.96
402.01	407.25
402.21	444.70
402.40	444.70
402.59	372.15
402.78	379.17
402.97	404.91
403.17	395.55
403.36	442.36
403.55	390.87
403.74	454.06
403.93	376.83
404.13	409.59
404.32	393.21
404.51	404.91
404.70	437.68
404.89	454.06
405.09	400.23
405.28	390.87
405.47	477.47
405.66	416.62
405.85	416.62
406.05	461.09
406.24	463.43
406.43	444.70
406.62	451.72
406.81	409.59
407.00	386.19
407.20	444.70
407.39	402.57
407.58	374.49
407.77	421.30
407.96	440.02
408.15	404.91
408.34	381.51
408.54	440.02
408.73	430.66
408.92	430.66
409.11	437.68
409.30	407.25
409.49	381.51
409.68	395.55
409.87	381.51
410.07	416.62
410.26	374.49
410.45	451.72
410.64	414.27
410.83	351.08
411.02	414.27
411.21	395.55
411.40	454.06
411.59	425.98
411.78	353.42
411.98	458.74
412.17	404.91
412.36	346.40
412.55	386.19
412.74	383.85
412.93	461.09
413.12	430.66
413.31	402.57
413.50	463.43
413.69	397.89
413.88	393.21
414.07	430.66
414.26	416.62
414.45	351.08
414.64	409.59
414.83	484.49
415.02	353.42
415.22	421.30
415.41	388.53
415.60	365.12
415.79	447.04
415.98	421.30
416.17	454.06
416.36	461.09
416.55	390.87
416.74	428.32
416.93	425.98
417.12	386.19
417.31	433.00
417.50	397.89
417.69	463.43
417.88	440.02
418.07	402.57
418.26	379.17
418.45	388.53
418.64	437.68
418.83	447.04
419.02	393.21
419.21	344.06
419.39	414.27
419.58	411.93
419.77	346.40
419.96	388.53
420.15	442.36
420.34	400.23
420.53	428.32
420.72	465.77
420.91	435.34
421.10	395.55
421.29	348.74
421.48	376.83
421.67	423.64
421.86	433.00
422.05	496.19
422.24	404.91
422.43	390.87
422.61	374.49
422.80	386.19
422.99	486.83
423.18	437.68
423.37	383.85
423.56	367.46
423.75	390.87
423.94	430.66
424.13	388.53
424.32	386.19
424.50	400.23
424.69	437.68
424.88	430.66
425.07	404.91
425.26	400.23
425.45	386.19
425.64	369.80
425.83	416.62
426.01	465.77
426.20	360.44
426.39	386.19
426.58	433.00
426.77	418.96
426.96	400.23
427.15	397.89
427.33	369.80
427.52	402.57
427.71	355.76
427.90	395.55
428.09	393.21
428.28	365.12
428.46	409.59
428.65	404.91
428.84	388.53
429.03	421.30
429.22	428.32
429.40	416.62
429.59	379.17
429.78	472.79
429.97	461.09
430.16	379.17
430.34	421.30
430.53	423.64
430.72	442.36
430.91	451.72
431.10	393.21
431.28	416.62
431.47	395.55
431.66	388.53
431.85	435.34
432.03	360.44
432.22	418.96
432.41	358.10
432.60	423.64
432.79	404.91
432.97	468.11
433.16	440.02
433.35	346.40
433.54	463.43
433.72	491.51
433.91	451.72
434.10	388.53
434.28	409.59
434.47	435.34
434.66	376.83
434.85	409.59
435.03	372.15
435.22	362.78
435.41	472.79
435.59	414.27
435.78	367.46
435.97	358.10
436.16	402.57
436.34	372.15
436.53	409.59
436.72	468.11
436.90	383.85
437.09	447.04
437.28	365.12
437.46	491.51
437.65	444.70
437.84	411.93
438.02	484.49
438.21	435.34
438.40	395.55
438.58	346.40
438.77	409.59
438.96	416.62
439.14	369.80
439.33	454.06
439.52	393.21
439.70	404.91
439.89	400.23
440.08	449.38
440.26	437.68
440.45	362.78
440.63	362.78
440.82	454.06
441.01	404.91
441.19	444.70
441.38	322.99
441.57	341.72
441.75	407.25
441.94	404.91
442.12	437.68
442.31	360.44
442.50	428.32
442.68	395.55
442.87	461.09
443.05	421.30
443.24	425.98
443.43	449.38
443.61	402.57
443.80	440.02
443.98	388.53
444.17	437.68
444.35	430.66
444.54	339.38
444.73	409.59
444.91	444.70
445.10	430.66
445.28	428.32
445.47	451.72
445.65	390.87
445.84	416.62
446.02	435.34
446.21	376.83
446.39	421.30
446.58	369.80
446.77	407.25
446.95	491.51
447.14	425.98
447.32	479.81
447.51	351.08
447.69	397.89
447.88	461.09
448.06	393.21
448.25	437.68
448.43	360.44
448.62	425.98
448.80	421.30
448.99	465.77
449.17	402.57
449.36	430.66
449.54	318.31
449.73	425.98
449.91	440.02
450.10	463.43
450.28	388.53
450.46	423.64
450.65	454.06
450.83	411.93
451.02	423.64
451.20	404.91
451.39	416.62
451.57	386.19
451.76	430.66
451.94	383.85
452.13	433.00
452.31	425.98
452.49	407.25
452.68	447.04
452.86	435.34
453.05	505.56
453.23	393.21
453.42	440.02
453.60	395.55
453.78	374.49
453.97	449.38
454.15	449.38
454.34	404.91
454.52	365.12
454.70	421.30
454.89	400.23
455.07	411.93
455.26	388.53
455.44	409.59
455.62	374.49
455.81	470.45
455.99	362.78
456.17	468.11
456.36	362.78
456.54	421.30
456.73	395.55
456.91	458.74
457.09	414.27
457.28	451.72
457.46	421.30
457.64	423.64
457.83	437.68
458.01	372.15
458.19	365.12
458.38	381.51
458.56	496.19
458.74	388.53
458.93	367.46
459.11	360.44
459.29	407.25
459.48	435.34
459.66	479.81
459.84	409.59
460.03	475.13
460.21	421.30
460.39	442.36
460.57	397.89
460.76	320.65
460.94	379.17
461.12	437.68
461.31	454.06
461.49	435.34
461.67	372.15
461.85	437.68
462.04	397.89
462.22	748.97
462.40	449.38
462.59	442.36
462.77	360.44
462.95	486.83
463.13	388.53
463.32	456.40
463.50	463.43
463.68	430.66
463.86	447.04
464.05	383.85
464.23	440.02
464.41	486.83
464.59	437.68
464.78	433.00
464.96	463.43
465.14	428.32
465.32	447.04
465.50	465.77
465.69	411.93
465.87	430.66
466.05	409.59
466.23	400.23
466.41	440.02
466.60	402.57
466.78	433.00
466.96	433.00
467.14	416.62
467.32	365.12
467.51	418.96
467.69	503.22
467.87	421.30
468.05	374.49
468.23	449.38
468.41	423.64
468.60	339.38
468.78	430.66
468.96	430.66
469.14	423.64
469.32	388.53
469.50	411.93
469.69	386.19
469.87	273.84
470.05	395.55
470.23	421.30
470.41	423.64
470.59	416.62
470.77	447.04
470.95	327.68
471.14	390.87
471.32	418.96
471.50	449.38
471.68	449.38
471.86	479.81
472.04	449.38
472.22	437.68
472.40	386.19
472.58	381.51
472.77	421.30
472.95	400.23
473.13	435.34
473.31	433.00
473.49	428.32
473.67	395.55
473.85	428.32
474.03	442.36
474.21	379.17
474.39	444.70
474.57	449.38
474.75	355.76
474.93	397.89
475.12	409.59
475.30	383.85
475.48	400.23
475.66	397.89
475.84	435.34
476.02	425.98
476.20	444.70
476.38	475.13
476.56	433.00
476.74	416.62
476.92	351.08
477.10	454.06
477.28	430.66
477.46	360.44
477.64	407.25
477.82	402.57
478.00	395.55
478.18	411.93
478.36	351.08
478.54	414.27
478.72	372.15
478.90	430.66
479.08	449.38
479.26	348.74
479.44	397.89
479.62	367.46
479.80	425.98
479.98	381.51
480.16	423.64
480.34	374.49
480.52	430.66
480.70	444.70
480.88	416.62
481.06	400.23
481.24	344.06
481.41	430.66
481.59	421.30
481.77	381.51
481.95	437.68
482.13	416.62
482.31	386.19
482.49	416.62
482.67	416.62
482.85	404.91
483.03	418.96
483.21	458.74
483.39	367.46
483.57	493.85
483.74	423.64
483.92	430.66
484.10	397.89
484.28	435.34
484.46	449.38
484.64	447.04
484.82	351.08
485.00	411.93
485.18	423.64
485.35	421.30
485.53	442.36
485.71	388.53
485.89	365.12
486.07	447.04
486.25	397.89
486.43	477.47
486.61	393.21
486.78	449.38
486.96	400.23
487.14	372.15
487.32	400.23
487.50	447.04
487.68	465.77
487.85	442.36
488.03	402.57
488.21	379.17
488.39	376.83
488.57	456.40
488.75	381.51
488.92	463.43
489.10	344.06
489.28	475.13
489.46	325.33
489.64	372.15
489.81	390.87
489.99	444.70
490.17	407.25
490.35	435.34
490.53	381.51
490.70	411.93
490.88	435.34
491.06	400.23
491.24	456.40
491.41	496.19
491.59	404.91
491.77	388.53
491.95	421.30
492.13	367.46
492.30	376.83
492.48	428.32
492.66	472.79
492.84	437.68
493.01	442.36
493.19	395.55
493.37	493.85
493.54	369.80
493.72	397.89
493.90	418.96
494.08	416.62
494.25	388.53
494.43	400.23
494.61	397.89
494.79	367.46
494.96	458.74
495.14	423.64
495.32	418.96
495.49	449.38
495.67	482.15
495.85	395.55
496.02	393.21
496.20	393.21
496.38	430.66
496.55	430.66
496.73	491.51
496.91	381.51
497.09	402.57
497.26	404.91
497.44	416.62
497.62	409.59
497.79	367.46
497.97	463.43
498.14	393.21
498.32	458.74
498.50	374.49
498.67	442.36
498.85	386.19
499.03	402.57
499.20	411.93
499.38	369.80
499.56	447.04
499.73	447.04
499.91	463.43
500.08	421.30
500.26	414.27
500.44	416.62
500.61	341.72
500.79	449.38
500.97	425.98
501.14	402.57
501.32	386.19
501.49	409.59
501.67	477.47
501.84	409.59
502.02	414.27
502.20	416.62
502.37	433.00
502.55	386.19
502.72	491.51
502.90	355.76
503.07	416.62
503.25	379.17
503.43	477.47
503.60	475.13
503.78	465.77
503.95	409.59
504.13	409.59
504.30	477.47
504.48	486.83
504.65	449.38
504.83	379.17
505.01	400.23
505.18	360.44
505.36	339.38
505.53	437.68
505.71	411.93
505.88	409.59
506.06	355.76
506.23	423.64
506.41	416.62
506.58	468.11
506.76	454.06
506.93	409.59
507.11	407.25
507.28	381.51
507.46	360.44
507.63	407.25
507.81	320.65
507.98	414.27
508.16	369.80
508.33	435.34
508.50	425.98
508.68	428.32
508.85	353.42
509.03	360.44
509.20	330.02
509.38	409.59
509.55	433.00
509.73	402.57
509.90	470.45
510.08	411.93
510.25	416.62
510.42	433.00
510.60	388.53
510.77	369.80
510.95	402.57
511.12	461.09
511.30	433.00
511.47	374.49
511.64	414.27
511.82	421.30
511.99	369.80
512.17	454.06
512.34	404.91
512.51	332.36
512.69	425.98
512.86	437.68
513.04	397.89
513.21	433.00
513.38	430.66
513.56	318.31
513.73	463.43
513.90	447.04
514.08	353.42
514.25	386.19
514.43	390.87
514.60	339.38
514.77	395.55
514.95	458.74
515.12	418.96
515.29	369.80
515.47	414.27
515.64	393.21
515.81	386.19
515.99	437.68
516.16	470.45
516.33	346.40
516.51	402.57
516.68	444.70
516.85	397.89
517.03	360.44
517.20	442.36
517.37	484.49
517.54	472.79
517.72	465.77
517.89	418.96
518.06	425.98
518.24	425.98
518.41	498.53
518.58	386.19
518.75	409.59
518.93	440.02
519.10	456.40
519.27	428.32
519.45	428.32
519.62	428.32
519.79	468.11
519.96	353.42
520.14	390.87
520.31	409.59
520.48	400.23
520.65	449.38
520.83	428.32
521.00	397.89
521.17	454.06
521.34	440.02
521.52	421.30
521.69	395.55
521.86	421.30
522.03	416.62
522.20	493.85
522.38	414.27
522.55	482.15
522.72	468.11
522.89	416.62
523.07	414.27
523.24	376.83
523.41	367.46
523.58	451.72
523.75	409.59
523.92	369.80
524.10	383.85
524.27	421.30
524.44	386.19
524.61	393.21
524.78	430.66
524.96	433.00
525.13	376.83
525.30	425.98
525.47	447.04
525.64	451.72
525.81	416.62
525.98	449.38
526.16	428.32
526.33	400.23
526.50	374.49
526.67	400.23
526.84	428.32
527.01	418.96
527.18	365.12
527.36	397.89
527.53	360.44
527.70	362.78
527.87	418.96
528.04	458.74
528.21	433.00
528.38	402.57
528.55	425.98
528.72	421.30
528.89	425.98
529.07	440.02
529.24	400.23
529.41	397.89
529.58	442.36
529.75	425.98
529.92	442.36
530.09	449.38
530.26	482.15
530.43	444.70
530.60	374.49
530.77	437.68
530.94	463.43
531.11	493.85
531.28	472.79
531.46	416.62
531.63	414.27
531.80	461.09
531.97	390.87
532.14	428.32
532.31	444.70
532.48	440.02
532.65	440.02
532.82	376.83
532.99	447.04
533.16	402.57
533.33	418.96
533.50	507.90
533.67	383.85
533.84	418.96
534.01	458.74
534.18	447.04
534.35	376.83
534.52	444.70
534.69	360.44
534.86	425.98
535.03	411.93
535.20	388.53
535.37	395.55
535.54	348.74
535.71	451.72
535.88	435.34
536.05	493.85
536.22	472.79
536.38	381.51
536.55	461.09
536.72	444.70
536.89	395.55
537.06	362.78
537.23	449.38
537.40	411.93
537.57	400.23
537.74	491.51
537.91	416.62
538.08	395.55
538.25	414.27
538.42	395.55
538.59	402.57
538.75	407.25
538.92	440.02
539.09	416.62
539.26	390.87
539.43	475.13
539.60	369.80
539.77	444.70
539.94	416.62
540.11	458.74
540.28	440.02
540.44	416.62
540.61	444.70
540.78	383.85
540.95	390.87
541.12	477.47
541.29	407.25
541.46	505.56
541.62	433.00
541.79	358.10
541.96	400.23
542.13	390.87
542.30	365.12
542.47	440.02
542.63	421.30
542.80	486.83
542.97	437.68
543.14	402.57
543.31	440.02
543.48	421.30
543.64	400.23
543.81	449.38
543.98	381.51
544.15	390.87
544.32	414.27
544.48	440.02
544.65	369.80
544.82	383.85
544.99	414.27
545.16	425.98
545.32	411.93
545.49	383.85
545.66	418.96
545.83	390.87
546.00	397.89
546.16	428.32
546.33	493.85
546.50	381.51
546.67	449.38
546.83	442.36
547.00	418.96
547.17	444.70
547.34	390.87
547.50	444.70
547.67	379.17
547.84	334.70
548.00	482.15
548.17	425.98
548.34	489.17
548.51	442.36
548.67	395.55
548.84	435.34
549.01	388.53
549.18	416.62
549.34	505.56
549.51	430.66
549.68	376.83
549.84	397.89
550.01	437.68
550.18	451.72
550.34	414.27
550.51	379.17
550.68	430.66
550.84	433.00
551.01	395.55
551.18	435.34
551.34	425.98
551.51	433.00
551.68	407.25
551.84	421.30
552.01	379.17
552.18	341.72
552.34	468.11
552.51	451.72
552.68	430.66
552.84	388.53
553.01	435.34
553.18	447.04
553.34	449.38
553.51	400.23
553.67	442.36
553.84	430.66
554.01	428.32
554.17	461.09
554.34	437.68
554.51	414.27
554.67	468.11
554.84	365.12
555.00	390.87
555.17	428.32
555.33	404.91
555.50	404.91
555.67	440.02
555.83	402.57
556.00	421.30
556.16	507.90
556.33	475.13
556.50	407.25
556.66	423.64
556.83	451.72
556.99	353.42
557.16	376.83
557.32	369.80
557.49	456.40
557.65	418.96
557.82	369.80
557.98	425.98
558.15	425.98
558.32	409.59
558.48	463.43
558.65	397.89
558.81	435.34
558.98	395.55
559.14	433.00
559.31	482.15
559.47	454.06
559.64	447.04
559.80	444.70
559.97	379.17
560.13	404.91
560.30	423.64
560.46	414.27
560.63	337.04
560.79	435.34
560.96	465.77
561.12	447.04
561.29	479.81
561.45	390.87
561.61	388.53
561.78	440.02
561.94	435.34
562.11	409.59
562.27	402.57
562.44	433.00
562.60	430.66
562.77	409.59
562.93	348.74
563.10	409.59
563.26	376.83
563.42	507.90
563.59	454.06
563.75	421.30
563.92	423.64
564.08	411.93
564.24	404.91
564.41	484.49
564.57	376.83
564.74	461.09
564.90	451.72
565.07	440.02
565.23	496.19
565.39	376.83
565.56	409.59
565.72	421.30
565.88	416.62
566.05	404.91
566.21	327.68
566.38	454.06
566.54	416.62
566.70	463.43
566.87	458.74
567.03	433.00
567.19	479.81
567.36	425.98
567.52	428.32
567.68	388.53
567.85	386.19
568.01	397.89
568.17	416.62
568.34	411.93
568.50	449.38
568.66	416.62
568.83	428.32
568.99	479.81
569.15	500.87
569.32	472.79
569.48	409.59
569.64	386.19
569.81	402.57
569.97	442.36
570.13	442.36
570.30	337.04
570.46	376.83
570.62	430.66
570.78	454.06
570.95	404.91
571.11	442.36
571.27	489.17
571.43	386.19
571.60	440.02
571.76	388.53
571.92	418.96
572.09	407.25
572.25	395.55
572.41	461.09
572.57	362.78
572.74	442.36
572.90	407.25
573.06	475.13
573.22	383.85
573.38	400.23
573.55	491.51
573.71	423.64
573.87	416.62
574.03	306.61
574.20	442.36
574.36	404.91
574.52	447.04
574.68	344.06
574.84	458.74
575.01	449.38
575.17	416.62
575.33	358.10
575.49	411.93
575.65	407.25
575.82	463.43
575.98	442.36
576.14	388.53
576.30	409.59
576.46	404.91
576.62	449.38
576.79	400.23
576.95	447.04
577.11	374.49
577.27	395.55
577.43	447.04
577.59	402.57
577.75	435.34
577.92	440.02
578.08	477.47
578.24	418.96
578.40	463.43
578.56	414.27
578.72	461.09
578.88	390.87
579.04	449.38
579.21	395.55
579.37	440.02
579.53	433.00
579.69	402.57
579.85	407.25
580.01	400.23
580.17	433.00
580.33	381.51
580.49	423.64
580.65	416.62
580.82	393.21
580.98	376.83
581.14	454.06
581.30	463.43
581.46	433.00
581.62	409.59
581.78	395.55
581.94	440.02
582.10	393.21
582.26	376.83
582.42	491.51
582.58	440.02
582.74	472.79
582.90	451.72
583.06	341.72
583.22	395.55
583.38	341.72
583.54	440.02
583.70	500.87
583.86	428.32
584.02	505.56
584.18	418.96
584.34	430.66
584.50	381.51
584.66	418.96
584.82	390.87
584.98	475.13
585.14	451.72
585.30	531.30
585.46	433.00
585.62	334.70
585.78	435.34
585.94	437.68
586.10	388.53
586.26	376.83
586.42	472.79
586.58	437.68
586.74	435.34
586.90	486.83
587.06	428.32
587.22	397.89
587.38	435.34
587.54	414.27
587.70	456.40
587.86	433.00
588.02	437.68
588.18	421.30
588.34	444.70
588.49	425.98
588.65	465.77
588.81	526.62
588.97	437.68
589.13	404.91
589.29	428.32
589.45	447.04
589.61	388.53
589.77	402.57
589.93	362.78
590.08	397.89
590.24	418.96
590.40	362.78
590.56	500.87
590.72	390.87
590.88	386.19
591.04	425.98
591.20	337.04
591.35	500.87
591.51	477.47
591.67	395.55
591.83	409.59
591.99	416.62
592.15	407.25
592.31	547.69
592.46	472.79
592.62	496.19
592.78	425.98
592.94	463.43
593.10	374.49
593.26	397.89
593.41	344.06
593.57	423.64
593.73	421.30
593.89	393.21
594.05	449.38
594.20	372.15
594.36	461.09
594.52	416.62
594.68	388.53
594.84	447.04
594.99	451.72
595.15	461.09
595.31	411.93
595.47	507.90
595.62	390.87
595.78	440.02
595.94	430.66
596.10	407.25
596.25	409.59
596.41	423.64
596.57	395.55
596.73	404.91
596.88	475.13
597.04	372.15
597.20	414.27
597.36	449.38
597.51	390.87
597.67	393.21
597.83	421.30
597.99	372.15
598.14	351.08
598.30	414.27
598.46	463.43
598.61	358.10
598.77	351.08
598.93	430.66
599.09	400.23
599.24	447.04
599.40	489.17
599.56	507.90
599.71	353.42
599.87	421.30
600.03	461.09
600.18	437.68
600.34	397.89
600.50	407.25
600.65	397.89
600.81	433.00
600.97	416.62
601.12	475.13
601.28	486.83
601.44	416.62
601.59	383.85
601.75	428.32
601.91	477.47
602.06	479.81
602.22	498.53
602.37	376.83
602.53	414.27
602.69	444.70
602.84	437.68
603.00	442.36
603.16	472.79
603.31	334.70
603.47	447.04
603.62	416.62
603.78	451.72
603.94	433.00
604.09	402.57
604.25	393.21
604.40	376.83
604.56	423.64
604.71	543.00
604.87	395.55
605.03	458.74
605.18	402.57
605.34	472.79
605.49	447.04
605.65	440.02
605.80	440.02
605.96	395.55
606.12	433.00
606.27	416.62
606.43	376.83
606.58	418.96
606.74	411.93
606.89	435.34
607.05	421.30
607.20	369.80
607.36	475.13
607.51	465.77
607.67	421.30
607.82	451.72
607.98	430.66
608.13	353.42
608.29	409.59
608.44	416.62
608.60	409.59
608.75	479.81
608.91	505.56
609.06	519.60
609.22	456.40
609.37	390.87
609.53	428.32
609.68	444.70
609.84	386.19
609.99	437.68
610.15	440.02
