SpectraSuite Data File
++++++++++++++++++++++++++++++++++++
Date: Fri Oct 25 12:11:29 EDT 2013
User: price-jones
Dark Spectrum Present: No
Reference Spectrum Present: No
Number of Sampled Component Spectra: 1
Spectrometers: USB2+H05261
Integration Time (usec): 100000 (USB2+H05261)
Spectra Averaged: 1 (USB2+H05261)
Boxcar Smoothing: 0 (USB2+H05261)
Correct for Electrical Dark: No (USB2+H05261)
Strobe/Lamp Enabled: No (USB2+H05261)
Correct for Detector Non-linearity: No (USB2+H05261)
Correct for Stray Light: No (USB2+H05261)
Number of Pixels in Processed Spectrum: 2048
>>>>>Begin Processed Spectral Data<<<<<
365.73	330.02
365.92	330.02
366.12	330.02
366.32	273.84
366.52	355.76
366.72	236.39
366.91	229.37
367.11	257.46
367.31	117.03
367.51	245.76
367.70	248.10
367.90	271.50
368.10	269.16
368.30	285.55
368.49	266.82
368.69	311.29
368.89	205.97
369.09	264.48
369.28	227.03
369.48	360.44
369.68	337.04
369.87	285.55
370.07	346.40
370.27	311.29
370.47	292.57
370.66	334.70
370.86	433.00
371.06	451.72
371.25	369.80
371.45	374.49
371.65	395.55
371.84	348.74
372.04	348.74
372.24	383.85
372.44	397.89
372.63	409.59
372.83	465.77
373.03	418.96
373.22	451.72
373.42	430.66
373.62	442.36
373.81	440.02
374.01	454.06
374.21	442.36
374.40	416.62
374.60	461.09
374.79	447.04
374.99	433.00
375.19	388.53
375.38	433.00
375.58	372.15
375.78	465.77
375.97	379.17
376.17	397.89
376.37	451.72
376.56	393.21
376.76	390.87
376.95	454.06
377.15	428.32
377.35	402.57
377.54	348.74
377.74	353.42
377.93	376.83
378.13	414.27
378.33	421.30
378.52	402.57
378.72	465.77
378.91	484.49
379.11	428.32
379.31	390.87
379.50	334.70
379.70	433.00
379.89	393.21
380.09	440.02
380.28	365.12
380.48	388.53
380.68	393.21
380.87	395.55
381.07	418.96
381.26	386.19
381.46	428.32
381.65	353.42
381.85	367.46
382.04	365.12
382.24	402.57
382.43	407.25
382.63	433.00
382.83	449.38
383.02	437.68
383.22	376.83
383.41	404.91
383.61	440.02
383.80	447.04
384.00	414.27
384.19	442.36
384.39	374.49
384.58	390.87
384.78	400.23
384.97	362.78
385.17	416.62
385.36	395.55
385.56	458.74
385.75	416.62
385.95	379.17
386.14	421.30
386.34	440.02
386.53	404.91
386.72	433.00
386.92	435.34
387.11	442.36
387.31	418.96
387.50	395.55
387.70	404.91
387.89	491.51
388.09	404.91
388.28	374.49
388.48	444.70
388.67	442.36
388.86	475.13
389.06	451.72
389.25	433.00
389.45	395.55
389.64	365.12
389.84	451.72
390.03	397.89
390.22	430.66
390.42	372.15
390.61	365.12
390.81	425.98
391.00	404.91
391.19	433.00
391.39	411.93
391.58	440.02
391.78	463.43
391.97	360.44
392.16	365.12
392.36	421.30
392.55	430.66
392.75	425.98
392.94	425.98
393.13	423.64
393.33	404.91
393.52	388.53
393.71	376.83
393.91	442.36
394.10	315.97
394.29	386.19
394.49	416.62
394.68	468.11
394.88	428.32
395.07	362.78
395.26	402.57
395.46	475.13
395.65	475.13
395.84	411.93
396.04	477.47
396.23	381.51
396.42	341.72
396.62	437.68
396.81	381.51
397.00	416.62
397.19	428.32
397.39	353.42
397.58	493.85
397.77	435.34
397.97	358.10
398.16	376.83
398.35	423.64
398.55	400.23
398.74	442.36
398.93	435.34
399.12	421.30
399.32	404.91
399.51	376.83
399.70	362.78
399.90	376.83
400.09	390.87
400.28	442.36
400.47	407.25
400.67	400.23
400.86	341.72
401.05	449.38
401.24	458.74
401.44	407.25
401.63	433.00
401.82	376.83
402.01	362.78
402.21	409.59
402.40	440.02
402.59	454.06
402.78	414.27
402.97	355.76
403.17	341.72
403.36	355.76
403.55	397.89
403.74	400.23
403.93	400.23
404.13	379.17
404.32	444.70
404.51	397.89
404.70	444.70
404.89	348.74
405.09	423.64
405.28	411.93
405.47	404.91
405.66	449.38
405.85	437.68
406.05	379.17
406.24	383.85
406.43	440.02
406.62	461.09
406.81	390.87
407.00	423.64
407.20	421.30
407.39	414.27
407.58	365.12
407.77	360.44
407.96	393.21
408.15	402.57
408.34	456.40
408.54	346.40
408.73	437.68
408.92	362.78
409.11	411.93
409.30	461.09
409.49	430.66
409.68	369.80
409.87	447.04
410.07	395.55
410.26	372.15
410.45	447.04
410.64	435.34
410.83	395.55
411.02	358.10
411.21	376.83
411.40	433.00
411.59	433.00
411.78	433.00
411.98	404.91
412.17	442.36
412.36	339.38
412.55	444.70
412.74	395.55
412.93	435.34
413.12	458.74
413.31	390.87
413.50	421.30
413.69	411.93
413.88	416.62
414.07	379.17
414.26	369.80
414.45	348.74
414.64	348.74
414.83	475.13
415.02	423.64
415.22	449.38
415.41	472.79
415.60	428.32
415.79	447.04
415.98	472.79
416.17	414.27
416.36	437.68
416.55	458.74
416.74	440.02
416.93	433.00
417.12	379.17
417.31	404.91
417.50	409.59
417.69	493.85
417.88	454.06
418.07	332.36
418.26	360.44
418.45	379.17
418.64	449.38
418.83	400.23
419.02	414.27
419.21	477.47
419.39	470.45
419.58	409.59
419.77	344.06
419.96	400.23
420.15	444.70
420.34	470.45
420.53	449.38
420.72	383.85
420.91	411.93
421.10	376.83
421.29	383.85
421.48	402.57
421.67	395.55
421.86	351.08
422.05	383.85
422.24	447.04
422.43	425.98
422.61	463.43
422.80	428.32
422.99	381.51
423.18	444.70
423.37	440.02
423.56	468.11
423.75	447.04
423.94	468.11
424.13	369.80
424.32	407.25
424.50	414.27
424.69	507.90
424.88	482.15
425.07	416.62
425.26	411.93
425.45	442.36
425.64	442.36
425.83	461.09
426.01	440.02
426.20	435.34
426.39	416.62
426.58	430.66
426.77	421.30
426.96	393.21
427.15	428.32
427.33	416.62
427.52	388.53
427.71	348.74
427.90	430.66
428.09	351.08
428.28	428.32
428.46	409.59
428.65	395.55
428.84	416.62
429.03	430.66
429.22	437.68
429.40	402.57
429.59	437.68
429.78	454.06
429.97	407.25
430.16	400.23
430.34	461.09
430.53	407.25
430.72	395.55
430.91	442.36
431.10	402.57
431.28	388.53
431.47	425.98
431.66	472.79
431.85	395.55
432.03	332.36
432.22	465.77
432.41	409.59
432.60	362.78
432.79	390.87
432.97	435.34
433.16	372.15
433.35	409.59
433.54	447.04
433.72	362.78
433.91	423.64
434.10	465.77
434.28	470.45
434.47	435.34
434.66	315.97
434.85	379.17
435.03	479.81
435.22	418.96
435.41	449.38
435.59	456.40
435.78	400.23
435.97	358.10
436.16	447.04
436.34	404.91
436.53	404.91
436.72	393.21
436.90	395.55
437.09	425.98
437.28	430.66
437.46	367.46
437.65	491.51
437.84	456.40
438.02	486.83
438.21	449.38
438.40	409.59
438.58	397.89
438.77	470.45
438.96	379.17
439.14	425.98
439.33	397.89
439.52	365.12
439.70	383.85
439.89	404.91
440.08	428.32
440.26	449.38
440.45	449.38
440.63	442.36
440.82	358.10
441.01	437.68
441.19	404.91
441.38	402.57
441.57	433.00
441.75	442.36
441.94	416.62
442.12	397.89
442.31	482.15
442.50	433.00
442.68	428.32
442.87	383.85
443.05	430.66
443.24	414.27
443.43	428.32
443.61	393.21
443.80	423.64
443.98	472.79
444.17	369.80
444.35	421.30
444.54	402.57
444.73	334.70
444.91	496.19
445.10	496.19
445.28	430.66
445.47	379.17
445.65	421.30
445.84	458.74
446.02	421.30
446.21	430.66
446.39	458.74
446.58	484.49
446.77	402.57
446.95	414.27
447.14	456.40
447.32	421.30
447.51	402.57
447.69	393.21
447.88	365.12
448.06	383.85
448.25	381.51
448.43	360.44
448.62	390.87
448.80	461.09
448.99	482.15
449.17	344.06
449.36	423.64
449.54	425.98
449.73	416.62
449.91	442.36
450.10	411.93
450.28	489.17
450.46	482.15
450.65	486.83
450.83	360.44
451.02	376.83
451.20	402.57
451.39	416.62
451.57	397.89
451.76	435.34
451.94	383.85
452.13	449.38
452.31	435.34
452.49	395.55
452.68	463.43
452.86	475.13
453.05	423.64
453.23	433.00
453.42	437.68
453.60	444.70
453.78	477.47
453.97	468.11
454.15	355.76
454.34	376.83
454.52	411.93
454.70	428.32
454.89	493.85
455.07	388.53
455.26	486.83
455.44	437.68
455.62	379.17
455.81	447.04
455.99	407.25
456.17	353.42
456.36	454.06
456.54	411.93
456.73	353.42
456.91	360.44
457.09	386.19
457.28	449.38
457.46	428.32
457.64	425.98
457.83	407.25
458.01	425.98
458.19	332.36
458.38	444.70
458.56	423.64
458.74	362.78
458.93	365.12
459.11	418.96
459.29	442.36
459.48	517.26
459.66	414.27
459.84	362.78
460.03	472.79
460.21	372.15
460.39	425.98
460.57	458.74
460.76	435.34
460.94	365.12
461.12	470.45
461.31	400.23
461.49	386.19
461.67	386.19
461.85	404.91
462.04	379.17
462.22	779.40
462.40	383.85
462.59	458.74
462.77	475.13
462.95	463.43
463.13	461.09
463.32	425.98
463.50	411.93
463.68	421.30
463.86	388.53
464.05	341.72
464.23	411.93
464.41	470.45
464.59	463.43
464.78	428.32
464.96	390.87
465.14	444.70
465.32	411.93
465.50	395.55
465.69	416.62
465.87	440.02
466.05	421.30
466.23	339.38
466.41	383.85
466.60	423.64
466.78	496.19
466.96	456.40
467.14	395.55
467.32	454.06
467.51	475.13
467.69	440.02
467.87	444.70
468.05	390.87
468.23	409.59
468.41	418.96
468.60	346.40
468.78	433.00
468.96	428.32
469.14	393.21
469.32	376.83
469.50	388.53
469.69	454.06
469.87	334.70
470.05	512.58
470.23	435.34
470.41	430.66
470.59	397.89
470.77	463.43
470.95	428.32
471.14	498.53
471.32	454.06
471.50	376.83
471.68	437.68
471.86	351.08
472.04	423.64
472.22	362.78
472.40	386.19
472.58	414.27
472.77	465.77
472.95	447.04
473.13	486.83
473.31	507.90
473.49	430.66
473.67	395.55
473.85	388.53
474.03	423.64
474.21	397.89
474.39	418.96
474.57	486.83
474.75	437.68
474.93	381.51
475.12	395.55
475.30	423.64
475.48	386.19
475.66	397.89
475.84	409.59
476.02	351.08
476.20	414.27
476.38	397.89
476.56	475.13
476.74	454.06
476.92	411.93
477.10	411.93
477.28	365.12
477.46	404.91
477.64	402.57
477.82	360.44
478.00	442.36
478.18	451.72
478.36	428.32
478.54	428.32
478.72	379.17
478.90	397.89
479.08	400.23
479.26	404.91
479.44	414.27
479.62	430.66
479.80	451.72
479.98	372.15
480.16	435.34
480.34	435.34
480.52	397.89
480.70	421.30
480.88	367.46
481.06	425.98
481.24	461.09
481.41	381.51
481.59	468.11
481.77	397.89
481.95	337.04
482.13	519.60
482.31	454.06
482.49	393.21
482.67	341.72
482.85	348.74
483.03	442.36
483.21	372.15
483.39	456.40
483.57	395.55
483.74	489.17
483.92	444.70
484.10	428.32
484.28	475.13
484.46	397.89
484.64	440.02
484.82	538.32
485.00	381.51
485.18	411.93
485.35	355.76
485.53	337.04
485.71	468.11
485.89	369.80
486.07	440.02
486.25	521.94
486.43	451.72
486.61	482.15
486.78	435.34
486.96	418.96
487.14	397.89
487.32	456.40
487.50	376.83
487.68	407.25
487.85	383.85
488.03	451.72
488.21	358.10
488.39	386.19
488.57	486.83
488.75	348.74
488.92	433.00
489.10	414.27
489.28	451.72
489.46	397.89
489.64	475.13
489.81	463.43
489.99	393.21
490.17	402.57
490.35	428.32
490.53	379.17
490.70	435.34
490.88	440.02
491.06	376.83
491.24	379.17
491.41	407.25
491.59	390.87
491.77	423.64
491.95	355.76
492.13	423.64
492.30	430.66
492.48	365.12
492.66	414.27
492.84	428.32
493.01	390.87
493.19	430.66
493.37	365.12
493.54	353.42
493.72	337.04
493.90	393.21
494.08	379.17
494.25	388.53
494.43	362.78
494.61	430.66
494.79	435.34
494.96	435.34
495.14	376.83
495.32	440.02
495.49	353.42
495.67	416.62
495.85	416.62
496.02	451.72
496.20	423.64
496.38	451.72
496.55	379.17
496.73	442.36
496.91	425.98
497.09	416.62
497.26	465.77
497.44	465.77
497.62	433.00
497.79	407.25
497.97	383.85
498.14	393.21
498.32	374.49
498.50	379.17
498.67	407.25
498.85	400.23
499.03	369.80
499.20	423.64
499.38	472.79
499.56	376.83
499.73	470.45
499.91	465.77
500.08	433.00
500.26	433.00
500.44	402.57
500.61	386.19
500.79	414.27
500.97	482.15
501.14	404.91
501.32	437.68
501.49	489.17
501.67	461.09
501.84	428.32
502.02	386.19
502.20	465.77
502.37	447.04
502.55	400.23
502.72	425.98
502.90	440.02
503.07	437.68
503.25	421.30
503.43	411.93
503.60	423.64
503.78	369.80
503.95	433.00
504.13	421.30
504.30	414.27
504.48	395.55
504.65	433.00
504.83	444.70
505.01	365.12
505.18	468.11
505.36	472.79
505.53	362.78
505.71	334.70
505.88	491.51
506.06	393.21
506.23	395.55
506.41	337.04
506.58	496.19
506.76	444.70
506.93	418.96
507.11	381.51
507.28	390.87
507.46	416.62
507.63	390.87
507.81	414.27
507.98	402.57
508.16	379.17
508.33	411.93
508.50	465.77
508.68	390.87
508.85	444.70
509.03	395.55
509.20	320.65
509.38	437.68
509.55	407.25
509.73	470.45
509.90	475.13
510.08	461.09
510.25	428.32
510.42	383.85
510.60	355.76
510.77	430.66
510.95	444.70
511.12	397.89
511.30	421.30
511.47	449.38
511.64	435.34
511.82	449.38
511.99	400.23
512.17	409.59
512.34	425.98
512.51	400.23
512.69	395.55
512.86	489.17
513.04	423.64
513.21	397.89
513.38	482.15
513.56	416.62
513.73	372.15
513.90	449.38
514.08	348.74
514.25	395.55
514.43	433.00
514.60	423.64
514.77	475.13
514.95	440.02
515.12	409.59
515.29	381.51
515.47	449.38
515.64	355.76
515.81	369.80
515.99	397.89
516.16	454.06
516.33	461.09
516.51	428.32
516.68	311.29
516.85	411.93
517.03	355.76
517.20	416.62
517.37	454.06
517.54	411.93
517.72	449.38
517.89	395.55
518.06	369.80
518.24	456.40
518.41	477.47
518.58	428.32
518.75	383.85
518.93	491.51
519.10	407.25
519.27	386.19
519.45	430.66
519.62	461.09
519.79	393.21
519.96	381.51
520.14	367.46
520.31	386.19
520.48	489.17
520.65	440.02
520.83	461.09
521.00	404.91
521.17	411.93
521.34	430.66
521.52	397.89
521.69	416.62
521.86	339.38
522.03	447.04
522.20	388.53
522.38	404.91
522.55	463.43
522.72	327.68
522.89	440.02
523.07	421.30
523.24	463.43
523.41	407.25
523.58	390.87
523.75	407.25
523.92	411.93
524.10	395.55
524.27	393.21
524.44	433.00
524.61	423.64
524.78	482.15
524.96	468.11
525.13	484.49
525.30	404.91
525.47	425.98
525.64	395.55
525.81	416.62
525.98	376.83
526.16	383.85
526.33	386.19
526.50	437.68
526.67	416.62
526.84	411.93
527.01	409.59
527.18	425.98
527.36	435.34
527.53	388.53
527.70	355.76
527.87	390.87
528.04	421.30
528.21	407.25
528.38	461.09
528.55	418.96
528.72	365.12
528.89	458.74
529.07	348.74
529.24	367.46
529.41	395.55
529.58	407.25
529.75	416.62
529.92	463.43
530.09	440.02
530.26	470.45
530.43	479.81
530.60	461.09
530.77	376.83
530.94	425.98
531.11	472.79
531.28	428.32
531.46	372.15
531.63	428.32
531.80	456.40
531.97	428.32
532.14	479.81
532.31	449.38
532.48	479.81
532.65	393.21
532.82	423.64
532.99	390.87
533.16	397.89
533.33	454.06
533.50	418.96
533.67	358.10
533.84	407.25
534.01	472.79
534.18	416.62
534.35	449.38
534.52	402.57
534.69	386.19
534.86	442.36
535.03	402.57
535.20	395.55
535.37	491.51
535.54	456.40
535.71	337.04
535.88	351.08
536.05	468.11
536.22	407.25
536.38	416.62
536.55	402.57
536.72	475.13
536.89	418.96
537.06	433.00
537.23	390.87
537.40	407.25
537.57	411.93
537.74	456.40
537.91	395.55
538.08	395.55
538.25	395.55
538.42	430.66
538.59	409.59
538.75	397.89
538.92	437.68
539.09	461.09
539.26	409.59
539.43	444.70
539.60	468.11
539.77	301.93
539.94	402.57
540.11	442.36
540.28	397.89
540.44	411.93
540.61	367.46
540.78	465.77
540.95	379.17
541.12	379.17
541.29	407.25
541.46	468.11
541.62	346.40
541.79	348.74
541.96	418.96
542.13	400.23
542.30	379.17
542.47	390.87
542.63	507.90
542.80	346.40
542.97	437.68
543.14	414.27
543.31	442.36
543.48	369.80
543.64	416.62
543.81	414.27
543.98	425.98
544.15	418.96
544.32	383.85
544.48	442.36
544.65	418.96
544.82	404.91
544.99	404.91
545.16	477.47
545.32	374.49
545.49	388.53
545.66	444.70
545.83	402.57
546.00	421.30
546.16	411.93
546.33	486.83
546.50	477.47
546.67	496.19
546.83	393.21
547.00	367.46
547.17	421.30
547.34	421.30
547.50	491.51
547.67	456.40
547.84	479.81
548.00	388.53
548.17	409.59
548.34	386.19
548.51	383.85
548.67	479.81
548.84	463.43
549.01	421.30
549.18	463.43
549.34	507.90
549.51	322.99
549.68	435.34
549.84	437.68
550.01	433.00
550.18	519.60
550.34	430.66
550.51	381.51
550.68	421.30
550.84	411.93
551.01	461.09
551.18	440.02
551.34	430.66
551.51	362.78
551.68	449.38
551.84	409.59
552.01	414.27
552.18	461.09
552.34	386.19
552.51	409.59
552.68	416.62
552.84	418.96
553.01	444.70
553.18	369.80
553.34	393.21
553.51	447.04
553.67	454.06
553.84	493.85
554.01	435.34
554.17	411.93
554.34	416.62
554.51	449.38
554.67	402.57
554.84	491.51
555.00	430.66
555.17	402.57
555.33	433.00
555.50	423.64
555.67	402.57
555.83	458.74
556.00	400.23
556.16	528.96
556.33	425.98
556.50	454.06
556.66	440.02
556.83	367.46
556.99	454.06
557.16	437.68
557.32	397.89
557.49	400.23
557.65	491.51
557.82	400.23
557.98	388.53
558.15	360.44
558.32	430.66
558.48	437.68
558.65	404.91
558.81	346.40
558.98	393.21
559.14	421.30
559.31	437.68
559.47	360.44
559.64	390.87
559.80	421.30
559.97	402.57
560.13	470.45
560.30	430.66
560.46	409.59
560.63	374.49
560.79	339.38
560.96	425.98
561.12	411.93
561.29	486.83
561.45	484.49
561.61	423.64
561.78	519.60
561.94	407.25
562.11	369.80
562.27	362.78
562.44	421.30
562.60	414.27
562.77	472.79
562.93	421.30
563.10	425.98
563.26	414.27
563.42	397.89
563.59	395.55
563.75	430.66
563.92	479.81
564.08	458.74
564.24	451.72
564.41	430.66
564.57	381.51
564.74	444.70
564.90	407.25
565.07	472.79
565.23	407.25
565.39	437.68
565.56	475.13
565.72	376.83
565.88	454.06
566.05	325.33
566.21	428.32
566.38	489.17
566.54	435.34
566.70	451.72
566.87	418.96
567.03	416.62
567.19	447.04
567.36	440.02
567.52	425.98
567.68	456.40
567.85	409.59
568.01	404.91
568.17	442.36
568.34	421.30
568.50	461.09
568.66	440.02
568.83	388.53
568.99	383.85
569.15	402.57
569.32	435.34
569.48	418.96
569.64	388.53
569.81	334.70
569.97	390.87
570.13	430.66
570.30	390.87
570.46	383.85
570.62	383.85
570.78	440.02
570.95	367.46
571.11	491.51
571.27	437.68
571.43	369.80
571.60	376.83
571.76	414.27
571.92	416.62
572.09	395.55
572.25	397.89
572.41	423.64
572.57	400.23
572.74	449.38
572.90	428.32
573.06	367.46
573.22	397.89
573.38	395.55
573.55	461.09
573.71	435.34
573.87	411.93
574.03	381.51
574.20	421.30
574.36	437.68
574.52	454.06
574.68	402.57
574.84	484.49
575.01	397.89
575.17	440.02
575.33	386.19
575.49	383.85
575.65	437.68
575.82	407.25
575.98	552.37
576.14	393.21
576.30	456.40
576.46	416.62
576.62	393.21
576.79	414.27
576.95	465.77
577.11	479.81
577.27	421.30
577.43	463.43
577.59	461.09
577.75	397.89
577.92	332.36
578.08	454.06
578.24	444.70
578.40	440.02
578.56	367.46
578.72	411.93
578.88	470.45
579.04	493.85
579.21	449.38
579.37	456.40
579.53	454.06
579.69	421.30
579.85	414.27
580.01	395.55
580.17	414.27
580.33	390.87
580.49	409.59
580.65	409.59
580.82	397.89
580.98	388.53
581.14	425.98
581.30	442.36
581.46	484.49
581.62	444.70
581.78	397.89
581.94	454.06
582.10	365.12
582.26	418.96
582.42	383.85
582.58	365.12
582.74	395.55
582.90	430.66
583.06	428.32
583.22	402.57
583.38	369.80
583.54	428.32
583.70	461.09
583.86	416.62
584.02	470.45
584.18	442.36
584.34	393.21
584.50	423.64
584.66	386.19
584.82	344.06
584.98	421.30
585.14	372.15
585.30	423.64
585.46	341.72
585.62	395.55
585.78	496.19
585.94	444.70
586.10	388.53
586.26	465.77
586.42	463.43
586.58	421.30
586.74	404.91
586.90	449.38
587.06	458.74
587.22	493.85
587.38	437.68
587.54	395.55
587.70	449.38
587.86	444.70
588.02	416.62
588.18	444.70
588.34	454.06
588.49	428.32
588.65	376.83
588.81	393.21
588.97	433.00
589.13	449.38
589.29	400.23
589.45	379.17
589.61	442.36
589.77	402.57
589.93	430.66
590.08	365.12
590.24	369.80
590.40	337.04
590.56	451.72
590.72	390.87
590.88	423.64
591.04	447.04
591.20	458.74
591.35	435.34
591.51	360.44
591.67	418.96
591.83	472.79
591.99	418.96
592.15	456.40
592.31	395.55
592.46	440.02
592.62	425.98
592.78	402.57
592.94	397.89
593.10	353.42
593.26	414.27
593.41	388.53
593.57	400.23
593.73	491.51
593.89	449.38
594.05	463.43
594.20	470.45
594.36	442.36
594.52	358.10
594.68	397.89
594.84	411.93
594.99	425.98
595.15	414.27
595.31	449.38
595.47	418.96
595.62	402.57
595.78	435.34
595.94	393.21
596.10	491.51
596.25	346.40
596.41	468.11
596.57	409.59
596.73	388.53
596.88	397.89
597.04	353.42
597.20	484.49
597.36	477.47
597.51	383.85
597.67	400.23
597.83	374.49
597.99	404.91
598.14	379.17
598.30	404.91
598.46	348.74
598.61	484.49
598.77	489.17
598.93	437.68
599.09	510.24
599.24	425.98
599.40	475.13
599.56	479.81
599.71	433.00
599.87	447.04
600.03	397.89
600.18	381.51
600.34	430.66
600.50	458.74
600.65	458.74
600.81	416.62
600.97	411.93
601.12	409.59
601.28	395.55
601.44	444.70
601.59	383.85
601.75	461.09
601.91	454.06
602.06	397.89
602.22	465.77
602.37	400.23
602.53	367.46
602.69	437.68
602.84	386.19
603.00	454.06
603.16	482.15
603.31	482.15
603.47	447.04
603.62	402.57
603.78	425.98
603.94	409.59
604.09	341.72
604.25	444.70
604.40	435.34
604.56	362.78
604.71	365.12
604.87	383.85
605.03	444.70
605.18	465.77
605.34	491.51
605.49	437.68
605.65	358.10
605.80	430.66
605.96	390.87
606.12	395.55
606.27	454.06
606.43	430.66
606.58	404.91
606.74	409.59
606.89	367.46
607.05	428.32
607.20	402.57
607.36	411.93
607.51	404.91
607.67	367.46
607.82	393.21
607.98	418.96
608.13	425.98
608.29	482.15
608.44	440.02
608.60	465.77
608.75	477.47
608.91	489.17
609.06	451.72
609.22	475.13
609.37	425.98
609.53	320.65
609.68	514.92
609.84	465.77
609.99	418.96
610.15	425.98
