SpectraSuite Data File
++++++++++++++++++++++++++++++++++++
Date: Fri Oct 25 12:10:17 EDT 2013
User: price-jones
Dark Spectrum Present: No
Reference Spectrum Present: No
Number of Sampled Component Spectra: 1
Spectrometers: USB2+H05261
Integration Time (usec): 100000 (USB2+H05261)
Spectra Averaged: 1 (USB2+H05261)
Boxcar Smoothing: 0 (USB2+H05261)
Correct for Electrical Dark: No (USB2+H05261)
Strobe/Lamp Enabled: No (USB2+H05261)
Correct for Detector Non-linearity: No (USB2+H05261)
Correct for Stray Light: No (USB2+H05261)
Number of Pixels in Processed Spectrum: 2048
>>>>>Begin Processed Spectral Data<<<<<
365.73	376.83
365.92	376.83
366.12	376.83
366.32	290.23
366.52	229.37
366.72	311.29
366.91	255.12
367.11	250.44
367.31	180.22
367.51	262.14
367.70	182.56
367.90	215.33
368.10	231.71
368.30	322.99
368.49	222.35
368.69	257.46
368.89	234.05
369.09	252.78
369.28	262.14
369.48	250.44
369.68	327.68
369.87	271.50
370.07	315.97
370.27	278.52
370.47	358.10
370.66	311.29
370.86	411.93
371.06	320.65
371.25	437.68
371.45	327.68
371.65	416.62
371.84	339.38
372.04	365.12
372.24	409.59
372.44	379.17
372.63	409.59
372.83	386.19
373.03	376.83
373.22	423.64
373.42	395.55
373.62	435.34
373.81	334.70
374.01	421.30
374.21	358.10
374.40	425.98
374.60	386.19
374.79	414.27
374.99	390.87
375.19	458.74
375.38	500.87
375.58	414.27
375.78	416.62
375.97	468.11
376.17	496.19
376.37	381.51
376.56	442.36
376.76	418.96
376.95	449.38
377.15	346.40
377.35	383.85
377.54	381.51
377.74	411.93
377.93	362.78
378.13	395.55
378.33	400.23
378.52	440.02
378.72	435.34
378.91	437.68
379.11	365.12
379.31	369.80
379.50	425.98
379.70	444.70
379.89	402.57
380.09	442.36
380.28	447.04
380.48	407.25
380.68	440.02
380.87	440.02
381.07	472.79
381.26	404.91
381.46	400.23
381.65	379.17
381.85	379.17
382.04	390.87
382.24	444.70
382.43	461.09
382.63	362.78
382.83	414.27
383.02	421.30
383.22	458.74
383.41	365.12
383.61	390.87
383.80	372.15
384.00	397.89
384.19	400.23
384.39	344.06
384.58	379.17
384.78	458.74
384.97	428.32
385.17	393.21
385.36	367.46
385.56	400.23
385.75	430.66
385.95	369.80
386.14	365.12
386.34	372.15
386.53	423.64
386.72	381.51
386.92	447.04
387.11	402.57
387.31	395.55
387.50	421.30
387.70	355.76
387.89	433.00
388.09	294.91
388.28	388.53
388.48	414.27
388.67	386.19
388.86	423.64
389.06	435.34
389.25	344.06
389.45	463.43
389.64	423.64
389.84	447.04
390.03	362.78
390.22	337.04
390.42	386.19
390.61	440.02
390.81	393.21
391.00	339.38
391.19	447.04
391.39	355.76
391.58	400.23
391.78	409.59
391.97	423.64
392.16	330.02
392.36	482.15
392.55	437.68
392.75	433.00
392.94	388.53
393.13	421.30
393.33	369.80
393.52	402.57
393.71	395.55
393.91	498.53
394.10	374.49
394.29	470.45
394.49	372.15
394.68	411.93
394.88	461.09
395.07	351.08
395.26	383.85
395.46	451.72
395.65	447.04
395.84	411.93
396.04	482.15
396.23	463.43
396.42	388.53
396.62	421.30
396.81	351.08
397.00	409.59
397.19	428.32
397.39	416.62
397.58	381.51
397.77	440.02
397.97	388.53
398.16	425.98
398.35	395.55
398.55	386.19
398.74	400.23
398.93	409.59
399.12	440.02
399.32	416.62
399.51	372.15
399.70	374.49
399.90	397.89
400.09	404.91
400.28	372.15
400.47	430.66
400.67	351.08
400.86	376.83
401.05	404.91
401.24	393.21
401.44	418.96
401.63	428.32
401.82	365.12
402.01	468.11
402.21	379.17
402.40	337.04
402.59	386.19
402.78	383.85
402.97	379.17
403.17	435.34
403.36	479.81
403.55	369.80
403.74	430.66
403.93	379.17
404.13	444.70
404.32	477.47
404.51	447.04
404.70	456.40
404.89	379.17
405.09	421.30
405.28	341.72
405.47	395.55
405.66	404.91
405.85	447.04
406.05	381.51
406.24	411.93
406.43	465.77
406.62	353.42
406.81	423.64
407.00	461.09
407.20	414.27
407.39	451.72
407.58	407.25
407.77	428.32
407.96	409.59
408.15	376.83
408.34	304.27
408.54	442.36
408.73	484.49
408.92	456.40
409.11	416.62
409.30	454.06
409.49	402.57
409.68	421.30
409.87	386.19
410.07	348.74
410.26	390.87
410.45	404.91
410.64	344.06
410.83	383.85
411.02	411.93
411.21	402.57
411.40	449.38
411.59	358.10
411.78	353.42
411.98	414.27
412.17	404.91
412.36	383.85
412.55	390.87
412.74	339.38
412.93	421.30
413.12	407.25
413.31	430.66
413.50	388.53
413.69	313.63
413.88	414.27
414.07	386.19
414.26	344.06
414.45	388.53
414.64	397.89
414.83	425.98
415.02	428.32
415.22	430.66
415.41	390.87
415.60	411.93
415.79	463.43
415.98	397.89
416.17	346.40
416.36	437.68
416.55	400.23
416.74	416.62
416.93	402.57
417.12	458.74
417.31	472.79
417.50	428.32
417.69	388.53
417.88	353.42
418.07	388.53
418.26	383.85
418.45	442.36
418.64	463.43
418.83	444.70
419.02	393.21
419.21	454.06
419.39	376.83
419.58	383.85
419.77	397.89
419.96	383.85
420.15	320.65
420.34	379.17
420.53	435.34
420.72	414.27
420.91	407.25
421.10	376.83
421.29	381.51
421.48	381.51
421.67	447.04
421.86	440.02
422.05	416.62
422.24	397.89
422.43	447.04
422.61	421.30
422.80	416.62
422.99	449.38
423.18	397.89
423.37	484.49
423.56	444.70
423.75	409.59
423.94	374.49
424.13	395.55
424.32	393.21
424.50	425.98
424.69	414.27
424.88	379.17
425.07	411.93
425.26	376.83
425.45	472.79
425.64	407.25
425.83	358.10
426.01	435.34
426.20	440.02
426.39	428.32
426.58	337.04
426.77	376.83
426.96	348.74
427.15	425.98
427.33	358.10
427.52	362.78
427.71	425.98
427.90	482.15
428.09	397.89
428.28	428.32
428.46	421.30
428.65	433.00
428.84	449.38
429.03	440.02
429.22	451.72
429.40	451.72
429.59	423.64
429.78	493.85
429.97	435.34
430.16	402.57
430.34	393.21
430.53	388.53
430.72	365.12
430.91	414.27
431.10	442.36
431.28	414.27
431.47	402.57
431.66	372.15
431.85	486.83
432.03	442.36
432.22	409.59
432.41	468.11
432.60	440.02
432.79	383.85
432.97	421.30
433.16	386.19
433.35	390.87
433.54	444.70
433.72	425.98
433.91	416.62
434.10	388.53
434.28	404.91
434.47	383.85
434.66	404.91
434.85	404.91
435.03	430.66
435.22	470.45
435.41	423.64
435.59	433.00
435.78	428.32
435.97	444.70
436.16	400.23
436.34	393.21
436.53	440.02
436.72	437.68
436.90	442.36
437.09	381.51
437.28	358.10
437.46	411.93
437.65	461.09
437.84	447.04
438.02	447.04
438.21	440.02
438.40	376.83
438.58	425.98
438.77	451.72
438.96	400.23
439.14	411.93
439.33	367.46
439.52	433.00
439.70	435.34
439.89	411.93
440.08	437.68
440.26	437.68
440.45	479.81
440.63	468.11
440.82	461.09
441.01	421.30
441.19	360.44
441.38	435.34
441.57	461.09
441.75	435.34
441.94	393.21
442.12	407.25
442.31	299.59
442.50	418.96
442.68	390.87
442.87	449.38
443.05	437.68
443.24	423.64
443.43	442.36
443.61	505.56
443.80	416.62
443.98	491.51
444.17	442.36
444.35	362.78
444.54	451.72
444.73	334.70
444.91	428.32
445.10	400.23
445.28	472.79
445.47	393.21
445.65	418.96
445.84	430.66
446.02	369.80
446.21	430.66
446.39	409.59
446.58	397.89
446.77	374.49
446.95	423.64
447.14	425.98
447.32	418.96
447.51	449.38
447.69	400.23
447.88	428.32
448.06	463.43
448.25	461.09
448.43	351.08
448.62	447.04
448.80	472.79
448.99	404.91
449.17	435.34
449.36	442.36
449.54	423.64
449.73	416.62
449.91	423.64
450.10	411.93
450.28	440.02
450.46	425.98
450.65	418.96
450.83	362.78
451.02	451.72
451.20	348.74
451.39	374.49
451.57	409.59
451.76	444.70
451.94	433.00
452.13	404.91
452.31	447.04
452.49	423.64
452.68	433.00
452.86	390.87
453.05	451.72
453.23	440.02
453.42	400.23
453.60	381.51
453.78	393.21
453.97	433.00
454.15	374.49
454.34	395.55
454.52	437.68
454.70	402.57
454.89	433.00
455.07	393.21
455.26	416.62
455.44	416.62
455.62	365.12
455.81	423.64
455.99	465.77
456.17	362.78
456.36	374.49
456.54	416.62
456.73	351.08
456.91	381.51
457.09	404.91
457.28	454.06
457.46	411.93
457.64	440.02
457.83	433.00
458.01	433.00
458.19	423.64
458.38	341.72
458.56	416.62
458.74	360.44
458.93	411.93
459.11	395.55
459.29	388.53
459.48	482.15
459.66	505.56
459.84	381.51
460.03	512.58
460.21	514.92
460.39	461.09
460.57	383.85
460.76	433.00
460.94	374.49
461.12	442.36
461.31	414.27
461.49	379.17
461.67	458.74
461.85	454.06
462.04	414.27
462.22	737.27
462.40	447.04
462.59	409.59
462.77	500.87
462.95	388.53
463.13	409.59
463.32	414.27
463.50	491.51
463.68	517.26
463.86	428.32
464.05	383.85
464.23	447.04
464.41	435.34
464.59	440.02
464.78	374.49
464.96	425.98
465.14	390.87
465.32	435.34
465.50	461.09
465.69	358.10
465.87	390.87
466.05	379.17
466.23	386.19
466.41	442.36
466.60	421.30
466.78	463.43
466.96	409.59
467.14	433.00
467.32	430.66
467.51	484.49
467.69	425.98
467.87	442.36
468.05	407.25
468.23	430.66
468.41	433.00
468.60	402.57
468.78	395.55
468.96	435.34
469.14	395.55
469.32	435.34
469.50	491.51
469.69	393.21
469.87	418.96
470.05	386.19
470.23	379.17
470.41	430.66
470.59	376.83
470.77	454.06
470.95	395.55
471.14	540.66
471.32	433.00
471.50	472.79
471.68	416.62
471.86	444.70
472.04	386.19
472.22	484.49
472.40	393.21
472.58	458.74
472.77	383.85
472.95	416.62
473.13	353.42
473.31	383.85
473.49	400.23
473.67	362.78
473.85	421.30
474.03	442.36
474.21	425.98
474.39	411.93
474.57	435.34
474.75	395.55
474.93	390.87
475.12	418.96
475.30	444.70
475.48	482.15
475.66	367.46
475.84	437.68
476.02	395.55
476.20	421.30
476.38	360.44
476.56	404.91
476.74	449.38
476.92	407.25
477.10	418.96
477.28	365.12
477.46	372.15
477.64	411.93
477.82	393.21
478.00	449.38
478.18	395.55
478.36	395.55
478.54	402.57
478.72	355.76
478.90	435.34
479.08	409.59
479.26	451.72
479.44	355.76
479.62	400.23
479.80	395.55
479.98	491.51
480.16	421.30
480.34	381.51
480.52	341.72
480.70	425.98
480.88	421.30
481.06	416.62
481.24	390.87
481.41	395.55
481.59	430.66
481.77	383.85
481.95	416.62
482.13	430.66
482.31	470.45
482.49	454.06
482.67	425.98
482.85	442.36
483.03	411.93
483.21	402.57
483.39	477.47
483.57	451.72
483.74	425.98
483.92	351.08
484.10	379.17
484.28	388.53
484.46	451.72
484.64	381.51
484.82	409.59
485.00	414.27
485.18	447.04
485.35	404.91
485.53	418.96
485.71	496.19
485.89	383.85
486.07	414.27
486.25	402.57
486.43	435.34
486.61	409.59
486.78	421.30
486.96	393.21
487.14	407.25
487.32	386.19
487.50	409.59
487.68	416.62
487.85	374.49
488.03	475.13
488.21	416.62
488.39	390.87
488.57	470.45
488.75	435.34
488.92	524.28
489.10	369.80
489.28	435.34
489.46	360.44
489.64	472.79
489.81	397.89
489.99	430.66
490.17	444.70
490.35	440.02
490.53	367.46
490.70	388.53
490.88	409.59
491.06	383.85
491.24	425.98
491.41	454.06
491.59	414.27
491.77	409.59
491.95	411.93
492.13	435.34
492.30	332.36
492.48	430.66
492.66	414.27
492.84	442.36
493.01	414.27
493.19	379.17
493.37	449.38
493.54	421.30
493.72	390.87
493.90	454.06
494.08	355.76
494.25	379.17
494.43	470.45
494.61	470.45
494.79	423.64
494.96	395.55
495.14	433.00
495.32	348.74
495.49	433.00
495.67	379.17
495.85	376.83
496.02	440.02
496.20	433.00
496.38	369.80
496.55	330.02
496.73	404.91
496.91	388.53
497.09	425.98
497.26	390.87
497.44	447.04
497.62	411.93
497.79	425.98
497.97	423.64
498.14	407.25
498.32	411.93
498.50	505.56
498.67	437.68
498.85	402.57
499.03	355.76
499.20	440.02
499.38	395.55
499.56	433.00
499.73	444.70
499.91	423.64
500.08	430.66
500.26	500.87
500.44	437.68
500.61	409.59
500.79	433.00
500.97	393.21
501.14	468.11
501.32	376.83
501.49	423.64
501.67	402.57
501.84	421.30
502.02	341.72
502.20	414.27
502.37	468.11
502.55	390.87
502.72	381.51
502.90	397.89
503.07	465.77
503.25	463.43
503.43	388.53
503.60	369.80
503.78	407.25
503.95	362.78
504.13	407.25
504.30	435.34
504.48	386.19
504.65	428.32
504.83	395.55
505.01	369.80
505.18	416.62
505.36	407.25
505.53	433.00
505.71	411.93
505.88	416.62
506.06	411.93
506.23	411.93
506.41	404.91
506.58	393.21
506.76	458.74
506.93	376.83
507.11	376.83
507.28	367.46
507.46	433.00
507.63	437.68
507.81	437.68
507.98	433.00
508.16	332.36
508.33	423.64
508.50	421.30
508.68	425.98
508.85	360.44
509.03	339.38
509.20	390.87
509.38	430.66
509.55	468.11
509.73	425.98
509.90	430.66
510.08	409.59
510.25	397.89
510.42	409.59
510.60	369.80
510.77	388.53
510.95	360.44
511.12	386.19
511.30	472.79
511.47	461.09
511.64	447.04
511.82	454.06
511.99	416.62
512.17	421.30
512.34	388.53
512.51	440.02
512.69	383.85
512.86	397.89
513.04	444.70
513.21	376.83
513.38	477.47
513.56	402.57
513.73	437.68
513.90	425.98
514.08	447.04
514.25	444.70
514.43	451.72
514.60	444.70
514.77	444.70
514.95	449.38
515.12	496.19
515.29	411.93
515.47	456.40
515.64	477.47
515.81	358.10
515.99	425.98
516.16	489.17
516.33	451.72
516.51	374.49
516.68	449.38
516.85	381.51
517.03	395.55
517.20	388.53
517.37	477.47
517.54	395.55
517.72	374.49
517.89	395.55
518.06	360.44
518.24	463.43
518.41	489.17
518.58	423.64
518.75	358.10
518.93	402.57
519.10	456.40
519.27	433.00
519.45	416.62
519.62	393.21
519.79	409.59
519.96	414.27
520.14	437.68
520.31	409.59
520.48	374.49
520.65	430.66
520.83	421.30
521.00	433.00
521.17	435.34
521.34	411.93
521.52	454.06
521.69	430.66
521.86	388.53
522.03	397.89
522.20	463.43
522.38	447.04
522.55	425.98
522.72	454.06
522.89	435.34
523.07	440.02
523.24	463.43
523.41	449.38
523.58	404.91
523.75	402.57
523.92	418.96
524.10	365.12
524.27	393.21
524.44	416.62
524.61	489.17
524.78	411.93
524.96	395.55
525.13	465.77
525.30	521.94
525.47	423.64
525.64	418.96
525.81	440.02
525.98	468.11
526.16	409.59
526.33	423.64
526.50	444.70
526.67	386.19
526.84	447.04
527.01	461.09
527.18	409.59
527.36	451.72
527.53	472.79
527.70	503.22
527.87	402.57
528.04	484.49
528.21	404.91
528.38	351.08
528.55	463.43
528.72	440.02
528.89	451.72
529.07	402.57
529.24	461.09
529.41	390.87
529.58	411.93
529.75	404.91
529.92	468.11
530.09	400.23
530.26	444.70
530.43	430.66
530.60	397.89
530.77	409.59
530.94	463.43
531.11	418.96
531.28	369.80
531.46	372.15
531.63	379.17
531.80	510.24
531.97	402.57
532.14	456.40
532.31	437.68
532.48	440.02
532.65	435.34
532.82	393.21
532.99	435.34
533.16	341.72
533.33	416.62
533.50	425.98
533.67	444.70
533.84	393.21
534.01	416.62
534.18	397.89
534.35	433.00
534.52	440.02
534.69	390.87
534.86	428.32
535.03	421.30
535.20	451.72
535.37	383.85
535.54	409.59
535.71	451.72
535.88	430.66
536.05	407.25
536.22	397.89
536.38	365.12
536.55	430.66
536.72	451.72
536.89	334.70
537.06	404.91
537.23	379.17
537.40	418.96
537.57	374.49
537.74	498.53
537.91	346.40
538.08	372.15
538.25	346.40
538.42	383.85
538.59	470.45
538.75	421.30
538.92	351.08
539.09	447.04
539.26	393.21
539.43	444.70
539.60	348.74
539.77	353.42
539.94	393.21
540.11	463.43
540.28	397.89
540.44	479.81
540.61	358.10
540.78	458.74
540.95	458.74
541.12	470.45
541.29	437.68
541.46	376.83
541.62	372.15
541.79	430.66
541.96	374.49
542.13	430.66
542.30	353.42
542.47	472.79
542.63	444.70
542.80	409.59
542.97	337.04
543.14	404.91
543.31	465.77
543.48	440.02
543.64	367.46
543.81	358.10
543.98	339.38
544.15	425.98
544.32	458.74
544.48	454.06
544.65	360.44
544.82	374.49
544.99	425.98
545.16	458.74
545.32	367.46
545.49	421.30
545.66	362.78
545.83	383.85
546.00	404.91
546.16	402.57
546.33	425.98
546.50	365.12
546.67	512.58
546.83	404.91
547.00	416.62
547.17	421.30
547.34	409.59
547.50	395.55
547.67	390.87
547.84	397.89
548.00	416.62
548.17	386.19
548.34	372.15
548.51	423.64
548.67	362.78
548.84	421.30
549.01	414.27
549.18	449.38
549.34	418.96
549.51	365.12
549.68	456.40
549.84	456.40
550.01	409.59
550.18	355.76
550.34	451.72
550.51	437.68
550.68	482.15
550.84	376.83
551.01	407.25
551.18	376.83
551.34	390.87
551.51	435.34
551.68	351.08
551.84	414.27
552.01	374.49
552.18	437.68
552.34	433.00
552.51	425.98
552.68	395.55
552.84	411.93
553.01	458.74
553.18	425.98
553.34	360.44
553.51	400.23
553.67	440.02
553.84	468.11
554.01	388.53
554.17	500.87
554.34	397.89
554.51	404.91
554.67	425.98
554.84	421.30
555.00	325.33
555.17	381.51
555.33	407.25
555.50	479.81
555.67	414.27
555.83	421.30
556.00	381.51
556.16	500.87
556.33	512.58
556.50	348.74
556.66	386.19
556.83	404.91
556.99	493.85
557.16	447.04
557.32	435.34
557.49	379.17
557.65	421.30
557.82	346.40
557.98	423.64
558.15	437.68
558.32	418.96
558.48	447.04
558.65	400.23
558.81	376.83
558.98	468.11
559.14	430.66
559.31	421.30
559.47	404.91
559.64	458.74
559.80	386.19
559.97	395.55
560.13	456.40
560.30	383.85
560.46	423.64
560.63	346.40
560.79	440.02
560.96	449.38
561.12	430.66
561.29	416.62
561.45	425.98
561.61	393.21
561.78	477.47
561.94	440.02
562.11	437.68
562.27	416.62
562.44	428.32
562.60	414.27
562.77	456.40
562.93	440.02
563.10	358.10
563.26	447.04
563.42	514.92
563.59	440.02
563.75	374.49
563.92	430.66
564.08	381.51
564.24	482.15
564.41	437.68
564.57	325.33
564.74	414.27
564.90	463.43
565.07	482.15
565.23	418.96
565.39	423.64
565.56	463.43
565.72	407.25
565.88	447.04
566.05	444.70
566.21	388.53
566.38	433.00
566.54	435.34
566.70	414.27
566.87	407.25
567.03	498.53
567.19	376.83
567.36	472.79
567.52	437.68
567.68	479.81
567.85	416.62
568.01	411.93
568.17	435.34
568.34	418.96
568.50	440.02
568.66	433.00
568.83	440.02
568.99	507.90
569.15	402.57
569.32	397.89
569.48	437.68
569.64	449.38
569.81	449.38
569.97	383.85
570.13	475.13
570.30	337.04
570.46	465.77
570.62	411.93
570.78	367.46
570.95	402.57
571.11	397.89
571.27	461.09
571.43	500.87
571.60	376.83
571.76	414.27
571.92	423.64
572.09	416.62
572.25	423.64
572.41	505.56
572.57	379.17
572.74	479.81
572.90	414.27
573.06	435.34
573.22	379.17
573.38	435.34
573.55	367.46
573.71	383.85
573.87	470.45
574.03	381.51
574.20	444.70
574.36	454.06
574.52	437.68
574.68	381.51
574.84	386.19
575.01	451.72
575.17	388.53
575.33	393.21
575.49	423.64
575.65	423.64
575.82	390.87
575.98	486.83
576.14	367.46
576.30	430.66
576.46	395.55
576.62	372.15
576.79	447.04
576.95	489.17
577.11	407.25
577.27	411.93
577.43	461.09
577.59	484.49
577.75	362.78
577.92	440.02
578.08	400.23
578.24	334.70
578.40	428.32
578.56	468.11
578.72	416.62
578.88	472.79
579.04	430.66
579.21	400.23
579.37	367.46
579.53	411.93
579.69	486.83
579.85	416.62
580.01	430.66
580.17	414.27
580.33	425.98
580.49	397.89
580.65	395.55
580.82	395.55
580.98	449.38
581.14	451.72
581.30	409.59
581.46	411.93
581.62	454.06
581.78	423.64
581.94	463.43
582.10	470.45
582.26	407.25
582.42	365.12
582.58	381.51
582.74	362.78
582.90	348.74
583.06	376.83
583.22	486.83
583.38	400.23
583.54	418.96
583.70	475.13
583.86	475.13
584.02	425.98
584.18	454.06
584.34	428.32
584.50	456.40
584.66	449.38
584.82	404.91
584.98	444.70
585.14	402.57
585.30	397.89
585.46	379.17
585.62	442.36
585.78	395.55
585.94	367.46
586.10	440.02
586.26	416.62
586.42	379.17
586.58	484.49
586.74	346.40
586.90	365.12
587.06	355.76
587.22	428.32
587.38	477.47
587.54	379.17
587.70	440.02
587.86	435.34
588.02	358.10
588.18	468.11
588.34	454.06
588.49	381.51
588.65	458.74
588.81	390.87
588.97	395.55
589.13	418.96
589.29	482.15
589.45	402.57
589.61	447.04
589.77	416.62
589.93	381.51
590.08	397.89
590.24	435.34
590.40	407.25
590.56	395.55
590.72	449.38
590.88	379.17
591.04	388.53
591.20	428.32
591.35	409.59
591.51	386.19
591.67	402.57
591.83	418.96
591.99	521.94
592.15	451.72
592.31	400.23
592.46	411.93
592.62	510.24
592.78	355.76
592.94	367.46
593.10	430.66
593.26	383.85
593.41	425.98
593.57	414.27
593.73	395.55
593.89	447.04
594.05	470.45
594.20	353.42
594.36	433.00
594.52	386.19
594.68	360.44
594.84	454.06
594.99	489.17
595.15	447.04
595.31	489.17
595.47	423.64
595.62	477.47
595.78	423.64
595.94	404.91
596.10	416.62
596.25	402.57
596.41	374.49
596.57	369.80
596.73	400.23
596.88	374.49
597.04	458.74
597.20	447.04
597.36	470.45
597.51	407.25
597.67	367.46
597.83	447.04
597.99	444.70
598.14	451.72
598.30	461.09
598.46	381.51
598.61	425.98
598.77	463.43
598.93	425.98
599.09	447.04
599.24	451.72
599.40	447.04
599.56	444.70
599.71	383.85
599.87	409.59
600.03	421.30
600.18	461.09
600.34	472.79
600.50	400.23
600.65	411.93
600.81	447.04
600.97	360.44
601.12	360.44
601.28	440.02
601.44	458.74
601.59	393.21
601.75	381.51
601.91	390.87
602.06	393.21
602.22	390.87
602.37	409.59
602.53	416.62
602.69	484.49
602.84	440.02
603.00	407.25
603.16	479.81
603.31	416.62
603.47	491.51
603.62	472.79
603.78	414.27
603.94	454.06
604.09	440.02
604.25	416.62
604.40	437.68
604.56	437.68
604.71	379.17
604.87	454.06
605.03	407.25
605.18	416.62
605.34	386.19
605.49	407.25
605.65	484.49
605.80	386.19
605.96	451.72
606.12	421.30
606.27	470.45
606.43	393.21
606.58	360.44
606.74	425.98
606.89	386.19
607.05	393.21
607.20	358.10
607.36	400.23
607.51	360.44
607.67	447.04
607.82	365.12
607.98	409.59
608.13	388.53
608.29	411.93
608.44	454.06
608.60	444.70
608.75	447.04
608.91	493.85
609.06	390.87
609.22	454.06
609.37	435.34
609.53	411.93
609.68	351.08
609.84	376.83
609.99	418.96
610.15	379.17
