SpectraSuite Data File
++++++++++++++++++++++++++++++++++++
Date: Fri Oct 25 12:10:58 EDT 2013
User: price-jones
Dark Spectrum Present: No
Reference Spectrum Present: No
Number of Sampled Component Spectra: 1
Spectrometers: USB2+H05261
Integration Time (usec): 100000 (USB2+H05261)
Spectra Averaged: 1 (USB2+H05261)
Boxcar Smoothing: 0 (USB2+H05261)
Correct for Electrical Dark: No (USB2+H05261)
Strobe/Lamp Enabled: No (USB2+H05261)
Correct for Detector Non-linearity: No (USB2+H05261)
Correct for Stray Light: No (USB2+H05261)
Number of Pixels in Processed Spectrum: 2048
>>>>>Begin Processed Spectral Data<<<<<
365.73	358.10
365.92	358.10
366.12	358.10
366.32	294.91
366.52	255.12
366.72	306.61
366.91	198.95
367.11	243.42
367.31	198.95
367.51	259.80
367.70	220.01
367.90	278.52
368.10	184.90
368.30	189.58
368.49	255.12
368.69	264.48
368.89	215.33
369.09	215.33
369.28	257.46
369.48	229.37
369.68	257.46
369.87	339.38
370.07	365.12
370.27	332.36
370.47	283.20
370.66	276.18
370.86	374.49
371.06	355.76
371.25	374.49
371.45	386.19
371.65	397.89
371.84	341.72
372.04	402.57
372.24	386.19
372.44	388.53
372.63	430.66
372.83	414.27
373.03	400.23
373.22	411.93
373.42	472.79
373.62	393.21
373.81	423.64
374.01	437.68
374.21	437.68
374.40	428.32
374.60	498.53
374.79	388.53
374.99	451.72
375.19	393.21
375.38	416.62
375.58	393.21
375.78	418.96
375.97	440.02
376.17	433.00
376.37	444.70
376.56	454.06
376.76	449.38
376.95	379.17
377.15	442.36
377.35	437.68
377.54	386.19
377.74	444.70
377.93	435.34
378.13	369.80
378.33	402.57
378.52	423.64
378.72	395.55
378.91	486.83
379.11	341.72
379.31	411.93
379.50	444.70
379.70	414.27
379.89	461.09
380.09	433.00
380.28	372.15
380.48	402.57
380.68	393.21
380.87	388.53
381.07	334.70
381.26	430.66
381.46	353.42
381.65	435.34
381.85	423.64
382.04	411.93
382.24	463.43
382.43	423.64
382.63	367.46
382.83	449.38
383.02	456.40
383.22	409.59
383.41	402.57
383.61	433.00
383.80	507.90
384.00	411.93
384.19	348.74
384.39	411.93
384.58	421.30
384.78	454.06
384.97	393.21
385.17	372.15
385.36	344.06
385.56	383.85
385.75	428.32
385.95	397.89
386.14	545.34
386.34	425.98
386.53	435.34
386.72	430.66
386.92	393.21
387.11	379.17
387.31	423.64
387.50	402.57
387.70	355.76
387.89	416.62
388.09	374.49
388.28	449.38
388.48	400.23
388.67	411.93
388.86	327.68
389.06	409.59
389.25	400.23
389.45	351.08
389.64	411.93
389.84	400.23
390.03	449.38
390.22	440.02
390.42	411.93
390.61	372.15
390.81	383.85
391.00	418.96
391.19	397.89
391.39	379.17
391.58	421.30
391.78	376.83
391.97	409.59
392.16	383.85
392.36	374.49
392.55	395.55
392.75	397.89
392.94	381.51
393.13	386.19
393.33	386.19
393.52	423.64
393.71	430.66
393.91	390.87
394.10	435.34
394.29	313.63
394.49	360.44
394.68	458.74
394.88	440.02
395.07	416.62
395.26	442.36
395.46	386.19
395.65	442.36
395.84	376.83
396.04	493.85
396.23	423.64
396.42	461.09
396.62	372.15
396.81	465.77
397.00	374.49
397.19	416.62
397.39	393.21
397.58	468.11
397.77	397.89
397.97	425.98
398.16	442.36
398.35	416.62
398.55	341.72
398.74	414.27
398.93	388.53
399.12	440.02
399.32	404.91
399.51	411.93
399.70	425.98
399.90	465.77
400.09	388.53
400.28	341.72
400.47	379.17
400.67	444.70
400.86	393.21
401.05	449.38
401.24	470.45
401.44	456.40
401.63	458.74
401.82	404.91
402.01	409.59
402.21	395.55
402.40	360.44
402.59	397.89
402.78	454.06
402.97	397.89
403.17	456.40
403.36	444.70
403.55	435.34
403.74	360.44
403.93	409.59
404.13	451.72
404.32	414.27
404.51	470.45
404.70	435.34
404.89	418.96
405.09	435.34
405.28	374.49
405.47	402.57
405.66	442.36
405.85	379.17
406.05	367.46
406.24	451.72
406.43	477.47
406.62	423.64
406.81	475.13
407.00	411.93
407.20	468.11
407.39	327.68
407.58	369.80
407.77	477.47
407.96	451.72
408.15	411.93
408.34	447.04
408.54	409.59
408.73	386.19
408.92	388.53
409.11	416.62
409.30	437.68
409.49	442.36
409.68	404.91
409.87	461.09
410.07	320.65
410.26	416.62
410.45	383.85
410.64	404.91
410.83	386.19
411.02	353.42
411.21	395.55
411.40	421.30
411.59	416.62
411.78	428.32
411.98	428.32
412.17	381.51
412.36	404.91
412.55	358.10
412.74	414.27
412.93	447.04
413.12	418.96
413.31	383.85
413.50	442.36
413.69	416.62
413.88	411.93
414.07	381.51
414.26	365.12
414.45	339.38
414.64	433.00
414.83	379.17
415.02	447.04
415.22	425.98
415.41	379.17
415.60	416.62
415.79	416.62
415.98	402.57
416.17	425.98
416.36	383.85
416.55	383.85
416.74	440.02
416.93	395.55
417.12	400.23
417.31	388.53
417.50	362.78
417.69	454.06
417.88	386.19
418.07	355.76
418.26	402.57
418.45	423.64
418.64	477.47
418.83	454.06
419.02	409.59
419.21	421.30
419.39	416.62
419.58	341.72
419.77	341.72
419.96	409.59
420.15	381.51
420.34	330.02
420.53	461.09
420.72	428.32
420.91	418.96
421.10	386.19
421.29	393.21
421.48	470.45
421.67	428.32
421.86	416.62
422.05	407.25
422.24	404.91
422.43	482.15
422.61	423.64
422.80	353.42
422.99	341.72
423.18	409.59
423.37	470.45
423.56	433.00
423.75	393.21
423.94	381.51
424.13	397.89
424.32	404.91
424.50	435.34
424.69	454.06
424.88	411.93
425.07	367.46
425.26	367.46
425.45	418.96
425.64	458.74
425.83	442.36
426.01	388.53
426.20	437.68
426.39	404.91
426.58	411.93
426.77	435.34
426.96	442.36
427.15	386.19
427.33	381.51
427.52	386.19
427.71	395.55
427.90	433.00
428.09	430.66
428.28	393.21
428.46	470.45
428.65	430.66
428.84	433.00
429.03	425.98
429.22	447.04
429.40	360.44
429.59	444.70
429.78	479.81
429.97	461.09
430.16	418.96
430.34	430.66
430.53	383.85
430.72	353.42
430.91	374.49
431.10	341.72
431.28	454.06
431.47	447.04
431.66	367.46
431.85	407.25
432.03	362.78
432.22	496.19
432.41	404.91
432.60	440.02
432.79	325.33
432.97	369.80
433.16	465.77
433.35	383.85
433.54	400.23
433.72	411.93
433.91	393.21
434.10	362.78
434.28	358.10
434.47	404.91
434.66	421.30
434.85	442.36
435.03	477.47
435.22	418.96
435.41	400.23
435.59	397.89
435.78	437.68
435.97	397.89
436.16	470.45
436.34	369.80
436.53	362.78
436.72	458.74
436.90	416.62
437.09	423.64
437.28	393.21
437.46	428.32
437.65	425.98
437.84	475.13
438.02	390.87
438.21	470.45
438.40	430.66
438.58	395.55
438.77	369.80
438.96	341.72
439.14	440.02
439.33	486.83
439.52	451.72
439.70	400.23
439.89	390.87
440.08	435.34
440.26	425.98
440.45	449.38
440.63	416.62
440.82	430.66
441.01	449.38
441.19	489.17
441.38	444.70
441.57	456.40
441.75	456.40
441.94	423.64
442.12	451.72
442.31	402.57
442.50	395.55
442.68	390.87
442.87	418.96
443.05	414.27
443.24	400.23
443.43	344.06
443.61	416.62
443.80	355.76
443.98	383.85
444.17	402.57
444.35	407.25
444.54	425.98
444.73	395.55
444.91	447.04
445.10	404.91
445.28	390.87
445.47	404.91
445.65	433.00
445.84	461.09
446.02	404.91
446.21	344.06
446.39	447.04
446.58	463.43
446.77	423.64
446.95	414.27
447.14	369.80
447.32	498.53
447.51	397.89
447.69	442.36
447.88	435.34
448.06	414.27
448.25	407.25
448.43	402.57
448.62	421.30
448.80	402.57
448.99	433.00
449.17	435.34
449.36	379.17
449.54	433.00
449.73	454.06
449.91	477.47
450.10	465.77
450.28	465.77
450.46	449.38
450.65	550.03
450.83	437.68
451.02	477.47
451.20	374.49
451.39	421.30
451.57	418.96
451.76	442.36
451.94	383.85
452.13	313.63
452.31	444.70
452.49	397.89
452.68	376.83
452.86	421.30
453.05	414.27
453.23	404.91
453.42	440.02
453.60	472.79
453.78	400.23
453.97	423.64
454.15	458.74
454.34	372.15
454.52	381.51
454.70	428.32
454.89	418.96
455.07	388.53
455.26	369.80
455.44	372.15
455.62	440.02
455.81	472.79
455.99	444.70
456.17	442.36
456.36	341.72
456.54	416.62
456.73	456.40
456.91	404.91
457.09	416.62
457.28	437.68
457.46	409.59
457.64	381.51
457.83	440.02
458.01	433.00
458.19	435.34
458.38	437.68
458.56	386.19
458.74	355.76
458.93	430.66
459.11	461.09
459.29	397.89
459.48	423.64
459.66	435.34
459.84	421.30
460.03	493.85
460.21	470.45
460.39	465.77
460.57	428.32
460.76	402.57
460.94	358.10
461.12	395.55
461.31	409.59
461.49	341.72
461.67	365.12
461.85	400.23
462.04	390.87
462.22	725.57
462.40	421.30
462.59	454.06
462.77	447.04
462.95	454.06
463.13	444.70
463.32	447.04
463.50	470.45
463.68	404.91
463.86	477.47
464.05	374.49
464.23	411.93
464.41	402.57
464.59	395.55
464.78	362.78
464.96	376.83
465.14	421.30
465.32	404.91
465.50	411.93
465.69	379.17
465.87	449.38
466.05	372.15
466.23	360.44
466.41	376.83
466.60	458.74
466.78	400.23
466.96	463.43
467.14	369.80
467.32	372.15
467.51	402.57
467.69	428.32
467.87	444.70
468.05	472.79
468.23	475.13
468.41	353.42
468.60	414.27
468.78	374.49
468.96	393.21
469.14	407.25
469.32	409.59
469.50	376.83
469.69	390.87
469.87	395.55
470.05	444.70
470.23	489.17
470.41	507.90
470.59	400.23
470.77	411.93
470.95	395.55
471.14	411.93
471.32	395.55
471.50	463.43
471.68	437.68
471.86	332.36
472.04	428.32
472.22	393.21
472.40	400.23
472.58	372.15
472.77	440.02
472.95	463.43
473.13	451.72
473.31	468.11
473.49	451.72
473.67	388.53
473.85	433.00
474.03	465.77
474.21	456.40
474.39	456.40
474.57	442.36
474.75	475.13
474.93	407.25
475.12	503.22
475.30	430.66
475.48	421.30
475.66	428.32
475.84	388.53
476.02	414.27
476.20	451.72
476.38	416.62
476.56	465.77
476.74	416.62
476.92	393.21
477.10	442.36
477.28	456.40
477.46	374.49
477.64	444.70
477.82	372.15
478.00	475.13
478.18	468.11
478.36	451.72
478.54	423.64
478.72	428.32
478.90	416.62
479.08	451.72
479.26	423.64
479.44	393.21
479.62	393.21
479.80	404.91
479.98	379.17
480.16	489.17
480.34	475.13
480.52	395.55
480.70	442.36
480.88	416.62
481.06	421.30
481.24	358.10
481.41	393.21
481.59	482.15
481.77	428.32
481.95	404.91
482.13	463.43
482.31	461.09
482.49	540.66
482.67	428.32
482.85	454.06
483.03	428.32
483.21	423.64
483.39	376.83
483.57	414.27
483.74	423.64
483.92	372.15
484.10	395.55
484.28	447.04
484.46	482.15
484.64	449.38
484.82	489.17
485.00	376.83
485.18	383.85
485.35	458.74
485.53	414.27
485.71	411.93
485.89	393.21
486.07	414.27
486.25	517.26
486.43	442.36
486.61	414.27
486.78	414.27
486.96	386.19
487.14	395.55
487.32	393.21
487.50	390.87
487.68	440.02
487.85	416.62
488.03	442.36
488.21	435.34
488.39	416.62
488.57	425.98
488.75	449.38
488.92	472.79
489.10	409.59
489.28	472.79
489.46	411.93
489.64	369.80
489.81	449.38
489.99	402.57
490.17	390.87
490.35	433.00
490.53	404.91
490.70	402.57
490.88	409.59
491.06	397.89
491.24	442.36
491.41	451.72
491.59	507.90
491.77	411.93
491.95	418.96
492.13	461.09
492.30	374.49
492.48	355.76
492.66	414.27
492.84	367.46
493.01	514.92
493.19	416.62
493.37	458.74
493.54	421.30
493.72	337.04
493.90	369.80
494.08	463.43
494.25	414.27
494.43	348.74
494.61	379.17
494.79	395.55
494.96	402.57
495.14	367.46
495.32	358.10
495.49	407.25
495.67	348.74
495.85	390.87
496.02	400.23
496.20	491.51
496.38	407.25
496.55	397.89
496.73	393.21
496.91	449.38
497.09	433.00
497.26	435.34
497.44	360.44
497.62	425.98
497.79	430.66
497.97	418.96
498.14	472.79
498.32	430.66
498.50	379.17
498.67	390.87
498.85	411.93
499.03	388.53
499.20	447.04
499.38	395.55
499.56	411.93
499.73	505.56
499.91	442.36
500.08	395.55
500.26	416.62
500.44	407.25
500.61	390.87
500.79	369.80
500.97	468.11
501.14	425.98
501.32	421.30
501.49	491.51
501.67	449.38
501.84	407.25
502.02	386.19
502.20	475.13
502.37	451.72
502.55	425.98
502.72	393.21
502.90	372.15
503.07	416.62
503.25	425.98
503.43	369.80
503.60	423.64
503.78	393.21
503.95	404.91
504.13	447.04
504.30	425.98
504.48	463.43
504.65	423.64
504.83	400.23
505.01	451.72
505.18	404.91
505.36	489.17
505.53	402.57
505.71	367.46
505.88	428.32
506.06	381.51
506.23	383.85
506.41	465.77
506.58	388.53
506.76	456.40
506.93	404.91
507.11	383.85
507.28	383.85
507.46	425.98
507.63	475.13
507.81	425.98
507.98	351.08
508.16	416.62
508.33	402.57
508.50	409.59
508.68	421.30
508.85	447.04
509.03	414.27
509.20	440.02
509.38	416.62
509.55	433.00
509.73	458.74
509.90	414.27
510.08	400.23
510.25	437.68
510.42	425.98
510.60	440.02
510.77	472.79
510.95	458.74
511.12	435.34
511.30	372.15
511.47	477.47
511.64	437.68
511.82	400.23
511.99	435.34
512.17	414.27
512.34	411.93
512.51	416.62
512.69	402.57
512.86	421.30
513.04	353.42
513.21	404.91
513.38	341.72
513.56	390.87
513.73	421.30
513.90	381.51
514.08	374.49
514.25	421.30
514.43	386.19
514.60	388.53
514.77	430.66
514.95	414.27
515.12	400.23
515.29	404.91
515.47	404.91
515.64	379.17
515.81	416.62
515.99	430.66
516.16	444.70
516.33	383.85
516.51	440.02
516.68	395.55
516.85	423.64
517.03	440.02
517.20	440.02
517.37	440.02
517.54	421.30
517.72	404.91
517.89	358.10
518.06	442.36
518.24	496.19
518.41	433.00
518.58	496.19
518.75	423.64
518.93	383.85
519.10	449.38
519.27	442.36
519.45	484.49
519.62	393.21
519.79	454.06
519.96	365.12
520.14	442.36
520.31	407.25
520.48	400.23
520.65	435.34
520.83	383.85
521.00	428.32
521.17	477.47
521.34	428.32
521.52	379.17
521.69	393.21
521.86	411.93
522.03	400.23
522.20	454.06
522.38	367.46
522.55	461.09
522.72	416.62
522.89	451.72
523.07	409.59
523.24	397.89
523.41	486.83
523.58	458.74
523.75	332.36
523.92	423.64
524.10	358.10
524.27	468.11
524.44	444.70
524.61	402.57
524.78	365.12
524.96	428.32
525.13	416.62
525.30	475.13
525.47	395.55
525.64	337.04
525.81	411.93
525.98	430.66
526.16	496.19
526.33	402.57
526.50	353.42
526.67	388.53
526.84	416.62
527.01	327.68
527.18	433.00
527.36	437.68
527.53	435.34
527.70	425.98
527.87	409.59
528.04	444.70
528.21	390.87
528.38	444.70
528.55	449.38
528.72	423.64
528.89	528.96
529.07	348.74
529.24	346.40
529.41	463.43
529.58	353.42
529.75	442.36
529.92	533.64
530.09	388.53
530.26	374.49
530.43	369.80
530.60	449.38
530.77	468.11
530.94	484.49
531.11	433.00
531.28	463.43
531.46	475.13
531.63	440.02
531.80	390.87
531.97	433.00
532.14	414.27
532.31	435.34
532.48	367.46
532.65	409.59
532.82	383.85
532.99	344.06
533.16	498.53
533.33	486.83
533.50	404.91
533.67	435.34
533.84	383.85
534.01	458.74
534.18	442.36
534.35	400.23
534.52	458.74
534.69	395.55
534.86	351.08
535.03	468.11
535.20	327.68
535.37	456.40
535.54	484.49
535.71	374.49
535.88	437.68
536.05	379.17
536.22	428.32
536.38	449.38
536.55	407.25
536.72	362.78
536.89	383.85
537.06	442.36
537.23	322.99
537.40	428.32
537.57	360.44
537.74	404.91
537.91	442.36
538.08	461.09
538.25	367.46
538.42	400.23
538.59	416.62
538.75	414.27
538.92	475.13
539.09	418.96
539.26	411.93
539.43	449.38
539.60	372.15
539.77	484.49
539.94	463.43
540.11	362.78
540.28	435.34
540.44	442.36
540.61	379.17
540.78	411.93
540.95	402.57
541.12	493.85
541.29	414.27
541.46	482.15
541.62	397.89
541.79	395.55
541.96	414.27
542.13	395.55
542.30	418.96
542.47	372.15
542.63	397.89
542.80	402.57
542.97	428.32
543.14	428.32
543.31	435.34
543.48	337.04
543.64	381.51
543.81	465.77
543.98	414.27
544.15	454.06
544.32	367.46
544.48	454.06
544.65	353.42
544.82	407.25
544.99	433.00
545.16	409.59
545.32	355.76
545.49	404.91
545.66	379.17
545.83	386.19
546.00	416.62
546.16	372.15
546.33	456.40
546.50	390.87
546.67	423.64
546.83	437.68
547.00	482.15
547.17	442.36
547.34	360.44
547.50	477.47
547.67	461.09
547.84	414.27
548.00	479.81
548.17	454.06
548.34	383.85
548.51	428.32
548.67	435.34
548.84	430.66
549.01	395.55
549.18	353.42
549.34	454.06
549.51	454.06
549.68	409.59
549.84	404.91
550.01	456.40
550.18	486.83
550.34	451.72
550.51	411.93
550.68	479.81
550.84	388.53
551.01	414.27
551.18	400.23
551.34	435.34
551.51	414.27
551.68	358.10
551.84	425.98
552.01	407.25
552.18	418.96
552.34	433.00
552.51	374.49
552.68	388.53
552.84	400.23
553.01	463.43
553.18	447.04
553.34	435.34
553.51	435.34
553.67	428.32
553.84	425.98
554.01	395.55
554.17	489.17
554.34	444.70
554.51	416.62
554.67	416.62
554.84	381.51
555.00	482.15
555.17	418.96
555.33	369.80
555.50	451.72
555.67	430.66
555.83	430.66
556.00	444.70
556.16	505.56
556.33	425.98
556.50	367.46
556.66	477.47
556.83	386.19
556.99	367.46
557.16	414.27
557.32	440.02
557.49	372.15
557.65	407.25
557.82	430.66
557.98	454.06
558.15	447.04
558.32	407.25
558.48	449.38
558.65	395.55
558.81	381.51
558.98	397.89
559.14	416.62
559.31	461.09
559.47	411.93
559.64	416.62
559.80	421.30
559.97	325.33
560.13	393.21
560.30	425.98
560.46	395.55
560.63	374.49
560.79	404.91
560.96	435.34
561.12	461.09
561.29	402.57
561.45	404.91
561.61	388.53
561.78	496.19
561.94	411.93
562.11	369.80
562.27	404.91
562.44	416.62
562.60	425.98
562.77	411.93
562.93	416.62
563.10	416.62
563.26	404.91
563.42	437.68
563.59	386.19
563.75	428.32
563.92	402.57
564.08	435.34
564.24	463.43
564.41	458.74
564.57	369.80
564.74	404.91
564.90	437.68
565.07	386.19
565.23	465.77
565.39	395.55
565.56	407.25
565.72	381.51
565.88	339.38
566.05	402.57
566.21	423.64
566.38	440.02
566.54	362.78
566.70	423.64
566.87	430.66
567.03	411.93
567.19	414.27
567.36	400.23
567.52	421.30
567.68	433.00
567.85	372.15
568.01	367.46
568.17	407.25
568.34	423.64
568.50	465.77
568.66	376.83
568.83	477.47
568.99	435.34
569.15	428.32
569.32	381.51
569.48	479.81
569.64	411.93
569.81	409.59
569.97	365.12
570.13	449.38
570.30	404.91
570.46	447.04
570.62	386.19
570.78	498.53
570.95	416.62
571.11	479.81
571.27	444.70
571.43	451.72
571.60	395.55
571.76	388.53
571.92	454.06
572.09	409.59
572.25	400.23
572.41	433.00
572.57	425.98
572.74	430.66
572.90	458.74
573.06	442.36
573.22	433.00
573.38	479.81
573.55	456.40
573.71	428.32
573.87	465.77
574.03	425.98
574.20	451.72
574.36	423.64
574.52	440.02
574.68	449.38
574.84	425.98
575.01	425.98
575.17	456.40
575.33	409.59
575.49	444.70
575.65	390.87
575.82	472.79
575.98	397.89
576.14	402.57
576.30	404.91
576.46	456.40
576.62	411.93
576.79	416.62
576.95	442.36
577.11	421.30
577.27	444.70
577.43	369.80
577.59	442.36
577.75	503.22
577.92	440.02
578.08	470.45
578.24	400.23
578.40	491.51
578.56	442.36
578.72	458.74
578.88	381.51
579.04	421.30
579.21	437.68
579.37	355.76
579.53	416.62
579.69	416.62
579.85	334.70
580.01	294.91
580.17	369.80
580.33	397.89
580.49	411.93
580.65	447.04
580.82	388.53
580.98	430.66
581.14	477.47
581.30	418.96
581.46	433.00
581.62	447.04
581.78	388.53
581.94	390.87
582.10	409.59
582.26	369.80
582.42	447.04
582.58	444.70
582.74	444.70
582.90	388.53
583.06	475.13
583.22	390.87
583.38	444.70
583.54	386.19
583.70	437.68
583.86	414.27
584.02	428.32
584.18	449.38
584.34	400.23
584.50	418.96
584.66	430.66
584.82	421.30
584.98	381.51
585.14	418.96
585.30	440.02
585.46	489.17
585.62	411.93
585.78	372.15
585.94	388.53
586.10	484.49
586.26	411.93
586.42	449.38
586.58	435.34
586.74	430.66
586.90	341.72
587.06	404.91
587.22	407.25
587.38	468.11
587.54	491.51
587.70	404.91
587.86	428.32
588.02	465.77
588.18	402.57
588.34	442.36
588.49	447.04
588.65	344.06
588.81	430.66
588.97	306.61
589.13	472.79
589.29	458.74
589.45	510.24
589.61	416.62
589.77	479.81
589.93	430.66
590.08	351.08
590.24	367.46
590.40	442.36
590.56	423.64
590.72	442.36
590.88	444.70
591.04	440.02
591.20	362.78
591.35	456.40
591.51	397.89
591.67	346.40
591.83	388.53
591.99	407.25
592.15	404.91
592.31	390.87
592.46	381.51
592.62	465.77
592.78	442.36
592.94	362.78
593.10	421.30
593.26	423.64
593.41	409.59
593.57	454.06
593.73	414.27
593.89	433.00
594.05	374.49
594.20	372.15
594.36	381.51
594.52	353.42
594.68	337.04
594.84	404.91
594.99	421.30
595.15	411.93
595.31	430.66
595.47	461.09
595.62	409.59
595.78	414.27
595.94	468.11
596.10	458.74
596.25	418.96
596.41	423.64
596.57	383.85
596.73	386.19
596.88	351.08
597.04	416.62
597.20	404.91
597.36	475.13
597.51	372.15
597.67	461.09
597.83	435.34
597.99	437.68
598.14	444.70
598.30	472.79
598.46	381.51
598.61	395.55
598.77	435.34
598.93	400.23
599.09	444.70
599.24	472.79
599.40	407.25
599.56	461.09
599.71	386.19
599.87	365.12
600.03	400.23
600.18	407.25
600.34	458.74
600.50	376.83
600.65	423.64
600.81	447.04
600.97	372.15
601.12	379.17
601.28	418.96
601.44	402.57
601.59	407.25
601.75	421.30
601.91	386.19
602.06	402.57
602.22	479.81
602.37	437.68
602.53	386.19
602.69	465.77
602.84	365.12
603.00	442.36
603.16	463.43
603.31	447.04
603.47	472.79
603.62	383.85
603.78	332.36
603.94	454.06
604.09	454.06
604.25	465.77
604.40	379.17
604.56	435.34
604.71	465.77
604.87	437.68
605.03	411.93
605.18	418.96
605.34	463.43
605.49	411.93
605.65	388.53
605.80	376.83
605.96	388.53
606.12	351.08
606.27	437.68
606.43	425.98
606.58	393.21
606.74	379.17
606.89	395.55
607.05	393.21
607.20	435.34
607.36	418.96
607.51	407.25
607.67	458.74
607.82	437.68
607.98	465.77
608.13	360.44
608.29	344.06
608.44	479.81
608.60	418.96
608.75	411.93
608.91	456.40
609.06	425.98
609.22	472.79
609.37	409.59
609.53	425.98
609.68	425.98
609.84	421.30
609.99	421.30
610.15	472.79
