SpectraSuite Data File
++++++++++++++++++++++++++++++++++++
Date: Fri Oct 25 12:10:11 EDT 2013
User: price-jones
Dark Spectrum Present: No
Reference Spectrum Present: No
Number of Sampled Component Spectra: 1
Spectrometers: USB2+H05261
Integration Time (usec): 100000 (USB2+H05261)
Spectra Averaged: 1 (USB2+H05261)
Boxcar Smoothing: 0 (USB2+H05261)
Correct for Electrical Dark: No (USB2+H05261)
Strobe/Lamp Enabled: No (USB2+H05261)
Correct for Detector Non-linearity: No (USB2+H05261)
Correct for Stray Light: No (USB2+H05261)
Number of Pixels in Processed Spectrum: 2048
>>>>>Begin Processed Spectral Data<<<<<
365.73	423.64
365.92	423.64
366.12	423.64
366.32	280.86
366.52	229.37
366.72	262.14
366.91	217.67
367.11	180.22
367.31	224.69
367.51	283.20
367.70	210.65
367.90	224.69
368.10	241.08
368.30	224.69
368.49	203.63
368.69	285.55
368.89	311.29
369.09	248.10
369.28	341.72
369.48	257.46
369.68	236.39
369.87	351.08
370.07	287.89
370.27	353.42
370.47	330.02
370.66	334.70
370.86	327.68
371.06	355.76
371.25	418.96
371.45	372.15
371.65	374.49
371.84	379.17
372.04	390.87
372.24	358.10
372.44	353.42
372.63	407.25
372.83	372.15
373.03	393.21
373.22	400.23
373.42	454.06
373.62	477.47
373.81	440.02
374.01	437.68
374.21	414.27
374.40	454.06
374.60	475.13
374.79	437.68
374.99	411.93
375.19	421.30
375.38	451.72
375.58	423.64
375.78	388.53
375.97	346.40
376.17	444.70
376.37	313.63
376.56	414.27
376.76	418.96
376.95	414.27
377.15	449.38
377.35	484.49
377.54	421.30
377.74	337.04
377.93	479.81
378.13	428.32
378.33	423.64
378.52	379.17
378.72	400.23
378.91	423.64
379.11	428.32
379.31	283.20
379.50	353.42
379.70	372.15
379.89	411.93
380.09	414.27
380.28	411.93
380.48	423.64
380.68	421.30
380.87	430.66
381.07	451.72
381.26	479.81
381.46	339.38
381.65	465.77
381.85	388.53
382.04	425.98
382.24	475.13
382.43	386.19
382.63	388.53
382.83	381.51
383.02	351.08
383.22	372.15
383.41	337.04
383.61	379.17
383.80	365.12
384.00	451.72
384.19	308.95
384.39	418.96
384.58	362.78
384.78	386.19
384.97	386.19
385.17	397.89
385.36	355.76
385.56	407.25
385.75	379.17
385.95	395.55
386.14	407.25
386.34	437.68
386.53	327.68
386.72	390.87
386.92	414.27
387.11	402.57
387.31	449.38
387.50	397.89
387.70	397.89
387.89	449.38
388.09	411.93
388.28	482.15
388.48	379.17
388.67	402.57
388.86	386.19
389.06	437.68
389.25	423.64
389.45	418.96
389.64	421.30
389.84	383.85
390.03	376.83
390.22	355.76
390.42	400.23
390.61	397.89
390.81	421.30
391.00	449.38
391.19	428.32
391.39	372.15
391.58	400.23
391.78	423.64
391.97	344.06
392.16	355.76
392.36	383.85
392.55	428.32
392.75	376.83
392.94	390.87
393.13	341.72
393.33	365.12
393.52	449.38
393.71	435.34
393.91	463.43
394.10	332.36
394.29	416.62
394.49	372.15
394.68	444.70
394.88	379.17
395.07	444.70
395.26	365.12
395.46	369.80
395.65	451.72
395.84	418.96
396.04	503.22
396.23	360.44
396.42	461.09
396.62	416.62
396.81	416.62
397.00	355.76
397.19	416.62
397.39	379.17
397.58	430.66
397.77	425.98
397.97	383.85
398.16	411.93
398.35	411.93
398.55	341.72
398.74	433.00
398.93	374.49
399.12	430.66
399.32	386.19
399.51	393.21
399.70	409.59
399.90	393.21
400.09	437.68
400.28	409.59
400.47	402.57
400.67	463.43
400.86	320.65
401.05	425.98
401.24	383.85
401.44	433.00
401.63	367.46
401.82	416.62
402.01	360.44
402.21	496.19
402.40	341.72
402.59	395.55
402.78	372.15
402.97	428.32
403.17	372.15
403.36	404.91
403.55	444.70
403.74	369.80
403.93	383.85
404.13	393.21
404.32	428.32
404.51	402.57
404.70	411.93
404.89	344.06
405.09	451.72
405.28	416.62
405.47	430.66
405.66	482.15
405.85	395.55
406.05	383.85
406.24	444.70
406.43	458.74
406.62	423.64
406.81	454.06
407.00	411.93
407.20	465.77
407.39	376.83
407.58	386.19
407.77	444.70
407.96	423.64
408.15	400.23
408.34	360.44
408.54	379.17
408.73	360.44
408.92	407.25
409.11	477.47
409.30	458.74
409.49	367.46
409.68	332.36
409.87	372.15
410.07	379.17
410.26	381.51
410.45	409.59
410.64	383.85
410.83	379.17
411.02	397.89
411.21	409.59
411.40	463.43
411.59	461.09
411.78	444.70
411.98	400.23
412.17	433.00
412.36	428.32
412.55	414.27
412.74	400.23
412.93	454.06
413.12	332.36
413.31	430.66
413.50	400.23
413.69	423.64
413.88	510.24
414.07	423.64
414.26	388.53
414.45	393.21
414.64	425.98
414.83	393.21
415.02	369.80
415.22	404.91
415.41	397.89
415.60	337.04
415.79	369.80
415.98	407.25
416.17	376.83
416.36	362.78
416.55	388.53
416.74	393.21
416.93	418.96
417.12	447.04
417.31	435.34
417.50	393.21
417.69	404.91
417.88	430.66
418.07	407.25
418.26	425.98
418.45	409.59
418.64	433.00
418.83	388.53
419.02	421.30
419.21	388.53
419.39	402.57
419.58	369.80
419.77	402.57
419.96	393.21
420.15	463.43
420.34	425.98
420.53	400.23
420.72	440.02
420.91	327.68
421.10	369.80
421.29	395.55
421.48	416.62
421.67	397.89
421.86	388.53
422.05	325.33
422.24	355.76
422.43	409.59
422.61	330.02
422.80	421.30
422.99	397.89
423.18	414.27
423.37	409.59
423.56	461.09
423.75	447.04
423.94	355.76
424.13	414.27
424.32	484.49
424.50	325.33
424.69	404.91
424.88	381.51
425.07	390.87
425.26	404.91
425.45	456.40
425.64	397.89
425.83	418.96
426.01	433.00
426.20	435.34
426.39	348.74
426.58	379.17
426.77	402.57
426.96	386.19
427.15	425.98
427.33	454.06
427.52	461.09
427.71	447.04
427.90	397.89
428.09	409.59
428.28	372.15
428.46	425.98
428.65	414.27
428.84	360.44
429.03	414.27
429.22	449.38
429.40	404.91
429.59	383.85
429.78	404.91
429.97	383.85
430.16	444.70
430.34	407.25
430.53	402.57
430.72	397.89
430.91	402.57
431.10	383.85
431.28	414.27
431.47	388.53
431.66	409.59
431.85	362.78
432.03	339.38
432.22	500.87
432.41	404.91
432.60	400.23
432.79	414.27
432.97	437.68
433.16	421.30
433.35	458.74
433.54	393.21
433.72	440.02
433.91	418.96
434.10	409.59
434.28	383.85
434.47	400.23
434.66	390.87
434.85	393.21
435.03	456.40
435.22	451.72
435.41	444.70
435.59	402.57
435.78	404.91
435.97	470.45
436.16	393.21
436.34	376.83
436.53	449.38
436.72	454.06
436.90	374.49
437.09	379.17
437.28	351.08
437.46	372.15
437.65	423.64
437.84	397.89
438.02	456.40
438.21	475.13
438.40	425.98
438.58	386.19
438.77	479.81
438.96	463.43
439.14	367.46
439.33	402.57
439.52	383.85
439.70	397.89
439.89	383.85
440.08	433.00
440.26	433.00
440.45	437.68
440.63	376.83
440.82	456.40
441.01	435.34
441.19	421.30
441.38	395.55
441.57	395.55
441.75	376.83
441.94	456.40
442.12	468.11
442.31	428.32
442.50	388.53
442.68	428.32
442.87	372.15
443.05	395.55
443.24	416.62
443.43	402.57
443.61	395.55
443.80	425.98
443.98	372.15
444.17	468.11
444.35	367.46
444.54	390.87
444.73	449.38
444.91	409.59
445.10	475.13
445.28	407.25
445.47	475.13
445.65	395.55
445.84	388.53
446.02	496.19
446.21	428.32
446.39	433.00
446.58	407.25
446.77	327.68
446.95	468.11
447.14	421.30
447.32	390.87
447.51	433.00
447.69	376.83
447.88	493.85
448.06	465.77
448.25	484.49
448.43	425.98
448.62	407.25
448.80	458.74
448.99	416.62
449.17	437.68
449.36	425.98
449.54	372.15
449.73	425.98
449.91	313.63
450.10	381.51
450.28	404.91
450.46	430.66
450.65	407.25
450.83	493.85
451.02	402.57
451.20	423.64
451.39	358.10
451.57	400.23
451.76	374.49
451.94	428.32
452.13	454.06
452.31	430.66
452.49	423.64
452.68	444.70
452.86	468.11
453.05	365.12
453.23	428.32
453.42	430.66
453.60	465.77
453.78	428.32
453.97	395.55
454.15	388.53
454.34	409.59
454.52	379.17
454.70	433.00
454.89	411.93
455.07	365.12
455.26	393.21
455.44	388.53
455.62	369.80
455.81	449.38
455.99	444.70
456.17	365.12
456.36	362.78
456.54	362.78
456.73	390.87
456.91	372.15
457.09	393.21
457.28	404.91
457.46	407.25
457.64	416.62
457.83	430.66
458.01	402.57
458.19	386.19
458.38	400.23
458.56	482.15
458.74	421.30
458.93	367.46
459.11	411.93
459.29	390.87
459.48	395.55
459.66	428.32
459.84	407.25
460.03	444.70
460.21	418.96
460.39	418.96
460.57	397.89
460.76	500.87
460.94	360.44
461.12	465.77
461.31	486.83
461.49	468.11
461.67	433.00
461.85	414.27
462.04	423.64
462.22	837.91
462.40	409.59
462.59	395.55
462.77	376.83
462.95	407.25
463.13	383.85
463.32	437.68
463.50	358.10
463.68	423.64
463.86	372.15
464.05	386.19
464.23	400.23
464.41	402.57
464.59	451.72
464.78	386.19
464.96	421.30
465.14	433.00
465.32	395.55
465.50	383.85
465.69	400.23
465.87	423.64
466.05	489.17
466.23	365.12
466.41	442.36
466.60	430.66
466.78	351.08
466.96	407.25
467.14	409.59
467.32	411.93
467.51	472.79
467.69	442.36
467.87	409.59
468.05	472.79
468.23	496.19
468.41	341.72
468.60	477.47
468.78	454.06
468.96	407.25
469.14	402.57
469.32	440.02
469.50	397.89
469.69	355.76
469.87	386.19
470.05	418.96
470.23	470.45
470.41	358.10
470.59	400.23
470.77	344.06
470.95	388.53
471.14	418.96
471.32	400.23
471.50	360.44
471.68	397.89
471.86	435.34
472.04	395.55
472.22	461.09
472.40	397.89
472.58	444.70
472.77	395.55
472.95	409.59
473.13	440.02
473.31	433.00
473.49	456.40
473.67	463.43
473.85	423.64
474.03	428.32
474.21	344.06
474.39	416.62
474.57	472.79
474.75	472.79
474.93	388.53
475.12	395.55
475.30	433.00
475.48	402.57
475.66	482.15
475.84	430.66
476.02	383.85
476.20	423.64
476.38	444.70
476.56	491.51
476.74	381.51
476.92	425.98
477.10	425.98
477.28	390.87
477.46	411.93
477.64	358.10
477.82	315.97
478.00	482.15
478.18	451.72
478.36	433.00
478.54	409.59
478.72	365.12
478.90	444.70
479.08	463.43
479.26	444.70
479.44	449.38
479.62	489.17
479.80	440.02
479.98	360.44
480.16	416.62
480.34	367.46
480.52	430.66
480.70	421.30
480.88	388.53
481.06	437.68
481.24	449.38
481.41	472.79
481.59	440.02
481.77	442.36
481.95	442.36
482.13	463.43
482.31	456.40
482.49	397.89
482.67	442.36
482.85	425.98
483.03	388.53
483.21	348.74
483.39	381.51
483.57	444.70
483.74	397.89
483.92	428.32
484.10	383.85
484.28	435.34
484.46	451.72
484.64	397.89
484.82	454.06
485.00	414.27
485.18	425.98
485.35	393.21
485.53	458.74
485.71	435.34
485.89	421.30
486.07	470.45
486.25	421.30
486.43	454.06
486.61	470.45
486.78	355.76
486.96	381.51
487.14	428.32
487.32	496.19
487.50	444.70
487.68	472.79
487.85	430.66
488.03	397.89
488.21	383.85
488.39	416.62
488.57	416.62
488.75	407.25
488.92	505.56
489.10	397.89
489.28	526.62
489.46	369.80
489.64	397.89
489.81	411.93
489.99	496.19
490.17	402.57
490.35	479.81
490.53	395.55
490.70	402.57
490.88	458.74
491.06	348.74
491.24	423.64
491.41	421.30
491.59	423.64
491.77	383.85
491.95	390.87
492.13	379.17
492.30	421.30
492.48	423.64
492.66	505.56
492.84	470.45
493.01	456.40
493.19	313.63
493.37	482.15
493.54	390.87
493.72	421.30
493.90	442.36
494.08	425.98
494.25	447.04
494.43	339.38
494.61	479.81
494.79	428.32
494.96	393.21
495.14	425.98
495.32	418.96
495.49	449.38
495.67	409.59
495.85	407.25
496.02	360.44
496.20	421.30
496.38	437.68
496.55	397.89
496.73	355.76
496.91	393.21
497.09	470.45
497.26	416.62
497.44	393.21
497.62	416.62
497.79	423.64
497.97	435.34
498.14	407.25
498.32	383.85
498.50	463.43
498.67	390.87
498.85	454.06
499.03	386.19
499.20	367.46
499.38	355.76
499.56	433.00
499.73	454.06
499.91	461.09
500.08	489.17
500.26	393.21
500.44	346.40
500.61	374.49
500.79	348.74
500.97	395.55
501.14	400.23
501.32	449.38
501.49	409.59
501.67	423.64
501.84	435.34
502.02	346.40
502.20	381.51
502.37	407.25
502.55	358.10
502.72	381.51
502.90	472.79
503.07	421.30
503.25	444.70
503.43	475.13
503.60	444.70
503.78	451.72
503.95	386.19
504.13	376.83
504.30	447.04
504.48	447.04
504.65	428.32
504.83	454.06
505.01	418.96
505.18	348.74
505.36	414.27
505.53	444.70
505.71	423.64
505.88	472.79
506.06	388.53
506.23	430.66
506.41	409.59
506.58	428.32
506.76	395.55
506.93	386.19
507.11	372.15
507.28	393.21
507.46	390.87
507.63	423.64
507.81	374.49
507.98	421.30
508.16	409.59
508.33	463.43
508.50	458.74
508.68	404.91
508.85	355.76
509.03	390.87
509.20	407.25
509.38	444.70
509.55	470.45
509.73	416.62
509.90	454.06
510.08	416.62
510.25	430.66
510.42	418.96
510.60	383.85
510.77	365.12
510.95	458.74
511.12	386.19
511.30	451.72
511.47	369.80
511.64	454.06
511.82	435.34
511.99	421.30
512.17	437.68
512.34	409.59
512.51	411.93
512.69	383.85
512.86	421.30
513.04	435.34
513.21	337.04
513.38	337.04
513.56	430.66
513.73	475.13
513.90	367.46
514.08	435.34
514.25	423.64
514.43	404.91
514.60	339.38
514.77	409.59
514.95	339.38
515.12	393.21
515.29	395.55
515.47	428.32
515.64	374.49
515.81	376.83
515.99	477.47
516.16	416.62
516.33	496.19
516.51	447.04
516.68	418.96
516.85	421.30
517.03	425.98
517.20	440.02
517.37	425.98
517.54	437.68
517.72	381.51
517.89	430.66
518.06	416.62
518.24	465.77
518.41	454.06
518.58	325.33
518.75	372.15
518.93	358.10
519.10	397.89
519.27	402.57
519.45	454.06
519.62	414.27
519.79	346.40
519.96	367.46
520.14	423.64
520.31	470.45
520.48	461.09
520.65	430.66
520.83	440.02
521.00	425.98
521.17	458.74
521.34	416.62
521.52	423.64
521.69	465.77
521.86	454.06
522.03	472.79
522.20	395.55
522.38	372.15
522.55	451.72
522.72	416.62
522.89	355.76
523.07	465.77
523.24	428.32
523.41	362.78
523.58	423.64
523.75	423.64
523.92	395.55
524.10	433.00
524.27	425.98
524.44	325.33
524.61	444.70
524.78	411.93
524.96	416.62
525.13	451.72
525.30	388.53
525.47	428.32
525.64	411.93
525.81	437.68
525.98	484.49
526.16	393.21
526.33	355.76
526.50	404.91
526.67	346.40
526.84	411.93
527.01	456.40
527.18	423.64
527.36	454.06
527.53	428.32
527.70	421.30
527.87	395.55
528.04	470.45
528.21	365.12
528.38	402.57
528.55	451.72
528.72	423.64
528.89	449.38
529.07	379.17
529.24	416.62
529.41	416.62
529.58	421.30
529.75	416.62
529.92	437.68
530.09	470.45
530.26	479.81
530.43	454.06
530.60	425.98
530.77	358.10
530.94	449.38
531.11	428.32
531.28	414.27
531.46	447.04
531.63	456.40
531.80	376.83
531.97	395.55
532.14	409.59
532.31	475.13
532.48	444.70
532.65	416.62
532.82	425.98
532.99	463.43
533.16	454.06
533.33	400.23
533.50	414.27
533.67	430.66
533.84	379.17
534.01	407.25
534.18	393.21
534.35	437.68
534.52	437.68
534.69	428.32
534.86	360.44
535.03	433.00
535.20	322.99
535.37	421.30
535.54	407.25
535.71	437.68
535.88	454.06
536.05	365.12
536.22	440.02
536.38	393.21
536.55	390.87
536.72	449.38
536.89	425.98
537.06	407.25
537.23	393.21
537.40	425.98
537.57	416.62
537.74	470.45
537.91	414.27
538.08	416.62
538.25	437.68
538.42	428.32
538.59	486.83
538.75	423.64
538.92	379.17
539.09	435.34
539.26	404.91
539.43	395.55
539.60	435.34
539.77	414.27
539.94	395.55
540.11	397.89
540.28	430.66
540.44	479.81
540.61	458.74
540.78	463.43
540.95	449.38
541.12	468.11
541.29	365.12
541.46	372.15
541.62	421.30
541.79	425.98
541.96	428.32
542.13	327.68
542.30	428.32
542.47	421.30
542.63	423.64
542.80	374.49
542.97	437.68
543.14	451.72
543.31	440.02
543.48	472.79
543.64	461.09
543.81	414.27
543.98	425.98
544.15	404.91
544.32	411.93
544.48	421.30
544.65	519.60
544.82	437.68
544.99	393.21
545.16	482.15
545.32	383.85
545.49	383.85
545.66	414.27
545.83	383.85
546.00	430.66
546.16	475.13
546.33	440.02
546.50	379.17
546.67	437.68
546.83	423.64
547.00	397.89
547.17	470.45
547.34	519.60
547.50	395.55
547.67	484.49
547.84	421.30
548.00	461.09
548.17	390.87
548.34	433.00
548.51	498.53
548.67	491.51
548.84	388.53
549.01	365.12
549.18	423.64
549.34	390.87
549.51	400.23
549.68	430.66
549.84	456.40
550.01	411.93
550.18	454.06
550.34	442.36
550.51	409.59
550.68	425.98
550.84	472.79
551.01	400.23
551.18	402.57
551.34	477.47
551.51	379.17
551.68	330.02
551.84	428.32
552.01	358.10
552.18	393.21
552.34	456.40
552.51	395.55
552.68	461.09
552.84	425.98
553.01	367.46
553.18	433.00
553.34	409.59
553.51	358.10
553.67	402.57
553.84	383.85
554.01	451.72
554.17	407.25
554.34	344.06
554.51	430.66
554.67	407.25
554.84	442.36
555.00	454.06
555.17	416.62
555.33	458.74
555.50	421.30
555.67	348.74
555.83	454.06
556.00	449.38
556.16	547.69
556.33	433.00
556.50	451.72
556.66	479.81
556.83	388.53
556.99	376.83
557.16	409.59
557.32	339.38
557.49	416.62
557.65	390.87
557.82	444.70
557.98	416.62
558.15	421.30
558.32	507.90
558.48	435.34
558.65	437.68
558.81	503.22
558.98	470.45
559.14	416.62
559.31	376.83
559.47	503.22
559.64	369.80
559.80	388.53
559.97	372.15
560.13	358.10
560.30	383.85
560.46	351.08
560.63	440.02
560.79	472.79
560.96	449.38
561.12	442.36
561.29	447.04
561.45	421.30
561.61	409.59
561.78	435.34
561.94	433.00
562.11	414.27
562.27	397.89
562.44	414.27
562.60	386.19
562.77	409.59
562.93	465.77
563.10	404.91
563.26	381.51
563.42	428.32
563.59	421.30
563.75	407.25
563.92	400.23
564.08	517.26
564.24	559.39
564.41	428.32
564.57	400.23
564.74	425.98
564.90	458.74
565.07	442.36
565.23	430.66
565.39	381.51
565.56	437.68
565.72	397.89
565.88	435.34
566.05	311.29
566.21	451.72
566.38	376.83
566.54	433.00
566.70	435.34
566.87	416.62
567.03	390.87
567.19	475.13
567.36	442.36
567.52	416.62
567.68	440.02
567.85	383.85
568.01	355.76
568.17	400.23
568.34	374.49
568.50	376.83
568.66	416.62
568.83	421.30
568.99	381.51
569.15	451.72
569.32	407.25
569.48	442.36
569.64	372.15
569.81	425.98
569.97	395.55
570.13	421.30
570.30	346.40
570.46	372.15
570.62	437.68
570.78	411.93
570.95	360.44
571.11	435.34
571.27	472.79
571.43	425.98
571.60	416.62
571.76	414.27
571.92	442.36
572.09	423.64
572.25	369.80
572.41	341.72
572.57	477.47
572.74	454.06
572.90	435.34
573.06	416.62
573.22	435.34
573.38	414.27
573.55	496.19
573.71	496.19
573.87	423.64
574.03	437.68
574.20	407.25
574.36	435.34
574.52	411.93
574.68	454.06
574.84	334.70
575.01	355.76
575.17	454.06
575.33	433.00
575.49	433.00
575.65	477.47
575.82	435.34
575.98	435.34
576.14	437.68
576.30	418.96
576.46	418.96
576.62	414.27
576.79	444.70
576.95	449.38
577.11	451.72
577.27	369.80
577.43	440.02
577.59	402.57
577.75	365.12
577.92	390.87
578.08	423.64
578.24	388.53
578.40	346.40
578.56	456.40
578.72	461.09
578.88	440.02
579.04	458.74
579.21	435.34
579.37	463.43
579.53	402.57
579.69	423.64
579.85	388.53
580.01	388.53
580.17	383.85
580.33	390.87
580.49	437.68
580.65	411.93
580.82	463.43
580.98	367.46
581.14	388.53
581.30	514.92
581.46	407.25
581.62	404.91
581.78	400.23
581.94	304.27
582.10	400.23
582.26	365.12
582.42	435.34
582.58	409.59
582.74	409.59
582.90	407.25
583.06	440.02
583.22	489.17
583.38	407.25
583.54	416.62
583.70	463.43
583.86	484.49
584.02	407.25
584.18	421.30
584.34	404.91
584.50	447.04
584.66	362.78
584.82	393.21
584.98	454.06
585.14	355.76
585.30	475.13
585.46	379.17
585.62	369.80
585.78	360.44
585.94	390.87
586.10	388.53
586.26	425.98
586.42	512.58
586.58	318.31
586.74	425.98
586.90	411.93
587.06	346.40
587.22	430.66
587.38	372.15
587.54	440.02
587.70	421.30
587.86	411.93
588.02	425.98
588.18	447.04
588.34	367.46
588.49	374.49
588.65	416.62
588.81	381.51
588.97	411.93
589.13	369.80
589.29	479.81
589.45	425.98
589.61	440.02
589.77	484.49
589.93	383.85
590.08	433.00
590.24	449.38
590.40	491.51
590.56	440.02
590.72	423.64
590.88	463.43
591.04	393.21
591.20	376.83
591.35	449.38
591.51	444.70
591.67	423.64
591.83	484.49
591.99	444.70
592.15	428.32
592.31	449.38
592.46	383.85
592.62	463.43
592.78	390.87
592.94	397.89
593.10	456.40
593.26	344.06
593.41	461.09
593.57	447.04
593.73	355.76
593.89	404.91
594.05	435.34
594.20	435.34
594.36	454.06
594.52	425.98
594.68	372.15
594.84	416.62
594.99	390.87
595.15	355.76
595.31	379.17
595.47	470.45
595.62	477.47
595.78	433.00
595.94	372.15
596.10	433.00
596.25	348.74
596.41	397.89
596.57	337.04
596.73	395.55
596.88	421.30
597.04	402.57
597.20	388.53
597.36	397.89
597.51	369.80
597.67	383.85
597.83	416.62
597.99	409.59
598.14	402.57
598.30	449.38
598.46	418.96
598.61	472.79
598.77	411.93
598.93	407.25
599.09	454.06
599.24	404.91
599.40	367.46
599.56	341.72
599.71	411.93
599.87	402.57
600.03	451.72
600.18	379.17
600.34	440.02
600.50	397.89
600.65	388.53
600.81	444.70
600.97	430.66
601.12	409.59
601.28	435.34
601.44	365.12
601.59	395.55
601.75	435.34
601.91	346.40
602.06	414.27
602.22	540.66
602.37	423.64
602.53	376.83
602.69	425.98
602.84	390.87
603.00	390.87
603.16	493.85
603.31	486.83
603.47	414.27
603.62	390.87
603.78	414.27
603.94	388.53
604.09	475.13
604.25	447.04
604.40	461.09
604.56	449.38
604.71	386.19
604.87	379.17
605.03	365.12
605.18	425.98
605.34	444.70
605.49	341.72
605.65	475.13
605.80	423.64
605.96	444.70
606.12	475.13
606.27	449.38
606.43	374.49
606.58	374.49
606.74	428.32
606.89	479.81
607.05	332.36
607.20	374.49
607.36	447.04
607.51	435.34
607.67	433.00
607.82	369.80
607.98	395.55
608.13	358.10
608.29	358.10
608.44	454.06
608.60	440.02
608.75	470.45
608.91	442.36
609.06	390.87
609.22	428.32
609.37	421.30
609.53	386.19
609.68	444.70
609.84	409.59
609.99	489.17
610.15	425.98
