SpectraSuite Data File
++++++++++++++++++++++++++++++++++++
Date: Fri Oct 25 12:11:11 EDT 2013
User: price-jones
Dark Spectrum Present: No
Reference Spectrum Present: No
Number of Sampled Component Spectra: 1
Spectrometers: USB2+H05261
Integration Time (usec): 100000 (USB2+H05261)
Spectra Averaged: 1 (USB2+H05261)
Boxcar Smoothing: 0 (USB2+H05261)
Correct for Electrical Dark: No (USB2+H05261)
Strobe/Lamp Enabled: No (USB2+H05261)
Correct for Detector Non-linearity: No (USB2+H05261)
Correct for Stray Light: No (USB2+H05261)
Number of Pixels in Processed Spectrum: 2048
>>>>>Begin Processed Spectral Data<<<<<
365.73	311.29
365.92	311.29
366.12	311.29
366.32	301.93
366.52	238.73
366.72	299.59
366.91	227.03
367.11	229.37
367.31	262.14
367.51	198.95
367.70	210.65
367.90	175.54
368.10	264.48
368.30	210.65
368.49	203.63
368.69	280.86
368.89	257.46
369.09	182.56
369.28	241.08
369.48	278.52
369.68	297.25
369.87	337.04
370.07	264.48
370.27	308.95
370.47	360.44
370.66	294.91
370.86	367.46
371.06	400.23
371.25	379.17
371.45	442.36
371.65	381.51
371.84	386.19
372.04	369.80
372.24	395.55
372.44	367.46
372.63	449.38
372.83	369.80
373.03	372.15
373.22	423.64
373.42	456.40
373.62	393.21
373.81	372.15
374.01	367.46
374.21	379.17
374.40	388.53
374.60	409.59
374.79	489.17
374.99	367.46
375.19	449.38
375.38	393.21
375.58	383.85
375.78	418.96
375.97	458.74
376.17	437.68
376.37	351.08
376.56	397.89
376.76	435.34
376.95	327.68
377.15	421.30
377.35	407.25
377.54	346.40
377.74	313.63
377.93	400.23
378.13	423.64
378.33	472.79
378.52	433.00
378.72	409.59
378.91	458.74
379.11	376.83
379.31	390.87
379.50	397.89
379.70	447.04
379.89	437.68
380.09	374.49
380.28	414.27
380.48	416.62
380.68	367.46
380.87	397.89
381.07	418.96
381.26	365.12
381.46	444.70
381.65	418.96
381.85	447.04
382.04	444.70
382.24	369.80
382.43	409.59
382.63	475.13
382.83	414.27
383.02	447.04
383.22	428.32
383.41	383.85
383.61	418.96
383.80	416.62
384.00	334.70
384.19	348.74
384.39	416.62
384.58	404.91
384.78	383.85
384.97	442.36
385.17	416.62
385.36	489.17
385.56	479.81
385.75	430.66
385.95	430.66
386.14	430.66
386.34	353.42
386.53	447.04
386.72	395.55
386.92	423.64
387.11	409.59
387.31	339.38
387.50	442.36
387.70	390.87
387.89	435.34
388.09	418.96
388.28	411.93
388.48	390.87
388.67	475.13
388.86	425.98
389.06	411.93
389.25	451.72
389.45	449.38
389.64	444.70
389.84	425.98
390.03	458.74
390.22	348.74
390.42	390.87
390.61	407.25
390.81	402.57
391.00	386.19
391.19	411.93
391.39	386.19
391.58	421.30
391.78	435.34
391.97	374.49
392.16	458.74
392.36	451.72
392.55	372.15
392.75	355.76
392.94	402.57
393.13	388.53
393.33	395.55
393.52	383.85
393.71	433.00
393.91	404.91
394.10	362.78
394.29	428.32
394.49	414.27
394.68	351.08
394.88	409.59
395.07	433.00
395.26	386.19
395.46	421.30
395.65	444.70
395.84	442.36
396.04	461.09
396.23	447.04
396.42	433.00
396.62	430.66
396.81	360.44
397.00	374.49
397.19	437.68
397.39	367.46
397.58	449.38
397.77	393.21
397.97	402.57
398.16	397.89
398.35	393.21
398.55	421.30
398.74	383.85
398.93	440.02
399.12	437.68
399.32	400.23
399.51	381.51
399.70	456.40
399.90	461.09
400.09	456.40
400.28	404.91
400.47	372.15
400.67	416.62
400.86	400.23
401.05	423.64
401.24	404.91
401.44	484.49
401.63	444.70
401.82	418.96
402.01	376.83
402.21	397.89
402.40	379.17
402.59	306.61
402.78	365.12
402.97	351.08
403.17	376.83
403.36	451.72
403.55	395.55
403.74	409.59
403.93	383.85
404.13	416.62
404.32	444.70
404.51	421.30
404.70	428.32
404.89	395.55
405.09	433.00
405.28	397.89
405.47	468.11
405.66	411.93
405.85	484.49
406.05	348.74
406.24	444.70
406.43	353.42
406.62	381.51
406.81	390.87
407.00	409.59
407.20	421.30
407.39	334.70
407.58	315.97
407.77	465.77
407.96	430.66
408.15	433.00
408.34	362.78
408.54	360.44
408.73	390.87
408.92	482.15
409.11	437.68
409.30	447.04
409.49	369.80
409.68	404.91
409.87	337.04
410.07	470.45
410.26	442.36
410.45	451.72
410.64	353.42
410.83	423.64
411.02	388.53
411.21	386.19
411.40	421.30
411.59	395.55
411.78	369.80
411.98	400.23
412.17	388.53
412.36	358.10
412.55	388.53
412.74	444.70
412.93	458.74
413.12	409.59
413.31	365.12
413.50	416.62
413.69	444.70
413.88	433.00
414.07	449.38
414.26	390.87
414.45	362.78
414.64	440.02
414.83	447.04
415.02	362.78
415.22	440.02
415.41	418.96
415.60	407.25
415.79	423.64
415.98	451.72
416.17	395.55
416.36	362.78
416.55	346.40
416.74	428.32
416.93	395.55
417.12	430.66
417.31	437.68
417.50	379.17
417.69	458.74
417.88	447.04
418.07	421.30
418.26	423.64
418.45	430.66
418.64	447.04
418.83	393.21
419.02	362.78
419.21	421.30
419.39	454.06
419.58	447.04
419.77	440.02
419.96	461.09
420.15	454.06
420.34	411.93
420.53	416.62
420.72	458.74
420.91	404.91
421.10	383.85
421.29	402.57
421.48	404.91
421.67	390.87
421.86	423.64
422.05	346.40
422.24	428.32
422.43	407.25
422.61	390.87
422.80	341.72
422.99	484.49
423.18	369.80
423.37	418.96
423.56	393.21
423.75	440.02
423.94	414.27
424.13	475.13
424.32	421.30
424.50	414.27
424.69	409.59
424.88	411.93
425.07	318.31
425.26	507.90
425.45	393.21
425.64	423.64
425.83	407.25
426.01	404.91
426.20	404.91
426.39	404.91
426.58	369.80
426.77	435.34
426.96	397.89
427.15	416.62
427.33	435.34
427.52	435.34
427.71	414.27
427.90	477.47
428.09	440.02
428.28	381.51
428.46	330.02
428.65	418.96
428.84	433.00
429.03	433.00
429.22	358.10
429.40	341.72
429.59	465.77
429.78	433.00
429.97	400.23
430.16	379.17
430.34	393.21
430.53	388.53
430.72	404.91
430.91	444.70
431.10	397.89
431.28	395.55
431.47	463.43
431.66	423.64
431.85	376.83
432.03	444.70
432.22	489.17
432.41	440.02
432.60	468.11
432.79	395.55
432.97	409.59
433.16	348.74
433.35	355.76
433.54	390.87
433.72	383.85
433.91	369.80
434.10	435.34
434.28	376.83
434.47	409.59
434.66	440.02
434.85	425.98
435.03	421.30
435.22	463.43
435.41	440.02
435.59	393.21
435.78	360.44
435.97	400.23
436.16	433.00
436.34	325.33
436.53	475.13
436.72	496.19
436.90	388.53
437.09	451.72
437.28	400.23
437.46	353.42
437.65	435.34
437.84	472.79
438.02	463.43
438.21	407.25
438.40	418.96
438.58	418.96
438.77	395.55
438.96	381.51
439.14	421.30
439.33	409.59
439.52	440.02
439.70	409.59
439.89	444.70
440.08	435.34
440.26	404.91
440.45	472.79
440.63	447.04
440.82	400.23
441.01	449.38
441.19	423.64
441.38	414.27
441.57	372.15
441.75	451.72
441.94	409.59
442.12	482.15
442.31	463.43
442.50	400.23
442.68	421.30
442.87	456.40
443.05	409.59
443.24	423.64
443.43	360.44
443.61	411.93
443.80	425.98
443.98	397.89
444.17	435.34
444.35	463.43
444.54	395.55
444.73	358.10
444.91	372.15
445.10	383.85
445.28	376.83
445.47	362.78
445.65	397.89
445.84	369.80
446.02	454.06
446.21	421.30
446.39	456.40
446.58	411.93
446.77	430.66
446.95	402.57
447.14	393.21
447.32	437.68
447.51	367.46
447.69	388.53
447.88	433.00
448.06	428.32
448.25	465.77
448.43	388.53
448.62	393.21
448.80	428.32
448.99	444.70
449.17	414.27
449.36	397.89
449.54	409.59
449.73	379.17
449.91	390.87
450.10	440.02
450.28	458.74
450.46	400.23
450.65	463.43
450.83	433.00
451.02	430.66
451.20	449.38
451.39	409.59
451.57	374.49
451.76	339.38
451.94	416.62
452.13	421.30
452.31	404.91
452.49	423.64
452.68	390.87
452.86	449.38
453.05	402.57
453.23	425.98
453.42	404.91
453.60	393.21
453.78	440.02
453.97	435.34
454.15	372.15
454.34	421.30
454.52	461.09
454.70	425.98
454.89	428.32
455.07	416.62
455.26	465.77
455.44	395.55
455.62	402.57
455.81	383.85
455.99	440.02
456.17	447.04
456.36	411.93
456.54	393.21
456.73	479.81
456.91	376.83
457.09	435.34
457.28	423.64
457.46	428.32
457.64	430.66
457.83	433.00
458.01	379.17
458.19	423.64
458.38	423.64
458.56	493.85
458.74	411.93
458.93	393.21
459.11	421.30
459.29	376.83
459.48	486.83
459.66	402.57
459.84	351.08
460.03	430.66
460.21	362.78
460.39	397.89
460.57	407.25
460.76	428.32
460.94	388.53
461.12	360.44
461.31	449.38
461.49	395.55
461.67	447.04
461.85	339.38
462.04	404.91
462.22	763.01
462.40	395.55
462.59	454.06
462.77	395.55
462.95	365.12
463.13	425.98
463.32	393.21
463.50	395.55
463.68	418.96
463.86	395.55
464.05	332.36
464.23	414.27
464.41	416.62
464.59	372.15
464.78	330.02
464.96	423.64
465.14	397.89
465.32	430.66
465.50	498.53
465.69	411.93
465.87	449.38
466.05	500.87
466.23	407.25
466.41	374.49
466.60	475.13
466.78	360.44
466.96	479.81
467.14	360.44
467.32	411.93
467.51	461.09
467.69	390.87
467.87	425.98
468.05	418.96
468.23	533.64
468.41	395.55
468.60	395.55
468.78	339.38
468.96	414.27
469.14	484.49
469.32	376.83
469.50	498.53
469.69	447.04
469.87	468.11
470.05	369.80
470.23	430.66
470.41	437.68
470.59	397.89
470.77	482.15
470.95	372.15
471.14	433.00
471.32	433.00
471.50	416.62
471.68	409.59
471.86	395.55
472.04	372.15
472.22	388.53
472.40	416.62
472.58	407.25
472.77	435.34
472.95	379.17
473.13	390.87
473.31	395.55
473.49	423.64
473.67	395.55
473.85	376.83
474.03	470.45
474.21	395.55
474.39	425.98
474.57	395.55
474.75	414.27
474.93	360.44
475.12	388.53
475.30	475.13
475.48	414.27
475.66	463.43
475.84	355.76
476.02	407.25
476.20	425.98
476.38	433.00
476.56	491.51
476.74	381.51
476.92	414.27
477.10	397.89
477.28	416.62
477.46	379.17
477.64	449.38
477.82	390.87
478.00	362.78
478.18	421.30
478.36	435.34
478.54	447.04
478.72	444.70
478.90	463.43
479.08	374.49
479.26	454.06
479.44	400.23
479.62	407.25
479.80	407.25
479.98	475.13
480.16	379.17
480.34	404.91
480.52	386.19
480.70	449.38
480.88	423.64
481.06	379.17
481.24	376.83
481.41	318.31
481.59	458.74
481.77	411.93
481.95	388.53
482.13	444.70
482.31	468.11
482.49	418.96
482.67	425.98
482.85	407.25
483.03	428.32
483.21	425.98
483.39	400.23
483.57	367.46
483.74	374.49
483.92	456.40
484.10	425.98
484.28	456.40
484.46	444.70
484.64	360.44
484.82	414.27
485.00	358.10
485.18	418.96
485.35	425.98
485.53	454.06
485.71	388.53
485.89	360.44
486.07	418.96
486.25	400.23
486.43	435.34
486.61	418.96
486.78	428.32
486.96	423.64
487.14	393.21
487.32	397.89
487.50	423.64
487.68	414.27
487.85	404.91
488.03	351.08
488.21	451.72
488.39	414.27
488.57	449.38
488.75	365.12
488.92	512.58
489.10	390.87
489.28	407.25
489.46	339.38
489.64	397.89
489.81	400.23
489.99	390.87
490.17	414.27
490.35	519.60
490.53	402.57
490.70	383.85
490.88	482.15
491.06	454.06
491.24	411.93
491.41	451.72
491.59	386.19
491.77	365.12
491.95	353.42
492.13	365.12
492.30	383.85
492.48	344.06
492.66	400.23
492.84	397.89
493.01	372.15
493.19	402.57
493.37	482.15
493.54	372.15
493.72	407.25
493.90	451.72
494.08	388.53
494.25	374.49
494.43	479.81
494.61	461.09
494.79	390.87
494.96	351.08
495.14	486.83
495.32	306.61
495.49	489.17
495.67	425.98
495.85	411.93
496.02	468.11
496.20	475.13
496.38	409.59
496.55	430.66
496.73	414.27
496.91	367.46
497.09	416.62
497.26	416.62
497.44	414.27
497.62	388.53
497.79	418.96
497.97	376.83
498.14	383.85
498.32	423.64
498.50	383.85
498.67	409.59
498.85	437.68
499.03	418.96
499.20	379.17
499.38	430.66
499.56	447.04
499.73	397.89
499.91	458.74
500.08	454.06
500.26	407.25
500.44	381.51
500.61	423.64
500.79	425.98
500.97	430.66
501.14	418.96
501.32	472.79
501.49	425.98
501.67	421.30
501.84	381.51
502.02	379.17
502.20	463.43
502.37	430.66
502.55	444.70
502.72	337.04
502.90	379.17
503.07	486.83
503.25	411.93
503.43	430.66
503.60	367.46
503.78	411.93
503.95	433.00
504.13	440.02
504.30	524.28
504.48	477.47
504.65	493.85
504.83	430.66
505.01	416.62
505.18	404.91
505.36	400.23
505.53	440.02
505.71	409.59
505.88	470.45
506.06	407.25
506.23	423.64
506.41	442.36
506.58	421.30
506.76	418.96
506.93	374.49
507.11	423.64
507.28	423.64
507.46	470.45
507.63	505.56
507.81	421.30
507.98	451.72
508.16	484.49
508.33	475.13
508.50	454.06
508.68	414.27
508.85	428.32
509.03	360.44
509.20	451.72
509.38	393.21
509.55	355.76
509.73	465.77
509.90	379.17
510.08	374.49
510.25	369.80
510.42	444.70
510.60	433.00
510.77	465.77
510.95	397.89
511.12	400.23
511.30	449.38
511.47	390.87
511.64	451.72
511.82	367.46
511.99	381.51
512.17	390.87
512.34	491.51
512.51	367.46
512.69	437.68
512.86	496.19
513.04	454.06
513.21	421.30
513.38	358.10
513.56	397.89
513.73	421.30
513.90	367.46
514.08	430.66
514.25	463.43
514.43	414.27
514.60	372.15
514.77	376.83
514.95	369.80
515.12	435.34
515.29	404.91
515.47	489.17
515.64	386.19
515.81	475.13
515.99	409.59
516.16	421.30
516.33	477.47
516.51	414.27
516.68	372.15
516.85	444.70
517.03	437.68
517.20	454.06
517.37	369.80
517.54	409.59
517.72	390.87
517.89	390.87
518.06	442.36
518.24	442.36
518.41	423.64
518.58	442.36
518.75	435.34
518.93	433.00
519.10	334.70
519.27	440.02
519.45	383.85
519.62	344.06
519.79	423.64
519.96	437.68
520.14	477.47
520.31	507.90
520.48	411.93
520.65	482.15
520.83	477.47
521.00	430.66
521.17	418.96
521.34	414.27
521.52	402.57
521.69	493.85
521.86	458.74
522.03	383.85
522.20	379.17
522.38	416.62
522.55	454.06
522.72	383.85
522.89	475.13
523.07	451.72
523.24	430.66
523.41	407.25
523.58	332.36
523.75	411.93
523.92	414.27
524.10	435.34
524.27	362.78
524.44	428.32
524.61	430.66
524.78	355.76
524.96	456.40
525.13	395.55
525.30	395.55
525.47	447.04
525.64	379.17
525.81	416.62
525.98	404.91
526.16	407.25
526.33	388.53
526.50	472.79
526.67	428.32
526.84	362.78
527.01	374.49
527.18	402.57
527.36	390.87
527.53	409.59
527.70	456.40
527.87	360.44
528.04	395.55
528.21	430.66
528.38	479.81
528.55	465.77
528.72	470.45
528.89	416.62
529.07	409.59
529.24	390.87
529.41	489.17
529.58	397.89
529.75	388.53
529.92	425.98
530.09	395.55
530.26	428.32
530.43	404.91
530.60	404.91
530.77	339.38
530.94	449.38
531.11	437.68
531.28	374.49
531.46	339.38
531.63	456.40
531.80	358.10
531.97	465.77
532.14	411.93
532.31	444.70
532.48	388.53
532.65	367.46
532.82	393.21
532.99	383.85
533.16	390.87
533.33	358.10
533.50	372.15
533.67	390.87
533.84	358.10
534.01	351.08
534.18	475.13
534.35	428.32
534.52	435.34
534.69	407.25
534.86	430.66
535.03	430.66
535.20	463.43
535.37	367.46
535.54	475.13
535.71	404.91
535.88	411.93
536.05	416.62
536.22	440.02
536.38	526.62
536.55	367.46
536.72	449.38
536.89	437.68
537.06	367.46
537.23	337.04
537.40	351.08
537.57	330.02
537.74	421.30
537.91	454.06
538.08	400.23
538.25	386.19
538.42	416.62
538.59	435.34
538.75	447.04
538.92	451.72
539.09	465.77
539.26	386.19
539.43	435.34
539.60	440.02
539.77	451.72
539.94	330.02
540.11	374.49
540.28	477.47
540.44	444.70
540.61	402.57
540.78	411.93
540.95	498.53
541.12	449.38
541.29	458.74
541.46	442.36
541.62	414.27
541.79	402.57
541.96	351.08
542.13	409.59
542.30	395.55
542.47	444.70
542.63	358.10
542.80	449.38
542.97	463.43
543.14	433.00
543.31	449.38
543.48	383.85
543.64	423.64
543.81	468.11
543.98	440.02
544.15	442.36
544.32	397.89
544.48	393.21
544.65	416.62
544.82	440.02
544.99	414.27
545.16	433.00
545.32	451.72
545.49	404.91
545.66	362.78
545.83	395.55
546.00	414.27
546.16	402.57
546.33	390.87
546.50	418.96
546.67	456.40
546.83	435.34
547.00	358.10
547.17	407.25
547.34	351.08
547.50	472.79
547.67	379.17
547.84	442.36
548.00	344.06
548.17	428.32
548.34	404.91
548.51	437.68
548.67	428.32
548.84	341.72
549.01	428.32
549.18	315.97
549.34	423.64
549.51	435.34
549.68	411.93
549.84	390.87
550.01	407.25
550.18	437.68
550.34	451.72
550.51	470.45
550.68	444.70
550.84	430.66
551.01	498.53
551.18	463.43
551.34	418.96
551.51	372.15
551.68	402.57
551.84	475.13
552.01	376.83
552.18	369.80
552.34	348.74
552.51	388.53
552.68	416.62
552.84	402.57
553.01	369.80
553.18	440.02
553.34	353.42
553.51	362.78
553.67	341.72
553.84	433.00
554.01	418.96
554.17	358.10
554.34	402.57
554.51	435.34
554.67	407.25
554.84	418.96
555.00	430.66
555.17	423.64
555.33	369.80
555.50	414.27
555.67	463.43
555.83	395.55
556.00	435.34
556.16	461.09
556.33	374.49
556.50	444.70
556.66	430.66
556.83	444.70
556.99	411.93
557.16	430.66
557.32	402.57
557.49	416.62
557.65	393.21
557.82	397.89
557.98	418.96
558.15	425.98
558.32	407.25
558.48	423.64
558.65	435.34
558.81	421.30
558.98	437.68
559.14	409.59
559.31	414.27
559.47	421.30
559.64	428.32
559.80	411.93
559.97	451.72
560.13	423.64
560.30	360.44
560.46	327.68
560.63	409.59
560.79	362.78
560.96	433.00
561.12	451.72
561.29	425.98
561.45	369.80
561.61	435.34
561.78	578.11
561.94	404.91
562.11	381.51
562.27	388.53
562.44	362.78
562.60	383.85
562.77	428.32
562.93	409.59
563.10	416.62
563.26	407.25
563.42	496.19
563.59	407.25
563.75	346.40
563.92	376.83
564.08	397.89
564.24	489.17
564.41	461.09
564.57	428.32
564.74	510.24
564.90	470.45
565.07	507.90
565.23	386.19
565.39	306.61
565.56	491.51
565.72	374.49
565.88	512.58
566.05	402.57
566.21	390.87
566.38	320.65
566.54	393.21
566.70	386.19
566.87	327.68
567.03	351.08
567.19	379.17
567.36	414.27
567.52	444.70
567.68	397.89
567.85	456.40
568.01	362.78
568.17	447.04
568.34	379.17
568.50	451.72
568.66	372.15
568.83	440.02
568.99	479.81
569.15	393.21
569.32	411.93
569.48	447.04
569.64	365.12
569.81	393.21
569.97	404.91
570.13	400.23
570.30	468.11
570.46	430.66
570.62	440.02
570.78	411.93
570.95	433.00
571.11	451.72
571.27	447.04
571.43	479.81
571.60	458.74
571.76	409.59
571.92	440.02
572.09	444.70
572.25	437.68
572.41	428.32
572.57	339.38
572.74	428.32
572.90	486.83
573.06	383.85
573.22	416.62
573.38	372.15
573.55	470.45
573.71	418.96
573.87	376.83
574.03	355.76
574.20	430.66
574.36	496.19
574.52	489.17
574.68	416.62
574.84	383.85
575.01	404.91
575.17	383.85
575.33	449.38
575.49	358.10
575.65	409.59
575.82	447.04
575.98	463.43
576.14	409.59
576.30	367.46
576.46	456.40
576.62	423.64
576.79	493.85
576.95	393.21
577.11	388.53
577.27	365.12
577.43	461.09
577.59	376.83
577.75	472.79
577.92	428.32
578.08	449.38
578.24	400.23
578.40	358.10
578.56	475.13
578.72	463.43
578.88	433.00
579.04	386.19
579.21	423.64
579.37	458.74
579.53	376.83
579.69	428.32
579.85	433.00
580.01	479.81
580.17	367.46
580.33	425.98
580.49	440.02
580.65	407.25
580.82	435.34
580.98	444.70
581.14	390.87
581.30	458.74
581.46	475.13
581.62	465.77
581.78	437.68
581.94	468.11
582.10	423.64
582.26	374.49
582.42	440.02
582.58	379.17
582.74	421.30
582.90	482.15
583.06	423.64
583.22	421.30
583.38	332.36
583.54	425.98
583.70	409.59
583.86	395.55
584.02	433.00
584.18	428.32
584.34	428.32
584.50	414.27
584.66	425.98
584.82	423.64
584.98	390.87
585.14	437.68
585.30	425.98
585.46	353.42
585.62	416.62
585.78	397.89
585.94	383.85
586.10	388.53
586.26	468.11
586.42	390.87
586.58	404.91
586.74	430.66
586.90	421.30
587.06	477.47
587.22	456.40
587.38	425.98
587.54	421.30
587.70	372.15
587.86	475.13
588.02	400.23
588.18	418.96
588.34	435.34
588.49	461.09
588.65	414.27
588.81	421.30
588.97	388.53
589.13	409.59
589.29	388.53
589.45	456.40
589.61	444.70
589.77	421.30
589.93	435.34
590.08	423.64
590.24	461.09
590.40	374.49
590.56	414.27
590.72	344.06
590.88	416.62
591.04	397.89
591.20	395.55
591.35	409.59
591.51	447.04
591.67	416.62
591.83	404.91
591.99	451.72
592.15	381.51
592.31	437.68
592.46	374.49
592.62	402.57
592.78	393.21
592.94	360.44
593.10	414.27
593.26	365.12
593.41	414.27
593.57	388.53
593.73	383.85
593.89	416.62
594.05	386.19
594.20	402.57
594.36	409.59
594.52	472.79
594.68	421.30
594.84	423.64
594.99	402.57
595.15	440.02
595.31	395.55
595.47	423.64
595.62	447.04
595.78	440.02
595.94	437.68
596.10	442.36
596.25	397.89
596.41	428.32
596.57	400.23
596.73	414.27
596.88	421.30
597.04	423.64
597.20	425.98
597.36	404.91
597.51	346.40
597.67	421.30
597.83	435.34
597.99	500.87
598.14	437.68
598.30	503.22
598.46	395.55
598.61	407.25
598.77	367.46
598.93	353.42
599.09	435.34
599.24	430.66
599.40	451.72
599.56	430.66
599.71	372.15
599.87	435.34
600.03	418.96
600.18	437.68
600.34	428.32
600.50	437.68
600.65	423.64
600.81	348.74
600.97	428.32
601.12	416.62
601.28	472.79
601.44	395.55
601.59	430.66
601.75	390.87
601.91	458.74
602.06	421.30
602.22	409.59
602.37	397.89
602.53	386.19
602.69	442.36
602.84	376.83
603.00	442.36
603.16	461.09
603.31	367.46
603.47	489.17
603.62	447.04
603.78	376.83
603.94	411.93
604.09	475.13
604.25	430.66
604.40	456.40
604.56	351.08
604.71	442.36
604.87	365.12
605.03	463.43
605.18	393.21
605.34	463.43
605.49	421.30
605.65	374.49
605.80	341.72
605.96	353.42
606.12	414.27
606.27	416.62
606.43	425.98
606.58	440.02
606.74	386.19
606.89	433.00
607.05	449.38
607.20	416.62
607.36	358.10
607.51	404.91
607.67	440.02
607.82	470.45
607.98	482.15
608.13	430.66
608.29	477.47
608.44	472.79
608.60	463.43
608.75	465.77
608.91	414.27
609.06	454.06
609.22	411.93
609.37	418.96
609.53	477.47
609.68	430.66
609.84	376.83
609.99	325.33
610.15	468.11
