SpectraSuite Data File
++++++++++++++++++++++++++++++++++++
Date: Fri Oct 25 12:11:17 EDT 2013
User: price-jones
Dark Spectrum Present: No
Reference Spectrum Present: No
Number of Sampled Component Spectra: 1
Spectrometers: USB2+H05261
Integration Time (usec): 100000 (USB2+H05261)
Spectra Averaged: 1 (USB2+H05261)
Boxcar Smoothing: 0 (USB2+H05261)
Correct for Electrical Dark: No (USB2+H05261)
Strobe/Lamp Enabled: No (USB2+H05261)
Correct for Detector Non-linearity: No (USB2+H05261)
Correct for Stray Light: No (USB2+H05261)
Number of Pixels in Processed Spectrum: 2048
>>>>>Begin Processed Spectral Data<<<<<
365.73	299.59
365.92	299.59
366.12	299.59
366.32	266.82
366.52	154.48
366.72	280.86
366.91	196.60
367.11	271.50
367.31	250.44
367.51	210.65
367.70	264.48
367.90	257.46
368.10	229.37
368.30	224.69
368.49	241.08
368.69	234.05
368.89	241.08
369.09	236.39
369.28	280.86
369.48	259.80
369.68	224.69
369.87	238.73
370.07	304.27
370.27	292.57
370.47	355.76
370.66	297.25
370.86	365.12
371.06	351.08
371.25	418.96
371.45	353.42
371.65	372.15
371.84	411.93
372.04	374.49
372.24	341.72
372.44	447.04
372.63	360.44
372.83	395.55
373.03	414.27
373.22	388.53
373.42	337.04
373.62	416.62
373.81	407.25
374.01	442.36
374.21	442.36
374.40	418.96
374.60	425.98
374.79	416.62
374.99	393.21
375.19	369.80
375.38	444.70
375.58	449.38
375.78	425.98
375.97	393.21
376.17	461.09
376.37	383.85
376.56	425.98
376.76	388.53
376.95	386.19
377.15	437.68
377.35	482.15
377.54	402.57
377.74	332.36
377.93	407.25
378.13	411.93
378.33	397.89
378.52	393.21
378.72	369.80
378.91	397.89
379.11	395.55
379.31	365.12
379.50	456.40
379.70	430.66
379.89	451.72
380.09	386.19
380.28	374.49
380.48	390.87
380.68	407.25
380.87	395.55
381.07	390.87
381.26	365.12
381.46	397.89
381.65	388.53
381.85	334.70
382.04	423.64
382.24	393.21
382.43	440.02
382.63	407.25
382.83	449.38
383.02	500.87
383.22	388.53
383.41	348.74
383.61	344.06
383.80	442.36
384.00	372.15
384.19	395.55
384.39	444.70
384.58	435.34
384.78	425.98
384.97	374.49
385.17	414.27
385.36	393.21
385.56	379.17
385.75	308.95
385.95	402.57
386.14	437.68
386.34	421.30
386.53	334.70
386.72	395.55
386.92	491.51
387.11	493.85
387.31	435.34
387.50	433.00
387.70	367.46
387.89	388.53
388.09	355.76
388.28	407.25
388.48	383.85
388.67	383.85
388.86	379.17
389.06	482.15
389.25	486.83
389.45	379.17
389.64	454.06
389.84	479.81
390.03	418.96
390.22	393.21
390.42	409.59
390.61	374.49
390.81	381.51
391.00	449.38
391.19	369.80
391.39	315.97
391.58	456.40
391.78	407.25
391.97	421.30
392.16	404.91
392.36	472.79
392.55	404.91
392.75	353.42
392.94	393.21
393.13	381.51
393.33	407.25
393.52	407.25
393.71	454.06
393.91	454.06
394.10	430.66
394.29	423.64
394.49	407.25
394.68	383.85
394.88	381.51
395.07	388.53
395.26	400.23
395.46	320.65
395.65	472.79
395.84	440.02
396.04	470.45
396.23	437.68
396.42	418.96
396.62	458.74
396.81	369.80
397.00	425.98
397.19	423.64
397.39	332.36
397.58	430.66
397.77	421.30
397.97	367.46
398.16	393.21
398.35	365.12
398.55	383.85
398.74	407.25
398.93	397.89
399.12	449.38
399.32	428.32
399.51	386.19
399.70	348.74
399.90	449.38
400.09	388.53
400.28	454.06
400.47	381.51
400.67	383.85
400.86	414.27
401.05	404.91
401.24	411.93
401.44	468.11
401.63	428.32
401.82	386.19
402.01	395.55
402.21	358.10
402.40	442.36
402.59	344.06
402.78	393.21
402.97	440.02
403.17	397.89
403.36	362.78
403.55	393.21
403.74	376.83
403.93	372.15
404.13	447.04
404.32	353.42
404.51	341.72
404.70	383.85
404.89	395.55
405.09	381.51
405.28	383.85
405.47	428.32
405.66	423.64
405.85	404.91
406.05	344.06
406.24	381.51
406.43	418.96
406.62	372.15
406.81	390.87
407.00	386.19
407.20	440.02
407.39	365.12
407.58	404.91
407.77	435.34
407.96	486.83
408.15	393.21
408.34	442.36
408.54	416.62
408.73	393.21
408.92	428.32
409.11	491.51
409.30	440.02
409.49	355.76
409.68	383.85
409.87	407.25
410.07	376.83
410.26	435.34
410.45	456.40
410.64	369.80
410.83	365.12
411.02	409.59
411.21	344.06
411.40	386.19
411.59	447.04
411.78	414.27
411.98	344.06
412.17	404.91
412.36	383.85
412.55	435.34
412.74	414.27
412.93	423.64
413.12	425.98
413.31	411.93
413.50	428.32
413.69	395.55
413.88	388.53
414.07	430.66
414.26	414.27
414.45	355.76
414.64	397.89
414.83	409.59
415.02	313.63
415.22	421.30
415.41	423.64
415.60	383.85
415.79	454.06
415.98	395.55
416.17	383.85
416.36	411.93
416.55	435.34
416.74	381.51
416.93	395.55
417.12	395.55
417.31	407.25
417.50	423.64
417.69	468.11
417.88	367.46
418.07	430.66
418.26	484.49
418.45	442.36
418.64	430.66
418.83	423.64
419.02	360.44
419.21	386.19
419.39	407.25
419.58	433.00
419.77	351.08
419.96	468.11
420.15	435.34
420.34	449.38
420.53	449.38
420.72	404.91
420.91	451.72
421.10	386.19
421.29	351.08
421.48	423.64
421.67	463.43
421.86	383.85
422.05	433.00
422.24	442.36
422.43	451.72
422.61	369.80
422.80	411.93
422.99	383.85
423.18	433.00
423.37	390.87
423.56	444.70
423.75	463.43
423.94	315.97
424.13	344.06
424.32	407.25
424.50	449.38
424.69	418.96
424.88	437.68
425.07	447.04
425.26	411.93
425.45	388.53
425.64	461.09
425.83	353.42
426.01	489.17
426.20	393.21
426.39	444.70
426.58	416.62
426.77	451.72
426.96	416.62
427.15	402.57
427.33	402.57
427.52	411.93
427.71	390.87
427.90	411.93
428.09	409.59
428.28	365.12
428.46	458.74
428.65	397.89
428.84	372.15
429.03	461.09
429.22	407.25
429.40	367.46
429.59	416.62
429.78	489.17
429.97	461.09
430.16	376.83
430.34	365.12
430.53	407.25
430.72	397.89
430.91	444.70
431.10	437.68
431.28	383.85
431.47	404.91
431.66	414.27
431.85	362.78
432.03	381.51
432.22	358.10
432.41	442.36
432.60	444.70
432.79	400.23
432.97	425.98
433.16	418.96
433.35	409.59
433.54	351.08
433.72	369.80
433.91	428.32
434.10	479.81
434.28	437.68
434.47	367.46
434.66	482.15
434.85	344.06
435.03	381.51
435.22	479.81
435.41	451.72
435.59	465.77
435.78	472.79
435.97	418.96
436.16	369.80
436.34	428.32
436.53	428.32
436.72	414.27
436.90	437.68
437.09	442.36
437.28	416.62
437.46	416.62
437.65	444.70
437.84	454.06
438.02	428.32
438.21	433.00
438.40	376.83
438.58	423.64
438.77	458.74
438.96	449.38
439.14	447.04
439.33	402.57
439.52	353.42
439.70	388.53
439.89	449.38
440.08	421.30
440.26	451.72
440.45	444.70
440.63	461.09
440.82	437.68
441.01	411.93
441.19	372.15
441.38	402.57
441.57	418.96
441.75	407.25
441.94	334.70
442.12	440.02
442.31	418.96
442.50	383.85
442.68	362.78
442.87	430.66
443.05	414.27
443.24	388.53
443.43	451.72
443.61	430.66
443.80	383.85
443.98	414.27
444.17	313.63
444.35	346.40
444.54	440.02
444.73	421.30
444.91	456.40
445.10	430.66
445.28	414.27
445.47	395.55
445.65	433.00
445.84	454.06
446.02	390.87
446.21	397.89
446.39	341.72
446.58	440.02
446.77	411.93
446.95	411.93
447.14	428.32
447.32	454.06
447.51	383.85
447.69	454.06
447.88	461.09
448.06	418.96
448.25	435.34
448.43	435.34
448.62	365.12
448.80	411.93
448.99	414.27
449.17	465.77
449.36	369.80
449.54	388.53
449.73	470.45
449.91	402.57
450.10	358.10
450.28	461.09
450.46	425.98
450.65	353.42
450.83	404.91
451.02	430.66
451.20	418.96
451.39	428.32
451.57	358.10
451.76	423.64
451.94	397.89
452.13	416.62
452.31	461.09
452.49	440.02
452.68	444.70
452.86	416.62
453.05	475.13
453.23	397.89
453.42	362.78
453.60	477.47
453.78	433.00
453.97	376.83
454.15	365.12
454.34	470.45
454.52	393.21
454.70	440.02
454.89	374.49
455.07	402.57
455.26	461.09
455.44	416.62
455.62	430.66
455.81	418.96
455.99	430.66
456.17	465.77
456.36	376.83
456.54	327.68
456.73	461.09
456.91	409.59
457.09	498.53
457.28	491.51
457.46	404.91
457.64	414.27
457.83	447.04
458.01	334.70
458.19	421.30
458.38	451.72
458.56	386.19
458.74	355.76
458.93	416.62
459.11	437.68
459.29	367.46
459.48	428.32
459.66	449.38
459.84	423.64
460.03	521.94
460.21	447.04
460.39	433.00
460.57	540.66
460.76	449.38
460.94	430.66
461.12	449.38
461.31	440.02
461.49	411.93
461.67	381.51
461.85	397.89
462.04	360.44
462.22	802.80
462.40	376.83
462.59	411.93
462.77	463.43
462.95	404.91
463.13	404.91
463.32	404.91
463.50	463.43
463.68	421.30
463.86	423.64
464.05	353.42
464.23	430.66
464.41	393.21
464.59	414.27
464.78	411.93
464.96	435.34
465.14	358.10
465.32	402.57
465.50	421.30
465.69	404.91
465.87	521.94
466.05	421.30
466.23	397.89
466.41	365.12
466.60	374.49
466.78	479.81
466.96	409.59
467.14	402.57
467.32	451.72
467.51	442.36
467.69	397.89
467.87	451.72
468.05	447.04
468.23	493.85
468.41	454.06
468.60	386.19
468.78	437.68
468.96	468.11
469.14	395.55
469.32	351.08
469.50	404.91
469.69	472.79
469.87	414.27
470.05	447.04
470.23	320.65
470.41	423.64
470.59	404.91
470.77	379.17
470.95	463.43
471.14	435.34
471.32	470.45
471.50	430.66
471.68	411.93
471.86	400.23
472.04	397.89
472.22	418.96
472.40	393.21
472.58	414.27
472.77	367.46
472.95	353.42
473.13	435.34
473.31	397.89
473.49	407.25
473.67	442.36
473.85	383.85
474.03	365.12
474.21	451.72
474.39	430.66
474.57	325.33
474.75	351.08
474.93	411.93
475.12	433.00
475.30	416.62
475.48	395.55
475.66	404.91
475.84	407.25
476.02	414.27
476.20	472.79
476.38	458.74
476.56	447.04
476.74	393.21
476.92	379.17
477.10	379.17
477.28	451.72
477.46	430.66
477.64	442.36
477.82	411.93
478.00	388.53
478.18	383.85
478.36	388.53
478.54	379.17
478.72	411.93
478.90	444.70
479.08	461.09
479.26	418.96
479.44	409.59
479.62	402.57
479.80	346.40
479.98	486.83
480.16	425.98
480.34	393.21
480.52	381.51
480.70	393.21
480.88	388.53
481.06	341.72
481.24	379.17
481.41	379.17
481.59	414.27
481.77	458.74
481.95	477.47
482.13	425.98
482.31	414.27
482.49	395.55
482.67	421.30
482.85	430.66
483.03	425.98
483.21	416.62
483.39	397.89
483.57	383.85
483.74	465.77
483.92	339.38
484.10	381.51
484.28	440.02
484.46	505.56
484.64	409.59
484.82	400.23
485.00	376.83
485.18	409.59
485.35	428.32
485.53	351.08
485.71	379.17
485.89	322.99
486.07	381.51
486.25	470.45
486.43	503.22
486.61	489.17
486.78	444.70
486.96	411.93
487.14	425.98
487.32	379.17
487.50	362.78
487.68	458.74
487.85	425.98
488.03	397.89
488.21	402.57
488.39	402.57
488.57	411.93
488.75	435.34
488.92	482.15
489.10	418.96
489.28	454.06
489.46	425.98
489.64	456.40
489.81	400.23
489.99	416.62
490.17	407.25
490.35	411.93
490.53	456.40
490.70	400.23
490.88	514.92
491.06	386.19
491.24	433.00
491.41	496.19
491.59	519.60
491.77	465.77
491.95	397.89
492.13	348.74
492.30	416.62
492.48	421.30
492.66	449.38
492.84	418.96
493.01	393.21
493.19	465.77
493.37	435.34
493.54	433.00
493.72	433.00
493.90	351.08
494.08	433.00
494.25	477.47
494.43	463.43
494.61	416.62
494.79	404.91
494.96	360.44
495.14	407.25
495.32	421.30
495.49	463.43
495.67	418.96
495.85	435.34
496.02	414.27
496.20	393.21
496.38	463.43
496.55	409.59
496.73	458.74
496.91	423.64
497.09	355.76
497.26	379.17
497.44	433.00
497.62	442.36
497.79	404.91
497.97	454.06
498.14	407.25
498.32	369.80
498.50	395.55
498.67	390.87
498.85	421.30
499.03	421.30
499.20	411.93
499.38	395.55
499.56	409.59
499.73	442.36
499.91	390.87
500.08	449.38
500.26	437.68
500.44	388.53
500.61	386.19
500.79	334.70
500.97	430.66
501.14	433.00
501.32	369.80
501.49	461.09
501.67	454.06
501.84	376.83
502.02	402.57
502.20	376.83
502.37	482.15
502.55	470.45
502.72	390.87
502.90	367.46
503.07	374.49
503.25	449.38
503.43	416.62
503.60	414.27
503.78	470.45
503.95	395.55
504.13	425.98
504.30	360.44
504.48	397.89
504.65	435.34
504.83	454.06
505.01	454.06
505.18	435.34
505.36	327.68
505.53	397.89
505.71	428.32
505.88	444.70
506.06	428.32
506.23	428.32
506.41	400.23
506.58	388.53
506.76	411.93
506.93	482.15
507.11	449.38
507.28	353.42
507.46	425.98
507.63	449.38
507.81	353.42
507.98	381.51
508.16	470.45
508.33	360.44
508.50	409.59
508.68	409.59
508.85	395.55
509.03	458.74
509.20	367.46
509.38	425.98
509.55	496.19
509.73	407.25
509.90	416.62
510.08	390.87
510.25	411.93
510.42	372.15
510.60	447.04
510.77	449.38
510.95	433.00
511.12	442.36
511.30	390.87
511.47	440.02
511.64	472.79
511.82	468.11
511.99	449.38
512.17	425.98
512.34	393.21
512.51	397.89
512.69	346.40
512.86	402.57
513.04	416.62
513.21	456.40
513.38	376.83
513.56	400.23
513.73	447.04
513.90	400.23
514.08	409.59
514.25	409.59
514.43	416.62
514.60	472.79
514.77	362.78
514.95	421.30
515.12	404.91
515.29	390.87
515.47	358.10
515.64	437.68
515.81	400.23
515.99	451.72
516.16	358.10
516.33	374.49
516.51	416.62
516.68	407.25
516.85	355.76
517.03	440.02
517.20	451.72
517.37	435.34
517.54	381.51
517.72	400.23
517.89	411.93
518.06	404.91
518.24	470.45
518.41	425.98
518.58	421.30
518.75	407.25
518.93	430.66
519.10	341.72
519.27	421.30
519.45	397.89
519.62	367.46
519.79	442.36
519.96	372.15
520.14	393.21
520.31	479.81
520.48	388.53
520.65	449.38
520.83	358.10
521.00	421.30
521.17	379.17
521.34	454.06
521.52	381.51
521.69	388.53
521.86	454.06
522.03	444.70
522.20	463.43
522.38	444.70
522.55	416.62
522.72	393.21
522.89	517.26
523.07	454.06
523.24	449.38
523.41	423.64
523.58	414.27
523.75	454.06
523.92	411.93
524.10	470.45
524.27	468.11
524.44	388.53
524.61	440.02
524.78	332.36
524.96	444.70
525.13	400.23
525.30	475.13
525.47	482.15
525.64	430.66
525.81	472.79
525.98	397.89
526.16	435.34
526.33	437.68
526.50	369.80
526.67	381.51
526.84	397.89
527.01	435.34
527.18	428.32
527.36	428.32
527.53	472.79
527.70	388.53
527.87	388.53
528.04	393.21
528.21	369.80
528.38	393.21
528.55	517.26
528.72	440.02
528.89	423.64
529.07	444.70
529.24	435.34
529.41	470.45
529.58	386.19
529.75	444.70
529.92	475.13
530.09	402.57
530.26	402.57
530.43	395.55
530.60	421.30
530.77	461.09
530.94	381.51
531.11	379.17
531.28	437.68
531.46	435.34
531.63	381.51
531.80	404.91
531.97	430.66
532.14	454.06
532.31	383.85
532.48	404.91
532.65	428.32
532.82	360.44
532.99	397.89
533.16	360.44
533.33	421.30
533.50	428.32
533.67	400.23
533.84	428.32
534.01	435.34
534.18	421.30
534.35	367.46
534.52	479.81
534.69	386.19
534.86	402.57
535.03	430.66
535.20	393.21
535.37	475.13
535.54	360.44
535.71	449.38
535.88	418.96
536.05	423.64
536.22	444.70
536.38	402.57
536.55	447.04
536.72	447.04
536.89	456.40
537.06	514.92
537.23	367.46
537.40	468.11
537.57	383.85
537.74	414.27
537.91	379.17
538.08	430.66
538.25	465.77
538.42	421.30
538.59	362.78
538.75	388.53
538.92	428.32
539.09	430.66
539.26	425.98
539.43	458.74
539.60	397.89
539.77	388.53
539.94	409.59
540.11	425.98
540.28	461.09
540.44	442.36
540.61	418.96
540.78	451.72
540.95	355.76
541.12	397.89
541.29	510.24
541.46	386.19
541.62	409.59
541.79	428.32
541.96	428.32
542.13	437.68
542.30	351.08
542.47	418.96
542.63	475.13
542.80	428.32
542.97	416.62
543.14	390.87
543.31	451.72
543.48	393.21
543.64	402.57
543.81	362.78
543.98	374.49
544.15	449.38
544.32	458.74
544.48	367.46
544.65	479.81
544.82	447.04
544.99	433.00
545.16	428.32
545.32	465.77
545.49	409.59
545.66	447.04
545.83	451.72
546.00	440.02
546.16	475.13
546.33	456.40
546.50	367.46
546.67	449.38
546.83	425.98
547.00	456.40
547.17	547.69
547.34	500.87
547.50	435.34
547.67	425.98
547.84	416.62
548.00	386.19
548.17	430.66
548.34	430.66
548.51	444.70
548.67	372.15
548.84	400.23
549.01	461.09
549.18	386.19
549.34	451.72
549.51	444.70
549.68	479.81
549.84	486.83
550.01	383.85
550.18	500.87
550.34	358.10
550.51	409.59
550.68	458.74
550.84	372.15
551.01	414.27
551.18	365.12
551.34	372.15
551.51	435.34
551.68	435.34
551.84	442.36
552.01	433.00
552.18	479.81
552.34	442.36
552.51	433.00
552.68	461.09
552.84	428.32
553.01	519.60
553.18	379.17
553.34	400.23
553.51	358.10
553.67	407.25
553.84	414.27
554.01	411.93
554.17	404.91
554.34	388.53
554.51	458.74
554.67	353.42
554.84	390.87
555.00	425.98
555.17	421.30
555.33	430.66
555.50	475.13
555.67	404.91
555.83	367.46
556.00	430.66
556.16	585.13
556.33	461.09
556.50	383.85
556.66	421.30
556.83	472.79
556.99	381.51
557.16	447.04
557.32	428.32
557.49	425.98
557.65	304.27
557.82	393.21
557.98	388.53
558.15	376.83
558.32	388.53
558.48	451.72
558.65	379.17
558.81	404.91
558.98	400.23
559.14	543.00
559.31	423.64
559.47	444.70
559.64	348.74
559.80	486.83
559.97	320.65
560.13	409.59
560.30	423.64
560.46	486.83
560.63	433.00
560.79	433.00
560.96	437.68
561.12	416.62
561.29	425.98
561.45	402.57
561.61	379.17
561.78	517.26
561.94	407.25
562.11	454.06
562.27	491.51
562.44	433.00
562.60	372.15
562.77	472.79
562.93	468.11
563.10	414.27
563.26	353.42
563.42	524.28
563.59	376.83
563.75	411.93
563.92	484.49
564.08	379.17
564.24	395.55
564.41	447.04
564.57	461.09
564.74	395.55
564.90	416.62
565.07	440.02
565.23	376.83
565.39	447.04
565.56	519.60
565.72	435.34
565.88	418.96
566.05	430.66
566.21	430.66
566.38	454.06
566.54	456.40
566.70	447.04
566.87	407.25
567.03	442.36
567.19	414.27
567.36	400.23
567.52	395.55
567.68	470.45
567.85	430.66
568.01	383.85
568.17	379.17
568.34	327.68
568.50	444.70
568.66	386.19
568.83	496.19
568.99	346.40
569.15	458.74
569.32	423.64
569.48	360.44
569.64	402.57
569.81	461.09
569.97	393.21
570.13	442.36
570.30	409.59
570.46	470.45
570.62	358.10
570.78	388.53
570.95	383.85
571.11	409.59
571.27	381.51
571.43	425.98
571.60	379.17
571.76	425.98
571.92	407.25
572.09	475.13
572.25	395.55
572.41	402.57
572.57	486.83
572.74	482.15
572.90	433.00
573.06	365.12
573.22	458.74
573.38	430.66
573.55	486.83
573.71	440.02
573.87	388.53
574.03	367.46
574.20	472.79
574.36	437.68
574.52	379.17
574.68	365.12
574.84	451.72
575.01	362.78
575.17	496.19
575.33	386.19
575.49	437.68
575.65	430.66
575.82	472.79
575.98	433.00
576.14	402.57
576.30	428.32
576.46	411.93
576.62	468.11
576.79	416.62
576.95	414.27
577.11	379.17
577.27	388.53
577.43	404.91
577.59	458.74
577.75	416.62
577.92	418.96
578.08	369.80
578.24	397.89
578.40	442.36
578.56	423.64
578.72	409.59
578.88	386.19
579.04	404.91
579.21	437.68
579.37	411.93
579.53	376.83
579.69	383.85
579.85	372.15
580.01	402.57
580.17	435.34
580.33	386.19
580.49	416.62
580.65	479.81
580.82	442.36
580.98	353.42
581.14	404.91
581.30	430.66
581.46	393.21
581.62	456.40
581.78	447.04
581.94	447.04
582.10	404.91
582.26	355.76
582.42	425.98
582.58	362.78
582.74	437.68
582.90	395.55
583.06	365.12
583.22	433.00
583.38	437.68
583.54	386.19
583.70	472.79
583.86	496.19
584.02	393.21
584.18	409.59
584.34	404.91
584.50	423.64
584.66	411.93
584.82	491.51
584.98	416.62
585.14	311.29
585.30	411.93
585.46	393.21
585.62	425.98
585.78	360.44
585.94	423.64
586.10	414.27
586.26	362.78
586.42	477.47
586.58	390.87
586.74	376.83
586.90	411.93
587.06	465.77
587.22	404.91
587.38	468.11
587.54	404.91
587.70	482.15
587.86	411.93
588.02	362.78
588.18	395.55
588.34	423.64
588.49	367.46
588.65	423.64
588.81	374.49
588.97	407.25
589.13	414.27
589.29	355.76
589.45	372.15
589.61	341.72
589.77	430.66
589.93	482.15
590.08	437.68
590.24	358.10
590.40	362.78
590.56	358.10
590.72	362.78
590.88	386.19
591.04	400.23
591.20	421.30
591.35	425.98
591.51	397.89
591.67	435.34
591.83	510.24
591.99	433.00
592.15	442.36
592.31	435.34
592.46	355.76
592.62	442.36
592.78	383.85
592.94	430.66
593.10	404.91
593.26	393.21
593.41	414.27
593.57	400.23
593.73	383.85
593.89	451.72
594.05	430.66
594.20	411.93
594.36	482.15
594.52	465.77
594.68	358.10
594.84	428.32
594.99	479.81
595.15	416.62
595.31	297.25
595.47	414.27
595.62	425.98
595.78	360.44
595.94	390.87
596.10	458.74
596.25	449.38
596.41	482.15
596.57	379.17
596.73	334.70
596.88	423.64
597.04	416.62
597.20	369.80
597.36	458.74
597.51	374.49
597.67	365.12
597.83	409.59
597.99	447.04
598.14	369.80
598.30	388.53
598.46	472.79
598.61	397.89
598.77	454.06
598.93	411.93
599.09	465.77
599.24	409.59
599.40	433.00
599.56	409.59
599.71	454.06
599.87	404.91
600.03	430.66
600.18	372.15
600.34	477.47
600.50	348.74
600.65	416.62
600.81	430.66
600.97	440.02
601.12	425.98
601.28	386.19
601.44	433.00
601.59	395.55
601.75	376.83
601.91	470.45
602.06	423.64
602.22	444.70
602.37	430.66
602.53	393.21
602.69	463.43
602.84	425.98
603.00	407.25
603.16	491.51
603.31	393.21
603.47	440.02
603.62	414.27
603.78	386.19
603.94	503.22
604.09	418.96
604.25	355.76
604.40	512.58
604.56	433.00
604.71	440.02
604.87	451.72
605.03	454.06
605.18	379.17
605.34	447.04
605.49	407.25
605.65	395.55
605.80	376.83
605.96	388.53
606.12	386.19
606.27	437.68
606.43	376.83
606.58	344.06
606.74	400.23
606.89	386.19
607.05	409.59
607.20	486.83
607.36	461.09
607.51	472.79
607.67	442.36
607.82	475.13
607.98	414.27
608.13	458.74
608.29	418.96
608.44	355.76
608.60	444.70
608.75	411.93
608.91	472.79
609.06	447.04
609.22	407.25
609.37	383.85
609.53	437.68
609.68	437.68
609.84	414.27
609.99	386.19
610.15	435.34
