SpectraSuite Data File
++++++++++++++++++++++++++++++++++++
Date: Fri Oct 25 12:11:44 EDT 2013
User: price-jones
Dark Spectrum Present: No
Reference Spectrum Present: No
Number of Sampled Component Spectra: 1
Spectrometers: USB2+H05261
Integration Time (usec): 100000 (USB2+H05261)
Spectra Averaged: 1 (USB2+H05261)
Boxcar Smoothing: 0 (USB2+H05261)
Correct for Electrical Dark: No (USB2+H05261)
Strobe/Lamp Enabled: No (USB2+H05261)
Correct for Detector Non-linearity: No (USB2+H05261)
Correct for Stray Light: No (USB2+H05261)
Number of Pixels in Processed Spectrum: 2048
>>>>>Begin Processed Spectral Data<<<<<
365.73	311.29
365.92	311.29
366.12	311.29
366.32	292.57
366.52	217.67
366.72	250.44
366.91	187.24
367.11	257.46
367.31	285.55
367.51	311.29
367.70	245.76
367.90	220.01
368.10	215.33
368.30	252.78
368.49	243.42
368.69	299.59
368.89	278.52
369.09	290.23
369.28	266.82
369.48	301.93
369.68	301.93
369.87	308.95
370.07	348.74
370.27	376.83
370.47	353.42
370.66	276.18
370.86	346.40
371.06	383.85
371.25	454.06
371.45	344.06
371.65	344.06
371.84	400.23
372.04	362.78
372.24	327.68
372.44	367.46
372.63	395.55
372.83	428.32
373.03	383.85
373.22	379.17
373.42	390.87
373.62	400.23
373.81	381.51
374.01	503.22
374.21	435.34
374.40	388.53
374.60	433.00
374.79	402.57
374.99	409.59
375.19	411.93
375.38	433.00
375.58	425.98
375.78	386.19
375.97	376.83
376.17	528.96
376.37	369.80
376.56	437.68
376.76	390.87
376.95	341.72
377.15	423.64
377.35	402.57
377.54	337.04
377.74	358.10
377.93	374.49
378.13	395.55
378.33	463.43
378.52	470.45
378.72	425.98
378.91	362.78
379.11	337.04
379.31	407.25
379.50	388.53
379.70	397.89
379.89	421.30
380.09	388.53
380.28	346.40
380.48	365.12
380.68	379.17
380.87	379.17
381.07	402.57
381.26	447.04
381.46	397.89
381.65	404.91
381.85	393.21
382.04	393.21
382.24	381.51
382.43	358.10
382.63	341.72
382.83	409.59
383.02	423.64
383.22	407.25
383.41	423.64
383.61	428.32
383.80	491.51
384.00	395.55
384.19	433.00
384.39	334.70
384.58	435.34
384.78	437.68
384.97	435.34
385.17	379.17
385.36	402.57
385.56	411.93
385.75	442.36
385.95	374.49
386.14	407.25
386.34	414.27
386.53	407.25
386.72	411.93
386.92	421.30
387.11	440.02
387.31	418.96
387.50	334.70
387.70	470.45
387.89	425.98
388.09	367.46
388.28	402.57
388.48	386.19
388.67	461.09
388.86	425.98
389.06	381.51
389.25	393.21
389.45	374.49
389.64	421.30
389.84	404.91
390.03	507.90
390.22	402.57
390.42	449.38
390.61	411.93
390.81	390.87
391.00	393.21
391.19	470.45
391.39	397.89
391.58	447.04
391.78	458.74
391.97	472.79
392.16	484.49
392.36	395.55
392.55	461.09
392.75	374.49
392.94	362.78
393.13	404.91
393.33	369.80
393.52	355.76
393.71	447.04
393.91	402.57
394.10	386.19
394.29	449.38
394.49	402.57
394.68	458.74
394.88	447.04
395.07	423.64
395.26	442.36
395.46	428.32
395.65	407.25
395.84	428.32
396.04	470.45
396.23	407.25
396.42	461.09
396.62	411.93
396.81	418.96
397.00	360.44
397.19	379.17
397.39	404.91
397.58	376.83
397.77	470.45
397.97	482.15
398.16	461.09
398.35	447.04
398.55	348.74
398.74	409.59
398.93	400.23
399.12	425.98
399.32	397.89
399.51	458.74
399.70	386.19
399.90	433.00
400.09	451.72
400.28	430.66
400.47	416.62
400.67	409.59
400.86	355.76
401.05	493.85
401.24	421.30
401.44	411.93
401.63	376.83
401.82	411.93
402.01	418.96
402.21	456.40
402.40	454.06
402.59	400.23
402.78	348.74
402.97	346.40
403.17	379.17
403.36	428.32
403.55	404.91
403.74	414.27
403.93	458.74
404.13	407.25
404.32	397.89
404.51	409.59
404.70	402.57
404.89	470.45
405.09	407.25
405.28	386.19
405.47	449.38
405.66	489.17
405.85	374.49
406.05	348.74
406.24	449.38
406.43	355.76
406.62	442.36
406.81	402.57
407.00	477.47
407.20	425.98
407.39	365.12
407.58	381.51
407.77	461.09
407.96	477.47
408.15	447.04
408.34	388.53
408.54	409.59
408.73	383.85
408.92	404.91
409.11	430.66
409.30	465.77
409.49	397.89
409.68	344.06
409.87	421.30
410.07	423.64
410.26	400.23
410.45	395.55
410.64	339.38
410.83	440.02
411.02	397.89
411.21	433.00
411.40	421.30
411.59	381.51
411.78	400.23
411.98	369.80
412.17	365.12
412.36	444.70
412.55	360.44
412.74	330.02
412.93	433.00
413.12	400.23
413.31	433.00
413.50	454.06
413.69	386.19
413.88	458.74
414.07	409.59
414.26	503.22
414.45	414.27
414.64	479.81
414.83	482.15
415.02	486.83
415.22	369.80
415.41	367.46
415.60	435.34
415.79	376.83
415.98	409.59
416.17	463.43
416.36	353.42
416.55	454.06
416.74	440.02
416.93	493.85
417.12	458.74
417.31	425.98
417.50	362.78
417.69	472.79
417.88	416.62
418.07	435.34
418.26	442.36
418.45	428.32
418.64	505.56
418.83	400.23
419.02	451.72
419.21	512.58
419.39	397.89
419.58	456.40
419.77	416.62
419.96	393.21
420.15	395.55
420.34	400.23
420.53	491.51
420.72	475.13
420.91	411.93
421.10	433.00
421.29	372.15
421.48	355.76
421.67	428.32
421.86	362.78
422.05	444.70
422.24	376.83
422.43	325.33
422.61	402.57
422.80	470.45
422.99	407.25
423.18	301.93
423.37	440.02
423.56	430.66
423.75	395.55
423.94	418.96
424.13	437.68
424.32	369.80
424.50	372.15
424.69	409.59
424.88	421.30
425.07	381.51
425.26	442.36
425.45	421.30
425.64	440.02
425.83	477.47
426.01	411.93
426.20	381.51
426.39	454.06
426.58	369.80
426.77	379.17
426.96	451.72
427.15	348.74
427.33	444.70
427.52	404.91
427.71	421.30
427.90	411.93
428.09	454.06
428.28	418.96
428.46	397.89
428.65	447.04
428.84	400.23
429.03	376.83
429.22	418.96
429.40	430.66
429.59	320.65
429.78	404.91
429.97	430.66
430.16	407.25
430.34	409.59
430.53	454.06
430.72	383.85
430.91	451.72
431.10	369.80
431.28	430.66
431.47	390.87
431.66	416.62
431.85	425.98
432.03	428.32
432.22	425.98
432.41	400.23
432.60	437.68
432.79	414.27
432.97	362.78
433.16	379.17
433.35	339.38
433.54	465.77
433.72	430.66
433.91	397.89
434.10	390.87
434.28	358.10
434.47	416.62
434.66	482.15
434.85	418.96
435.03	402.57
435.22	479.81
435.41	428.32
435.59	390.87
435.78	388.53
435.97	337.04
436.16	423.64
436.34	379.17
436.53	444.70
436.72	472.79
436.90	437.68
437.09	463.43
437.28	430.66
437.46	421.30
437.65	437.68
437.84	447.04
438.02	463.43
438.21	449.38
438.40	362.78
438.58	402.57
438.77	353.42
438.96	390.87
439.14	379.17
439.33	433.00
439.52	465.77
439.70	388.53
439.89	402.57
440.08	449.38
440.26	463.43
440.45	449.38
440.63	400.23
440.82	390.87
441.01	463.43
441.19	388.53
441.38	503.22
441.57	447.04
441.75	493.85
441.94	381.51
442.12	428.32
442.31	397.89
442.50	355.76
442.68	381.51
442.87	423.64
443.05	341.72
443.24	442.36
443.43	472.79
443.61	416.62
443.80	477.47
443.98	435.34
444.17	365.12
444.35	355.76
444.54	418.96
444.73	484.49
444.91	540.66
445.10	423.64
445.28	393.21
445.47	442.36
445.65	404.91
445.84	409.59
446.02	463.43
446.21	449.38
446.39	411.93
446.58	400.23
446.77	465.77
446.95	423.64
447.14	428.32
447.32	472.79
447.51	435.34
447.69	386.19
447.88	407.25
448.06	463.43
448.25	444.70
448.43	397.89
448.62	421.30
448.80	414.27
448.99	416.62
449.17	332.36
449.36	463.43
449.54	414.27
449.73	409.59
449.91	421.30
450.10	421.30
450.28	433.00
450.46	395.55
450.65	440.02
450.83	472.79
451.02	374.49
451.20	451.72
451.39	428.32
451.57	442.36
451.76	386.19
451.94	416.62
452.13	397.89
452.31	421.30
452.49	482.15
452.68	421.30
452.86	362.78
453.05	491.51
453.23	430.66
453.42	337.04
453.60	444.70
453.78	400.23
453.97	421.30
454.15	402.57
454.34	362.78
454.52	414.27
454.70	444.70
454.89	404.91
455.07	470.45
455.26	390.87
455.44	437.68
455.62	393.21
455.81	451.72
455.99	404.91
456.17	433.00
456.36	444.70
456.54	374.49
456.73	507.90
456.91	369.80
457.09	435.34
457.28	454.06
457.46	425.98
457.64	475.13
457.83	425.98
458.01	433.00
458.19	409.59
458.38	411.93
458.56	402.57
458.74	468.11
458.93	437.68
459.11	416.62
459.29	433.00
459.48	418.96
459.66	390.87
459.84	404.91
460.03	475.13
460.21	425.98
460.39	397.89
460.57	451.72
460.76	407.25
460.94	402.57
461.12	390.87
461.31	440.02
461.49	411.93
461.67	421.30
461.85	493.85
462.04	409.59
462.22	809.83
462.40	496.19
462.59	407.25
462.77	451.72
462.95	411.93
463.13	433.00
463.32	365.12
463.50	437.68
463.68	386.19
463.86	433.00
464.05	449.38
464.23	433.00
464.41	397.89
464.59	430.66
464.78	423.64
464.96	402.57
465.14	425.98
465.32	383.85
465.50	400.23
465.69	397.89
465.87	362.78
466.05	437.68
466.23	418.96
466.41	425.98
466.60	386.19
466.78	409.59
466.96	477.47
467.14	489.17
467.32	411.93
467.51	456.40
467.69	449.38
467.87	456.40
468.05	435.34
468.23	418.96
468.41	430.66
468.60	374.49
468.78	395.55
468.96	498.53
469.14	407.25
469.32	411.93
469.50	339.38
469.69	414.27
469.87	365.12
470.05	395.55
470.23	402.57
470.41	444.70
470.59	433.00
470.77	407.25
470.95	376.83
471.14	484.49
471.32	468.11
471.50	428.32
471.68	390.87
471.86	484.49
472.04	386.19
472.22	418.96
472.40	435.34
472.58	465.77
472.77	428.32
472.95	404.91
473.13	407.25
473.31	416.62
473.49	404.91
473.67	402.57
473.85	409.59
474.03	416.62
474.21	451.72
474.39	465.77
474.57	458.74
474.75	440.02
474.93	442.36
475.12	461.09
475.30	409.59
475.48	411.93
475.66	404.91
475.84	358.10
476.02	402.57
476.20	472.79
476.38	393.21
476.56	505.56
476.74	397.89
476.92	409.59
477.10	491.51
477.28	447.04
477.46	362.78
477.64	435.34
477.82	435.34
478.00	407.25
478.18	339.38
478.36	362.78
478.54	423.64
478.72	454.06
478.90	425.98
479.08	418.96
479.26	393.21
479.44	397.89
479.62	416.62
479.80	395.55
479.98	428.32
480.16	409.59
480.34	496.19
480.52	479.81
480.70	390.87
480.88	475.13
481.06	425.98
481.24	465.77
481.41	458.74
481.59	430.66
481.77	411.93
481.95	397.89
482.13	479.81
482.31	386.19
482.49	337.04
482.67	500.87
482.85	411.93
483.03	322.99
483.21	379.17
483.39	376.83
483.57	418.96
483.74	449.38
483.92	416.62
484.10	411.93
484.28	379.17
484.46	444.70
484.64	409.59
484.82	395.55
485.00	472.79
485.18	444.70
485.35	388.53
485.53	360.44
485.71	397.89
485.89	395.55
486.07	379.17
486.25	409.59
486.43	430.66
486.61	449.38
486.78	430.66
486.96	437.68
487.14	411.93
487.32	404.91
487.50	400.23
487.68	395.55
487.85	360.44
488.03	372.15
488.21	376.83
488.39	440.02
488.57	451.72
488.75	402.57
488.92	505.56
489.10	383.85
489.28	447.04
489.46	383.85
489.64	407.25
489.81	451.72
489.99	397.89
490.17	444.70
490.35	470.45
490.53	475.13
490.70	411.93
490.88	510.24
491.06	416.62
491.24	505.56
491.41	500.87
491.59	395.55
491.77	381.51
491.95	433.00
492.13	409.59
492.30	456.40
492.48	400.23
492.66	475.13
492.84	402.57
493.01	411.93
493.19	440.02
493.37	360.44
493.54	416.62
493.72	390.87
493.90	374.49
494.08	416.62
494.25	421.30
494.43	390.87
494.61	397.89
494.79	451.72
494.96	423.64
495.14	344.06
495.32	437.68
495.49	393.21
495.67	444.70
495.85	425.98
496.02	367.46
496.20	381.51
496.38	458.74
496.55	437.68
496.73	393.21
496.91	393.21
497.09	475.13
497.26	411.93
497.44	365.12
497.62	484.49
497.79	409.59
497.97	409.59
498.14	409.59
498.32	425.98
498.50	482.15
498.67	430.66
498.85	423.64
499.03	433.00
499.20	379.17
499.38	383.85
499.56	407.25
499.73	425.98
499.91	393.21
500.08	411.93
500.26	414.27
500.44	390.87
500.61	433.00
500.79	437.68
500.97	390.87
501.14	463.43
501.32	435.34
501.49	418.96
501.67	418.96
501.84	402.57
502.02	409.59
502.20	423.64
502.37	390.87
502.55	430.66
502.72	430.66
502.90	463.43
503.07	425.98
503.25	461.09
503.43	390.87
503.60	418.96
503.78	372.15
503.95	397.89
504.13	421.30
504.30	386.19
504.48	369.80
504.65	479.81
504.83	421.30
505.01	409.59
505.18	468.11
505.36	425.98
505.53	339.38
505.71	447.04
505.88	418.96
506.06	472.79
506.23	372.15
506.41	437.68
506.58	400.23
506.76	444.70
506.93	486.83
507.11	465.77
507.28	318.31
507.46	407.25
507.63	447.04
507.81	353.42
507.98	348.74
508.16	428.32
508.33	465.77
508.50	468.11
508.68	435.34
508.85	407.25
509.03	447.04
509.20	379.17
509.38	409.59
509.55	456.40
509.73	421.30
509.90	435.34
510.08	423.64
510.25	416.62
510.42	433.00
510.60	369.80
510.77	524.28
510.95	390.87
511.12	388.53
511.30	498.53
511.47	479.81
511.64	386.19
511.82	374.49
511.99	505.56
512.17	372.15
512.34	421.30
512.51	430.66
512.69	407.25
512.86	496.19
513.04	428.32
513.21	411.93
513.38	369.80
513.56	400.23
513.73	447.04
513.90	421.30
514.08	437.68
514.25	461.09
514.43	440.02
514.60	386.19
514.77	334.70
514.95	313.63
515.12	383.85
515.29	423.64
515.47	465.77
515.64	442.36
515.81	409.59
515.99	365.12
516.16	491.51
516.33	512.58
516.51	341.72
516.68	454.06
516.85	449.38
517.03	454.06
517.20	440.02
517.37	402.57
517.54	433.00
517.72	461.09
517.89	383.85
518.06	404.91
518.24	411.93
518.41	449.38
518.58	442.36
518.75	421.30
518.93	451.72
519.10	430.66
519.27	437.68
519.45	440.02
519.62	332.36
519.79	411.93
519.96	458.74
520.14	433.00
520.31	454.06
520.48	449.38
520.65	386.19
520.83	430.66
521.00	358.10
521.17	447.04
521.34	365.12
521.52	451.72
521.69	435.34
521.86	475.13
522.03	472.79
522.20	425.98
522.38	454.06
522.55	437.68
522.72	381.51
522.89	444.70
523.07	472.79
523.24	461.09
523.41	425.98
523.58	393.21
523.75	409.59
523.92	409.59
524.10	416.62
524.27	458.74
524.44	397.89
524.61	454.06
524.78	421.30
524.96	339.38
525.13	428.32
525.30	423.64
525.47	440.02
525.64	411.93
525.81	514.92
525.98	425.98
526.16	449.38
526.33	458.74
526.50	393.21
526.67	416.62
526.84	423.64
527.01	393.21
527.18	358.10
527.36	344.06
527.53	383.85
527.70	451.72
527.87	407.25
528.04	500.87
528.21	358.10
528.38	421.30
528.55	402.57
528.72	477.47
528.89	477.47
529.07	411.93
529.24	451.72
529.41	456.40
529.58	428.32
529.75	407.25
529.92	418.96
530.09	393.21
530.26	421.30
530.43	421.30
530.60	360.44
530.77	463.43
530.94	416.62
531.11	416.62
531.28	397.89
531.46	374.49
531.63	362.78
531.80	402.57
531.97	428.32
532.14	379.17
532.31	444.70
532.48	386.19
532.65	428.32
532.82	376.83
532.99	404.91
533.16	365.12
533.33	407.25
533.50	416.62
533.67	381.51
533.84	414.27
534.01	435.34
534.18	411.93
534.35	381.51
534.52	414.27
534.69	437.68
534.86	353.42
535.03	447.04
535.20	463.43
535.37	470.45
535.54	425.98
535.71	442.36
535.88	388.53
536.05	423.64
536.22	402.57
536.38	421.30
536.55	388.53
536.72	421.30
536.89	430.66
537.06	409.59
537.23	390.87
537.40	390.87
537.57	423.64
537.74	486.83
537.91	456.40
538.08	479.81
538.25	407.25
538.42	397.89
538.59	383.85
538.75	397.89
538.92	475.13
539.09	428.32
539.26	411.93
539.43	425.98
539.60	414.27
539.77	425.98
539.94	395.55
540.11	367.46
540.28	379.17
540.44	425.98
540.61	470.45
540.78	425.98
540.95	383.85
541.12	379.17
541.29	425.98
541.46	442.36
541.62	416.62
541.79	374.49
541.96	421.30
542.13	414.27
542.30	390.87
542.47	400.23
542.63	423.64
542.80	388.53
542.97	437.68
543.14	435.34
543.31	472.79
543.48	383.85
543.64	479.81
543.81	393.21
543.98	409.59
544.15	416.62
544.32	390.87
544.48	421.30
544.65	397.89
544.82	421.30
544.99	447.04
545.16	456.40
545.32	358.10
545.49	390.87
545.66	388.53
545.83	425.98
546.00	414.27
546.16	454.06
546.33	444.70
546.50	376.83
546.67	444.70
546.83	388.53
547.00	411.93
547.17	367.46
547.34	341.72
547.50	411.93
547.67	444.70
547.84	369.80
548.00	458.74
548.17	386.19
548.34	468.11
548.51	449.38
548.67	458.74
548.84	421.30
549.01	475.13
549.18	503.22
549.34	393.21
549.51	332.36
549.68	421.30
549.84	456.40
550.01	400.23
550.18	594.50
550.34	461.09
550.51	381.51
550.68	442.36
550.84	365.12
551.01	454.06
551.18	440.02
551.34	381.51
551.51	423.64
551.68	393.21
551.84	407.25
552.01	447.04
552.18	449.38
552.34	451.72
552.51	388.53
552.68	463.43
552.84	430.66
553.01	402.57
553.18	421.30
553.34	402.57
553.51	386.19
553.67	477.47
553.84	421.30
554.01	463.43
554.17	433.00
554.34	393.21
554.51	451.72
554.67	362.78
554.84	526.62
555.00	430.66
555.17	411.93
555.33	454.06
555.50	390.87
555.67	388.53
555.83	411.93
556.00	428.32
556.16	627.26
556.33	512.58
556.50	400.23
556.66	428.32
556.83	379.17
556.99	344.06
557.16	423.64
557.32	397.89
557.49	397.89
557.65	397.89
557.82	468.11
557.98	402.57
558.15	369.80
558.32	449.38
558.48	351.08
558.65	433.00
558.81	423.64
558.98	404.91
559.14	386.19
559.31	416.62
559.47	447.04
559.64	440.02
559.80	379.17
559.97	390.87
560.13	461.09
560.30	411.93
560.46	416.62
560.63	404.91
560.79	470.45
560.96	404.91
561.12	444.70
561.29	411.93
561.45	470.45
561.61	463.43
561.78	510.24
561.94	421.30
562.11	409.59
562.27	411.93
562.44	388.53
562.60	470.45
562.77	395.55
562.93	379.17
563.10	379.17
563.26	374.49
563.42	430.66
563.59	402.57
563.75	435.34
563.92	477.47
564.08	472.79
564.24	447.04
564.41	468.11
564.57	458.74
564.74	463.43
564.90	379.17
565.07	414.27
565.23	449.38
565.39	407.25
565.56	433.00
565.72	386.19
565.88	367.46
566.05	395.55
566.21	400.23
566.38	397.89
566.54	430.66
566.70	425.98
566.87	437.68
567.03	437.68
567.19	463.43
567.36	451.72
567.52	407.25
567.68	456.40
567.85	407.25
568.01	461.09
568.17	374.49
568.34	454.06
568.50	433.00
568.66	395.55
568.83	433.00
568.99	428.32
569.15	451.72
569.32	386.19
569.48	330.02
569.64	360.44
569.81	440.02
569.97	477.47
570.13	440.02
570.30	367.46
570.46	498.53
570.62	430.66
570.78	400.23
570.95	447.04
571.11	470.45
571.27	425.98
571.43	454.06
571.60	440.02
571.76	449.38
571.92	346.40
572.09	409.59
572.25	423.64
572.41	475.13
572.57	435.34
572.74	390.87
572.90	397.89
573.06	390.87
573.22	428.32
573.38	425.98
573.55	449.38
573.71	465.77
573.87	390.87
574.03	407.25
574.20	379.17
574.36	479.81
574.52	362.78
574.68	402.57
574.84	444.70
575.01	470.45
575.17	360.44
575.33	409.59
575.49	472.79
575.65	404.91
575.82	379.17
575.98	393.21
576.14	390.87
576.30	414.27
576.46	430.66
576.62	505.56
576.79	444.70
576.95	496.19
577.11	454.06
577.27	465.77
577.43	458.74
577.59	425.98
577.75	482.15
577.92	451.72
578.08	416.62
578.24	351.08
578.40	470.45
578.56	423.64
578.72	442.36
578.88	449.38
579.04	442.36
579.21	379.17
579.37	433.00
579.53	409.59
579.69	451.72
579.85	411.93
580.01	416.62
580.17	418.96
580.33	421.30
580.49	451.72
580.65	353.42
580.82	395.55
580.98	348.74
581.14	430.66
581.30	411.93
581.46	430.66
581.62	484.49
581.78	395.55
581.94	496.19
582.10	355.76
582.26	425.98
582.42	461.09
582.58	493.85
582.74	482.15
582.90	404.91
583.06	454.06
583.22	416.62
583.38	369.80
583.54	444.70
583.70	416.62
583.86	463.43
584.02	407.25
584.18	409.59
584.34	484.49
584.50	358.10
584.66	435.34
584.82	386.19
584.98	388.53
585.14	393.21
585.30	482.15
585.46	407.25
585.62	472.79
585.78	472.79
585.94	440.02
586.10	484.49
586.26	449.38
586.42	496.19
586.58	430.66
586.74	402.57
586.90	463.43
587.06	383.85
587.22	404.91
587.38	451.72
587.54	407.25
587.70	472.79
587.86	393.21
588.02	451.72
588.18	397.89
588.34	482.15
588.49	435.34
588.65	341.72
588.81	491.51
588.97	344.06
589.13	435.34
589.29	489.17
589.45	400.23
589.61	463.43
589.77	472.79
589.93	379.17
590.08	411.93
590.24	393.21
590.40	430.66
590.56	362.78
590.72	435.34
590.88	393.21
591.04	517.26
591.20	447.04
591.35	454.06
591.51	404.91
591.67	409.59
591.83	390.87
591.99	416.62
592.15	407.25
592.31	496.19
592.46	334.70
592.62	451.72
592.78	416.62
592.94	418.96
593.10	444.70
593.26	365.12
593.41	447.04
593.57	353.42
593.73	397.89
593.89	458.74
594.05	428.32
594.20	400.23
594.36	404.91
594.52	425.98
594.68	435.34
594.84	397.89
594.99	475.13
595.15	463.43
595.31	472.79
595.47	404.91
595.62	404.91
595.78	423.64
595.94	425.98
596.10	440.02
596.25	381.51
596.41	449.38
596.57	383.85
596.73	393.21
596.88	447.04
597.04	449.38
597.20	418.96
597.36	428.32
597.51	423.64
597.67	337.04
597.83	414.27
597.99	428.32
598.14	433.00
598.30	383.85
598.46	348.74
598.61	390.87
598.77	465.77
598.93	425.98
599.09	428.32
599.24	440.02
599.40	456.40
599.56	411.93
599.71	402.57
599.87	458.74
600.03	376.83
600.18	507.90
600.34	468.11
600.50	393.21
600.65	468.11
600.81	411.93
600.97	409.59
601.12	435.34
601.28	524.28
601.44	400.23
601.59	372.15
601.75	498.53
601.91	428.32
602.06	435.34
602.22	517.26
602.37	386.19
602.53	362.78
602.69	465.77
602.84	477.47
603.00	423.64
603.16	505.56
603.31	475.13
603.47	454.06
603.62	428.32
603.78	400.23
603.94	400.23
604.09	407.25
604.25	425.98
604.40	468.11
604.56	458.74
604.71	372.15
604.87	409.59
605.03	461.09
605.18	404.91
605.34	458.74
605.49	369.80
605.65	430.66
605.80	433.00
605.96	465.77
606.12	372.15
606.27	437.68
606.43	404.91
606.58	383.85
606.74	449.38
606.89	383.85
607.05	400.23
607.20	477.47
607.36	430.66
607.51	402.57
607.67	386.19
607.82	390.87
607.98	440.02
608.13	341.72
608.29	409.59
608.44	461.09
608.60	393.21
608.75	365.12
608.91	425.98
609.06	395.55
609.22	458.74
609.37	430.66
609.53	404.91
609.68	444.70
609.84	379.17
609.99	423.64
610.15	435.34
