SpectraSuite Data File
++++++++++++++++++++++++++++++++++++
Date: Fri Oct 25 12:10:34 EDT 2013
User: price-jones
Dark Spectrum Present: No
Reference Spectrum Present: No
Number of Sampled Component Spectra: 1
Spectrometers: USB2+H05261
Integration Time (usec): 100000 (USB2+H05261)
Spectra Averaged: 1 (USB2+H05261)
Boxcar Smoothing: 0 (USB2+H05261)
Correct for Electrical Dark: No (USB2+H05261)
Strobe/Lamp Enabled: No (USB2+H05261)
Correct for Detector Non-linearity: No (USB2+H05261)
Correct for Stray Light: No (USB2+H05261)
Number of Pixels in Processed Spectrum: 2048
>>>>>Begin Processed Spectral Data<<<<<
365.73	411.93
365.92	411.93
366.12	411.93
366.32	266.82
366.52	315.97
366.72	271.50
366.91	217.67
367.11	294.91
367.31	166.18
367.51	210.65
367.70	241.08
367.90	210.65
368.10	308.95
368.30	278.52
368.49	182.56
368.69	262.14
368.89	241.08
369.09	266.82
369.28	299.59
369.48	313.63
369.68	297.25
369.87	327.68
370.07	245.76
370.27	346.40
370.47	308.95
370.66	327.68
370.86	348.74
371.06	374.49
371.25	409.59
371.45	397.89
371.65	365.12
371.84	313.63
372.04	372.15
372.24	425.98
372.44	484.49
372.63	437.68
372.83	346.40
373.03	416.62
373.22	369.80
373.42	472.79
373.62	442.36
373.81	416.62
374.01	409.59
374.21	456.40
374.40	409.59
374.60	526.62
374.79	440.02
374.99	409.59
375.19	388.53
375.38	421.30
375.58	456.40
375.78	517.26
375.97	351.08
376.17	428.32
376.37	395.55
376.56	404.91
376.76	442.36
376.95	463.43
377.15	423.64
377.35	458.74
377.54	425.98
377.74	386.19
377.93	362.78
378.13	404.91
378.33	395.55
378.52	369.80
378.72	346.40
378.91	451.72
379.11	435.34
379.31	379.17
379.50	414.27
379.70	423.64
379.89	402.57
380.09	372.15
380.28	346.40
380.48	402.57
380.68	430.66
380.87	397.89
381.07	344.06
381.26	437.68
381.46	376.83
381.65	491.51
381.85	442.36
382.04	449.38
382.24	374.49
382.43	341.72
382.63	367.46
382.83	365.12
383.02	456.40
383.22	416.62
383.41	388.53
383.61	381.51
383.80	400.23
384.00	334.70
384.19	379.17
384.39	430.66
384.58	348.74
384.78	388.53
384.97	418.96
385.17	430.66
385.36	360.44
385.56	409.59
385.75	374.49
385.95	411.93
386.14	454.06
386.34	395.55
386.53	493.85
386.72	409.59
386.92	402.57
387.11	430.66
387.31	451.72
387.50	308.95
387.70	402.57
387.89	404.91
388.09	409.59
388.28	388.53
388.48	400.23
388.67	428.32
388.86	407.25
389.06	421.30
389.25	477.47
389.45	353.42
389.64	400.23
389.84	383.85
390.03	374.49
390.22	337.04
390.42	360.44
390.61	393.21
390.81	360.44
391.00	418.96
391.19	423.64
391.39	337.04
391.58	400.23
391.78	379.17
391.97	374.49
392.16	388.53
392.36	407.25
392.55	393.21
392.75	416.62
392.94	454.06
393.13	365.12
393.33	388.53
393.52	344.06
393.71	411.93
393.91	327.68
394.10	337.04
394.29	369.80
394.49	388.53
394.68	418.96
394.88	477.47
395.07	444.70
395.26	463.43
395.46	423.64
395.65	409.59
395.84	409.59
396.04	369.80
396.23	430.66
396.42	383.85
396.62	395.55
396.81	489.17
397.00	430.66
397.19	414.27
397.39	437.68
397.58	416.62
397.77	379.17
397.97	482.15
398.16	379.17
398.35	334.70
398.55	397.89
398.74	372.15
398.93	425.98
399.12	358.10
399.32	397.89
399.51	425.98
399.70	334.70
399.90	397.89
400.09	430.66
400.28	400.23
400.47	437.68
400.67	463.43
400.86	442.36
401.05	437.68
401.24	470.45
401.44	383.85
401.63	414.27
401.82	404.91
402.01	451.72
402.21	482.15
402.40	461.09
402.59	425.98
402.78	414.27
402.97	376.83
403.17	388.53
403.36	430.66
403.55	386.19
403.74	421.30
403.93	348.74
404.13	437.68
404.32	369.80
404.51	463.43
404.70	325.33
404.89	454.06
405.09	470.45
405.28	425.98
405.47	449.38
405.66	414.27
405.85	397.89
406.05	437.68
406.24	388.53
406.43	416.62
406.62	339.38
406.81	425.98
407.00	372.15
407.20	388.53
407.39	353.42
407.58	409.59
407.77	372.15
407.96	388.53
408.15	421.30
408.34	444.70
408.54	440.02
408.73	308.95
408.92	486.83
409.11	395.55
409.30	465.77
409.49	402.57
409.68	393.21
409.87	440.02
410.07	383.85
410.26	425.98
410.45	372.15
410.64	365.12
410.83	458.74
411.02	386.19
411.21	437.68
411.40	297.25
411.59	386.19
411.78	416.62
411.98	397.89
412.17	369.80
412.36	400.23
412.55	414.27
412.74	435.34
412.93	381.51
413.12	400.23
413.31	430.66
413.50	386.19
413.69	379.17
413.88	470.45
414.07	491.51
414.26	409.59
414.45	407.25
414.64	500.87
414.83	437.68
415.02	400.23
415.22	411.93
415.41	402.57
415.60	416.62
415.79	463.43
415.98	383.85
416.17	334.70
416.36	407.25
416.55	414.27
416.74	386.19
416.93	433.00
417.12	479.81
417.31	411.93
417.50	402.57
417.69	404.91
417.88	430.66
418.07	421.30
418.26	456.40
418.45	418.96
418.64	407.25
418.83	379.17
419.02	390.87
419.21	308.95
419.39	437.68
419.58	346.40
419.77	437.68
419.96	397.89
420.15	463.43
420.34	496.19
420.53	489.17
420.72	402.57
420.91	456.40
421.10	437.68
421.29	397.89
421.48	463.43
421.67	404.91
421.86	416.62
422.05	409.59
422.24	433.00
422.43	435.34
422.61	376.83
422.80	468.11
422.99	386.19
423.18	346.40
423.37	442.36
423.56	430.66
423.75	376.83
423.94	409.59
424.13	435.34
424.32	407.25
424.50	404.91
424.69	435.34
424.88	425.98
425.07	423.64
425.26	383.85
425.45	433.00
425.64	339.38
425.83	367.46
426.01	372.15
426.20	365.12
426.39	447.04
426.58	393.21
426.77	416.62
426.96	430.66
427.15	447.04
427.33	353.42
427.52	351.08
427.71	390.87
427.90	414.27
428.09	400.23
428.28	444.70
428.46	423.64
428.65	437.68
428.84	395.55
429.03	472.79
429.22	400.23
429.40	463.43
429.59	435.34
429.78	397.89
429.97	458.74
430.16	498.53
430.34	444.70
430.53	465.77
430.72	447.04
430.91	472.79
431.10	409.59
431.28	430.66
431.47	320.65
431.66	353.42
431.85	379.17
432.03	344.06
432.22	437.68
432.41	404.91
432.60	447.04
432.79	482.15
432.97	397.89
433.16	393.21
433.35	330.02
433.54	458.74
433.72	463.43
433.91	423.64
434.10	456.40
434.28	400.23
434.47	409.59
434.66	407.25
434.85	435.34
435.03	376.83
435.22	442.36
435.41	421.30
435.59	425.98
435.78	449.38
435.97	402.57
436.16	390.87
436.34	472.79
436.53	404.91
436.72	400.23
436.90	425.98
437.09	433.00
437.28	355.76
437.46	372.15
437.65	512.58
437.84	454.06
438.02	369.80
438.21	440.02
438.40	437.68
438.58	341.72
438.77	418.96
438.96	440.02
439.14	372.15
439.33	440.02
439.52	407.25
439.70	416.62
439.89	332.36
440.08	365.12
440.26	404.91
440.45	416.62
440.63	437.68
440.82	428.32
441.01	386.19
441.19	418.96
441.38	390.87
441.57	442.36
441.75	376.83
441.94	475.13
442.12	425.98
442.31	444.70
442.50	437.68
442.68	395.55
442.87	454.06
443.05	388.53
443.24	404.91
443.43	266.82
443.61	435.34
443.80	374.49
443.98	454.06
444.17	383.85
444.35	367.46
444.54	428.32
444.73	421.30
444.91	435.34
445.10	456.40
445.28	411.93
445.47	383.85
445.65	451.72
445.84	416.62
446.02	346.40
446.21	449.38
446.39	400.23
446.58	365.12
446.77	402.57
446.95	421.30
447.14	428.32
447.32	400.23
447.51	404.91
447.69	465.77
447.88	379.17
448.06	407.25
448.25	442.36
448.43	344.06
448.62	386.19
448.80	386.19
448.99	353.42
449.17	386.19
449.36	402.57
449.54	386.19
449.73	393.21
449.91	444.70
450.10	451.72
450.28	425.98
450.46	395.55
450.65	416.62
450.83	407.25
451.02	425.98
451.20	414.27
451.39	423.64
451.57	402.57
451.76	390.87
451.94	400.23
452.13	493.85
452.31	379.17
452.49	512.58
452.68	386.19
452.86	449.38
453.05	458.74
453.23	451.72
453.42	433.00
453.60	414.27
453.78	418.96
453.97	390.87
454.15	367.46
454.34	411.93
454.52	355.76
454.70	468.11
454.89	447.04
455.07	404.91
455.26	416.62
455.44	348.74
455.62	423.64
455.81	440.02
455.99	353.42
456.17	411.93
456.36	397.89
456.54	379.17
456.73	418.96
456.91	407.25
457.09	381.51
457.28	409.59
457.46	433.00
457.64	416.62
457.83	416.62
458.01	395.55
458.19	468.11
458.38	397.89
458.56	430.66
458.74	337.04
458.93	442.36
459.11	353.42
459.29	430.66
459.48	437.68
459.66	430.66
459.84	386.19
460.03	477.47
460.21	470.45
460.39	423.64
460.57	360.44
460.76	440.02
460.94	388.53
461.12	381.51
461.31	400.23
461.49	454.06
461.67	332.36
461.85	390.87
462.04	395.55
462.22	786.42
462.40	440.02
462.59	416.62
462.77	395.55
462.95	348.74
463.13	327.68
463.32	428.32
463.50	397.89
463.68	437.68
463.86	454.06
464.05	402.57
464.23	461.09
464.41	421.30
464.59	397.89
464.78	416.62
464.96	418.96
465.14	393.21
465.32	383.85
465.50	463.43
465.69	428.32
465.87	407.25
466.05	475.13
466.23	334.70
466.41	423.64
466.60	365.12
466.78	470.45
466.96	397.89
467.14	386.19
467.32	388.53
467.51	414.27
467.69	416.62
467.87	440.02
468.05	425.98
468.23	458.74
468.41	423.64
468.60	407.25
468.78	386.19
468.96	437.68
469.14	475.13
469.32	381.51
469.50	362.78
469.69	475.13
469.87	418.96
470.05	390.87
470.23	414.27
470.41	433.00
470.59	379.17
470.77	461.09
470.95	461.09
471.14	444.70
471.32	379.17
471.50	458.74
471.68	423.64
471.86	400.23
472.04	383.85
472.22	393.21
472.40	447.04
472.58	400.23
472.77	379.17
472.95	376.83
473.13	477.47
473.31	444.70
473.49	425.98
473.67	376.83
473.85	472.79
474.03	437.68
474.21	337.04
474.39	468.11
474.57	395.55
474.75	393.21
474.93	344.06
475.12	433.00
475.30	428.32
475.48	409.59
475.66	409.59
475.84	388.53
476.02	486.83
476.20	447.04
476.38	433.00
476.56	440.02
476.74	390.87
476.92	433.00
477.10	411.93
477.28	428.32
477.46	451.72
477.64	400.23
477.82	369.80
478.00	449.38
478.18	465.77
478.36	383.85
478.54	407.25
478.72	393.21
478.90	442.36
479.08	421.30
479.26	407.25
479.44	402.57
479.62	421.30
479.80	404.91
479.98	425.98
480.16	397.89
480.34	395.55
480.52	353.42
480.70	411.93
480.88	435.34
481.06	423.64
481.24	463.43
481.41	351.08
481.59	425.98
481.77	440.02
481.95	435.34
482.13	482.15
482.31	379.17
482.49	395.55
482.67	376.83
482.85	444.70
483.03	404.91
483.21	400.23
483.39	332.36
483.57	444.70
483.74	435.34
483.92	365.12
484.10	440.02
484.28	440.02
484.46	409.59
484.64	353.42
484.82	346.40
485.00	423.64
485.18	470.45
485.35	489.17
485.53	376.83
485.71	379.17
485.89	383.85
486.07	395.55
486.25	470.45
486.43	475.13
486.61	496.19
486.78	423.64
486.96	400.23
487.14	451.72
487.32	362.78
487.50	374.49
487.68	449.38
487.85	411.93
488.03	341.72
488.21	458.74
488.39	341.72
488.57	477.47
488.75	402.57
488.92	514.92
489.10	344.06
489.28	433.00
489.46	397.89
489.64	482.15
489.81	344.06
489.99	440.02
490.17	341.72
490.35	390.87
490.53	437.68
490.70	447.04
490.88	383.85
491.06	358.10
491.24	414.27
491.41	416.62
491.59	454.06
491.77	465.77
491.95	355.76
492.13	430.66
492.30	437.68
492.48	447.04
492.66	433.00
492.84	362.78
493.01	369.80
493.19	454.06
493.37	456.40
493.54	447.04
493.72	409.59
493.90	381.51
494.08	409.59
494.25	447.04
494.43	346.40
494.61	402.57
494.79	402.57
494.96	369.80
495.14	428.32
495.32	416.62
495.49	425.98
495.67	388.53
495.85	430.66
496.02	416.62
496.20	325.33
496.38	414.27
496.55	421.30
496.73	409.59
496.91	353.42
497.09	461.09
497.26	454.06
497.44	353.42
497.62	353.42
497.79	444.70
497.97	423.64
498.14	386.19
498.32	393.21
498.50	458.74
498.67	407.25
498.85	496.19
499.03	400.23
499.20	376.83
499.38	414.27
499.56	447.04
499.73	470.45
499.91	442.36
500.08	390.87
500.26	390.87
500.44	418.96
500.61	397.89
500.79	416.62
500.97	404.91
501.14	482.15
501.32	428.32
501.49	418.96
501.67	416.62
501.84	404.91
502.02	393.21
502.20	482.15
502.37	430.66
502.55	407.25
502.72	386.19
502.90	449.38
503.07	456.40
503.25	409.59
503.43	435.34
503.60	365.12
503.78	433.00
503.95	477.47
504.13	397.89
504.30	416.62
504.48	519.60
504.65	505.56
504.83	416.62
505.01	367.46
505.18	407.25
505.36	421.30
505.53	358.10
505.71	440.02
505.88	435.34
506.06	362.78
506.23	393.21
506.41	376.83
506.58	435.34
506.76	404.91
506.93	418.96
507.11	512.58
507.28	430.66
507.46	315.97
507.63	407.25
507.81	367.46
507.98	388.53
508.16	458.74
508.33	407.25
508.50	404.91
508.68	449.38
508.85	430.66
509.03	393.21
509.20	484.49
509.38	379.17
509.55	428.32
509.73	503.22
509.90	435.34
510.08	374.49
510.25	430.66
510.42	400.23
510.60	526.62
510.77	414.27
510.95	407.25
511.12	465.77
511.30	416.62
511.47	484.49
511.64	433.00
511.82	332.36
511.99	425.98
512.17	358.10
512.34	393.21
512.51	407.25
512.69	421.30
512.86	404.91
513.04	404.91
513.21	386.19
513.38	332.36
513.56	393.21
513.73	461.09
513.90	374.49
514.08	388.53
514.25	416.62
514.43	421.30
514.60	437.68
514.77	386.19
514.95	456.40
515.12	395.55
515.29	409.59
515.47	465.77
515.64	449.38
515.81	372.15
515.99	414.27
516.16	433.00
516.33	428.32
516.51	463.43
516.68	477.47
516.85	379.17
517.03	430.66
517.20	437.68
517.37	372.15
517.54	376.83
517.72	430.66
517.89	381.51
518.06	416.62
518.24	468.11
518.41	451.72
518.58	423.64
518.75	423.64
518.93	437.68
519.10	437.68
519.27	418.96
519.45	416.62
519.62	468.11
519.79	383.85
519.96	395.55
520.14	458.74
520.31	475.13
520.48	500.87
520.65	463.43
520.83	376.83
521.00	470.45
521.17	388.53
521.34	433.00
521.52	358.10
521.69	425.98
521.86	437.68
522.03	470.45
522.20	444.70
522.38	379.17
522.55	353.42
522.72	437.68
522.89	421.30
523.07	526.62
523.24	498.53
523.41	465.77
523.58	402.57
523.75	526.62
523.92	369.80
524.10	374.49
524.27	470.45
524.44	360.44
524.61	428.32
524.78	374.49
524.96	442.36
525.13	440.02
525.30	369.80
525.47	425.98
525.64	435.34
525.81	411.93
525.98	451.72
526.16	421.30
526.33	461.09
526.50	414.27
526.67	402.57
526.84	320.65
527.01	416.62
527.18	395.55
527.36	440.02
527.53	440.02
527.70	421.30
527.87	416.62
528.04	477.47
528.21	404.91
528.38	458.74
528.55	484.49
528.72	456.40
528.89	386.19
529.07	372.15
529.24	390.87
529.41	418.96
529.58	400.23
529.75	404.91
529.92	372.15
530.09	454.06
530.26	442.36
530.43	430.66
530.60	421.30
530.77	404.91
530.94	407.25
531.11	470.45
531.28	477.47
531.46	442.36
531.63	425.98
531.80	468.11
531.97	430.66
532.14	360.44
532.31	444.70
532.48	383.85
532.65	400.23
532.82	346.40
532.99	376.83
533.16	341.72
533.33	458.74
533.50	348.74
533.67	451.72
533.84	397.89
534.01	489.17
534.18	395.55
534.35	395.55
534.52	390.87
534.69	440.02
534.86	404.91
535.03	383.85
535.20	496.19
535.37	433.00
535.54	435.34
535.71	409.59
535.88	411.93
536.05	400.23
536.22	454.06
536.38	386.19
536.55	355.76
536.72	418.96
536.89	369.80
537.06	416.62
537.23	400.23
537.40	472.79
537.57	456.40
537.74	505.56
537.91	433.00
538.08	393.21
538.25	388.53
538.42	332.36
538.59	414.27
538.75	416.62
538.92	358.10
539.09	449.38
539.26	435.34
539.43	507.90
539.60	465.77
539.77	400.23
539.94	395.55
540.11	414.27
540.28	437.68
540.44	465.77
540.61	421.30
540.78	437.68
540.95	365.12
541.12	409.59
541.29	407.25
541.46	489.17
541.62	418.96
541.79	437.68
541.96	456.40
542.13	400.23
542.30	360.44
542.47	418.96
542.63	404.91
542.80	400.23
542.97	454.06
543.14	440.02
543.31	437.68
543.48	463.43
543.64	444.70
543.81	430.66
543.98	440.02
544.15	355.76
544.32	430.66
544.48	423.64
544.65	390.87
544.82	407.25
544.99	367.46
545.16	449.38
545.32	407.25
545.49	390.87
545.66	468.11
545.83	428.32
546.00	402.57
546.16	421.30
546.33	344.06
546.50	472.79
546.67	393.21
546.83	442.36
547.00	437.68
547.17	374.49
547.34	472.79
547.50	381.51
547.67	381.51
547.84	435.34
548.00	430.66
548.17	451.72
548.34	367.46
548.51	475.13
548.67	425.98
548.84	430.66
549.01	447.04
549.18	465.77
549.34	484.49
549.51	358.10
549.68	451.72
549.84	421.30
550.01	348.74
550.18	491.51
550.34	514.92
550.51	430.66
550.68	482.15
550.84	454.06
551.01	458.74
551.18	393.21
551.34	454.06
551.51	444.70
551.68	440.02
551.84	395.55
552.01	468.11
552.18	411.93
552.34	442.36
552.51	416.62
552.68	430.66
552.84	388.53
553.01	409.59
553.18	409.59
553.34	306.61
553.51	428.32
553.67	428.32
553.84	526.62
554.01	447.04
554.17	355.76
554.34	362.78
554.51	421.30
554.67	402.57
554.84	390.87
555.00	414.27
555.17	346.40
555.33	393.21
555.50	435.34
555.67	493.85
555.83	416.62
556.00	423.64
556.16	543.00
556.33	416.62
556.50	381.51
556.66	454.06
556.83	430.66
556.99	414.27
557.16	414.27
557.32	346.40
557.49	290.23
557.65	374.49
557.82	397.89
557.98	435.34
558.15	416.62
558.32	416.62
558.48	379.17
558.65	421.30
558.81	442.36
558.98	468.11
559.14	472.79
559.31	475.13
559.47	430.66
559.64	423.64
559.80	440.02
559.97	463.43
560.13	339.38
560.30	374.49
560.46	416.62
560.63	414.27
560.79	386.19
560.96	365.12
561.12	409.59
561.29	458.74
561.45	353.42
561.61	423.64
561.78	472.79
561.94	348.74
562.11	374.49
562.27	435.34
562.44	477.47
562.60	463.43
562.77	409.59
562.93	489.17
563.10	447.04
563.26	454.06
563.42	500.87
563.59	402.57
563.75	468.11
563.92	482.15
564.08	360.44
564.24	482.15
564.41	461.09
564.57	362.78
564.74	475.13
564.90	353.42
565.07	444.70
565.23	337.04
565.39	397.89
565.56	428.32
565.72	416.62
565.88	409.59
566.05	442.36
566.21	428.32
566.38	468.11
566.54	454.06
566.70	428.32
566.87	374.49
567.03	407.25
567.19	367.46
567.36	376.83
567.52	477.47
567.68	404.91
567.85	379.17
568.01	435.34
568.17	369.80
568.34	400.23
568.50	440.02
568.66	402.57
568.83	470.45
568.99	463.43
569.15	440.02
569.32	374.49
569.48	428.32
569.64	404.91
569.81	393.21
569.97	416.62
570.13	442.36
570.30	416.62
570.46	407.25
570.62	397.89
570.78	437.68
570.95	334.70
571.11	498.53
571.27	442.36
571.43	379.17
571.60	475.13
571.76	393.21
571.92	397.89
572.09	449.38
572.25	423.64
572.41	496.19
572.57	435.34
572.74	484.49
572.90	470.45
573.06	444.70
573.22	421.30
573.38	409.59
573.55	379.17
573.71	486.83
573.87	409.59
574.03	414.27
574.20	383.85
574.36	454.06
574.52	461.09
574.68	393.21
574.84	404.91
575.01	435.34
575.17	444.70
575.33	404.91
575.49	451.72
575.65	421.30
575.82	454.06
575.98	404.91
576.14	433.00
576.30	440.02
576.46	402.57
576.62	440.02
576.79	411.93
576.95	468.11
577.11	379.17
577.27	402.57
577.43	461.09
577.59	465.77
577.75	475.13
577.92	479.81
578.08	414.27
578.24	447.04
578.40	428.32
578.56	449.38
578.72	451.72
578.88	456.40
579.04	461.09
579.21	433.00
579.37	435.34
579.53	386.19
579.69	393.21
579.85	433.00
580.01	367.46
580.17	346.40
580.33	463.43
580.49	393.21
580.65	414.27
580.82	421.30
580.98	339.38
581.14	404.91
581.30	386.19
581.46	433.00
581.62	421.30
581.78	423.64
581.94	475.13
582.10	308.95
582.26	442.36
582.42	500.87
582.58	421.30
582.74	407.25
582.90	470.45
583.06	388.53
583.22	423.64
583.38	386.19
583.54	409.59
583.70	468.11
583.86	440.02
584.02	456.40
584.18	540.66
584.34	404.91
584.50	440.02
584.66	376.83
584.82	421.30
584.98	468.11
585.14	475.13
585.30	358.10
585.46	372.15
585.62	430.66
585.78	348.74
585.94	423.64
586.10	437.68
586.26	465.77
586.42	456.40
586.58	404.91
586.74	423.64
586.90	437.68
587.06	489.17
587.22	423.64
587.38	346.40
587.54	404.91
587.70	425.98
587.86	395.55
588.02	400.23
588.18	418.96
588.34	444.70
588.49	388.53
588.65	472.79
588.81	362.78
588.97	379.17
589.13	372.15
589.29	418.96
589.45	386.19
589.61	442.36
589.77	369.80
589.93	337.04
590.08	379.17
590.24	327.68
590.40	397.89
590.56	416.62
590.72	390.87
590.88	416.62
591.04	451.72
591.20	416.62
591.35	414.27
591.51	409.59
591.67	339.38
591.83	409.59
591.99	475.13
592.15	395.55
592.31	428.32
592.46	353.42
592.62	430.66
592.78	369.80
592.94	400.23
593.10	383.85
593.26	407.25
593.41	465.77
593.57	428.32
593.73	421.30
593.89	404.91
594.05	402.57
594.20	475.13
594.36	421.30
594.52	372.15
594.68	475.13
594.84	383.85
594.99	344.06
595.15	372.15
595.31	418.96
595.47	407.25
595.62	418.96
595.78	414.27
595.94	365.12
596.10	489.17
596.25	362.78
596.41	372.15
596.57	341.72
596.73	400.23
596.88	468.11
597.04	449.38
597.20	414.27
597.36	416.62
597.51	390.87
597.67	337.04
597.83	440.02
597.99	470.45
598.14	404.91
598.30	437.68
598.46	362.78
598.61	447.04
598.77	411.93
598.93	435.34
599.09	383.85
599.24	416.62
599.40	386.19
599.56	463.43
599.71	372.15
599.87	365.12
600.03	416.62
600.18	472.79
600.34	454.06
600.50	355.76
600.65	360.44
600.81	447.04
600.97	421.30
601.12	458.74
601.28	414.27
601.44	465.77
601.59	421.30
601.75	425.98
601.91	437.68
602.06	512.58
602.22	475.13
602.37	428.32
602.53	451.72
602.69	461.09
602.84	437.68
603.00	440.02
603.16	433.00
603.31	444.70
603.47	456.40
603.62	362.78
603.78	360.44
603.94	416.62
604.09	477.47
604.25	456.40
604.40	423.64
604.56	365.12
604.71	395.55
604.87	442.36
605.03	400.23
605.18	470.45
605.34	395.55
605.49	430.66
605.65	397.89
605.80	454.06
605.96	325.33
606.12	479.81
606.27	425.98
606.43	404.91
606.58	341.72
606.74	346.40
606.89	383.85
607.05	451.72
607.20	393.21
607.36	388.53
607.51	407.25
607.67	383.85
607.82	425.98
607.98	423.64
608.13	425.98
608.29	388.53
608.44	447.04
608.60	360.44
608.75	390.87
608.91	409.59
609.06	442.36
609.22	461.09
609.37	400.23
609.53	442.36
609.68	390.87
609.84	341.72
609.99	393.21
610.15	465.77
