SpectraSuite Data File
++++++++++++++++++++++++++++++++++++
Date: Fri Oct 25 12:10:39 EDT 2013
User: price-jones
Dark Spectrum Present: No
Reference Spectrum Present: No
Number of Sampled Component Spectra: 1
Spectrometers: USB2+H05261
Integration Time (usec): 100000 (USB2+H05261)
Spectra Averaged: 1 (USB2+H05261)
Boxcar Smoothing: 0 (USB2+H05261)
Correct for Electrical Dark: No (USB2+H05261)
Strobe/Lamp Enabled: No (USB2+H05261)
Correct for Detector Non-linearity: No (USB2+H05261)
Correct for Stray Light: No (USB2+H05261)
Number of Pixels in Processed Spectrum: 2048
>>>>>Begin Processed Spectral Data<<<<<
365.73	318.31
365.92	318.31
366.12	318.31
366.32	264.48
366.52	234.05
366.72	201.29
366.91	294.91
367.11	248.10
367.31	262.14
367.51	203.63
367.70	201.29
367.90	292.57
368.10	262.14
368.30	236.39
368.49	205.97
368.69	287.89
368.89	210.65
369.09	271.50
369.28	283.20
369.48	266.82
369.68	257.46
369.87	271.50
370.07	287.89
370.27	423.64
370.47	341.72
370.66	212.99
370.86	348.74
371.06	341.72
371.25	397.89
371.45	379.17
371.65	404.91
371.84	367.46
372.04	365.12
372.24	397.89
372.44	425.98
372.63	348.74
372.83	430.66
373.03	402.57
373.22	386.19
373.42	435.34
373.62	409.59
373.81	383.85
374.01	449.38
374.21	442.36
374.40	411.93
374.60	400.23
374.79	332.36
374.99	397.89
375.19	404.91
375.38	379.17
375.58	456.40
375.78	456.40
375.97	447.04
376.17	444.70
376.37	386.19
376.56	484.49
376.76	360.44
376.95	409.59
377.15	409.59
377.35	416.62
377.54	437.68
377.74	465.77
377.93	402.57
378.13	355.76
378.33	423.64
378.52	322.99
378.72	440.02
378.91	447.04
379.11	393.21
379.31	369.80
379.50	409.59
379.70	409.59
379.89	411.93
380.09	379.17
380.28	374.49
380.48	418.96
380.68	400.23
380.87	383.85
381.07	425.98
381.26	369.80
381.46	421.30
381.65	414.27
381.85	355.76
382.04	409.59
382.24	409.59
382.43	367.46
382.63	423.64
382.83	421.30
383.02	482.15
383.22	407.25
383.41	383.85
383.61	381.51
383.80	456.40
384.00	376.83
384.19	372.15
384.39	430.66
384.58	390.87
384.78	383.85
384.97	374.49
385.17	379.17
385.36	358.10
385.56	423.64
385.75	383.85
385.95	358.10
386.14	428.32
386.34	444.70
386.53	458.74
386.72	383.85
386.92	407.25
387.11	414.27
387.31	407.25
387.50	404.91
387.70	367.46
387.89	393.21
388.09	430.66
388.28	430.66
388.48	341.72
388.67	348.74
388.86	416.62
389.06	376.83
389.25	440.02
389.45	414.27
389.64	421.30
389.84	390.87
390.03	418.96
390.22	372.15
390.42	388.53
390.61	372.15
390.81	383.85
391.00	449.38
391.19	423.64
391.39	472.79
391.58	386.19
391.78	334.70
391.97	407.25
392.16	440.02
392.36	440.02
392.55	386.19
392.75	355.76
392.94	440.02
393.13	430.66
393.33	425.98
393.52	393.21
393.71	383.85
393.91	437.68
394.10	386.19
394.29	444.70
394.49	353.42
394.68	358.10
394.88	470.45
395.07	425.98
395.26	486.83
395.46	388.53
395.65	463.43
395.84	425.98
396.04	482.15
396.23	409.59
396.42	395.55
396.62	397.89
396.81	374.49
397.00	362.78
397.19	360.44
397.39	451.72
397.58	461.09
397.77	463.43
397.97	430.66
398.16	390.87
398.35	475.13
398.55	423.64
398.74	444.70
398.93	465.77
399.12	346.40
399.32	416.62
399.51	390.87
399.70	444.70
399.90	418.96
400.09	402.57
400.28	463.43
400.47	369.80
400.67	428.32
400.86	400.23
401.05	404.91
401.24	423.64
401.44	390.87
401.63	411.93
401.82	355.76
402.01	301.93
402.21	404.91
402.40	379.17
402.59	404.91
402.78	425.98
402.97	465.77
403.17	409.59
403.36	418.96
403.55	339.38
403.74	374.49
403.93	465.77
404.13	379.17
404.32	400.23
404.51	353.42
404.70	407.25
404.89	428.32
405.09	423.64
405.28	337.04
405.47	390.87
405.66	402.57
405.85	395.55
406.05	400.23
406.24	430.66
406.43	433.00
406.62	388.53
406.81	395.55
407.00	369.80
407.20	355.76
407.39	479.81
407.58	400.23
407.77	416.62
407.96	430.66
408.15	416.62
408.34	465.77
408.54	404.91
408.73	362.78
408.92	383.85
409.11	463.43
409.30	433.00
409.49	402.57
409.68	470.45
409.87	423.64
410.07	421.30
410.26	451.72
410.45	416.62
410.64	428.32
410.83	423.64
411.02	461.09
411.21	383.85
411.40	404.91
411.59	348.74
411.78	390.87
411.98	447.04
412.17	425.98
412.36	409.59
412.55	433.00
412.74	351.08
412.93	468.11
413.12	390.87
413.31	435.34
413.50	458.74
413.69	374.49
413.88	465.77
414.07	416.62
414.26	374.49
414.45	400.23
414.64	344.06
414.83	447.04
415.02	407.25
415.22	383.85
415.41	379.17
415.60	435.34
415.79	428.32
415.98	442.36
416.17	334.70
416.36	454.06
416.55	402.57
416.74	414.27
416.93	416.62
417.12	425.98
417.31	379.17
417.50	447.04
417.69	409.59
417.88	409.59
418.07	428.32
418.26	351.08
418.45	397.89
418.64	444.70
418.83	418.96
419.02	430.66
419.21	407.25
419.39	397.89
419.58	351.08
419.77	402.57
419.96	402.57
420.15	362.78
420.34	388.53
420.53	414.27
420.72	454.06
420.91	465.77
421.10	447.04
421.29	444.70
421.48	440.02
421.67	430.66
421.86	411.93
422.05	414.27
422.24	332.36
422.43	386.19
422.61	351.08
422.80	379.17
422.99	337.04
423.18	442.36
423.37	425.98
423.56	367.46
423.75	440.02
423.94	465.77
424.13	365.12
424.32	360.44
424.50	362.78
424.69	416.62
424.88	465.77
425.07	400.23
425.26	393.21
425.45	428.32
425.64	414.27
425.83	435.34
426.01	531.30
426.20	440.02
426.39	428.32
426.58	414.27
426.77	383.85
426.96	362.78
427.15	393.21
427.33	374.49
427.52	484.49
427.71	454.06
427.90	379.17
428.09	409.59
428.28	374.49
428.46	414.27
428.65	465.77
428.84	374.49
429.03	416.62
429.22	388.53
429.40	388.53
429.59	374.49
429.78	477.47
429.97	447.04
430.16	400.23
430.34	463.43
430.53	390.87
430.72	423.64
430.91	393.21
431.10	351.08
431.28	414.27
431.47	425.98
431.66	421.30
431.85	491.51
432.03	437.68
432.22	479.81
432.41	393.21
432.60	369.80
432.79	381.51
432.97	409.59
433.16	458.74
433.35	362.78
433.54	447.04
433.72	468.11
433.91	435.34
434.10	360.44
434.28	365.12
434.47	355.76
434.66	327.68
434.85	435.34
435.03	414.27
435.22	404.91
435.41	433.00
435.59	479.81
435.78	376.83
435.97	440.02
436.16	414.27
436.34	451.72
436.53	388.53
436.72	425.98
436.90	437.68
437.09	379.17
437.28	444.70
437.46	416.62
437.65	454.06
437.84	411.93
438.02	423.64
438.21	503.22
438.40	447.04
438.58	425.98
438.77	393.21
438.96	327.68
439.14	428.32
439.33	444.70
439.52	430.66
439.70	390.87
439.89	428.32
440.08	404.91
440.26	423.64
440.45	418.96
440.63	400.23
440.82	430.66
441.01	440.02
441.19	472.79
441.38	369.80
441.57	334.70
441.75	454.06
441.94	500.87
442.12	500.87
442.31	437.68
442.50	393.21
442.68	458.74
442.87	454.06
443.05	400.23
443.24	421.30
443.43	355.76
443.61	433.00
443.80	465.77
443.98	425.98
444.17	400.23
444.35	388.53
444.54	444.70
444.73	346.40
444.91	510.24
445.10	376.83
445.28	369.80
445.47	433.00
445.65	381.51
445.84	395.55
446.02	444.70
446.21	463.43
446.39	414.27
446.58	414.27
446.77	390.87
446.95	372.15
447.14	393.21
447.32	507.90
447.51	437.68
447.69	451.72
447.88	402.57
448.06	397.89
448.25	409.59
448.43	397.89
448.62	390.87
448.80	369.80
448.99	437.68
449.17	397.89
449.36	425.98
449.54	421.30
449.73	500.87
449.91	444.70
450.10	360.44
450.28	505.56
450.46	407.25
450.65	425.98
450.83	379.17
451.02	482.15
451.20	367.46
451.39	390.87
451.57	395.55
451.76	400.23
451.94	390.87
452.13	402.57
452.31	365.12
452.49	428.32
452.68	430.66
452.86	484.49
453.05	456.40
453.23	379.17
453.42	360.44
453.60	339.38
453.78	416.62
453.97	365.12
454.15	435.34
454.34	379.17
454.52	381.51
454.70	470.45
454.89	440.02
455.07	393.21
455.26	393.21
455.44	454.06
455.62	372.15
455.81	390.87
455.99	510.24
456.17	437.68
456.36	393.21
456.54	440.02
456.73	465.77
456.91	395.55
457.09	402.57
457.28	423.64
457.46	458.74
457.64	423.64
457.83	390.87
458.01	355.76
458.19	421.30
458.38	435.34
458.56	351.08
458.74	386.19
458.93	416.62
459.11	390.87
459.29	386.19
459.48	444.70
459.66	465.77
459.84	397.89
460.03	477.47
460.21	404.91
460.39	461.09
460.57	390.87
460.76	395.55
460.94	430.66
461.12	411.93
461.31	465.77
461.49	425.98
461.67	414.27
461.85	414.27
462.04	475.13
462.22	826.21
462.40	409.59
462.59	435.34
462.77	493.85
462.95	444.70
463.13	484.49
463.32	388.53
463.50	411.93
463.68	407.25
463.86	400.23
464.05	397.89
464.23	369.80
464.41	411.93
464.59	332.36
464.78	411.93
464.96	372.15
465.14	444.70
465.32	440.02
465.50	390.87
465.69	440.02
465.87	454.06
466.05	404.91
466.23	430.66
466.41	421.30
466.60	458.74
466.78	437.68
466.96	447.04
467.14	414.27
467.32	353.42
467.51	465.77
467.69	421.30
467.87	442.36
468.05	425.98
468.23	458.74
468.41	444.70
468.60	425.98
468.78	407.25
468.96	507.90
469.14	390.87
469.32	367.46
469.50	409.59
469.69	425.98
469.87	400.23
470.05	402.57
470.23	435.34
470.41	479.81
470.59	400.23
470.77	411.93
470.95	449.38
471.14	442.36
471.32	470.45
471.50	390.87
471.68	346.40
471.86	428.32
472.04	400.23
472.22	411.93
472.40	313.63
472.58	411.93
472.77	421.30
472.95	376.83
473.13	477.47
473.31	430.66
473.49	386.19
473.67	421.30
473.85	428.32
474.03	447.04
474.21	430.66
474.39	404.91
474.57	428.32
474.75	414.27
474.93	414.27
475.12	437.68
475.30	430.66
475.48	414.27
475.66	451.72
475.84	411.93
476.02	444.70
476.20	411.93
476.38	381.51
476.56	505.56
476.74	355.76
476.92	407.25
477.10	404.91
477.28	425.98
477.46	428.32
477.64	519.60
477.82	454.06
478.00	470.45
478.18	479.81
478.36	379.17
478.54	435.34
478.72	365.12
478.90	369.80
479.08	468.11
479.26	425.98
479.44	404.91
479.62	428.32
479.80	425.98
479.98	407.25
480.16	360.44
480.34	428.32
480.52	346.40
480.70	423.64
480.88	353.42
481.06	393.21
481.24	428.32
481.41	444.70
481.59	430.66
481.77	428.32
481.95	437.68
482.13	458.74
482.31	435.34
482.49	430.66
482.67	397.89
482.85	430.66
483.03	395.55
483.21	346.40
483.39	337.04
483.57	449.38
483.74	510.24
483.92	409.59
484.10	376.83
484.28	423.64
484.46	484.49
484.64	362.78
484.82	430.66
485.00	393.21
485.18	449.38
485.35	447.04
485.53	397.89
485.71	409.59
485.89	397.89
486.07	414.27
486.25	409.59
486.43	404.91
486.61	430.66
486.78	374.49
486.96	395.55
487.14	404.91
487.32	435.34
487.50	318.31
487.68	418.96
487.85	369.80
488.03	430.66
488.21	388.53
488.39	435.34
488.57	365.12
488.75	418.96
488.92	458.74
489.10	418.96
489.28	489.17
489.46	428.32
489.64	437.68
489.81	411.93
489.99	379.17
490.17	390.87
490.35	402.57
490.53	400.23
490.70	379.17
490.88	468.11
491.06	451.72
491.24	477.47
491.41	414.27
491.59	421.30
491.77	423.64
491.95	320.65
492.13	367.46
492.30	411.93
492.48	430.66
492.66	332.36
492.84	390.87
493.01	456.40
493.19	421.30
493.37	533.64
493.54	409.59
493.72	435.34
493.90	402.57
494.08	425.98
494.25	468.11
494.43	451.72
494.61	386.19
494.79	397.89
494.96	409.59
495.14	379.17
495.32	402.57
495.49	421.30
495.67	435.34
495.85	421.30
496.02	409.59
496.20	449.38
496.38	421.30
496.55	397.89
496.73	428.32
496.91	479.81
497.09	449.38
497.26	407.25
497.44	379.17
497.62	348.74
497.79	407.25
497.97	435.34
498.14	409.59
498.32	397.89
498.50	470.45
498.67	430.66
498.85	374.49
499.03	404.91
499.20	435.34
499.38	358.10
499.56	437.68
499.73	428.32
499.91	393.21
500.08	416.62
500.26	479.81
500.44	404.91
500.61	404.91
500.79	425.98
500.97	428.32
501.14	472.79
501.32	421.30
501.49	395.55
501.67	430.66
501.84	421.30
502.02	362.78
502.20	449.38
502.37	411.93
502.55	402.57
502.72	393.21
502.90	435.34
503.07	418.96
503.25	411.93
503.43	414.27
503.60	388.53
503.78	489.17
503.95	486.83
504.13	337.04
504.30	461.09
504.48	449.38
504.65	456.40
504.83	416.62
505.01	407.25
505.18	449.38
505.36	404.91
505.53	454.06
505.71	433.00
505.88	451.72
506.06	425.98
506.23	440.02
506.41	390.87
506.58	407.25
506.76	358.10
506.93	395.55
507.11	395.55
507.28	411.93
507.46	414.27
507.63	437.68
507.81	416.62
507.98	414.27
508.16	442.36
508.33	397.89
508.50	447.04
508.68	395.55
508.85	393.21
509.03	372.15
509.20	388.53
509.38	505.56
509.55	435.34
509.73	477.47
509.90	433.00
510.08	367.46
510.25	381.51
510.42	433.00
510.60	322.99
510.77	500.87
510.95	496.19
511.12	365.12
511.30	388.53
511.47	458.74
511.64	411.93
511.82	479.81
511.99	421.30
512.17	381.51
512.34	447.04
512.51	414.27
512.69	430.66
512.86	411.93
513.04	372.15
513.21	402.57
513.38	444.70
513.56	362.78
513.73	451.72
513.90	454.06
514.08	365.12
514.25	416.62
514.43	372.15
514.60	458.74
514.77	409.59
514.95	409.59
515.12	442.36
515.29	425.98
515.47	421.30
515.64	407.25
515.81	463.43
515.99	374.49
516.16	404.91
516.33	470.45
516.51	362.78
516.68	379.17
516.85	411.93
517.03	447.04
517.20	376.83
517.37	447.04
517.54	367.46
517.72	414.27
517.89	395.55
518.06	463.43
518.24	390.87
518.41	383.85
518.58	484.49
518.75	428.32
518.93	461.09
519.10	440.02
519.27	409.59
519.45	475.13
519.62	388.53
519.79	374.49
519.96	395.55
520.14	414.27
520.31	442.36
520.48	381.51
520.65	390.87
520.83	447.04
521.00	435.34
521.17	374.49
521.34	393.21
521.52	423.64
521.69	414.27
521.86	428.32
522.03	365.12
522.20	421.30
522.38	390.87
522.55	444.70
522.72	425.98
522.89	430.66
523.07	454.06
523.24	449.38
523.41	463.43
523.58	318.31
523.75	390.87
523.92	383.85
524.10	512.58
524.27	477.47
524.44	470.45
524.61	367.46
524.78	414.27
524.96	414.27
525.13	433.00
525.30	437.68
525.47	407.25
525.64	468.11
525.81	365.12
525.98	437.68
526.16	442.36
526.33	430.66
526.50	390.87
526.67	388.53
526.84	416.62
527.01	428.32
527.18	346.40
527.36	404.91
527.53	374.49
527.70	414.27
527.87	395.55
528.04	435.34
528.21	454.06
528.38	388.53
528.55	428.32
528.72	400.23
528.89	465.77
529.07	423.64
529.24	337.04
529.41	435.34
529.58	449.38
529.75	344.06
529.92	484.49
530.09	447.04
530.26	360.44
530.43	465.77
530.60	435.34
530.77	409.59
530.94	470.45
531.11	404.91
531.28	400.23
531.46	475.13
531.63	397.89
531.80	538.32
531.97	421.30
532.14	491.51
532.31	374.49
532.48	407.25
532.65	393.21
532.82	451.72
532.99	407.25
533.16	397.89
533.33	395.55
533.50	381.51
533.67	437.68
533.84	433.00
534.01	430.66
534.18	430.66
534.35	437.68
534.52	421.30
534.69	397.89
534.86	383.85
535.03	376.83
535.20	388.53
535.37	395.55
535.54	367.46
535.71	327.68
535.88	505.56
536.05	386.19
536.22	397.89
536.38	388.53
536.55	437.68
536.72	465.77
536.89	447.04
537.06	418.96
537.23	388.53
537.40	411.93
537.57	367.46
537.74	449.38
537.91	400.23
538.08	440.02
538.25	493.85
538.42	346.40
538.59	447.04
538.75	381.51
538.92	393.21
539.09	407.25
539.26	404.91
539.43	365.12
539.60	376.83
539.77	503.22
539.94	390.87
540.11	444.70
540.28	456.40
540.44	435.34
540.61	400.23
540.78	440.02
540.95	362.78
541.12	383.85
541.29	369.80
541.46	465.77
541.62	517.26
541.79	400.23
541.96	407.25
542.13	437.68
542.30	358.10
542.47	421.30
542.63	390.87
542.80	355.76
542.97	381.51
543.14	360.44
543.31	430.66
543.48	369.80
543.64	465.77
543.81	423.64
543.98	411.93
544.15	379.17
544.32	376.83
544.48	383.85
544.65	365.12
544.82	400.23
544.99	409.59
545.16	458.74
545.32	388.53
545.49	411.93
545.66	428.32
545.83	461.09
546.00	409.59
546.16	421.30
546.33	433.00
546.50	421.30
546.67	468.11
546.83	425.98
547.00	451.72
547.17	358.10
547.34	461.09
547.50	386.19
547.67	344.06
547.84	414.27
548.00	383.85
548.17	374.49
548.34	351.08
548.51	461.09
548.67	451.72
548.84	409.59
549.01	449.38
549.18	402.57
549.34	430.66
549.51	451.72
549.68	407.25
549.84	409.59
550.01	442.36
550.18	428.32
550.34	451.72
550.51	407.25
550.68	442.36
550.84	404.91
551.01	379.17
551.18	475.13
551.34	440.02
551.51	409.59
551.68	414.27
551.84	393.21
552.01	327.68
552.18	395.55
552.34	440.02
552.51	421.30
552.68	468.11
552.84	421.30
553.01	444.70
553.18	461.09
553.34	393.21
553.51	416.62
553.67	435.34
553.84	428.32
554.01	444.70
554.17	402.57
554.34	425.98
554.51	428.32
554.67	461.09
554.84	425.98
555.00	477.47
555.17	407.25
555.33	491.51
555.50	430.66
555.67	489.17
555.83	400.23
556.00	458.74
556.16	557.05
556.33	498.53
556.50	341.72
556.66	482.15
556.83	407.25
556.99	402.57
557.16	418.96
557.32	402.57
557.49	376.83
557.65	379.17
557.82	421.30
557.98	407.25
558.15	400.23
558.32	372.15
558.48	379.17
558.65	442.36
558.81	400.23
558.98	327.68
559.14	430.66
559.31	423.64
559.47	386.19
559.64	456.40
559.80	425.98
559.97	376.83
560.13	404.91
560.30	409.59
560.46	393.21
560.63	379.17
560.79	367.46
560.96	421.30
561.12	358.10
561.29	512.58
561.45	348.74
561.61	388.53
561.78	414.27
561.94	362.78
562.11	397.89
562.27	402.57
562.44	491.51
562.60	388.53
562.77	442.36
562.93	484.49
563.10	393.21
563.26	395.55
563.42	468.11
563.59	372.15
563.75	339.38
563.92	362.78
564.08	435.34
564.24	482.15
564.41	421.30
564.57	423.64
564.74	390.87
564.90	386.19
565.07	360.44
565.23	383.85
565.39	428.32
565.56	458.74
565.72	374.49
565.88	400.23
566.05	414.27
566.21	362.78
566.38	416.62
566.54	437.68
566.70	388.53
566.87	414.27
567.03	332.36
567.19	435.34
567.36	400.23
567.52	421.30
567.68	402.57
567.85	397.89
568.01	421.30
568.17	454.06
568.34	454.06
568.50	454.06
568.66	463.43
568.83	472.79
568.99	351.08
569.15	470.45
569.32	376.83
569.48	327.68
569.64	339.38
569.81	369.80
569.97	440.02
570.13	461.09
570.30	383.85
570.46	447.04
570.62	437.68
570.78	430.66
570.95	348.74
571.11	456.40
571.27	447.04
571.43	400.23
571.60	491.51
571.76	425.98
571.92	437.68
572.09	360.44
572.25	404.91
572.41	416.62
572.57	376.83
572.74	407.25
572.90	449.38
573.06	423.64
573.22	367.46
573.38	390.87
573.55	442.36
573.71	362.78
573.87	330.02
574.03	381.51
574.20	379.17
574.36	433.00
574.52	393.21
574.68	416.62
574.84	461.09
575.01	383.85
575.17	465.77
575.33	442.36
575.49	306.61
575.65	430.66
575.82	465.77
575.98	435.34
576.14	386.19
576.30	362.78
576.46	372.15
576.62	449.38
576.79	402.57
576.95	440.02
577.11	451.72
577.27	372.15
577.43	507.90
577.59	449.38
577.75	454.06
577.92	463.43
578.08	407.25
578.24	421.30
578.40	390.87
578.56	388.53
578.72	433.00
578.88	500.87
579.04	411.93
579.21	468.11
579.37	447.04
579.53	402.57
579.69	421.30
579.85	407.25
580.01	435.34
580.17	402.57
580.33	325.33
580.49	404.91
580.65	353.42
580.82	416.62
580.98	409.59
581.14	423.64
581.30	491.51
581.46	416.62
581.62	407.25
581.78	383.85
581.94	442.36
582.10	365.12
582.26	402.57
582.42	409.59
582.58	447.04
582.74	416.62
582.90	465.77
583.06	409.59
583.22	407.25
583.38	376.83
583.54	372.15
583.70	418.96
583.86	449.38
584.02	430.66
584.18	430.66
584.34	421.30
584.50	433.00
584.66	388.53
584.82	430.66
584.98	444.70
585.14	409.59
585.30	454.06
585.46	388.53
585.62	355.76
585.78	482.15
585.94	454.06
586.10	451.72
586.26	395.55
586.42	440.02
586.58	428.32
586.74	430.66
586.90	433.00
587.06	393.21
587.22	447.04
587.38	458.74
587.54	416.62
587.70	381.51
587.86	358.10
588.02	407.25
588.18	435.34
588.34	414.27
588.49	374.49
588.65	416.62
588.81	423.64
588.97	404.91
589.13	388.53
589.29	395.55
589.45	393.21
589.61	402.57
589.77	442.36
589.93	430.66
590.08	372.15
590.24	360.44
590.40	365.12
590.56	491.51
590.72	428.32
590.88	402.57
591.04	449.38
591.20	393.21
591.35	458.74
591.51	479.81
591.67	418.96
591.83	379.17
591.99	486.83
592.15	379.17
592.31	437.68
592.46	358.10
592.62	411.93
592.78	430.66
592.94	409.59
593.10	423.64
593.26	395.55
593.41	440.02
593.57	397.89
593.73	360.44
593.89	489.17
594.05	416.62
594.20	372.15
594.36	482.15
594.52	402.57
594.68	400.23
594.84	475.13
594.99	374.49
595.15	433.00
595.31	458.74
595.47	463.43
595.62	433.00
595.78	381.51
595.94	421.30
596.10	449.38
596.25	374.49
596.41	430.66
596.57	404.91
596.73	456.40
596.88	447.04
597.04	404.91
597.20	337.04
597.36	425.98
597.51	355.76
597.67	421.30
597.83	418.96
597.99	400.23
598.14	416.62
598.30	442.36
598.46	484.49
598.61	374.49
598.77	397.89
598.93	383.85
599.09	411.93
599.24	388.53
599.40	456.40
599.56	395.55
599.71	411.93
599.87	433.00
600.03	472.79
600.18	376.83
600.34	397.89
600.50	409.59
600.65	411.93
600.81	409.59
600.97	416.62
601.12	397.89
601.28	421.30
601.44	468.11
601.59	458.74
601.75	447.04
601.91	421.30
602.06	461.09
602.22	374.49
602.37	388.53
602.53	358.10
602.69	425.98
602.84	402.57
603.00	442.36
603.16	430.66
603.31	376.83
603.47	430.66
603.62	367.46
603.78	369.80
603.94	489.17
604.09	430.66
604.25	383.85
604.40	390.87
604.56	402.57
604.71	500.87
604.87	393.21
605.03	381.51
605.18	386.19
605.34	411.93
605.49	381.51
605.65	463.43
605.80	358.10
605.96	428.32
606.12	472.79
606.27	461.09
606.43	374.49
606.58	433.00
606.74	369.80
606.89	390.87
607.05	442.36
607.20	489.17
607.36	440.02
607.51	430.66
607.67	416.62
607.82	472.79
607.98	514.92
608.13	428.32
608.29	454.06
608.44	477.47
608.60	428.32
608.75	447.04
608.91	418.96
609.06	423.64
609.22	428.32
609.37	425.98
609.53	369.80
609.68	376.83
609.84	379.17
609.99	440.02
610.15	376.83
