SpectraSuite Data File
++++++++++++++++++++++++++++++++++++
Date: Fri Oct 25 12:10:10 EDT 2013
User: price-jones
Dark Spectrum Present: No
Reference Spectrum Present: No
Number of Sampled Component Spectra: 1
Spectrometers: USB2+H05261
Integration Time (usec): 100000 (USB2+H05261)
Spectra Averaged: 1 (USB2+H05261)
Boxcar Smoothing: 0 (USB2+H05261)
Correct for Electrical Dark: No (USB2+H05261)
Strobe/Lamp Enabled: No (USB2+H05261)
Correct for Detector Non-linearity: No (USB2+H05261)
Correct for Stray Light: No (USB2+H05261)
Number of Pixels in Processed Spectrum: 2048
>>>>>Begin Processed Spectral Data<<<<<
365.73	344.06
365.92	344.06
366.12	344.06
366.32	271.50
366.52	248.10
366.72	285.55
366.91	168.52
367.11	224.69
367.31	292.57
367.51	243.42
367.70	217.67
367.90	252.78
368.10	259.80
368.30	287.89
368.49	264.48
368.69	215.33
368.89	245.76
369.09	339.38
369.28	304.27
369.48	208.31
369.68	234.05
369.87	294.91
370.07	220.01
370.27	299.59
370.47	287.89
370.66	308.95
370.86	341.72
371.06	344.06
371.25	360.44
371.45	402.57
371.65	348.74
371.84	353.42
372.04	407.25
372.24	418.96
372.44	325.33
372.63	435.34
372.83	416.62
373.03	379.17
373.22	379.17
373.42	376.83
373.62	416.62
373.81	388.53
374.01	447.04
374.21	423.64
374.40	339.38
374.60	465.77
374.79	482.15
374.99	433.00
375.19	402.57
375.38	409.59
375.58	404.91
375.78	428.32
375.97	381.51
376.17	440.02
376.37	397.89
376.56	449.38
376.76	411.93
376.95	479.81
377.15	465.77
377.35	444.70
377.54	311.29
377.74	416.62
377.93	404.91
378.13	407.25
378.33	353.42
378.52	393.21
378.72	489.17
378.91	409.59
379.11	458.74
379.31	486.83
379.50	397.89
379.70	388.53
379.89	454.06
380.09	383.85
380.28	337.04
380.48	386.19
380.68	414.27
380.87	320.65
381.07	456.40
381.26	430.66
381.46	397.89
381.65	423.64
381.85	360.44
382.04	360.44
382.24	444.70
382.43	369.80
382.63	369.80
382.83	404.91
383.02	411.93
383.22	472.79
383.41	372.15
383.61	339.38
383.80	498.53
384.00	318.31
384.19	437.68
384.39	416.62
384.58	428.32
384.78	379.17
384.97	355.76
385.17	388.53
385.36	390.87
385.56	447.04
385.75	353.42
385.95	425.98
386.14	414.27
386.34	407.25
386.53	402.57
386.72	348.74
386.92	423.64
387.11	348.74
387.31	475.13
387.50	421.30
387.70	353.42
387.89	379.17
388.09	404.91
388.28	414.27
388.48	351.08
388.67	379.17
388.86	383.85
389.06	416.62
389.25	430.66
389.45	332.36
389.64	365.12
389.84	414.27
390.03	418.96
390.22	351.08
390.42	414.27
390.61	372.15
390.81	393.21
391.00	351.08
391.19	425.98
391.39	449.38
391.58	404.91
391.78	344.06
391.97	386.19
392.16	428.32
392.36	414.27
392.55	402.57
392.75	397.89
392.94	393.21
393.13	414.27
393.33	344.06
393.52	393.21
393.71	390.87
393.91	397.89
394.10	407.25
394.29	358.10
394.49	411.93
394.68	411.93
394.88	372.15
395.07	479.81
395.26	402.57
395.46	362.78
395.65	409.59
395.84	365.12
396.04	472.79
396.23	416.62
396.42	430.66
396.62	409.59
396.81	376.83
397.00	421.30
397.19	444.70
397.39	390.87
397.58	472.79
397.77	416.62
397.97	521.94
398.16	414.27
398.35	407.25
398.55	376.83
398.74	425.98
398.93	397.89
399.12	383.85
399.32	440.02
399.51	379.17
399.70	304.27
399.90	351.08
400.09	418.96
400.28	402.57
400.47	334.70
400.67	404.91
400.86	461.09
401.05	390.87
401.24	400.23
401.44	386.19
401.63	430.66
401.82	360.44
402.01	367.46
402.21	411.93
402.40	430.66
402.59	379.17
402.78	411.93
402.97	461.09
403.17	372.15
403.36	510.24
403.55	435.34
403.74	454.06
403.93	400.23
404.13	409.59
404.32	367.46
404.51	423.64
404.70	395.55
404.89	440.02
405.09	423.64
405.28	428.32
405.47	358.10
405.66	320.65
405.85	353.42
406.05	351.08
406.24	365.12
406.43	379.17
406.62	461.09
406.81	461.09
407.00	397.89
407.20	463.43
407.39	376.83
407.58	372.15
407.77	379.17
407.96	465.77
408.15	418.96
408.34	381.51
408.54	491.51
408.73	397.89
408.92	367.46
409.11	411.93
409.30	461.09
409.49	390.87
409.68	416.62
409.87	416.62
410.07	306.61
410.26	395.55
410.45	353.42
410.64	418.96
410.83	425.98
411.02	388.53
411.21	344.06
411.40	484.49
411.59	393.21
411.78	383.85
411.98	397.89
412.17	402.57
412.36	409.59
412.55	433.00
412.74	330.02
412.93	456.40
413.12	372.15
413.31	440.02
413.50	400.23
413.69	470.45
413.88	484.49
414.07	365.12
414.26	395.55
414.45	313.63
414.64	414.27
414.83	376.83
415.02	386.19
415.22	463.43
415.41	414.27
415.60	442.36
415.79	358.10
415.98	482.15
416.17	472.79
416.36	393.21
416.55	418.96
416.74	355.76
416.93	390.87
417.12	386.19
417.31	447.04
417.50	393.21
417.69	454.06
417.88	456.40
418.07	414.27
418.26	407.25
418.45	376.83
418.64	475.13
418.83	404.91
419.02	449.38
419.21	393.21
419.39	379.17
419.58	433.00
419.77	449.38
419.96	393.21
420.15	358.10
420.34	472.79
420.53	379.17
420.72	468.11
420.91	376.83
421.10	320.65
421.29	372.15
421.48	475.13
421.67	433.00
421.86	381.51
422.05	397.89
422.24	442.36
422.43	404.91
422.61	395.55
422.80	393.21
422.99	397.89
423.18	428.32
423.37	358.10
423.56	400.23
423.75	482.15
423.94	477.47
424.13	463.43
424.32	372.15
424.50	447.04
424.69	418.96
424.88	381.51
425.07	482.15
425.26	442.36
425.45	430.66
425.64	341.72
425.83	411.93
426.01	456.40
426.20	416.62
426.39	409.59
426.58	411.93
426.77	358.10
426.96	416.62
427.15	454.06
427.33	404.91
427.52	404.91
427.71	437.68
427.90	407.25
428.09	325.33
428.28	440.02
428.46	418.96
428.65	482.15
428.84	407.25
429.03	397.89
429.22	425.98
429.40	374.49
429.59	365.12
429.78	367.46
429.97	444.70
430.16	407.25
430.34	397.89
430.53	428.32
430.72	353.42
430.91	489.17
431.10	341.72
431.28	484.49
431.47	411.93
431.66	369.80
431.85	407.25
432.03	379.17
432.22	454.06
432.41	383.85
432.60	367.46
432.79	360.44
432.97	383.85
433.16	437.68
433.35	383.85
433.54	376.83
433.72	397.89
433.91	444.70
434.10	414.27
434.28	430.66
434.47	425.98
434.66	421.30
434.85	388.53
435.03	435.34
435.22	507.90
435.41	433.00
435.59	400.23
435.78	355.76
435.97	386.19
436.16	442.36
436.34	330.02
436.53	411.93
436.72	381.51
436.90	397.89
437.09	386.19
437.28	390.87
437.46	447.04
437.65	449.38
437.84	379.17
438.02	416.62
438.21	468.11
438.40	386.19
438.58	381.51
438.77	421.30
438.96	440.02
439.14	430.66
439.33	440.02
439.52	404.91
439.70	433.00
439.89	402.57
440.08	383.85
440.26	353.42
440.45	404.91
440.63	524.28
440.82	423.64
441.01	463.43
441.19	435.34
441.38	545.34
441.57	400.23
441.75	440.02
441.94	442.36
442.12	437.68
442.31	376.83
442.50	416.62
442.68	418.96
442.87	332.36
443.05	402.57
443.24	362.78
443.43	404.91
443.61	437.68
443.80	390.87
443.98	423.64
444.17	402.57
444.35	411.93
444.54	423.64
444.73	456.40
444.91	379.17
445.10	458.74
445.28	449.38
445.47	407.25
445.65	416.62
445.84	421.30
446.02	425.98
446.21	348.74
446.39	383.85
446.58	386.19
446.77	440.02
446.95	397.89
447.14	409.59
447.32	428.32
447.51	400.23
447.69	395.55
447.88	423.64
448.06	386.19
448.25	402.57
448.43	416.62
448.62	325.33
448.80	414.27
448.99	397.89
449.17	334.70
449.36	416.62
449.54	472.79
449.73	374.49
449.91	486.83
450.10	407.25
450.28	449.38
450.46	514.92
450.65	383.85
450.83	416.62
451.02	407.25
451.20	395.55
451.39	468.11
451.57	437.68
451.76	383.85
451.94	404.91
452.13	400.23
452.31	428.32
452.49	461.09
452.68	428.32
452.86	437.68
453.05	437.68
453.23	409.59
453.42	409.59
453.60	386.19
453.78	433.00
453.97	409.59
454.15	414.27
454.34	402.57
454.52	397.89
454.70	393.21
454.89	449.38
455.07	313.63
455.26	379.17
455.44	442.36
455.62	421.30
455.81	440.02
455.99	447.04
456.17	379.17
456.36	493.85
456.54	411.93
456.73	414.27
456.91	400.23
457.09	381.51
457.28	423.64
457.46	444.70
457.64	454.06
457.83	383.85
458.01	322.99
458.19	458.74
458.38	367.46
458.56	337.04
458.74	376.83
458.93	433.00
459.11	365.12
459.29	372.15
459.48	447.04
459.66	510.24
459.84	425.98
460.03	381.51
460.21	360.44
460.39	409.59
460.57	458.74
460.76	400.23
460.94	374.49
461.12	404.91
461.31	475.13
461.49	465.77
461.67	465.77
461.85	433.00
462.04	383.85
462.22	793.44
462.40	470.45
462.59	395.55
462.77	435.34
462.95	428.32
463.13	435.34
463.32	507.90
463.50	442.36
463.68	414.27
463.86	447.04
464.05	355.76
464.23	374.49
464.41	440.02
464.59	416.62
464.78	393.21
464.96	339.38
465.14	372.15
465.32	416.62
465.50	451.72
465.69	381.51
465.87	400.23
466.05	411.93
466.23	334.70
466.41	407.25
466.60	395.55
466.78	395.55
466.96	374.49
467.14	402.57
467.32	435.34
467.51	461.09
467.69	355.76
467.87	458.74
468.05	376.83
468.23	498.53
468.41	423.64
468.60	360.44
468.78	437.68
468.96	409.59
469.14	397.89
469.32	411.93
469.50	374.49
469.69	433.00
469.87	414.27
470.05	482.15
470.23	461.09
470.41	355.76
470.59	484.49
470.77	383.85
470.95	435.34
471.14	402.57
471.32	456.40
471.50	447.04
471.68	355.76
471.86	428.32
472.04	348.74
472.22	397.89
472.40	374.49
472.58	365.12
472.77	528.96
472.95	383.85
473.13	425.98
473.31	411.93
473.49	414.27
473.67	306.61
473.85	411.93
474.03	456.40
474.21	463.43
474.39	477.47
474.57	507.90
474.75	376.83
474.93	393.21
475.12	407.25
475.30	407.25
475.48	337.04
475.66	381.51
475.84	482.15
476.02	440.02
476.20	372.15
476.38	297.25
476.56	493.85
476.74	428.32
476.92	430.66
477.10	423.64
477.28	433.00
477.46	430.66
477.64	362.78
477.82	416.62
478.00	390.87
478.18	421.30
478.36	397.89
478.54	372.15
478.72	388.53
478.90	379.17
479.08	362.78
479.26	425.98
479.44	358.10
479.62	444.70
479.80	367.46
479.98	416.62
480.16	395.55
480.34	367.46
480.52	330.02
480.70	395.55
480.88	404.91
481.06	437.68
481.24	376.83
481.41	365.12
481.59	416.62
481.77	407.25
481.95	472.79
482.13	435.34
482.31	404.91
482.49	421.30
482.67	414.27
482.85	330.02
483.03	444.70
483.21	383.85
483.39	407.25
483.57	346.40
483.74	454.06
483.92	411.93
484.10	374.49
484.28	411.93
484.46	477.47
484.64	393.21
484.82	346.40
485.00	461.09
485.18	393.21
485.35	393.21
485.53	407.25
485.71	479.81
485.89	351.08
486.07	407.25
486.25	430.66
486.43	463.43
486.61	500.87
486.78	442.36
486.96	374.49
487.14	440.02
487.32	386.19
487.50	351.08
487.68	428.32
487.85	444.70
488.03	409.59
488.21	414.27
488.39	451.72
488.57	421.30
488.75	440.02
488.92	500.87
489.10	475.13
489.28	472.79
489.46	442.36
489.64	402.57
489.81	418.96
489.99	421.30
490.17	416.62
490.35	463.43
490.53	433.00
490.70	428.32
490.88	397.89
491.06	458.74
491.24	400.23
491.41	454.06
491.59	461.09
491.77	486.83
491.95	416.62
492.13	351.08
492.30	381.51
492.48	442.36
492.66	472.79
492.84	479.81
493.01	369.80
493.19	456.40
493.37	447.04
493.54	388.53
493.72	430.66
493.90	390.87
494.08	397.89
494.25	418.96
494.43	440.02
494.61	390.87
494.79	435.34
494.96	395.55
495.14	437.68
495.32	477.47
495.49	451.72
495.67	341.72
495.85	383.85
496.02	400.23
496.20	390.87
496.38	435.34
496.55	421.30
496.73	346.40
496.91	407.25
497.09	381.51
497.26	442.36
497.44	423.64
497.62	433.00
497.79	470.45
497.97	402.57
498.14	430.66
498.32	425.98
498.50	428.32
498.67	440.02
498.85	428.32
499.03	388.53
499.20	407.25
499.38	421.30
499.56	404.91
499.73	503.22
499.91	383.85
500.08	393.21
500.26	390.87
500.44	374.49
500.61	365.12
500.79	381.51
500.97	449.38
501.14	402.57
501.32	369.80
501.49	442.36
501.67	407.25
501.84	435.34
502.02	348.74
502.20	496.19
502.37	409.59
502.55	379.17
502.72	428.32
502.90	388.53
503.07	358.10
503.25	423.64
503.43	407.25
503.60	397.89
503.78	416.62
503.95	388.53
504.13	454.06
504.30	353.42
504.48	475.13
504.65	433.00
504.83	430.66
505.01	411.93
505.18	477.47
505.36	383.85
505.53	400.23
505.71	407.25
505.88	393.21
506.06	425.98
506.23	433.00
506.41	425.98
506.58	428.32
506.76	418.96
506.93	418.96
507.11	461.09
507.28	414.27
507.46	365.12
507.63	435.34
507.81	435.34
507.98	461.09
508.16	351.08
508.33	454.06
508.50	409.59
508.68	470.45
508.85	491.51
509.03	454.06
509.20	421.30
509.38	437.68
509.55	435.34
509.73	404.91
509.90	372.15
510.08	409.59
510.25	421.30
510.42	414.27
510.60	386.19
510.77	390.87
510.95	418.96
511.12	386.19
511.30	362.78
511.47	388.53
511.64	463.43
511.82	414.27
511.99	351.08
512.17	388.53
512.34	449.38
512.51	409.59
512.69	402.57
512.86	388.53
513.04	376.83
513.21	367.46
513.38	402.57
513.56	414.27
513.73	365.12
513.90	348.74
514.08	433.00
514.25	430.66
514.43	440.02
514.60	447.04
514.77	428.32
514.95	402.57
515.12	447.04
515.29	355.76
515.47	433.00
515.64	388.53
515.81	411.93
515.99	393.21
516.16	369.80
516.33	458.74
516.51	433.00
516.68	386.19
516.85	393.21
517.03	388.53
517.20	512.58
517.37	447.04
517.54	447.04
517.72	411.93
517.89	484.49
518.06	421.30
518.24	496.19
518.41	376.83
518.58	444.70
518.75	407.25
518.93	400.23
519.10	430.66
519.27	372.15
519.45	418.96
519.62	414.27
519.79	430.66
519.96	372.15
520.14	397.89
520.31	461.09
520.48	374.49
520.65	470.45
520.83	463.43
521.00	365.12
521.17	400.23
521.34	414.27
521.52	437.68
521.69	414.27
521.86	491.51
522.03	461.09
522.20	447.04
522.38	402.57
522.55	393.21
522.72	365.12
522.89	397.89
523.07	507.90
523.24	458.74
523.41	369.80
523.58	358.10
523.75	360.44
523.92	468.11
524.10	430.66
524.27	311.29
524.44	374.49
524.61	362.78
524.78	404.91
524.96	482.15
525.13	421.30
525.30	465.77
525.47	454.06
525.64	379.17
525.81	454.06
525.98	388.53
526.16	416.62
526.33	374.49
526.50	428.32
526.67	404.91
526.84	458.74
527.01	491.51
527.18	442.36
527.36	430.66
527.53	409.59
527.70	414.27
527.87	376.83
528.04	484.49
528.21	351.08
528.38	365.12
528.55	428.32
528.72	514.92
528.89	451.72
529.07	428.32
529.24	472.79
529.41	388.53
529.58	475.13
529.75	484.49
529.92	447.04
530.09	414.27
530.26	447.04
530.43	489.17
530.60	395.55
530.77	381.51
530.94	404.91
531.11	451.72
531.28	421.30
531.46	484.49
531.63	404.91
531.80	383.85
531.97	388.53
532.14	447.04
532.31	435.34
532.48	482.15
532.65	430.66
532.82	433.00
532.99	416.62
533.16	402.57
533.33	489.17
533.50	360.44
533.67	393.21
533.84	414.27
534.01	437.68
534.18	463.43
534.35	484.49
534.52	397.89
534.69	425.98
534.86	390.87
535.03	411.93
535.20	428.32
535.37	463.43
535.54	407.25
535.71	465.77
535.88	493.85
536.05	348.74
536.22	381.51
536.38	397.89
536.55	451.72
536.72	348.74
536.89	437.68
537.06	475.13
537.23	348.74
537.40	407.25
537.57	444.70
537.74	433.00
537.91	503.22
538.08	397.89
538.25	503.22
538.42	383.85
538.59	433.00
538.75	346.40
538.92	475.13
539.09	454.06
539.26	449.38
539.43	423.64
539.60	416.62
539.77	451.72
539.94	425.98
540.11	395.55
540.28	519.60
540.44	430.66
540.61	353.42
540.78	451.72
540.95	411.93
541.12	456.40
541.29	386.19
541.46	444.70
541.62	435.34
541.79	447.04
541.96	409.59
542.13	456.40
542.30	369.80
542.47	404.91
542.63	437.68
542.80	437.68
542.97	444.70
543.14	454.06
543.31	447.04
543.48	468.11
543.64	421.30
543.81	423.64
543.98	447.04
544.15	411.93
544.32	425.98
544.48	374.49
544.65	372.15
544.82	376.83
544.99	414.27
545.16	433.00
545.32	327.68
545.49	447.04
545.66	465.77
545.83	381.51
546.00	472.79
546.16	428.32
546.33	437.68
546.50	386.19
546.67	510.24
546.83	486.83
547.00	404.91
547.17	414.27
547.34	362.78
547.50	489.17
547.67	433.00
547.84	440.02
548.00	440.02
548.17	435.34
548.34	416.62
548.51	425.98
548.67	379.17
548.84	320.65
549.01	386.19
549.18	414.27
549.34	411.93
549.51	458.74
549.68	451.72
549.84	374.49
550.01	435.34
550.18	540.66
550.34	475.13
550.51	388.53
550.68	451.72
550.84	423.64
551.01	360.44
551.18	423.64
551.34	489.17
551.51	482.15
551.68	358.10
551.84	400.23
552.01	404.91
552.18	393.21
552.34	395.55
552.51	449.38
552.68	489.17
552.84	383.85
553.01	437.68
553.18	423.64
553.34	397.89
553.51	365.12
553.67	411.93
553.84	407.25
554.01	400.23
554.17	416.62
554.34	421.30
554.51	435.34
554.67	411.93
554.84	397.89
555.00	388.53
555.17	358.10
555.33	433.00
555.50	468.11
555.67	411.93
555.83	447.04
556.00	421.30
556.16	545.34
556.33	461.09
556.50	393.21
556.66	458.74
556.83	400.23
556.99	367.46
557.16	365.12
557.32	388.53
557.49	475.13
557.65	421.30
557.82	465.77
557.98	444.70
558.15	369.80
558.32	395.55
558.48	472.79
558.65	421.30
558.81	472.79
558.98	397.89
559.14	458.74
559.31	468.11
559.47	425.98
559.64	479.81
559.80	463.43
559.97	402.57
560.13	425.98
560.30	411.93
560.46	428.32
560.63	456.40
560.79	456.40
560.96	433.00
561.12	428.32
561.29	393.21
561.45	500.87
561.61	400.23
561.78	500.87
561.94	421.30
562.11	339.38
562.27	374.49
562.44	360.44
562.60	475.13
562.77	395.55
562.93	491.51
563.10	435.34
563.26	425.98
563.42	507.90
563.59	428.32
563.75	409.59
563.92	407.25
564.08	486.83
564.24	386.19
564.41	444.70
564.57	435.34
564.74	397.89
564.90	381.51
565.07	433.00
565.23	414.27
565.39	423.64
565.56	465.77
565.72	348.74
565.88	346.40
566.05	402.57
566.21	423.64
566.38	449.38
566.54	327.68
566.70	376.83
566.87	414.27
567.03	430.66
567.19	456.40
567.36	372.15
567.52	369.80
567.68	416.62
567.85	423.64
568.01	421.30
568.17	404.91
568.34	390.87
568.50	395.55
568.66	393.21
568.83	479.81
568.99	372.15
569.15	526.62
569.32	411.93
569.48	379.17
569.64	440.02
569.81	437.68
569.97	472.79
570.13	418.96
570.30	376.83
570.46	440.02
570.62	411.93
570.78	428.32
570.95	402.57
571.11	447.04
571.27	451.72
571.43	425.98
571.60	374.49
571.76	376.83
571.92	477.47
572.09	353.42
572.25	386.19
572.41	421.30
572.57	334.70
572.74	458.74
572.90	411.93
573.06	440.02
573.22	468.11
573.38	409.59
573.55	402.57
573.71	463.43
573.87	421.30
574.03	414.27
574.20	402.57
574.36	479.81
574.52	428.32
574.68	348.74
574.84	461.09
575.01	433.00
575.17	421.30
575.33	447.04
575.49	451.72
575.65	376.83
575.82	465.77
575.98	498.53
576.14	416.62
576.30	379.17
576.46	437.68
576.62	383.85
576.79	421.30
576.95	425.98
577.11	376.83
577.27	447.04
577.43	489.17
577.59	444.70
577.75	411.93
577.92	374.49
578.08	461.09
578.24	442.36
578.40	470.45
578.56	430.66
578.72	444.70
578.88	421.30
579.04	369.80
579.21	430.66
579.37	404.91
579.53	437.68
579.69	404.91
579.85	447.04
580.01	404.91
580.17	430.66
580.33	414.27
580.49	411.93
580.65	418.96
580.82	390.87
580.98	428.32
581.14	379.17
581.30	454.06
581.46	454.06
581.62	339.38
581.78	358.10
581.94	400.23
582.10	409.59
582.26	409.59
582.42	440.02
582.58	414.27
582.74	468.11
582.90	470.45
583.06	437.68
583.22	374.49
583.38	381.51
583.54	409.59
583.70	435.34
583.86	379.17
584.02	379.17
584.18	379.17
584.34	465.77
584.50	430.66
584.66	444.70
584.82	292.57
584.98	451.72
585.14	414.27
585.30	414.27
585.46	428.32
585.62	447.04
585.78	414.27
585.94	425.98
586.10	500.87
586.26	353.42
586.42	407.25
586.58	400.23
586.74	437.68
586.90	362.78
587.06	425.98
587.22	461.09
587.38	369.80
587.54	404.91
587.70	425.98
587.86	421.30
588.02	374.49
588.18	393.21
588.34	425.98
588.49	339.38
588.65	418.96
588.81	409.59
588.97	395.55
589.13	444.70
589.29	425.98
589.45	388.53
589.61	430.66
589.77	437.68
589.93	379.17
590.08	407.25
590.24	433.00
590.40	402.57
590.56	341.72
590.72	376.83
590.88	418.96
591.04	402.57
591.20	468.11
591.35	437.68
591.51	463.43
591.67	435.34
591.83	458.74
591.99	458.74
592.15	463.43
592.31	428.32
592.46	418.96
592.62	430.66
592.78	421.30
592.94	442.36
593.10	390.87
593.26	404.91
593.41	442.36
593.57	407.25
593.73	442.36
593.89	409.59
594.05	388.53
594.20	351.08
594.36	388.53
594.52	365.12
594.68	367.46
594.84	461.09
594.99	437.68
595.15	465.77
595.31	372.15
595.47	444.70
595.62	388.53
595.78	404.91
595.94	414.27
596.10	407.25
596.25	461.09
596.41	425.98
596.57	414.27
596.73	348.74
596.88	393.21
597.04	418.96
597.20	376.83
597.36	383.85
597.51	423.64
597.67	435.34
597.83	416.62
597.99	414.27
598.14	341.72
598.30	430.66
598.46	463.43
598.61	503.22
598.77	456.40
598.93	463.43
599.09	404.91
599.24	369.80
599.40	409.59
599.56	407.25
599.71	386.19
599.87	407.25
600.03	416.62
600.18	367.46
600.34	390.87
600.50	440.02
600.65	376.83
600.81	411.93
600.97	390.87
601.12	435.34
601.28	454.06
601.44	376.83
601.59	411.93
601.75	360.44
601.91	388.53
602.06	402.57
602.22	503.22
602.37	454.06
602.53	449.38
602.69	428.32
602.84	437.68
603.00	421.30
603.16	404.91
603.31	430.66
603.47	397.89
603.62	414.27
603.78	437.68
603.94	442.36
604.09	365.12
604.25	411.93
604.40	395.55
604.56	402.57
604.71	416.62
604.87	414.27
605.03	414.27
605.18	435.34
605.34	461.09
605.49	418.96
605.65	379.17
605.80	440.02
605.96	327.68
606.12	404.91
606.27	383.85
606.43	397.89
606.58	404.91
606.74	409.59
606.89	425.98
607.05	416.62
607.20	428.32
607.36	379.17
607.51	440.02
607.67	414.27
607.82	418.96
607.98	444.70
608.13	449.38
608.29	454.06
608.44	479.81
608.60	414.27
608.75	400.23
608.91	414.27
609.06	437.68
609.22	402.57
609.37	454.06
609.53	379.17
609.68	461.09
609.84	461.09
609.99	393.21
610.15	393.21
