SpectraSuite Data File
++++++++++++++++++++++++++++++++++++
Date: Fri Oct 25 12:10:49 EDT 2013
User: price-jones
Dark Spectrum Present: No
Reference Spectrum Present: No
Number of Sampled Component Spectra: 1
Spectrometers: USB2+H05261
Integration Time (usec): 100000 (USB2+H05261)
Spectra Averaged: 1 (USB2+H05261)
Boxcar Smoothing: 0 (USB2+H05261)
Correct for Electrical Dark: No (USB2+H05261)
Strobe/Lamp Enabled: No (USB2+H05261)
Correct for Detector Non-linearity: No (USB2+H05261)
Correct for Stray Light: No (USB2+H05261)
Number of Pixels in Processed Spectrum: 2048
>>>>>Begin Processed Spectral Data<<<<<
365.73	283.20
365.92	283.20
366.12	283.20
366.32	203.63
366.52	229.37
366.72	276.18
366.91	252.78
367.11	311.29
367.31	299.59
367.51	236.39
367.70	227.03
367.90	280.86
368.10	187.24
368.30	238.73
368.49	208.31
368.69	276.18
368.89	297.25
369.09	266.82
369.28	292.57
369.48	318.31
369.68	238.73
369.87	294.91
370.07	304.27
370.27	348.74
370.47	287.89
370.66	374.49
370.86	308.95
371.06	355.76
371.25	404.91
371.45	390.87
371.65	437.68
371.84	381.51
372.04	407.25
372.24	414.27
372.44	372.15
372.63	433.00
372.83	468.11
373.03	397.89
373.22	395.55
373.42	437.68
373.62	456.40
373.81	374.49
374.01	388.53
374.21	404.91
374.40	435.34
374.60	397.89
374.79	444.70
374.99	430.66
375.19	449.38
375.38	482.15
375.58	400.23
375.78	428.32
375.97	428.32
376.17	435.34
376.37	383.85
376.56	428.32
376.76	479.81
376.95	383.85
377.15	440.02
377.35	449.38
377.54	383.85
377.74	430.66
377.93	393.21
378.13	463.43
378.33	374.49
378.52	383.85
378.72	428.32
378.91	425.98
379.11	386.19
379.31	367.46
379.50	365.12
379.70	421.30
379.89	395.55
380.09	376.83
380.28	386.19
380.48	402.57
380.68	386.19
380.87	442.36
381.07	400.23
381.26	400.23
381.46	358.10
381.65	397.89
381.85	418.96
382.04	362.78
382.24	491.51
382.43	465.77
382.63	348.74
382.83	463.43
383.02	383.85
383.22	430.66
383.41	433.00
383.61	470.45
383.80	428.32
384.00	381.51
384.19	444.70
384.39	463.43
384.58	386.19
384.78	418.96
384.97	414.27
385.17	414.27
385.36	409.59
385.56	374.49
385.75	400.23
385.95	400.23
386.14	418.96
386.34	315.97
386.53	440.02
386.72	395.55
386.92	372.15
387.11	482.15
387.31	402.57
387.50	421.30
387.70	447.04
387.89	421.30
388.09	435.34
388.28	334.70
388.48	404.91
388.67	416.62
388.86	362.78
389.06	454.06
389.25	421.30
389.45	402.57
389.64	418.96
389.84	393.21
390.03	442.36
390.22	395.55
390.42	418.96
390.61	386.19
390.81	404.91
391.00	423.64
391.19	454.06
391.39	425.98
391.58	435.34
391.78	435.34
391.97	414.27
392.16	353.42
392.36	454.06
392.55	493.85
392.75	393.21
392.94	369.80
393.13	346.40
393.33	421.30
393.52	397.89
393.71	510.24
393.91	379.17
394.10	437.68
394.29	372.15
394.49	407.25
394.68	400.23
394.88	374.49
395.07	440.02
395.26	367.46
395.46	395.55
395.65	395.55
395.84	365.12
396.04	372.15
396.23	475.13
396.42	444.70
396.62	503.22
396.81	360.44
397.00	362.78
397.19	381.51
397.39	454.06
397.58	411.93
397.77	465.77
397.97	465.77
398.16	400.23
398.35	397.89
398.55	376.83
398.74	390.87
398.93	458.74
399.12	451.72
399.32	414.27
399.51	411.93
399.70	404.91
399.90	458.74
400.09	425.98
400.28	477.47
400.47	470.45
400.67	351.08
400.86	397.89
401.05	409.59
401.24	423.64
401.44	468.11
401.63	428.32
401.82	444.70
402.01	430.66
402.21	435.34
402.40	308.95
402.59	442.36
402.78	421.30
402.97	376.83
403.17	407.25
403.36	430.66
403.55	395.55
403.74	379.17
403.93	346.40
404.13	451.72
404.32	437.68
404.51	433.00
404.70	407.25
404.89	315.97
405.09	484.49
405.28	447.04
405.47	423.64
405.66	423.64
405.85	458.74
406.05	390.87
406.24	437.68
406.43	411.93
406.62	404.91
406.81	411.93
407.00	456.40
407.20	423.64
407.39	379.17
407.58	440.02
407.77	430.66
407.96	400.23
408.15	386.19
408.34	374.49
408.54	421.30
408.73	402.57
408.92	477.47
409.11	383.85
409.30	402.57
409.49	365.12
409.68	397.89
409.87	423.64
410.07	407.25
410.26	416.62
410.45	458.74
410.64	437.68
410.83	315.97
411.02	390.87
411.21	440.02
411.40	463.43
411.59	433.00
411.78	486.83
411.98	400.23
412.17	414.27
412.36	353.42
412.55	447.04
412.74	437.68
412.93	440.02
413.12	402.57
413.31	458.74
413.50	451.72
413.69	442.36
413.88	423.64
414.07	390.87
414.26	482.15
414.45	416.62
414.64	430.66
414.83	355.76
415.02	383.85
415.22	430.66
415.41	472.79
415.60	395.55
415.79	397.89
415.98	465.77
416.17	376.83
416.36	409.59
416.55	437.68
416.74	433.00
416.93	461.09
417.12	423.64
417.31	470.45
417.50	465.77
417.69	468.11
417.88	376.83
418.07	416.62
418.26	367.46
418.45	397.89
418.64	447.04
418.83	407.25
419.02	477.47
419.21	416.62
419.39	470.45
419.58	414.27
419.77	437.68
419.96	500.87
420.15	402.57
420.34	383.85
420.53	397.89
420.72	433.00
420.91	348.74
421.10	423.64
421.29	418.96
421.48	435.34
421.67	444.70
421.86	337.04
422.05	360.44
422.24	388.53
422.43	479.81
422.61	444.70
422.80	386.19
422.99	393.21
423.18	411.93
423.37	411.93
423.56	395.55
423.75	388.53
423.94	402.57
424.13	365.12
424.32	400.23
424.50	425.98
424.69	437.68
424.88	449.38
425.07	397.89
425.26	463.43
425.45	510.24
425.64	360.44
425.83	458.74
426.01	421.30
426.20	425.98
426.39	365.12
426.58	383.85
426.77	447.04
426.96	379.17
427.15	498.53
427.33	390.87
427.52	395.55
427.71	344.06
427.90	400.23
428.09	416.62
428.28	411.93
428.46	379.17
428.65	449.38
428.84	425.98
429.03	447.04
429.22	381.51
429.40	416.62
429.59	428.32
429.78	475.13
429.97	425.98
430.16	386.19
430.34	374.49
430.53	372.15
430.72	388.53
430.91	451.72
431.10	416.62
431.28	381.51
431.47	362.78
431.66	475.13
431.85	425.98
432.03	447.04
432.22	458.74
432.41	355.76
432.60	397.89
432.79	423.64
432.97	416.62
433.16	444.70
433.35	409.59
433.54	421.30
433.72	372.15
433.91	491.51
434.10	411.93
434.28	395.55
434.47	418.96
434.66	454.06
434.85	423.64
435.03	423.64
435.22	437.68
435.41	390.87
435.59	376.83
435.78	325.33
435.97	421.30
436.16	409.59
436.34	397.89
436.53	397.89
436.72	433.00
436.90	402.57
437.09	369.80
437.28	341.72
437.46	409.59
437.65	404.91
437.84	484.49
438.02	437.68
438.21	409.59
438.40	451.72
438.58	379.17
438.77	367.46
438.96	388.53
439.14	404.91
439.33	383.85
439.52	407.25
439.70	381.51
439.89	449.38
440.08	461.09
440.26	367.46
440.45	393.21
440.63	440.02
440.82	437.68
441.01	449.38
441.19	402.57
441.38	454.06
441.57	418.96
441.75	430.66
441.94	479.81
442.12	454.06
442.31	346.40
442.50	433.00
442.68	353.42
442.87	353.42
443.05	374.49
443.24	458.74
443.43	376.83
443.61	322.99
443.80	416.62
443.98	442.36
444.17	395.55
444.35	503.22
444.54	458.74
444.73	402.57
444.91	463.43
445.10	374.49
445.28	395.55
445.47	416.62
445.65	367.46
445.84	395.55
446.02	425.98
446.21	409.59
446.39	362.78
446.58	400.23
446.77	435.34
446.95	468.11
447.14	458.74
447.32	519.60
447.51	423.64
447.69	407.25
447.88	456.40
448.06	482.15
448.25	489.17
448.43	454.06
448.62	482.15
448.80	400.23
448.99	451.72
449.17	353.42
449.36	330.02
449.54	451.72
449.73	360.44
449.91	390.87
450.10	322.99
450.28	451.72
450.46	421.30
450.65	421.30
450.83	404.91
451.02	376.83
451.20	442.36
451.39	393.21
451.57	397.89
451.76	440.02
451.94	372.15
452.13	475.13
452.31	430.66
452.49	360.44
452.68	395.55
452.86	388.53
453.05	477.47
453.23	395.55
453.42	409.59
453.60	409.59
453.78	498.53
453.97	393.21
454.15	416.62
454.34	416.62
454.52	367.46
454.70	416.62
454.89	414.27
455.07	421.30
455.26	514.92
455.44	414.27
455.62	437.68
455.81	379.17
455.99	414.27
456.17	416.62
456.36	435.34
456.54	301.93
456.73	404.91
456.91	468.11
457.09	458.74
457.28	425.98
457.46	414.27
457.64	465.77
457.83	353.42
458.01	330.02
458.19	416.62
458.38	376.83
458.56	421.30
458.74	351.08
458.93	411.93
459.11	379.17
459.29	362.78
459.48	421.30
459.66	456.40
459.84	388.53
460.03	430.66
460.21	355.76
460.39	407.25
460.57	369.80
460.76	409.59
460.94	388.53
461.12	517.26
461.31	475.13
461.49	400.23
461.67	390.87
461.85	430.66
462.04	461.09
462.22	805.14
462.40	414.27
462.59	414.27
462.77	421.30
462.95	369.80
463.13	325.33
463.32	465.77
463.50	454.06
463.68	404.91
463.86	369.80
464.05	461.09
464.23	421.30
464.41	444.70
464.59	402.57
464.78	407.25
464.96	400.23
465.14	433.00
465.32	388.53
465.50	402.57
465.69	449.38
465.87	362.78
466.05	486.83
466.23	430.66
466.41	395.55
466.60	393.21
466.78	374.49
466.96	428.32
467.14	400.23
467.32	365.12
467.51	386.19
467.69	447.04
467.87	465.77
468.05	433.00
468.23	484.49
468.41	454.06
468.60	428.32
468.78	407.25
468.96	416.62
469.14	416.62
469.32	400.23
469.50	425.98
469.69	512.58
469.87	379.17
470.05	454.06
470.23	519.60
470.41	388.53
470.59	360.44
470.77	351.08
470.95	334.70
471.14	379.17
471.32	433.00
471.50	444.70
471.68	477.47
471.86	414.27
472.04	344.06
472.22	425.98
472.40	388.53
472.58	379.17
472.77	376.83
472.95	447.04
473.13	435.34
473.31	470.45
473.49	362.78
473.67	383.85
473.85	421.30
474.03	414.27
474.21	395.55
474.39	444.70
474.57	447.04
474.75	447.04
474.93	376.83
475.12	423.64
475.30	358.10
475.48	428.32
475.66	454.06
475.84	444.70
476.02	416.62
476.20	449.38
476.38	435.34
476.56	437.68
476.74	444.70
476.92	430.66
477.10	376.83
477.28	447.04
477.46	404.91
477.64	369.80
477.82	428.32
478.00	365.12
478.18	409.59
478.36	400.23
478.54	393.21
478.72	362.78
478.90	351.08
479.08	362.78
479.26	423.64
479.44	421.30
479.62	461.09
479.80	449.38
479.98	440.02
480.16	425.98
480.34	400.23
480.52	425.98
480.70	411.93
480.88	383.85
481.06	390.87
481.24	348.74
481.41	411.93
481.59	451.72
481.77	400.23
481.95	390.87
482.13	376.83
482.31	416.62
482.49	388.53
482.67	411.93
482.85	461.09
483.03	421.30
483.21	451.72
483.39	430.66
483.57	433.00
483.74	369.80
483.92	414.27
484.10	444.70
484.28	360.44
484.46	451.72
484.64	369.80
484.82	430.66
485.00	435.34
485.18	458.74
485.35	477.47
485.53	440.02
485.71	479.81
485.89	437.68
486.07	383.85
486.25	411.93
486.43	386.19
486.61	358.10
486.78	355.76
486.96	372.15
487.14	444.70
487.32	435.34
487.50	479.81
487.68	386.19
487.85	428.32
488.03	393.21
488.21	388.53
488.39	393.21
488.57	463.43
488.75	433.00
488.92	507.90
489.10	503.22
489.28	397.89
489.46	435.34
489.64	454.06
489.81	461.09
489.99	421.30
490.17	404.91
490.35	400.23
490.53	447.04
490.70	386.19
490.88	409.59
491.06	379.17
491.24	425.98
491.41	447.04
491.59	404.91
491.77	472.79
491.95	346.40
492.13	472.79
492.30	421.30
492.48	425.98
492.66	386.19
492.84	379.17
493.01	430.66
493.19	383.85
493.37	468.11
493.54	451.72
493.72	334.70
493.90	376.83
494.08	402.57
494.25	369.80
494.43	397.89
494.61	407.25
494.79	400.23
494.96	355.76
495.14	400.23
495.32	358.10
495.49	440.02
495.67	409.59
495.85	332.36
496.02	369.80
496.20	404.91
496.38	449.38
496.55	402.57
496.73	367.46
496.91	376.83
497.09	447.04
497.26	367.46
497.44	416.62
497.62	348.74
497.79	442.36
497.97	482.15
498.14	416.62
498.32	393.21
498.50	372.15
498.67	428.32
498.85	362.78
499.03	414.27
499.20	379.17
499.38	442.36
499.56	390.87
499.73	451.72
499.91	430.66
500.08	463.43
500.26	477.47
500.44	374.49
500.61	437.68
500.79	388.53
500.97	348.74
501.14	461.09
501.32	461.09
501.49	386.19
501.67	454.06
501.84	421.30
502.02	369.80
502.20	411.93
502.37	447.04
502.55	416.62
502.72	435.34
502.90	404.91
503.07	397.89
503.25	372.15
503.43	433.00
503.60	362.78
503.78	430.66
503.95	451.72
504.13	404.91
504.30	482.15
504.48	484.49
504.65	402.57
504.83	482.15
505.01	395.55
505.18	358.10
505.36	416.62
505.53	409.59
505.71	402.57
505.88	463.43
506.06	437.68
506.23	409.59
506.41	468.11
506.58	468.11
506.76	407.25
506.93	397.89
507.11	458.74
507.28	400.23
507.46	383.85
507.63	477.47
507.81	440.02
507.98	444.70
508.16	442.36
508.33	381.51
508.50	444.70
508.68	454.06
508.85	351.08
509.03	400.23
509.20	409.59
509.38	423.64
509.55	451.72
509.73	444.70
509.90	430.66
510.08	442.36
510.25	484.49
510.42	332.36
510.60	437.68
510.77	376.83
510.95	463.43
511.12	454.06
511.30	388.53
511.47	477.47
511.64	409.59
511.82	498.53
511.99	416.62
512.17	379.17
512.34	414.27
512.51	395.55
512.69	320.65
512.86	416.62
513.04	374.49
513.21	381.51
513.38	355.76
513.56	411.93
513.73	400.23
513.90	409.59
514.08	337.04
514.25	362.78
514.43	400.23
514.60	465.77
514.77	491.51
514.95	444.70
515.12	386.19
515.29	404.91
515.47	512.58
515.64	442.36
515.81	444.70
515.99	458.74
516.16	456.40
516.33	454.06
516.51	433.00
516.68	437.68
516.85	433.00
517.03	409.59
517.20	390.87
517.37	351.08
517.54	468.11
517.72	423.64
517.89	400.23
518.06	411.93
518.24	428.32
518.41	477.47
518.58	477.47
518.75	411.93
518.93	486.83
519.10	360.44
519.27	397.89
519.45	416.62
519.62	454.06
519.79	414.27
519.96	383.85
520.14	393.21
520.31	407.25
520.48	334.70
520.65	397.89
520.83	447.04
521.00	362.78
521.17	355.76
521.34	449.38
521.52	390.87
521.69	386.19
521.86	416.62
522.03	451.72
522.20	402.57
522.38	433.00
522.55	465.77
522.72	470.45
522.89	484.49
523.07	416.62
523.24	397.89
523.41	383.85
523.58	435.34
523.75	400.23
523.92	421.30
524.10	428.32
524.27	397.89
524.44	435.34
524.61	435.34
524.78	454.06
524.96	355.76
525.13	390.87
525.30	451.72
525.47	404.91
525.64	454.06
525.81	447.04
525.98	475.13
526.16	475.13
526.33	440.02
526.50	414.27
526.67	423.64
526.84	395.55
527.01	334.70
527.18	482.15
527.36	416.62
527.53	433.00
527.70	393.21
527.87	409.59
528.04	437.68
528.21	374.49
528.38	463.43
528.55	418.96
528.72	360.44
528.89	510.24
529.07	374.49
529.24	454.06
529.41	454.06
529.58	433.00
529.75	409.59
529.92	411.93
530.09	409.59
530.26	435.34
530.43	411.93
530.60	433.00
530.77	437.68
530.94	428.32
531.11	423.64
531.28	421.30
531.46	334.70
531.63	433.00
531.80	447.04
531.97	465.77
532.14	435.34
532.31	477.47
532.48	447.04
532.65	381.51
532.82	353.42
532.99	444.70
533.16	404.91
533.33	456.40
533.50	435.34
533.67	376.83
533.84	435.34
534.01	444.70
534.18	400.23
534.35	400.23
534.52	362.78
534.69	404.91
534.86	402.57
535.03	437.68
535.20	409.59
535.37	440.02
535.54	437.68
535.71	456.40
535.88	484.49
536.05	470.45
536.22	486.83
536.38	468.11
536.55	379.17
536.72	416.62
536.89	414.27
537.06	489.17
537.23	386.19
537.40	395.55
537.57	470.45
537.74	456.40
537.91	437.68
538.08	411.93
538.25	430.66
538.42	379.17
538.59	362.78
538.75	421.30
538.92	428.32
539.09	442.36
539.26	463.43
539.43	477.47
539.60	360.44
539.77	458.74
539.94	381.51
540.11	395.55
540.28	421.30
540.44	435.34
540.61	451.72
540.78	433.00
540.95	416.62
541.12	444.70
541.29	440.02
541.46	435.34
541.62	369.80
541.79	414.27
541.96	358.10
542.13	409.59
542.30	414.27
542.47	477.47
542.63	500.87
542.80	458.74
542.97	489.17
543.14	407.25
543.31	444.70
543.48	435.34
543.64	425.98
543.81	369.80
543.98	383.85
544.15	425.98
544.32	390.87
544.48	397.89
544.65	433.00
544.82	348.74
544.99	454.06
545.16	414.27
545.32	456.40
545.49	386.19
545.66	454.06
545.83	400.23
546.00	332.36
546.16	414.27
546.33	358.10
546.50	416.62
546.67	486.83
546.83	400.23
547.00	376.83
547.17	360.44
547.34	386.19
547.50	367.46
547.67	383.85
547.84	468.11
548.00	386.19
548.17	390.87
548.34	428.32
548.51	433.00
548.67	416.62
548.84	449.38
549.01	395.55
549.18	437.68
549.34	449.38
549.51	416.62
549.68	447.04
549.84	421.30
550.01	402.57
550.18	489.17
550.34	456.40
550.51	447.04
550.68	521.94
550.84	440.02
551.01	440.02
551.18	505.56
551.34	477.47
551.51	421.30
551.68	444.70
551.84	458.74
552.01	348.74
552.18	355.76
552.34	402.57
552.51	437.68
552.68	491.51
552.84	376.83
553.01	376.83
553.18	463.43
553.34	409.59
553.51	425.98
553.67	500.87
553.84	421.30
554.01	451.72
554.17	442.36
554.34	367.46
554.51	409.59
554.67	437.68
554.84	482.15
555.00	400.23
555.17	379.17
555.33	360.44
555.50	479.81
555.67	421.30
555.83	416.62
556.00	411.93
556.16	554.71
556.33	454.06
556.50	411.93
556.66	402.57
556.83	322.99
556.99	428.32
557.16	433.00
557.32	465.77
557.49	346.40
557.65	390.87
557.82	437.68
557.98	454.06
558.15	418.96
558.32	348.74
558.48	402.57
558.65	430.66
558.81	479.81
558.98	400.23
559.14	376.83
559.31	404.91
559.47	414.27
559.64	346.40
559.80	407.25
559.97	475.13
560.13	475.13
560.30	367.46
560.46	442.36
560.63	430.66
560.79	454.06
560.96	386.19
561.12	386.19
561.29	491.51
561.45	425.98
561.61	416.62
561.78	503.22
561.94	475.13
562.11	416.62
562.27	456.40
562.44	479.81
562.60	407.25
562.77	374.49
562.93	521.94
563.10	463.43
563.26	444.70
563.42	430.66
563.59	407.25
563.75	402.57
563.92	482.15
564.08	407.25
564.24	428.32
564.41	451.72
564.57	411.93
564.74	376.83
564.90	451.72
565.07	423.64
565.23	456.40
565.39	360.44
565.56	472.79
565.72	372.15
565.88	421.30
566.05	390.87
566.21	409.59
566.38	444.70
566.54	411.93
566.70	355.76
566.87	376.83
567.03	372.15
567.19	388.53
567.36	348.74
567.52	418.96
567.68	442.36
567.85	395.55
568.01	435.34
568.17	393.21
568.34	374.49
568.50	442.36
568.66	442.36
568.83	477.47
568.99	388.53
569.15	397.89
569.32	559.39
569.48	458.74
569.64	395.55
569.81	425.98
569.97	409.59
570.13	440.02
570.30	444.70
570.46	430.66
570.62	458.74
570.78	440.02
570.95	365.12
571.11	447.04
571.27	463.43
571.43	416.62
571.60	524.28
571.76	456.40
571.92	449.38
572.09	433.00
572.25	365.12
572.41	414.27
572.57	395.55
572.74	437.68
572.90	414.27
573.06	388.53
573.22	451.72
573.38	470.45
573.55	428.32
573.71	451.72
573.87	449.38
574.03	433.00
574.20	468.11
574.36	454.06
574.52	397.89
574.68	355.76
574.84	461.09
575.01	381.51
575.17	470.45
575.33	430.66
575.49	393.21
575.65	381.51
575.82	472.79
575.98	444.70
576.14	454.06
576.30	341.72
576.46	374.49
576.62	325.33
576.79	440.02
576.95	479.81
577.11	353.42
577.27	468.11
577.43	418.96
577.59	414.27
577.75	376.83
577.92	435.34
578.08	458.74
578.24	433.00
578.40	416.62
578.56	489.17
578.72	367.46
578.88	458.74
579.04	444.70
579.21	362.78
579.37	397.89
579.53	418.96
579.69	425.98
579.85	449.38
580.01	425.98
580.17	360.44
580.33	390.87
580.49	360.44
580.65	444.70
580.82	362.78
580.98	339.38
581.14	491.51
581.30	421.30
581.46	416.62
581.62	440.02
581.78	355.76
581.94	430.66
582.10	327.68
582.26	428.32
582.42	379.17
582.58	372.15
582.74	388.53
582.90	456.40
583.06	479.81
583.22	393.21
583.38	376.83
583.54	397.89
583.70	411.93
583.86	444.70
584.02	489.17
584.18	409.59
584.34	423.64
584.50	428.32
584.66	402.57
584.82	390.87
584.98	372.15
585.14	463.43
585.30	463.43
585.46	337.04
585.62	421.30
585.78	388.53
585.94	397.89
586.10	435.34
586.26	486.83
586.42	447.04
586.58	430.66
586.74	388.53
586.90	395.55
587.06	418.96
587.22	393.21
587.38	395.55
587.54	397.89
587.70	416.62
587.86	351.08
588.02	451.72
588.18	381.51
588.34	444.70
588.49	320.65
588.65	397.89
588.81	388.53
588.97	400.23
589.13	458.74
589.29	390.87
589.45	428.32
589.61	440.02
589.77	477.47
589.93	421.30
590.08	423.64
590.24	404.91
590.40	374.49
590.56	353.42
590.72	425.98
590.88	379.17
591.04	411.93
591.20	400.23
591.35	440.02
591.51	416.62
591.67	414.27
591.83	376.83
591.99	447.04
592.15	407.25
592.31	430.66
592.46	358.10
592.62	433.00
592.78	374.49
592.94	447.04
593.10	374.49
593.26	425.98
593.41	397.89
593.57	423.64
593.73	386.19
593.89	475.13
594.05	437.68
594.20	372.15
594.36	395.55
594.52	425.98
594.68	360.44
594.84	454.06
594.99	454.06
595.15	505.56
595.31	468.11
595.47	449.38
595.62	428.32
595.78	395.55
595.94	379.17
596.10	463.43
596.25	430.66
596.41	433.00
596.57	418.96
596.73	433.00
596.88	435.34
597.04	409.59
597.20	407.25
597.36	383.85
597.51	379.17
597.67	393.21
597.83	404.91
597.99	407.25
598.14	442.36
598.30	388.53
598.46	428.32
598.61	472.79
598.77	449.38
598.93	397.89
599.09	381.51
599.24	395.55
599.40	433.00
599.56	442.36
599.71	407.25
599.87	362.78
600.03	449.38
600.18	379.17
600.34	454.06
600.50	379.17
600.65	369.80
600.81	383.85
600.97	411.93
601.12	425.98
601.28	461.09
601.44	386.19
601.59	414.27
601.75	374.49
601.91	449.38
602.06	451.72
602.22	503.22
602.37	433.00
602.53	397.89
602.69	411.93
602.84	365.12
603.00	503.22
603.16	395.55
603.31	425.98
603.47	451.72
603.62	381.51
603.78	393.21
603.94	400.23
604.09	360.44
604.25	351.08
604.40	425.98
604.56	435.34
604.71	449.38
604.87	428.32
605.03	390.87
605.18	465.77
605.34	486.83
605.49	404.91
605.65	416.62
605.80	430.66
605.96	414.27
606.12	463.43
606.27	489.17
606.43	360.44
606.58	400.23
606.74	433.00
606.89	390.87
607.05	449.38
607.20	404.91
607.36	358.10
607.51	346.40
607.67	416.62
607.82	435.34
607.98	423.64
608.13	376.83
608.29	418.96
608.44	430.66
608.60	440.02
608.75	482.15
608.91	376.83
609.06	435.34
609.22	437.68
609.37	407.25
609.53	456.40
609.68	353.42
609.84	458.74
609.99	374.49
610.15	430.66
