SpectraSuite Data File
++++++++++++++++++++++++++++++++++++
Date: Fri Oct 25 12:10:21 EDT 2013
User: price-jones
Dark Spectrum Present: No
Reference Spectrum Present: No
Number of Sampled Component Spectra: 1
Spectrometers: USB2+H05261
Integration Time (usec): 100000 (USB2+H05261)
Spectra Averaged: 1 (USB2+H05261)
Boxcar Smoothing: 0 (USB2+H05261)
Correct for Electrical Dark: No (USB2+H05261)
Strobe/Lamp Enabled: No (USB2+H05261)
Correct for Detector Non-linearity: No (USB2+H05261)
Correct for Stray Light: No (USB2+H05261)
Number of Pixels in Processed Spectrum: 2048
>>>>>Begin Processed Spectral Data<<<<<
365.73	297.25
365.92	297.25
366.12	297.25
366.32	259.80
366.52	252.78
366.72	248.10
366.91	182.56
367.11	224.69
367.31	250.44
367.51	271.50
367.70	245.76
367.90	327.68
368.10	205.97
368.30	276.18
368.49	294.91
368.69	334.70
368.89	330.02
369.09	271.50
369.28	283.20
369.48	262.14
369.68	259.80
369.87	236.39
370.07	266.82
370.27	374.49
370.47	358.10
370.66	325.33
370.86	369.80
371.06	351.08
371.25	365.12
371.45	327.68
371.65	409.59
371.84	409.59
372.04	379.17
372.24	416.62
372.44	381.51
372.63	444.70
372.83	477.47
373.03	404.91
373.22	402.57
373.42	435.34
373.62	409.59
373.81	442.36
374.01	414.27
374.21	451.72
374.40	437.68
374.60	374.49
374.79	468.11
374.99	379.17
375.19	409.59
375.38	397.89
375.58	386.19
375.78	472.79
375.97	430.66
376.17	402.57
376.37	400.23
376.56	376.83
376.76	425.98
376.95	327.68
377.15	449.38
377.35	440.02
377.54	400.23
377.74	465.77
377.93	454.06
378.13	341.72
378.33	404.91
378.52	435.34
378.72	451.72
378.91	440.02
379.11	411.93
379.31	437.68
379.50	451.72
379.70	430.66
379.89	510.24
380.09	437.68
380.28	337.04
380.48	425.98
380.68	341.72
380.87	376.83
381.07	330.02
381.26	428.32
381.46	402.57
381.65	440.02
381.85	416.62
382.04	362.78
382.24	388.53
382.43	383.85
382.63	346.40
382.83	388.53
383.02	472.79
383.22	365.12
383.41	411.93
383.61	423.64
383.80	348.74
384.00	390.87
384.19	437.68
384.39	418.96
384.58	454.06
384.78	397.89
384.97	386.19
385.17	360.44
385.36	393.21
385.56	435.34
385.75	407.25
385.95	407.25
386.14	458.74
386.34	477.47
386.53	400.23
386.72	456.40
386.92	423.64
387.11	407.25
387.31	393.21
387.50	376.83
387.70	358.10
387.89	425.98
388.09	435.34
388.28	376.83
388.48	449.38
388.67	479.81
388.86	442.36
389.06	402.57
389.25	360.44
389.45	383.85
389.64	372.15
389.84	390.87
390.03	428.32
390.22	379.17
390.42	454.06
390.61	365.12
390.81	358.10
391.00	454.06
391.19	411.93
391.39	465.77
391.58	397.89
391.78	437.68
391.97	414.27
392.16	433.00
392.36	409.59
392.55	390.87
392.75	395.55
392.94	390.87
393.13	372.15
393.33	416.62
393.52	425.98
393.71	407.25
393.91	393.21
394.10	376.83
394.29	393.21
394.49	383.85
394.68	440.02
394.88	421.30
395.07	395.55
395.26	411.93
395.46	393.21
395.65	353.42
395.84	472.79
396.04	512.58
396.23	390.87
396.42	440.02
396.62	400.23
396.81	395.55
397.00	327.68
397.19	404.91
397.39	386.19
397.58	374.49
397.77	418.96
397.97	409.59
398.16	397.89
398.35	418.96
398.55	367.46
398.74	351.08
398.93	407.25
399.12	383.85
399.32	355.76
399.51	334.70
399.70	374.49
399.90	409.59
400.09	374.49
400.28	472.79
400.47	397.89
400.67	407.25
400.86	397.89
401.05	437.68
401.24	416.62
401.44	463.43
401.63	374.49
401.82	414.27
402.01	402.57
402.21	402.57
402.40	402.57
402.59	334.70
402.78	416.62
402.97	404.91
403.17	376.83
403.36	397.89
403.55	381.51
403.74	437.68
403.93	414.27
404.13	430.66
404.32	479.81
404.51	411.93
404.70	407.25
404.89	395.55
405.09	461.09
405.28	400.23
405.47	362.78
405.66	353.42
405.85	407.25
406.05	344.06
406.24	411.93
406.43	379.17
406.62	395.55
406.81	388.53
407.00	393.21
407.20	360.44
407.39	456.40
407.58	428.32
407.77	372.15
407.96	409.59
408.15	489.17
408.34	372.15
408.54	407.25
408.73	428.32
408.92	374.49
409.11	334.70
409.30	372.15
409.49	367.46
409.68	435.34
409.87	348.74
410.07	383.85
410.26	416.62
410.45	381.51
410.64	491.51
410.83	376.83
411.02	379.17
411.21	402.57
411.40	435.34
411.59	435.34
411.78	428.32
411.98	437.68
412.17	393.21
412.36	376.83
412.55	400.23
412.74	374.49
412.93	386.19
413.12	341.72
413.31	414.27
413.50	496.19
413.69	451.72
413.88	461.09
414.07	409.59
414.26	344.06
414.45	416.62
414.64	475.13
414.83	425.98
415.02	367.46
415.22	372.15
415.41	383.85
415.60	383.85
415.79	386.19
415.98	395.55
416.17	472.79
416.36	409.59
416.55	411.93
416.74	372.15
416.93	418.96
417.12	381.51
417.31	376.83
417.50	407.25
417.69	404.91
417.88	376.83
418.07	388.53
418.26	411.93
418.45	465.77
418.64	510.24
418.83	407.25
419.02	395.55
419.21	418.96
419.39	428.32
419.58	381.51
419.77	433.00
419.96	402.57
420.15	402.57
420.34	390.87
420.53	402.57
420.72	489.17
420.91	416.62
421.10	365.12
421.29	463.43
421.48	393.21
421.67	463.43
421.86	353.42
422.05	395.55
422.24	376.83
422.43	411.93
422.61	430.66
422.80	360.44
422.99	433.00
423.18	374.49
423.37	402.57
423.56	409.59
423.75	461.09
423.94	407.25
424.13	397.89
424.32	404.91
424.50	393.21
424.69	400.23
424.88	388.53
425.07	456.40
425.26	383.85
425.45	355.76
425.64	388.53
425.83	430.66
426.01	491.51
426.20	451.72
426.39	463.43
426.58	374.49
426.77	400.23
426.96	421.30
427.15	433.00
427.33	386.19
427.52	447.04
427.71	397.89
427.90	433.00
428.09	435.34
428.28	409.59
428.46	400.23
428.65	430.66
428.84	444.70
429.03	416.62
429.22	465.77
429.40	381.51
429.59	491.51
429.78	484.49
429.97	374.49
430.16	402.57
430.34	411.93
430.53	421.30
430.72	430.66
430.91	346.40
431.10	447.04
431.28	421.30
431.47	437.68
431.66	393.21
431.85	411.93
432.03	393.21
432.22	472.79
432.41	404.91
432.60	496.19
432.79	353.42
432.97	414.27
433.16	315.97
433.35	421.30
433.54	472.79
433.72	458.74
433.91	433.00
434.10	421.30
434.28	433.00
434.47	430.66
434.66	451.72
434.85	337.04
435.03	362.78
435.22	411.93
435.41	479.81
435.59	365.12
435.78	404.91
435.97	475.13
436.16	339.38
436.34	386.19
436.53	409.59
436.72	442.36
436.90	383.85
437.09	461.09
437.28	477.47
437.46	479.81
437.65	451.72
437.84	381.51
438.02	416.62
438.21	395.55
438.40	404.91
438.58	435.34
438.77	433.00
438.96	414.27
439.14	367.46
439.33	365.12
439.52	428.32
439.70	397.89
439.89	430.66
440.08	456.40
440.26	440.02
440.45	374.49
440.63	423.64
440.82	311.29
441.01	379.17
441.19	400.23
441.38	423.64
441.57	465.77
441.75	416.62
441.94	461.09
442.12	449.38
442.31	416.62
442.50	449.38
442.68	402.57
442.87	451.72
443.05	381.51
443.24	449.38
443.43	416.62
443.61	390.87
443.80	486.83
443.98	442.36
444.17	341.72
444.35	346.40
444.54	374.49
444.73	416.62
444.91	418.96
445.10	334.70
445.28	386.19
445.47	425.98
445.65	372.15
445.84	351.08
446.02	435.34
446.21	425.98
446.39	353.42
446.58	496.19
446.77	456.40
446.95	404.91
447.14	416.62
447.32	421.30
447.51	421.30
447.69	386.19
447.88	416.62
448.06	440.02
448.25	433.00
448.43	344.06
448.62	379.17
448.80	444.70
448.99	463.43
449.17	409.59
449.36	407.25
449.54	433.00
449.73	358.10
449.91	440.02
450.10	461.09
450.28	402.57
450.46	388.53
450.65	388.53
450.83	430.66
451.02	402.57
451.20	437.68
451.39	407.25
451.57	397.89
451.76	374.49
451.94	491.51
452.13	430.66
452.31	442.36
452.49	381.51
452.68	351.08
452.86	369.80
453.05	433.00
453.23	407.25
453.42	444.70
453.60	386.19
453.78	421.30
453.97	423.64
454.15	386.19
454.34	395.55
454.52	372.15
454.70	383.85
454.89	411.93
455.07	362.78
455.26	489.17
455.44	444.70
455.62	367.46
455.81	435.34
455.99	395.55
456.17	440.02
456.36	414.27
456.54	430.66
456.73	451.72
456.91	414.27
457.09	402.57
457.28	461.09
457.46	386.19
457.64	327.68
457.83	444.70
458.01	435.34
458.19	423.64
458.38	430.66
458.56	388.53
458.74	379.17
458.93	390.87
459.11	449.38
459.29	379.17
459.48	435.34
459.66	465.77
459.84	475.13
460.03	519.60
460.21	444.70
460.39	358.10
460.57	421.30
460.76	442.36
460.94	472.79
461.12	461.09
461.31	451.72
461.49	449.38
461.67	423.64
461.85	400.23
462.04	383.85
462.22	844.93
462.40	435.34
462.59	430.66
462.77	397.89
462.95	428.32
463.13	411.93
463.32	414.27
463.50	421.30
463.68	428.32
463.86	395.55
464.05	346.40
464.23	442.36
464.41	463.43
464.59	369.80
464.78	451.72
464.96	425.98
465.14	400.23
465.32	367.46
465.50	360.44
465.69	374.49
465.87	381.51
466.05	418.96
466.23	395.55
466.41	367.46
466.60	411.93
466.78	414.27
466.96	435.34
467.14	379.17
467.32	383.85
467.51	435.34
467.69	365.12
467.87	376.83
468.05	346.40
468.23	372.15
468.41	437.68
468.60	355.76
468.78	451.72
468.96	454.06
469.14	416.62
469.32	430.66
469.50	379.17
469.69	496.19
469.87	376.83
470.05	470.45
470.23	421.30
470.41	411.93
470.59	358.10
470.77	395.55
470.95	440.02
471.14	411.93
471.32	449.38
471.50	456.40
471.68	423.64
471.86	468.11
472.04	339.38
472.22	411.93
472.40	351.08
472.58	395.55
472.77	383.85
472.95	374.49
473.13	454.06
473.31	442.36
473.49	393.21
473.67	393.21
473.85	414.27
474.03	442.36
474.21	437.68
474.39	388.53
474.57	463.43
474.75	437.68
474.93	393.21
475.12	402.57
475.30	416.62
475.48	353.42
475.66	425.98
475.84	393.21
476.02	409.59
476.20	369.80
476.38	337.04
476.56	440.02
476.74	383.85
476.92	416.62
477.10	451.72
477.28	416.62
477.46	381.51
477.64	390.87
477.82	400.23
478.00	383.85
478.18	383.85
478.36	404.91
478.54	355.76
478.72	337.04
478.90	444.70
479.08	400.23
479.26	435.34
479.44	372.15
479.62	440.02
479.80	374.49
479.98	402.57
480.16	458.74
480.34	402.57
480.52	397.89
480.70	440.02
480.88	355.76
481.06	344.06
481.24	362.78
481.41	461.09
481.59	390.87
481.77	437.68
481.95	348.74
482.13	430.66
482.31	367.46
482.49	414.27
482.67	348.74
482.85	402.57
483.03	362.78
483.21	313.63
483.39	344.06
483.57	416.62
483.74	437.68
483.92	437.68
484.10	444.70
484.28	435.34
484.46	538.32
484.64	369.80
484.82	325.33
485.00	463.43
485.18	395.55
485.35	477.47
485.53	386.19
485.71	411.93
485.89	491.51
486.07	365.12
486.25	425.98
486.43	484.49
486.61	486.83
486.78	344.06
486.96	376.83
487.14	395.55
487.32	442.36
487.50	433.00
487.68	386.19
487.85	409.59
488.03	367.46
488.21	472.79
488.39	465.77
488.57	416.62
488.75	379.17
488.92	472.79
489.10	411.93
489.28	444.70
489.46	334.70
489.64	388.53
489.81	404.91
489.99	407.25
490.17	418.96
490.35	440.02
490.53	402.57
490.70	376.83
490.88	407.25
491.06	416.62
491.24	421.30
491.41	475.13
491.59	486.83
491.77	402.57
491.95	421.30
492.13	414.27
492.30	418.96
492.48	479.81
492.66	484.49
492.84	437.68
493.01	390.87
493.19	400.23
493.37	512.58
493.54	482.15
493.72	454.06
493.90	390.87
494.08	374.49
494.25	416.62
494.43	409.59
494.61	390.87
494.79	400.23
494.96	339.38
495.14	402.57
495.32	320.65
495.49	390.87
495.67	414.27
495.85	367.46
496.02	409.59
496.20	414.27
496.38	402.57
496.55	341.72
496.73	451.72
496.91	365.12
497.09	433.00
497.26	374.49
497.44	414.27
497.62	440.02
497.79	381.51
497.97	433.00
498.14	435.34
498.32	493.85
498.50	465.77
498.67	489.17
498.85	421.30
499.03	376.83
499.20	327.68
499.38	416.62
499.56	447.04
499.73	402.57
499.91	465.77
500.08	454.06
500.26	418.96
500.44	404.91
500.61	477.47
500.79	442.36
500.97	484.49
501.14	458.74
501.32	362.78
501.49	395.55
501.67	416.62
501.84	397.89
502.02	409.59
502.20	463.43
502.37	428.32
502.55	372.15
502.72	470.45
502.90	348.74
503.07	386.19
503.25	390.87
503.43	393.21
503.60	442.36
503.78	397.89
503.95	383.85
504.13	416.62
504.30	456.40
504.48	454.06
504.65	409.59
504.83	421.30
505.01	416.62
505.18	367.46
505.36	409.59
505.53	430.66
505.71	383.85
505.88	442.36
506.06	372.15
506.23	393.21
506.41	383.85
506.58	423.64
506.76	449.38
506.93	374.49
507.11	388.53
507.28	400.23
507.46	458.74
507.63	388.53
507.81	423.64
507.98	402.57
508.16	416.62
508.33	409.59
508.50	425.98
508.68	482.15
508.85	416.62
509.03	393.21
509.20	390.87
509.38	393.21
509.55	425.98
509.73	393.21
509.90	468.11
510.08	386.19
510.25	507.90
510.42	383.85
510.60	418.96
510.77	411.93
510.95	482.15
511.12	402.57
511.30	456.40
511.47	444.70
511.64	383.85
511.82	358.10
511.99	374.49
512.17	374.49
512.34	383.85
512.51	416.62
512.69	482.15
512.86	470.45
513.04	393.21
513.21	458.74
513.38	393.21
513.56	425.98
513.73	372.15
513.90	437.68
514.08	353.42
514.25	407.25
514.43	372.15
514.60	381.51
514.77	477.47
514.95	369.80
515.12	379.17
515.29	468.11
515.47	458.74
515.64	383.85
515.81	395.55
515.99	458.74
516.16	402.57
516.33	383.85
516.51	395.55
516.68	346.40
516.85	418.96
517.03	414.27
517.20	395.55
517.37	397.89
517.54	435.34
517.72	397.89
517.89	425.98
518.06	428.32
518.24	440.02
518.41	566.41
518.58	449.38
518.75	423.64
518.93	409.59
519.10	418.96
519.27	463.43
519.45	456.40
519.62	456.40
519.79	461.09
519.96	404.91
520.14	388.53
520.31	444.70
520.48	421.30
520.65	444.70
520.83	472.79
521.00	388.53
521.17	498.53
521.34	428.32
521.52	421.30
521.69	414.27
521.86	383.85
522.03	400.23
522.20	468.11
522.38	411.93
522.55	433.00
522.72	421.30
522.89	472.79
523.07	468.11
523.24	425.98
523.41	393.21
523.58	358.10
523.75	418.96
523.92	383.85
524.10	430.66
524.27	435.34
524.44	381.51
524.61	461.09
524.78	423.64
524.96	425.98
525.13	402.57
525.30	458.74
525.47	447.04
525.64	372.15
525.81	369.80
525.98	484.49
526.16	337.04
526.33	425.98
526.50	449.38
526.67	411.93
526.84	409.59
527.01	369.80
527.18	339.38
527.36	416.62
527.53	468.11
527.70	440.02
527.87	454.06
528.04	430.66
528.21	484.49
528.38	454.06
528.55	454.06
528.72	472.79
528.89	503.22
529.07	332.36
529.24	425.98
529.41	386.19
529.58	416.62
529.75	402.57
529.92	393.21
530.09	407.25
530.26	372.15
530.43	468.11
530.60	416.62
530.77	369.80
530.94	421.30
531.11	393.21
531.28	418.96
531.46	390.87
531.63	447.04
531.80	468.11
531.97	428.32
532.14	458.74
532.31	428.32
532.48	402.57
532.65	449.38
532.82	397.89
532.99	433.00
533.16	411.93
533.33	435.34
533.50	409.59
533.67	418.96
533.84	482.15
534.01	468.11
534.18	444.70
534.35	423.64
534.52	409.59
534.69	451.72
534.86	407.25
535.03	402.57
535.20	400.23
535.37	386.19
535.54	437.68
535.71	484.49
535.88	407.25
536.05	407.25
536.22	423.64
536.38	470.45
536.55	479.81
536.72	379.17
536.89	456.40
537.06	376.83
537.23	404.91
537.40	416.62
537.57	423.64
537.74	461.09
537.91	395.55
538.08	388.53
538.25	463.43
538.42	374.49
538.59	449.38
538.75	421.30
538.92	435.34
539.09	374.49
539.26	402.57
539.43	451.72
539.60	440.02
539.77	470.45
539.94	397.89
540.11	440.02
540.28	507.90
540.44	428.32
540.61	386.19
540.78	433.00
540.95	355.76
541.12	341.72
541.29	388.53
541.46	444.70
541.62	404.91
541.79	444.70
541.96	425.98
542.13	437.68
542.30	346.40
542.47	360.44
542.63	437.68
542.80	433.00
542.97	500.87
543.14	374.49
543.31	440.02
543.48	346.40
543.64	442.36
543.81	374.49
543.98	437.68
544.15	400.23
544.32	402.57
544.48	400.23
544.65	374.49
544.82	409.59
544.99	454.06
545.16	442.36
545.32	411.93
545.49	451.72
545.66	411.93
545.83	388.53
546.00	414.27
546.16	416.62
546.33	379.17
546.50	381.51
546.67	428.32
546.83	430.66
547.00	379.17
547.17	404.91
547.34	442.36
547.50	381.51
547.67	470.45
547.84	411.93
548.00	472.79
548.17	374.49
548.34	355.76
548.51	468.11
548.67	454.06
548.84	430.66
549.01	383.85
549.18	388.53
549.34	463.43
549.51	411.93
549.68	442.36
549.84	418.96
550.01	365.12
550.18	430.66
550.34	454.06
550.51	400.23
550.68	484.49
550.84	400.23
551.01	367.46
551.18	407.25
551.34	421.30
551.51	393.21
551.68	442.36
551.84	430.66
552.01	407.25
552.18	381.51
552.34	414.27
552.51	433.00
552.68	454.06
552.84	470.45
553.01	435.34
553.18	418.96
553.34	376.83
553.51	447.04
553.67	442.36
553.84	463.43
554.01	423.64
554.17	402.57
554.34	386.19
554.51	386.19
554.67	397.89
554.84	440.02
555.00	447.04
555.17	430.66
555.33	433.00
555.50	475.13
555.67	358.10
555.83	358.10
556.00	388.53
556.16	510.24
556.33	442.36
556.50	458.74
556.66	484.49
556.83	454.06
556.99	414.27
557.16	411.93
557.32	386.19
557.49	376.83
557.65	374.49
557.82	411.93
557.98	444.70
558.15	402.57
558.32	437.68
558.48	519.60
558.65	447.04
558.81	402.57
558.98	451.72
559.14	351.08
559.31	442.36
559.47	477.47
559.64	376.83
559.80	365.12
559.97	456.40
560.13	416.62
560.30	400.23
560.46	390.87
560.63	395.55
560.79	451.72
560.96	411.93
561.12	421.30
561.29	451.72
561.45	461.09
561.61	484.49
561.78	486.83
561.94	397.89
562.11	463.43
562.27	468.11
562.44	388.53
562.60	458.74
562.77	447.04
562.93	428.32
563.10	374.49
563.26	433.00
563.42	411.93
563.59	418.96
563.75	421.30
563.92	433.00
564.08	416.62
564.24	400.23
564.41	503.22
564.57	451.72
564.74	456.40
564.90	395.55
565.07	493.85
565.23	489.17
565.39	369.80
565.56	451.72
565.72	411.93
565.88	397.89
566.05	428.32
566.21	402.57
566.38	404.91
566.54	400.23
566.70	407.25
566.87	369.80
567.03	418.96
567.19	383.85
567.36	479.81
567.52	411.93
567.68	444.70
567.85	456.40
568.01	482.15
568.17	400.23
568.34	372.15
568.50	369.80
568.66	400.23
568.83	444.70
568.99	369.80
569.15	500.87
569.32	463.43
569.48	465.77
569.64	404.91
569.81	418.96
569.97	437.68
570.13	397.89
570.30	390.87
570.46	344.06
570.62	444.70
570.78	423.64
570.95	414.27
571.11	596.84
571.27	428.32
571.43	411.93
571.60	402.57
571.76	437.68
571.92	484.49
572.09	404.91
572.25	372.15
572.41	423.64
572.57	468.11
572.74	435.34
572.90	465.77
573.06	491.51
573.22	475.13
573.38	444.70
573.55	416.62
573.71	435.34
573.87	367.46
574.03	386.19
574.20	358.10
574.36	444.70
574.52	468.11
574.68	404.91
574.84	395.55
575.01	428.32
575.17	503.22
575.33	409.59
575.49	491.51
575.65	454.06
575.82	365.12
575.98	369.80
576.14	397.89
576.30	451.72
576.46	379.17
576.62	475.13
576.79	423.64
576.95	402.57
577.11	360.44
577.27	344.06
577.43	330.02
577.59	402.57
577.75	395.55
577.92	444.70
578.08	383.85
578.24	425.98
578.40	388.53
578.56	514.92
578.72	451.72
578.88	374.49
579.04	311.29
579.21	346.40
579.37	402.57
579.53	337.04
579.69	411.93
579.85	360.44
580.01	416.62
580.17	444.70
580.33	435.34
580.49	435.34
580.65	411.93
580.82	456.40
580.98	465.77
581.14	458.74
581.30	404.91
581.46	421.30
581.62	440.02
581.78	390.87
581.94	435.34
582.10	402.57
582.26	414.27
582.42	456.40
582.58	440.02
582.74	411.93
582.90	440.02
583.06	437.68
583.22	383.85
583.38	393.21
583.54	421.30
583.70	524.28
583.86	470.45
584.02	444.70
584.18	503.22
584.34	411.93
584.50	472.79
584.66	461.09
584.82	449.38
584.98	482.15
585.14	402.57
585.30	404.91
585.46	376.83
585.62	496.19
585.78	374.49
585.94	414.27
586.10	475.13
586.26	381.51
586.42	421.30
586.58	416.62
586.74	430.66
586.90	418.96
587.06	346.40
587.22	416.62
587.38	402.57
587.54	416.62
587.70	496.19
587.86	454.06
588.02	421.30
588.18	489.17
588.34	430.66
588.49	388.53
588.65	416.62
588.81	418.96
588.97	369.80
589.13	423.64
589.29	416.62
589.45	449.38
589.61	386.19
589.77	409.59
589.93	374.49
590.08	407.25
590.24	404.91
590.40	395.55
590.56	442.36
590.72	411.93
590.88	393.21
591.04	442.36
591.20	365.12
591.35	374.49
591.51	372.15
591.67	337.04
591.83	327.68
591.99	454.06
592.15	449.38
592.31	409.59
592.46	444.70
592.62	400.23
592.78	402.57
592.94	393.21
593.10	402.57
593.26	409.59
593.41	381.51
593.57	433.00
593.73	346.40
593.89	388.53
594.05	376.83
594.20	425.98
594.36	486.83
594.52	376.83
594.68	353.42
594.84	358.10
594.99	463.43
595.15	386.19
595.31	418.96
595.47	425.98
595.62	454.06
595.78	395.55
595.94	449.38
596.10	404.91
596.25	440.02
596.41	376.83
596.57	430.66
596.73	379.17
596.88	416.62
597.04	404.91
597.20	435.34
597.36	397.89
597.51	395.55
597.67	393.21
597.83	470.45
597.99	404.91
598.14	423.64
598.30	411.93
598.46	442.36
598.61	379.17
598.77	435.34
598.93	416.62
599.09	440.02
599.24	390.87
599.40	435.34
599.56	400.23
599.71	313.63
599.87	428.32
600.03	386.19
600.18	397.89
600.34	482.15
600.50	418.96
600.65	456.40
600.81	390.87
600.97	416.62
601.12	437.68
601.28	442.36
601.44	444.70
601.59	442.36
601.75	477.47
601.91	442.36
602.06	484.49
602.22	470.45
602.37	442.36
602.53	440.02
602.69	400.23
602.84	355.76
603.00	416.62
603.16	381.51
603.31	374.49
603.47	402.57
603.62	404.91
603.78	463.43
603.94	418.96
604.09	435.34
604.25	489.17
604.40	414.27
604.56	447.04
604.71	404.91
604.87	365.12
605.03	416.62
605.18	395.55
605.34	418.96
605.49	437.68
605.65	386.19
605.80	393.21
605.96	374.49
606.12	444.70
606.27	402.57
606.43	376.83
606.58	468.11
606.74	437.68
606.89	470.45
607.05	411.93
607.20	421.30
607.36	330.02
607.51	400.23
607.67	440.02
607.82	358.10
607.98	451.72
608.13	433.00
608.29	451.72
608.44	465.77
608.60	404.91
608.75	461.09
608.91	442.36
609.06	386.19
609.22	395.55
609.37	383.85
609.53	388.53
609.68	397.89
609.84	465.77
609.99	402.57
610.15	442.36
