SpectraSuite Data File
++++++++++++++++++++++++++++++++++++
Date: Fri Oct 25 12:11:41 EDT 2013
User: price-jones
Dark Spectrum Present: No
Reference Spectrum Present: No
Number of Sampled Component Spectra: 1
Spectrometers: USB2+H05261
Integration Time (usec): 100000 (USB2+H05261)
Spectra Averaged: 1 (USB2+H05261)
Boxcar Smoothing: 0 (USB2+H05261)
Correct for Electrical Dark: No (USB2+H05261)
Strobe/Lamp Enabled: No (USB2+H05261)
Correct for Detector Non-linearity: No (USB2+H05261)
Correct for Stray Light: No (USB2+H05261)
Number of Pixels in Processed Spectrum: 2048
>>>>>Begin Processed Spectral Data<<<<<
365.73	386.19
365.92	386.19
366.12	386.19
366.32	238.73
366.52	161.50
366.72	196.60
366.91	189.58
367.11	285.55
367.31	241.08
367.51	231.71
367.70	170.86
367.90	131.07
368.10	238.73
368.30	245.76
368.49	255.12
368.69	238.73
368.89	283.20
369.09	255.12
369.28	271.50
369.48	208.31
369.68	311.29
369.87	379.17
370.07	337.04
370.27	374.49
370.47	341.72
370.66	308.95
370.86	425.98
371.06	360.44
371.25	449.38
371.45	386.19
371.65	369.80
371.84	397.89
372.04	330.02
372.24	416.62
372.44	348.74
372.63	351.08
372.83	362.78
373.03	393.21
373.22	355.76
373.42	351.08
373.62	315.97
373.81	390.87
374.01	528.96
374.21	447.04
374.40	447.04
374.60	430.66
374.79	421.30
374.99	484.49
375.19	369.80
375.38	416.62
375.58	351.08
375.78	433.00
375.97	484.49
376.17	498.53
376.37	428.32
376.56	383.85
376.76	376.83
376.95	348.74
377.15	388.53
377.35	458.74
377.54	353.42
377.74	468.11
377.93	388.53
378.13	416.62
378.33	461.09
378.52	374.49
378.72	447.04
378.91	437.68
379.11	423.64
379.31	353.42
379.50	425.98
379.70	444.70
379.89	428.32
380.09	353.42
380.28	428.32
380.48	423.64
380.68	372.15
380.87	386.19
381.07	416.62
381.26	449.38
381.46	435.34
381.65	475.13
381.85	421.30
382.04	409.59
382.24	486.83
382.43	456.40
382.63	386.19
382.83	498.53
383.02	416.62
383.22	402.57
383.41	315.97
383.61	353.42
383.80	468.11
384.00	433.00
384.19	421.30
384.39	402.57
384.58	393.21
384.78	435.34
384.97	372.15
385.17	411.93
385.36	376.83
385.56	470.45
385.75	458.74
385.95	367.46
386.14	402.57
386.34	355.76
386.53	411.93
386.72	425.98
386.92	435.34
387.11	475.13
387.31	404.91
387.50	407.25
387.70	407.25
387.89	433.00
388.09	353.42
388.28	407.25
388.48	388.53
388.67	367.46
388.86	355.76
389.06	433.00
389.25	397.89
389.45	409.59
389.64	358.10
389.84	451.72
390.03	397.89
390.22	435.34
390.42	449.38
390.61	393.21
390.81	367.46
391.00	383.85
391.19	449.38
391.39	390.87
391.58	353.42
391.78	418.96
391.97	374.49
392.16	383.85
392.36	358.10
392.55	402.57
392.75	327.68
392.94	299.59
393.13	458.74
393.33	444.70
393.52	369.80
393.71	418.96
393.91	325.33
394.10	416.62
394.29	339.38
394.49	376.83
394.68	423.64
394.88	465.77
395.07	381.51
395.26	327.68
395.46	353.42
395.65	381.51
395.84	365.12
396.04	442.36
396.23	440.02
396.42	435.34
396.62	433.00
396.81	451.72
397.00	411.93
397.19	449.38
397.39	435.34
397.58	437.68
397.77	369.80
397.97	379.17
398.16	383.85
398.35	351.08
398.55	421.30
398.74	315.97
398.93	358.10
399.12	451.72
399.32	437.68
399.51	376.83
399.70	454.06
399.90	409.59
400.09	447.04
400.28	428.32
400.47	369.80
400.67	430.66
400.86	425.98
401.05	416.62
401.24	444.70
401.44	407.25
401.63	435.34
401.82	435.34
402.01	344.06
402.21	519.60
402.40	484.49
402.59	386.19
402.78	395.55
402.97	337.04
403.17	372.15
403.36	400.23
403.55	404.91
403.74	337.04
403.93	379.17
404.13	451.72
404.32	402.57
404.51	400.23
404.70	430.66
404.89	365.12
405.09	411.93
405.28	411.93
405.47	383.85
405.66	477.47
405.85	465.77
406.05	444.70
406.24	463.43
406.43	444.70
406.62	372.15
406.81	465.77
407.00	465.77
407.20	383.85
407.39	400.23
407.58	297.25
407.77	388.53
407.96	442.36
408.15	435.34
408.34	388.53
408.54	386.19
408.73	449.38
408.92	411.93
409.11	374.49
409.30	404.91
409.49	341.72
409.68	397.89
409.87	442.36
410.07	416.62
410.26	400.23
410.45	376.83
410.64	362.78
410.83	388.53
411.02	386.19
411.21	416.62
411.40	421.30
411.59	430.66
411.78	416.62
411.98	430.66
412.17	416.62
412.36	423.64
412.55	400.23
412.74	423.64
412.93	421.30
413.12	404.91
413.31	524.28
413.50	407.25
413.69	451.72
413.88	442.36
414.07	404.91
414.26	365.12
414.45	421.30
414.64	414.27
414.83	435.34
415.02	428.32
415.22	341.72
415.41	418.96
415.60	437.68
415.79	404.91
415.98	393.21
416.17	458.74
416.36	423.64
416.55	430.66
416.74	454.06
416.93	440.02
417.12	346.40
417.31	369.80
417.50	388.53
417.69	430.66
417.88	390.87
418.07	400.23
418.26	409.59
418.45	414.27
418.64	418.96
418.83	409.59
419.02	376.83
419.21	369.80
419.39	393.21
419.58	411.93
419.77	418.96
419.96	341.72
420.15	395.55
420.34	397.89
420.53	461.09
420.72	477.47
420.91	395.55
421.10	421.30
421.29	416.62
421.48	423.64
421.67	414.27
421.86	414.27
422.05	437.68
422.24	376.83
422.43	468.11
422.61	421.30
422.80	365.12
422.99	437.68
423.18	372.15
423.37	435.34
423.56	447.04
423.75	421.30
423.94	379.17
424.13	409.59
424.32	461.09
424.50	346.40
424.69	383.85
424.88	407.25
425.07	407.25
425.26	411.93
425.45	397.89
425.64	367.46
425.83	393.21
426.01	421.30
426.20	393.21
426.39	400.23
426.58	486.83
426.77	400.23
426.96	353.42
427.15	411.93
427.33	416.62
427.52	444.70
427.71	344.06
427.90	437.68
428.09	395.55
428.28	416.62
428.46	397.89
428.65	442.36
428.84	416.62
429.03	458.74
429.22	369.80
429.40	397.89
429.59	374.49
429.78	423.64
429.97	395.55
430.16	369.80
430.34	374.49
430.53	404.91
430.72	355.76
430.91	465.77
431.10	440.02
431.28	416.62
431.47	461.09
431.66	409.59
431.85	388.53
432.03	421.30
432.22	409.59
432.41	498.53
432.60	425.98
432.79	402.57
432.97	440.02
433.16	411.93
433.35	395.55
433.54	404.91
433.72	411.93
433.91	470.45
434.10	395.55
434.28	397.89
434.47	456.40
434.66	470.45
434.85	351.08
435.03	416.62
435.22	416.62
435.41	411.93
435.59	442.36
435.78	465.77
435.97	299.59
436.16	430.66
436.34	447.04
436.53	379.17
436.72	463.43
436.90	451.72
437.09	423.64
437.28	374.49
437.46	355.76
437.65	465.77
437.84	451.72
438.02	360.44
438.21	449.38
438.40	400.23
438.58	381.51
438.77	444.70
438.96	421.30
439.14	365.12
439.33	402.57
439.52	435.34
439.70	388.53
439.89	397.89
440.08	395.55
440.26	407.25
440.45	395.55
440.63	486.83
440.82	449.38
441.01	407.25
441.19	390.87
441.38	470.45
441.57	381.51
441.75	402.57
441.94	395.55
442.12	390.87
442.31	428.32
442.50	351.08
442.68	395.55
442.87	482.15
443.05	409.59
443.24	379.17
443.43	493.85
443.61	447.04
443.80	461.09
443.98	454.06
444.17	365.12
444.35	376.83
444.54	428.32
444.73	418.96
444.91	440.02
445.10	414.27
445.28	390.87
445.47	444.70
445.65	369.80
445.84	390.87
446.02	397.89
446.21	423.64
446.39	411.93
446.58	449.38
446.77	358.10
446.95	465.77
447.14	400.23
447.32	465.77
447.51	379.17
447.69	456.40
447.88	454.06
448.06	374.49
448.25	407.25
448.43	407.25
448.62	390.87
448.80	463.43
448.99	402.57
449.17	400.23
449.36	400.23
449.54	423.64
449.73	411.93
449.91	423.64
450.10	344.06
450.28	440.02
450.46	400.23
450.65	447.04
450.83	348.74
451.02	418.96
451.20	376.83
451.39	425.98
451.57	388.53
451.76	423.64
451.94	397.89
452.13	444.70
452.31	421.30
452.49	351.08
452.68	383.85
452.86	367.46
453.05	486.83
453.23	365.12
453.42	404.91
453.60	318.31
453.78	372.15
453.97	397.89
454.15	337.04
454.34	355.76
454.52	372.15
454.70	416.62
454.89	463.43
455.07	393.21
455.26	369.80
455.44	416.62
455.62	407.25
455.81	390.87
455.99	379.17
456.17	381.51
456.36	468.11
456.54	414.27
456.73	421.30
456.91	381.51
457.09	416.62
457.28	411.93
457.46	428.32
457.64	447.04
457.83	395.55
458.01	458.74
458.19	390.87
458.38	409.59
458.56	435.34
458.74	379.17
458.93	447.04
459.11	360.44
459.29	397.89
459.48	437.68
459.66	421.30
459.84	404.91
460.03	454.06
460.21	383.85
460.39	421.30
460.57	407.25
460.76	404.91
460.94	449.38
461.12	468.11
461.31	493.85
461.49	393.21
461.67	339.38
461.85	470.45
462.04	397.89
462.22	720.88
462.40	409.59
462.59	447.04
462.77	482.15
462.95	395.55
463.13	376.83
463.32	433.00
463.50	409.59
463.68	365.12
463.86	409.59
464.05	397.89
464.23	440.02
464.41	388.53
464.59	383.85
464.78	421.30
464.96	414.27
465.14	416.62
465.32	423.64
465.50	444.70
465.69	407.25
465.87	360.44
466.05	416.62
466.23	383.85
466.41	367.46
466.60	423.64
466.78	393.21
466.96	400.23
467.14	447.04
467.32	400.23
467.51	447.04
467.69	411.93
467.87	409.59
468.05	409.59
468.23	428.32
468.41	369.80
468.60	418.96
468.78	379.17
468.96	418.96
469.14	390.87
469.32	440.02
469.50	360.44
469.69	372.15
469.87	407.25
470.05	386.19
470.23	428.32
470.41	400.23
470.59	425.98
470.77	414.27
470.95	404.91
471.14	470.45
471.32	418.96
471.50	433.00
471.68	428.32
471.86	500.87
472.04	428.32
472.22	430.66
472.40	402.57
472.58	346.40
472.77	360.44
472.95	411.93
473.13	486.83
473.31	425.98
473.49	365.12
473.67	409.59
473.85	381.51
474.03	395.55
474.21	418.96
474.39	421.30
474.57	463.43
474.75	409.59
474.93	334.70
475.12	411.93
475.30	461.09
475.48	383.85
475.66	379.17
475.84	505.56
476.02	435.34
476.20	418.96
476.38	461.09
476.56	421.30
476.74	477.47
476.92	355.76
477.10	496.19
477.28	379.17
477.46	362.78
477.64	393.21
477.82	386.19
478.00	367.46
478.18	449.38
478.36	423.64
478.54	440.02
478.72	402.57
478.90	390.87
479.08	397.89
479.26	393.21
479.44	425.98
479.62	390.87
479.80	416.62
479.98	433.00
480.16	433.00
480.34	393.21
480.52	425.98
480.70	463.43
480.88	397.89
481.06	390.87
481.24	376.83
481.41	395.55
481.59	381.51
481.77	456.40
481.95	433.00
482.13	409.59
482.31	423.64
482.49	397.89
482.67	337.04
482.85	414.27
483.03	451.72
483.21	475.13
483.39	442.36
483.57	414.27
483.74	386.19
483.92	362.78
484.10	456.40
484.28	404.91
484.46	500.87
484.64	395.55
484.82	421.30
485.00	409.59
485.18	428.32
485.35	435.34
485.53	393.21
485.71	461.09
485.89	381.51
486.07	461.09
486.25	430.66
486.43	409.59
486.61	395.55
486.78	400.23
486.96	411.93
487.14	454.06
487.32	400.23
487.50	423.64
487.68	437.68
487.85	397.89
488.03	351.08
488.21	442.36
488.39	421.30
488.57	374.49
488.75	400.23
488.92	510.24
489.10	404.91
489.28	463.43
489.46	360.44
489.64	374.49
489.81	369.80
489.99	374.49
490.17	390.87
490.35	414.27
490.53	414.27
490.70	479.81
490.88	458.74
491.06	409.59
491.24	388.53
491.41	454.06
491.59	425.98
491.77	383.85
491.95	348.74
492.13	421.30
492.30	306.61
492.48	379.17
492.66	386.19
492.84	353.42
493.01	386.19
493.19	379.17
493.37	416.62
493.54	461.09
493.72	400.23
493.90	430.66
494.08	425.98
494.25	402.57
494.43	433.00
494.61	379.17
494.79	346.40
494.96	390.87
495.14	416.62
495.32	376.83
495.49	404.91
495.67	442.36
495.85	472.79
496.02	407.25
496.20	397.89
496.38	390.87
496.55	421.30
496.73	397.89
496.91	449.38
497.09	423.64
497.26	360.44
497.44	468.11
497.62	416.62
497.79	430.66
497.97	451.72
498.14	477.47
498.32	395.55
498.50	376.83
498.67	400.23
498.85	369.80
499.03	404.91
499.20	428.32
499.38	400.23
499.56	444.70
499.73	449.38
499.91	440.02
500.08	400.23
500.26	418.96
500.44	386.19
500.61	379.17
500.79	407.25
500.97	435.34
501.14	472.79
501.32	423.64
501.49	423.64
501.67	454.06
501.84	458.74
502.02	423.64
502.20	498.53
502.37	416.62
502.55	386.19
502.72	456.40
502.90	425.98
503.07	451.72
503.25	428.32
503.43	376.83
503.60	449.38
503.78	358.10
503.95	411.93
504.13	376.83
504.30	472.79
504.48	440.02
504.65	433.00
504.83	433.00
505.01	372.15
505.18	407.25
505.36	421.30
505.53	416.62
505.71	379.17
505.88	430.66
506.06	402.57
506.23	355.76
506.41	435.34
506.58	423.64
506.76	437.68
506.93	339.38
507.11	472.79
507.28	479.81
507.46	428.32
507.63	418.96
507.81	404.91
507.98	418.96
508.16	402.57
508.33	409.59
508.50	442.36
508.68	411.93
508.85	411.93
509.03	425.98
509.20	421.30
509.38	395.55
509.55	461.09
509.73	397.89
509.90	376.83
510.08	430.66
510.25	470.45
510.42	449.38
510.60	383.85
510.77	465.77
510.95	388.53
511.12	454.06
511.30	468.11
511.47	418.96
511.64	449.38
511.82	433.00
511.99	407.25
512.17	416.62
512.34	479.81
512.51	376.83
512.69	440.02
512.86	365.12
513.04	437.68
513.21	479.81
513.38	367.46
513.56	428.32
513.73	440.02
513.90	367.46
514.08	433.00
514.25	414.27
514.43	425.98
514.60	400.23
514.77	332.36
514.95	409.59
515.12	409.59
515.29	390.87
515.47	358.10
515.64	414.27
515.81	414.27
515.99	507.90
516.16	433.00
516.33	447.04
516.51	458.74
516.68	440.02
516.85	423.64
517.03	514.92
517.20	367.46
517.37	388.53
517.54	407.25
517.72	433.00
517.89	440.02
518.06	360.44
518.24	489.17
518.41	461.09
518.58	451.72
518.75	374.49
518.93	425.98
519.10	334.70
519.27	397.89
519.45	397.89
519.62	400.23
519.79	379.17
519.96	339.38
520.14	428.32
520.31	482.15
520.48	425.98
520.65	388.53
520.83	407.25
521.00	421.30
521.17	409.59
521.34	402.57
521.52	437.68
521.69	388.53
521.86	400.23
522.03	454.06
522.20	447.04
522.38	440.02
522.55	461.09
522.72	444.70
522.89	437.68
523.07	416.62
523.24	430.66
523.41	447.04
523.58	407.25
523.75	421.30
523.92	386.19
524.10	365.12
524.27	416.62
524.44	411.93
524.61	451.72
524.78	407.25
524.96	456.40
525.13	400.23
525.30	414.27
525.47	498.53
525.64	444.70
525.81	437.68
525.98	395.55
526.16	414.27
526.33	430.66
526.50	386.19
526.67	376.83
526.84	348.74
527.01	414.27
527.18	451.72
527.36	421.30
527.53	421.30
527.70	461.09
527.87	409.59
528.04	376.83
528.21	428.32
528.38	428.32
528.55	458.74
528.72	465.77
528.89	442.36
529.07	414.27
529.24	397.89
529.41	428.32
529.58	411.93
529.75	362.78
529.92	461.09
530.09	449.38
530.26	496.19
530.43	442.36
530.60	407.25
530.77	409.59
530.94	383.85
531.11	470.45
531.28	393.21
531.46	411.93
531.63	397.89
531.80	393.21
531.97	372.15
532.14	451.72
532.31	510.24
532.48	503.22
532.65	386.19
532.82	447.04
532.99	444.70
533.16	397.89
533.33	407.25
533.50	308.95
533.67	404.91
533.84	414.27
534.01	425.98
534.18	421.30
534.35	362.78
534.52	416.62
534.69	442.36
534.86	456.40
535.03	425.98
535.20	395.55
535.37	421.30
535.54	435.34
535.71	376.83
535.88	470.45
536.05	430.66
536.22	374.49
536.38	440.02
536.55	451.72
536.72	433.00
536.89	414.27
537.06	416.62
537.23	374.49
537.40	433.00
537.57	458.74
537.74	421.30
537.91	472.79
538.08	397.89
538.25	430.66
538.42	463.43
538.59	433.00
538.75	388.53
538.92	447.04
539.09	465.77
539.26	444.70
539.43	484.49
539.60	407.25
539.77	451.72
539.94	430.66
540.11	423.64
540.28	491.51
540.44	435.34
540.61	404.91
540.78	404.91
540.95	411.93
541.12	374.49
541.29	414.27
541.46	440.02
541.62	418.96
541.79	425.98
541.96	369.80
542.13	428.32
542.30	498.53
542.47	477.47
542.63	482.15
542.80	491.51
542.97	456.40
543.14	475.13
543.31	430.66
543.48	430.66
543.64	440.02
543.81	388.53
543.98	330.02
544.15	451.72
544.32	390.87
544.48	383.85
544.65	458.74
544.82	369.80
544.99	402.57
545.16	421.30
545.32	423.64
545.49	386.19
545.66	454.06
545.83	360.44
546.00	456.40
546.16	472.79
546.33	437.68
546.50	447.04
546.67	514.92
546.83	416.62
547.00	404.91
547.17	400.23
547.34	444.70
547.50	376.83
547.67	400.23
547.84	355.76
548.00	369.80
548.17	435.34
548.34	353.42
548.51	468.11
548.67	411.93
548.84	407.25
549.01	447.04
549.18	386.19
549.34	463.43
549.51	369.80
549.68	479.81
549.84	489.17
550.01	383.85
550.18	433.00
550.34	423.64
550.51	425.98
550.68	404.91
550.84	372.15
551.01	400.23
551.18	409.59
551.34	407.25
551.51	468.11
551.68	454.06
551.84	423.64
552.01	418.96
552.18	362.78
552.34	306.61
552.51	505.56
552.68	449.38
552.84	351.08
553.01	437.68
553.18	386.19
553.34	386.19
553.51	442.36
553.67	433.00
553.84	458.74
554.01	470.45
554.17	442.36
554.34	435.34
554.51	425.98
554.67	407.25
554.84	496.19
555.00	437.68
555.17	430.66
555.33	400.23
555.50	416.62
555.67	428.32
555.83	421.30
556.00	442.36
556.16	519.60
556.33	449.38
556.50	414.27
556.66	393.21
556.83	418.96
556.99	468.11
557.16	325.33
557.32	454.06
557.49	386.19
557.65	407.25
557.82	442.36
557.98	435.34
558.15	418.96
558.32	407.25
558.48	421.30
558.65	390.87
558.81	416.62
558.98	351.08
559.14	414.27
559.31	463.43
559.47	409.59
559.64	393.21
559.80	451.72
559.97	425.98
560.13	407.25
560.30	332.36
560.46	416.62
560.63	416.62
560.79	454.06
560.96	458.74
561.12	428.32
561.29	397.89
561.45	435.34
561.61	367.46
561.78	524.28
561.94	301.93
562.11	388.53
562.27	444.70
562.44	273.84
562.60	397.89
562.77	463.43
562.93	477.47
563.10	351.08
563.26	428.32
563.42	433.00
563.59	514.92
563.75	421.30
563.92	421.30
564.08	402.57
564.24	456.40
564.41	479.81
564.57	442.36
564.74	337.04
564.90	409.59
565.07	393.21
565.23	362.78
565.39	404.91
565.56	411.93
565.72	435.34
565.88	367.46
566.05	407.25
566.21	425.98
566.38	475.13
566.54	440.02
566.70	397.89
566.87	311.29
567.03	358.10
567.19	421.30
567.36	400.23
567.52	395.55
567.68	404.91
567.85	447.04
568.01	390.87
568.17	397.89
568.34	409.59
568.50	425.98
568.66	395.55
568.83	472.79
568.99	435.34
569.15	435.34
569.32	454.06
569.48	379.17
569.64	372.15
569.81	447.04
569.97	418.96
570.13	381.51
570.30	435.34
570.46	425.98
570.62	379.17
570.78	404.91
570.95	442.36
571.11	416.62
571.27	411.93
571.43	348.74
571.60	418.96
571.76	393.21
571.92	414.27
572.09	372.15
572.25	423.64
572.41	409.59
572.57	440.02
572.74	430.66
572.90	381.51
573.06	493.85
573.22	425.98
573.38	468.11
573.55	430.66
573.71	463.43
573.87	407.25
574.03	444.70
574.20	409.59
574.36	442.36
574.52	409.59
574.68	437.68
574.84	411.93
575.01	374.49
575.17	461.09
575.33	388.53
575.49	437.68
575.65	421.30
575.82	425.98
575.98	414.27
576.14	409.59
576.30	301.93
576.46	451.72
576.62	386.19
576.79	465.77
576.95	479.81
577.11	472.79
577.27	430.66
577.43	512.58
577.59	493.85
577.75	425.98
577.92	433.00
578.08	449.38
578.24	433.00
578.40	510.24
578.56	456.40
578.72	486.83
578.88	437.68
579.04	442.36
579.21	421.30
579.37	393.21
579.53	428.32
579.69	463.43
579.85	376.83
580.01	402.57
580.17	381.51
580.33	372.15
580.49	437.68
580.65	428.32
580.82	386.19
580.98	409.59
581.14	404.91
581.30	416.62
581.46	404.91
581.62	421.30
581.78	428.32
581.94	470.45
582.10	428.32
582.26	423.64
582.42	440.02
582.58	423.64
582.74	421.30
582.90	489.17
583.06	390.87
583.22	423.64
583.38	411.93
583.54	407.25
583.70	425.98
583.86	383.85
584.02	400.23
584.18	421.30
584.34	428.32
584.50	414.27
584.66	397.89
584.82	390.87
584.98	386.19
585.14	435.34
585.30	411.93
585.46	372.15
585.62	468.11
585.78	475.13
585.94	388.53
586.10	407.25
586.26	411.93
586.42	440.02
586.58	433.00
586.74	362.78
586.90	306.61
587.06	402.57
587.22	428.32
587.38	428.32
587.54	430.66
587.70	505.56
587.86	449.38
588.02	400.23
588.18	414.27
588.34	433.00
588.49	416.62
588.65	440.02
588.81	451.72
588.97	409.59
589.13	479.81
589.29	435.34
589.45	390.87
589.61	409.59
589.77	421.30
589.93	451.72
590.08	404.91
590.24	353.42
590.40	475.13
590.56	409.59
590.72	397.89
590.88	369.80
591.04	498.53
591.20	411.93
591.35	447.04
591.51	451.72
591.67	397.89
591.83	390.87
591.99	458.74
592.15	376.83
592.31	386.19
592.46	404.91
592.62	458.74
592.78	442.36
592.94	447.04
593.10	402.57
593.26	444.70
593.41	477.47
593.57	395.55
593.73	388.53
593.89	442.36
594.05	397.89
594.20	372.15
594.36	507.90
594.52	393.21
594.68	369.80
594.84	437.68
594.99	442.36
595.15	346.40
595.31	477.47
595.47	409.59
595.62	440.02
595.78	472.79
595.94	454.06
596.10	390.87
596.25	423.64
596.41	456.40
596.57	416.62
596.73	425.98
596.88	421.30
597.04	447.04
597.20	440.02
597.36	437.68
597.51	442.36
597.67	442.36
597.83	454.06
597.99	418.96
598.14	423.64
598.30	390.87
598.46	428.32
598.61	463.43
598.77	428.32
598.93	425.98
599.09	433.00
599.24	442.36
599.40	428.32
599.56	423.64
599.71	444.70
599.87	433.00
600.03	407.25
600.18	411.93
600.34	411.93
600.50	440.02
600.65	423.64
600.81	418.96
600.97	442.36
601.12	379.17
601.28	451.72
601.44	393.21
601.59	397.89
601.75	383.85
601.91	348.74
602.06	463.43
602.22	521.94
602.37	355.76
602.53	430.66
602.69	414.27
602.84	367.46
603.00	428.32
603.16	407.25
603.31	447.04
603.47	402.57
603.62	400.23
603.78	416.62
603.94	404.91
604.09	421.30
604.25	379.17
604.40	463.43
604.56	423.64
604.71	400.23
604.87	430.66
605.03	397.89
605.18	402.57
605.34	447.04
605.49	393.21
605.65	372.15
605.80	475.13
605.96	362.78
606.12	470.45
606.27	409.59
606.43	395.55
606.58	484.49
606.74	397.89
606.89	416.62
607.05	409.59
607.20	463.43
607.36	423.64
607.51	461.09
607.67	397.89
607.82	397.89
607.98	425.98
608.13	442.36
608.29	465.77
608.44	498.53
608.60	423.64
608.75	425.98
608.91	449.38
609.06	414.27
609.22	404.91
609.37	433.00
609.53	437.68
609.68	388.53
609.84	449.38
609.99	451.72
610.15	449.38
