SpectraSuite Data File
++++++++++++++++++++++++++++++++++++
Date: Fri Oct 25 12:11:07 EDT 2013
User: price-jones
Dark Spectrum Present: No
Reference Spectrum Present: No
Number of Sampled Component Spectra: 1
Spectrometers: USB2+H05261
Integration Time (usec): 100000 (USB2+H05261)
Spectra Averaged: 1 (USB2+H05261)
Boxcar Smoothing: 0 (USB2+H05261)
Correct for Electrical Dark: No (USB2+H05261)
Strobe/Lamp Enabled: No (USB2+H05261)
Correct for Detector Non-linearity: No (USB2+H05261)
Correct for Stray Light: No (USB2+H05261)
Number of Pixels in Processed Spectrum: 2048
>>>>>Begin Processed Spectral Data<<<<<
365.73	390.87
365.92	390.87
366.12	390.87
366.32	252.78
366.52	149.79
366.72	227.03
366.91	271.50
367.11	208.31
367.31	325.33
367.51	222.35
367.70	229.37
367.90	212.99
368.10	208.31
368.30	264.48
368.49	198.95
368.69	325.33
368.89	255.12
369.09	257.46
369.28	238.73
369.48	334.70
369.68	278.52
369.87	241.08
370.07	266.82
370.27	337.04
370.47	248.10
370.66	337.04
370.86	369.80
371.06	428.32
371.25	379.17
371.45	414.27
371.65	449.38
371.84	425.98
372.04	369.80
372.24	458.74
372.44	416.62
372.63	386.19
372.83	404.91
373.03	409.59
373.22	395.55
373.42	365.12
373.62	379.17
373.81	379.17
374.01	404.91
374.21	411.93
374.40	440.02
374.60	404.91
374.79	440.02
374.99	454.06
375.19	381.51
375.38	428.32
375.58	437.68
375.78	358.10
375.97	461.09
376.17	472.79
376.37	407.25
376.56	444.70
376.76	379.17
376.95	416.62
377.15	451.72
377.35	421.30
377.54	428.32
377.74	496.19
377.93	470.45
378.13	428.32
378.33	454.06
378.52	470.45
378.72	395.55
378.91	369.80
379.11	332.36
379.31	433.00
379.50	414.27
379.70	397.89
379.89	414.27
380.09	414.27
380.28	393.21
380.48	374.49
380.68	400.23
380.87	486.83
381.07	433.00
381.26	435.34
381.46	397.89
381.65	400.23
381.85	475.13
382.04	418.96
382.24	414.27
382.43	433.00
382.63	407.25
382.83	461.09
383.02	425.98
383.22	414.27
383.41	383.85
383.61	369.80
383.80	428.32
384.00	388.53
384.19	463.43
384.39	351.08
384.58	407.25
384.78	367.46
384.97	348.74
385.17	407.25
385.36	458.74
385.56	463.43
385.75	402.57
385.95	416.62
386.14	475.13
386.34	421.30
386.53	407.25
386.72	351.08
386.92	418.96
387.11	416.62
387.31	390.87
387.50	358.10
387.70	353.42
387.89	299.59
388.09	358.10
388.28	365.12
388.48	428.32
388.67	416.62
388.86	325.33
389.06	425.98
389.25	421.30
389.45	397.89
389.64	442.36
389.84	440.02
390.03	433.00
390.22	383.85
390.42	470.45
390.61	423.64
390.81	365.12
391.00	358.10
391.19	400.23
391.39	409.59
391.58	486.83
391.78	402.57
391.97	388.53
392.16	351.08
392.36	404.91
392.55	416.62
392.75	388.53
392.94	365.12
393.13	390.87
393.33	404.91
393.52	348.74
393.71	449.38
393.91	400.23
394.10	425.98
394.29	451.72
394.49	355.76
394.68	379.17
394.88	416.62
395.07	421.30
395.26	369.80
395.46	437.68
395.65	444.70
395.84	393.21
396.04	519.60
396.23	397.89
396.42	339.38
396.62	369.80
396.81	404.91
397.00	430.66
397.19	404.91
397.39	411.93
397.58	337.04
397.77	325.33
397.97	386.19
398.16	435.34
398.35	435.34
398.55	362.78
398.74	395.55
398.93	404.91
399.12	393.21
399.32	327.68
399.51	418.96
399.70	407.25
399.90	379.17
400.09	381.51
400.28	402.57
400.47	362.78
400.67	454.06
400.86	362.78
401.05	433.00
401.24	411.93
401.44	407.25
401.63	388.53
401.82	381.51
402.01	332.36
402.21	369.80
402.40	428.32
402.59	372.15
402.78	374.49
402.97	369.80
403.17	437.68
403.36	472.79
403.55	430.66
403.74	372.15
403.93	449.38
404.13	365.12
404.32	440.02
404.51	447.04
404.70	397.89
404.89	313.63
405.09	374.49
405.28	423.64
405.47	379.17
405.66	451.72
405.85	376.83
406.05	428.32
406.24	423.64
406.43	425.98
406.62	367.46
406.81	390.87
407.00	418.96
407.20	355.76
407.39	437.68
407.58	367.46
407.77	409.59
407.96	425.98
408.15	425.98
408.34	454.06
408.54	362.78
408.73	388.53
408.92	447.04
409.11	404.91
409.30	442.36
409.49	421.30
409.68	433.00
409.87	454.06
410.07	404.91
410.26	407.25
410.45	337.04
410.64	465.77
410.83	407.25
411.02	365.12
411.21	409.59
411.40	397.89
411.59	372.15
411.78	379.17
411.98	376.83
412.17	416.62
412.36	454.06
412.55	360.44
412.74	395.55
412.93	416.62
413.12	369.80
413.31	386.19
413.50	360.44
413.69	416.62
413.88	489.17
414.07	388.53
414.26	442.36
414.45	468.11
414.64	425.98
414.83	421.30
415.02	369.80
415.22	442.36
415.41	383.85
415.60	423.64
415.79	390.87
415.98	430.66
416.17	444.70
416.36	470.45
416.55	430.66
416.74	421.30
416.93	430.66
417.12	416.62
417.31	461.09
417.50	386.19
417.69	372.15
417.88	367.46
418.07	365.12
418.26	381.51
418.45	423.64
418.64	388.53
418.83	372.15
419.02	430.66
419.21	416.62
419.39	428.32
419.58	416.62
419.77	339.38
419.96	393.21
420.15	386.19
420.34	437.68
420.53	379.17
420.72	414.27
420.91	468.11
421.10	341.72
421.29	395.55
421.48	346.40
421.67	395.55
421.86	416.62
422.05	327.68
422.24	416.62
422.43	409.59
422.61	386.19
422.80	388.53
422.99	470.45
423.18	346.40
423.37	400.23
423.56	433.00
423.75	440.02
423.94	341.72
424.13	355.76
424.32	437.68
424.50	433.00
424.69	407.25
424.88	414.27
425.07	409.59
425.26	416.62
425.45	367.46
425.64	379.17
425.83	482.15
426.01	444.70
426.20	388.53
426.39	423.64
426.58	407.25
426.77	386.19
426.96	395.55
427.15	416.62
427.33	411.93
427.52	379.17
427.71	376.83
427.90	416.62
428.09	454.06
428.28	451.72
428.46	332.36
428.65	393.21
428.84	449.38
429.03	440.02
429.22	479.81
429.40	388.53
429.59	470.45
429.78	500.87
429.97	430.66
430.16	491.51
430.34	358.10
430.53	330.02
430.72	428.32
430.91	397.89
431.10	428.32
431.28	376.83
431.47	404.91
431.66	428.32
431.85	414.27
432.03	381.51
432.22	440.02
432.41	400.23
432.60	482.15
432.79	440.02
432.97	372.15
433.16	447.04
433.35	416.62
433.54	444.70
433.72	388.53
433.91	442.36
434.10	454.06
434.28	346.40
434.47	425.98
434.66	379.17
434.85	360.44
435.03	388.53
435.22	416.62
435.41	433.00
435.59	397.89
435.78	402.57
435.97	435.34
436.16	444.70
436.34	411.93
436.53	397.89
436.72	383.85
436.90	440.02
437.09	397.89
437.28	379.17
437.46	400.23
437.65	484.49
437.84	402.57
438.02	423.64
438.21	489.17
438.40	484.49
438.58	353.42
438.77	414.27
438.96	395.55
439.14	374.49
439.33	428.32
439.52	383.85
439.70	400.23
439.89	430.66
440.08	414.27
440.26	367.46
440.45	393.21
440.63	409.59
440.82	395.55
441.01	435.34
441.19	411.93
441.38	472.79
441.57	407.25
441.75	472.79
441.94	458.74
442.12	484.49
442.31	430.66
442.50	447.04
442.68	332.36
442.87	344.06
443.05	421.30
443.24	383.85
443.43	416.62
443.61	425.98
443.80	358.10
443.98	423.64
444.17	337.04
444.35	440.02
444.54	367.46
444.73	414.27
444.91	454.06
445.10	365.12
445.28	430.66
445.47	369.80
445.65	388.53
445.84	362.78
446.02	397.89
446.21	369.80
446.39	409.59
446.58	407.25
446.77	383.85
446.95	463.43
447.14	449.38
447.32	463.43
447.51	393.21
447.69	414.27
447.88	376.83
448.06	470.45
448.25	437.68
448.43	472.79
448.62	428.32
448.80	458.74
448.99	489.17
449.17	404.91
449.36	372.15
449.54	409.59
449.73	388.53
449.91	402.57
450.10	454.06
450.28	503.22
450.46	507.90
450.65	386.19
450.83	393.21
451.02	386.19
451.20	388.53
451.39	477.47
451.57	407.25
451.76	423.64
451.94	397.89
452.13	461.09
452.31	444.70
452.49	444.70
452.68	400.23
452.86	435.34
453.05	484.49
453.23	475.13
453.42	362.78
453.60	379.17
453.78	358.10
453.97	390.87
454.15	390.87
454.34	411.93
454.52	416.62
454.70	428.32
454.89	421.30
455.07	435.34
455.26	442.36
455.44	447.04
455.62	367.46
455.81	440.02
455.99	395.55
456.17	407.25
456.36	400.23
456.54	463.43
456.73	428.32
456.91	463.43
457.09	383.85
457.28	440.02
457.46	409.59
457.64	416.62
457.83	428.32
458.01	472.79
458.19	421.30
458.38	365.12
458.56	372.15
458.74	407.25
458.93	524.28
459.11	465.77
459.29	421.30
459.48	435.34
459.66	386.19
459.84	449.38
460.03	465.77
460.21	386.19
460.39	437.68
460.57	435.34
460.76	395.55
460.94	409.59
461.12	472.79
461.31	557.05
461.49	430.66
461.67	383.85
461.85	341.72
462.04	379.17
462.22	816.85
462.40	365.12
462.59	334.70
462.77	430.66
462.95	414.27
463.13	351.08
463.32	414.27
463.50	393.21
463.68	454.06
463.86	409.59
464.05	390.87
464.23	463.43
464.41	428.32
464.59	440.02
464.78	461.09
464.96	451.72
465.14	376.83
465.32	449.38
465.50	421.30
465.69	479.81
465.87	355.76
466.05	425.98
466.23	409.59
466.41	458.74
466.60	442.36
466.78	440.02
466.96	376.83
467.14	388.53
467.32	451.72
467.51	334.70
467.69	461.09
467.87	435.34
468.05	397.89
468.23	437.68
468.41	411.93
468.60	458.74
468.78	409.59
468.96	404.91
469.14	390.87
469.32	393.21
469.50	409.59
469.69	440.02
469.87	358.10
470.05	433.00
470.23	400.23
470.41	341.72
470.59	409.59
470.77	367.46
470.95	437.68
471.14	458.74
471.32	454.06
471.50	411.93
471.68	402.57
471.86	442.36
472.04	451.72
472.22	409.59
472.40	433.00
472.58	472.79
472.77	379.17
472.95	369.80
473.13	442.36
473.31	479.81
473.49	388.53
473.67	409.59
473.85	409.59
474.03	444.70
474.21	447.04
474.39	423.64
474.57	482.15
474.75	430.66
474.93	451.72
475.12	411.93
475.30	451.72
475.48	418.96
475.66	428.32
475.84	421.30
476.02	407.25
476.20	397.89
476.38	407.25
476.56	423.64
476.74	428.32
476.92	451.72
477.10	313.63
477.28	468.11
477.46	451.72
477.64	465.77
477.82	437.68
478.00	386.19
478.18	365.12
478.36	372.15
478.54	386.19
478.72	435.34
478.90	449.38
479.08	381.51
479.26	369.80
479.44	472.79
479.62	435.34
479.80	372.15
479.98	442.36
480.16	404.91
480.34	397.89
480.52	433.00
480.70	411.93
480.88	416.62
481.06	397.89
481.24	351.08
481.41	407.25
481.59	409.59
481.77	428.32
481.95	383.85
482.13	416.62
482.31	433.00
482.49	433.00
482.67	381.51
482.85	519.60
483.03	444.70
483.21	435.34
483.39	461.09
483.57	430.66
483.74	409.59
483.92	397.89
484.10	428.32
484.28	461.09
484.46	472.79
484.64	383.85
484.82	358.10
485.00	402.57
485.18	444.70
485.35	465.77
485.53	517.26
485.71	353.42
485.89	437.68
486.07	372.15
486.25	472.79
486.43	447.04
486.61	407.25
486.78	435.34
486.96	407.25
487.14	386.19
487.32	423.64
487.50	400.23
487.68	463.43
487.85	409.59
488.03	463.43
488.21	425.98
488.39	311.29
488.57	477.47
488.75	433.00
488.92	461.09
489.10	456.40
489.28	393.21
489.46	421.30
489.64	416.62
489.81	475.13
489.99	369.80
490.17	447.04
490.35	479.81
490.53	407.25
490.70	367.46
490.88	477.47
491.06	374.49
491.24	381.51
491.41	395.55
491.59	484.49
491.77	411.93
491.95	341.72
492.13	374.49
492.30	442.36
492.48	397.89
492.66	376.83
492.84	390.87
493.01	367.46
493.19	447.04
493.37	379.17
493.54	440.02
493.72	409.59
493.90	416.62
494.08	346.40
494.25	362.78
494.43	414.27
494.61	430.66
494.79	409.59
494.96	428.32
495.14	367.46
495.32	407.25
495.49	393.21
495.67	383.85
495.85	369.80
496.02	404.91
496.20	496.19
496.38	402.57
496.55	440.02
496.73	358.10
496.91	374.49
497.09	381.51
497.26	451.72
497.44	428.32
497.62	365.12
497.79	379.17
497.97	325.33
498.14	472.79
498.32	409.59
498.50	433.00
498.67	442.36
498.85	440.02
499.03	397.89
499.20	414.27
499.38	425.98
499.56	290.23
499.73	440.02
499.91	440.02
500.08	428.32
500.26	451.72
500.44	491.51
500.61	428.32
500.79	395.55
500.97	400.23
501.14	547.69
501.32	393.21
501.49	416.62
501.67	327.68
501.84	416.62
502.02	428.32
502.20	491.51
502.37	477.47
502.55	393.21
502.72	407.25
502.90	365.12
503.07	381.51
503.25	433.00
503.43	395.55
503.60	430.66
503.78	482.15
503.95	402.57
504.13	493.85
504.30	451.72
504.48	505.56
504.65	456.40
504.83	418.96
505.01	416.62
505.18	404.91
505.36	454.06
505.53	379.17
505.71	397.89
505.88	451.72
506.06	409.59
506.23	425.98
506.41	372.15
506.58	454.06
506.76	402.57
506.93	379.17
507.11	395.55
507.28	440.02
507.46	425.98
507.63	477.47
507.81	383.85
507.98	486.83
508.16	484.49
508.33	440.02
508.50	390.87
508.68	395.55
508.85	463.43
509.03	423.64
509.20	407.25
509.38	477.47
509.55	393.21
509.73	447.04
509.90	421.30
510.08	337.04
510.25	388.53
510.42	353.42
510.60	397.89
510.77	416.62
510.95	418.96
511.12	454.06
511.30	433.00
511.47	386.19
511.64	447.04
511.82	374.49
511.99	367.46
512.17	402.57
512.34	248.10
512.51	388.53
512.69	360.44
512.86	374.49
513.04	425.98
513.21	433.00
513.38	416.62
513.56	433.00
513.73	393.21
513.90	393.21
514.08	421.30
514.25	390.87
514.43	407.25
514.60	334.70
514.77	421.30
514.95	423.64
515.12	395.55
515.29	400.23
515.47	418.96
515.64	461.09
515.81	421.30
515.99	451.72
516.16	379.17
516.33	524.28
516.51	397.89
516.68	407.25
516.85	353.42
517.03	421.30
517.20	437.68
517.37	435.34
517.54	395.55
517.72	440.02
517.89	461.09
518.06	435.34
518.24	397.89
518.41	472.79
518.58	447.04
518.75	332.36
518.93	344.06
519.10	454.06
519.27	402.57
519.45	430.66
519.62	407.25
519.79	421.30
519.96	425.98
520.14	376.83
520.31	475.13
520.48	447.04
520.65	421.30
520.83	440.02
521.00	423.64
521.17	437.68
521.34	430.66
521.52	395.55
521.69	440.02
521.86	395.55
522.03	414.27
522.20	444.70
522.38	423.64
522.55	472.79
522.72	472.79
522.89	409.59
523.07	496.19
523.24	416.62
523.41	390.87
523.58	397.89
523.75	383.85
523.92	411.93
524.10	397.89
524.27	362.78
524.44	397.89
524.61	423.64
524.78	397.89
524.96	400.23
525.13	388.53
525.30	526.62
525.47	447.04
525.64	458.74
525.81	430.66
525.98	404.91
526.16	442.36
526.33	393.21
526.50	379.17
526.67	369.80
526.84	456.40
527.01	351.08
527.18	367.46
527.36	414.27
527.53	355.76
527.70	425.98
527.87	454.06
528.04	475.13
528.21	425.98
528.38	383.85
528.55	440.02
528.72	442.36
528.89	512.58
529.07	388.53
529.24	404.91
529.41	486.83
529.58	430.66
529.75	341.72
529.92	489.17
530.09	475.13
530.26	447.04
530.43	355.76
530.60	372.15
530.77	395.55
530.94	379.17
531.11	425.98
531.28	379.17
531.46	423.64
531.63	433.00
531.80	360.44
531.97	395.55
532.14	407.25
532.31	447.04
532.48	414.27
532.65	433.00
532.82	421.30
532.99	344.06
533.16	374.49
533.33	421.30
533.50	430.66
533.67	365.12
533.84	390.87
534.01	393.21
534.18	383.85
534.35	407.25
534.52	503.22
534.69	404.91
534.86	435.34
535.03	435.34
535.20	397.89
535.37	416.62
535.54	409.59
535.71	442.36
535.88	386.19
536.05	477.47
536.22	402.57
536.38	507.90
536.55	430.66
536.72	367.46
536.89	383.85
537.06	416.62
537.23	423.64
537.40	332.36
537.57	395.55
537.74	465.77
537.91	435.34
538.08	421.30
538.25	414.27
538.42	365.12
538.59	498.53
538.75	355.76
538.92	369.80
539.09	360.44
539.26	433.00
539.43	400.23
539.60	482.15
539.77	404.91
539.94	433.00
540.11	505.56
540.28	390.87
540.44	430.66
540.61	456.40
540.78	365.12
540.95	390.87
541.12	409.59
541.29	383.85
541.46	409.59
541.62	344.06
541.79	383.85
541.96	411.93
542.13	374.49
542.30	383.85
542.47	402.57
542.63	440.02
542.80	440.02
542.97	416.62
543.14	416.62
543.31	360.44
543.48	416.62
543.64	386.19
543.81	416.62
543.98	402.57
544.15	435.34
544.32	456.40
544.48	416.62
544.65	400.23
544.82	440.02
544.99	418.96
545.16	440.02
545.32	355.76
545.49	425.98
545.66	449.38
545.83	341.72
546.00	447.04
546.16	430.66
546.33	393.21
546.50	404.91
546.67	430.66
546.83	416.62
547.00	493.85
547.17	402.57
547.34	449.38
547.50	428.32
547.67	418.96
547.84	376.83
548.00	416.62
548.17	454.06
548.34	407.25
548.51	451.72
548.67	470.45
548.84	402.57
549.01	397.89
549.18	376.83
549.34	369.80
549.51	437.68
549.68	440.02
549.84	414.27
550.01	461.09
550.18	496.19
550.34	468.11
550.51	479.81
550.68	472.79
550.84	430.66
551.01	442.36
551.18	428.32
551.34	468.11
551.51	435.34
551.68	421.30
551.84	388.53
552.01	435.34
552.18	519.60
552.34	372.15
552.51	381.51
552.68	388.53
552.84	433.00
553.01	404.91
553.18	470.45
553.34	437.68
553.51	395.55
553.67	416.62
553.84	465.77
554.01	390.87
554.17	454.06
554.34	489.17
554.51	447.04
554.67	407.25
554.84	376.83
555.00	407.25
555.17	388.53
555.33	409.59
555.50	358.10
555.67	465.77
555.83	376.83
556.00	468.11
556.16	500.87
556.33	468.11
556.50	407.25
556.66	404.91
556.83	454.06
556.99	468.11
557.16	482.15
557.32	423.64
557.49	411.93
557.65	437.68
557.82	390.87
557.98	404.91
558.15	337.04
558.32	402.57
558.48	449.38
558.65	430.66
558.81	416.62
558.98	416.62
559.14	442.36
559.31	416.62
559.47	437.68
559.64	369.80
559.80	383.85
559.97	418.96
560.13	414.27
560.30	454.06
560.46	414.27
560.63	447.04
560.79	400.23
560.96	425.98
561.12	416.62
561.29	341.72
561.45	437.68
561.61	440.02
561.78	491.51
561.94	482.15
562.11	411.93
562.27	372.15
562.44	332.36
562.60	409.59
562.77	479.81
562.93	449.38
563.10	458.74
563.26	428.32
563.42	451.72
563.59	461.09
563.75	435.34
563.92	430.66
564.08	393.21
564.24	510.24
564.41	418.96
564.57	425.98
564.74	442.36
564.90	449.38
565.07	386.19
565.23	442.36
565.39	433.00
565.56	458.74
565.72	428.32
565.88	395.55
566.05	444.70
566.21	423.64
566.38	437.68
566.54	418.96
566.70	411.93
566.87	383.85
567.03	369.80
567.19	404.91
567.36	451.72
567.52	454.06
567.68	437.68
567.85	437.68
568.01	348.74
568.17	416.62
568.34	461.09
568.50	465.77
568.66	360.44
568.83	514.92
568.99	369.80
569.15	465.77
569.32	463.43
569.48	425.98
569.64	425.98
569.81	346.40
569.97	484.49
570.13	414.27
570.30	346.40
570.46	435.34
570.62	374.49
570.78	383.85
570.95	414.27
571.11	470.45
571.27	437.68
571.43	430.66
571.60	479.81
571.76	491.51
571.92	395.55
572.09	372.15
572.25	423.64
572.41	435.34
572.57	386.19
572.74	416.62
572.90	425.98
573.06	402.57
573.22	435.34
573.38	433.00
573.55	484.49
573.71	414.27
573.87	430.66
574.03	388.53
574.20	395.55
574.36	430.66
574.52	374.49
574.68	418.96
574.84	397.89
575.01	397.89
575.17	407.25
575.33	500.87
575.49	491.51
575.65	428.32
575.82	442.36
575.98	461.09
576.14	393.21
576.30	468.11
576.46	360.44
576.62	435.34
576.79	407.25
576.95	498.53
577.11	430.66
577.27	411.93
577.43	470.45
577.59	458.74
577.75	433.00
577.92	425.98
578.08	390.87
578.24	388.53
578.40	393.21
578.56	477.47
578.72	451.72
578.88	475.13
579.04	397.89
579.21	421.30
579.37	442.36
579.53	423.64
579.69	465.77
579.85	414.27
580.01	463.43
580.17	468.11
580.33	458.74
580.49	383.85
580.65	379.17
580.82	376.83
580.98	400.23
581.14	393.21
581.30	456.40
581.46	397.89
581.62	409.59
581.78	353.42
581.94	372.15
582.10	404.91
582.26	376.83
582.42	425.98
582.58	369.80
582.74	440.02
582.90	374.49
583.06	383.85
583.22	486.83
583.38	383.85
583.54	416.62
583.70	442.36
583.86	458.74
584.02	353.42
584.18	383.85
584.34	388.53
584.50	407.25
584.66	337.04
584.82	304.27
584.98	388.53
585.14	477.47
585.30	381.51
585.46	374.49
585.62	386.19
585.78	404.91
585.94	479.81
586.10	433.00
586.26	430.66
586.42	440.02
586.58	393.21
586.74	397.89
586.90	414.27
587.06	407.25
587.22	451.72
587.38	390.87
587.54	386.19
587.70	409.59
587.86	421.30
588.02	400.23
588.18	472.79
588.34	437.68
588.49	390.87
588.65	468.11
588.81	416.62
588.97	376.83
589.13	437.68
589.29	421.30
589.45	454.06
589.61	416.62
589.77	393.21
589.93	409.59
590.08	397.89
590.24	393.21
590.40	423.64
590.56	440.02
590.72	425.98
590.88	477.47
591.04	395.55
591.20	437.68
591.35	409.59
591.51	409.59
591.67	437.68
591.83	390.87
591.99	395.55
592.15	435.34
592.31	386.19
592.46	451.72
592.62	421.30
592.78	411.93
592.94	435.34
593.10	372.15
593.26	311.29
593.41	416.62
593.57	468.11
593.73	341.72
593.89	442.36
594.05	334.70
594.20	435.34
594.36	390.87
594.52	397.89
594.68	386.19
594.84	440.02
594.99	449.38
595.15	390.87
595.31	500.87
595.47	454.06
595.62	470.45
595.78	411.93
595.94	421.30
596.10	458.74
596.25	447.04
596.41	402.57
596.57	388.53
596.73	409.59
596.88	414.27
597.04	390.87
597.20	451.72
597.36	421.30
597.51	463.43
597.67	440.02
597.83	472.79
597.99	449.38
598.14	437.68
598.30	430.66
598.46	402.57
598.61	503.22
598.77	397.89
598.93	365.12
599.09	372.15
599.24	360.44
599.40	440.02
599.56	388.53
599.71	423.64
599.87	416.62
600.03	393.21
600.18	369.80
600.34	456.40
600.50	355.76
600.65	418.96
600.81	421.30
600.97	440.02
601.12	440.02
601.28	409.59
601.44	388.53
601.59	407.25
601.75	383.85
601.91	376.83
602.06	421.30
602.22	538.32
602.37	367.46
602.53	351.08
602.69	402.57
602.84	381.51
603.00	318.31
603.16	472.79
603.31	437.68
603.47	454.06
603.62	482.15
603.78	430.66
603.94	381.51
604.09	433.00
604.25	428.32
604.40	400.23
604.56	416.62
604.71	425.98
604.87	517.26
605.03	447.04
605.18	416.62
605.34	493.85
605.49	402.57
605.65	423.64
605.80	458.74
605.96	407.25
606.12	416.62
606.27	470.45
606.43	440.02
606.58	395.55
606.74	442.36
606.89	358.10
607.05	416.62
607.20	397.89
607.36	407.25
607.51	414.27
607.67	437.68
607.82	397.89
607.98	489.17
608.13	416.62
608.29	437.68
608.44	383.85
608.60	423.64
608.75	411.93
608.91	442.36
609.06	435.34
609.22	393.21
609.37	423.64
609.53	465.77
609.68	442.36
609.84	430.66
609.99	444.70
610.15	416.62
