SpectraSuite Data File
++++++++++++++++++++++++++++++++++++
Date: Fri Oct 25 12:11:28 EDT 2013
User: price-jones
Dark Spectrum Present: No
Reference Spectrum Present: No
Number of Sampled Component Spectra: 1
Spectrometers: USB2+H05261
Integration Time (usec): 100000 (USB2+H05261)
Spectra Averaged: 1 (USB2+H05261)
Boxcar Smoothing: 0 (USB2+H05261)
Correct for Electrical Dark: No (USB2+H05261)
Strobe/Lamp Enabled: No (USB2+H05261)
Correct for Detector Non-linearity: No (USB2+H05261)
Correct for Stray Light: No (USB2+H05261)
Number of Pixels in Processed Spectrum: 2048
>>>>>Begin Processed Spectral Data<<<<<
365.73	306.61
365.92	306.61
366.12	306.61
366.32	264.48
366.52	194.26
366.72	273.84
366.91	217.67
367.11	255.12
367.31	229.37
367.51	243.42
367.70	177.88
367.90	229.37
368.10	259.80
368.30	264.48
368.49	215.33
368.69	227.03
368.89	271.50
369.09	198.95
369.28	330.02
369.48	163.84
369.68	287.89
369.87	390.87
370.07	339.38
370.27	337.04
370.47	337.04
370.66	346.40
370.86	397.89
371.06	355.76
371.25	369.80
371.45	372.15
371.65	395.55
371.84	358.10
372.04	339.38
372.24	447.04
372.44	355.76
372.63	463.43
372.83	383.85
373.03	482.15
373.22	402.57
373.42	334.70
373.62	400.23
373.81	433.00
374.01	435.34
374.21	428.32
374.40	493.85
374.60	493.85
374.79	433.00
374.99	440.02
375.19	280.86
375.38	440.02
375.58	449.38
375.78	407.25
375.97	472.79
376.17	423.64
376.37	383.85
376.56	442.36
376.76	397.89
376.95	475.13
377.15	409.59
377.35	416.62
377.54	379.17
377.74	400.23
377.93	428.32
378.13	440.02
378.33	489.17
378.52	402.57
378.72	407.25
378.91	435.34
379.11	351.08
379.31	376.83
379.50	334.70
379.70	348.74
379.89	414.27
380.09	353.42
380.28	388.53
380.48	447.04
380.68	397.89
380.87	388.53
381.07	386.19
381.26	442.36
381.46	369.80
381.65	440.02
381.85	458.74
382.04	386.19
382.24	395.55
382.43	404.91
382.63	355.76
382.83	428.32
383.02	407.25
383.22	369.80
383.41	369.80
383.61	442.36
383.80	489.17
384.00	409.59
384.19	425.98
384.39	418.96
384.58	404.91
384.78	383.85
384.97	381.51
385.17	484.49
385.36	411.93
385.56	402.57
385.75	365.12
385.95	423.64
386.14	475.13
386.34	409.59
386.53	407.25
386.72	390.87
386.92	411.93
387.11	416.62
387.31	456.40
387.50	393.21
387.70	414.27
387.89	355.76
388.09	390.87
388.28	332.36
388.48	407.25
388.67	454.06
388.86	390.87
389.06	369.80
389.25	449.38
389.45	428.32
389.64	390.87
389.84	367.46
390.03	397.89
390.22	414.27
390.42	372.15
390.61	440.02
390.81	498.53
391.00	388.53
391.19	402.57
391.39	341.72
391.58	430.66
391.78	376.83
391.97	397.89
392.16	402.57
392.36	442.36
392.55	512.58
392.75	381.51
392.94	390.87
393.13	332.36
393.33	374.49
393.52	437.68
393.71	456.40
393.91	486.83
394.10	409.59
394.29	423.64
394.49	393.21
394.68	346.40
394.88	409.59
395.07	454.06
395.26	433.00
395.46	362.78
395.65	407.25
395.84	372.15
396.04	477.47
396.23	400.23
396.42	407.25
396.62	425.98
396.81	346.40
397.00	416.62
397.19	444.70
397.39	383.85
397.58	369.80
397.77	444.70
397.97	376.83
398.16	437.68
398.35	327.68
398.55	374.49
398.74	397.89
398.93	451.72
399.12	395.55
399.32	409.59
399.51	404.91
399.70	400.23
399.90	451.72
400.09	430.66
400.28	383.85
400.47	388.53
400.67	360.44
400.86	423.64
401.05	477.47
401.24	451.72
401.44	430.66
401.63	430.66
401.82	393.21
402.01	414.27
402.21	407.25
402.40	447.04
402.59	430.66
402.78	376.83
402.97	400.23
403.17	332.36
403.36	372.15
403.55	461.09
403.74	351.08
403.93	423.64
404.13	442.36
404.32	423.64
404.51	379.17
404.70	372.15
404.89	360.44
405.09	486.83
405.28	341.72
405.47	430.66
405.66	411.93
405.85	463.43
406.05	404.91
406.24	404.91
406.43	414.27
406.62	437.68
406.81	433.00
407.00	425.98
407.20	447.04
407.39	416.62
407.58	376.83
407.77	430.66
407.96	479.81
408.15	454.06
408.34	475.13
408.54	409.59
408.73	437.68
408.92	369.80
409.11	386.19
409.30	451.72
409.49	379.17
409.68	418.96
409.87	468.11
410.07	327.68
410.26	390.87
410.45	465.77
410.64	491.51
410.83	351.08
411.02	367.46
411.21	395.55
411.40	433.00
411.59	461.09
411.78	393.21
411.98	409.59
412.17	341.72
412.36	395.55
412.55	437.68
412.74	397.89
412.93	430.66
413.12	374.49
413.31	463.43
413.50	346.40
413.69	402.57
413.88	395.55
414.07	379.17
414.26	400.23
414.45	379.17
414.64	428.32
414.83	383.85
415.02	440.02
415.22	428.32
415.41	479.81
415.60	447.04
415.79	430.66
415.98	425.98
416.17	505.56
416.36	383.85
416.55	351.08
416.74	425.98
416.93	411.93
417.12	351.08
417.31	379.17
417.50	409.59
417.69	407.25
417.88	440.02
418.07	374.49
418.26	468.11
418.45	365.12
418.64	411.93
418.83	428.32
419.02	409.59
419.21	447.04
419.39	367.46
419.58	423.64
419.77	388.53
419.96	397.89
420.15	409.59
420.34	409.59
420.53	444.70
420.72	437.68
420.91	397.89
421.10	393.21
421.29	482.15
421.48	388.53
421.67	442.36
421.86	367.46
422.05	325.33
422.24	428.32
422.43	386.19
422.61	381.51
422.80	433.00
422.99	444.70
423.18	409.59
423.37	388.53
423.56	451.72
423.75	437.68
423.94	362.78
424.13	400.23
424.32	437.68
424.50	430.66
424.69	393.21
424.88	418.96
425.07	416.62
425.26	374.49
425.45	461.09
425.64	400.23
425.83	402.57
426.01	353.42
426.20	421.30
426.39	372.15
426.58	430.66
426.77	395.55
426.96	447.04
427.15	416.62
427.33	456.40
427.52	376.83
427.71	388.53
427.90	489.17
428.09	425.98
428.28	390.87
428.46	355.76
428.65	425.98
428.84	388.53
429.03	482.15
429.22	404.91
429.40	395.55
429.59	341.72
429.78	447.04
429.97	440.02
430.16	365.12
430.34	423.64
430.53	379.17
430.72	374.49
430.91	425.98
431.10	468.11
431.28	435.34
431.47	421.30
431.66	463.43
431.85	414.27
432.03	374.49
432.22	461.09
432.41	379.17
432.60	468.11
432.79	360.44
432.97	404.91
433.16	411.93
433.35	386.19
433.54	430.66
433.72	444.70
433.91	440.02
434.10	442.36
434.28	425.98
434.47	416.62
434.66	414.27
434.85	395.55
435.03	390.87
435.22	437.68
435.41	433.00
435.59	390.87
435.78	454.06
435.97	418.96
436.16	423.64
436.34	449.38
436.53	442.36
436.72	386.19
436.90	447.04
437.09	498.53
437.28	402.57
437.46	376.83
437.65	421.30
437.84	447.04
438.02	423.64
438.21	425.98
438.40	400.23
438.58	404.91
438.77	418.96
438.96	402.57
439.14	379.17
439.33	369.80
439.52	397.89
439.70	425.98
439.89	386.19
440.08	414.27
440.26	369.80
440.45	414.27
440.63	402.57
440.82	404.91
441.01	421.30
441.19	425.98
441.38	379.17
441.57	379.17
441.75	437.68
441.94	428.32
442.12	337.04
442.31	409.59
442.50	414.27
442.68	463.43
442.87	346.40
443.05	409.59
443.24	435.34
443.43	430.66
443.61	437.68
443.80	447.04
443.98	313.63
444.17	365.12
444.35	454.06
444.54	447.04
444.73	475.13
444.91	430.66
445.10	358.10
445.28	374.49
445.47	397.89
445.65	461.09
445.84	386.19
446.02	376.83
446.21	447.04
446.39	440.02
446.58	449.38
446.77	433.00
446.95	332.36
447.14	409.59
447.32	447.04
447.51	397.89
447.69	430.66
447.88	383.85
448.06	433.00
448.25	477.47
448.43	365.12
448.62	400.23
448.80	421.30
448.99	475.13
449.17	458.74
449.36	381.51
449.54	440.02
449.73	458.74
449.91	404.91
450.10	425.98
450.28	416.62
450.46	437.68
450.65	402.57
450.83	402.57
451.02	386.19
451.20	404.91
451.39	512.58
451.57	367.46
451.76	407.25
451.94	404.91
452.13	456.40
452.31	348.74
452.49	365.12
452.68	411.93
452.86	477.47
453.05	498.53
453.23	395.55
453.42	383.85
453.60	409.59
453.78	372.15
453.97	430.66
454.15	400.23
454.34	374.49
454.52	390.87
454.70	437.68
454.89	454.06
455.07	461.09
455.26	437.68
455.44	425.98
455.62	404.91
455.81	458.74
455.99	425.98
456.17	482.15
456.36	411.93
456.54	393.21
456.73	365.12
456.91	449.38
457.09	440.02
457.28	507.90
457.46	416.62
457.64	435.34
457.83	386.19
458.01	451.72
458.19	383.85
458.38	404.91
458.56	435.34
458.74	433.00
458.93	461.09
459.11	428.32
459.29	390.87
459.48	355.76
459.66	482.15
459.84	388.53
460.03	484.49
460.21	435.34
460.39	351.08
460.57	428.32
460.76	454.06
460.94	486.83
461.12	430.66
461.31	449.38
461.49	365.12
461.67	358.10
461.85	425.98
462.04	425.98
462.22	809.83
462.40	456.40
462.59	423.64
462.77	397.89
462.95	482.15
463.13	416.62
463.32	358.10
463.50	383.85
463.68	404.91
463.86	421.30
464.05	463.43
464.23	418.96
464.41	395.55
464.59	414.27
464.78	409.59
464.96	386.19
465.14	404.91
465.32	395.55
465.50	376.83
465.69	395.55
465.87	430.66
466.05	379.17
466.23	386.19
466.41	411.93
466.60	442.36
466.78	407.25
466.96	486.83
467.14	430.66
467.32	423.64
467.51	411.93
467.69	442.36
467.87	465.77
468.05	407.25
468.23	475.13
468.41	482.15
468.60	379.17
468.78	430.66
468.96	463.43
469.14	369.80
469.32	379.17
469.50	447.04
469.69	416.62
469.87	411.93
470.05	402.57
470.23	381.51
470.41	400.23
470.59	327.68
470.77	463.43
470.95	440.02
471.14	477.47
471.32	428.32
471.50	493.85
471.68	393.21
471.86	430.66
472.04	351.08
472.22	407.25
472.40	440.02
472.58	334.70
472.77	423.64
472.95	430.66
473.13	337.04
473.31	433.00
473.49	442.36
473.67	397.89
473.85	409.59
474.03	416.62
474.21	414.27
474.39	470.45
474.57	447.04
474.75	372.15
474.93	447.04
475.12	423.64
475.30	444.70
475.48	477.47
475.66	369.80
475.84	409.59
476.02	332.36
476.20	475.13
476.38	404.91
476.56	444.70
476.74	409.59
476.92	393.21
477.10	351.08
477.28	475.13
477.46	409.59
477.64	409.59
477.82	395.55
478.00	383.85
478.18	409.59
478.36	388.53
478.54	414.27
478.72	334.70
478.90	393.21
479.08	449.38
479.26	423.64
479.44	421.30
479.62	449.38
479.80	421.30
479.98	430.66
480.16	379.17
480.34	442.36
480.52	409.59
480.70	421.30
480.88	388.53
481.06	404.91
481.24	379.17
481.41	451.72
481.59	435.34
481.77	388.53
481.95	404.91
482.13	510.24
482.31	374.49
482.49	451.72
482.67	461.09
482.85	444.70
483.03	418.96
483.21	414.27
483.39	414.27
483.57	400.23
483.74	442.36
483.92	409.59
484.10	447.04
484.28	435.34
484.46	360.44
484.64	437.68
484.82	454.06
485.00	421.30
485.18	456.40
485.35	341.72
485.53	425.98
485.71	330.02
485.89	402.57
486.07	414.27
486.25	482.15
486.43	386.19
486.61	409.59
486.78	430.66
486.96	421.30
487.14	414.27
487.32	425.98
487.50	482.15
487.68	367.46
487.85	393.21
488.03	404.91
488.21	416.62
488.39	383.85
488.57	489.17
488.75	437.68
488.92	498.53
489.10	379.17
489.28	400.23
489.46	400.23
489.64	463.43
489.81	379.17
489.99	381.51
490.17	362.78
490.35	433.00
490.53	430.66
490.70	379.17
490.88	409.59
491.06	351.08
491.24	418.96
491.41	486.83
491.59	414.27
491.77	428.32
491.95	440.02
492.13	411.93
492.30	351.08
492.48	468.11
492.66	493.85
492.84	393.21
493.01	442.36
493.19	390.87
493.37	421.30
493.54	458.74
493.72	510.24
493.90	388.53
494.08	418.96
494.25	411.93
494.43	425.98
494.61	430.66
494.79	477.47
494.96	379.17
495.14	425.98
495.32	386.19
495.49	425.98
495.67	418.96
495.85	423.64
496.02	435.34
496.20	465.77
496.38	449.38
496.55	381.51
496.73	449.38
496.91	400.23
497.09	402.57
497.26	428.32
497.44	454.06
497.62	414.27
497.79	393.21
497.97	484.49
498.14	421.30
498.32	440.02
498.50	461.09
498.67	421.30
498.85	407.25
499.03	414.27
499.20	430.66
499.38	372.15
499.56	372.15
499.73	437.68
499.91	409.59
500.08	348.74
500.26	423.64
500.44	404.91
500.61	428.32
500.79	442.36
500.97	416.62
501.14	428.32
501.32	397.89
501.49	425.98
501.67	402.57
501.84	444.70
502.02	468.11
502.20	463.43
502.37	423.64
502.55	416.62
502.72	362.78
502.90	395.55
503.07	402.57
503.25	461.09
503.43	334.70
503.60	425.98
503.78	374.49
503.95	416.62
504.13	442.36
504.30	421.30
504.48	442.36
504.65	425.98
504.83	428.32
505.01	425.98
505.18	463.43
505.36	416.62
505.53	416.62
505.71	334.70
505.88	423.64
506.06	395.55
506.23	418.96
506.41	409.59
506.58	433.00
506.76	418.96
506.93	425.98
507.11	397.89
507.28	479.81
507.46	390.87
507.63	444.70
507.81	486.83
507.98	386.19
508.16	451.72
508.33	418.96
508.50	442.36
508.68	444.70
508.85	479.81
509.03	383.85
509.20	351.08
509.38	411.93
509.55	416.62
509.73	521.94
509.90	395.55
510.08	407.25
510.25	479.81
510.42	409.59
510.60	390.87
510.77	379.17
510.95	440.02
511.12	418.96
511.30	404.91
511.47	470.45
511.64	463.43
511.82	407.25
511.99	372.15
512.17	444.70
512.34	393.21
512.51	411.93
512.69	393.21
512.86	390.87
513.04	456.40
513.21	430.66
513.38	358.10
513.56	416.62
513.73	388.53
513.90	390.87
514.08	411.93
514.25	435.34
514.43	386.19
514.60	409.59
514.77	435.34
514.95	404.91
515.12	346.40
515.29	397.89
515.47	383.85
515.64	379.17
515.81	397.89
515.99	524.28
516.16	395.55
516.33	395.55
516.51	430.66
516.68	397.89
516.85	470.45
517.03	440.02
517.20	390.87
517.37	458.74
517.54	351.08
517.72	379.17
517.89	435.34
518.06	433.00
518.24	404.91
518.41	468.11
518.58	409.59
518.75	440.02
518.93	444.70
519.10	442.36
519.27	465.77
519.45	505.56
519.62	437.68
519.79	437.68
519.96	411.93
520.14	416.62
520.31	456.40
520.48	374.49
520.65	409.59
520.83	386.19
521.00	470.45
521.17	428.32
521.34	346.40
521.52	442.36
521.69	454.06
521.86	411.93
522.03	409.59
522.20	486.83
522.38	461.09
522.55	358.10
522.72	440.02
522.89	482.15
523.07	479.81
523.24	407.25
523.41	425.98
523.58	390.87
523.75	421.30
523.92	442.36
524.10	372.15
524.27	461.09
524.44	428.32
524.61	358.10
524.78	409.59
524.96	510.24
525.13	447.04
525.30	477.47
525.47	425.98
525.64	414.27
525.81	421.30
525.98	449.38
526.16	437.68
526.33	428.32
526.50	421.30
526.67	388.53
526.84	400.23
527.01	388.53
527.18	411.93
527.36	374.49
527.53	411.93
527.70	423.64
527.87	440.02
528.04	444.70
528.21	386.19
528.38	458.74
528.55	468.11
528.72	461.09
528.89	402.57
529.07	414.27
529.24	360.44
529.41	458.74
529.58	456.40
529.75	381.51
529.92	395.55
530.09	393.21
530.26	374.49
530.43	430.66
530.60	472.79
530.77	395.55
530.94	465.77
531.11	440.02
531.28	456.40
531.46	454.06
531.63	381.51
531.80	430.66
531.97	470.45
532.14	425.98
532.31	435.34
532.48	437.68
532.65	465.77
532.82	400.23
532.99	437.68
533.16	433.00
533.33	374.49
533.50	388.53
533.67	416.62
533.84	421.30
534.01	360.44
534.18	503.22
534.35	486.83
534.52	404.91
534.69	388.53
534.86	430.66
535.03	404.91
535.20	447.04
535.37	489.17
535.54	456.40
535.71	451.72
535.88	404.91
536.05	383.85
536.22	383.85
536.38	454.06
536.55	447.04
536.72	416.62
536.89	393.21
537.06	404.91
537.23	456.40
537.40	397.89
537.57	400.23
537.74	449.38
537.91	463.43
538.08	454.06
538.25	416.62
538.42	404.91
538.59	414.27
538.75	430.66
538.92	416.62
539.09	411.93
539.26	372.15
539.43	451.72
539.60	388.53
539.77	397.89
539.94	390.87
540.11	395.55
540.28	414.27
540.44	442.36
540.61	486.83
540.78	365.12
540.95	397.89
541.12	472.79
541.29	402.57
541.46	482.15
541.62	418.96
541.79	463.43
541.96	411.93
542.13	440.02
542.30	341.72
542.47	414.27
542.63	386.19
542.80	451.72
542.97	507.90
543.14	428.32
543.31	423.64
543.48	482.15
543.64	440.02
543.81	425.98
543.98	418.96
544.15	421.30
544.32	320.65
544.48	388.53
544.65	465.77
544.82	465.77
544.99	444.70
545.16	449.38
545.32	390.87
545.49	388.53
545.66	435.34
545.83	402.57
546.00	425.98
546.16	468.11
546.33	393.21
546.50	407.25
546.67	442.36
546.83	315.97
547.00	454.06
547.17	433.00
547.34	397.89
547.50	437.68
547.67	383.85
547.84	409.59
548.00	423.64
548.17	369.80
548.34	358.10
548.51	381.51
548.67	437.68
548.84	383.85
549.01	444.70
549.18	503.22
549.34	461.09
549.51	418.96
549.68	411.93
549.84	416.62
550.01	376.83
550.18	470.45
550.34	489.17
550.51	381.51
550.68	454.06
550.84	416.62
551.01	425.98
551.18	442.36
551.34	395.55
551.51	388.53
551.68	411.93
551.84	430.66
552.01	456.40
552.18	414.27
552.34	362.78
552.51	472.79
552.68	418.96
552.84	465.77
553.01	416.62
553.18	416.62
553.34	421.30
553.51	454.06
553.67	383.85
553.84	454.06
554.01	355.76
554.17	435.34
554.34	440.02
554.51	461.09
554.67	390.87
554.84	526.62
555.00	393.21
555.17	440.02
555.33	435.34
555.50	379.17
555.67	407.25
555.83	381.51
556.00	383.85
556.16	547.69
556.33	388.53
556.50	430.66
556.66	372.15
556.83	374.49
556.99	388.53
557.16	449.38
557.32	402.57
557.49	400.23
557.65	367.46
557.82	423.64
557.98	423.64
558.15	416.62
558.32	491.51
558.48	386.19
558.65	411.93
558.81	362.78
558.98	365.12
559.14	416.62
559.31	435.34
559.47	465.77
559.64	386.19
559.80	341.72
559.97	411.93
560.13	489.17
560.30	374.49
560.46	369.80
560.63	379.17
560.79	400.23
560.96	402.57
561.12	395.55
561.29	468.11
561.45	503.22
561.61	344.06
561.78	510.24
561.94	411.93
562.11	442.36
562.27	348.74
562.44	425.98
562.60	404.91
562.77	425.98
562.93	472.79
563.10	418.96
563.26	430.66
563.42	400.23
563.59	397.89
563.75	425.98
563.92	489.17
564.08	456.40
564.24	404.91
564.41	470.45
564.57	355.76
564.74	444.70
564.90	430.66
565.07	393.21
565.23	510.24
565.39	496.19
565.56	418.96
565.72	386.19
565.88	409.59
566.05	416.62
566.21	418.96
566.38	402.57
566.54	444.70
566.70	461.09
566.87	449.38
567.03	388.53
567.19	414.27
567.36	433.00
567.52	465.77
567.68	437.68
567.85	505.56
568.01	423.64
568.17	433.00
568.34	414.27
568.50	477.47
568.66	416.62
568.83	496.19
568.99	388.53
569.15	470.45
569.32	447.04
569.48	435.34
569.64	360.44
569.81	421.30
569.97	433.00
570.13	444.70
570.30	407.25
570.46	400.23
570.62	369.80
570.78	454.06
570.95	442.36
571.11	449.38
571.27	486.83
571.43	397.89
571.60	463.43
571.76	447.04
571.92	372.15
572.09	381.51
572.25	430.66
572.41	421.30
572.57	423.64
572.74	477.47
572.90	461.09
573.06	390.87
573.22	428.32
573.38	465.77
573.55	411.93
573.71	428.32
573.87	470.45
574.03	430.66
574.20	428.32
574.36	397.89
574.52	402.57
574.68	402.57
574.84	475.13
575.01	437.68
575.17	437.68
575.33	463.43
575.49	456.40
575.65	376.83
575.82	454.06
575.98	444.70
576.14	442.36
576.30	390.87
576.46	404.91
576.62	517.26
576.79	395.55
576.95	486.83
577.11	444.70
577.27	390.87
577.43	379.17
577.59	407.25
577.75	454.06
577.92	372.15
578.08	475.13
578.24	421.30
578.40	428.32
578.56	386.19
578.72	472.79
578.88	463.43
579.04	367.46
579.21	475.13
579.37	435.34
579.53	414.27
579.69	418.96
579.85	372.15
580.01	479.81
580.17	353.42
580.33	456.40
580.49	437.68
580.65	430.66
580.82	407.25
580.98	433.00
581.14	367.46
581.30	470.45
581.46	433.00
581.62	388.53
581.78	390.87
581.94	411.93
582.10	458.74
582.26	423.64
582.42	397.89
582.58	458.74
582.74	393.21
582.90	381.51
583.06	425.98
583.22	444.70
583.38	390.87
583.54	437.68
583.70	458.74
583.86	447.04
584.02	402.57
584.18	437.68
584.34	374.49
584.50	425.98
584.66	381.51
584.82	381.51
584.98	397.89
585.14	400.23
585.30	393.21
585.46	355.76
585.62	437.68
585.78	400.23
585.94	449.38
586.10	376.83
586.26	404.91
586.42	411.93
586.58	386.19
586.74	440.02
586.90	409.59
587.06	454.06
587.22	367.46
587.38	428.32
587.54	365.12
587.70	503.22
587.86	388.53
588.02	437.68
588.18	425.98
588.34	468.11
588.49	404.91
588.65	390.87
588.81	360.44
588.97	388.53
589.13	390.87
589.29	418.96
589.45	386.19
589.61	369.80
589.77	444.70
589.93	395.55
590.08	458.74
590.24	376.83
590.40	400.23
590.56	482.15
590.72	430.66
590.88	407.25
591.04	463.43
591.20	409.59
591.35	447.04
591.51	397.89
591.67	369.80
591.83	402.57
591.99	444.70
592.15	430.66
592.31	327.68
592.46	512.58
592.62	470.45
592.78	360.44
592.94	386.19
593.10	444.70
593.26	416.62
593.41	421.30
593.57	411.93
593.73	381.51
593.89	454.06
594.05	437.68
594.20	358.10
594.36	472.79
594.52	388.53
594.68	423.64
594.84	479.81
594.99	404.91
595.15	437.68
595.31	440.02
595.47	407.25
595.62	360.44
595.78	404.91
595.94	402.57
596.10	409.59
596.25	435.34
596.41	461.09
596.57	400.23
596.73	381.51
596.88	430.66
597.04	437.68
597.20	353.42
597.36	421.30
597.51	433.00
597.67	416.62
597.83	411.93
597.99	376.83
598.14	372.15
598.30	458.74
598.46	454.06
598.61	484.49
598.77	493.85
598.93	465.77
599.09	327.68
599.24	390.87
599.40	465.77
599.56	433.00
599.71	353.42
599.87	435.34
600.03	346.40
600.18	397.89
600.34	372.15
600.50	388.53
600.65	379.17
600.81	482.15
600.97	456.40
601.12	409.59
601.28	430.66
601.44	395.55
601.59	409.59
601.75	428.32
601.91	376.83
602.06	470.45
602.22	440.02
602.37	458.74
602.53	433.00
602.69	414.27
602.84	458.74
603.00	425.98
603.16	374.49
603.31	379.17
603.47	386.19
603.62	411.93
603.78	372.15
603.94	437.68
604.09	472.79
604.25	421.30
604.40	421.30
604.56	407.25
604.71	388.53
604.87	421.30
605.03	393.21
605.18	500.87
605.34	451.72
605.49	468.11
605.65	388.53
605.80	374.49
605.96	390.87
606.12	421.30
606.27	379.17
606.43	400.23
606.58	372.15
606.74	470.45
606.89	440.02
607.05	425.98
607.20	430.66
607.36	414.27
607.51	407.25
607.67	484.49
607.82	454.06
607.98	470.45
608.13	418.96
608.29	367.46
608.44	442.36
608.60	458.74
608.75	461.09
608.91	477.47
609.06	395.55
609.22	442.36
609.37	400.23
609.53	421.30
609.68	402.57
609.84	435.34
609.99	411.93
610.15	372.15
