SpectraSuite Data File
++++++++++++++++++++++++++++++++++++
Date: Fri Oct 25 12:11:30 EDT 2013
User: price-jones
Dark Spectrum Present: No
Reference Spectrum Present: No
Number of Sampled Component Spectra: 1
Spectrometers: USB2+H05261
Integration Time (usec): 100000 (USB2+H05261)
Spectra Averaged: 1 (USB2+H05261)
Boxcar Smoothing: 0 (USB2+H05261)
Correct for Electrical Dark: No (USB2+H05261)
Strobe/Lamp Enabled: No (USB2+H05261)
Correct for Detector Non-linearity: No (USB2+H05261)
Correct for Stray Light: No (USB2+H05261)
Number of Pixels in Processed Spectrum: 2048
>>>>>Begin Processed Spectral Data<<<<<
365.73	456.40
365.92	456.40
366.12	456.40
366.32	283.20
366.52	278.52
366.72	229.37
366.91	205.97
367.11	250.44
367.31	241.08
367.51	234.05
367.70	229.37
367.90	229.37
368.10	187.24
368.30	222.35
368.49	227.03
368.69	236.39
368.89	231.71
369.09	124.05
369.28	297.25
369.48	245.76
369.68	308.95
369.87	308.95
370.07	266.82
370.27	360.44
370.47	330.02
370.66	383.85
370.86	393.21
371.06	311.29
371.25	402.57
371.45	353.42
371.65	456.40
371.84	393.21
372.04	374.49
372.24	433.00
372.44	369.80
372.63	369.80
372.83	372.15
373.03	409.59
373.22	402.57
373.42	372.15
373.62	400.23
373.81	404.91
374.01	407.25
374.21	430.66
374.40	451.72
374.60	524.28
374.79	444.70
374.99	332.36
375.19	463.43
375.38	365.12
375.58	390.87
375.78	388.53
375.97	451.72
376.17	344.06
376.37	390.87
376.56	367.46
376.76	458.74
376.95	463.43
377.15	440.02
377.35	365.12
377.54	390.87
377.74	404.91
377.93	337.04
378.13	407.25
378.33	393.21
378.52	376.83
378.72	468.11
378.91	456.40
379.11	425.98
379.31	430.66
379.50	358.10
379.70	376.83
379.89	393.21
380.09	409.59
380.28	395.55
380.48	390.87
380.68	423.64
380.87	418.96
381.07	449.38
381.26	479.81
381.46	477.47
381.65	461.09
381.85	360.44
382.04	369.80
382.24	369.80
382.43	390.87
382.63	423.64
382.83	372.15
383.02	475.13
383.22	470.45
383.41	362.78
383.61	369.80
383.80	400.23
384.00	402.57
384.19	428.32
384.39	369.80
384.58	404.91
384.78	351.08
384.97	440.02
385.17	353.42
385.36	409.59
385.56	411.93
385.75	435.34
385.95	353.42
386.14	458.74
386.34	397.89
386.53	468.11
386.72	393.21
386.92	416.62
387.11	372.15
387.31	444.70
387.50	404.91
387.70	470.45
387.89	346.40
388.09	348.74
388.28	423.64
388.48	409.59
388.67	442.36
388.86	552.37
389.06	442.36
389.25	409.59
389.45	428.32
389.64	418.96
389.84	367.46
390.03	428.32
390.22	423.64
390.42	367.46
390.61	332.36
390.81	381.51
391.00	400.23
391.19	461.09
391.39	402.57
391.58	374.49
391.78	306.61
391.97	430.66
392.16	402.57
392.36	360.44
392.55	393.21
392.75	440.02
392.94	388.53
393.13	376.83
393.33	400.23
393.52	388.53
393.71	407.25
393.91	433.00
394.10	397.89
394.29	395.55
394.49	351.08
394.68	374.49
394.88	428.32
395.07	418.96
395.26	400.23
395.46	428.32
395.65	388.53
395.84	402.57
396.04	444.70
396.23	458.74
396.42	407.25
396.62	430.66
396.81	421.30
397.00	397.89
397.19	414.27
397.39	393.21
397.58	449.38
397.77	493.85
397.97	437.68
398.16	468.11
398.35	362.78
398.55	451.72
398.74	421.30
398.93	416.62
399.12	416.62
399.32	404.91
399.51	425.98
399.70	390.87
399.90	451.72
400.09	430.66
400.28	435.34
400.47	409.59
400.67	397.89
400.86	400.23
401.05	390.87
401.24	379.17
401.44	330.02
401.63	411.93
401.82	451.72
402.01	411.93
402.21	400.23
402.40	418.96
402.59	376.83
402.78	425.98
402.97	393.21
403.17	430.66
403.36	444.70
403.55	428.32
403.74	428.32
403.93	404.91
404.13	484.49
404.32	404.91
404.51	430.66
404.70	447.04
404.89	442.36
405.09	461.09
405.28	454.06
405.47	390.87
405.66	418.96
405.85	505.56
406.05	369.80
406.24	358.10
406.43	414.27
406.62	411.93
406.81	477.47
407.00	348.74
407.20	374.49
407.39	430.66
407.58	421.30
407.77	416.62
407.96	486.83
408.15	517.26
408.34	425.98
408.54	409.59
408.73	451.72
408.92	404.91
409.11	416.62
409.30	475.13
409.49	379.17
409.68	503.22
409.87	397.89
410.07	386.19
410.26	423.64
410.45	355.76
410.64	440.02
410.83	414.27
411.02	416.62
411.21	402.57
411.40	407.25
411.59	409.59
411.78	351.08
411.98	327.68
412.17	381.51
412.36	339.38
412.55	327.68
412.74	442.36
412.93	475.13
413.12	369.80
413.31	456.40
413.50	440.02
413.69	411.93
413.88	404.91
414.07	444.70
414.26	379.17
414.45	447.04
414.64	425.98
414.83	351.08
415.02	428.32
415.22	393.21
415.41	456.40
415.60	416.62
415.79	407.25
415.98	458.74
416.17	425.98
416.36	395.55
416.55	421.30
416.74	458.74
416.93	433.00
417.12	416.62
417.31	407.25
417.50	297.25
417.69	437.68
417.88	393.21
418.07	390.87
418.26	390.87
418.45	428.32
418.64	458.74
418.83	393.21
419.02	397.89
419.21	416.62
419.39	435.34
419.58	381.51
419.77	465.77
419.96	440.02
420.15	404.91
420.34	444.70
420.53	416.62
420.72	379.17
420.91	395.55
421.10	491.51
421.29	400.23
421.48	440.02
421.67	472.79
421.86	358.10
422.05	400.23
422.24	447.04
422.43	383.85
422.61	421.30
422.80	362.78
422.99	362.78
423.18	381.51
423.37	461.09
423.56	409.59
423.75	433.00
423.94	451.72
424.13	440.02
424.32	397.89
424.50	315.97
424.69	472.79
424.88	421.30
425.07	421.30
425.26	397.89
425.45	416.62
425.64	386.19
425.83	421.30
426.01	449.38
426.20	344.06
426.39	393.21
426.58	411.93
426.77	421.30
426.96	425.98
427.15	369.80
427.33	454.06
427.52	496.19
427.71	435.34
427.90	437.68
428.09	428.32
428.28	374.49
428.46	430.66
428.65	444.70
428.84	386.19
429.03	451.72
429.22	437.68
429.40	409.59
429.59	390.87
429.78	486.83
429.97	383.85
430.16	374.49
430.34	388.53
430.53	451.72
430.72	395.55
430.91	414.27
431.10	409.59
431.28	458.74
431.47	407.25
431.66	500.87
431.85	358.10
432.03	423.64
432.22	437.68
432.41	449.38
432.60	421.30
432.79	395.55
432.97	414.27
433.16	428.32
433.35	461.09
433.54	416.62
433.72	447.04
433.91	456.40
434.10	454.06
434.28	442.36
434.47	395.55
434.66	423.64
434.85	390.87
435.03	423.64
435.22	458.74
435.41	421.30
435.59	425.98
435.78	404.91
435.97	376.83
436.16	358.10
436.34	416.62
436.53	355.76
436.72	409.59
436.90	444.70
437.09	397.89
437.28	440.02
437.46	383.85
437.65	440.02
437.84	379.17
438.02	339.38
438.21	414.27
438.40	409.59
438.58	381.51
438.77	430.66
438.96	425.98
439.14	358.10
439.33	465.77
439.52	414.27
439.70	393.21
439.89	428.32
440.08	458.74
440.26	395.55
440.45	360.44
440.63	468.11
440.82	407.25
441.01	383.85
441.19	360.44
441.38	383.85
441.57	428.32
441.75	388.53
441.94	458.74
442.12	407.25
442.31	393.21
442.50	404.91
442.68	433.00
442.87	355.76
443.05	486.83
443.24	458.74
443.43	458.74
443.61	463.43
443.80	402.57
443.98	374.49
444.17	423.64
444.35	489.17
444.54	421.30
444.73	383.85
444.91	414.27
445.10	341.72
445.28	402.57
445.47	435.34
445.65	418.96
445.84	388.53
446.02	372.15
446.21	287.89
446.39	404.91
446.58	465.77
446.77	418.96
446.95	374.49
447.14	465.77
447.32	430.66
447.51	435.34
447.69	358.10
447.88	468.11
448.06	435.34
448.25	400.23
448.43	362.78
448.62	416.62
448.80	458.74
448.99	472.79
449.17	435.34
449.36	435.34
449.54	414.27
449.73	437.68
449.91	360.44
450.10	447.04
450.28	470.45
450.46	477.47
450.65	486.83
450.83	397.89
451.02	428.32
451.20	442.36
451.39	386.19
451.57	393.21
451.76	442.36
451.94	423.64
452.13	435.34
452.31	456.40
452.49	463.43
452.68	390.87
452.86	463.43
453.05	496.19
453.23	428.32
453.42	332.36
453.60	416.62
453.78	397.89
453.97	486.83
454.15	339.38
454.34	365.12
454.52	430.66
454.70	416.62
454.89	404.91
455.07	404.91
455.26	447.04
455.44	376.83
455.62	493.85
455.81	465.77
455.99	418.96
456.17	433.00
456.36	369.80
456.54	407.25
456.73	421.30
456.91	360.44
457.09	425.98
457.28	475.13
457.46	428.32
457.64	444.70
457.83	430.66
458.01	388.53
458.19	440.02
458.38	451.72
458.56	428.32
458.74	458.74
458.93	470.45
459.11	440.02
459.29	362.78
459.48	465.77
459.66	517.26
459.84	423.64
460.03	557.05
460.21	423.64
460.39	362.78
460.57	421.30
460.76	456.40
460.94	379.17
461.12	514.92
461.31	472.79
461.49	440.02
461.67	367.46
461.85	409.59
462.04	477.47
462.22	720.88
462.40	498.53
462.59	463.43
462.77	425.98
462.95	411.93
463.13	411.93
463.32	325.33
463.50	430.66
463.68	337.04
463.86	430.66
464.05	390.87
464.23	409.59
464.41	440.02
464.59	416.62
464.78	341.72
464.96	454.06
465.14	390.87
465.32	374.49
465.50	393.21
465.69	397.89
465.87	348.74
466.05	369.80
466.23	383.85
466.41	402.57
466.60	430.66
466.78	451.72
466.96	470.45
467.14	470.45
467.32	425.98
467.51	393.21
467.69	400.23
467.87	376.83
468.05	430.66
468.23	503.22
468.41	397.89
468.60	374.49
468.78	383.85
468.96	442.36
469.14	402.57
469.32	388.53
469.50	409.59
469.69	486.83
469.87	440.02
470.05	458.74
470.23	430.66
470.41	322.99
470.59	376.83
470.77	400.23
470.95	425.98
471.14	346.40
471.32	407.25
471.50	428.32
471.68	468.11
471.86	430.66
472.04	400.23
472.22	372.15
472.40	339.38
472.58	425.98
472.77	447.04
472.95	423.64
473.13	433.00
473.31	519.60
473.49	418.96
473.67	421.30
473.85	472.79
474.03	479.81
474.21	365.12
474.39	486.83
474.57	447.04
474.75	404.91
474.93	477.47
475.12	374.49
475.30	376.83
475.48	390.87
475.66	376.83
475.84	379.17
476.02	402.57
476.20	400.23
476.38	421.30
476.56	447.04
476.74	409.59
476.92	397.89
477.10	423.64
477.28	402.57
477.46	341.72
477.64	395.55
477.82	428.32
478.00	374.49
478.18	379.17
478.36	327.68
478.54	395.55
478.72	414.27
478.90	435.34
479.08	395.55
479.26	440.02
479.44	362.78
479.62	440.02
479.80	374.49
479.98	449.38
480.16	404.91
480.34	510.24
480.52	397.89
480.70	390.87
480.88	402.57
481.06	395.55
481.24	381.51
481.41	458.74
481.59	503.22
481.77	496.19
481.95	369.80
482.13	498.53
482.31	468.11
482.49	458.74
482.67	411.93
482.85	442.36
483.03	463.43
483.21	444.70
483.39	365.12
483.57	400.23
483.74	395.55
483.92	447.04
484.10	468.11
484.28	435.34
484.46	433.00
484.64	435.34
484.82	444.70
485.00	465.77
485.18	409.59
485.35	428.32
485.53	402.57
485.71	407.25
485.89	388.53
486.07	414.27
486.25	468.11
486.43	416.62
486.61	479.81
486.78	444.70
486.96	468.11
487.14	512.58
487.32	435.34
487.50	423.64
487.68	437.68
487.85	367.46
488.03	428.32
488.21	451.72
488.39	442.36
488.57	362.78
488.75	447.04
488.92	561.73
489.10	393.21
489.28	458.74
489.46	393.21
489.64	435.34
489.81	386.19
489.99	411.93
490.17	397.89
490.35	451.72
490.53	442.36
490.70	358.10
490.88	416.62
491.06	362.78
491.24	423.64
491.41	491.51
491.59	402.57
491.77	430.66
491.95	372.15
492.13	390.87
492.30	369.80
492.48	486.83
492.66	493.85
492.84	365.12
493.01	376.83
493.19	372.15
493.37	414.27
493.54	404.91
493.72	402.57
493.90	383.85
494.08	411.93
494.25	381.51
494.43	489.17
494.61	451.72
494.79	461.09
494.96	430.66
495.14	407.25
495.32	376.83
495.49	454.06
495.67	444.70
495.85	397.89
496.02	383.85
496.20	449.38
496.38	514.92
496.55	425.98
496.73	369.80
496.91	428.32
497.09	507.90
497.26	383.85
497.44	435.34
497.62	468.11
497.79	435.34
497.97	449.38
498.14	428.32
498.32	423.64
498.50	425.98
498.67	428.32
498.85	425.98
499.03	414.27
499.20	404.91
499.38	376.83
499.56	416.62
499.73	447.04
499.91	418.96
500.08	479.81
500.26	414.27
500.44	402.57
500.61	425.98
500.79	505.56
500.97	376.83
501.14	393.21
501.32	367.46
501.49	456.40
501.67	409.59
501.84	397.89
502.02	369.80
502.20	498.53
502.37	414.27
502.55	440.02
502.72	470.45
502.90	470.45
503.07	444.70
503.25	409.59
503.43	442.36
503.60	437.68
503.78	374.49
503.95	442.36
504.13	400.23
504.30	369.80
504.48	402.57
504.65	454.06
504.83	421.30
505.01	435.34
505.18	418.96
505.36	456.40
505.53	355.76
505.71	395.55
505.88	390.87
506.06	416.62
506.23	337.04
506.41	369.80
506.58	400.23
506.76	428.32
506.93	337.04
507.11	369.80
507.28	428.32
507.46	456.40
507.63	416.62
507.81	456.40
507.98	433.00
508.16	418.96
508.33	409.59
508.50	404.91
508.68	486.83
508.85	369.80
509.03	409.59
509.20	418.96
509.38	423.64
509.55	472.79
509.73	407.25
509.90	442.36
510.08	372.15
510.25	437.68
510.42	386.19
510.60	468.11
510.77	400.23
510.95	423.64
511.12	383.85
511.30	437.68
511.47	461.09
511.64	402.57
511.82	418.96
511.99	341.72
512.17	407.25
512.34	400.23
512.51	358.10
512.69	442.36
512.86	440.02
513.04	397.89
513.21	425.98
513.38	386.19
513.56	355.76
513.73	447.04
513.90	447.04
514.08	409.59
514.25	397.89
514.43	393.21
514.60	344.06
514.77	433.00
514.95	468.11
515.12	435.34
515.29	374.49
515.47	425.98
515.64	381.51
515.81	407.25
515.99	400.23
516.16	311.29
516.33	414.27
516.51	383.85
516.68	433.00
516.85	435.34
517.03	411.93
517.20	386.19
517.37	315.97
517.54	437.68
517.72	440.02
517.89	390.87
518.06	437.68
518.24	393.21
518.41	442.36
518.58	358.10
518.75	402.57
518.93	433.00
519.10	414.27
519.27	440.02
519.45	402.57
519.62	397.89
519.79	404.91
519.96	390.87
520.14	374.49
520.31	454.06
520.48	365.12
520.65	400.23
520.83	425.98
521.00	390.87
521.17	425.98
521.34	407.25
521.52	395.55
521.69	414.27
521.86	414.27
522.03	472.79
522.20	421.30
522.38	404.91
522.55	482.15
522.72	402.57
522.89	423.64
523.07	463.43
523.24	433.00
523.41	414.27
523.58	383.85
523.75	444.70
523.92	400.23
524.10	418.96
524.27	379.17
524.44	341.72
524.61	435.34
524.78	454.06
524.96	409.59
525.13	456.40
525.30	468.11
525.47	416.62
525.64	440.02
525.81	327.68
525.98	372.15
526.16	505.56
526.33	407.25
526.50	365.12
526.67	404.91
526.84	381.51
527.01	489.17
527.18	456.40
527.36	400.23
527.53	362.78
527.70	500.87
527.87	416.62
528.04	397.89
528.21	360.44
528.38	440.02
528.55	440.02
528.72	421.30
528.89	479.81
529.07	416.62
529.24	454.06
529.41	423.64
529.58	407.25
529.75	414.27
529.92	440.02
530.09	416.62
530.26	477.47
530.43	440.02
530.60	414.27
530.77	306.61
530.94	383.85
531.11	351.08
531.28	379.17
531.46	421.30
531.63	404.91
531.80	430.66
531.97	372.15
532.14	442.36
532.31	362.78
532.48	423.64
532.65	418.96
532.82	444.70
532.99	440.02
533.16	397.89
533.33	472.79
533.50	376.83
533.67	393.21
533.84	400.23
534.01	383.85
534.18	425.98
534.35	433.00
534.52	472.79
534.69	423.64
534.86	381.51
535.03	416.62
535.20	358.10
535.37	416.62
535.54	470.45
535.71	414.27
535.88	437.68
536.05	423.64
536.22	430.66
536.38	421.30
536.55	409.59
536.72	414.27
536.89	433.00
537.06	491.51
537.23	379.17
537.40	386.19
537.57	425.98
537.74	512.58
537.91	468.11
538.08	486.83
538.25	393.21
538.42	353.42
538.59	400.23
538.75	374.49
538.92	486.83
539.09	374.49
539.26	353.42
539.43	397.89
539.60	386.19
539.77	402.57
539.94	503.22
540.11	423.64
540.28	428.32
540.44	430.66
540.61	409.59
540.78	468.11
540.95	402.57
541.12	402.57
541.29	404.91
541.46	456.40
541.62	503.22
541.79	332.36
541.96	381.51
542.13	435.34
542.30	423.64
542.47	400.23
542.63	430.66
542.80	411.93
542.97	526.62
543.14	404.91
543.31	418.96
543.48	423.64
543.64	444.70
543.81	379.17
543.98	395.55
544.15	430.66
544.32	376.83
544.48	463.43
544.65	402.57
544.82	411.93
544.99	416.62
545.16	388.53
545.32	437.68
545.49	451.72
545.66	383.85
545.83	414.27
546.00	447.04
546.16	386.19
546.33	423.64
546.50	456.40
546.67	393.21
546.83	456.40
547.00	409.59
547.17	362.78
547.34	390.87
547.50	423.64
547.67	381.51
547.84	397.89
548.00	423.64
548.17	449.38
548.34	376.83
548.51	416.62
548.67	425.98
548.84	386.19
549.01	433.00
549.18	463.43
549.34	416.62
549.51	395.55
549.68	416.62
549.84	404.91
550.01	351.08
550.18	435.34
550.34	437.68
550.51	454.06
550.68	484.49
550.84	433.00
551.01	425.98
551.18	449.38
551.34	430.66
551.51	482.15
551.68	411.93
551.84	416.62
552.01	400.23
552.18	344.06
552.34	416.62
552.51	440.02
552.68	393.21
552.84	407.25
553.01	461.09
553.18	425.98
553.34	440.02
553.51	393.21
553.67	393.21
553.84	358.10
554.01	423.64
554.17	437.68
554.34	388.53
554.51	386.19
554.67	386.19
554.84	435.34
555.00	402.57
555.17	411.93
555.33	379.17
555.50	416.62
555.67	449.38
555.83	435.34
556.00	407.25
556.16	489.17
556.33	514.92
556.50	416.62
556.66	404.91
556.83	404.91
556.99	440.02
557.16	409.59
557.32	376.83
557.49	423.64
557.65	442.36
557.82	461.09
557.98	442.36
558.15	414.27
558.32	458.74
558.48	397.89
558.65	386.19
558.81	411.93
558.98	433.00
559.14	496.19
559.31	421.30
559.47	463.43
559.64	393.21
559.80	425.98
559.97	409.59
560.13	437.68
560.30	367.46
560.46	402.57
560.63	437.68
560.79	475.13
560.96	461.09
561.12	472.79
561.29	411.93
561.45	393.21
561.61	423.64
561.78	477.47
561.94	454.06
562.11	376.83
562.27	374.49
562.44	411.93
562.60	344.06
562.77	433.00
562.93	468.11
563.10	369.80
563.26	435.34
563.42	528.96
563.59	496.19
563.75	402.57
563.92	491.51
564.08	369.80
564.24	400.23
564.41	425.98
564.57	374.49
564.74	344.06
564.90	409.59
565.07	449.38
565.23	414.27
565.39	407.25
565.56	451.72
565.72	514.92
565.88	456.40
566.05	381.51
566.21	425.98
566.38	379.17
566.54	423.64
566.70	444.70
566.87	379.17
567.03	440.02
567.19	402.57
567.36	454.06
567.52	461.09
567.68	409.59
567.85	463.43
568.01	402.57
568.17	414.27
568.34	456.40
568.50	468.11
568.66	393.21
568.83	486.83
568.99	351.08
569.15	430.66
569.32	421.30
569.48	397.89
569.64	425.98
569.81	433.00
569.97	444.70
570.13	409.59
570.30	428.32
570.46	383.85
570.62	500.87
570.78	362.78
570.95	472.79
571.11	421.30
571.27	442.36
571.43	437.68
571.60	404.91
571.76	440.02
571.92	393.21
572.09	400.23
572.25	493.85
572.41	421.30
572.57	411.93
572.74	421.30
572.90	437.68
573.06	440.02
573.22	456.40
573.38	397.89
573.55	475.13
573.71	411.93
573.87	428.32
574.03	454.06
574.20	390.87
574.36	491.51
574.52	454.06
574.68	447.04
574.84	463.43
575.01	374.49
575.17	486.83
575.33	358.10
575.49	479.81
575.65	482.15
575.82	486.83
575.98	430.66
576.14	456.40
576.30	407.25
576.46	442.36
576.62	383.85
576.79	411.93
576.95	428.32
577.11	444.70
577.27	454.06
577.43	505.56
577.59	486.83
577.75	425.98
577.92	447.04
578.08	383.85
578.24	428.32
578.40	458.74
578.56	400.23
578.72	393.21
578.88	390.87
579.04	428.32
579.21	421.30
579.37	421.30
579.53	407.25
579.69	505.56
579.85	376.83
580.01	444.70
580.17	425.98
580.33	435.34
580.49	407.25
580.65	355.76
580.82	442.36
580.98	477.47
581.14	428.32
581.30	451.72
581.46	397.89
581.62	351.08
581.78	491.51
581.94	402.57
582.10	411.93
582.26	404.91
582.42	421.30
582.58	454.06
582.74	395.55
582.90	444.70
583.06	423.64
583.22	456.40
583.38	351.08
583.54	381.51
583.70	430.66
583.86	414.27
584.02	425.98
584.18	440.02
584.34	374.49
584.50	416.62
584.66	414.27
584.82	376.83
584.98	468.11
585.14	447.04
585.30	456.40
585.46	461.09
585.62	353.42
585.78	372.15
585.94	447.04
586.10	369.80
586.26	351.08
586.42	393.21
586.58	374.49
586.74	393.21
586.90	397.89
587.06	479.81
587.22	437.68
587.38	458.74
587.54	334.70
587.70	435.34
587.86	433.00
588.02	402.57
588.18	400.23
588.34	479.81
588.49	468.11
588.65	433.00
588.81	386.19
588.97	482.15
589.13	470.45
589.29	365.12
589.45	486.83
589.61	372.15
589.77	353.42
589.93	362.78
590.08	423.64
590.24	388.53
590.40	447.04
590.56	425.98
590.72	388.53
590.88	381.51
591.04	395.55
591.20	348.74
591.35	425.98
591.51	444.70
591.67	383.85
591.83	489.17
591.99	425.98
592.15	440.02
592.31	355.76
592.46	341.72
592.62	430.66
592.78	416.62
592.94	383.85
593.10	390.87
593.26	463.43
593.41	407.25
593.57	409.59
593.73	395.55
593.89	451.72
594.05	365.12
594.20	404.91
594.36	477.47
594.52	416.62
594.68	451.72
594.84	447.04
594.99	414.27
595.15	496.19
595.31	409.59
595.47	521.94
595.62	458.74
595.78	414.27
595.94	379.17
596.10	475.13
596.25	465.77
596.41	407.25
596.57	376.83
596.73	423.64
596.88	374.49
597.04	475.13
597.20	383.85
597.36	458.74
597.51	454.06
597.67	447.04
597.83	402.57
597.99	456.40
598.14	386.19
598.30	414.27
598.46	430.66
598.61	409.59
598.77	414.27
598.93	390.87
599.09	414.27
599.24	461.09
599.40	454.06
599.56	379.17
599.71	404.91
599.87	397.89
600.03	390.87
600.18	430.66
600.34	477.47
600.50	503.22
600.65	393.21
600.81	479.81
600.97	393.21
601.12	454.06
601.28	449.38
601.44	461.09
601.59	449.38
601.75	440.02
601.91	451.72
602.06	372.15
602.22	456.40
602.37	451.72
602.53	397.89
602.69	430.66
602.84	362.78
603.00	498.53
603.16	458.74
603.31	416.62
603.47	444.70
603.62	407.25
603.78	416.62
603.94	425.98
604.09	435.34
604.25	386.19
604.40	458.74
604.56	411.93
604.71	404.91
604.87	437.68
605.03	341.72
605.18	390.87
605.34	510.24
605.49	449.38
605.65	402.57
605.80	404.91
605.96	337.04
606.12	353.42
606.27	416.62
606.43	468.11
606.58	435.34
606.74	498.53
606.89	479.81
607.05	449.38
607.20	442.36
607.36	433.00
607.51	355.76
607.67	369.80
607.82	367.46
607.98	388.53
608.13	482.15
608.29	337.04
608.44	411.93
608.60	428.32
608.75	435.34
608.91	416.62
609.06	447.04
609.22	388.53
609.37	362.78
609.53	414.27
609.68	447.04
609.84	388.53
609.99	463.43
610.15	451.72
