SpectraSuite Data File
++++++++++++++++++++++++++++++++++++
Date: Fri Oct 25 12:11:23 EDT 2013
User: price-jones
Dark Spectrum Present: No
Reference Spectrum Present: No
Number of Sampled Component Spectra: 1
Spectrometers: USB2+H05261
Integration Time (usec): 100000 (USB2+H05261)
Spectra Averaged: 1 (USB2+H05261)
Boxcar Smoothing: 0 (USB2+H05261)
Correct for Electrical Dark: No (USB2+H05261)
Strobe/Lamp Enabled: No (USB2+H05261)
Correct for Detector Non-linearity: No (USB2+H05261)
Correct for Stray Light: No (USB2+H05261)
Number of Pixels in Processed Spectrum: 2048
>>>>>Begin Processed Spectral Data<<<<<
365.73	330.02
365.92	330.02
366.12	330.02
366.32	299.59
366.52	264.48
366.72	264.48
366.91	196.60
367.11	194.26
367.31	255.12
367.51	264.48
367.70	203.63
367.90	243.42
368.10	241.08
368.30	224.69
368.49	187.24
368.69	334.70
368.89	306.61
369.09	250.44
369.28	306.61
369.48	287.89
369.68	311.29
369.87	287.89
370.07	276.18
370.27	285.55
370.47	292.57
370.66	374.49
370.86	299.59
371.06	327.68
371.25	421.30
371.45	369.80
371.65	381.51
371.84	360.44
372.04	372.15
372.24	374.49
372.44	337.04
372.63	423.64
372.83	454.06
373.03	395.55
373.22	388.53
373.42	444.70
373.62	454.06
373.81	444.70
374.01	437.68
374.21	402.57
374.40	423.64
374.60	430.66
374.79	409.59
374.99	451.72
375.19	437.68
375.38	411.93
375.58	367.46
375.78	430.66
375.97	447.04
376.17	376.83
376.37	428.32
376.56	395.55
376.76	386.19
376.95	400.23
377.15	367.46
377.35	465.77
377.54	348.74
377.74	379.17
377.93	388.53
378.13	334.70
378.33	395.55
378.52	468.11
378.72	498.53
378.91	444.70
379.11	437.68
379.31	402.57
379.50	358.10
379.70	428.32
379.89	456.40
380.09	456.40
380.28	409.59
380.48	407.25
380.68	390.87
380.87	381.51
381.07	409.59
381.26	470.45
381.46	404.91
381.65	430.66
381.85	416.62
382.04	390.87
382.24	327.68
382.43	367.46
382.63	376.83
382.83	416.62
383.02	404.91
383.22	451.72
383.41	433.00
383.61	423.64
383.80	500.87
384.00	454.06
384.19	348.74
384.39	320.65
384.58	414.27
384.78	470.45
384.97	411.93
385.17	346.40
385.36	341.72
385.56	414.27
385.75	400.23
385.95	421.30
386.14	407.25
386.34	402.57
386.53	400.23
386.72	430.66
386.92	456.40
387.11	402.57
387.31	425.98
387.50	411.93
387.70	362.78
387.89	341.72
388.09	416.62
388.28	407.25
388.48	395.55
388.67	433.00
388.86	421.30
389.06	351.08
389.25	386.19
389.45	358.10
389.64	437.68
389.84	360.44
390.03	430.66
390.22	440.02
390.42	484.49
390.61	440.02
390.81	388.53
391.00	463.43
391.19	449.38
391.39	381.51
391.58	411.93
391.78	358.10
391.97	430.66
392.16	402.57
392.36	470.45
392.55	423.64
392.75	376.83
392.94	374.49
393.13	404.91
393.33	367.46
393.52	437.68
393.71	425.98
393.91	402.57
394.10	421.30
394.29	428.32
394.49	397.89
394.68	327.68
394.88	390.87
395.07	428.32
395.26	407.25
395.46	423.64
395.65	463.43
395.84	435.34
396.04	393.21
396.23	381.51
396.42	411.93
396.62	477.47
396.81	404.91
397.00	404.91
397.19	437.68
397.39	428.32
397.58	383.85
397.77	374.49
397.97	367.46
398.16	383.85
398.35	402.57
398.55	402.57
398.74	330.02
398.93	463.43
399.12	390.87
399.32	444.70
399.51	496.19
399.70	416.62
399.90	386.19
400.09	374.49
400.28	358.10
400.47	416.62
400.67	365.12
400.86	425.98
401.05	379.17
401.24	475.13
401.44	402.57
401.63	418.96
401.82	447.04
402.01	400.23
402.21	456.40
402.40	346.40
402.59	458.74
402.78	444.70
402.97	346.40
403.17	409.59
403.36	376.83
403.55	374.49
403.74	348.74
403.93	390.87
404.13	374.49
404.32	395.55
404.51	475.13
404.70	379.17
404.89	404.91
405.09	400.23
405.28	421.30
405.47	416.62
405.66	425.98
405.85	383.85
406.05	397.89
406.24	425.98
406.43	402.57
406.62	423.64
406.81	465.77
407.00	388.53
407.20	390.87
407.39	411.93
407.58	407.25
407.77	404.91
407.96	339.38
408.15	416.62
408.34	428.32
408.54	381.51
408.73	393.21
408.92	404.91
409.11	425.98
409.30	400.23
409.49	369.80
409.68	475.13
409.87	449.38
410.07	369.80
410.26	484.49
410.45	383.85
410.64	421.30
410.83	381.51
411.02	393.21
411.21	477.47
411.40	465.77
411.59	379.17
411.78	372.15
411.98	433.00
412.17	421.30
412.36	353.42
412.55	454.06
412.74	411.93
412.93	425.98
413.12	379.17
413.31	404.91
413.50	430.66
413.69	404.91
413.88	461.09
414.07	407.25
414.26	393.21
414.45	421.30
414.64	372.15
414.83	402.57
415.02	402.57
415.22	407.25
415.41	402.57
415.60	372.15
415.79	411.93
415.98	372.15
416.17	365.12
416.36	451.72
416.55	365.12
416.74	393.21
416.93	383.85
417.12	411.93
417.31	423.64
417.50	418.96
417.69	482.15
417.88	365.12
418.07	407.25
418.26	423.64
418.45	369.80
418.64	435.34
418.83	397.89
419.02	447.04
419.21	355.76
419.39	428.32
419.58	400.23
419.77	388.53
419.96	409.59
420.15	418.96
420.34	414.27
420.53	435.34
420.72	421.30
420.91	428.32
421.10	381.51
421.29	355.76
421.48	351.08
421.67	404.91
421.86	348.74
422.05	393.21
422.24	416.62
422.43	397.89
422.61	400.23
422.80	390.87
422.99	491.51
423.18	463.43
423.37	437.68
423.56	372.15
423.75	454.06
423.94	348.74
424.13	437.68
424.32	486.83
424.50	400.23
424.69	386.19
424.88	388.53
425.07	400.23
425.26	454.06
425.45	397.89
425.64	372.15
425.83	489.17
426.01	395.55
426.20	337.04
426.39	421.30
426.58	430.66
426.77	458.74
426.96	430.66
427.15	393.21
427.33	400.23
427.52	388.53
427.71	425.98
427.90	428.32
428.09	437.68
428.28	360.44
428.46	346.40
428.65	416.62
428.84	437.68
429.03	456.40
429.22	437.68
429.40	430.66
429.59	421.30
429.78	433.00
429.97	411.93
430.16	360.44
430.34	435.34
430.53	390.87
430.72	367.46
430.91	447.04
431.10	414.27
431.28	397.89
431.47	423.64
431.66	365.12
431.85	463.43
432.03	388.53
432.22	402.57
432.41	430.66
432.60	376.83
432.79	285.55
432.97	395.55
433.16	395.55
433.35	381.51
433.54	418.96
433.72	388.53
433.91	479.81
434.10	386.19
434.28	407.25
434.47	383.85
434.66	444.70
434.85	463.43
435.03	327.68
435.22	472.79
435.41	400.23
435.59	440.02
435.78	395.55
435.97	425.98
436.16	367.46
436.34	418.96
436.53	372.15
436.72	447.04
436.90	437.68
437.09	379.17
437.28	414.27
437.46	383.85
437.65	400.23
437.84	358.10
438.02	397.89
438.21	358.10
438.40	423.64
438.58	395.55
438.77	444.70
438.96	344.06
439.14	430.66
439.33	400.23
439.52	440.02
439.70	402.57
439.89	376.83
440.08	418.96
440.26	482.15
440.45	435.34
440.63	393.21
440.82	440.02
441.01	440.02
441.19	374.49
441.38	416.62
441.57	360.44
441.75	435.34
441.94	433.00
442.12	393.21
442.31	379.17
442.50	365.12
442.68	355.76
442.87	451.72
443.05	507.90
443.24	414.27
443.43	393.21
443.61	437.68
443.80	451.72
443.98	458.74
444.17	337.04
444.35	475.13
444.54	393.21
444.73	407.25
444.91	463.43
445.10	442.36
445.28	409.59
445.47	411.93
445.65	428.32
445.84	463.43
446.02	425.98
446.21	407.25
446.39	423.64
446.58	379.17
446.77	428.32
446.95	395.55
447.14	475.13
447.32	482.15
447.51	482.15
447.69	425.98
447.88	376.83
448.06	444.70
448.25	416.62
448.43	461.09
448.62	451.72
448.80	411.93
448.99	444.70
449.17	383.85
449.36	386.19
449.54	379.17
449.73	425.98
449.91	360.44
450.10	386.19
450.28	409.59
450.46	503.22
450.65	437.68
450.83	407.25
451.02	416.62
451.20	468.11
451.39	440.02
451.57	407.25
451.76	418.96
451.94	374.49
452.13	491.51
452.31	395.55
452.49	472.79
452.68	395.55
452.86	430.66
453.05	435.34
453.23	341.72
453.42	456.40
453.60	437.68
453.78	416.62
453.97	428.32
454.15	411.93
454.34	360.44
454.52	428.32
454.70	440.02
454.89	447.04
455.07	383.85
455.26	386.19
455.44	425.98
455.62	407.25
455.81	372.15
455.99	388.53
456.17	435.34
456.36	411.93
456.54	425.98
456.73	400.23
456.91	425.98
457.09	418.96
457.28	442.36
457.46	447.04
457.64	470.45
457.83	435.34
458.01	367.46
458.19	442.36
458.38	433.00
458.56	414.27
458.74	407.25
458.93	468.11
459.11	395.55
459.29	360.44
459.48	386.19
459.66	433.00
459.84	402.57
460.03	524.28
460.21	550.03
460.39	397.89
460.57	442.36
460.76	418.96
460.94	421.30
461.12	442.36
461.31	437.68
461.49	444.70
461.67	395.55
461.85	458.74
462.04	400.23
462.22	753.65
462.40	421.30
462.59	451.72
462.77	372.15
462.95	404.91
463.13	437.68
463.32	416.62
463.50	479.81
463.68	421.30
463.86	390.87
464.05	372.15
464.23	411.93
464.41	444.70
464.59	393.21
464.78	386.19
464.96	374.49
465.14	435.34
465.32	421.30
465.50	393.21
465.69	447.04
465.87	402.57
466.05	388.53
466.23	409.59
466.41	418.96
466.60	374.49
466.78	355.76
466.96	414.27
467.14	484.49
467.32	440.02
467.51	404.91
467.69	484.49
467.87	524.28
468.05	369.80
468.23	369.80
468.41	468.11
468.60	435.34
468.78	409.59
468.96	458.74
469.14	411.93
469.32	388.53
469.50	407.25
469.69	409.59
469.87	425.98
470.05	433.00
470.23	454.06
470.41	416.62
470.59	337.04
470.77	393.21
470.95	421.30
471.14	416.62
471.32	360.44
471.50	372.15
471.68	414.27
471.86	404.91
472.04	381.51
472.22	374.49
472.40	435.34
472.58	414.27
472.77	425.98
472.95	416.62
473.13	475.13
473.31	393.21
473.49	341.72
473.67	425.98
473.85	437.68
474.03	388.53
474.21	425.98
474.39	442.36
474.57	503.22
474.75	400.23
474.93	430.66
475.12	388.53
475.30	414.27
475.48	470.45
475.66	435.34
475.84	372.15
476.02	383.85
476.20	414.27
476.38	484.49
476.56	493.85
476.74	449.38
476.92	376.83
477.10	428.32
477.28	411.93
477.46	444.70
477.64	402.57
477.82	416.62
478.00	353.42
478.18	421.30
478.36	374.49
478.54	447.04
478.72	482.15
478.90	374.49
479.08	390.87
479.26	442.36
479.44	425.98
479.62	404.91
479.80	486.83
479.98	449.38
480.16	388.53
480.34	344.06
480.52	388.53
480.70	423.64
480.88	362.78
481.06	409.59
481.24	393.21
481.41	332.36
481.59	418.96
481.77	425.98
481.95	454.06
482.13	463.43
482.31	472.79
482.49	395.55
482.67	414.27
482.85	421.30
483.03	383.85
483.21	458.74
483.39	440.02
483.57	318.31
483.74	421.30
483.92	407.25
484.10	397.89
484.28	475.13
484.46	430.66
484.64	500.87
484.82	440.02
485.00	355.76
485.18	451.72
485.35	482.15
485.53	407.25
485.71	388.53
485.89	400.23
486.07	489.17
486.25	447.04
486.43	430.66
486.61	454.06
486.78	397.89
486.96	376.83
487.14	421.30
487.32	407.25
487.50	451.72
487.68	442.36
487.85	437.68
488.03	430.66
488.21	472.79
488.39	376.83
488.57	491.51
488.75	381.51
488.92	491.51
489.10	299.59
489.28	386.19
489.46	365.12
489.64	381.51
489.81	379.17
489.99	397.89
490.17	407.25
490.35	447.04
490.53	404.91
490.70	379.17
490.88	477.47
491.06	393.21
491.24	461.09
491.41	376.83
491.59	435.34
491.77	463.43
491.95	472.79
492.13	358.10
492.30	454.06
492.48	360.44
492.66	428.32
492.84	358.10
493.01	468.11
493.19	402.57
493.37	409.59
493.54	454.06
493.72	416.62
493.90	376.83
494.08	418.96
494.25	332.36
494.43	362.78
494.61	416.62
494.79	320.65
494.96	376.83
495.14	477.47
495.32	383.85
495.49	421.30
495.67	404.91
495.85	400.23
496.02	414.27
496.20	440.02
496.38	362.78
496.55	402.57
496.73	447.04
496.91	393.21
497.09	402.57
497.26	451.72
497.44	407.25
497.62	379.17
497.79	496.19
497.97	348.74
498.14	402.57
498.32	369.80
498.50	388.53
498.67	337.04
498.85	430.66
499.03	355.76
499.20	425.98
499.38	397.89
499.56	411.93
499.73	465.77
499.91	435.34
500.08	379.17
500.26	444.70
500.44	454.06
500.61	404.91
500.79	428.32
500.97	475.13
501.14	351.08
501.32	376.83
501.49	468.11
501.67	425.98
501.84	437.68
502.02	437.68
502.20	437.68
502.37	397.89
502.55	376.83
502.72	395.55
502.90	414.27
503.07	390.87
503.25	447.04
503.43	423.64
503.60	369.80
503.78	334.70
503.95	374.49
504.13	421.30
504.30	404.91
504.48	386.19
504.65	437.68
504.83	435.34
505.01	379.17
505.18	423.64
505.36	430.66
505.53	421.30
505.71	451.72
505.88	463.43
506.06	447.04
506.23	409.59
506.41	449.38
506.58	418.96
506.76	425.98
506.93	358.10
507.11	402.57
507.28	393.21
507.46	428.32
507.63	470.45
507.81	454.06
507.98	407.25
508.16	411.93
508.33	458.74
508.50	442.36
508.68	395.55
508.85	418.96
509.03	489.17
509.20	510.24
509.38	395.55
509.55	433.00
509.73	500.87
509.90	477.47
510.08	454.06
510.25	444.70
510.42	454.06
510.60	390.87
510.77	362.78
510.95	435.34
511.12	362.78
511.30	461.09
511.47	418.96
511.64	409.59
511.82	456.40
511.99	479.81
512.17	421.30
512.34	428.32
512.51	456.40
512.69	411.93
512.86	465.77
513.04	442.36
513.21	397.89
513.38	411.93
513.56	376.83
513.73	353.42
513.90	379.17
514.08	437.68
514.25	449.38
514.43	435.34
514.60	470.45
514.77	397.89
514.95	404.91
515.12	372.15
515.29	465.77
515.47	465.77
515.64	449.38
515.81	397.89
515.99	461.09
516.16	423.64
516.33	376.83
516.51	372.15
516.68	435.34
516.85	379.17
517.03	414.27
517.20	397.89
517.37	444.70
517.54	346.40
517.72	341.72
517.89	402.57
518.06	435.34
518.24	423.64
518.41	477.47
518.58	437.68
518.75	383.85
518.93	433.00
519.10	369.80
519.27	379.17
519.45	423.64
519.62	402.57
519.79	461.09
519.96	372.15
520.14	404.91
520.31	454.06
520.48	365.12
520.65	447.04
520.83	468.11
521.00	500.87
521.17	428.32
521.34	397.89
521.52	472.79
521.69	444.70
521.86	423.64
522.03	475.13
522.20	402.57
522.38	372.15
522.55	386.19
522.72	369.80
522.89	407.25
523.07	465.77
523.24	468.11
523.41	409.59
523.58	395.55
523.75	428.32
523.92	337.04
524.10	430.66
524.27	381.51
524.44	376.83
524.61	423.64
524.78	437.68
524.96	407.25
525.13	444.70
525.30	442.36
525.47	400.23
525.64	421.30
525.81	486.83
525.98	418.96
526.16	393.21
526.33	411.93
526.50	365.12
526.67	374.49
526.84	381.51
527.01	383.85
527.18	435.34
527.36	400.23
527.53	400.23
527.70	383.85
527.87	440.02
528.04	456.40
528.21	397.89
528.38	435.34
528.55	393.21
528.72	456.40
528.89	486.83
529.07	421.30
529.24	383.85
529.41	437.68
529.58	423.64
529.75	430.66
529.92	423.64
530.09	447.04
530.26	404.91
530.43	447.04
530.60	388.53
530.77	404.91
530.94	390.87
531.11	447.04
531.28	411.93
531.46	435.34
531.63	374.49
531.80	430.66
531.97	465.77
532.14	435.34
532.31	463.43
532.48	475.13
532.65	451.72
532.82	428.32
532.99	400.23
533.16	393.21
533.33	437.68
533.50	360.44
533.67	433.00
533.84	360.44
534.01	386.19
534.18	400.23
534.35	397.89
534.52	442.36
534.69	447.04
534.86	430.66
535.03	421.30
535.20	367.46
535.37	433.00
535.54	428.32
535.71	393.21
535.88	416.62
536.05	409.59
536.22	407.25
536.38	393.21
536.55	437.68
536.72	414.27
536.89	386.19
537.06	379.17
537.23	344.06
537.40	411.93
537.57	407.25
537.74	521.94
537.91	430.66
538.08	388.53
538.25	463.43
538.42	388.53
538.59	365.12
538.75	433.00
538.92	372.15
539.09	444.70
539.26	444.70
539.43	374.49
539.60	414.27
539.77	437.68
539.94	437.68
540.11	428.32
540.28	416.62
540.44	447.04
540.61	348.74
540.78	397.89
540.95	447.04
541.12	449.38
541.29	447.04
541.46	535.98
541.62	454.06
541.79	449.38
541.96	425.98
542.13	456.40
542.30	437.68
542.47	482.15
542.63	369.80
542.80	500.87
542.97	418.96
543.14	376.83
543.31	388.53
543.48	390.87
543.64	416.62
543.81	463.43
543.98	397.89
544.15	430.66
544.32	463.43
544.48	365.12
544.65	486.83
544.82	468.11
544.99	395.55
545.16	367.46
545.32	449.38
545.49	428.32
545.66	416.62
545.83	374.49
546.00	348.74
546.16	367.46
546.33	416.62
546.50	447.04
546.67	379.17
546.83	433.00
547.00	440.02
547.17	456.40
547.34	390.87
547.50	367.46
547.67	454.06
547.84	428.32
548.00	388.53
548.17	379.17
548.34	397.89
548.51	468.11
548.67	489.17
548.84	414.27
549.01	397.89
549.18	465.77
549.34	470.45
549.51	449.38
549.68	397.89
549.84	414.27
550.01	437.68
550.18	531.30
550.34	475.13
550.51	461.09
550.68	472.79
550.84	423.64
551.01	451.72
551.18	454.06
551.34	311.29
551.51	404.91
551.68	433.00
551.84	390.87
552.01	397.89
552.18	407.25
552.34	440.02
552.51	409.59
552.68	437.68
552.84	411.93
553.01	411.93
553.18	451.72
553.34	437.68
553.51	383.85
553.67	442.36
553.84	440.02
554.01	393.21
554.17	402.57
554.34	430.66
554.51	369.80
554.67	454.06
554.84	447.04
555.00	395.55
555.17	489.17
555.33	500.87
555.50	519.60
555.67	395.55
555.83	376.83
556.00	367.46
556.16	540.66
556.33	358.10
556.50	456.40
556.66	475.13
556.83	484.49
556.99	400.23
557.16	472.79
557.32	411.93
557.49	430.66
557.65	402.57
557.82	351.08
557.98	461.09
558.15	409.59
558.32	425.98
558.48	390.87
558.65	447.04
558.81	458.74
558.98	414.27
559.14	423.64
559.31	433.00
559.47	409.59
559.64	442.36
559.80	493.85
559.97	383.85
560.13	454.06
560.30	390.87
560.46	327.68
560.63	454.06
560.79	461.09
560.96	447.04
561.12	470.45
561.29	409.59
561.45	388.53
561.61	416.62
561.78	510.24
561.94	486.83
562.11	451.72
562.27	461.09
562.44	484.49
562.60	449.38
562.77	435.34
562.93	437.68
563.10	458.74
563.26	442.36
563.42	430.66
563.59	374.49
563.75	407.25
563.92	435.34
564.08	449.38
564.24	339.38
564.41	468.11
564.57	437.68
564.74	409.59
564.90	430.66
565.07	470.45
565.23	393.21
565.39	418.96
565.56	461.09
565.72	489.17
565.88	386.19
566.05	442.36
566.21	421.30
566.38	418.96
566.54	458.74
566.70	479.81
566.87	362.78
567.03	428.32
567.19	411.93
567.36	397.89
567.52	383.85
567.68	376.83
567.85	444.70
568.01	386.19
568.17	411.93
568.34	393.21
568.50	423.64
568.66	451.72
568.83	468.11
568.99	428.32
569.15	315.97
569.32	418.96
569.48	418.96
569.64	409.59
569.81	397.89
569.97	376.83
570.13	418.96
570.30	379.17
570.46	402.57
570.62	407.25
570.78	440.02
570.95	423.64
571.11	409.59
571.27	470.45
571.43	447.04
571.60	404.91
571.76	409.59
571.92	407.25
572.09	365.12
572.25	435.34
572.41	482.15
572.57	367.46
572.74	433.00
572.90	435.34
573.06	411.93
573.22	402.57
573.38	421.30
573.55	411.93
573.71	440.02
573.87	447.04
574.03	407.25
574.20	390.87
574.36	472.79
574.52	353.42
574.68	369.80
574.84	404.91
575.01	470.45
575.17	390.87
575.33	393.21
575.49	369.80
575.65	411.93
575.82	409.59
575.98	437.68
576.14	433.00
576.30	423.64
576.46	423.64
576.62	276.18
576.79	433.00
576.95	428.32
577.11	411.93
577.27	447.04
577.43	414.27
577.59	400.23
577.75	451.72
577.92	416.62
578.08	435.34
578.24	383.85
578.40	402.57
578.56	421.30
578.72	475.13
578.88	395.55
579.04	404.91
579.21	442.36
579.37	414.27
579.53	421.30
579.69	411.93
579.85	383.85
580.01	458.74
580.17	430.66
580.33	400.23
580.49	435.34
580.65	425.98
580.82	390.87
580.98	404.91
581.14	318.31
581.30	425.98
581.46	369.80
581.62	430.66
581.78	461.09
581.94	451.72
582.10	369.80
582.26	442.36
582.42	360.44
582.58	386.19
582.74	397.89
582.90	451.72
583.06	435.34
583.22	383.85
583.38	388.53
583.54	421.30
583.70	463.43
583.86	395.55
584.02	456.40
584.18	458.74
584.34	374.49
584.50	435.34
584.66	449.38
584.82	409.59
584.98	414.27
585.14	362.78
585.30	493.85
585.46	425.98
585.62	449.38
585.78	423.64
585.94	423.64
586.10	367.46
586.26	425.98
586.42	507.90
586.58	428.32
586.74	458.74
586.90	482.15
587.06	388.53
587.22	376.83
587.38	397.89
587.54	442.36
587.70	423.64
587.86	418.96
588.02	428.32
588.18	381.51
588.34	444.70
588.49	332.36
588.65	470.45
588.81	397.89
588.97	491.51
589.13	397.89
589.29	390.87
589.45	461.09
589.61	367.46
589.77	444.70
589.93	477.47
590.08	433.00
590.24	346.40
590.40	433.00
590.56	397.89
590.72	400.23
590.88	435.34
591.04	369.80
591.20	442.36
591.35	374.49
591.51	407.25
591.67	337.04
591.83	407.25
591.99	463.43
592.15	423.64
592.31	442.36
592.46	510.24
592.62	437.68
592.78	414.27
592.94	407.25
593.10	355.76
593.26	407.25
593.41	423.64
593.57	423.64
593.73	430.66
593.89	418.96
594.05	393.21
594.20	402.57
594.36	456.40
594.52	458.74
594.68	421.30
594.84	397.89
594.99	395.55
595.15	454.06
595.31	451.72
595.47	454.06
595.62	444.70
595.78	428.32
595.94	428.32
596.10	395.55
596.25	402.57
596.41	390.87
596.57	393.21
596.73	470.45
596.88	400.23
597.04	421.30
597.20	390.87
597.36	479.81
597.51	437.68
597.67	414.27
597.83	461.09
597.99	437.68
598.14	451.72
598.30	430.66
598.46	421.30
598.61	447.04
598.77	397.89
598.93	418.96
599.09	393.21
599.24	442.36
599.40	400.23
599.56	470.45
599.71	411.93
599.87	393.21
600.03	444.70
600.18	409.59
600.34	383.85
600.50	374.49
600.65	433.00
600.81	421.30
600.97	402.57
601.12	390.87
601.28	433.00
601.44	418.96
601.59	458.74
601.75	423.64
601.91	388.53
602.06	456.40
602.22	430.66
602.37	454.06
602.53	477.47
602.69	334.70
602.84	404.91
603.00	416.62
603.16	379.17
603.31	433.00
603.47	543.00
603.62	416.62
603.78	423.64
603.94	428.32
604.09	456.40
604.25	447.04
604.40	444.70
604.56	444.70
604.71	491.51
604.87	468.11
605.03	383.85
605.18	475.13
605.34	447.04
605.49	418.96
605.65	463.43
605.80	402.57
605.96	425.98
606.12	433.00
606.27	379.17
606.43	386.19
606.58	463.43
606.74	486.83
606.89	388.53
607.05	425.98
607.20	369.80
607.36	435.34
607.51	425.98
607.67	433.00
607.82	425.98
607.98	447.04
608.13	468.11
608.29	400.23
608.44	430.66
608.60	390.87
608.75	421.30
608.91	421.30
609.06	381.51
609.22	472.79
609.37	430.66
609.53	430.66
609.68	423.64
609.84	358.10
609.99	428.32
610.15	362.78
