SpectraSuite Data File
++++++++++++++++++++++++++++++++++++
Date: Fri Oct 25 12:10:31 EDT 2013
User: price-jones
Dark Spectrum Present: No
Reference Spectrum Present: No
Number of Sampled Component Spectra: 1
Spectrometers: USB2+H05261
Integration Time (usec): 100000 (USB2+H05261)
Spectra Averaged: 1 (USB2+H05261)
Boxcar Smoothing: 0 (USB2+H05261)
Correct for Electrical Dark: No (USB2+H05261)
Strobe/Lamp Enabled: No (USB2+H05261)
Correct for Detector Non-linearity: No (USB2+H05261)
Correct for Stray Light: No (USB2+H05261)
Number of Pixels in Processed Spectrum: 2048
>>>>>Begin Processed Spectral Data<<<<<
365.73	318.31
365.92	318.31
366.12	318.31
366.32	262.14
366.52	208.31
366.72	266.82
366.91	220.01
367.11	250.44
367.31	290.23
367.51	285.55
367.70	229.37
367.90	325.33
368.10	215.33
368.30	238.73
368.49	222.35
368.69	285.55
368.89	194.26
369.09	278.52
369.28	278.52
369.48	224.69
369.68	290.23
369.87	278.52
370.07	308.95
370.27	327.68
370.47	257.46
370.66	351.08
370.86	322.99
371.06	283.20
371.25	411.93
371.45	355.76
371.65	425.98
371.84	360.44
372.04	393.21
372.24	369.80
372.44	395.55
372.63	409.59
372.83	397.89
373.03	404.91
373.22	386.19
373.42	489.17
373.62	454.06
373.81	461.09
374.01	425.98
374.21	416.62
374.40	428.32
374.60	458.74
374.79	425.98
374.99	383.85
375.19	449.38
375.38	365.12
375.58	440.02
375.78	418.96
375.97	433.00
376.17	437.68
376.37	416.62
376.56	388.53
376.76	376.83
376.95	402.57
377.15	407.25
377.35	367.46
377.54	451.72
377.74	423.64
377.93	407.25
378.13	407.25
378.33	400.23
378.52	414.27
378.72	470.45
378.91	444.70
379.11	379.17
379.31	376.83
379.50	372.15
379.70	348.74
379.89	458.74
380.09	479.81
380.28	360.44
380.48	409.59
380.68	409.59
380.87	332.36
381.07	395.55
381.26	444.70
381.46	404.91
381.65	337.04
381.85	383.85
382.04	379.17
382.24	463.43
382.43	327.68
382.63	430.66
382.83	540.66
383.02	390.87
383.22	362.78
383.41	374.49
383.61	381.51
383.80	451.72
384.00	414.27
384.19	367.46
384.39	376.83
384.58	407.25
384.78	393.21
384.97	421.30
385.17	421.30
385.36	414.27
385.56	346.40
385.75	421.30
385.95	402.57
386.14	449.38
386.34	433.00
386.53	351.08
386.72	353.42
386.92	388.53
387.11	374.49
387.31	477.47
387.50	442.36
387.70	393.21
387.89	437.68
388.09	425.98
388.28	372.15
388.48	369.80
388.67	409.59
388.86	456.40
389.06	355.76
389.25	437.68
389.45	433.00
389.64	409.59
389.84	404.91
390.03	479.81
390.22	430.66
390.42	374.49
390.61	358.10
390.81	423.64
391.00	365.12
391.19	404.91
391.39	393.21
391.58	454.06
391.78	362.78
391.97	449.38
392.16	484.49
392.36	388.53
392.55	416.62
392.75	411.93
392.94	418.96
393.13	409.59
393.33	395.55
393.52	367.46
393.71	489.17
393.91	433.00
394.10	433.00
394.29	442.36
394.49	379.17
394.68	411.93
394.88	461.09
395.07	447.04
395.26	430.66
395.46	433.00
395.65	458.74
395.84	365.12
396.04	482.15
396.23	411.93
396.42	397.89
396.62	416.62
396.81	397.89
397.00	421.30
397.19	341.72
397.39	449.38
397.58	458.74
397.77	463.43
397.97	376.83
398.16	416.62
398.35	407.25
398.55	358.10
398.74	463.43
398.93	386.19
399.12	341.72
399.32	393.21
399.51	339.38
399.70	418.96
399.90	407.25
400.09	381.51
400.28	435.34
400.47	465.77
400.67	454.06
400.86	411.93
401.05	440.02
401.24	402.57
401.44	397.89
401.63	330.02
401.82	423.64
402.01	458.74
402.21	376.83
402.40	376.83
402.59	461.09
402.78	311.29
402.97	355.76
403.17	395.55
403.36	376.83
403.55	376.83
403.74	372.15
403.93	421.30
404.13	400.23
404.32	404.91
404.51	484.49
404.70	423.64
404.89	388.53
405.09	482.15
405.28	416.62
405.47	355.76
405.66	334.70
405.85	414.27
406.05	376.83
406.24	386.19
406.43	400.23
406.62	400.23
406.81	428.32
407.00	416.62
407.20	423.64
407.39	393.21
407.58	404.91
407.77	390.87
407.96	437.68
408.15	409.59
408.34	430.66
408.54	456.40
408.73	397.89
408.92	461.09
409.11	433.00
409.30	395.55
409.49	409.59
409.68	372.15
409.87	414.27
410.07	374.49
410.26	428.32
410.45	411.93
410.64	402.57
410.83	397.89
411.02	416.62
411.21	362.78
411.40	489.17
411.59	411.93
411.78	390.87
411.98	454.06
412.17	390.87
412.36	440.02
412.55	374.49
412.74	418.96
412.93	428.32
413.12	414.27
413.31	430.66
413.50	463.43
413.69	440.02
413.88	409.59
414.07	393.21
414.26	388.53
414.45	414.27
414.64	395.55
414.83	421.30
415.02	353.42
415.22	416.62
415.41	402.57
415.60	374.49
415.79	393.21
415.98	388.53
416.17	411.93
416.36	414.27
416.55	348.74
416.74	470.45
416.93	454.06
417.12	397.89
417.31	402.57
417.50	367.46
417.69	418.96
417.88	444.70
418.07	348.74
418.26	388.53
418.45	414.27
418.64	407.25
418.83	386.19
419.02	456.40
419.21	404.91
419.39	442.36
419.58	416.62
419.77	341.72
419.96	428.32
420.15	369.80
420.34	461.09
420.53	444.70
420.72	423.64
420.91	425.98
421.10	381.51
421.29	393.21
421.48	400.23
421.67	390.87
421.86	418.96
422.05	425.98
422.24	425.98
422.43	365.12
422.61	437.68
422.80	369.80
422.99	402.57
423.18	437.68
423.37	428.32
423.56	468.11
423.75	444.70
423.94	423.64
424.13	365.12
424.32	444.70
424.50	433.00
424.69	425.98
424.88	451.72
425.07	461.09
425.26	428.32
425.45	404.91
425.64	341.72
425.83	454.06
426.01	418.96
426.20	484.49
426.39	421.30
426.58	388.53
426.77	402.57
426.96	472.79
427.15	397.89
427.33	409.59
427.52	418.96
427.71	440.02
427.90	442.36
428.09	435.34
428.28	423.64
428.46	472.79
428.65	390.87
428.84	463.43
429.03	411.93
429.22	365.12
429.40	341.72
429.59	315.97
429.78	414.27
429.97	351.08
430.16	386.19
430.34	428.32
430.53	463.43
430.72	442.36
430.91	484.49
431.10	369.80
431.28	416.62
431.47	440.02
431.66	451.72
431.85	320.65
432.03	482.15
432.22	461.09
432.41	428.32
432.60	531.30
432.79	414.27
432.97	430.66
433.16	330.02
433.35	451.72
433.54	393.21
433.72	430.66
433.91	395.55
434.10	365.12
434.28	463.43
434.47	430.66
434.66	472.79
434.85	374.49
435.03	400.23
435.22	451.72
435.41	444.70
435.59	442.36
435.78	379.17
435.97	440.02
436.16	365.12
436.34	418.96
436.53	512.58
436.72	416.62
436.90	475.13
437.09	411.93
437.28	458.74
437.46	386.19
437.65	388.53
437.84	383.85
438.02	397.89
438.21	383.85
438.40	381.51
438.58	449.38
438.77	454.06
438.96	362.78
439.14	367.46
439.33	285.55
439.52	383.85
439.70	407.25
439.89	484.49
440.08	444.70
440.26	440.02
440.45	456.40
440.63	449.38
440.82	468.11
441.01	355.76
441.19	444.70
441.38	416.62
441.57	381.51
441.75	402.57
441.94	386.19
442.12	395.55
442.31	402.57
442.50	376.83
442.68	395.55
442.87	393.21
443.05	416.62
443.24	397.89
443.43	351.08
443.61	407.25
443.80	367.46
443.98	477.47
444.17	435.34
444.35	407.25
444.54	458.74
444.73	409.59
444.91	379.17
445.10	348.74
445.28	402.57
445.47	475.13
445.65	433.00
445.84	400.23
446.02	407.25
446.21	416.62
446.39	400.23
446.58	461.09
446.77	388.53
446.95	447.04
447.14	461.09
447.32	437.68
447.51	423.64
447.69	472.79
447.88	416.62
448.06	409.59
448.25	390.87
448.43	411.93
448.62	418.96
448.80	397.89
448.99	404.91
449.17	430.66
449.36	374.49
449.54	482.15
449.73	447.04
449.91	421.30
450.10	449.38
450.28	393.21
450.46	451.72
450.65	435.34
450.83	397.89
451.02	393.21
451.20	346.40
451.39	447.04
451.57	451.72
451.76	409.59
451.94	414.27
452.13	393.21
452.31	442.36
452.49	442.36
452.68	411.93
452.86	409.59
453.05	470.45
453.23	411.93
453.42	404.91
453.60	402.57
453.78	395.55
453.97	383.85
454.15	409.59
454.34	430.66
454.52	322.99
454.70	491.51
454.89	440.02
455.07	430.66
455.26	486.83
455.44	437.68
455.62	418.96
455.81	418.96
455.99	400.23
456.17	484.49
456.36	437.68
456.54	458.74
456.73	407.25
456.91	402.57
457.09	381.51
457.28	477.47
457.46	381.51
457.64	381.51
457.83	379.17
458.01	404.91
458.19	416.62
458.38	404.91
458.56	440.02
458.74	358.10
458.93	374.49
459.11	362.78
459.29	400.23
459.48	454.06
459.66	386.19
459.84	374.49
460.03	451.72
460.21	348.74
460.39	468.11
460.57	449.38
460.76	440.02
460.94	430.66
461.12	447.04
461.31	428.32
461.49	437.68
461.67	390.87
461.85	458.74
462.04	404.91
462.22	842.59
462.40	463.43
462.59	418.96
462.77	397.89
462.95	393.21
463.13	418.96
463.32	344.06
463.50	411.93
463.68	400.23
463.86	381.51
464.05	374.49
464.23	404.91
464.41	425.98
464.59	421.30
464.78	463.43
464.96	491.51
465.14	351.08
465.32	414.27
465.50	367.46
465.69	461.09
465.87	465.77
466.05	397.89
466.23	358.10
466.41	416.62
466.60	430.66
466.78	367.46
466.96	407.25
467.14	423.64
467.32	454.06
467.51	437.68
467.69	395.55
467.87	440.02
468.05	397.89
468.23	428.32
468.41	486.83
468.60	374.49
468.78	468.11
468.96	393.21
469.14	510.24
469.32	344.06
469.50	430.66
469.69	344.06
469.87	440.02
470.05	400.23
470.23	423.64
470.41	395.55
470.59	388.53
470.77	442.36
470.95	337.04
471.14	547.69
471.32	372.15
471.50	444.70
471.68	372.15
471.86	341.72
472.04	346.40
472.22	365.12
472.40	341.72
472.58	411.93
472.77	355.76
472.95	355.76
473.13	449.38
473.31	435.34
473.49	444.70
473.67	454.06
473.85	360.44
474.03	425.98
474.21	433.00
474.39	423.64
474.57	449.38
474.75	444.70
474.93	414.27
475.12	442.36
475.30	393.21
475.48	428.32
475.66	458.74
475.84	402.57
476.02	430.66
476.20	411.93
476.38	395.55
476.56	376.83
476.74	416.62
476.92	454.06
477.10	444.70
477.28	367.46
477.46	388.53
477.64	449.38
477.82	451.72
478.00	383.85
478.18	423.64
478.36	409.59
478.54	381.51
478.72	472.79
478.90	418.96
479.08	292.57
479.26	418.96
479.44	437.68
479.62	339.38
479.80	388.53
479.98	421.30
480.16	416.62
480.34	409.59
480.52	362.78
480.70	433.00
480.88	400.23
481.06	402.57
481.24	395.55
481.41	404.91
481.59	444.70
481.77	365.12
481.95	407.25
482.13	404.91
482.31	418.96
482.49	374.49
482.67	404.91
482.85	416.62
483.03	444.70
483.21	416.62
483.39	425.98
483.57	400.23
483.74	395.55
483.92	435.34
484.10	367.46
484.28	456.40
484.46	449.38
484.64	440.02
484.82	461.09
485.00	402.57
485.18	400.23
485.35	447.04
485.53	332.36
485.71	414.27
485.89	407.25
486.07	414.27
486.25	517.26
486.43	409.59
486.61	353.42
486.78	402.57
486.96	341.72
487.14	479.81
487.32	411.93
487.50	418.96
487.68	362.78
487.85	411.93
488.03	447.04
488.21	437.68
488.39	411.93
488.57	386.19
488.75	404.91
488.92	477.47
489.10	449.38
489.28	468.11
489.46	425.98
489.64	447.04
489.81	411.93
489.99	433.00
490.17	437.68
490.35	463.43
490.53	397.89
490.70	358.10
490.88	435.34
491.06	496.19
491.24	428.32
491.41	547.69
491.59	421.30
491.77	447.04
491.95	404.91
492.13	475.13
492.30	475.13
492.48	425.98
492.66	383.85
492.84	468.11
493.01	395.55
493.19	372.15
493.37	418.96
493.54	367.46
493.72	397.89
493.90	395.55
494.08	395.55
494.25	386.19
494.43	423.64
494.61	411.93
494.79	360.44
494.96	341.72
495.14	369.80
495.32	440.02
495.49	479.81
495.67	437.68
495.85	442.36
496.02	407.25
496.20	423.64
496.38	430.66
496.55	477.47
496.73	433.00
496.91	433.00
497.09	428.32
497.26	376.83
497.44	388.53
497.62	454.06
497.79	440.02
497.97	409.59
498.14	430.66
498.32	435.34
498.50	458.74
498.67	418.96
498.85	458.74
499.03	400.23
499.20	407.25
499.38	381.51
499.56	418.96
499.73	463.43
499.91	447.04
500.08	383.85
500.26	423.64
500.44	482.15
500.61	461.09
500.79	423.64
500.97	407.25
501.14	402.57
501.32	407.25
501.49	430.66
501.67	409.59
501.84	386.19
502.02	491.51
502.20	517.26
502.37	519.60
502.55	449.38
502.72	395.55
502.90	458.74
503.07	465.77
503.25	442.36
503.43	390.87
503.60	386.19
503.78	402.57
503.95	435.34
504.13	383.85
504.30	465.77
504.48	428.32
504.65	451.72
504.83	514.92
505.01	414.27
505.18	421.30
505.36	423.64
505.53	477.47
505.71	386.19
505.88	435.34
506.06	458.74
506.23	400.23
506.41	369.80
506.58	416.62
506.76	482.15
506.93	416.62
507.11	383.85
507.28	435.34
507.46	407.25
507.63	430.66
507.81	383.85
507.98	458.74
508.16	409.59
508.33	407.25
508.50	383.85
508.68	428.32
508.85	416.62
509.03	442.36
509.20	404.91
509.38	423.64
509.55	444.70
509.73	440.02
509.90	475.13
510.08	383.85
510.25	407.25
510.42	437.68
510.60	496.19
510.77	367.46
510.95	437.68
511.12	416.62
511.30	397.89
511.47	421.30
511.64	442.36
511.82	388.53
511.99	390.87
512.17	430.66
512.34	388.53
512.51	428.32
512.69	337.04
512.86	442.36
513.04	358.10
513.21	444.70
513.38	346.40
513.56	435.34
513.73	435.34
513.90	395.55
514.08	430.66
514.25	449.38
514.43	500.87
514.60	397.89
514.77	430.66
514.95	440.02
515.12	411.93
515.29	442.36
515.47	397.89
515.64	440.02
515.81	358.10
515.99	437.68
516.16	451.72
516.33	409.59
516.51	360.44
516.68	435.34
516.85	442.36
517.03	430.66
517.20	379.17
517.37	444.70
517.54	440.02
517.72	435.34
517.89	425.98
518.06	421.30
518.24	470.45
518.41	482.15
518.58	407.25
518.75	376.83
518.93	416.62
519.10	430.66
519.27	444.70
519.45	423.64
519.62	409.59
519.79	479.81
519.96	437.68
520.14	407.25
520.31	449.38
520.48	376.83
520.65	428.32
520.83	404.91
521.00	524.28
521.17	425.98
521.34	430.66
521.52	372.15
521.69	418.96
521.86	393.21
522.03	486.83
522.20	475.13
522.38	472.79
522.55	461.09
522.72	456.40
522.89	386.19
523.07	500.87
523.24	456.40
523.41	505.56
523.58	430.66
523.75	444.70
523.92	402.57
524.10	449.38
524.27	393.21
524.44	421.30
524.61	428.32
524.78	465.77
524.96	383.85
525.13	451.72
525.30	458.74
525.47	388.53
525.64	372.15
525.81	440.02
525.98	397.89
526.16	421.30
526.33	465.77
526.50	348.74
526.67	372.15
526.84	482.15
527.01	528.96
527.18	470.45
527.36	393.21
527.53	409.59
527.70	414.27
527.87	355.76
528.04	451.72
528.21	367.46
528.38	430.66
528.55	416.62
528.72	479.81
528.89	409.59
529.07	346.40
529.24	456.40
529.41	411.93
529.58	404.91
529.75	447.04
529.92	437.68
530.09	425.98
530.26	397.89
530.43	367.46
530.60	440.02
530.77	411.93
530.94	388.53
531.11	475.13
531.28	409.59
531.46	428.32
531.63	397.89
531.80	397.89
531.97	451.72
532.14	379.17
532.31	477.47
532.48	486.83
532.65	458.74
532.82	472.79
532.99	386.19
533.16	447.04
533.33	437.68
533.50	395.55
533.67	428.32
533.84	451.72
534.01	414.27
534.18	409.59
534.35	454.06
534.52	348.74
534.69	458.74
534.86	428.32
535.03	390.87
535.20	390.87
535.37	440.02
535.54	437.68
535.71	456.40
535.88	383.85
536.05	367.46
536.22	409.59
536.38	435.34
536.55	416.62
536.72	407.25
536.89	397.89
537.06	402.57
537.23	451.72
537.40	447.04
537.57	358.10
537.74	465.77
537.91	407.25
538.08	442.36
538.25	475.13
538.42	407.25
538.59	484.49
538.75	447.04
538.92	425.98
539.09	397.89
539.26	339.38
539.43	383.85
539.60	400.23
539.77	444.70
539.94	400.23
540.11	407.25
540.28	367.46
540.44	449.38
540.61	430.66
540.78	421.30
540.95	484.49
541.12	416.62
541.29	418.96
541.46	475.13
541.62	498.53
541.79	365.12
541.96	395.55
542.13	358.10
542.30	397.89
542.47	484.49
542.63	428.32
542.80	411.93
542.97	379.17
543.14	390.87
543.31	414.27
543.48	423.64
543.64	383.85
543.81	428.32
543.98	425.98
544.15	381.51
544.32	430.66
544.48	409.59
544.65	458.74
544.82	393.21
544.99	449.38
545.16	423.64
545.32	437.68
545.49	409.59
545.66	393.21
545.83	458.74
546.00	376.83
546.16	381.51
546.33	416.62
546.50	381.51
546.67	451.72
546.83	493.85
547.00	414.27
547.17	404.91
547.34	369.80
547.50	390.87
547.67	404.91
547.84	402.57
548.00	507.90
548.17	428.32
548.34	433.00
548.51	428.32
548.67	423.64
548.84	463.43
549.01	447.04
549.18	381.51
549.34	421.30
549.51	414.27
549.68	440.02
549.84	390.87
550.01	430.66
550.18	449.38
550.34	482.15
550.51	440.02
550.68	437.68
550.84	390.87
551.01	425.98
551.18	379.17
551.34	425.98
551.51	388.53
551.68	407.25
551.84	381.51
552.01	423.64
552.18	388.53
552.34	510.24
552.51	425.98
552.68	421.30
552.84	430.66
553.01	454.06
553.18	407.25
553.34	421.30
553.51	468.11
553.67	435.34
553.84	496.19
554.01	449.38
554.17	489.17
554.34	416.62
554.51	458.74
554.67	472.79
554.84	479.81
555.00	400.23
555.17	437.68
555.33	472.79
555.50	456.40
555.67	327.68
555.83	423.64
556.00	465.77
556.16	568.75
556.33	428.32
556.50	365.12
556.66	376.83
556.83	393.21
556.99	407.25
557.16	493.85
557.32	423.64
557.49	376.83
557.65	374.49
557.82	421.30
557.98	383.85
558.15	397.89
558.32	435.34
558.48	346.40
558.65	407.25
558.81	372.15
558.98	379.17
559.14	416.62
559.31	428.32
559.47	400.23
559.64	407.25
559.80	454.06
559.97	414.27
560.13	386.19
560.30	479.81
560.46	454.06
560.63	386.19
560.79	433.00
560.96	402.57
561.12	390.87
561.29	425.98
561.45	489.17
561.61	381.51
561.78	521.94
561.94	472.79
562.11	430.66
562.27	395.55
562.44	477.47
562.60	407.25
562.77	458.74
562.93	421.30
563.10	383.85
563.26	430.66
563.42	416.62
563.59	472.79
563.75	451.72
563.92	397.89
564.08	425.98
564.24	402.57
564.41	472.79
564.57	435.34
564.74	428.32
564.90	444.70
565.07	379.17
565.23	397.89
565.39	407.25
565.56	416.62
565.72	433.00
565.88	440.02
566.05	428.32
566.21	449.38
566.38	468.11
566.54	465.77
566.70	355.76
566.87	421.30
567.03	437.68
567.19	372.15
567.36	425.98
567.52	351.08
567.68	454.06
567.85	383.85
568.01	454.06
568.17	418.96
568.34	496.19
568.50	437.68
568.66	393.21
568.83	463.43
568.99	423.64
569.15	449.38
569.32	341.72
569.48	383.85
569.64	442.36
569.81	433.00
569.97	477.47
570.13	444.70
570.30	418.96
570.46	468.11
570.62	472.79
570.78	372.15
570.95	397.89
571.11	416.62
571.27	442.36
571.43	444.70
571.60	437.68
571.76	449.38
571.92	440.02
572.09	381.51
572.25	451.72
572.41	355.76
572.57	472.79
572.74	423.64
572.90	386.19
573.06	395.55
573.22	362.78
573.38	379.17
573.55	435.34
573.71	437.68
573.87	465.77
574.03	404.91
574.20	454.06
574.36	355.76
574.52	390.87
574.68	423.64
574.84	365.12
575.01	383.85
575.17	381.51
575.33	421.30
575.49	435.34
575.65	463.43
575.82	435.34
575.98	411.93
576.14	425.98
576.30	411.93
576.46	428.32
576.62	367.46
576.79	482.15
576.95	425.98
577.11	416.62
577.27	390.87
577.43	442.36
577.59	463.43
577.75	465.77
577.92	416.62
578.08	428.32
578.24	379.17
578.40	461.09
578.56	472.79
578.72	435.34
578.88	402.57
579.04	430.66
579.21	437.68
579.37	414.27
579.53	423.64
579.69	433.00
579.85	372.15
580.01	454.06
580.17	344.06
580.33	418.96
580.49	449.38
580.65	435.34
580.82	447.04
580.98	400.23
581.14	386.19
581.30	470.45
581.46	444.70
581.62	423.64
581.78	402.57
581.94	423.64
582.10	397.89
582.26	425.98
582.42	393.21
582.58	435.34
582.74	470.45
582.90	428.32
583.06	440.02
583.22	418.96
583.38	358.10
583.54	416.62
583.70	461.09
583.86	386.19
584.02	404.91
584.18	454.06
584.34	416.62
584.50	407.25
584.66	372.15
584.82	430.66
584.98	421.30
585.14	458.74
585.30	463.43
585.46	404.91
585.62	372.15
585.78	395.55
585.94	404.91
586.10	386.19
586.26	388.53
586.42	500.87
586.58	397.89
586.74	447.04
586.90	463.43
587.06	433.00
587.22	472.79
587.38	367.46
587.54	409.59
587.70	451.72
587.86	458.74
588.02	379.17
588.18	360.44
588.34	400.23
588.49	379.17
588.65	367.46
588.81	348.74
588.97	367.46
589.13	330.02
589.29	397.89
589.45	433.00
589.61	346.40
589.77	365.12
589.93	379.17
590.08	344.06
590.24	461.09
590.40	409.59
590.56	465.77
590.72	393.21
590.88	407.25
591.04	430.66
591.20	404.91
591.35	465.77
591.51	411.93
591.67	372.15
591.83	409.59
591.99	428.32
592.15	442.36
592.31	465.77
592.46	367.46
592.62	472.79
592.78	442.36
592.94	437.68
593.10	393.21
593.26	435.34
593.41	402.57
593.57	404.91
593.73	411.93
593.89	407.25
594.05	486.83
594.20	477.47
594.36	451.72
594.52	423.64
594.68	416.62
594.84	353.42
594.99	454.06
595.15	430.66
595.31	421.30
595.47	496.19
595.62	393.21
595.78	463.43
595.94	379.17
596.10	428.32
596.25	418.96
596.41	411.93
596.57	339.38
596.73	423.64
596.88	423.64
597.04	414.27
597.20	404.91
597.36	421.30
597.51	414.27
597.67	444.70
597.83	395.55
597.99	388.53
598.14	458.74
598.30	463.43
598.46	369.80
598.61	433.00
598.77	390.87
598.93	428.32
599.09	447.04
599.24	386.19
599.40	493.85
599.56	418.96
599.71	393.21
599.87	409.59
600.03	442.36
600.18	423.64
600.34	395.55
600.50	430.66
600.65	407.25
600.81	475.13
600.97	367.46
601.12	365.12
601.28	414.27
601.44	442.36
601.59	449.38
601.75	510.24
601.91	409.59
602.06	416.62
602.22	402.57
602.37	421.30
602.53	388.53
602.69	433.00
602.84	386.19
603.00	414.27
603.16	458.74
603.31	381.51
603.47	461.09
603.62	433.00
603.78	414.27
603.94	402.57
604.09	397.89
604.25	341.72
604.40	449.38
604.56	402.57
604.71	444.70
604.87	430.66
605.03	433.00
605.18	440.02
605.34	369.80
605.49	409.59
605.65	414.27
605.80	414.27
605.96	400.23
606.12	425.98
606.27	486.83
606.43	418.96
606.58	449.38
606.74	437.68
606.89	428.32
607.05	444.70
607.20	472.79
607.36	423.64
607.51	414.27
607.67	372.15
607.82	374.49
607.98	416.62
608.13	463.43
608.29	428.32
608.44	388.53
608.60	444.70
608.75	489.17
608.91	397.89
609.06	470.45
609.22	475.13
609.37	435.34
609.53	428.32
609.68	423.64
609.84	334.70
609.99	411.93
610.15	437.68
