SpectraSuite Data File
++++++++++++++++++++++++++++++++++++
Date: Fri Oct 25 12:11:08 EDT 2013
User: price-jones
Dark Spectrum Present: No
Reference Spectrum Present: No
Number of Sampled Component Spectra: 1
Spectrometers: USB2+H05261
Integration Time (usec): 100000 (USB2+H05261)
Spectra Averaged: 1 (USB2+H05261)
Boxcar Smoothing: 0 (USB2+H05261)
Correct for Electrical Dark: No (USB2+H05261)
Strobe/Lamp Enabled: No (USB2+H05261)
Correct for Detector Non-linearity: No (USB2+H05261)
Correct for Stray Light: No (USB2+H05261)
Number of Pixels in Processed Spectrum: 2048
>>>>>Begin Processed Spectral Data<<<<<
365.73	421.30
365.92	421.30
366.12	421.30
366.32	241.08
366.52	224.69
366.72	224.69
366.91	252.78
367.11	222.35
367.31	196.60
367.51	222.35
367.70	255.12
367.90	245.76
368.10	217.67
368.30	231.71
368.49	297.25
368.69	266.82
368.89	308.95
369.09	322.99
369.28	285.55
369.48	250.44
369.68	334.70
369.87	280.86
370.07	271.50
370.27	353.42
370.47	337.04
370.66	362.78
370.86	330.02
371.06	327.68
371.25	358.10
371.45	339.38
371.65	468.11
371.84	330.02
372.04	332.36
372.24	418.96
372.44	346.40
372.63	468.11
372.83	404.91
373.03	447.04
373.22	360.44
373.42	372.15
373.62	449.38
373.81	322.99
374.01	418.96
374.21	449.38
374.40	381.51
374.60	442.36
374.79	348.74
374.99	428.32
375.19	414.27
375.38	402.57
375.58	454.06
375.78	435.34
375.97	414.27
376.17	540.66
376.37	444.70
376.56	367.46
376.76	416.62
376.95	428.32
377.15	404.91
377.35	454.06
377.54	435.34
377.74	337.04
377.93	416.62
378.13	437.68
378.33	383.85
378.52	418.96
378.72	418.96
378.91	454.06
379.11	379.17
379.31	390.87
379.50	374.49
379.70	428.32
379.89	444.70
380.09	367.46
380.28	365.12
380.48	486.83
380.68	409.59
380.87	383.85
381.07	411.93
381.26	435.34
381.46	451.72
381.65	383.85
381.85	393.21
382.04	440.02
382.24	393.21
382.43	407.25
382.63	463.43
382.83	393.21
383.02	463.43
383.22	444.70
383.41	386.19
383.61	400.23
383.80	435.34
384.00	355.76
384.19	433.00
384.39	454.06
384.58	381.51
384.78	440.02
384.97	423.64
385.17	437.68
385.36	493.85
385.56	353.42
385.75	358.10
385.95	402.57
386.14	454.06
386.34	379.17
386.53	416.62
386.72	407.25
386.92	418.96
387.11	486.83
387.31	360.44
387.50	395.55
387.70	369.80
387.89	386.19
388.09	409.59
388.28	353.42
388.48	433.00
388.67	414.27
388.86	407.25
389.06	351.08
389.25	440.02
389.45	423.64
389.64	411.93
389.84	461.09
390.03	409.59
390.22	416.62
390.42	344.06
390.61	428.32
390.81	411.93
391.00	435.34
391.19	433.00
391.39	404.91
391.58	418.96
391.78	355.76
391.97	414.27
392.16	400.23
392.36	397.89
392.55	440.02
392.75	397.89
392.94	454.06
393.13	369.80
393.33	341.72
393.52	423.64
393.71	470.45
393.91	465.77
394.10	444.70
394.29	360.44
394.49	414.27
394.68	475.13
394.88	421.30
395.07	348.74
395.26	397.89
395.46	400.23
395.65	428.32
395.84	404.91
396.04	454.06
396.23	348.74
396.42	414.27
396.62	428.32
396.81	517.26
397.00	381.51
397.19	409.59
397.39	395.55
397.58	416.62
397.77	344.06
397.97	386.19
398.16	444.70
398.35	365.12
398.55	395.55
398.74	447.04
398.93	458.74
399.12	435.34
399.32	428.32
399.51	376.83
399.70	435.34
399.90	428.32
400.09	383.85
400.28	505.56
400.47	404.91
400.67	418.96
400.86	482.15
401.05	386.19
401.24	472.79
401.44	379.17
401.63	486.83
401.82	468.11
402.01	381.51
402.21	402.57
402.40	444.70
402.59	411.93
402.78	428.32
402.97	379.17
403.17	383.85
403.36	383.85
403.55	393.21
403.74	325.33
403.93	421.30
404.13	430.66
404.32	465.77
404.51	425.98
404.70	451.72
404.89	341.72
405.09	454.06
405.28	346.40
405.47	332.36
405.66	381.51
405.85	367.46
406.05	348.74
406.24	404.91
406.43	447.04
406.62	416.62
406.81	416.62
407.00	372.15
407.20	339.38
407.39	442.36
407.58	475.13
407.77	390.87
407.96	430.66
408.15	383.85
408.34	381.51
408.54	404.91
408.73	428.32
408.92	409.59
409.11	388.53
409.30	479.81
409.49	393.21
409.68	437.68
409.87	491.51
410.07	365.12
410.26	465.77
410.45	397.89
410.64	339.38
410.83	372.15
411.02	393.21
411.21	407.25
411.40	346.40
411.59	437.68
411.78	402.57
411.98	416.62
412.17	360.44
412.36	404.91
412.55	468.11
412.74	472.79
412.93	411.93
413.12	442.36
413.31	379.17
413.50	397.89
413.69	437.68
413.88	411.93
414.07	444.70
414.26	437.68
414.45	386.19
414.64	477.47
414.83	425.98
415.02	402.57
415.22	383.85
415.41	367.46
415.60	437.68
415.79	395.55
415.98	318.31
416.17	395.55
416.36	360.44
416.55	379.17
416.74	393.21
416.93	409.59
417.12	428.32
417.31	395.55
417.50	395.55
417.69	379.17
417.88	423.64
418.07	421.30
418.26	386.19
418.45	390.87
418.64	362.78
418.83	447.04
419.02	437.68
419.21	351.08
419.39	362.78
419.58	393.21
419.77	330.02
419.96	458.74
420.15	367.46
420.34	397.89
420.53	421.30
420.72	383.85
420.91	447.04
421.10	479.81
421.29	435.34
421.48	376.83
421.67	444.70
421.86	440.02
422.05	449.38
422.24	381.51
422.43	409.59
422.61	414.27
422.80	393.21
422.99	409.59
423.18	418.96
423.37	400.23
423.56	339.38
423.75	470.45
423.94	358.10
424.13	341.72
424.32	423.64
424.50	416.62
424.69	411.93
424.88	397.89
425.07	355.76
425.26	447.04
425.45	379.17
425.64	386.19
425.83	348.74
426.01	505.56
426.20	444.70
426.39	367.46
426.58	437.68
426.77	451.72
426.96	454.06
427.15	416.62
427.33	430.66
427.52	388.53
427.71	367.46
427.90	428.32
428.09	353.42
428.28	358.10
428.46	428.32
428.65	423.64
428.84	440.02
429.03	451.72
429.22	372.15
429.40	388.53
429.59	423.64
429.78	442.36
429.97	423.64
430.16	447.04
430.34	411.93
430.53	381.51
430.72	400.23
430.91	428.32
431.10	454.06
431.28	418.96
431.47	397.89
431.66	428.32
431.85	430.66
432.03	386.19
432.22	430.66
432.41	468.11
432.60	388.53
432.79	365.12
432.97	386.19
433.16	428.32
433.35	379.17
433.54	386.19
433.72	440.02
433.91	390.87
434.10	418.96
434.28	365.12
434.47	418.96
434.66	423.64
434.85	428.32
435.03	503.22
435.22	421.30
435.41	379.17
435.59	351.08
435.78	374.49
435.97	369.80
436.16	433.00
436.34	376.83
436.53	421.30
436.72	477.47
436.90	407.25
437.09	334.70
437.28	444.70
437.46	404.91
437.65	447.04
437.84	449.38
438.02	472.79
438.21	437.68
438.40	416.62
438.58	372.15
438.77	440.02
438.96	418.96
439.14	400.23
439.33	400.23
439.52	475.13
439.70	372.15
439.89	416.62
440.08	390.87
440.26	416.62
440.45	458.74
440.63	404.91
440.82	440.02
441.01	465.77
441.19	449.38
441.38	369.80
441.57	425.98
441.75	430.66
441.94	416.62
442.12	388.53
442.31	383.85
442.50	435.34
442.68	386.19
442.87	404.91
443.05	367.46
443.24	440.02
443.43	430.66
443.61	428.32
443.80	440.02
443.98	411.93
444.17	341.72
444.35	402.57
444.54	304.27
444.73	444.70
444.91	411.93
445.10	383.85
445.28	367.46
445.47	362.78
445.65	376.83
445.84	449.38
446.02	414.27
446.21	423.64
446.39	390.87
446.58	414.27
446.77	390.87
446.95	393.21
447.14	425.98
447.32	430.66
447.51	423.64
447.69	437.68
447.88	458.74
448.06	393.21
448.25	428.32
448.43	337.04
448.62	407.25
448.80	418.96
448.99	407.25
449.17	402.57
449.36	379.17
449.54	393.21
449.73	367.46
449.91	418.96
450.10	381.51
450.28	454.06
450.46	463.43
450.65	433.00
450.83	407.25
451.02	372.15
451.20	390.87
451.39	358.10
451.57	428.32
451.76	421.30
451.94	475.13
452.13	423.64
452.31	430.66
452.49	437.68
452.68	400.23
452.86	395.55
453.05	433.00
453.23	437.68
453.42	353.42
453.60	435.34
453.78	428.32
453.97	397.89
454.15	430.66
454.34	447.04
454.52	442.36
454.70	442.36
454.89	381.51
455.07	411.93
455.26	442.36
455.44	470.45
455.62	416.62
455.81	418.96
455.99	395.55
456.17	472.79
456.36	456.40
456.54	374.49
456.73	397.89
456.91	418.96
457.09	435.34
457.28	468.11
457.46	379.17
457.64	491.51
457.83	447.04
458.01	447.04
458.19	423.64
458.38	449.38
458.56	430.66
458.74	393.21
458.93	400.23
459.11	437.68
459.29	437.68
459.48	428.32
459.66	454.06
459.84	414.27
460.03	561.73
460.21	475.13
460.39	334.70
460.57	442.36
460.76	442.36
460.94	421.30
461.12	543.00
461.31	500.87
461.49	409.59
461.67	379.17
461.85	369.80
462.04	421.30
462.22	828.55
462.40	414.27
462.59	472.79
462.77	414.27
462.95	346.40
463.13	454.06
463.32	458.74
463.50	351.08
463.68	416.62
463.86	379.17
464.05	358.10
464.23	449.38
464.41	425.98
464.59	369.80
464.78	376.83
464.96	418.96
465.14	404.91
465.32	428.32
465.50	360.44
465.69	397.89
465.87	390.87
466.05	407.25
466.23	416.62
466.41	341.72
466.60	376.83
466.78	421.30
466.96	418.96
467.14	386.19
467.32	402.57
467.51	402.57
467.69	397.89
467.87	463.43
468.05	407.25
468.23	414.27
468.41	463.43
468.60	423.64
468.78	468.11
468.96	451.72
469.14	416.62
469.32	358.10
469.50	470.45
469.69	442.36
469.87	479.81
470.05	433.00
470.23	407.25
470.41	454.06
470.59	425.98
470.77	404.91
470.95	407.25
471.14	421.30
471.32	425.98
471.50	393.21
471.68	369.80
471.86	383.85
472.04	409.59
472.22	353.42
472.40	379.17
472.58	418.96
472.77	402.57
472.95	437.68
473.13	451.72
473.31	461.09
473.49	400.23
473.67	442.36
473.85	418.96
474.03	440.02
474.21	489.17
474.39	423.64
474.57	519.60
474.75	353.42
474.93	397.89
475.12	367.46
475.30	411.93
475.48	421.30
475.66	421.30
475.84	437.68
476.02	512.58
476.20	449.38
476.38	482.15
476.56	395.55
476.74	402.57
476.92	475.13
477.10	416.62
477.28	404.91
477.46	440.02
477.64	447.04
477.82	447.04
478.00	423.64
478.18	372.15
478.36	468.11
478.54	458.74
478.72	374.49
478.90	381.51
479.08	393.21
479.26	332.36
479.44	440.02
479.62	390.87
479.80	334.70
479.98	395.55
480.16	381.51
480.34	468.11
480.52	297.25
480.70	341.72
480.88	390.87
481.06	353.42
481.24	388.53
481.41	437.68
481.59	374.49
481.77	411.93
481.95	400.23
482.13	383.85
482.31	390.87
482.49	334.70
482.67	418.96
482.85	465.77
483.03	440.02
483.21	402.57
483.39	409.59
483.57	421.30
483.74	433.00
483.92	388.53
484.10	374.49
484.28	416.62
484.46	451.72
484.64	386.19
484.82	437.68
485.00	397.89
485.18	421.30
485.35	362.78
485.53	428.32
485.71	425.98
485.89	428.32
486.07	423.64
486.25	414.27
486.43	411.93
486.61	442.36
486.78	388.53
486.96	409.59
487.14	409.59
487.32	414.27
487.50	390.87
487.68	388.53
487.85	416.62
488.03	400.23
488.21	484.49
488.39	383.85
488.57	360.44
488.75	402.57
488.92	425.98
489.10	374.49
489.28	423.64
489.46	376.83
489.64	402.57
489.81	376.83
489.99	442.36
490.17	433.00
490.35	437.68
490.53	397.89
490.70	414.27
490.88	414.27
491.06	383.85
491.24	435.34
491.41	374.49
491.59	463.43
491.77	463.43
491.95	327.68
492.13	435.34
492.30	362.78
492.48	428.32
492.66	325.33
492.84	379.17
493.01	449.38
493.19	440.02
493.37	470.45
493.54	381.51
493.72	423.64
493.90	386.19
494.08	404.91
494.25	461.09
494.43	346.40
494.61	421.30
494.79	414.27
494.96	416.62
495.14	397.89
495.32	418.96
495.49	470.45
495.67	409.59
495.85	390.87
496.02	390.87
496.20	442.36
496.38	477.47
496.55	383.85
496.73	397.89
496.91	402.57
497.09	393.21
497.26	407.25
497.44	416.62
497.62	498.53
497.79	400.23
497.97	437.68
498.14	463.43
498.32	498.53
498.50	421.30
498.67	372.15
498.85	418.96
499.03	475.13
499.20	458.74
499.38	346.40
499.56	449.38
499.73	423.64
499.91	430.66
500.08	430.66
500.26	372.15
500.44	348.74
500.61	421.30
500.79	447.04
500.97	330.02
501.14	416.62
501.32	386.19
501.49	524.28
501.67	372.15
501.84	411.93
502.02	411.93
502.20	428.32
502.37	395.55
502.55	400.23
502.72	353.42
502.90	465.77
503.07	381.51
503.25	449.38
503.43	374.49
503.60	444.70
503.78	423.64
503.95	423.64
504.13	344.06
504.30	407.25
504.48	402.57
504.65	358.10
504.83	365.12
505.01	376.83
505.18	395.55
505.36	430.66
505.53	416.62
505.71	332.36
505.88	437.68
506.06	360.44
506.23	409.59
506.41	486.83
506.58	414.27
506.76	397.89
506.93	498.53
507.11	416.62
507.28	390.87
507.46	465.77
507.63	437.68
507.81	388.53
507.98	395.55
508.16	458.74
508.33	454.06
508.50	409.59
508.68	484.49
508.85	400.23
509.03	435.34
509.20	493.85
509.38	433.00
509.55	423.64
509.73	472.79
509.90	456.40
510.08	416.62
510.25	407.25
510.42	409.59
510.60	376.83
510.77	390.87
510.95	421.30
511.12	400.23
511.30	404.91
511.47	444.70
511.64	437.68
511.82	397.89
511.99	330.02
512.17	444.70
512.34	423.64
512.51	425.98
512.69	397.89
512.86	414.27
513.04	444.70
513.21	383.85
513.38	386.19
513.56	372.15
513.73	428.32
513.90	407.25
514.08	404.91
514.25	486.83
514.43	416.62
514.60	388.53
514.77	428.32
514.95	414.27
515.12	433.00
515.29	447.04
515.47	395.55
515.64	395.55
515.81	416.62
515.99	423.64
516.16	468.11
516.33	402.57
516.51	425.98
516.68	444.70
516.85	418.96
517.03	388.53
517.20	461.09
517.37	456.40
517.54	456.40
517.72	451.72
517.89	379.17
518.06	437.68
518.24	383.85
518.41	465.77
518.58	465.77
518.75	461.09
518.93	463.43
519.10	486.83
519.27	437.68
519.45	468.11
519.62	463.43
519.79	514.92
519.96	362.78
520.14	421.30
520.31	416.62
520.48	449.38
520.65	470.45
520.83	421.30
521.00	407.25
521.17	416.62
521.34	376.83
521.52	430.66
521.69	418.96
521.86	435.34
522.03	479.81
522.20	437.68
522.38	425.98
522.55	451.72
522.72	348.74
522.89	491.51
523.07	482.15
523.24	390.87
523.41	407.25
523.58	344.06
523.75	395.55
523.92	418.96
524.10	442.36
524.27	440.02
524.44	376.83
524.61	454.06
524.78	463.43
524.96	477.47
525.13	461.09
525.30	468.11
525.47	458.74
525.64	386.19
525.81	365.12
525.98	433.00
526.16	451.72
526.33	379.17
526.50	421.30
526.67	411.93
526.84	430.66
527.01	489.17
527.18	437.68
527.36	449.38
527.53	379.17
527.70	451.72
527.87	430.66
528.04	498.53
528.21	418.96
528.38	458.74
528.55	461.09
528.72	444.70
528.89	444.70
529.07	482.15
529.24	430.66
529.41	327.68
529.58	435.34
529.75	381.51
529.92	472.79
530.09	360.44
530.26	388.53
530.43	402.57
530.60	362.78
530.77	414.27
530.94	383.85
531.11	430.66
531.28	444.70
531.46	348.74
531.63	411.93
531.80	465.77
531.97	447.04
532.14	430.66
532.31	428.32
532.48	409.59
532.65	379.17
532.82	444.70
532.99	395.55
533.16	421.30
533.33	376.83
533.50	376.83
533.67	421.30
533.84	390.87
534.01	433.00
534.18	416.62
534.35	400.23
534.52	435.34
534.69	367.46
534.86	437.68
535.03	397.89
535.20	353.42
535.37	449.38
535.54	458.74
535.71	433.00
535.88	496.19
536.05	468.11
536.22	489.17
536.38	440.02
536.55	440.02
536.72	428.32
536.89	388.53
537.06	395.55
537.23	383.85
537.40	383.85
537.57	461.09
537.74	479.81
537.91	397.89
538.08	390.87
538.25	379.17
538.42	425.98
538.59	472.79
538.75	409.59
538.92	379.17
539.09	451.72
539.26	390.87
539.43	404.91
539.60	468.11
539.77	428.32
539.94	416.62
540.11	433.00
540.28	489.17
540.44	416.62
540.61	372.15
540.78	449.38
540.95	402.57
541.12	449.38
541.29	435.34
541.46	395.55
541.62	435.34
541.79	402.57
541.96	404.91
542.13	465.77
542.30	313.63
542.47	477.47
542.63	442.36
542.80	486.83
542.97	486.83
543.14	374.49
543.31	414.27
543.48	358.10
543.64	418.96
543.81	386.19
543.98	388.53
544.15	437.68
544.32	404.91
544.48	411.93
544.65	470.45
544.82	369.80
544.99	381.51
545.16	463.43
545.32	414.27
545.49	449.38
545.66	369.80
545.83	346.40
546.00	437.68
546.16	411.93
546.33	383.85
546.50	369.80
546.67	433.00
546.83	395.55
547.00	430.66
547.17	479.81
547.34	440.02
547.50	402.57
547.67	425.98
547.84	376.83
548.00	454.06
548.17	458.74
548.34	402.57
548.51	449.38
548.67	411.93
548.84	402.57
549.01	376.83
549.18	472.79
549.34	381.51
549.51	390.87
549.68	458.74
549.84	409.59
550.01	369.80
550.18	500.87
550.34	456.40
550.51	433.00
550.68	477.47
550.84	365.12
551.01	374.49
551.18	442.36
551.34	395.55
551.51	379.17
551.68	447.04
551.84	425.98
552.01	442.36
552.18	409.59
552.34	407.25
552.51	348.74
552.68	418.96
552.84	402.57
553.01	435.34
553.18	444.70
553.34	433.00
553.51	428.32
553.67	458.74
553.84	404.91
554.01	369.80
554.17	388.53
554.34	383.85
554.51	409.59
554.67	486.83
554.84	456.40
555.00	470.45
555.17	379.17
555.33	444.70
555.50	402.57
555.67	360.44
555.83	411.93
556.00	383.85
556.16	587.47
556.33	433.00
556.50	440.02
556.66	409.59
556.83	367.46
556.99	365.12
557.16	423.64
557.32	346.40
557.49	351.08
557.65	418.96
557.82	423.64
557.98	381.51
558.15	442.36
558.32	400.23
558.48	454.06
558.65	407.25
558.81	409.59
558.98	428.32
559.14	479.81
559.31	386.19
559.47	390.87
559.64	447.04
559.80	454.06
559.97	442.36
560.13	428.32
560.30	407.25
560.46	447.04
560.63	402.57
560.79	437.68
560.96	400.23
561.12	351.08
561.29	428.32
561.45	442.36
561.61	402.57
561.78	430.66
561.94	475.13
562.11	418.96
562.27	449.38
562.44	416.62
562.60	393.21
562.77	444.70
562.93	531.30
563.10	418.96
563.26	393.21
563.42	425.98
563.59	461.09
563.75	430.66
563.92	449.38
564.08	440.02
564.24	521.94
564.41	503.22
564.57	423.64
564.74	411.93
564.90	428.32
565.07	472.79
565.23	418.96
565.39	423.64
565.56	411.93
565.72	374.49
565.88	395.55
566.05	404.91
566.21	451.72
566.38	458.74
566.54	397.89
566.70	374.49
566.87	458.74
567.03	407.25
567.19	379.17
567.36	451.72
567.52	362.78
567.68	386.19
567.85	458.74
568.01	341.72
568.17	444.70
568.34	414.27
568.50	395.55
568.66	447.04
568.83	435.34
568.99	423.64
569.15	411.93
569.32	440.02
569.48	374.49
569.64	437.68
569.81	449.38
569.97	402.57
570.13	428.32
570.30	402.57
570.46	393.21
570.62	409.59
570.78	484.49
570.95	334.70
571.11	451.72
571.27	334.70
571.43	440.02
571.60	416.62
571.76	421.30
571.92	362.78
572.09	493.85
572.25	404.91
572.41	463.43
572.57	423.64
572.74	379.17
572.90	411.93
573.06	470.45
573.22	465.77
573.38	500.87
573.55	442.36
573.71	414.27
573.87	423.64
574.03	388.53
574.20	355.76
574.36	372.15
574.52	386.19
574.68	397.89
574.84	468.11
575.01	388.53
575.17	425.98
575.33	463.43
575.49	507.90
575.65	470.45
575.82	437.68
575.98	458.74
576.14	475.13
576.30	383.85
576.46	437.68
576.62	421.30
576.79	386.19
576.95	444.70
577.11	379.17
577.27	449.38
577.43	339.38
577.59	397.89
577.75	489.17
577.92	402.57
578.08	425.98
578.24	449.38
578.40	493.85
578.56	435.34
578.72	461.09
578.88	374.49
579.04	367.46
579.21	402.57
579.37	416.62
579.53	437.68
579.69	493.85
579.85	496.19
580.01	362.78
580.17	489.17
580.33	447.04
580.49	411.93
580.65	393.21
580.82	421.30
580.98	362.78
581.14	353.42
581.30	416.62
581.46	346.40
581.62	393.21
581.78	409.59
581.94	402.57
582.10	369.80
582.26	404.91
582.42	437.68
582.58	414.27
582.74	433.00
582.90	390.87
583.06	400.23
583.22	386.19
583.38	416.62
583.54	416.62
583.70	433.00
583.86	442.36
584.02	425.98
584.18	379.17
584.34	383.85
584.50	472.79
584.66	383.85
584.82	397.89
584.98	423.64
585.14	418.96
585.30	440.02
585.46	411.93
585.62	397.89
585.78	423.64
585.94	456.40
586.10	433.00
586.26	440.02
586.42	531.30
586.58	470.45
586.74	353.42
586.90	451.72
587.06	421.30
587.22	416.62
587.38	458.74
587.54	341.72
587.70	379.17
587.86	442.36
588.02	355.76
588.18	437.68
588.34	486.83
588.49	421.30
588.65	428.32
588.81	395.55
588.97	440.02
589.13	454.06
589.29	418.96
589.45	451.72
589.61	477.47
589.77	486.83
589.93	383.85
590.08	360.44
590.24	355.76
590.40	433.00
590.56	407.25
590.72	404.91
590.88	465.77
591.04	421.30
591.20	358.10
591.35	433.00
591.51	435.34
591.67	330.02
591.83	414.27
591.99	423.64
592.15	395.55
592.31	388.53
592.46	423.64
592.62	409.59
592.78	395.55
592.94	442.36
593.10	418.96
593.26	430.66
593.41	397.89
593.57	451.72
593.73	442.36
593.89	440.02
594.05	416.62
594.20	400.23
594.36	433.00
594.52	428.32
594.68	407.25
594.84	409.59
594.99	461.09
595.15	360.44
595.31	414.27
595.47	479.81
595.62	374.49
595.78	388.53
595.94	418.96
596.10	386.19
596.25	390.87
596.41	397.89
596.57	355.76
596.73	421.30
596.88	402.57
597.04	414.27
597.20	458.74
597.36	449.38
597.51	498.53
597.67	407.25
597.83	479.81
597.99	421.30
598.14	468.11
598.30	411.93
598.46	428.32
598.61	442.36
598.77	416.62
598.93	463.43
599.09	400.23
599.24	390.87
599.40	435.34
599.56	388.53
599.71	418.96
599.87	386.19
600.03	447.04
600.18	442.36
600.34	456.40
600.50	332.36
600.65	418.96
600.81	397.89
600.97	430.66
601.12	430.66
601.28	442.36
601.44	409.59
601.59	374.49
601.75	416.62
601.91	353.42
602.06	428.32
602.22	475.13
602.37	421.30
602.53	440.02
602.69	454.06
602.84	451.72
603.00	416.62
603.16	435.34
603.31	414.27
603.47	428.32
603.62	465.77
603.78	425.98
603.94	421.30
604.09	449.38
604.25	470.45
604.40	416.62
604.56	435.34
604.71	395.55
604.87	411.93
605.03	407.25
605.18	470.45
605.34	425.98
605.49	454.06
605.65	383.85
605.80	400.23
605.96	425.98
606.12	437.68
606.27	456.40
606.43	477.47
606.58	458.74
606.74	407.25
606.89	463.43
607.05	519.60
607.20	365.12
607.36	409.59
607.51	379.17
607.67	400.23
607.82	395.55
607.98	463.43
608.13	390.87
608.29	428.32
608.44	390.87
608.60	372.15
608.75	447.04
608.91	421.30
609.06	388.53
609.22	458.74
609.37	337.04
609.53	376.83
609.68	416.62
609.84	367.46
609.99	360.44
610.15	423.64
