SpectraSuite Data File
++++++++++++++++++++++++++++++++++++
Date: Fri Oct 25 12:11:12 EDT 2013
User: price-jones
Dark Spectrum Present: No
Reference Spectrum Present: No
Number of Sampled Component Spectra: 1
Spectrometers: USB2+H05261
Integration Time (usec): 100000 (USB2+H05261)
Spectra Averaged: 1 (USB2+H05261)
Boxcar Smoothing: 0 (USB2+H05261)
Correct for Electrical Dark: No (USB2+H05261)
Strobe/Lamp Enabled: No (USB2+H05261)
Correct for Detector Non-linearity: No (USB2+H05261)
Correct for Stray Light: No (USB2+H05261)
Number of Pixels in Processed Spectrum: 2048
>>>>>Begin Processed Spectral Data<<<<<
365.73	344.06
365.92	344.06
366.12	344.06
366.32	290.23
366.52	227.03
366.72	306.61
366.91	294.91
367.11	269.16
367.31	259.80
367.51	250.44
367.70	222.35
367.90	238.73
368.10	198.95
368.30	257.46
368.49	311.29
368.69	252.78
368.89	278.52
369.09	215.33
369.28	163.84
369.48	241.08
369.68	278.52
369.87	208.31
370.07	278.52
370.27	407.25
370.47	325.33
370.66	332.36
370.86	301.93
371.06	339.38
371.25	430.66
371.45	304.27
371.65	376.83
371.84	402.57
372.04	372.15
372.24	344.06
372.44	376.83
372.63	454.06
372.83	407.25
373.03	409.59
373.22	376.83
373.42	402.57
373.62	351.08
373.81	407.25
374.01	400.23
374.21	407.25
374.40	411.93
374.60	475.13
374.79	407.25
374.99	423.64
375.19	390.87
375.38	470.45
375.58	425.98
375.78	435.34
375.97	414.27
376.17	444.70
376.37	437.68
376.56	372.15
376.76	390.87
376.95	393.21
377.15	369.80
377.35	430.66
377.54	355.76
377.74	421.30
377.93	353.42
378.13	411.93
378.33	444.70
378.52	388.53
378.72	428.32
378.91	458.74
379.11	435.34
379.31	409.59
379.50	348.74
379.70	393.21
379.89	507.90
380.09	397.89
380.28	353.42
380.48	386.19
380.68	465.77
380.87	383.85
381.07	390.87
381.26	416.62
381.46	407.25
381.65	423.64
381.85	437.68
382.04	421.30
382.24	407.25
382.43	346.40
382.63	360.44
382.83	393.21
383.02	395.55
383.22	416.62
383.41	358.10
383.61	421.30
383.80	477.47
384.00	395.55
384.19	430.66
384.39	458.74
384.58	388.53
384.78	376.83
384.97	479.81
385.17	367.46
385.36	400.23
385.56	418.96
385.75	372.15
385.95	425.98
386.14	486.83
386.34	458.74
386.53	433.00
386.72	407.25
386.92	400.23
387.11	451.72
387.31	362.78
387.50	388.53
387.70	395.55
387.89	425.98
388.09	423.64
388.28	386.19
388.48	402.57
388.67	477.47
388.86	344.06
389.06	472.79
389.25	386.19
389.45	393.21
389.64	440.02
389.84	414.27
390.03	449.38
390.22	367.46
390.42	468.11
390.61	411.93
390.81	351.08
391.00	435.34
391.19	465.77
391.39	421.30
391.58	411.93
391.78	440.02
391.97	425.98
392.16	451.72
392.36	468.11
392.55	461.09
392.75	423.64
392.94	397.89
393.13	425.98
393.33	423.64
393.52	425.98
393.71	421.30
393.91	416.62
394.10	402.57
394.29	365.12
394.49	409.59
394.68	421.30
394.88	449.38
395.07	440.02
395.26	395.55
395.46	337.04
395.65	428.32
395.84	456.40
396.04	484.49
396.23	461.09
396.42	425.98
396.62	409.59
396.81	407.25
397.00	355.76
397.19	442.36
397.39	411.93
397.58	430.66
397.77	421.30
397.97	395.55
398.16	414.27
398.35	395.55
398.55	402.57
398.74	404.91
398.93	404.91
399.12	444.70
399.32	425.98
399.51	425.98
399.70	435.34
399.90	369.80
400.09	423.64
400.28	390.87
400.47	341.72
400.67	411.93
400.86	355.76
401.05	435.34
401.24	372.15
401.44	461.09
401.63	404.91
401.82	372.15
402.01	339.38
402.21	409.59
402.40	388.53
402.59	451.72
402.78	421.30
402.97	390.87
403.17	430.66
403.36	425.98
403.55	397.89
403.74	461.09
403.93	402.57
404.13	397.89
404.32	447.04
404.51	461.09
404.70	348.74
404.89	388.53
405.09	461.09
405.28	435.34
405.47	425.98
405.66	388.53
405.85	414.27
406.05	407.25
406.24	367.46
406.43	430.66
406.62	386.19
406.81	341.72
407.00	428.32
407.20	463.43
407.39	475.13
407.58	358.10
407.77	379.17
407.96	430.66
408.15	496.19
408.34	353.42
408.54	418.96
408.73	463.43
408.92	470.45
409.11	435.34
409.30	440.02
409.49	362.78
409.68	404.91
409.87	388.53
410.07	418.96
410.26	421.30
410.45	437.68
410.64	411.93
410.83	397.89
411.02	402.57
411.21	461.09
411.40	372.15
411.59	374.49
411.78	430.66
411.98	383.85
412.17	411.93
412.36	374.49
412.55	386.19
412.74	341.72
412.93	388.53
413.12	407.25
413.31	421.30
413.50	463.43
413.69	421.30
413.88	416.62
414.07	442.36
414.26	458.74
414.45	421.30
414.64	409.59
414.83	442.36
415.02	390.87
415.22	423.64
415.41	416.62
415.60	397.89
415.79	383.85
415.98	404.91
416.17	327.68
416.36	376.83
416.55	374.49
416.74	362.78
416.93	442.36
417.12	411.93
417.31	400.23
417.50	447.04
417.69	416.62
417.88	435.34
418.07	489.17
418.26	433.00
418.45	425.98
418.64	411.93
418.83	423.64
419.02	411.93
419.21	358.10
419.39	449.38
419.58	404.91
419.77	400.23
419.96	313.63
420.15	475.13
420.34	430.66
420.53	386.19
420.72	463.43
420.91	440.02
421.10	393.21
421.29	411.93
421.48	440.02
421.67	472.79
421.86	430.66
422.05	395.55
422.24	400.23
422.43	407.25
422.61	442.36
422.80	365.12
422.99	365.12
423.18	402.57
423.37	425.98
423.56	358.10
423.75	365.12
423.94	358.10
424.13	395.55
424.32	461.09
424.50	484.49
424.69	348.74
424.88	376.83
425.07	365.12
425.26	416.62
425.45	395.55
425.64	374.49
425.83	458.74
426.01	425.98
426.20	449.38
426.39	390.87
426.58	425.98
426.77	393.21
426.96	402.57
427.15	421.30
427.33	402.57
427.52	390.87
427.71	348.74
427.90	433.00
428.09	447.04
428.28	325.33
428.46	404.91
428.65	461.09
428.84	322.99
429.03	482.15
429.22	425.98
429.40	421.30
429.59	404.91
429.78	442.36
429.97	390.87
430.16	437.68
430.34	472.79
430.53	376.83
430.72	351.08
430.91	470.45
431.10	360.44
431.28	393.21
431.47	416.62
431.66	386.19
431.85	379.17
432.03	374.49
432.22	386.19
432.41	348.74
432.60	407.25
432.79	402.57
432.97	330.02
433.16	404.91
433.35	372.15
433.54	393.21
433.72	411.93
433.91	447.04
434.10	444.70
434.28	442.36
434.47	421.30
434.66	423.64
434.85	400.23
435.03	390.87
435.22	465.77
435.41	451.72
435.59	411.93
435.78	381.51
435.97	397.89
436.16	435.34
436.34	404.91
436.53	390.87
436.72	425.98
436.90	362.78
437.09	421.30
437.28	454.06
437.46	449.38
437.65	404.91
437.84	400.23
438.02	435.34
438.21	430.66
438.40	409.59
438.58	430.66
438.77	418.96
438.96	395.55
439.14	372.15
439.33	421.30
439.52	435.34
439.70	381.51
439.89	402.57
440.08	430.66
440.26	418.96
440.45	433.00
440.63	381.51
440.82	411.93
441.01	374.49
441.19	435.34
441.38	416.62
441.57	418.96
441.75	496.19
441.94	447.04
442.12	409.59
442.31	414.27
442.50	353.42
442.68	472.79
442.87	386.19
443.05	411.93
443.24	442.36
443.43	383.85
443.61	411.93
443.80	463.43
443.98	383.85
444.17	332.36
444.35	435.34
444.54	308.95
444.73	430.66
444.91	369.80
445.10	411.93
445.28	341.72
445.47	430.66
445.65	388.53
445.84	421.30
446.02	423.64
446.21	388.53
446.39	388.53
446.58	416.62
446.77	397.89
446.95	449.38
447.14	425.98
447.32	440.02
447.51	400.23
447.69	411.93
447.88	423.64
448.06	409.59
448.25	491.51
448.43	486.83
448.62	395.55
448.80	390.87
448.99	383.85
449.17	346.40
449.36	381.51
449.54	440.02
449.73	379.17
449.91	372.15
450.10	381.51
450.28	393.21
450.46	327.68
450.65	374.49
450.83	425.98
451.02	449.38
451.20	435.34
451.39	414.27
451.57	421.30
451.76	369.80
451.94	418.96
452.13	418.96
452.31	407.25
452.49	409.59
452.68	397.89
452.86	374.49
453.05	458.74
453.23	372.15
453.42	388.53
453.60	430.66
453.78	449.38
453.97	393.21
454.15	376.83
454.34	430.66
454.52	449.38
454.70	437.68
454.89	416.62
455.07	451.72
455.26	458.74
455.44	381.51
455.62	472.79
455.81	430.66
455.99	435.34
456.17	404.91
456.36	393.21
456.54	423.64
456.73	374.49
456.91	390.87
457.09	430.66
457.28	421.30
457.46	451.72
457.64	414.27
457.83	435.34
458.01	421.30
458.19	458.74
458.38	390.87
458.56	395.55
458.74	386.19
458.93	435.34
459.11	425.98
459.29	388.53
459.48	437.68
459.66	465.77
459.84	374.49
460.03	472.79
460.21	456.40
460.39	411.93
460.57	339.38
460.76	475.13
460.94	339.38
461.12	449.38
461.31	320.65
461.49	411.93
461.67	407.25
461.85	416.62
462.04	477.47
462.22	828.55
462.40	440.02
462.59	430.66
462.77	379.17
462.95	486.83
463.13	484.49
463.32	435.34
463.50	355.76
463.68	440.02
463.86	435.34
464.05	367.46
464.23	409.59
464.41	372.15
464.59	390.87
464.78	411.93
464.96	440.02
465.14	425.98
465.32	402.57
465.50	374.49
465.69	390.87
465.87	388.53
466.05	418.96
466.23	386.19
466.41	362.78
466.60	386.19
466.78	353.42
466.96	365.12
467.14	360.44
467.32	454.06
467.51	435.34
467.69	433.00
467.87	510.24
468.05	482.15
468.23	451.72
468.41	449.38
468.60	435.34
468.78	423.64
468.96	465.77
469.14	381.51
469.32	456.40
469.50	355.76
469.69	463.43
469.87	477.47
470.05	430.66
470.23	449.38
470.41	407.25
470.59	407.25
470.77	423.64
470.95	376.83
471.14	433.00
471.32	423.64
471.50	386.19
471.68	444.70
471.86	381.51
472.04	390.87
472.22	461.09
472.40	456.40
472.58	484.49
472.77	393.21
472.95	428.32
473.13	442.36
473.31	430.66
473.49	381.51
473.67	418.96
473.85	374.49
474.03	409.59
474.21	465.77
474.39	435.34
474.57	463.43
474.75	397.89
474.93	442.36
475.12	383.85
475.30	416.62
475.48	395.55
475.66	449.38
475.84	369.80
476.02	379.17
476.20	411.93
476.38	374.49
476.56	510.24
476.74	395.55
476.92	423.64
477.10	390.87
477.28	386.19
477.46	386.19
477.64	428.32
477.82	435.34
478.00	365.12
478.18	447.04
478.36	437.68
478.54	393.21
478.72	362.78
478.90	341.72
479.08	374.49
479.26	454.06
479.44	451.72
479.62	362.78
479.80	353.42
479.98	428.32
480.16	425.98
480.34	465.77
480.52	442.36
480.70	463.43
480.88	386.19
481.06	463.43
481.24	374.49
481.41	376.83
481.59	484.49
481.77	395.55
481.95	456.40
482.13	390.87
482.31	418.96
482.49	418.96
482.67	416.62
482.85	390.87
483.03	390.87
483.21	435.34
483.39	334.70
483.57	421.30
483.74	414.27
483.92	433.00
484.10	383.85
484.28	330.02
484.46	418.96
484.64	409.59
484.82	407.25
485.00	369.80
485.18	454.06
485.35	449.38
485.53	339.38
485.71	409.59
485.89	376.83
486.07	418.96
486.25	442.36
486.43	433.00
486.61	390.87
486.78	454.06
486.96	458.74
487.14	376.83
487.32	472.79
487.50	383.85
487.68	362.78
487.85	379.17
488.03	372.15
488.21	395.55
488.39	393.21
488.57	404.91
488.75	393.21
488.92	491.51
489.10	456.40
489.28	383.85
489.46	423.64
489.64	407.25
489.81	449.38
489.99	390.87
490.17	433.00
490.35	484.49
490.53	423.64
490.70	428.32
490.88	440.02
491.06	358.10
491.24	449.38
491.41	433.00
491.59	388.53
491.77	367.46
491.95	360.44
492.13	381.51
492.30	374.49
492.48	393.21
492.66	386.19
492.84	423.64
493.01	416.62
493.19	442.36
493.37	475.13
493.54	433.00
493.72	454.06
493.90	505.56
494.08	465.77
494.25	482.15
494.43	433.00
494.61	411.93
494.79	425.98
494.96	376.83
495.14	423.64
495.32	386.19
495.49	404.91
495.67	491.51
495.85	430.66
496.02	433.00
496.20	421.30
496.38	416.62
496.55	379.17
496.73	433.00
496.91	374.49
497.09	425.98
497.26	437.68
497.44	447.04
497.62	348.74
497.79	449.38
497.97	428.32
498.14	442.36
498.32	423.64
498.50	393.21
498.67	449.38
498.85	451.72
499.03	409.59
499.20	468.11
499.38	454.06
499.56	383.85
499.73	458.74
499.91	367.46
500.08	404.91
500.26	369.80
500.44	374.49
500.61	388.53
500.79	362.78
500.97	339.38
501.14	308.95
501.32	484.49
501.49	444.70
501.67	409.59
501.84	468.11
502.02	374.49
502.20	482.15
502.37	407.25
502.55	344.06
502.72	386.19
502.90	496.19
503.07	404.91
503.25	397.89
503.43	407.25
503.60	411.93
503.78	428.32
503.95	461.09
504.13	372.15
504.30	489.17
504.48	465.77
504.65	440.02
504.83	386.19
505.01	442.36
505.18	397.89
505.36	505.56
505.53	461.09
505.71	411.93
505.88	395.55
506.06	400.23
506.23	470.45
506.41	383.85
506.58	430.66
506.76	433.00
506.93	425.98
507.11	442.36
507.28	365.12
507.46	421.30
507.63	379.17
507.81	440.02
507.98	386.19
508.16	285.55
508.33	367.46
508.50	383.85
508.68	414.27
508.85	425.98
509.03	444.70
509.20	386.19
509.38	447.04
509.55	482.15
509.73	468.11
509.90	386.19
510.08	444.70
510.25	456.40
510.42	425.98
510.60	507.90
510.77	374.49
510.95	442.36
511.12	440.02
511.30	437.68
511.47	409.59
511.64	414.27
511.82	339.38
511.99	404.91
512.17	395.55
512.34	383.85
512.51	428.32
512.69	458.74
512.86	435.34
513.04	451.72
513.21	418.96
513.38	430.66
513.56	472.79
513.73	409.59
513.90	461.09
514.08	381.51
514.25	362.78
514.43	393.21
514.60	440.02
514.77	465.77
514.95	430.66
515.12	390.87
515.29	395.55
515.47	418.96
515.64	444.70
515.81	468.11
515.99	496.19
516.16	395.55
516.33	454.06
516.51	386.19
516.68	386.19
516.85	320.65
517.03	423.64
517.20	409.59
517.37	433.00
517.54	442.36
517.72	444.70
517.89	416.62
518.06	346.40
518.24	397.89
518.41	465.77
518.58	444.70
518.75	440.02
518.93	395.55
519.10	393.21
519.27	407.25
519.45	379.17
519.62	390.87
519.79	393.21
519.96	386.19
520.14	454.06
520.31	416.62
520.48	425.98
520.65	416.62
520.83	437.68
521.00	482.15
521.17	379.17
521.34	402.57
521.52	414.27
521.69	461.09
521.86	322.99
522.03	411.93
522.20	414.27
522.38	386.19
522.55	409.59
522.72	383.85
522.89	440.02
523.07	500.87
523.24	411.93
523.41	390.87
523.58	386.19
523.75	461.09
523.92	411.93
524.10	442.36
524.27	425.98
524.44	414.27
524.61	458.74
524.78	411.93
524.96	407.25
525.13	395.55
525.30	416.62
525.47	393.21
525.64	456.40
525.81	393.21
525.98	428.32
526.16	388.53
526.33	411.93
526.50	393.21
526.67	414.27
526.84	360.44
527.01	440.02
527.18	435.34
527.36	397.89
527.53	402.57
527.70	402.57
527.87	475.13
528.04	477.47
528.21	482.15
528.38	369.80
528.55	447.04
528.72	433.00
528.89	444.70
529.07	388.53
529.24	362.78
529.41	437.68
529.58	433.00
529.75	510.24
529.92	418.96
530.09	404.91
530.26	360.44
530.43	360.44
530.60	456.40
530.77	386.19
530.94	486.83
531.11	383.85
531.28	442.36
531.46	390.87
531.63	395.55
531.80	395.55
531.97	421.30
532.14	430.66
532.31	407.25
532.48	423.64
532.65	440.02
532.82	358.10
532.99	416.62
533.16	496.19
533.33	449.38
533.50	414.27
533.67	435.34
533.84	472.79
534.01	402.57
534.18	346.40
534.35	388.53
534.52	430.66
534.69	358.10
534.86	402.57
535.03	430.66
535.20	414.27
535.37	416.62
535.54	409.59
535.71	369.80
535.88	458.74
536.05	451.72
536.22	437.68
536.38	428.32
536.55	458.74
536.72	465.77
536.89	416.62
537.06	423.64
537.23	409.59
537.40	404.91
537.57	425.98
537.74	458.74
537.91	423.64
538.08	374.49
538.25	428.32
538.42	404.91
538.59	374.49
538.75	414.27
538.92	358.10
539.09	449.38
539.26	411.93
539.43	470.45
539.60	428.32
539.77	538.32
539.94	435.34
540.11	435.34
540.28	465.77
540.44	463.43
540.61	346.40
540.78	369.80
540.95	454.06
541.12	496.19
541.29	376.83
541.46	493.85
541.62	458.74
541.79	433.00
541.96	395.55
542.13	444.70
542.30	362.78
542.47	416.62
542.63	475.13
542.80	433.00
542.97	475.13
543.14	435.34
543.31	470.45
543.48	425.98
543.64	397.89
543.81	386.19
543.98	407.25
544.15	395.55
544.32	461.09
544.48	465.77
544.65	416.62
544.82	425.98
544.99	360.44
545.16	425.98
545.32	425.98
545.49	435.34
545.66	500.87
545.83	418.96
546.00	376.83
546.16	379.17
546.33	433.00
546.50	425.98
546.67	437.68
546.83	465.77
547.00	402.57
547.17	416.62
547.34	395.55
547.50	400.23
547.67	353.42
547.84	449.38
548.00	395.55
548.17	433.00
548.34	440.02
548.51	395.55
548.67	411.93
548.84	442.36
549.01	447.04
549.18	407.25
549.34	372.15
549.51	430.66
549.68	505.56
549.84	461.09
550.01	409.59
550.18	465.77
550.34	484.49
550.51	374.49
550.68	493.85
550.84	348.74
551.01	386.19
551.18	416.62
551.34	418.96
551.51	390.87
551.68	418.96
551.84	435.34
552.01	367.46
552.18	397.89
552.34	425.98
552.51	393.21
552.68	444.70
552.84	400.23
553.01	458.74
553.18	397.89
553.34	360.44
553.51	433.00
553.67	447.04
553.84	531.30
554.01	407.25
554.17	484.49
554.34	367.46
554.51	404.91
554.67	472.79
554.84	430.66
555.00	444.70
555.17	404.91
555.33	418.96
555.50	491.51
555.67	395.55
555.83	395.55
556.00	477.47
556.16	524.28
556.33	421.30
556.50	461.09
556.66	489.17
556.83	414.27
556.99	397.89
557.16	409.59
557.32	416.62
557.49	435.34
557.65	400.23
557.82	369.80
557.98	444.70
558.15	393.21
558.32	348.74
558.48	479.81
558.65	395.55
558.81	428.32
558.98	407.25
559.14	381.51
559.31	423.64
559.47	444.70
559.64	407.25
559.80	472.79
559.97	400.23
560.13	402.57
560.30	390.87
560.46	388.53
560.63	447.04
560.79	393.21
560.96	390.87
561.12	404.91
561.29	407.25
561.45	421.30
561.61	416.62
561.78	493.85
561.94	374.49
562.11	388.53
562.27	461.09
562.44	381.51
562.60	433.00
562.77	456.40
562.93	514.92
563.10	402.57
563.26	362.78
563.42	442.36
563.59	395.55
563.75	376.83
563.92	390.87
564.08	444.70
564.24	451.72
564.41	383.85
564.57	397.89
564.74	360.44
564.90	447.04
565.07	514.92
565.23	367.46
565.39	430.66
565.56	411.93
565.72	435.34
565.88	393.21
566.05	421.30
566.21	369.80
566.38	395.55
566.54	369.80
566.70	418.96
566.87	379.17
567.03	383.85
567.19	425.98
567.36	353.42
567.52	411.93
567.68	374.49
567.85	372.15
568.01	325.33
568.17	374.49
568.34	449.38
568.50	475.13
568.66	365.12
568.83	442.36
568.99	390.87
569.15	444.70
569.32	442.36
569.48	386.19
569.64	465.77
569.81	362.78
569.97	454.06
570.13	442.36
570.30	351.08
570.46	395.55
570.62	388.53
570.78	400.23
570.95	416.62
571.11	360.44
571.27	500.87
571.43	397.89
571.60	482.15
571.76	404.91
571.92	374.49
572.09	416.62
572.25	418.96
572.41	463.43
572.57	360.44
572.74	489.17
572.90	437.68
573.06	447.04
573.22	470.45
573.38	409.59
573.55	428.32
573.71	393.21
573.87	421.30
574.03	395.55
574.20	379.17
574.36	458.74
574.52	407.25
574.68	425.98
574.84	402.57
575.01	418.96
575.17	435.34
575.33	411.93
575.49	440.02
575.65	465.77
575.82	461.09
575.98	435.34
576.14	503.22
576.30	430.66
576.46	400.23
576.62	400.23
576.79	437.68
576.95	414.27
577.11	383.85
577.27	409.59
577.43	442.36
577.59	454.06
577.75	393.21
577.92	390.87
578.08	458.74
578.24	273.84
578.40	475.13
578.56	472.79
578.72	489.17
578.88	456.40
579.04	369.80
579.21	393.21
579.37	491.51
579.53	479.81
579.69	437.68
579.85	367.46
580.01	423.64
580.17	456.40
580.33	355.76
580.49	386.19
580.65	454.06
580.82	414.27
580.98	468.11
581.14	407.25
581.30	421.30
581.46	409.59
581.62	425.98
581.78	348.74
581.94	416.62
582.10	393.21
582.26	482.15
582.42	367.46
582.58	440.02
582.74	395.55
582.90	444.70
583.06	433.00
583.22	437.68
583.38	428.32
583.54	442.36
583.70	482.15
583.86	451.72
584.02	428.32
584.18	479.81
584.34	416.62
584.50	465.77
584.66	404.91
584.82	304.27
584.98	425.98
585.14	404.91
585.30	440.02
585.46	379.17
585.62	409.59
585.78	409.59
585.94	428.32
586.10	369.80
586.26	390.87
586.42	449.38
586.58	442.36
586.74	463.43
586.90	465.77
587.06	416.62
587.22	360.44
587.38	369.80
587.54	411.93
587.70	423.64
587.86	425.98
588.02	414.27
588.18	421.30
588.34	428.32
588.49	475.13
588.65	386.19
588.81	470.45
588.97	440.02
589.13	344.06
589.29	395.55
589.45	463.43
589.61	397.89
589.77	414.27
589.93	421.30
590.08	409.59
590.24	416.62
590.40	376.83
590.56	456.40
590.72	330.02
590.88	411.93
591.04	402.57
591.20	376.83
591.35	454.06
591.51	461.09
591.67	472.79
591.83	472.79
591.99	402.57
592.15	418.96
592.31	442.36
592.46	362.78
592.62	402.57
592.78	369.80
592.94	425.98
593.10	369.80
593.26	433.00
593.41	461.09
593.57	465.77
593.73	442.36
593.89	468.11
594.05	402.57
594.20	475.13
594.36	397.89
594.52	376.83
594.68	372.15
594.84	442.36
594.99	491.51
595.15	344.06
595.31	491.51
595.47	454.06
595.62	395.55
595.78	393.21
595.94	407.25
596.10	430.66
596.25	411.93
596.41	411.93
596.57	360.44
596.73	397.89
596.88	454.06
597.04	411.93
597.20	503.22
597.36	447.04
597.51	388.53
597.67	414.27
597.83	367.46
597.99	414.27
598.14	430.66
598.30	468.11
598.46	418.96
598.61	404.91
598.77	468.11
598.93	407.25
599.09	416.62
599.24	433.00
599.40	550.03
599.56	428.32
599.71	421.30
599.87	404.91
600.03	355.76
600.18	402.57
600.34	447.04
600.50	395.55
600.65	423.64
600.81	472.79
600.97	411.93
601.12	479.81
601.28	428.32
601.44	374.49
601.59	449.38
601.75	435.34
601.91	400.23
602.06	437.68
602.22	500.87
602.37	475.13
602.53	437.68
602.69	440.02
602.84	421.30
603.00	409.59
603.16	512.58
603.31	428.32
603.47	430.66
603.62	395.55
603.78	383.85
603.94	442.36
604.09	393.21
604.25	468.11
604.40	421.30
604.56	433.00
604.71	442.36
604.87	433.00
605.03	442.36
605.18	440.02
605.34	418.96
605.49	482.15
605.65	400.23
605.80	416.62
605.96	447.04
606.12	442.36
606.27	341.72
606.43	430.66
606.58	477.47
606.74	383.85
606.89	461.09
607.05	407.25
607.20	444.70
607.36	430.66
607.51	388.53
607.67	374.49
607.82	423.64
607.98	430.66
608.13	404.91
608.29	344.06
608.44	402.57
608.60	358.10
608.75	463.43
608.91	475.13
609.06	475.13
609.22	461.09
609.37	411.93
609.53	376.83
609.68	433.00
609.84	418.96
609.99	475.13
610.15	367.46
