SpectraSuite Data File
++++++++++++++++++++++++++++++++++++
Date: Fri Oct 25 12:11:45 EDT 2013
User: price-jones
Dark Spectrum Present: No
Reference Spectrum Present: No
Number of Sampled Component Spectra: 1
Spectrometers: USB2+H05261
Integration Time (usec): 100000 (USB2+H05261)
Spectra Averaged: 1 (USB2+H05261)
Boxcar Smoothing: 0 (USB2+H05261)
Correct for Electrical Dark: No (USB2+H05261)
Strobe/Lamp Enabled: No (USB2+H05261)
Correct for Detector Non-linearity: No (USB2+H05261)
Correct for Stray Light: No (USB2+H05261)
Number of Pixels in Processed Spectrum: 2048
>>>>>Begin Processed Spectral Data<<<<<
365.73	283.20
365.92	283.20
366.12	283.20
366.32	229.37
366.52	255.12
366.72	276.18
366.91	269.16
367.11	205.97
367.31	210.65
367.51	184.90
367.70	180.22
367.90	297.25
368.10	220.01
368.30	227.03
368.49	163.84
368.69	257.46
368.89	273.84
369.09	238.73
369.28	285.55
369.48	290.23
369.68	325.33
369.87	372.15
370.07	280.86
370.27	379.17
370.47	318.31
370.66	313.63
370.86	318.31
371.06	388.53
371.25	367.46
371.45	341.72
371.65	383.85
371.84	372.15
372.04	388.53
372.24	367.46
372.44	409.59
372.63	447.04
372.83	393.21
373.03	425.98
373.22	360.44
373.42	411.93
373.62	430.66
373.81	407.25
374.01	425.98
374.21	388.53
374.40	442.36
374.60	430.66
374.79	411.93
374.99	489.17
375.19	395.55
375.38	486.83
375.58	440.02
375.78	449.38
375.97	393.21
376.17	425.98
376.37	407.25
376.56	451.72
376.76	414.27
376.95	400.23
377.15	470.45
377.35	421.30
377.54	402.57
377.74	381.51
377.93	386.19
378.13	437.68
378.33	425.98
378.52	383.85
378.72	442.36
378.91	454.06
379.11	451.72
379.31	416.62
379.50	444.70
379.70	463.43
379.89	416.62
380.09	428.32
380.28	339.38
380.48	407.25
380.68	421.30
380.87	404.91
381.07	423.64
381.26	447.04
381.46	383.85
381.65	334.70
381.85	402.57
382.04	428.32
382.24	475.13
382.43	421.30
382.63	411.93
382.83	465.77
383.02	489.17
383.22	428.32
383.41	411.93
383.61	395.55
383.80	503.22
384.00	414.27
384.19	383.85
384.39	425.98
384.58	360.44
384.78	437.68
384.97	444.70
385.17	442.36
385.36	379.17
385.56	395.55
385.75	458.74
385.95	416.62
386.14	447.04
386.34	365.12
386.53	402.57
386.72	409.59
386.92	383.85
387.11	397.89
387.31	346.40
387.50	388.53
387.70	353.42
387.89	430.66
388.09	428.32
388.28	367.46
388.48	423.64
388.67	421.30
388.86	301.93
389.06	376.83
389.25	451.72
389.45	367.46
389.64	411.93
389.84	411.93
390.03	421.30
390.22	463.43
390.42	430.66
390.61	388.53
390.81	437.68
391.00	397.89
391.19	332.36
391.39	416.62
391.58	388.53
391.78	411.93
391.97	463.43
392.16	397.89
392.36	470.45
392.55	383.85
392.75	449.38
392.94	372.15
393.13	449.38
393.33	397.89
393.52	465.77
393.71	442.36
393.91	362.78
394.10	374.49
394.29	402.57
394.49	374.49
394.68	423.64
394.88	470.45
395.07	444.70
395.26	383.85
395.46	353.42
395.65	500.87
395.84	395.55
396.04	351.08
396.23	351.08
396.42	411.93
396.62	442.36
396.81	449.38
397.00	395.55
397.19	388.53
397.39	400.23
397.58	484.49
397.77	465.77
397.97	433.00
398.16	372.15
398.35	407.25
398.55	360.44
398.74	486.83
398.93	456.40
399.12	440.02
399.32	400.23
399.51	423.64
399.70	386.19
399.90	402.57
400.09	372.15
400.28	390.87
400.47	362.78
400.67	428.32
400.86	346.40
401.05	411.93
401.24	458.74
401.44	437.68
401.63	400.23
401.82	423.64
402.01	388.53
402.21	456.40
402.40	442.36
402.59	430.66
402.78	435.34
402.97	433.00
403.17	442.36
403.36	409.59
403.55	348.74
403.74	454.06
403.93	414.27
404.13	463.43
404.32	458.74
404.51	407.25
404.70	440.02
404.89	348.74
405.09	416.62
405.28	514.92
405.47	425.98
405.66	404.91
405.85	390.87
406.05	379.17
406.24	397.89
406.43	409.59
406.62	386.19
406.81	428.32
407.00	451.72
407.20	444.70
407.39	510.24
407.58	414.27
407.77	423.64
407.96	461.09
408.15	416.62
408.34	390.87
408.54	404.91
408.73	355.76
408.92	421.30
409.11	433.00
409.30	397.89
409.49	383.85
409.68	493.85
409.87	400.23
410.07	407.25
410.26	477.47
410.45	388.53
410.64	395.55
410.83	440.02
411.02	456.40
411.21	414.27
411.40	390.87
411.59	379.17
411.78	395.55
411.98	435.34
412.17	416.62
412.36	456.40
412.55	404.91
412.74	435.34
412.93	440.02
413.12	322.99
413.31	463.43
413.50	498.53
413.69	376.83
413.88	468.11
414.07	348.74
414.26	379.17
414.45	444.70
414.64	454.06
414.83	423.64
415.02	440.02
415.22	437.68
415.41	489.17
415.60	409.59
415.79	372.15
415.98	468.11
416.17	444.70
416.36	381.51
416.55	503.22
416.74	393.21
416.93	433.00
417.12	383.85
417.31	388.53
417.50	374.49
417.69	440.02
417.88	451.72
418.07	428.32
418.26	334.70
418.45	330.02
418.64	421.30
418.83	454.06
419.02	397.89
419.21	437.68
419.39	411.93
419.58	337.04
419.77	346.40
419.96	449.38
420.15	395.55
420.34	360.44
420.53	421.30
420.72	369.80
420.91	416.62
421.10	395.55
421.29	383.85
421.48	475.13
421.67	402.57
421.86	379.17
422.05	447.04
422.24	372.15
422.43	440.02
422.61	369.80
422.80	416.62
422.99	423.64
423.18	395.55
423.37	393.21
423.56	386.19
423.75	397.89
423.94	383.85
424.13	388.53
424.32	404.91
424.50	393.21
424.69	367.46
424.88	404.91
425.07	423.64
425.26	404.91
425.45	393.21
425.64	358.10
425.83	472.79
426.01	465.77
426.20	472.79
426.39	358.10
426.58	447.04
426.77	430.66
426.96	414.27
427.15	402.57
427.33	397.89
427.52	449.38
427.71	404.91
427.90	409.59
428.09	397.89
428.28	379.17
428.46	433.00
428.65	369.80
428.84	447.04
429.03	512.58
429.22	353.42
429.40	409.59
429.59	386.19
429.78	414.27
429.97	397.89
430.16	337.04
430.34	486.83
430.53	414.27
430.72	344.06
430.91	454.06
431.10	425.98
431.28	376.83
431.47	472.79
431.66	458.74
431.85	388.53
432.03	458.74
432.22	400.23
432.41	402.57
432.60	381.51
432.79	404.91
432.97	533.64
433.16	451.72
433.35	447.04
433.54	411.93
433.72	442.36
433.91	418.96
434.10	428.32
434.28	421.30
434.47	416.62
434.66	507.90
434.85	390.87
435.03	484.49
435.22	470.45
435.41	409.59
435.59	416.62
435.78	444.70
435.97	372.15
436.16	395.55
436.34	440.02
436.53	472.79
436.72	421.30
436.90	400.23
437.09	479.81
437.28	425.98
437.46	447.04
437.65	437.68
437.84	442.36
438.02	402.57
438.21	465.77
438.40	437.68
438.58	456.40
438.77	435.34
438.96	440.02
439.14	428.32
439.33	430.66
439.52	390.87
439.70	395.55
439.89	486.83
440.08	400.23
440.26	463.43
440.45	444.70
440.63	447.04
440.82	477.47
441.01	447.04
441.19	411.93
441.38	512.58
441.57	393.21
441.75	381.51
441.94	430.66
442.12	379.17
442.31	362.78
442.50	393.21
442.68	421.30
442.87	353.42
443.05	332.36
443.24	397.89
443.43	440.02
443.61	472.79
443.80	407.25
443.98	491.51
444.17	437.68
444.35	489.17
444.54	379.17
444.73	475.13
444.91	442.36
445.10	404.91
445.28	425.98
445.47	383.85
445.65	543.00
445.84	437.68
446.02	435.34
446.21	416.62
446.39	402.57
446.58	430.66
446.77	365.12
446.95	374.49
447.14	372.15
447.32	409.59
447.51	402.57
447.69	409.59
447.88	414.27
448.06	465.77
448.25	425.98
448.43	442.36
448.62	416.62
448.80	468.11
448.99	454.06
449.17	386.19
449.36	425.98
449.54	423.64
449.73	437.68
449.91	433.00
450.10	362.78
450.28	482.15
450.46	458.74
450.65	437.68
450.83	437.68
451.02	454.06
451.20	428.32
451.39	425.98
451.57	386.19
451.76	386.19
451.94	428.32
452.13	430.66
452.31	353.42
452.49	451.72
452.68	376.83
452.86	393.21
453.05	491.51
453.23	395.55
453.42	362.78
453.60	374.49
453.78	479.81
453.97	379.17
454.15	409.59
454.34	404.91
454.52	444.70
454.70	409.59
454.89	423.64
455.07	393.21
455.26	472.79
455.44	442.36
455.62	433.00
455.81	440.02
455.99	437.68
456.17	393.21
456.36	458.74
456.54	365.12
456.73	365.12
456.91	404.91
457.09	454.06
457.28	409.59
457.46	425.98
457.64	416.62
457.83	402.57
458.01	388.53
458.19	444.70
458.38	447.04
458.56	430.66
458.74	367.46
458.93	411.93
459.11	397.89
459.29	425.98
459.48	409.59
459.66	454.06
459.84	470.45
460.03	512.58
460.21	458.74
460.39	435.34
460.57	423.64
460.76	447.04
460.94	372.15
461.12	470.45
461.31	440.02
461.49	430.66
461.67	381.51
461.85	383.85
462.04	477.47
462.22	702.16
462.40	393.21
462.59	400.23
462.77	425.98
462.95	379.17
463.13	379.17
463.32	418.96
463.50	414.27
463.68	437.68
463.86	386.19
464.05	435.34
464.23	404.91
464.41	379.17
464.59	341.72
464.78	383.85
464.96	355.76
465.14	393.21
465.32	423.64
465.50	435.34
465.69	379.17
465.87	440.02
466.05	444.70
466.23	386.19
466.41	362.78
466.60	397.89
466.78	400.23
466.96	435.34
467.14	472.79
467.32	447.04
467.51	507.90
467.69	416.62
467.87	470.45
468.05	425.98
468.23	454.06
468.41	470.45
468.60	390.87
468.78	381.51
468.96	468.11
469.14	390.87
469.32	454.06
469.50	374.49
469.69	493.85
469.87	428.32
470.05	404.91
470.23	416.62
470.41	411.93
470.59	454.06
470.77	472.79
470.95	402.57
471.14	381.51
471.32	437.68
471.50	477.47
471.68	299.59
471.86	386.19
472.04	416.62
472.22	372.15
472.40	437.68
472.58	463.43
472.77	402.57
472.95	369.80
473.13	332.36
473.31	444.70
473.49	479.81
473.67	388.53
473.85	374.49
474.03	409.59
474.21	400.23
474.39	376.83
474.57	454.06
474.75	416.62
474.93	463.43
475.12	463.43
475.30	435.34
475.48	390.87
475.66	379.17
475.84	411.93
476.02	514.92
476.20	461.09
476.38	433.00
476.56	440.02
476.74	376.83
476.92	479.81
477.10	365.12
477.28	407.25
477.46	393.21
477.64	447.04
477.82	425.98
478.00	425.98
478.18	437.68
478.36	379.17
478.54	456.40
478.72	404.91
478.90	456.40
479.08	358.10
479.26	397.89
479.44	395.55
479.62	449.38
479.80	514.92
479.98	367.46
480.16	402.57
480.34	414.27
480.52	397.89
480.70	355.76
480.88	360.44
481.06	411.93
481.24	437.68
481.41	437.68
481.59	416.62
481.77	482.15
481.95	437.68
482.13	390.87
482.31	374.49
482.49	433.00
482.67	421.30
482.85	402.57
483.03	421.30
483.21	425.98
483.39	451.72
483.57	435.34
483.74	456.40
483.92	430.66
484.10	451.72
484.28	479.81
484.46	468.11
484.64	383.85
484.82	442.36
485.00	482.15
485.18	390.87
485.35	505.56
485.53	365.12
485.71	477.47
485.89	390.87
486.07	383.85
486.25	414.27
486.43	386.19
486.61	418.96
486.78	409.59
486.96	358.10
487.14	418.96
487.32	418.96
487.50	447.04
487.68	374.49
487.85	425.98
488.03	440.02
488.21	348.74
488.39	517.26
488.57	414.27
488.75	430.66
488.92	575.77
489.10	360.44
489.28	465.77
489.46	428.32
489.64	472.79
489.81	451.72
489.99	402.57
490.17	294.91
490.35	447.04
490.53	454.06
490.70	379.17
490.88	461.09
491.06	475.13
491.24	376.83
491.41	390.87
491.59	393.21
491.77	372.15
491.95	404.91
492.13	397.89
492.30	458.74
492.48	418.96
492.66	418.96
492.84	440.02
493.01	498.53
493.19	414.27
493.37	468.11
493.54	463.43
493.72	390.87
493.90	444.70
494.08	388.53
494.25	442.36
494.43	390.87
494.61	418.96
494.79	360.44
494.96	365.12
495.14	463.43
495.32	411.93
495.49	479.81
495.67	463.43
495.85	416.62
496.02	397.89
496.20	395.55
496.38	440.02
496.55	393.21
496.73	428.32
496.91	463.43
497.09	372.15
497.26	365.12
497.44	395.55
497.62	479.81
497.79	475.13
497.97	313.63
498.14	365.12
498.32	411.93
498.50	407.25
498.67	482.15
498.85	430.66
499.03	351.08
499.20	435.34
499.38	479.81
499.56	402.57
499.73	461.09
499.91	428.32
500.08	414.27
500.26	423.64
500.44	465.77
500.61	454.06
500.79	362.78
500.97	421.30
501.14	444.70
501.32	500.87
501.49	418.96
501.67	374.49
501.84	351.08
502.02	428.32
502.20	461.09
502.37	444.70
502.55	360.44
502.72	428.32
502.90	397.89
503.07	421.30
503.25	416.62
503.43	337.04
503.60	379.17
503.78	428.32
503.95	390.87
504.13	435.34
504.30	393.21
504.48	407.25
504.65	411.93
504.83	402.57
505.01	437.68
505.18	414.27
505.36	379.17
505.53	397.89
505.71	411.93
505.88	454.06
506.06	449.38
506.23	374.49
506.41	383.85
506.58	372.15
506.76	461.09
506.93	411.93
507.11	374.49
507.28	418.96
507.46	395.55
507.63	411.93
507.81	475.13
507.98	435.34
508.16	442.36
508.33	400.23
508.50	472.79
508.68	365.12
508.85	421.30
509.03	433.00
509.20	472.79
509.38	414.27
509.55	376.83
509.73	454.06
509.90	510.24
510.08	397.89
510.25	416.62
510.42	407.25
510.60	369.80
510.77	393.21
510.95	465.77
511.12	454.06
511.30	393.21
511.47	451.72
511.64	393.21
511.82	414.27
511.99	416.62
512.17	346.40
512.34	475.13
512.51	397.89
512.69	433.00
512.86	409.59
513.04	346.40
513.21	447.04
513.38	346.40
513.56	458.74
513.73	390.87
513.90	414.27
514.08	486.83
514.25	416.62
514.43	433.00
514.60	397.89
514.77	372.15
514.95	433.00
515.12	411.93
515.29	425.98
515.47	341.72
515.64	372.15
515.81	339.38
515.99	470.45
516.16	402.57
516.33	379.17
516.51	409.59
516.68	369.80
516.85	486.83
517.03	407.25
517.20	386.19
517.37	407.25
517.54	444.70
517.72	369.80
517.89	451.72
518.06	463.43
518.24	484.49
518.41	479.81
518.58	489.17
518.75	388.53
518.93	447.04
519.10	395.55
519.27	416.62
519.45	411.93
519.62	430.66
519.79	367.46
519.96	409.59
520.14	374.49
520.31	444.70
520.48	414.27
520.65	421.30
520.83	456.40
521.00	435.34
521.17	390.87
521.34	400.23
521.52	386.19
521.69	411.93
521.86	433.00
522.03	442.36
522.20	400.23
522.38	461.09
522.55	407.25
522.72	365.12
522.89	390.87
523.07	496.19
523.24	468.11
523.41	428.32
523.58	386.19
523.75	379.17
523.92	461.09
524.10	367.46
524.27	435.34
524.44	468.11
524.61	449.38
524.78	425.98
524.96	486.83
525.13	440.02
525.30	489.17
525.47	454.06
525.64	425.98
525.81	411.93
525.98	379.17
526.16	411.93
526.33	456.40
526.50	346.40
526.67	362.78
526.84	344.06
527.01	367.46
527.18	372.15
527.36	409.59
527.53	397.89
527.70	468.11
527.87	468.11
528.04	414.27
528.21	484.49
528.38	430.66
528.55	486.83
528.72	428.32
528.89	404.91
529.07	414.27
529.24	472.79
529.41	379.17
529.58	456.40
529.75	383.85
529.92	440.02
530.09	447.04
530.26	388.53
530.43	449.38
530.60	407.25
530.77	400.23
530.94	411.93
531.11	447.04
531.28	397.89
531.46	418.96
531.63	472.79
531.80	463.43
531.97	369.80
532.14	451.72
532.31	379.17
532.48	475.13
532.65	411.93
532.82	402.57
532.99	376.83
533.16	428.32
533.33	493.85
533.50	449.38
533.67	451.72
533.84	461.09
534.01	386.19
534.18	379.17
534.35	393.21
534.52	444.70
534.69	456.40
534.86	484.49
535.03	456.40
535.20	433.00
535.37	416.62
535.54	388.53
535.71	318.31
535.88	390.87
536.05	484.49
536.22	451.72
536.38	407.25
536.55	322.99
536.72	418.96
536.89	381.51
537.06	367.46
537.23	416.62
537.40	379.17
537.57	376.83
537.74	498.53
537.91	414.27
538.08	484.49
538.25	390.87
538.42	433.00
538.59	393.21
538.75	498.53
538.92	440.02
539.09	376.83
539.26	376.83
539.43	376.83
539.60	479.81
539.77	430.66
539.94	447.04
540.11	395.55
540.28	440.02
540.44	449.38
540.61	463.43
540.78	440.02
540.95	381.51
541.12	461.09
541.29	409.59
541.46	425.98
541.62	360.44
541.79	456.40
541.96	351.08
542.13	365.12
542.30	421.30
542.47	428.32
542.63	444.70
542.80	416.62
542.97	390.87
543.14	465.77
543.31	388.53
543.48	409.59
543.64	454.06
543.81	440.02
543.98	381.51
544.15	440.02
544.32	390.87
544.48	489.17
544.65	339.38
544.82	458.74
544.99	395.55
545.16	458.74
545.32	416.62
545.49	388.53
545.66	365.12
545.83	451.72
546.00	435.34
546.16	472.79
546.33	430.66
546.50	369.80
546.67	440.02
546.83	468.11
547.00	362.78
547.17	435.34
547.34	430.66
547.50	404.91
547.67	379.17
547.84	425.98
548.00	461.09
548.17	447.04
548.34	437.68
548.51	372.15
548.67	433.00
548.84	416.62
549.01	383.85
549.18	440.02
549.34	395.55
549.51	411.93
549.68	400.23
549.84	411.93
550.01	351.08
550.18	575.77
550.34	510.24
550.51	360.44
550.68	428.32
550.84	418.96
551.01	465.77
551.18	477.47
551.34	393.21
551.51	395.55
551.68	482.15
551.84	430.66
552.01	379.17
552.18	358.10
552.34	414.27
552.51	444.70
552.68	447.04
552.84	451.72
553.01	409.59
553.18	376.83
553.34	407.25
553.51	374.49
553.67	458.74
553.84	507.90
554.01	472.79
554.17	407.25
554.34	442.36
554.51	517.26
554.67	430.66
554.84	475.13
555.00	404.91
555.17	402.57
555.33	500.87
555.50	383.85
555.67	423.64
555.83	372.15
556.00	428.32
556.16	528.96
556.33	482.15
556.50	475.13
556.66	423.64
556.83	369.80
556.99	386.19
557.16	470.45
557.32	418.96
557.49	374.49
557.65	418.96
557.82	397.89
557.98	447.04
558.15	489.17
558.32	461.09
558.48	381.51
558.65	409.59
558.81	421.30
558.98	400.23
559.14	379.17
559.31	458.74
559.47	447.04
559.64	416.62
559.80	458.74
559.97	390.87
560.13	379.17
560.30	400.23
560.46	411.93
560.63	447.04
560.79	423.64
560.96	428.32
561.12	444.70
561.29	388.53
561.45	407.25
561.61	390.87
561.78	449.38
561.94	369.80
562.11	344.06
562.27	390.87
562.44	437.68
562.60	418.96
562.77	421.30
562.93	456.40
563.10	404.91
563.26	440.02
563.42	472.79
563.59	486.83
563.75	425.98
563.92	461.09
564.08	484.49
564.24	435.34
564.41	472.79
564.57	386.19
564.74	388.53
564.90	442.36
565.07	447.04
565.23	458.74
565.39	381.51
565.56	397.89
565.72	337.04
565.88	367.46
566.05	409.59
566.21	388.53
566.38	367.46
566.54	437.68
566.70	393.21
566.87	421.30
567.03	390.87
567.19	409.59
567.36	477.47
567.52	390.87
567.68	442.36
567.85	383.85
568.01	435.34
568.17	425.98
568.34	433.00
568.50	444.70
568.66	447.04
568.83	510.24
568.99	344.06
569.15	402.57
569.32	433.00
569.48	447.04
569.64	400.23
569.81	353.42
569.97	449.38
570.13	447.04
570.30	379.17
570.46	372.15
570.62	447.04
570.78	351.08
570.95	388.53
571.11	479.81
571.27	418.96
571.43	423.64
571.60	400.23
571.76	468.11
571.92	430.66
572.09	440.02
572.25	444.70
572.41	465.77
572.57	496.19
572.74	517.26
572.90	475.13
573.06	411.93
573.22	418.96
573.38	425.98
573.55	465.77
573.71	442.36
573.87	458.74
574.03	414.27
574.20	355.76
574.36	442.36
574.52	449.38
574.68	468.11
574.84	430.66
575.01	430.66
575.17	449.38
575.33	486.83
575.49	414.27
575.65	362.78
575.82	425.98
575.98	402.57
576.14	442.36
576.30	407.25
576.46	402.57
576.62	423.64
576.79	454.06
576.95	491.51
577.11	423.64
577.27	409.59
577.43	444.70
577.59	423.64
577.75	472.79
577.92	379.17
578.08	355.76
578.24	341.72
578.40	493.85
578.56	346.40
578.72	400.23
578.88	383.85
579.04	440.02
579.21	454.06
579.37	421.30
579.53	418.96
579.69	430.66
579.85	458.74
580.01	395.55
580.17	372.15
580.33	379.17
580.49	440.02
580.65	397.89
580.82	430.66
580.98	351.08
581.14	407.25
581.30	444.70
581.46	475.13
581.62	433.00
581.78	437.68
581.94	353.42
582.10	407.25
582.26	409.59
582.42	360.44
582.58	409.59
582.74	404.91
582.90	493.85
583.06	411.93
583.22	421.30
583.38	374.49
583.54	451.72
583.70	451.72
583.86	477.47
584.02	379.17
584.18	409.59
584.34	395.55
584.50	451.72
584.66	475.13
584.82	409.59
584.98	425.98
585.14	397.89
585.30	472.79
585.46	421.30
585.62	409.59
585.78	458.74
585.94	379.17
586.10	444.70
586.26	465.77
586.42	498.53
586.58	456.40
586.74	482.15
586.90	458.74
587.06	423.64
587.22	414.27
587.38	374.49
587.54	374.49
587.70	440.02
587.86	510.24
588.02	461.09
588.18	475.13
588.34	416.62
588.49	339.38
588.65	374.49
588.81	447.04
588.97	475.13
589.13	404.91
589.29	400.23
589.45	482.15
589.61	404.91
589.77	409.59
589.93	442.36
590.08	416.62
590.24	411.93
590.40	463.43
590.56	416.62
590.72	388.53
590.88	418.96
591.04	430.66
591.20	337.04
591.35	458.74
591.51	421.30
591.67	402.57
591.83	400.23
591.99	479.81
592.15	423.64
592.31	400.23
592.46	360.44
592.62	486.83
592.78	423.64
592.94	372.15
593.10	425.98
593.26	386.19
593.41	344.06
593.57	411.93
593.73	400.23
593.89	381.51
594.05	367.46
594.20	447.04
594.36	472.79
594.52	341.72
594.68	425.98
594.84	440.02
594.99	447.04
595.15	390.87
595.31	468.11
595.47	418.96
595.62	461.09
595.78	418.96
595.94	365.12
596.10	447.04
596.25	437.68
596.41	430.66
596.57	411.93
596.73	458.74
596.88	449.38
597.04	416.62
597.20	435.34
597.36	386.19
597.51	376.83
597.67	461.09
597.83	451.72
597.99	428.32
598.14	358.10
598.30	423.64
598.46	397.89
598.61	428.32
598.77	395.55
598.93	486.83
599.09	379.17
599.24	372.15
599.40	484.49
599.56	358.10
599.71	442.36
599.87	447.04
600.03	477.47
600.18	435.34
600.34	404.91
600.50	390.87
600.65	411.93
600.81	414.27
600.97	397.89
601.12	407.25
601.28	449.38
601.44	468.11
601.59	414.27
601.75	421.30
601.91	468.11
602.06	360.44
602.22	517.26
602.37	440.02
602.53	414.27
602.69	411.93
602.84	402.57
603.00	381.51
603.16	435.34
603.31	423.64
603.47	416.62
603.62	400.23
603.78	430.66
603.94	397.89
604.09	374.49
604.25	423.64
604.40	430.66
604.56	423.64
604.71	451.72
604.87	430.66
605.03	454.06
605.18	411.93
605.34	458.74
605.49	411.93
605.65	503.22
605.80	425.98
605.96	414.27
606.12	411.93
606.27	437.68
606.43	440.02
606.58	416.62
606.74	379.17
606.89	351.08
607.05	351.08
607.20	470.45
607.36	503.22
607.51	322.99
607.67	381.51
607.82	355.76
607.98	386.19
608.13	365.12
608.29	407.25
608.44	416.62
608.60	433.00
608.75	386.19
608.91	395.55
609.06	393.21
609.22	440.02
609.37	437.68
609.53	414.27
609.68	351.08
609.84	390.87
609.99	383.85
610.15	433.00
