SpectraSuite Data File
++++++++++++++++++++++++++++++++++++
Date: Fri Oct 25 12:10:35 EDT 2013
User: price-jones
Dark Spectrum Present: No
Reference Spectrum Present: No
Number of Sampled Component Spectra: 1
Spectrometers: USB2+H05261
Integration Time (usec): 100000 (USB2+H05261)
Spectra Averaged: 1 (USB2+H05261)
Boxcar Smoothing: 0 (USB2+H05261)
Correct for Electrical Dark: No (USB2+H05261)
Strobe/Lamp Enabled: No (USB2+H05261)
Correct for Detector Non-linearity: No (USB2+H05261)
Correct for Stray Light: No (USB2+H05261)
Number of Pixels in Processed Spectrum: 2048
>>>>>Begin Processed Spectral Data<<<<<
365.73	358.10
365.92	358.10
366.12	358.10
366.32	196.60
366.52	227.03
366.72	252.78
366.91	196.60
367.11	231.71
367.31	259.80
367.51	243.42
367.70	269.16
367.90	241.08
368.10	269.16
368.30	145.11
368.49	156.82
368.69	229.37
368.89	269.16
369.09	245.76
369.28	257.46
369.48	201.29
369.68	250.44
369.87	285.55
370.07	337.04
370.27	341.72
370.47	358.10
370.66	339.38
370.86	353.42
371.06	397.89
371.25	437.68
371.45	344.06
371.65	379.17
371.84	397.89
372.04	351.08
372.24	390.87
372.44	421.30
372.63	404.91
372.83	433.00
373.03	341.72
373.22	440.02
373.42	517.26
373.62	447.04
373.81	381.51
374.01	383.85
374.21	433.00
374.40	411.93
374.60	425.98
374.79	376.83
374.99	381.51
375.19	407.25
375.38	428.32
375.58	421.30
375.78	372.15
375.97	416.62
376.17	414.27
376.37	428.32
376.56	451.72
376.76	423.64
376.95	430.66
377.15	433.00
377.35	388.53
377.54	440.02
377.74	400.23
377.93	477.47
378.13	390.87
378.33	423.64
378.52	404.91
378.72	451.72
378.91	411.93
379.11	390.87
379.31	383.85
379.50	395.55
379.70	409.59
379.89	411.93
380.09	374.49
380.28	402.57
380.48	367.46
380.68	320.65
380.87	442.36
381.07	386.19
381.26	390.87
381.46	348.74
381.65	411.93
381.85	351.08
382.04	367.46
382.24	425.98
382.43	428.32
382.63	395.55
382.83	447.04
383.02	472.79
383.22	433.00
383.41	416.62
383.61	411.93
383.80	393.21
384.00	386.19
384.19	388.53
384.39	433.00
384.58	440.02
384.78	407.25
384.97	390.87
385.17	456.40
385.36	390.87
385.56	409.59
385.75	411.93
385.95	414.27
386.14	360.44
386.34	451.72
386.53	416.62
386.72	344.06
386.92	433.00
387.11	400.23
387.31	390.87
387.50	386.19
387.70	477.47
387.89	374.49
388.09	367.46
388.28	395.55
388.48	400.23
388.67	451.72
388.86	414.27
389.06	337.04
389.25	365.12
389.45	470.45
389.64	386.19
389.84	496.19
390.03	428.32
390.22	355.76
390.42	386.19
390.61	360.44
390.81	407.25
391.00	454.06
391.19	428.32
391.39	425.98
391.58	423.64
391.78	470.45
391.97	404.91
392.16	433.00
392.36	475.13
392.55	411.93
392.75	402.57
392.94	376.83
393.13	341.72
393.33	346.40
393.52	334.70
393.71	475.13
393.91	383.85
394.10	362.78
394.29	400.23
394.49	381.51
394.68	407.25
394.88	489.17
395.07	407.25
395.26	430.66
395.46	381.51
395.65	454.06
395.84	472.79
396.04	463.43
396.23	402.57
396.42	348.74
396.62	435.34
396.81	404.91
397.00	395.55
397.19	400.23
397.39	353.42
397.58	437.68
397.77	372.15
397.97	475.13
398.16	409.59
398.35	425.98
398.55	489.17
398.74	411.93
398.93	472.79
399.12	400.23
399.32	381.51
399.51	454.06
399.70	409.59
399.90	454.06
400.09	381.51
400.28	472.79
400.47	430.66
400.67	470.45
400.86	454.06
401.05	407.25
401.24	376.83
401.44	393.21
401.63	411.93
401.82	435.34
402.01	369.80
402.21	418.96
402.40	381.51
402.59	430.66
402.78	430.66
402.97	409.59
403.17	355.76
403.36	430.66
403.55	498.53
403.74	334.70
403.93	358.10
404.13	322.99
404.32	472.79
404.51	407.25
404.70	369.80
404.89	379.17
405.09	463.43
405.28	435.34
405.47	425.98
405.66	414.27
405.85	444.70
406.05	421.30
406.24	463.43
406.43	449.38
406.62	393.21
406.81	381.51
407.00	465.77
407.20	435.34
407.39	425.98
407.58	402.57
407.77	362.78
407.96	477.47
408.15	465.77
408.34	447.04
408.54	360.44
408.73	346.40
408.92	433.00
409.11	442.36
409.30	482.15
409.49	437.68
409.68	411.93
409.87	400.23
410.07	397.89
410.26	411.93
410.45	447.04
410.64	374.49
410.83	430.66
411.02	360.44
411.21	411.93
411.40	440.02
411.59	404.91
411.78	435.34
411.98	430.66
412.17	409.59
412.36	353.42
412.55	393.21
412.74	437.68
412.93	400.23
413.12	435.34
413.31	383.85
413.50	423.64
413.69	388.53
413.88	414.27
414.07	435.34
414.26	425.98
414.45	362.78
414.64	400.23
414.83	451.72
415.02	355.76
415.22	351.08
415.41	383.85
415.60	425.98
415.79	409.59
415.98	376.83
416.17	351.08
416.36	409.59
416.55	407.25
416.74	421.30
416.93	510.24
417.12	423.64
417.31	393.21
417.50	322.99
417.69	388.53
417.88	388.53
418.07	433.00
418.26	414.27
418.45	367.46
418.64	423.64
418.83	444.70
419.02	421.30
419.21	411.93
419.39	376.83
419.58	456.40
419.77	430.66
419.96	442.36
420.15	379.17
420.34	379.17
420.53	414.27
420.72	458.74
420.91	418.96
421.10	386.19
421.29	423.64
421.48	374.49
421.67	416.62
421.86	327.68
422.05	407.25
422.24	437.68
422.43	468.11
422.61	444.70
422.80	421.30
422.99	386.19
423.18	374.49
423.37	425.98
423.56	491.51
423.75	374.49
423.94	425.98
424.13	386.19
424.32	416.62
424.50	435.34
424.69	416.62
424.88	491.51
425.07	409.59
425.26	414.27
425.45	454.06
425.64	479.81
425.83	465.77
426.01	477.47
426.20	393.21
426.39	372.15
426.58	330.02
426.77	428.32
426.96	388.53
427.15	454.06
427.33	416.62
427.52	425.98
427.71	383.85
427.90	402.57
428.09	362.78
428.28	435.34
428.46	390.87
428.65	407.25
428.84	461.09
429.03	407.25
429.22	365.12
429.40	388.53
429.59	388.53
429.78	416.62
429.97	360.44
430.16	449.38
430.34	407.25
430.53	388.53
430.72	325.33
430.91	444.70
431.10	386.19
431.28	402.57
431.47	435.34
431.66	367.46
431.85	407.25
432.03	418.96
432.22	418.96
432.41	400.23
432.60	379.17
432.79	414.27
432.97	334.70
433.16	465.77
433.35	383.85
433.54	421.30
433.72	454.06
433.91	440.02
434.10	425.98
434.28	430.66
434.47	393.21
434.66	442.36
434.85	400.23
435.03	430.66
435.22	442.36
435.41	428.32
435.59	383.85
435.78	444.70
435.97	383.85
436.16	543.00
436.34	423.64
436.53	423.64
436.72	379.17
436.90	414.27
437.09	353.42
437.28	449.38
437.46	397.89
437.65	365.12
437.84	437.68
438.02	475.13
438.21	418.96
438.40	423.64
438.58	379.17
438.77	414.27
438.96	397.89
439.14	376.83
439.33	400.23
439.52	355.76
439.70	430.66
439.89	437.68
440.08	482.15
440.26	477.47
440.45	421.30
440.63	411.93
440.82	402.57
441.01	372.15
441.19	369.80
441.38	386.19
441.57	365.12
441.75	456.40
441.94	407.25
442.12	430.66
442.31	451.72
442.50	362.78
442.68	369.80
442.87	414.27
443.05	444.70
443.24	498.53
443.43	423.64
443.61	454.06
443.80	381.51
443.98	379.17
444.17	353.42
444.35	423.64
444.54	437.68
444.73	465.77
444.91	442.36
445.10	390.87
445.28	468.11
445.47	379.17
445.65	423.64
445.84	390.87
446.02	449.38
446.21	425.98
446.39	416.62
446.58	491.51
446.77	386.19
446.95	404.91
447.14	395.55
447.32	472.79
447.51	362.78
447.69	393.21
447.88	409.59
448.06	369.80
448.25	430.66
448.43	411.93
448.62	346.40
448.80	498.53
448.99	400.23
449.17	437.68
449.36	397.89
449.54	442.36
449.73	381.51
449.91	407.25
450.10	402.57
450.28	437.68
450.46	423.64
450.65	435.34
450.83	372.15
451.02	348.74
451.20	428.32
451.39	425.98
451.57	327.68
451.76	393.21
451.94	491.51
452.13	454.06
452.31	435.34
452.49	451.72
452.68	369.80
452.86	376.83
453.05	421.30
453.23	449.38
453.42	376.83
453.60	461.09
453.78	332.36
453.97	430.66
454.15	411.93
454.34	414.27
454.52	491.51
454.70	395.55
454.89	414.27
455.07	456.40
455.26	390.87
455.44	423.64
455.62	421.30
455.81	470.45
455.99	376.83
456.17	395.55
456.36	440.02
456.54	447.04
456.73	351.08
456.91	353.42
457.09	400.23
457.28	390.87
457.46	491.51
457.64	442.36
457.83	433.00
458.01	360.44
458.19	444.70
458.38	381.51
458.56	435.34
458.74	411.93
458.93	442.36
459.11	482.15
459.29	358.10
459.48	437.68
459.66	393.21
459.84	369.80
460.03	507.90
460.21	402.57
460.39	285.55
460.57	416.62
460.76	411.93
460.94	435.34
461.12	451.72
461.31	449.38
461.49	407.25
461.67	393.21
461.85	421.30
462.04	376.83
462.22	784.08
462.40	521.94
462.59	414.27
462.77	386.19
462.95	404.91
463.13	360.44
463.32	374.49
463.50	381.51
463.68	454.06
463.86	409.59
464.05	435.34
464.23	500.87
464.41	365.12
464.59	435.34
464.78	430.66
464.96	315.97
465.14	465.77
465.32	379.17
465.50	451.72
465.69	407.25
465.87	369.80
466.05	456.40
466.23	458.74
466.41	395.55
466.60	423.64
466.78	428.32
466.96	449.38
467.14	435.34
467.32	435.34
467.51	362.78
467.69	442.36
467.87	425.98
468.05	409.59
468.23	428.32
468.41	374.49
468.60	393.21
468.78	491.51
468.96	437.68
469.14	477.47
469.32	440.02
469.50	425.98
469.69	496.19
469.87	433.00
470.05	411.93
470.23	440.02
470.41	379.17
470.59	435.34
470.77	475.13
470.95	475.13
471.14	388.53
471.32	400.23
471.50	433.00
471.68	451.72
471.86	454.06
472.04	404.91
472.22	456.40
472.40	454.06
472.58	390.87
472.77	334.70
472.95	454.06
473.13	442.36
473.31	454.06
473.49	379.17
473.67	418.96
473.85	362.78
474.03	465.77
474.21	402.57
474.39	407.25
474.57	437.68
474.75	437.68
474.93	440.02
475.12	428.32
475.30	393.21
475.48	449.38
475.66	428.32
475.84	390.87
476.02	337.04
476.20	425.98
476.38	451.72
476.56	475.13
476.74	390.87
476.92	433.00
477.10	402.57
477.28	402.57
477.46	374.49
477.64	411.93
477.82	397.89
478.00	461.09
478.18	489.17
478.36	472.79
478.54	381.51
478.72	362.78
478.90	397.89
479.08	449.38
479.26	421.30
479.44	454.06
479.62	416.62
479.80	409.59
479.98	414.27
480.16	372.15
480.34	449.38
480.52	463.43
480.70	454.06
480.88	383.85
481.06	465.77
481.24	393.21
481.41	339.38
481.59	386.19
481.77	449.38
481.95	379.17
482.13	482.15
482.31	407.25
482.49	402.57
482.67	454.06
482.85	477.47
483.03	407.25
483.21	451.72
483.39	383.85
483.57	449.38
483.74	395.55
483.92	442.36
484.10	425.98
484.28	447.04
484.46	442.36
484.64	409.59
484.82	379.17
485.00	418.96
485.18	369.80
485.35	514.92
485.53	423.64
485.71	437.68
485.89	458.74
486.07	425.98
486.25	447.04
486.43	390.87
486.61	425.98
486.78	465.77
486.96	400.23
487.14	383.85
487.32	493.85
487.50	339.38
487.68	390.87
487.85	372.15
488.03	421.30
488.21	489.17
488.39	437.68
488.57	470.45
488.75	390.87
488.92	454.06
489.10	411.93
489.28	442.36
489.46	411.93
489.64	435.34
489.81	470.45
489.99	447.04
490.17	395.55
490.35	414.27
490.53	400.23
490.70	407.25
490.88	475.13
491.06	414.27
491.24	491.51
491.41	383.85
491.59	442.36
491.77	372.15
491.95	409.59
492.13	318.31
492.30	325.33
492.48	437.68
492.66	348.74
492.84	353.42
493.01	454.06
493.19	416.62
493.37	407.25
493.54	372.15
493.72	393.21
493.90	393.21
494.08	386.19
494.25	365.12
494.43	433.00
494.61	400.23
494.79	470.45
494.96	386.19
495.14	479.81
495.32	425.98
495.49	414.27
495.67	451.72
495.85	358.10
496.02	397.89
496.20	369.80
496.38	444.70
496.55	390.87
496.73	465.77
496.91	393.21
497.09	425.98
497.26	374.49
497.44	367.46
497.62	454.06
497.79	447.04
497.97	423.64
498.14	451.72
498.32	381.51
498.50	425.98
498.67	395.55
498.85	372.15
499.03	367.46
499.20	404.91
499.38	367.46
499.56	386.19
499.73	496.19
499.91	402.57
500.08	411.93
500.26	325.33
500.44	411.93
500.61	421.30
500.79	390.87
500.97	477.47
501.14	496.19
501.32	376.83
501.49	449.38
501.67	435.34
501.84	423.64
502.02	433.00
502.20	418.96
502.37	383.85
502.55	407.25
502.72	416.62
502.90	461.09
503.07	496.19
503.25	421.30
503.43	358.10
503.60	386.19
503.78	444.70
503.95	472.79
504.13	379.17
504.30	425.98
504.48	423.64
504.65	390.87
504.83	430.66
505.01	386.19
505.18	411.93
505.36	353.42
505.53	372.15
505.71	376.83
505.88	449.38
506.06	519.60
506.23	472.79
506.41	388.53
506.58	379.17
506.76	414.27
506.93	386.19
507.11	416.62
507.28	407.25
507.46	386.19
507.63	430.66
507.81	416.62
507.98	367.46
508.16	418.96
508.33	407.25
508.50	454.06
508.68	365.12
508.85	411.93
509.03	393.21
509.20	379.17
509.38	477.47
509.55	397.89
509.73	341.72
509.90	402.57
510.08	379.17
510.25	393.21
510.42	454.06
510.60	423.64
510.77	414.27
510.95	475.13
511.12	383.85
511.30	461.09
511.47	383.85
511.64	414.27
511.82	369.80
511.99	369.80
512.17	421.30
512.34	425.98
512.51	344.06
512.69	411.93
512.86	418.96
513.04	409.59
513.21	416.62
513.38	402.57
513.56	397.89
513.73	334.70
513.90	386.19
514.08	463.43
514.25	414.27
514.43	461.09
514.60	416.62
514.77	397.89
514.95	442.36
515.12	435.34
515.29	411.93
515.47	472.79
515.64	451.72
515.81	465.77
515.99	493.85
516.16	463.43
516.33	440.02
516.51	390.87
516.68	435.34
516.85	444.70
517.03	425.98
517.20	416.62
517.37	477.47
517.54	486.83
517.72	468.11
517.89	435.34
518.06	437.68
518.24	470.45
518.41	433.00
518.58	423.64
518.75	372.15
518.93	418.96
519.10	388.53
519.27	472.79
519.45	390.87
519.62	367.46
519.79	351.08
519.96	365.12
520.14	472.79
520.31	486.83
520.48	442.36
520.65	449.38
520.83	414.27
521.00	411.93
521.17	425.98
521.34	390.87
521.52	416.62
521.69	400.23
521.86	433.00
522.03	397.89
522.20	425.98
522.38	348.74
522.55	451.72
522.72	308.95
522.89	393.21
523.07	449.38
523.24	423.64
523.41	470.45
523.58	374.49
523.75	449.38
523.92	390.87
524.10	411.93
524.27	397.89
524.44	365.12
524.61	433.00
524.78	393.21
524.96	433.00
525.13	365.12
525.30	449.38
525.47	416.62
525.64	386.19
525.81	402.57
525.98	440.02
526.16	383.85
526.33	395.55
526.50	393.21
526.67	444.70
526.84	355.76
527.01	369.80
527.18	390.87
527.36	437.68
527.53	461.09
527.70	416.62
527.87	395.55
528.04	423.64
528.21	411.93
528.38	367.46
528.55	404.91
528.72	379.17
528.89	461.09
529.07	395.55
529.24	397.89
529.41	435.34
529.58	430.66
529.75	372.15
529.92	374.49
530.09	379.17
530.26	458.74
530.43	418.96
530.60	416.62
530.77	507.90
530.94	411.93
531.11	491.51
531.28	428.32
531.46	376.83
531.63	374.49
531.80	374.49
531.97	545.34
532.14	390.87
532.31	409.59
532.48	442.36
532.65	428.32
532.82	409.59
532.99	344.06
533.16	404.91
533.33	418.96
533.50	425.98
533.67	442.36
533.84	437.68
534.01	444.70
534.18	407.25
534.35	411.93
534.52	381.51
534.69	414.27
534.86	407.25
535.03	433.00
535.20	358.10
535.37	428.32
535.54	397.89
535.71	435.34
535.88	397.89
536.05	479.81
536.22	435.34
536.38	395.55
536.55	437.68
536.72	454.06
536.89	449.38
537.06	360.44
537.23	425.98
537.40	386.19
537.57	472.79
537.74	500.87
537.91	435.34
538.08	414.27
538.25	346.40
538.42	402.57
538.59	428.32
538.75	383.85
538.92	360.44
539.09	454.06
539.26	442.36
539.43	486.83
539.60	442.36
539.77	437.68
539.94	425.98
540.11	433.00
540.28	489.17
540.44	463.43
540.61	404.91
540.78	437.68
540.95	386.19
541.12	444.70
541.29	381.51
541.46	416.62
541.62	400.23
541.79	395.55
541.96	428.32
542.13	461.09
542.30	388.53
542.47	425.98
542.63	458.74
542.80	414.27
542.97	372.15
543.14	369.80
543.31	383.85
543.48	301.93
543.64	374.49
543.81	369.80
543.98	381.51
544.15	423.64
544.32	383.85
544.48	433.00
544.65	407.25
544.82	376.83
544.99	435.34
545.16	418.96
545.32	454.06
545.49	461.09
545.66	355.76
545.83	318.31
546.00	430.66
546.16	416.62
546.33	526.62
546.50	383.85
546.67	526.62
546.83	465.77
547.00	411.93
547.17	425.98
547.34	425.98
547.50	400.23
547.67	353.42
547.84	402.57
548.00	367.46
548.17	418.96
548.34	374.49
548.51	440.02
548.67	454.06
548.84	437.68
549.01	416.62
549.18	355.76
549.34	379.17
549.51	388.53
549.68	493.85
549.84	397.89
550.01	414.27
550.18	507.90
550.34	407.25
550.51	395.55
550.68	463.43
550.84	472.79
551.01	425.98
551.18	489.17
551.34	374.49
551.51	482.15
551.68	456.40
551.84	400.23
552.01	454.06
552.18	564.07
552.34	456.40
552.51	442.36
552.68	388.53
552.84	353.42
553.01	386.19
553.18	346.40
553.34	444.70
553.51	421.30
553.67	367.46
553.84	442.36
554.01	465.77
554.17	411.93
554.34	416.62
554.51	355.76
554.67	388.53
554.84	414.27
555.00	454.06
555.17	381.51
555.33	451.72
555.50	437.68
555.67	475.13
555.83	409.59
556.00	409.59
556.16	552.37
556.33	400.23
556.50	341.72
556.66	433.00
556.83	388.53
556.99	367.46
557.16	381.51
557.32	404.91
557.49	381.51
557.65	425.98
557.82	411.93
557.98	442.36
558.15	440.02
558.32	400.23
558.48	379.17
558.65	360.44
558.81	463.43
558.98	402.57
559.14	411.93
559.31	404.91
559.47	435.34
559.64	465.77
559.80	383.85
559.97	442.36
560.13	423.64
560.30	386.19
560.46	472.79
560.63	386.19
560.79	430.66
560.96	395.55
561.12	451.72
561.29	498.53
561.45	404.91
561.61	418.96
561.78	496.19
561.94	404.91
562.11	372.15
562.27	425.98
562.44	418.96
562.60	463.43
562.77	388.53
562.93	442.36
563.10	414.27
563.26	416.62
563.42	402.57
563.59	400.23
563.75	510.24
563.92	517.26
564.08	362.78
564.24	442.36
564.41	479.81
564.57	449.38
564.74	442.36
564.90	423.64
565.07	411.93
565.23	456.40
565.39	489.17
565.56	425.98
565.72	454.06
565.88	400.23
566.05	325.33
566.21	418.96
566.38	372.15
566.54	421.30
566.70	322.99
566.87	322.99
567.03	433.00
567.19	369.80
567.36	425.98
567.52	400.23
567.68	454.06
567.85	418.96
568.01	433.00
568.17	416.62
568.34	440.02
568.50	454.06
568.66	437.68
568.83	503.22
568.99	369.80
569.15	404.91
569.32	353.42
569.48	463.43
569.64	367.46
569.81	388.53
569.97	353.42
570.13	451.72
570.30	444.70
570.46	435.34
570.62	409.59
570.78	440.02
570.95	430.66
571.11	447.04
571.27	379.17
571.43	395.55
571.60	468.11
571.76	376.83
571.92	416.62
572.09	472.79
572.25	395.55
572.41	365.12
572.57	442.36
572.74	409.59
572.90	407.25
573.06	475.13
573.22	454.06
573.38	369.80
573.55	355.76
573.71	533.64
573.87	409.59
574.03	404.91
574.20	404.91
574.36	423.64
574.52	475.13
574.68	404.91
574.84	430.66
575.01	433.00
575.17	458.74
575.33	353.42
575.49	437.68
575.65	472.79
575.82	435.34
575.98	491.51
576.14	404.91
576.30	400.23
576.46	404.91
576.62	444.70
576.79	407.25
576.95	433.00
577.11	456.40
577.27	437.68
577.43	456.40
577.59	458.74
577.75	386.19
577.92	407.25
578.08	400.23
578.24	411.93
578.40	517.26
578.56	407.25
578.72	456.40
578.88	472.79
579.04	477.47
579.21	397.89
579.37	360.44
579.53	423.64
579.69	395.55
579.85	430.66
580.01	421.30
580.17	383.85
580.33	322.99
580.49	348.74
580.65	425.98
580.82	369.80
580.98	442.36
581.14	395.55
581.30	440.02
581.46	463.43
581.62	388.53
581.78	454.06
581.94	381.51
582.10	421.30
582.26	456.40
582.42	472.79
582.58	414.27
582.74	411.93
582.90	409.59
583.06	379.17
583.22	475.13
583.38	421.30
583.54	435.34
583.70	507.90
583.86	365.12
584.02	395.55
584.18	463.43
584.34	390.87
584.50	376.83
584.66	425.98
584.82	334.70
584.98	451.72
585.14	372.15
585.30	407.25
585.46	437.68
585.62	395.55
585.78	449.38
585.94	458.74
586.10	444.70
586.26	433.00
586.42	449.38
586.58	351.08
586.74	418.96
586.90	442.36
587.06	379.17
587.22	425.98
587.38	409.59
587.54	369.80
587.70	416.62
587.86	451.72
588.02	442.36
588.18	400.23
588.34	386.19
588.49	374.49
588.65	395.55
588.81	423.64
588.97	358.10
589.13	402.57
589.29	444.70
589.45	407.25
589.61	428.32
589.77	512.58
589.93	381.51
590.08	369.80
590.24	374.49
590.40	383.85
590.56	442.36
590.72	444.70
590.88	416.62
591.04	423.64
591.20	416.62
591.35	381.51
591.51	430.66
591.67	440.02
591.83	348.74
591.99	430.66
592.15	489.17
592.31	397.89
592.46	315.97
592.62	444.70
592.78	374.49
592.94	449.38
593.10	372.15
593.26	369.80
593.41	409.59
593.57	461.09
593.73	421.30
593.89	416.62
594.05	486.83
594.20	425.98
594.36	407.25
594.52	334.70
594.68	383.85
594.84	447.04
594.99	423.64
595.15	475.13
595.31	428.32
595.47	500.87
595.62	421.30
595.78	421.30
595.94	414.27
596.10	400.23
596.25	440.02
596.41	442.36
596.57	425.98
596.73	428.32
596.88	362.78
597.04	407.25
597.20	381.51
597.36	444.70
597.51	386.19
597.67	458.74
597.83	470.45
597.99	423.64
598.14	470.45
598.30	430.66
598.46	374.49
598.61	423.64
598.77	390.87
598.93	447.04
599.09	440.02
599.24	447.04
599.40	353.42
599.56	390.87
599.71	442.36
599.87	451.72
600.03	423.64
600.18	456.40
600.34	463.43
600.50	397.89
600.65	407.25
600.81	397.89
600.97	381.51
601.12	451.72
601.28	433.00
601.44	365.12
601.59	463.43
601.75	451.72
601.91	407.25
602.06	430.66
602.22	440.02
602.37	472.79
602.53	355.76
602.69	418.96
602.84	428.32
603.00	430.66
603.16	409.59
603.31	421.30
603.47	402.57
603.62	414.27
603.78	393.21
603.94	454.06
604.09	372.15
604.25	433.00
604.40	409.59
604.56	423.64
604.71	447.04
604.87	425.98
605.03	425.98
605.18	437.68
605.34	437.68
605.49	337.04
605.65	418.96
605.80	456.40
605.96	414.27
606.12	348.74
606.27	444.70
606.43	388.53
606.58	435.34
606.74	463.43
606.89	379.17
607.05	423.64
607.20	409.59
607.36	456.40
607.51	444.70
607.67	428.32
607.82	461.09
607.98	388.53
608.13	416.62
608.29	449.38
608.44	451.72
608.60	442.36
608.75	503.22
608.91	418.96
609.06	395.55
609.22	456.40
609.37	390.87
609.53	411.93
609.68	440.02
609.84	416.62
609.99	402.57
610.15	489.17
