SpectraSuite Data File
++++++++++++++++++++++++++++++++++++
Date: Fri Oct 25 12:10:37 EDT 2013
User: price-jones
Dark Spectrum Present: No
Reference Spectrum Present: No
Number of Sampled Component Spectra: 1
Spectrometers: USB2+H05261
Integration Time (usec): 100000 (USB2+H05261)
Spectra Averaged: 1 (USB2+H05261)
Boxcar Smoothing: 0 (USB2+H05261)
Correct for Electrical Dark: No (USB2+H05261)
Strobe/Lamp Enabled: No (USB2+H05261)
Correct for Detector Non-linearity: No (USB2+H05261)
Correct for Stray Light: No (USB2+H05261)
Number of Pixels in Processed Spectrum: 2048
>>>>>Begin Processed Spectral Data<<<<<
365.73	358.10
365.92	358.10
366.12	358.10
366.32	283.20
366.52	257.46
366.72	292.57
366.91	236.39
367.11	189.58
367.31	245.76
367.51	238.73
367.70	208.31
367.90	168.52
368.10	236.39
368.30	196.60
368.49	266.82
368.69	252.78
368.89	224.69
369.09	297.25
369.28	215.33
369.48	315.97
369.68	248.10
369.87	224.69
370.07	234.05
370.27	374.49
370.47	355.76
370.66	362.78
370.86	292.57
371.06	376.83
371.25	374.49
371.45	358.10
371.65	430.66
371.84	339.38
372.04	416.62
372.24	369.80
372.44	341.72
372.63	393.21
372.83	423.64
373.03	428.32
373.22	409.59
373.42	381.51
373.62	435.34
373.81	421.30
374.01	468.11
374.21	463.43
374.40	435.34
374.60	425.98
374.79	484.49
374.99	407.25
375.19	442.36
375.38	397.89
375.58	442.36
375.78	416.62
375.97	482.15
376.17	414.27
376.37	437.68
376.56	463.43
376.76	461.09
376.95	348.74
377.15	346.40
377.35	472.79
377.54	348.74
377.74	294.91
377.93	402.57
378.13	327.68
378.33	458.74
378.52	440.02
378.72	390.87
378.91	447.04
379.11	447.04
379.31	414.27
379.50	362.78
379.70	416.62
379.89	390.87
380.09	451.72
380.28	367.46
380.48	390.87
380.68	379.17
380.87	376.83
381.07	433.00
381.26	425.98
381.46	379.17
381.65	400.23
381.85	390.87
382.04	423.64
382.24	442.36
382.43	425.98
382.63	409.59
382.83	390.87
383.02	409.59
383.22	395.55
383.41	337.04
383.61	386.19
383.80	433.00
384.00	428.32
384.19	397.89
384.39	451.72
384.58	442.36
384.78	472.79
384.97	407.25
385.17	376.83
385.36	407.25
385.56	360.44
385.75	376.83
385.95	337.04
386.14	479.81
386.34	360.44
386.53	421.30
386.72	407.25
386.92	414.27
387.11	362.78
387.31	435.34
387.50	402.57
387.70	390.87
387.89	365.12
388.09	327.68
388.28	383.85
388.48	362.78
388.67	486.83
388.86	411.93
389.06	418.96
389.25	379.17
389.45	458.74
389.64	421.30
389.84	465.77
390.03	461.09
390.22	404.91
390.42	402.57
390.61	433.00
390.81	449.38
391.00	451.72
391.19	416.62
391.39	372.15
391.58	390.87
391.78	344.06
391.97	369.80
392.16	425.98
392.36	395.55
392.55	482.15
392.75	447.04
392.94	325.33
393.13	433.00
393.33	437.68
393.52	423.64
393.71	332.36
393.91	470.45
394.10	468.11
394.29	351.08
394.49	395.55
394.68	381.51
394.88	400.23
395.07	425.98
395.26	456.40
395.46	468.11
395.65	367.46
395.84	407.25
396.04	437.68
396.23	393.21
396.42	388.53
396.62	400.23
396.81	390.87
397.00	407.25
397.19	402.57
397.39	367.46
397.58	400.23
397.77	411.93
397.97	344.06
398.16	358.10
398.35	414.27
398.55	423.64
398.74	362.78
398.93	475.13
399.12	447.04
399.32	425.98
399.51	411.93
399.70	414.27
399.90	411.93
400.09	369.80
400.28	381.51
400.47	379.17
400.67	416.62
400.86	379.17
401.05	418.96
401.24	397.89
401.44	461.09
401.63	449.38
401.82	374.49
402.01	400.23
402.21	418.96
402.40	407.25
402.59	433.00
402.78	418.96
402.97	379.17
403.17	454.06
403.36	444.70
403.55	402.57
403.74	365.12
403.93	433.00
404.13	428.32
404.32	444.70
404.51	381.51
404.70	372.15
404.89	404.91
405.09	482.15
405.28	500.87
405.47	362.78
405.66	393.21
405.85	365.12
406.05	409.59
406.24	383.85
406.43	353.42
406.62	374.49
406.81	360.44
407.00	390.87
407.20	393.21
407.39	379.17
407.58	400.23
407.77	379.17
407.96	409.59
408.15	297.25
408.34	428.32
408.54	407.25
408.73	395.55
408.92	411.93
409.11	456.40
409.30	376.83
409.49	355.76
409.68	456.40
409.87	400.23
410.07	447.04
410.26	444.70
410.45	388.53
410.64	404.91
410.83	440.02
411.02	491.51
411.21	475.13
411.40	411.93
411.59	397.89
411.78	386.19
411.98	374.49
412.17	372.15
412.36	381.51
412.55	409.59
412.74	428.32
412.93	470.45
413.12	418.96
413.31	369.80
413.50	425.98
413.69	465.77
413.88	416.62
414.07	372.15
414.26	369.80
414.45	395.55
414.64	437.68
414.83	477.47
415.02	435.34
415.22	435.34
415.41	418.96
415.60	379.17
415.79	393.21
415.98	409.59
416.17	400.23
416.36	449.38
416.55	430.66
416.74	365.12
416.93	430.66
417.12	409.59
417.31	381.51
417.50	395.55
417.69	421.30
417.88	435.34
418.07	423.64
418.26	411.93
418.45	444.70
418.64	456.40
418.83	414.27
419.02	386.19
419.21	280.86
419.39	407.25
419.58	383.85
419.77	400.23
419.96	416.62
420.15	458.74
420.34	421.30
420.53	423.64
420.72	351.08
420.91	388.53
421.10	397.89
421.29	372.15
421.48	397.89
421.67	374.49
421.86	360.44
422.05	404.91
422.24	435.34
422.43	393.21
422.61	388.53
422.80	418.96
422.99	374.49
423.18	383.85
423.37	465.77
423.56	454.06
423.75	428.32
423.94	425.98
424.13	348.74
424.32	393.21
424.50	395.55
424.69	454.06
424.88	493.85
425.07	486.83
425.26	442.36
425.45	451.72
425.64	379.17
425.83	407.25
426.01	475.13
426.20	418.96
426.39	475.13
426.58	400.23
426.77	390.87
426.96	444.70
427.15	393.21
427.33	397.89
427.52	381.51
427.71	402.57
427.90	440.02
428.09	372.15
428.28	425.98
428.46	337.04
428.65	489.17
428.84	390.87
429.03	400.23
429.22	428.32
429.40	393.21
429.59	280.86
429.78	416.62
429.97	411.93
430.16	386.19
430.34	383.85
430.53	393.21
430.72	421.30
430.91	388.53
431.10	390.87
431.28	367.46
431.47	435.34
431.66	430.66
431.85	365.12
432.03	376.83
432.22	355.76
432.41	351.08
432.60	482.15
432.79	416.62
432.97	407.25
433.16	376.83
433.35	341.72
433.54	386.19
433.72	437.68
433.91	390.87
434.10	447.04
434.28	383.85
434.47	397.89
434.66	437.68
434.85	421.30
435.03	402.57
435.22	465.77
435.41	414.27
435.59	400.23
435.78	365.12
435.97	411.93
436.16	369.80
436.34	409.59
436.53	440.02
436.72	393.21
436.90	461.09
437.09	393.21
437.28	348.74
437.46	383.85
437.65	346.40
437.84	400.23
438.02	390.87
438.21	388.53
438.40	418.96
438.58	365.12
438.77	423.64
438.96	430.66
439.14	449.38
439.33	418.96
439.52	416.62
439.70	489.17
439.89	496.19
440.08	367.46
440.26	383.85
440.45	428.32
440.63	442.36
440.82	386.19
441.01	461.09
441.19	365.12
441.38	348.74
441.57	339.38
441.75	320.65
441.94	383.85
442.12	407.25
442.31	440.02
442.50	388.53
442.68	376.83
442.87	386.19
443.05	367.46
443.24	437.68
443.43	428.32
443.61	442.36
443.80	433.00
443.98	491.51
444.17	440.02
444.35	428.32
444.54	390.87
444.73	360.44
444.91	454.06
445.10	402.57
445.28	386.19
445.47	393.21
445.65	393.21
445.84	447.04
446.02	454.06
446.21	423.64
446.39	496.19
446.58	449.38
446.77	404.91
446.95	411.93
447.14	425.98
447.32	475.13
447.51	458.74
447.69	337.04
447.88	484.49
448.06	470.45
448.25	379.17
448.43	425.98
448.62	386.19
448.80	440.02
448.99	465.77
449.17	428.32
449.36	332.36
449.54	447.04
449.73	292.57
449.91	376.83
450.10	465.77
450.28	414.27
450.46	400.23
450.65	449.38
450.83	442.36
451.02	449.38
451.20	437.68
451.39	393.21
451.57	348.74
451.76	393.21
451.94	402.57
452.13	440.02
452.31	353.42
452.49	449.38
452.68	407.25
452.86	388.53
453.05	533.64
453.23	376.83
453.42	416.62
453.60	421.30
453.78	414.27
453.97	428.32
454.15	425.98
454.34	365.12
454.52	458.74
454.70	416.62
454.89	400.23
455.07	430.66
455.26	437.68
455.44	404.91
455.62	425.98
455.81	444.70
455.99	470.45
456.17	372.15
456.36	388.53
456.54	418.96
456.73	344.06
456.91	400.23
457.09	402.57
457.28	397.89
457.46	355.76
457.64	353.42
457.83	369.80
458.01	430.66
458.19	425.98
458.38	383.85
458.56	447.04
458.74	435.34
458.93	449.38
459.11	395.55
459.29	299.59
459.48	454.06
459.66	472.79
459.84	402.57
460.03	484.49
460.21	500.87
460.39	442.36
460.57	470.45
460.76	444.70
460.94	430.66
461.12	491.51
461.31	418.96
461.49	404.91
461.67	397.89
461.85	407.25
462.04	372.15
462.22	791.10
462.40	451.72
462.59	402.57
462.77	472.79
462.95	407.25
463.13	421.30
463.32	409.59
463.50	409.59
463.68	390.87
463.86	353.42
464.05	411.93
464.23	468.11
464.41	418.96
464.59	346.40
464.78	440.02
464.96	414.27
465.14	451.72
465.32	416.62
465.50	428.32
465.69	400.23
465.87	428.32
466.05	425.98
466.23	458.74
466.41	346.40
466.60	449.38
466.78	428.32
466.96	411.93
467.14	400.23
467.32	421.30
467.51	411.93
467.69	414.27
467.87	442.36
468.05	411.93
468.23	397.89
468.41	479.81
468.60	437.68
468.78	372.15
468.96	477.47
469.14	482.15
469.32	369.80
469.50	400.23
469.69	402.57
469.87	409.59
470.05	400.23
470.23	437.68
470.41	360.44
470.59	369.80
470.77	458.74
470.95	440.02
471.14	461.09
471.32	348.74
471.50	456.40
471.68	404.91
471.86	425.98
472.04	355.76
472.22	386.19
472.40	388.53
472.58	395.55
472.77	402.57
472.95	409.59
473.13	470.45
473.31	397.89
473.49	358.10
473.67	437.68
473.85	437.68
474.03	472.79
474.21	386.19
474.39	484.49
474.57	472.79
474.75	470.45
474.93	393.21
475.12	437.68
475.30	451.72
475.48	308.95
475.66	433.00
475.84	435.34
476.02	433.00
476.20	482.15
476.38	437.68
476.56	447.04
476.74	421.30
476.92	425.98
477.10	421.30
477.28	437.68
477.46	418.96
477.64	409.59
477.82	449.38
478.00	402.57
478.18	418.96
478.36	376.83
478.54	383.85
478.72	454.06
478.90	425.98
479.08	423.64
479.26	404.91
479.44	332.36
479.62	463.43
479.80	416.62
479.98	409.59
480.16	454.06
480.34	444.70
480.52	374.49
480.70	470.45
480.88	372.15
481.06	435.34
481.24	383.85
481.41	367.46
481.59	386.19
481.77	322.99
481.95	351.08
482.13	379.17
482.31	416.62
482.49	388.53
482.67	409.59
482.85	468.11
483.03	472.79
483.21	348.74
483.39	355.76
483.57	402.57
483.74	421.30
483.92	353.42
484.10	425.98
484.28	428.32
484.46	493.85
484.64	470.45
484.82	374.49
485.00	435.34
485.18	409.59
485.35	409.59
485.53	433.00
485.71	503.22
485.89	402.57
486.07	344.06
486.25	435.34
486.43	440.02
486.61	381.51
486.78	435.34
486.96	414.27
487.14	376.83
487.32	397.89
487.50	381.51
487.68	461.09
487.85	416.62
488.03	423.64
488.21	409.59
488.39	376.83
488.57	416.62
488.75	444.70
488.92	463.43
489.10	477.47
489.28	440.02
489.46	425.98
489.64	404.91
489.81	477.47
489.99	386.19
490.17	397.89
490.35	442.36
490.53	447.04
490.70	456.40
490.88	454.06
491.06	404.91
491.24	414.27
491.41	416.62
491.59	397.89
491.77	374.49
491.95	376.83
492.13	402.57
492.30	421.30
492.48	344.06
492.66	402.57
492.84	397.89
493.01	463.43
493.19	423.64
493.37	409.59
493.54	456.40
493.72	407.25
493.90	421.30
494.08	451.72
494.25	437.68
494.43	425.98
494.61	482.15
494.79	407.25
494.96	423.64
495.14	400.23
495.32	465.77
495.49	425.98
495.67	435.34
495.85	393.21
496.02	444.70
496.20	433.00
496.38	421.30
496.55	397.89
496.73	444.70
496.91	404.91
497.09	358.10
497.26	503.22
497.44	470.45
497.62	393.21
497.79	475.13
497.97	440.02
498.14	400.23
498.32	440.02
498.50	397.89
498.67	358.10
498.85	440.02
499.03	411.93
499.20	440.02
499.38	425.98
499.56	479.81
499.73	475.13
499.91	425.98
500.08	358.10
500.26	402.57
500.44	407.25
500.61	395.55
500.79	386.19
500.97	397.89
501.14	407.25
501.32	358.10
501.49	421.30
501.67	421.30
501.84	472.79
502.02	308.95
502.20	433.00
502.37	376.83
502.55	442.36
502.72	409.59
502.90	404.91
503.07	327.68
503.25	353.42
503.43	430.66
503.60	355.76
503.78	465.77
503.95	440.02
504.13	437.68
504.30	505.56
504.48	428.32
504.65	409.59
504.83	456.40
505.01	472.79
505.18	397.89
505.36	425.98
505.53	475.13
505.71	437.68
505.88	444.70
506.06	425.98
506.23	388.53
506.41	374.49
506.58	479.81
506.76	425.98
506.93	425.98
507.11	369.80
507.28	376.83
507.46	395.55
507.63	388.53
507.81	414.27
507.98	442.36
508.16	440.02
508.33	437.68
508.50	442.36
508.68	369.80
508.85	409.59
509.03	423.64
509.20	447.04
509.38	395.55
509.55	425.98
509.73	395.55
509.90	397.89
510.08	332.36
510.25	386.19
510.42	414.27
510.60	477.47
510.77	444.70
510.95	395.55
511.12	404.91
511.30	397.89
511.47	421.30
511.64	503.22
511.82	395.55
511.99	386.19
512.17	393.21
512.34	397.89
512.51	388.53
512.69	372.15
512.86	451.72
513.04	475.13
513.21	442.36
513.38	423.64
513.56	348.74
513.73	454.06
513.90	435.34
514.08	355.76
514.25	404.91
514.43	409.59
514.60	407.25
514.77	369.80
514.95	360.44
515.12	414.27
515.29	447.04
515.47	402.57
515.64	416.62
515.81	456.40
515.99	458.74
516.16	449.38
516.33	454.06
516.51	484.49
516.68	411.93
516.85	402.57
517.03	376.83
517.20	367.46
517.37	395.55
517.54	355.76
517.72	353.42
517.89	383.85
518.06	409.59
518.24	425.98
518.41	458.74
518.58	500.87
518.75	355.76
518.93	503.22
519.10	397.89
519.27	290.23
519.45	388.53
519.62	461.09
519.79	451.72
519.96	484.49
520.14	360.44
520.31	376.83
520.48	381.51
520.65	430.66
520.83	369.80
521.00	449.38
521.17	461.09
521.34	477.47
521.52	409.59
521.69	440.02
521.86	390.87
522.03	451.72
522.20	472.79
522.38	451.72
522.55	421.30
522.72	395.55
522.89	376.83
523.07	479.81
523.24	393.21
523.41	428.32
523.58	414.27
523.75	421.30
523.92	418.96
524.10	400.23
524.27	393.21
524.44	433.00
524.61	400.23
524.78	351.08
524.96	482.15
525.13	404.91
525.30	465.77
525.47	437.68
525.64	407.25
525.81	421.30
525.98	428.32
526.16	393.21
526.33	344.06
526.50	437.68
526.67	425.98
526.84	362.78
527.01	468.11
527.18	365.12
527.36	358.10
527.53	360.44
527.70	423.64
527.87	393.21
528.04	407.25
528.21	390.87
528.38	505.56
528.55	407.25
528.72	423.64
528.89	496.19
529.07	374.49
529.24	449.38
529.41	428.32
529.58	444.70
529.75	465.77
529.92	407.25
530.09	376.83
530.26	437.68
530.43	337.04
530.60	367.46
530.77	482.15
530.94	437.68
531.11	402.57
531.28	402.57
531.46	428.32
531.63	461.09
531.80	433.00
531.97	456.40
532.14	374.49
532.31	428.32
532.48	390.87
532.65	498.53
532.82	451.72
532.99	400.23
533.16	397.89
533.33	379.17
533.50	334.70
533.67	376.83
533.84	454.06
534.01	404.91
534.18	407.25
534.35	351.08
534.52	425.98
534.69	465.77
534.86	346.40
535.03	454.06
535.20	395.55
535.37	416.62
535.54	444.70
535.71	458.74
535.88	437.68
536.05	402.57
536.22	374.49
536.38	341.72
536.55	465.77
536.72	407.25
536.89	470.45
537.06	400.23
537.23	414.27
537.40	451.72
537.57	374.49
537.74	472.79
537.91	451.72
538.08	402.57
538.25	458.74
538.42	395.55
538.59	423.64
538.75	407.25
538.92	423.64
539.09	416.62
539.26	421.30
539.43	444.70
539.60	451.72
539.77	393.21
539.94	374.49
540.11	416.62
540.28	388.53
540.44	449.38
540.61	404.91
540.78	409.59
540.95	470.45
541.12	456.40
541.29	351.08
541.46	437.68
541.62	418.96
541.79	341.72
541.96	468.11
542.13	447.04
542.30	470.45
542.47	355.76
542.63	433.00
542.80	376.83
542.97	538.32
543.14	440.02
543.31	482.15
543.48	379.17
543.64	372.15
543.81	407.25
543.98	404.91
544.15	390.87
544.32	388.53
544.48	409.59
544.65	369.80
544.82	379.17
544.99	400.23
545.16	461.09
545.32	411.93
545.49	381.51
545.66	447.04
545.83	440.02
546.00	409.59
546.16	414.27
546.33	407.25
546.50	397.89
546.67	376.83
546.83	463.43
547.00	451.72
547.17	362.78
547.34	404.91
547.50	433.00
547.67	421.30
547.84	414.27
548.00	442.36
548.17	386.19
548.34	435.34
548.51	372.15
548.67	421.30
548.84	379.17
549.01	416.62
549.18	414.27
549.34	390.87
549.51	402.57
549.68	449.38
549.84	451.72
550.01	393.21
550.18	491.51
550.34	447.04
550.51	463.43
550.68	456.40
550.84	421.30
551.01	407.25
551.18	407.25
551.34	456.40
551.51	397.89
551.68	416.62
551.84	425.98
552.01	472.79
552.18	421.30
552.34	475.13
552.51	411.93
552.68	451.72
552.84	383.85
553.01	355.76
553.18	411.93
553.34	416.62
553.51	395.55
553.67	397.89
553.84	449.38
554.01	418.96
554.17	407.25
554.34	395.55
554.51	458.74
554.67	397.89
554.84	489.17
555.00	407.25
555.17	388.53
555.33	444.70
555.50	435.34
555.67	395.55
555.83	388.53
556.00	425.98
556.16	514.92
556.33	451.72
556.50	430.66
556.66	451.72
556.83	381.51
556.99	337.04
557.16	390.87
557.32	437.68
557.49	372.15
557.65	383.85
557.82	362.78
557.98	444.70
558.15	362.78
558.32	486.83
558.48	418.96
558.65	456.40
558.81	376.83
558.98	430.66
559.14	411.93
559.31	400.23
559.47	486.83
559.64	388.53
559.80	383.85
559.97	411.93
560.13	360.44
560.30	421.30
560.46	454.06
560.63	397.89
560.79	425.98
560.96	477.47
561.12	407.25
561.29	390.87
561.45	330.02
561.61	421.30
561.78	416.62
561.94	367.46
562.11	376.83
562.27	414.27
562.44	355.76
562.60	393.21
562.77	425.98
562.93	468.11
563.10	510.24
563.26	381.51
563.42	477.47
563.59	390.87
563.75	346.40
563.92	421.30
564.08	430.66
564.24	428.32
564.41	430.66
564.57	383.85
564.74	505.56
564.90	449.38
565.07	461.09
565.23	402.57
565.39	442.36
565.56	374.49
565.72	425.98
565.88	395.55
566.05	402.57
566.21	482.15
566.38	472.79
566.54	411.93
566.70	388.53
566.87	374.49
567.03	479.81
567.19	393.21
567.36	433.00
567.52	418.96
567.68	433.00
567.85	435.34
568.01	442.36
568.17	433.00
568.34	397.89
568.50	451.72
568.66	330.02
568.83	521.94
568.99	351.08
569.15	360.44
569.32	351.08
569.48	353.42
569.64	475.13
569.81	491.51
569.97	465.77
570.13	479.81
570.30	379.17
570.46	435.34
570.62	416.62
570.78	423.64
570.95	430.66
571.11	484.49
571.27	512.58
571.43	376.83
571.60	411.93
571.76	409.59
571.92	477.47
572.09	491.51
572.25	369.80
572.41	390.87
572.57	348.74
572.74	440.02
572.90	418.96
573.06	379.17
573.22	475.13
573.38	404.91
573.55	390.87
573.71	451.72
573.87	409.59
574.03	372.15
574.20	425.98
574.36	418.96
574.52	344.06
574.68	400.23
574.84	402.57
575.01	390.87
575.17	461.09
575.33	358.10
575.49	428.32
575.65	397.89
575.82	437.68
575.98	433.00
576.14	362.78
576.30	409.59
576.46	454.06
576.62	400.23
576.79	440.02
576.95	484.49
577.11	437.68
577.27	404.91
577.43	444.70
577.59	390.87
577.75	428.32
577.92	416.62
578.08	376.83
578.24	395.55
578.40	454.06
578.56	442.36
578.72	425.98
578.88	458.74
579.04	470.45
579.21	440.02
579.37	388.53
579.53	334.70
579.69	421.30
579.85	397.89
580.01	430.66
580.17	435.34
580.33	414.27
580.49	397.89
580.65	390.87
580.82	449.38
580.98	454.06
581.14	414.27
581.30	489.17
581.46	402.57
581.62	500.87
581.78	400.23
581.94	468.11
582.10	442.36
582.26	423.64
582.42	425.98
582.58	379.17
582.74	395.55
582.90	395.55
583.06	381.51
583.22	395.55
583.38	376.83
583.54	402.57
583.70	437.68
583.86	362.78
584.02	468.11
584.18	402.57
584.34	440.02
584.50	437.68
584.66	395.55
584.82	433.00
584.98	397.89
585.14	411.93
585.30	468.11
585.46	433.00
585.62	423.64
585.78	472.79
585.94	449.38
586.10	435.34
586.26	425.98
586.42	475.13
586.58	416.62
586.74	433.00
586.90	416.62
587.06	421.30
587.22	442.36
587.38	320.65
587.54	383.85
587.70	418.96
587.86	437.68
588.02	444.70
588.18	416.62
588.34	421.30
588.49	386.19
588.65	388.53
588.81	423.64
588.97	390.87
589.13	393.21
589.29	400.23
589.45	395.55
589.61	407.25
589.77	388.53
589.93	423.64
590.08	414.27
590.24	468.11
590.40	362.78
590.56	461.09
590.72	479.81
590.88	416.62
591.04	388.53
591.20	430.66
591.35	444.70
591.51	449.38
591.67	344.06
591.83	369.80
591.99	365.12
592.15	433.00
592.31	360.44
592.46	433.00
592.62	440.02
592.78	435.34
592.94	437.68
593.10	407.25
593.26	444.70
593.41	444.70
593.57	428.32
593.73	339.38
593.89	386.19
594.05	407.25
594.20	395.55
594.36	386.19
594.52	416.62
594.68	402.57
594.84	386.19
594.99	470.45
595.15	409.59
595.31	421.30
595.47	559.39
595.62	421.30
595.78	433.00
595.94	416.62
596.10	442.36
596.25	444.70
596.41	404.91
596.57	430.66
596.73	409.59
596.88	433.00
597.04	461.09
597.20	390.87
597.36	423.64
597.51	465.77
597.67	407.25
597.83	440.02
597.99	463.43
598.14	402.57
598.30	479.81
598.46	411.93
598.61	458.74
598.77	465.77
598.93	505.56
599.09	442.36
599.24	418.96
599.40	390.87
599.56	444.70
599.71	442.36
599.87	372.15
600.03	386.19
600.18	421.30
600.34	390.87
600.50	458.74
600.65	388.53
600.81	435.34
600.97	454.06
601.12	444.70
601.28	454.06
601.44	360.44
601.59	381.51
601.75	444.70
601.91	379.17
602.06	388.53
602.22	404.91
602.37	388.53
602.53	402.57
602.69	416.62
602.84	372.15
603.00	491.51
603.16	468.11
603.31	425.98
603.47	528.96
603.62	524.28
603.78	390.87
603.94	393.21
604.09	451.72
604.25	409.59
604.40	428.32
604.56	447.04
604.71	418.96
604.87	437.68
605.03	435.34
605.18	477.47
605.34	461.09
605.49	451.72
605.65	367.46
605.80	510.24
605.96	355.76
606.12	442.36
606.27	503.22
606.43	362.78
606.58	456.40
606.74	320.65
606.89	425.98
607.05	397.89
607.20	355.76
607.36	479.81
607.51	407.25
607.67	407.25
607.82	381.51
607.98	395.55
608.13	351.08
608.29	421.30
608.44	463.43
608.60	362.78
608.75	388.53
608.91	358.10
609.06	423.64
609.22	390.87
609.37	454.06
609.53	430.66
609.68	411.93
609.84	442.36
609.99	411.93
610.15	404.91
