SpectraSuite Data File
++++++++++++++++++++++++++++++++++++
Date: Fri Oct 25 12:10:41 EDT 2013
User: price-jones
Dark Spectrum Present: No
Reference Spectrum Present: No
Number of Sampled Component Spectra: 1
Spectrometers: USB2+H05261
Integration Time (usec): 100000 (USB2+H05261)
Spectra Averaged: 1 (USB2+H05261)
Boxcar Smoothing: 0 (USB2+H05261)
Correct for Electrical Dark: No (USB2+H05261)
Strobe/Lamp Enabled: No (USB2+H05261)
Correct for Detector Non-linearity: No (USB2+H05261)
Correct for Stray Light: No (USB2+H05261)
Number of Pixels in Processed Spectrum: 2048
>>>>>Begin Processed Spectral Data<<<<<
365.73	348.74
365.92	348.74
366.12	348.74
366.32	315.97
366.52	269.16
366.72	210.65
366.91	229.37
367.11	290.23
367.31	257.46
367.51	299.59
367.70	238.73
367.90	299.59
368.10	215.33
368.30	294.91
368.49	259.80
368.69	252.78
368.89	245.76
369.09	252.78
369.28	250.44
369.48	224.69
369.68	241.08
369.87	283.20
370.07	330.02
370.27	311.29
370.47	306.61
370.66	360.44
370.86	374.49
371.06	372.15
371.25	390.87
371.45	341.72
371.65	458.74
371.84	351.08
372.04	376.83
372.24	428.32
372.44	376.83
372.63	449.38
372.83	414.27
373.03	376.83
373.22	393.21
373.42	425.98
373.62	393.21
373.81	372.15
374.01	381.51
374.21	393.21
374.40	400.23
374.60	388.53
374.79	362.78
374.99	397.89
375.19	454.06
375.38	454.06
375.58	393.21
375.78	411.93
375.97	402.57
376.17	430.66
376.37	404.91
376.56	449.38
376.76	379.17
376.95	414.27
377.15	430.66
377.35	383.85
377.54	344.06
377.74	358.10
377.93	489.17
378.13	407.25
378.33	451.72
378.52	400.23
378.72	383.85
378.91	418.96
379.11	451.72
379.31	360.44
379.50	444.70
379.70	386.19
379.89	379.17
380.09	351.08
380.28	411.93
380.48	451.72
380.68	400.23
380.87	376.83
381.07	421.30
381.26	496.19
381.46	416.62
381.65	400.23
381.85	414.27
382.04	402.57
382.24	395.55
382.43	418.96
382.63	437.68
382.83	454.06
383.02	404.91
383.22	425.98
383.41	388.53
383.61	433.00
383.80	339.38
384.00	423.64
384.19	325.33
384.39	376.83
384.58	337.04
384.78	409.59
384.97	348.74
385.17	400.23
385.36	423.64
385.56	409.59
385.75	388.53
385.95	397.89
386.14	358.10
386.34	416.62
386.53	458.74
386.72	383.85
386.92	400.23
387.11	393.21
387.31	430.66
387.50	327.68
387.70	425.98
387.89	468.11
388.09	418.96
388.28	512.58
388.48	330.02
388.67	332.36
388.86	334.70
389.06	390.87
389.25	433.00
389.45	393.21
389.64	388.53
389.84	451.72
390.03	430.66
390.22	402.57
390.42	395.55
390.61	383.85
390.81	454.06
391.00	393.21
391.19	475.13
391.39	416.62
391.58	376.83
391.78	390.87
391.97	393.21
392.16	355.76
392.36	416.62
392.55	388.53
392.75	411.93
392.94	372.15
393.13	498.53
393.33	442.36
393.52	428.32
393.71	454.06
393.91	404.91
394.10	386.19
394.29	409.59
394.49	372.15
394.68	388.53
394.88	433.00
395.07	491.51
395.26	428.32
395.46	355.76
395.65	388.53
395.84	388.53
396.04	463.43
396.23	440.02
396.42	430.66
396.62	393.21
396.81	435.34
397.00	458.74
397.19	360.44
397.39	379.17
397.58	362.78
397.77	409.59
397.97	409.59
398.16	418.96
398.35	454.06
398.55	383.85
398.74	374.49
398.93	402.57
399.12	402.57
399.32	416.62
399.51	447.04
399.70	353.42
399.90	388.53
400.09	503.22
400.28	379.17
400.47	470.45
400.67	433.00
400.86	442.36
401.05	458.74
401.24	433.00
401.44	435.34
401.63	379.17
401.82	430.66
402.01	360.44
402.21	379.17
402.40	451.72
402.59	407.25
402.78	334.70
402.97	362.78
403.17	374.49
403.36	463.43
403.55	400.23
403.74	468.11
403.93	435.34
404.13	421.30
404.32	381.51
404.51	393.21
404.70	400.23
404.89	369.80
405.09	468.11
405.28	369.80
405.47	498.53
405.66	444.70
405.85	454.06
406.05	416.62
406.24	395.55
406.43	362.78
406.62	402.57
406.81	369.80
407.00	411.93
407.20	425.98
407.39	430.66
407.58	341.72
407.77	425.98
407.96	365.12
408.15	299.59
408.34	404.91
408.54	365.12
408.73	442.36
408.92	393.21
409.11	444.70
409.30	465.77
409.49	348.74
409.68	444.70
409.87	367.46
410.07	425.98
410.26	437.68
410.45	428.32
410.64	337.04
410.83	411.93
411.02	430.66
411.21	447.04
411.40	400.23
411.59	428.32
411.78	447.04
411.98	346.40
412.17	418.96
412.36	416.62
412.55	475.13
412.74	365.12
412.93	493.85
413.12	346.40
413.31	393.21
413.50	388.53
413.69	341.72
413.88	437.68
414.07	393.21
414.26	369.80
414.45	409.59
414.64	416.62
414.83	437.68
415.02	397.89
415.22	444.70
415.41	421.30
415.60	365.12
415.79	449.38
415.98	423.64
416.17	383.85
416.36	454.06
416.55	458.74
416.74	435.34
416.93	411.93
417.12	409.59
417.31	386.19
417.50	390.87
417.69	407.25
417.88	440.02
418.07	395.55
418.26	348.74
418.45	458.74
418.64	402.57
418.83	477.47
419.02	442.36
419.21	421.30
419.39	376.83
419.58	463.43
419.77	374.49
419.96	404.91
420.15	402.57
420.34	379.17
420.53	416.62
420.72	489.17
420.91	393.21
421.10	388.53
421.29	461.09
421.48	423.64
421.67	416.62
421.86	397.89
422.05	400.23
422.24	404.91
422.43	372.15
422.61	409.59
422.80	386.19
422.99	397.89
423.18	332.36
423.37	395.55
423.56	484.49
423.75	372.15
423.94	381.51
424.13	358.10
424.32	386.19
424.50	458.74
424.69	379.17
424.88	388.53
425.07	430.66
425.26	374.49
425.45	463.43
425.64	404.91
425.83	379.17
426.01	421.30
426.20	313.63
426.39	360.44
426.58	374.49
426.77	390.87
426.96	425.98
427.15	414.27
427.33	322.99
427.52	414.27
427.71	369.80
427.90	376.83
428.09	407.25
428.28	390.87
428.46	430.66
428.65	428.32
428.84	435.34
429.03	390.87
429.22	444.70
429.40	362.78
429.59	372.15
429.78	386.19
429.97	327.68
430.16	449.38
430.34	449.38
430.53	360.44
430.72	369.80
430.91	339.38
431.10	407.25
431.28	423.64
431.47	388.53
431.66	386.19
431.85	416.62
432.03	433.00
432.22	503.22
432.41	418.96
432.60	409.59
432.79	369.80
432.97	465.77
433.16	430.66
433.35	388.53
433.54	442.36
433.72	449.38
433.91	425.98
434.10	383.85
434.28	390.87
434.47	421.30
434.66	440.02
434.85	395.55
435.03	440.02
435.22	423.64
435.41	386.19
435.59	388.53
435.78	383.85
435.97	365.12
436.16	433.00
436.34	416.62
436.53	393.21
436.72	456.40
436.90	393.21
437.09	379.17
437.28	433.00
437.46	372.15
437.65	393.21
437.84	372.15
438.02	416.62
438.21	451.72
438.40	447.04
438.58	416.62
438.77	332.36
438.96	395.55
439.14	379.17
439.33	440.02
439.52	440.02
439.70	360.44
439.89	381.51
440.08	400.23
440.26	367.46
440.45	390.87
440.63	397.89
440.82	489.17
441.01	393.21
441.19	447.04
441.38	402.57
441.57	358.10
441.75	442.36
441.94	433.00
442.12	339.38
442.31	390.87
442.50	437.68
442.68	332.36
442.87	395.55
443.05	437.68
443.24	351.08
443.43	435.34
443.61	393.21
443.80	390.87
443.98	454.06
444.17	433.00
444.35	407.25
444.54	430.66
444.73	409.59
444.91	449.38
445.10	372.15
445.28	395.55
445.47	358.10
445.65	437.68
445.84	416.62
446.02	447.04
446.21	409.59
446.39	351.08
446.58	447.04
446.77	458.74
446.95	411.93
447.14	425.98
447.32	470.45
447.51	407.25
447.69	454.06
447.88	421.30
448.06	388.53
448.25	416.62
448.43	402.57
448.62	400.23
448.80	423.64
448.99	468.11
449.17	404.91
449.36	402.57
449.54	421.30
449.73	362.78
449.91	369.80
450.10	402.57
450.28	521.94
450.46	468.11
450.65	437.68
450.83	379.17
451.02	458.74
451.20	386.19
451.39	400.23
451.57	519.60
451.76	381.51
451.94	372.15
452.13	421.30
452.31	477.47
452.49	449.38
452.68	395.55
452.86	393.21
453.05	400.23
453.23	414.27
453.42	386.19
453.60	367.46
453.78	383.85
453.97	376.83
454.15	372.15
454.34	409.59
454.52	383.85
454.70	463.43
454.89	449.38
455.07	379.17
455.26	344.06
455.44	442.36
455.62	414.27
455.81	416.62
455.99	428.32
456.17	393.21
456.36	421.30
456.54	411.93
456.73	411.93
456.91	475.13
457.09	383.85
457.28	425.98
457.46	360.44
457.64	416.62
457.83	362.78
458.01	390.87
458.19	425.98
458.38	381.51
458.56	414.27
458.74	374.49
458.93	383.85
459.11	388.53
459.29	414.27
459.48	386.19
459.66	475.13
459.84	442.36
460.03	418.96
460.21	388.53
460.39	404.91
460.57	421.30
460.76	411.93
460.94	407.25
461.12	414.27
461.31	458.74
461.49	390.87
461.67	414.27
461.85	400.23
462.04	369.80
462.22	720.88
462.40	472.79
462.59	421.30
462.77	463.43
462.95	372.15
463.13	386.19
463.32	414.27
463.50	397.89
463.68	428.32
463.86	355.76
464.05	367.46
464.23	458.74
464.41	402.57
464.59	365.12
464.78	421.30
464.96	428.32
465.14	416.62
465.32	411.93
465.50	447.04
465.69	402.57
465.87	306.61
466.05	411.93
466.23	376.83
466.41	430.66
466.60	482.15
466.78	425.98
466.96	416.62
467.14	456.40
467.32	411.93
467.51	379.17
467.69	437.68
467.87	444.70
468.05	411.93
468.23	400.23
468.41	437.68
468.60	444.70
468.78	409.59
468.96	451.72
469.14	482.15
469.32	372.15
469.50	411.93
469.69	388.53
469.87	390.87
470.05	393.21
470.23	416.62
470.41	447.04
470.59	358.10
470.77	407.25
470.95	397.89
471.14	433.00
471.32	369.80
471.50	447.04
471.68	430.66
471.86	425.98
472.04	414.27
472.22	367.46
472.40	383.85
472.58	463.43
472.77	449.38
472.95	418.96
473.13	428.32
473.31	463.43
473.49	365.12
473.67	362.78
473.85	477.47
474.03	433.00
474.21	435.34
474.39	428.32
474.57	423.64
474.75	358.10
474.93	365.12
475.12	390.87
475.30	383.85
475.48	390.87
475.66	395.55
475.84	435.34
476.02	454.06
476.20	372.15
476.38	365.12
476.56	493.85
476.74	383.85
476.92	381.51
477.10	400.23
477.28	362.78
477.46	400.23
477.64	477.47
477.82	381.51
478.00	388.53
478.18	365.12
478.36	430.66
478.54	369.80
478.72	430.66
478.90	430.66
479.08	440.02
479.26	393.21
479.44	409.59
479.62	416.62
479.80	381.51
479.98	433.00
480.16	418.96
480.34	325.33
480.52	348.74
480.70	383.85
480.88	402.57
481.06	454.06
481.24	414.27
481.41	381.51
481.59	433.00
481.77	344.06
481.95	423.64
482.13	400.23
482.31	390.87
482.49	381.51
482.67	400.23
482.85	341.72
483.03	423.64
483.21	388.53
483.39	365.12
483.57	348.74
483.74	372.15
483.92	351.08
484.10	425.98
484.28	388.53
484.46	402.57
484.64	433.00
484.82	407.25
485.00	311.29
485.18	416.62
485.35	414.27
485.53	367.46
485.71	425.98
485.89	430.66
486.07	395.55
486.25	421.30
486.43	414.27
486.61	404.91
486.78	430.66
486.96	451.72
487.14	390.87
487.32	435.34
487.50	454.06
487.68	414.27
487.85	397.89
488.03	465.77
488.21	468.11
488.39	433.00
488.57	470.45
488.75	404.91
488.92	528.96
489.10	397.89
489.28	442.36
489.46	411.93
489.64	449.38
489.81	414.27
489.99	435.34
490.17	390.87
490.35	400.23
490.53	428.32
490.70	440.02
490.88	409.59
491.06	369.80
491.24	411.93
491.41	386.19
491.59	444.70
491.77	362.78
491.95	404.91
492.13	411.93
492.30	428.32
492.48	444.70
492.66	365.12
492.84	409.59
493.01	440.02
493.19	447.04
493.37	397.89
493.54	404.91
493.72	458.74
493.90	393.21
494.08	479.81
494.25	414.27
494.43	369.80
494.61	390.87
494.79	388.53
494.96	379.17
495.14	500.87
495.32	365.12
495.49	402.57
495.67	425.98
495.85	496.19
496.02	400.23
496.20	381.51
496.38	472.79
496.55	484.49
496.73	425.98
496.91	468.11
497.09	449.38
497.26	430.66
497.44	454.06
497.62	395.55
497.79	440.02
497.97	433.00
498.14	484.49
498.32	393.21
498.50	447.04
498.67	365.12
498.85	418.96
499.03	383.85
499.20	433.00
499.38	362.78
499.56	402.57
499.73	461.09
499.91	416.62
500.08	414.27
500.26	407.25
500.44	397.89
500.61	414.27
500.79	381.51
500.97	428.32
501.14	440.02
501.32	332.36
501.49	423.64
501.67	444.70
501.84	472.79
502.02	372.15
502.20	430.66
502.37	386.19
502.55	390.87
502.72	369.80
502.90	383.85
503.07	283.20
503.25	458.74
503.43	390.87
503.60	435.34
503.78	360.44
503.95	451.72
504.13	414.27
504.30	489.17
504.48	416.62
504.65	430.66
504.83	386.19
505.01	472.79
505.18	376.83
505.36	456.40
505.53	430.66
505.71	407.25
505.88	458.74
506.06	374.49
506.23	421.30
506.41	414.27
506.58	374.49
506.76	458.74
506.93	430.66
507.11	444.70
507.28	397.89
507.46	393.21
507.63	404.91
507.81	489.17
507.98	425.98
508.16	430.66
508.33	381.51
508.50	430.66
508.68	388.53
508.85	395.55
509.03	393.21
509.20	407.25
509.38	423.64
509.55	447.04
509.73	447.04
509.90	454.06
510.08	428.32
510.25	404.91
510.42	461.09
510.60	437.68
510.77	475.13
510.95	386.19
511.12	404.91
511.30	407.25
511.47	425.98
511.64	491.51
511.82	414.27
511.99	386.19
512.17	430.66
512.34	437.68
512.51	411.93
512.69	400.23
512.86	456.40
513.04	500.87
513.21	425.98
513.38	376.83
513.56	353.42
513.73	449.38
513.90	390.87
514.08	428.32
514.25	421.30
514.43	423.64
514.60	472.79
514.77	407.25
514.95	458.74
515.12	437.68
515.29	472.79
515.47	489.17
515.64	393.21
515.81	376.83
515.99	428.32
516.16	498.53
516.33	423.64
516.51	454.06
516.68	500.87
516.85	433.00
517.03	423.64
517.20	346.40
517.37	435.34
517.54	362.78
517.72	355.76
517.89	458.74
518.06	414.27
518.24	491.51
518.41	376.83
518.58	383.85
518.75	414.27
518.93	397.89
519.10	407.25
519.27	430.66
519.45	409.59
519.62	458.74
519.79	442.36
519.96	486.83
520.14	435.34
520.31	376.83
520.48	386.19
520.65	416.62
520.83	400.23
521.00	390.87
521.17	365.12
521.34	358.10
521.52	411.93
521.69	381.51
521.86	458.74
522.03	418.96
522.20	423.64
522.38	381.51
522.55	442.36
522.72	400.23
522.89	400.23
523.07	456.40
523.24	337.04
523.41	414.27
523.58	442.36
523.75	465.77
523.92	365.12
524.10	409.59
524.27	393.21
524.44	376.83
524.61	500.87
524.78	395.55
524.96	348.74
525.13	397.89
525.30	456.40
525.47	414.27
525.64	449.38
525.81	390.87
525.98	397.89
526.16	418.96
526.33	355.76
526.50	407.25
526.67	395.55
526.84	315.97
527.01	409.59
527.18	411.93
527.36	360.44
527.53	395.55
527.70	486.83
527.87	367.46
528.04	416.62
528.21	362.78
528.38	402.57
528.55	386.19
528.72	414.27
528.89	435.34
529.07	430.66
529.24	362.78
529.41	404.91
529.58	418.96
529.75	435.34
529.92	463.43
530.09	418.96
530.26	416.62
530.43	407.25
530.60	395.55
530.77	486.83
530.94	463.43
531.11	437.68
531.28	383.85
531.46	393.21
531.63	451.72
531.80	430.66
531.97	456.40
532.14	409.59
532.31	327.68
532.48	435.34
532.65	407.25
532.82	461.09
532.99	402.57
533.16	400.23
533.33	416.62
533.50	416.62
533.67	292.57
533.84	449.38
534.01	463.43
534.18	430.66
534.35	449.38
534.52	430.66
534.69	351.08
534.86	449.38
535.03	440.02
535.20	344.06
535.37	386.19
535.54	416.62
535.71	383.85
535.88	393.21
536.05	395.55
536.22	433.00
536.38	344.06
536.55	414.27
536.72	437.68
536.89	407.25
537.06	423.64
537.23	351.08
537.40	386.19
537.57	379.17
537.74	472.79
537.91	308.95
538.08	400.23
538.25	372.15
538.42	379.17
538.59	463.43
538.75	428.32
538.92	355.76
539.09	425.98
539.26	362.78
539.43	430.66
539.60	418.96
539.77	461.09
539.94	451.72
540.11	444.70
540.28	407.25
540.44	447.04
540.61	374.49
540.78	374.49
540.95	449.38
541.12	430.66
541.29	418.96
541.46	461.09
541.62	411.93
541.79	454.06
541.96	381.51
542.13	388.53
542.30	402.57
542.47	477.47
542.63	411.93
542.80	430.66
542.97	407.25
543.14	381.51
543.31	463.43
543.48	442.36
543.64	411.93
543.81	390.87
543.98	362.78
544.15	442.36
544.32	423.64
544.48	411.93
544.65	447.04
544.82	451.72
544.99	341.72
545.16	409.59
545.32	442.36
545.49	449.38
545.66	430.66
545.83	428.32
546.00	367.46
546.16	421.30
546.33	484.49
546.50	397.89
546.67	381.51
546.83	355.76
547.00	407.25
547.17	400.23
547.34	409.59
547.50	397.89
547.67	465.77
547.84	311.29
548.00	365.12
548.17	440.02
548.34	287.89
548.51	423.64
548.67	416.62
548.84	428.32
549.01	475.13
549.18	344.06
549.34	458.74
549.51	489.17
549.68	444.70
549.84	402.57
550.01	423.64
550.18	430.66
550.34	430.66
550.51	428.32
550.68	334.70
550.84	322.99
551.01	425.98
551.18	433.00
551.34	393.21
551.51	390.87
551.68	458.74
551.84	379.17
552.01	409.59
552.18	409.59
552.34	430.66
552.51	435.34
552.68	369.80
552.84	425.98
553.01	421.30
553.18	421.30
553.34	397.89
553.51	383.85
553.67	437.68
553.84	512.58
554.01	444.70
554.17	477.47
554.34	428.32
554.51	390.87
554.67	458.74
554.84	388.53
555.00	423.64
555.17	418.96
555.33	442.36
555.50	461.09
555.67	447.04
555.83	395.55
556.00	440.02
556.16	566.41
556.33	463.43
556.50	379.17
556.66	358.10
556.83	358.10
556.99	355.76
557.16	425.98
557.32	388.53
557.49	475.13
557.65	416.62
557.82	390.87
557.98	400.23
558.15	456.40
558.32	472.79
558.48	414.27
558.65	376.83
558.81	390.87
558.98	418.96
559.14	369.80
559.31	444.70
559.47	395.55
559.64	449.38
559.80	454.06
559.97	451.72
560.13	411.93
560.30	451.72
560.46	437.68
560.63	379.17
560.79	437.68
560.96	425.98
561.12	477.47
561.29	435.34
561.45	428.32
561.61	442.36
561.78	440.02
561.94	433.00
562.11	451.72
562.27	404.91
562.44	395.55
562.60	458.74
562.77	374.49
562.93	500.87
563.10	379.17
563.26	444.70
563.42	463.43
563.59	475.13
563.75	407.25
563.92	463.43
564.08	454.06
564.24	423.64
564.41	421.30
564.57	397.89
564.74	470.45
564.90	416.62
565.07	454.06
565.23	400.23
565.39	411.93
565.56	440.02
565.72	414.27
565.88	393.21
566.05	416.62
566.21	369.80
566.38	449.38
566.54	379.17
566.70	374.49
566.87	390.87
567.03	367.46
567.19	428.32
567.36	500.87
567.52	456.40
567.68	449.38
567.85	416.62
568.01	435.34
568.17	362.78
568.34	447.04
568.50	414.27
568.66	337.04
568.83	554.71
568.99	355.76
569.15	521.94
569.32	428.32
569.48	348.74
569.64	402.57
569.81	418.96
569.97	440.02
570.13	430.66
570.30	402.57
570.46	451.72
570.62	423.64
570.78	491.51
570.95	372.15
571.11	456.40
571.27	521.94
571.43	395.55
571.60	540.66
571.76	461.09
571.92	402.57
572.09	374.49
572.25	440.02
572.41	454.06
572.57	325.33
572.74	435.34
572.90	409.59
573.06	470.45
573.22	418.96
573.38	421.30
573.55	407.25
573.71	414.27
573.87	498.53
574.03	430.66
574.20	369.80
574.36	454.06
574.52	428.32
574.68	402.57
574.84	353.42
575.01	442.36
575.17	397.89
575.33	414.27
575.49	395.55
575.65	388.53
575.82	414.27
575.98	454.06
576.14	369.80
576.30	475.13
576.46	489.17
576.62	472.79
576.79	393.21
576.95	461.09
577.11	388.53
577.27	330.02
577.43	423.64
577.59	372.15
577.75	437.68
577.92	444.70
578.08	423.64
578.24	428.32
578.40	454.06
578.56	484.49
578.72	465.77
578.88	379.17
579.04	397.89
579.21	369.80
579.37	425.98
579.53	421.30
579.69	472.79
579.85	425.98
580.01	414.27
580.17	447.04
580.33	372.15
580.49	421.30
580.65	433.00
580.82	351.08
580.98	463.43
581.14	430.66
581.30	442.36
581.46	393.21
581.62	447.04
581.78	404.91
581.94	454.06
582.10	414.27
582.26	435.34
582.42	425.98
582.58	430.66
582.74	362.78
582.90	505.56
583.06	416.62
583.22	393.21
583.38	416.62
583.54	353.42
583.70	437.68
583.86	397.89
584.02	402.57
584.18	395.55
584.34	372.15
584.50	393.21
584.66	365.12
584.82	397.89
584.98	393.21
585.14	437.68
585.30	477.47
585.46	372.15
585.62	414.27
585.78	463.43
585.94	383.85
586.10	447.04
586.26	374.49
586.42	423.64
586.58	418.96
586.74	456.40
586.90	374.49
587.06	437.68
587.22	440.02
587.38	376.83
587.54	409.59
587.70	404.91
587.86	442.36
588.02	409.59
588.18	528.96
588.34	470.45
588.49	414.27
588.65	447.04
588.81	407.25
588.97	372.15
589.13	479.81
589.29	428.32
589.45	496.19
589.61	491.51
589.77	465.77
589.93	365.12
590.08	362.78
590.24	374.49
590.40	418.96
590.56	388.53
590.72	379.17
590.88	379.17
591.04	435.34
591.20	369.80
591.35	421.30
591.51	463.43
591.67	458.74
591.83	379.17
591.99	381.51
592.15	440.02
592.31	423.64
592.46	454.06
592.62	383.85
592.78	374.49
592.94	404.91
593.10	479.81
593.26	444.70
593.41	454.06
593.57	388.53
593.73	346.40
593.89	475.13
594.05	484.49
594.20	404.91
594.36	454.06
594.52	372.15
594.68	402.57
594.84	447.04
594.99	390.87
595.15	442.36
595.31	395.55
595.47	507.90
595.62	500.87
595.78	355.76
595.94	393.21
596.10	430.66
596.25	358.10
596.41	358.10
596.57	388.53
596.73	397.89
596.88	360.44
597.04	475.13
597.20	456.40
597.36	379.17
597.51	423.64
597.67	451.72
597.83	339.38
597.99	425.98
598.14	491.51
598.30	418.96
598.46	468.11
598.61	484.49
598.77	447.04
598.93	386.19
599.09	414.27
599.24	428.32
599.40	454.06
599.56	376.83
599.71	421.30
599.87	442.36
600.03	514.92
600.18	341.72
600.34	442.36
600.50	451.72
600.65	358.10
600.81	444.70
600.97	444.70
601.12	353.42
601.28	505.56
601.44	418.96
601.59	367.46
601.75	367.46
601.91	348.74
602.06	404.91
602.22	468.11
602.37	404.91
602.53	461.09
602.69	367.46
602.84	433.00
603.00	404.91
603.16	421.30
603.31	393.21
603.47	430.66
603.62	404.91
603.78	454.06
603.94	475.13
604.09	358.10
604.25	418.96
604.40	351.08
604.56	397.89
604.71	423.64
604.87	435.34
605.03	411.93
605.18	411.93
605.34	470.45
605.49	383.85
605.65	374.49
605.80	393.21
605.96	409.59
606.12	430.66
606.27	383.85
606.43	435.34
606.58	437.68
606.74	425.98
606.89	465.77
607.05	414.27
607.20	416.62
607.36	423.64
607.51	400.23
607.67	372.15
607.82	374.49
607.98	390.87
608.13	484.49
608.29	407.25
608.44	411.93
608.60	421.30
608.75	433.00
608.91	444.70
609.06	407.25
609.22	428.32
609.37	374.49
609.53	407.25
609.68	395.55
609.84	447.04
609.99	411.93
610.15	437.68
