SpectraSuite Data File
++++++++++++++++++++++++++++++++++++
Date: Fri Oct 25 12:10:05 EDT 2013
User: price-jones
Dark Spectrum Present: No
Reference Spectrum Present: No
Number of Sampled Component Spectra: 1
Spectrometers: USB2+H05261
Integration Time (usec): 100000 (USB2+H05261)
Spectra Averaged: 1 (USB2+H05261)
Boxcar Smoothing: 0 (USB2+H05261)
Correct for Electrical Dark: No (USB2+H05261)
Strobe/Lamp Enabled: No (USB2+H05261)
Correct for Detector Non-linearity: No (USB2+H05261)
Correct for Stray Light: No (USB2+H05261)
Number of Pixels in Processed Spectrum: 2048
>>>>>Begin Processed Spectral Data<<<<<
365.73	306.61
365.92	306.61
366.12	306.61
366.32	205.97
366.52	217.67
366.72	266.82
366.91	241.08
367.11	280.86
367.31	196.60
367.51	297.25
367.70	215.33
367.90	250.44
368.10	262.14
368.30	287.89
368.49	248.10
368.69	264.48
368.89	297.25
369.09	241.08
369.28	227.03
369.48	276.18
369.68	294.91
369.87	271.50
370.07	320.65
370.27	351.08
370.47	313.63
370.66	358.10
370.86	351.08
371.06	404.91
371.25	404.91
371.45	332.36
371.65	407.25
371.84	447.04
372.04	376.83
372.24	372.15
372.44	379.17
372.63	425.98
372.83	388.53
373.03	423.64
373.22	409.59
373.42	425.98
373.62	388.53
373.81	395.55
374.01	484.49
374.21	433.00
374.40	451.72
374.60	447.04
374.79	437.68
374.99	475.13
375.19	341.72
375.38	482.15
375.58	407.25
375.78	402.57
375.97	423.64
376.17	400.23
376.37	423.64
376.56	411.93
376.76	395.55
376.95	348.74
377.15	463.43
377.35	369.80
377.54	348.74
377.74	393.21
377.93	418.96
378.13	397.89
378.33	402.57
378.52	407.25
378.72	468.11
378.91	425.98
379.11	322.99
379.31	407.25
379.50	418.96
379.70	388.53
379.89	430.66
380.09	332.36
380.28	355.76
380.48	383.85
380.68	430.66
380.87	395.55
381.07	337.04
381.26	386.19
381.46	421.30
381.65	421.30
381.85	402.57
382.04	433.00
382.24	416.62
382.43	414.27
382.63	330.02
382.83	362.78
383.02	440.02
383.22	414.27
383.41	402.57
383.61	470.45
383.80	456.40
384.00	395.55
384.19	416.62
384.39	379.17
384.58	416.62
384.78	416.62
384.97	421.30
385.17	393.21
385.36	411.93
385.56	430.66
385.75	444.70
385.95	514.92
386.14	463.43
386.34	397.89
386.53	365.12
386.72	395.55
386.92	454.06
387.11	390.87
387.31	407.25
387.50	447.04
387.70	430.66
387.89	369.80
388.09	393.21
388.28	395.55
388.48	388.53
388.67	440.02
388.86	428.32
389.06	444.70
389.25	461.09
389.45	404.91
389.64	451.72
389.84	477.47
390.03	411.93
390.22	395.55
390.42	444.70
390.61	369.80
390.81	435.34
391.00	346.40
391.19	404.91
391.39	374.49
391.58	400.23
391.78	430.66
391.97	404.91
392.16	416.62
392.36	444.70
392.55	416.62
392.75	442.36
392.94	400.23
393.13	351.08
393.33	393.21
393.52	388.53
393.71	400.23
393.91	442.36
394.10	383.85
394.29	416.62
394.49	351.08
394.68	454.06
394.88	418.96
395.07	400.23
395.26	383.85
395.46	318.31
395.65	444.70
395.84	451.72
396.04	505.56
396.23	409.59
396.42	437.68
396.62	402.57
396.81	367.46
397.00	390.87
397.19	421.30
397.39	330.02
397.58	423.64
397.77	458.74
397.97	400.23
398.16	444.70
398.35	465.77
398.55	379.17
398.74	397.89
398.93	411.93
399.12	402.57
399.32	465.77
399.51	346.40
399.70	440.02
399.90	351.08
400.09	425.98
400.28	461.09
400.47	367.46
400.67	447.04
400.86	388.53
401.05	395.55
401.24	433.00
401.44	425.98
401.63	421.30
401.82	482.15
402.01	456.40
402.21	369.80
402.40	449.38
402.59	386.19
402.78	353.42
402.97	428.32
403.17	423.64
403.36	337.04
403.55	360.44
403.74	404.91
403.93	367.46
404.13	404.91
404.32	404.91
404.51	383.85
404.70	386.19
404.89	395.55
405.09	433.00
405.28	421.30
405.47	327.68
405.66	346.40
405.85	440.02
406.05	423.64
406.24	447.04
406.43	472.79
406.62	500.87
406.81	468.11
407.00	416.62
407.20	390.87
407.39	440.02
407.58	442.36
407.77	449.38
407.96	379.17
408.15	435.34
408.34	337.04
408.54	421.30
408.73	318.31
408.92	444.70
409.11	409.59
409.30	435.34
409.49	433.00
409.68	444.70
409.87	449.38
410.07	479.81
410.26	367.46
410.45	386.19
410.64	437.68
410.83	451.72
411.02	411.93
411.21	454.06
411.40	365.12
411.59	362.78
411.78	447.04
411.98	390.87
412.17	404.91
412.36	440.02
412.55	390.87
412.74	400.23
412.93	414.27
413.12	421.30
413.31	500.87
413.50	381.51
413.69	383.85
413.88	407.25
414.07	360.44
414.26	344.06
414.45	402.57
414.64	365.12
414.83	428.32
415.02	437.68
415.22	418.96
415.41	407.25
415.60	369.80
415.79	390.87
415.98	454.06
416.17	341.72
416.36	390.87
416.55	393.21
416.74	430.66
416.93	458.74
417.12	395.55
417.31	425.98
417.50	393.21
417.69	463.43
417.88	430.66
418.07	456.40
418.26	397.89
418.45	456.40
418.64	346.40
418.83	428.32
419.02	416.62
419.21	407.25
419.39	397.89
419.58	430.66
419.77	433.00
419.96	407.25
420.15	423.64
420.34	472.79
420.53	416.62
420.72	430.66
420.91	454.06
421.10	421.30
421.29	435.34
421.48	435.34
421.67	468.11
421.86	397.89
422.05	416.62
422.24	458.74
422.43	355.76
422.61	435.34
422.80	454.06
422.99	451.72
423.18	346.40
423.37	421.30
423.56	449.38
423.75	437.68
423.94	430.66
424.13	344.06
424.32	411.93
424.50	383.85
424.69	365.12
424.88	428.32
425.07	386.19
425.26	435.34
425.45	330.02
425.64	409.59
425.83	341.72
426.01	425.98
426.20	355.76
426.39	395.55
426.58	407.25
426.77	395.55
426.96	416.62
427.15	425.98
427.33	383.85
427.52	435.34
427.71	404.91
427.90	388.53
428.09	365.12
428.28	411.93
428.46	379.17
428.65	407.25
428.84	348.74
429.03	451.72
429.22	444.70
429.40	374.49
429.59	440.02
429.78	465.77
429.97	407.25
430.16	393.21
430.34	379.17
430.53	435.34
430.72	407.25
430.91	402.57
431.10	374.49
431.28	414.27
431.47	421.30
431.66	423.64
431.85	362.78
432.03	444.70
432.22	538.32
432.41	470.45
432.60	369.80
432.79	376.83
432.97	475.13
433.16	327.68
433.35	386.19
433.54	358.10
433.72	414.27
433.91	423.64
434.10	351.08
434.28	421.30
434.47	428.32
434.66	489.17
434.85	409.59
435.03	414.27
435.22	402.57
435.41	409.59
435.59	341.72
435.78	407.25
435.97	381.51
436.16	444.70
436.34	425.98
436.53	428.32
436.72	468.11
436.90	433.00
437.09	400.23
437.28	416.62
437.46	421.30
437.65	388.53
437.84	402.57
438.02	449.38
438.21	428.32
438.40	447.04
438.58	409.59
438.77	374.49
438.96	428.32
439.14	374.49
439.33	418.96
439.52	409.59
439.70	386.19
439.89	421.30
440.08	421.30
440.26	372.15
440.45	407.25
440.63	355.76
440.82	397.89
441.01	430.66
441.19	355.76
441.38	381.51
441.57	414.27
441.75	414.27
441.94	430.66
442.12	355.76
442.31	421.30
442.50	461.09
442.68	407.25
442.87	425.98
443.05	421.30
443.24	348.74
443.43	355.76
443.61	409.59
443.80	402.57
443.98	437.68
444.17	489.17
444.35	435.34
444.54	360.44
444.73	477.47
444.91	407.25
445.10	428.32
445.28	379.17
445.47	451.72
445.65	348.74
445.84	479.81
446.02	407.25
446.21	451.72
446.39	491.51
446.58	379.17
446.77	433.00
446.95	383.85
447.14	395.55
447.32	404.91
447.51	374.49
447.69	407.25
447.88	461.09
448.06	526.62
448.25	395.55
448.43	411.93
448.62	416.62
448.80	435.34
448.99	386.19
449.17	414.27
449.36	465.77
449.54	463.43
449.73	397.89
449.91	444.70
450.10	458.74
450.28	369.80
450.46	351.08
450.65	425.98
450.83	390.87
451.02	414.27
451.20	381.51
451.39	430.66
451.57	409.59
451.76	400.23
451.94	433.00
452.13	414.27
452.31	416.62
452.49	402.57
452.68	346.40
452.86	437.68
453.05	440.02
453.23	461.09
453.42	381.51
453.60	395.55
453.78	411.93
453.97	383.85
454.15	416.62
454.34	388.53
454.52	393.21
454.70	334.70
454.89	388.53
455.07	395.55
455.26	367.46
455.44	416.62
455.62	425.98
455.81	437.68
455.99	423.64
456.17	404.91
456.36	435.34
456.54	430.66
456.73	414.27
456.91	400.23
457.09	425.98
457.28	388.53
457.46	320.65
457.64	400.23
457.83	381.51
458.01	454.06
458.19	447.04
458.38	386.19
458.56	447.04
458.74	451.72
458.93	372.15
459.11	393.21
459.29	458.74
459.48	407.25
459.66	433.00
459.84	400.23
460.03	510.24
460.21	404.91
460.39	409.59
460.57	454.06
460.76	402.57
460.94	393.21
461.12	461.09
461.31	456.40
461.49	409.59
461.67	409.59
461.85	433.00
462.04	362.78
462.22	732.59
462.40	376.83
462.59	404.91
462.77	442.36
462.95	360.44
463.13	430.66
463.32	425.98
463.50	442.36
463.68	444.70
463.86	353.42
464.05	425.98
464.23	390.87
464.41	444.70
464.59	372.15
464.78	470.45
464.96	355.76
465.14	428.32
465.32	397.89
465.50	409.59
465.69	451.72
465.87	397.89
466.05	348.74
466.23	468.11
466.41	388.53
466.60	400.23
466.78	458.74
466.96	386.19
467.14	414.27
467.32	435.34
467.51	404.91
467.69	456.40
467.87	458.74
468.05	416.62
468.23	440.02
468.41	423.64
468.60	374.49
468.78	344.06
468.96	458.74
469.14	442.36
469.32	344.06
469.50	475.13
469.69	421.30
469.87	379.17
470.05	423.64
470.23	440.02
470.41	437.68
470.59	402.57
470.77	454.06
470.95	395.55
471.14	425.98
471.32	362.78
471.50	423.64
471.68	414.27
471.86	416.62
472.04	404.91
472.22	437.68
472.40	376.83
472.58	458.74
472.77	428.32
472.95	437.68
473.13	404.91
473.31	386.19
473.49	332.36
473.67	390.87
473.85	383.85
474.03	407.25
474.21	404.91
474.39	390.87
474.57	484.49
474.75	430.66
474.93	430.66
475.12	409.59
475.30	383.85
475.48	374.49
475.66	416.62
475.84	393.21
476.02	484.49
476.20	397.89
476.38	437.68
476.56	454.06
476.74	379.17
476.92	402.57
477.10	395.55
477.28	421.30
477.46	372.15
477.64	428.32
477.82	383.85
478.00	418.96
478.18	451.72
478.36	435.34
478.54	400.23
478.72	425.98
478.90	404.91
479.08	393.21
479.26	327.68
479.44	421.30
479.62	421.30
479.80	388.53
479.98	313.63
480.16	444.70
480.34	444.70
480.52	409.59
480.70	383.85
480.88	369.80
481.06	465.77
481.24	437.68
481.41	360.44
481.59	456.40
481.77	351.08
481.95	379.17
482.13	388.53
482.31	369.80
482.49	423.64
482.67	416.62
482.85	461.09
483.03	423.64
483.21	337.04
483.39	393.21
483.57	404.91
483.74	468.11
483.92	376.83
484.10	425.98
484.28	393.21
484.46	433.00
484.64	414.27
484.82	456.40
485.00	425.98
485.18	404.91
485.35	393.21
485.53	388.53
485.71	465.77
485.89	423.64
486.07	400.23
486.25	463.43
486.43	411.93
486.61	451.72
486.78	397.89
486.96	397.89
487.14	397.89
487.32	369.80
487.50	381.51
487.68	421.30
487.85	390.87
488.03	418.96
488.21	428.32
488.39	470.45
488.57	458.74
488.75	465.77
488.92	498.53
489.10	440.02
489.28	425.98
489.46	465.77
489.64	362.78
489.81	367.46
489.99	393.21
490.17	388.53
490.35	496.19
490.53	507.90
490.70	418.96
490.88	437.68
491.06	388.53
491.24	423.64
491.41	484.49
491.59	383.85
491.77	421.30
491.95	386.19
492.13	430.66
492.30	411.93
492.48	393.21
492.66	505.56
492.84	435.34
493.01	477.47
493.19	423.64
493.37	444.70
493.54	379.17
493.72	395.55
493.90	369.80
494.08	381.51
494.25	393.21
494.43	442.36
494.61	388.53
494.79	379.17
494.96	425.98
495.14	402.57
495.32	376.83
495.49	449.38
495.67	418.96
495.85	402.57
496.02	341.72
496.20	451.72
496.38	404.91
496.55	470.45
496.73	421.30
496.91	369.80
497.09	468.11
497.26	400.23
497.44	423.64
497.62	456.40
497.79	411.93
497.97	369.80
498.14	418.96
498.32	482.15
498.50	393.21
498.67	372.15
498.85	423.64
499.03	360.44
499.20	379.17
499.38	421.30
499.56	430.66
499.73	447.04
499.91	498.53
500.08	477.47
500.26	421.30
500.44	411.93
500.61	351.08
500.79	383.85
500.97	442.36
501.14	465.77
501.32	444.70
501.49	454.06
501.67	430.66
501.84	393.21
502.02	428.32
502.20	451.72
502.37	348.74
502.55	397.89
502.72	353.42
502.90	425.98
503.07	416.62
503.25	442.36
503.43	397.89
503.60	388.53
503.78	376.83
503.95	433.00
504.13	411.93
504.30	344.06
504.48	409.59
504.65	447.04
504.83	461.09
505.01	442.36
505.18	383.85
505.36	367.46
505.53	430.66
505.71	449.38
505.88	437.68
506.06	395.55
506.23	404.91
506.41	477.47
506.58	458.74
506.76	404.91
506.93	425.98
507.11	388.53
507.28	433.00
507.46	425.98
507.63	444.70
507.81	421.30
507.98	440.02
508.16	458.74
508.33	484.49
508.50	503.22
508.68	425.98
508.85	409.59
509.03	372.15
509.20	449.38
509.38	486.83
509.55	402.57
509.73	418.96
509.90	374.49
510.08	374.49
510.25	421.30
510.42	482.15
510.60	404.91
510.77	475.13
510.95	390.87
511.12	390.87
511.30	397.89
511.47	334.70
511.64	442.36
511.82	423.64
511.99	402.57
512.17	421.30
512.34	388.53
512.51	358.10
512.69	334.70
512.86	400.23
513.04	383.85
513.21	472.79
513.38	418.96
513.56	404.91
513.73	423.64
513.90	435.34
514.08	437.68
514.25	400.23
514.43	390.87
514.60	444.70
514.77	379.17
514.95	454.06
515.12	416.62
515.29	400.23
515.47	362.78
515.64	409.59
515.81	346.40
515.99	402.57
516.16	425.98
516.33	369.80
516.51	390.87
516.68	404.91
516.85	383.85
517.03	388.53
517.20	390.87
517.37	400.23
517.54	407.25
517.72	468.11
517.89	374.49
518.06	409.59
518.24	475.13
518.41	442.36
518.58	407.25
518.75	388.53
518.93	369.80
519.10	526.62
519.27	468.11
519.45	484.49
519.62	418.96
519.79	397.89
519.96	360.44
520.14	425.98
520.31	430.66
520.48	414.27
520.65	437.68
520.83	411.93
521.00	327.68
521.17	440.02
521.34	376.83
521.52	393.21
521.69	411.93
521.86	397.89
522.03	397.89
522.20	456.40
522.38	437.68
522.55	416.62
522.72	388.53
522.89	425.98
523.07	390.87
523.24	379.17
523.41	374.49
523.58	437.68
523.75	402.57
523.92	376.83
524.10	421.30
524.27	393.21
524.44	414.27
524.61	411.93
524.78	407.25
524.96	397.89
525.13	418.96
525.30	402.57
525.47	390.87
525.64	475.13
525.81	388.53
525.98	346.40
526.16	402.57
526.33	416.62
526.50	458.74
526.67	355.76
526.84	442.36
527.01	344.06
527.18	425.98
527.36	454.06
527.53	428.32
527.70	437.68
527.87	418.96
528.04	498.53
528.21	421.30
528.38	421.30
528.55	458.74
528.72	463.43
528.89	468.11
529.07	414.27
529.24	418.96
529.41	535.98
529.58	421.30
529.75	423.64
529.92	442.36
530.09	381.51
530.26	421.30
530.43	425.98
530.60	409.59
530.77	470.45
530.94	402.57
531.11	449.38
531.28	449.38
531.46	414.27
531.63	507.90
531.80	451.72
531.97	472.79
532.14	383.85
532.31	365.12
532.48	383.85
532.65	486.83
532.82	386.19
532.99	365.12
533.16	437.68
533.33	400.23
533.50	442.36
533.67	390.87
533.84	454.06
534.01	484.49
534.18	330.02
534.35	442.36
534.52	386.19
534.69	416.62
534.86	383.85
535.03	390.87
535.20	411.93
535.37	365.12
535.54	444.70
535.71	351.08
535.88	407.25
536.05	437.68
536.22	507.90
536.38	449.38
536.55	418.96
536.72	409.59
536.89	376.83
537.06	407.25
537.23	407.25
537.40	463.43
537.57	372.15
537.74	416.62
537.91	383.85
538.08	388.53
538.25	390.87
538.42	430.66
538.59	409.59
538.75	447.04
538.92	404.91
539.09	470.45
539.26	393.21
539.43	414.27
539.60	468.11
539.77	470.45
539.94	393.21
540.11	362.78
540.28	475.13
540.44	477.47
540.61	451.72
540.78	425.98
540.95	395.55
541.12	409.59
541.29	339.38
541.46	486.83
541.62	407.25
541.79	444.70
541.96	325.33
542.13	411.93
542.30	423.64
542.47	435.34
542.63	402.57
542.80	414.27
542.97	414.27
543.14	489.17
543.31	510.24
543.48	423.64
543.64	510.24
543.81	451.72
543.98	411.93
544.15	407.25
544.32	374.49
544.48	425.98
544.65	444.70
544.82	442.36
544.99	416.62
545.16	369.80
545.32	379.17
545.49	437.68
545.66	489.17
545.83	290.23
546.00	411.93
546.16	351.08
546.33	369.80
546.50	433.00
546.67	519.60
546.83	440.02
547.00	435.34
547.17	358.10
547.34	479.81
547.50	456.40
547.67	402.57
547.84	409.59
548.00	421.30
548.17	376.83
548.34	365.12
548.51	395.55
548.67	379.17
548.84	402.57
549.01	381.51
549.18	468.11
549.34	346.40
549.51	458.74
549.68	402.57
549.84	463.43
550.01	393.21
550.18	526.62
550.34	514.92
550.51	440.02
550.68	468.11
550.84	456.40
551.01	383.85
551.18	376.83
551.34	407.25
551.51	388.53
551.68	433.00
551.84	425.98
552.01	376.83
552.18	416.62
552.34	425.98
552.51	367.46
552.68	414.27
552.84	404.91
553.01	416.62
553.18	449.38
553.34	475.13
553.51	442.36
553.67	437.68
553.84	393.21
554.01	447.04
554.17	463.43
554.34	423.64
554.51	369.80
554.67	479.81
554.84	418.96
555.00	458.74
555.17	470.45
555.33	463.43
555.50	484.49
555.67	433.00
555.83	418.96
556.00	421.30
556.16	554.71
556.33	390.87
556.50	351.08
556.66	397.89
556.83	393.21
556.99	386.19
557.16	430.66
557.32	416.62
557.49	430.66
557.65	393.21
557.82	414.27
557.98	372.15
558.15	458.74
558.32	355.76
558.48	390.87
558.65	360.44
558.81	388.53
558.98	362.78
559.14	463.43
559.31	484.49
559.47	437.68
559.64	454.06
559.80	475.13
559.97	416.62
560.13	423.64
560.30	381.51
560.46	407.25
560.63	458.74
560.79	388.53
560.96	346.40
561.12	395.55
561.29	423.64
561.45	454.06
561.61	463.43
561.78	489.17
561.94	440.02
562.11	400.23
562.27	430.66
562.44	355.76
562.60	519.60
562.77	423.64
562.93	470.45
563.10	421.30
563.26	397.89
563.42	400.23
563.59	421.30
563.75	437.68
563.92	397.89
564.08	437.68
564.24	463.43
564.41	461.09
564.57	428.32
564.74	430.66
564.90	416.62
565.07	386.19
565.23	449.38
565.39	425.98
565.56	393.21
565.72	409.59
565.88	358.10
566.05	341.72
566.21	444.70
566.38	498.53
566.54	372.15
566.70	402.57
566.87	409.59
567.03	397.89
567.19	451.72
567.36	411.93
567.52	414.27
567.68	477.47
567.85	428.32
568.01	402.57
568.17	397.89
568.34	435.34
568.50	414.27
568.66	449.38
568.83	475.13
568.99	402.57
569.15	517.26
569.32	514.92
569.48	395.55
569.64	397.89
569.81	477.47
569.97	372.15
570.13	360.44
570.30	435.34
570.46	414.27
570.62	440.02
570.78	362.78
570.95	400.23
571.11	416.62
571.27	402.57
571.43	433.00
571.60	461.09
571.76	383.85
571.92	470.45
572.09	421.30
572.25	423.64
572.41	463.43
572.57	428.32
572.74	521.94
572.90	435.34
573.06	451.72
573.22	451.72
573.38	470.45
573.55	423.64
573.71	360.44
573.87	444.70
574.03	475.13
574.20	444.70
574.36	344.06
574.52	395.55
574.68	465.77
574.84	449.38
575.01	402.57
575.17	484.49
575.33	365.12
575.49	404.91
575.65	465.77
575.82	440.02
575.98	498.53
576.14	381.51
576.30	404.91
576.46	418.96
576.62	475.13
576.79	430.66
576.95	470.45
577.11	383.85
577.27	397.89
577.43	440.02
577.59	414.27
577.75	425.98
577.92	430.66
578.08	390.87
578.24	418.96
578.40	388.53
578.56	444.70
578.72	433.00
578.88	468.11
579.04	388.53
579.21	418.96
579.37	304.27
579.53	388.53
579.69	463.43
579.85	379.17
580.01	472.79
580.17	383.85
580.33	421.30
580.49	341.72
580.65	386.19
580.82	402.57
580.98	362.78
581.14	463.43
581.30	397.89
581.46	395.55
581.62	461.09
581.78	477.47
581.94	461.09
582.10	379.17
582.26	400.23
582.42	465.77
582.58	442.36
582.74	437.68
582.90	435.34
583.06	456.40
583.22	491.51
583.38	423.64
583.54	433.00
583.70	444.70
583.86	381.51
584.02	449.38
584.18	440.02
584.34	372.15
584.50	400.23
584.66	414.27
584.82	362.78
584.98	433.00
585.14	374.49
585.30	454.06
585.46	407.25
585.62	372.15
585.78	442.36
585.94	337.04
586.10	435.34
586.26	510.24
586.42	472.79
586.58	330.02
586.74	458.74
586.90	458.74
587.06	479.81
587.22	421.30
587.38	358.10
587.54	409.59
587.70	468.11
587.86	458.74
588.02	451.72
588.18	402.57
588.34	468.11
588.49	386.19
588.65	461.09
588.81	442.36
588.97	421.30
589.13	376.83
589.29	458.74
589.45	454.06
589.61	416.62
589.77	358.10
589.93	388.53
590.08	372.15
590.24	346.40
590.40	376.83
590.56	374.49
590.72	379.17
590.88	367.46
591.04	362.78
591.20	430.66
591.35	430.66
591.51	411.93
591.67	489.17
591.83	365.12
591.99	416.62
592.15	379.17
592.31	421.30
592.46	416.62
592.62	362.78
592.78	390.87
592.94	374.49
593.10	388.53
593.26	346.40
593.41	435.34
593.57	407.25
593.73	430.66
593.89	456.40
594.05	369.80
594.20	304.27
594.36	367.46
594.52	362.78
594.68	348.74
594.84	479.81
594.99	463.43
595.15	468.11
595.31	447.04
595.47	435.34
595.62	470.45
595.78	400.23
595.94	334.70
596.10	472.79
596.25	458.74
596.41	507.90
596.57	393.21
596.73	454.06
596.88	379.17
597.04	444.70
597.20	355.76
597.36	440.02
597.51	414.27
597.67	376.83
597.83	374.49
597.99	409.59
598.14	367.46
598.30	491.51
598.46	430.66
598.61	437.68
598.77	397.89
598.93	402.57
599.09	411.93
599.24	430.66
599.40	416.62
599.56	402.57
599.71	400.23
599.87	428.32
600.03	402.57
600.18	374.49
600.34	425.98
600.50	397.89
600.65	444.70
600.81	411.93
600.97	430.66
601.12	402.57
601.28	404.91
601.44	400.23
601.59	430.66
601.75	409.59
601.91	390.87
602.06	411.93
602.22	451.72
602.37	402.57
602.53	442.36
602.69	435.34
602.84	409.59
603.00	437.68
603.16	407.25
603.31	362.78
603.47	376.83
603.62	404.91
603.78	444.70
603.94	433.00
604.09	428.32
604.25	430.66
604.40	479.81
604.56	393.21
604.71	379.17
604.87	388.53
605.03	376.83
605.18	456.40
605.34	461.09
605.49	428.32
605.65	308.95
605.80	404.91
605.96	397.89
606.12	407.25
606.27	411.93
606.43	416.62
606.58	393.21
606.74	383.85
606.89	386.19
607.05	468.11
607.20	360.44
607.36	414.27
607.51	353.42
607.67	442.36
607.82	397.89
607.98	395.55
608.13	423.64
608.29	411.93
608.44	465.77
608.60	390.87
608.75	472.79
608.91	404.91
609.06	379.17
609.22	428.32
609.37	351.08
609.53	428.32
609.68	444.70
609.84	440.02
609.99	376.83
610.15	407.25
