SpectraSuite Data File
++++++++++++++++++++++++++++++++++++
Date: Fri Oct 25 12:11:09 EDT 2013
User: price-jones
Dark Spectrum Present: No
Reference Spectrum Present: No
Number of Sampled Component Spectra: 1
Spectrometers: USB2+H05261
Integration Time (usec): 100000 (USB2+H05261)
Spectra Averaged: 1 (USB2+H05261)
Boxcar Smoothing: 0 (USB2+H05261)
Correct for Electrical Dark: No (USB2+H05261)
Strobe/Lamp Enabled: No (USB2+H05261)
Correct for Detector Non-linearity: No (USB2+H05261)
Correct for Stray Light: No (USB2+H05261)
Number of Pixels in Processed Spectrum: 2048
>>>>>Begin Processed Spectral Data<<<<<
365.73	386.19
365.92	386.19
366.12	386.19
366.32	229.37
366.52	227.03
366.72	241.08
366.91	250.44
367.11	245.76
367.31	182.56
367.51	175.54
367.70	269.16
367.90	255.12
368.10	236.39
368.30	187.24
368.49	241.08
368.69	308.95
368.89	266.82
369.09	287.89
369.28	262.14
369.48	224.69
369.68	334.70
369.87	299.59
370.07	266.82
370.27	360.44
370.47	299.59
370.66	379.17
370.86	294.91
371.06	447.04
371.25	383.85
371.45	308.95
371.65	400.23
371.84	367.46
372.04	362.78
372.24	367.46
372.44	400.23
372.63	395.55
372.83	395.55
373.03	390.87
373.22	482.15
373.42	386.19
373.62	468.11
373.81	383.85
374.01	454.06
374.21	423.64
374.40	430.66
374.60	376.83
374.79	416.62
374.99	440.02
375.19	437.68
375.38	465.77
375.58	472.79
375.78	458.74
375.97	440.02
376.17	454.06
376.37	418.96
376.56	435.34
376.76	428.32
376.95	425.98
377.15	421.30
377.35	447.04
377.54	395.55
377.74	409.59
377.93	451.72
378.13	451.72
378.33	397.89
378.52	346.40
378.72	365.12
378.91	369.80
379.11	404.91
379.31	367.46
379.50	383.85
379.70	451.72
379.89	395.55
380.09	416.62
380.28	341.72
380.48	402.57
380.68	341.72
380.87	414.27
381.07	379.17
381.26	454.06
381.46	465.77
381.65	365.12
381.85	447.04
382.04	447.04
382.24	428.32
382.43	388.53
382.63	376.83
382.83	390.87
383.02	451.72
383.22	482.15
383.41	344.06
383.61	379.17
383.80	451.72
384.00	409.59
384.19	339.38
384.39	458.74
384.58	381.51
384.78	362.78
384.97	376.83
385.17	376.83
385.36	346.40
385.56	404.91
385.75	358.10
385.95	447.04
386.14	423.64
386.34	428.32
386.53	407.25
386.72	461.09
386.92	365.12
387.11	442.36
387.31	379.17
387.50	334.70
387.70	374.49
387.89	414.27
388.09	418.96
388.28	449.38
388.48	411.93
388.67	402.57
388.86	407.25
389.06	369.80
389.25	388.53
389.45	430.66
389.64	458.74
389.84	425.98
390.03	374.49
390.22	374.49
390.42	358.10
390.61	442.36
390.81	381.51
391.00	376.83
391.19	475.13
391.39	416.62
391.58	442.36
391.78	433.00
391.97	353.42
392.16	372.15
392.36	409.59
392.55	397.89
392.75	397.89
392.94	369.80
393.13	463.43
393.33	374.49
393.52	428.32
393.71	381.51
393.91	433.00
394.10	358.10
394.29	351.08
394.49	440.02
394.68	386.19
394.88	484.49
395.07	423.64
395.26	374.49
395.46	297.25
395.65	390.87
395.84	369.80
396.04	421.30
396.23	374.49
396.42	411.93
396.62	433.00
396.81	404.91
397.00	383.85
397.19	447.04
397.39	500.87
397.58	444.70
397.77	397.89
397.97	423.64
398.16	440.02
398.35	369.80
398.55	372.15
398.74	400.23
398.93	386.19
399.12	407.25
399.32	423.64
399.51	383.85
399.70	444.70
399.90	418.96
400.09	346.40
400.28	383.85
400.47	388.53
400.67	365.12
400.86	465.77
401.05	421.30
401.24	463.43
401.44	461.09
401.63	374.49
401.82	374.49
402.01	418.96
402.21	456.40
402.40	374.49
402.59	374.49
402.78	449.38
402.97	351.08
403.17	423.64
403.36	454.06
403.55	369.80
403.74	400.23
403.93	313.63
404.13	388.53
404.32	381.51
404.51	355.76
404.70	397.89
404.89	423.64
405.09	465.77
405.28	362.78
405.47	374.49
405.66	390.87
405.85	381.51
406.05	423.64
406.24	423.64
406.43	444.70
406.62	400.23
406.81	437.68
407.00	437.68
407.20	411.93
407.39	447.04
407.58	395.55
407.77	348.74
407.96	381.51
408.15	470.45
408.34	442.36
408.54	386.19
408.73	365.12
408.92	421.30
409.11	411.93
409.30	367.46
409.49	365.12
409.68	348.74
409.87	414.27
410.07	475.13
410.26	404.91
410.45	491.51
410.64	362.78
410.83	421.30
411.02	381.51
411.21	430.66
411.40	416.62
411.59	388.53
411.78	395.55
411.98	437.68
412.17	379.17
412.36	348.74
412.55	411.93
412.74	458.74
412.93	425.98
413.12	395.55
413.31	407.25
413.50	402.57
413.69	404.91
413.88	435.34
414.07	465.77
414.26	393.21
414.45	425.98
414.64	402.57
414.83	315.97
415.02	351.08
415.22	353.42
415.41	470.45
415.60	383.85
415.79	454.06
415.98	407.25
416.17	456.40
416.36	449.38
416.55	418.96
416.74	433.00
416.93	442.36
417.12	414.27
417.31	372.15
417.50	461.09
417.69	510.24
417.88	402.57
418.07	428.32
418.26	449.38
418.45	411.93
418.64	388.53
418.83	416.62
419.02	451.72
419.21	400.23
419.39	362.78
419.58	360.44
419.77	365.12
419.96	397.89
420.15	428.32
420.34	386.19
420.53	400.23
420.72	437.68
420.91	400.23
421.10	470.45
421.29	428.32
421.48	437.68
421.67	449.38
421.86	416.62
422.05	484.49
422.24	409.59
422.43	344.06
422.61	402.57
422.80	418.96
422.99	416.62
423.18	442.36
423.37	388.53
423.56	407.25
423.75	430.66
423.94	376.83
424.13	369.80
424.32	421.30
424.50	411.93
424.69	435.34
424.88	440.02
425.07	369.80
425.26	430.66
425.45	374.49
425.64	477.47
425.83	390.87
426.01	421.30
426.20	397.89
426.39	376.83
426.58	395.55
426.77	430.66
426.96	461.09
427.15	447.04
427.33	409.59
427.52	411.93
427.71	475.13
427.90	425.98
428.09	383.85
428.28	404.91
428.46	409.59
428.65	386.19
428.84	425.98
429.03	409.59
429.22	444.70
429.40	337.04
429.59	388.53
429.78	489.17
429.97	344.06
430.16	353.42
430.34	409.59
430.53	407.25
430.72	369.80
430.91	489.17
431.10	433.00
431.28	390.87
431.47	456.40
431.66	397.89
431.85	414.27
432.03	451.72
432.22	465.77
432.41	418.96
432.60	435.34
432.79	337.04
432.97	465.77
433.16	362.78
433.35	397.89
433.54	416.62
433.72	379.17
433.91	390.87
434.10	400.23
434.28	381.51
434.47	418.96
434.66	379.17
434.85	351.08
435.03	414.27
435.22	442.36
435.41	360.44
435.59	334.70
435.78	337.04
435.97	402.57
436.16	447.04
436.34	383.85
436.53	409.59
436.72	461.09
436.90	484.49
437.09	393.21
437.28	428.32
437.46	463.43
437.65	465.77
437.84	404.91
438.02	437.68
438.21	393.21
438.40	418.96
438.58	367.46
438.77	404.91
438.96	414.27
439.14	423.64
439.33	358.10
439.52	397.89
439.70	397.89
439.89	414.27
440.08	344.06
440.26	479.81
440.45	425.98
440.63	393.21
440.82	358.10
441.01	416.62
441.19	383.85
441.38	365.12
441.57	418.96
441.75	379.17
441.94	423.64
442.12	379.17
442.31	379.17
442.50	510.24
442.68	416.62
442.87	397.89
443.05	416.62
443.24	346.40
443.43	411.93
443.61	465.77
443.80	451.72
443.98	449.38
444.17	505.56
444.35	411.93
444.54	470.45
444.73	418.96
444.91	484.49
445.10	437.68
445.28	421.30
445.47	433.00
445.65	440.02
445.84	421.30
446.02	421.30
446.21	353.42
446.39	442.36
446.58	383.85
446.77	454.06
446.95	428.32
447.14	421.30
447.32	449.38
447.51	482.15
447.69	442.36
447.88	425.98
448.06	465.77
448.25	512.58
448.43	369.80
448.62	351.08
448.80	430.66
448.99	418.96
449.17	362.78
449.36	397.89
449.54	425.98
449.73	400.23
449.91	414.27
450.10	365.12
450.28	472.79
450.46	376.83
450.65	435.34
450.83	372.15
451.02	381.51
451.20	458.74
451.39	362.78
451.57	461.09
451.76	388.53
451.94	365.12
452.13	365.12
452.31	351.08
452.49	407.25
452.68	383.85
452.86	409.59
453.05	437.68
453.23	388.53
453.42	379.17
453.60	411.93
453.78	411.93
453.97	393.21
454.15	425.98
454.34	414.27
454.52	421.30
454.70	442.36
454.89	451.72
455.07	362.78
455.26	416.62
455.44	454.06
455.62	388.53
455.81	423.64
455.99	379.17
456.17	451.72
456.36	397.89
456.54	435.34
456.73	449.38
456.91	425.98
457.09	486.83
457.28	447.04
457.46	500.87
457.64	433.00
457.83	461.09
458.01	437.68
458.19	383.85
458.38	334.70
458.56	341.72
458.74	442.36
458.93	397.89
459.11	423.64
459.29	372.15
459.48	365.12
459.66	451.72
459.84	444.70
460.03	430.66
460.21	393.21
460.39	358.10
460.57	428.32
460.76	365.12
460.94	369.80
461.12	449.38
461.31	407.25
461.49	423.64
461.67	341.72
461.85	390.87
462.04	421.30
462.22	800.46
462.40	454.06
462.59	409.59
462.77	395.55
462.95	386.19
463.13	430.66
463.32	519.60
463.50	472.79
463.68	407.25
463.86	433.00
464.05	425.98
464.23	444.70
464.41	430.66
464.59	468.11
464.78	388.53
464.96	423.64
465.14	425.98
465.32	393.21
465.50	409.59
465.69	409.59
465.87	407.25
466.05	451.72
466.23	360.44
466.41	393.21
466.60	393.21
466.78	390.87
466.96	386.19
467.14	404.91
467.32	442.36
467.51	414.27
467.69	430.66
467.87	444.70
468.05	376.83
468.23	468.11
468.41	411.93
468.60	425.98
468.78	425.98
468.96	407.25
469.14	414.27
469.32	330.02
469.50	430.66
469.69	400.23
469.87	470.45
470.05	447.04
470.23	409.59
470.41	416.62
470.59	461.09
470.77	365.12
470.95	346.40
471.14	411.93
471.32	346.40
471.50	414.27
471.68	463.43
471.86	449.38
472.04	367.46
472.22	465.77
472.40	463.43
472.58	369.80
472.77	379.17
472.95	397.89
473.13	447.04
473.31	428.32
473.49	407.25
473.67	395.55
473.85	416.62
474.03	423.64
474.21	440.02
474.39	376.83
474.57	514.92
474.75	425.98
474.93	388.53
475.12	416.62
475.30	386.19
475.48	465.77
475.66	418.96
475.84	418.96
476.02	365.12
476.20	402.57
476.38	479.81
476.56	458.74
476.74	379.17
476.92	369.80
477.10	440.02
477.28	386.19
477.46	423.64
477.64	414.27
477.82	433.00
478.00	449.38
478.18	346.40
478.36	423.64
478.54	395.55
478.72	409.59
478.90	409.59
479.08	390.87
479.26	447.04
479.44	435.34
479.62	428.32
479.80	409.59
479.98	404.91
480.16	449.38
480.34	463.43
480.52	482.15
480.70	397.89
480.88	393.21
481.06	440.02
481.24	409.59
481.41	367.46
481.59	430.66
481.77	416.62
481.95	386.19
482.13	440.02
482.31	447.04
482.49	367.46
482.67	423.64
482.85	379.17
483.03	442.36
483.21	458.74
483.39	433.00
483.57	393.21
483.74	461.09
483.92	395.55
484.10	447.04
484.28	463.43
484.46	472.79
484.64	496.19
484.82	397.89
485.00	393.21
485.18	423.64
485.35	437.68
485.53	358.10
485.71	444.70
485.89	423.64
486.07	468.11
486.25	496.19
486.43	454.06
486.61	393.21
486.78	383.85
486.96	362.78
487.14	374.49
487.32	390.87
487.50	404.91
487.68	397.89
487.85	362.78
488.03	477.47
488.21	528.96
488.39	447.04
488.57	463.43
488.75	416.62
488.92	482.15
489.10	386.19
489.28	449.38
489.46	397.89
489.64	458.74
489.81	416.62
489.99	397.89
490.17	374.49
490.35	470.45
490.53	351.08
490.70	416.62
490.88	367.46
491.06	430.66
491.24	435.34
491.41	409.59
491.59	442.36
491.77	416.62
491.95	411.93
492.13	386.19
492.30	440.02
492.48	404.91
492.66	416.62
492.84	411.93
493.01	423.64
493.19	397.89
493.37	421.30
493.54	407.25
493.72	379.17
493.90	372.15
494.08	388.53
494.25	414.27
494.43	376.83
494.61	383.85
494.79	430.66
494.96	442.36
495.14	416.62
495.32	372.15
495.49	435.34
495.67	409.59
495.85	346.40
496.02	369.80
496.20	423.64
496.38	379.17
496.55	454.06
496.73	458.74
496.91	390.87
497.09	468.11
497.26	388.53
497.44	400.23
497.62	400.23
497.79	425.98
497.97	428.32
498.14	435.34
498.32	393.21
498.50	376.83
498.67	397.89
498.85	381.51
499.03	348.74
499.20	386.19
499.38	430.66
499.56	369.80
499.73	461.09
499.91	425.98
500.08	493.85
500.26	449.38
500.44	379.17
500.61	402.57
500.79	437.68
500.97	425.98
501.14	435.34
501.32	407.25
501.49	440.02
501.67	425.98
501.84	411.93
502.02	365.12
502.20	409.59
502.37	458.74
502.55	397.89
502.72	344.06
502.90	428.32
503.07	390.87
503.25	409.59
503.43	430.66
503.60	414.27
503.78	411.93
503.95	351.08
504.13	376.83
504.30	400.23
504.48	454.06
504.65	430.66
504.83	397.89
505.01	421.30
505.18	386.19
505.36	355.76
505.53	435.34
505.71	402.57
505.88	414.27
506.06	341.72
506.23	416.62
506.41	409.59
506.58	393.21
506.76	421.30
506.93	402.57
507.11	383.85
507.28	390.87
507.46	458.74
507.63	510.24
507.81	454.06
507.98	376.83
508.16	355.76
508.33	400.23
508.50	409.59
508.68	374.49
508.85	362.78
509.03	418.96
509.20	402.57
509.38	489.17
509.55	360.44
509.73	428.32
509.90	470.45
510.08	397.89
510.25	444.70
510.42	393.21
510.60	372.15
510.77	524.28
510.95	402.57
511.12	411.93
511.30	395.55
511.47	411.93
511.64	440.02
511.82	425.98
511.99	388.53
512.17	404.91
512.34	322.99
512.51	379.17
512.69	433.00
512.86	428.32
513.04	388.53
513.21	430.66
513.38	465.77
513.56	421.30
513.73	362.78
513.90	402.57
514.08	411.93
514.25	418.96
514.43	332.36
514.60	416.62
514.77	421.30
514.95	348.74
515.12	341.72
515.29	376.83
515.47	414.27
515.64	440.02
515.81	365.12
515.99	458.74
516.16	463.43
516.33	479.81
516.51	362.78
516.68	402.57
516.85	353.42
517.03	372.15
517.20	404.91
517.37	442.36
517.54	416.62
517.72	451.72
517.89	351.08
518.06	447.04
518.24	500.87
518.41	421.30
518.58	430.66
518.75	397.89
518.93	367.46
519.10	433.00
519.27	400.23
519.45	458.74
519.62	433.00
519.79	454.06
519.96	376.83
520.14	383.85
520.31	444.70
520.48	442.36
520.65	428.32
520.83	397.89
521.00	414.27
521.17	430.66
521.34	395.55
521.52	407.25
521.69	388.53
521.86	386.19
522.03	514.92
522.20	482.15
522.38	393.21
522.55	421.30
522.72	390.87
522.89	416.62
523.07	416.62
523.24	404.91
523.41	379.17
523.58	397.89
523.75	435.34
523.92	465.77
524.10	416.62
524.27	362.78
524.44	348.74
524.61	404.91
524.78	451.72
524.96	444.70
525.13	425.98
525.30	442.36
525.47	346.40
525.64	435.34
525.81	355.76
525.98	376.83
526.16	355.76
526.33	400.23
526.50	411.93
526.67	353.42
526.84	416.62
527.01	440.02
527.18	430.66
527.36	404.91
527.53	404.91
527.70	489.17
527.87	461.09
528.04	461.09
528.21	442.36
528.38	390.87
528.55	379.17
528.72	416.62
528.89	447.04
529.07	346.40
529.24	435.34
529.41	428.32
529.58	402.57
529.75	465.77
529.92	390.87
530.09	449.38
530.26	372.15
530.43	433.00
530.60	418.96
530.77	482.15
530.94	416.62
531.11	451.72
531.28	409.59
531.46	397.89
531.63	421.30
531.80	416.62
531.97	393.21
532.14	395.55
532.31	493.85
532.48	414.27
532.65	447.04
532.82	430.66
532.99	519.60
533.16	442.36
533.33	437.68
533.50	463.43
533.67	416.62
533.84	430.66
534.01	423.64
534.18	451.72
534.35	386.19
534.52	395.55
534.69	418.96
534.86	353.42
535.03	451.72
535.20	404.91
535.37	393.21
535.54	444.70
535.71	451.72
535.88	463.43
536.05	379.17
536.22	472.79
536.38	409.59
536.55	397.89
536.72	472.79
536.89	346.40
537.06	425.98
537.23	428.32
537.40	390.87
537.57	379.17
537.74	444.70
537.91	393.21
538.08	348.74
538.25	442.36
538.42	423.64
538.59	447.04
538.75	379.17
538.92	379.17
539.09	416.62
539.26	365.12
539.43	397.89
539.60	372.15
539.77	381.51
539.94	484.49
540.11	376.83
540.28	454.06
540.44	411.93
540.61	404.91
540.78	355.76
540.95	339.38
541.12	458.74
541.29	411.93
541.46	461.09
541.62	428.32
541.79	395.55
541.96	437.68
542.13	369.80
542.30	461.09
542.47	423.64
542.63	437.68
542.80	540.66
542.97	442.36
543.14	355.76
543.31	341.72
543.48	428.32
543.64	423.64
543.81	390.87
543.98	400.23
544.15	404.91
544.32	393.21
544.48	442.36
544.65	372.15
544.82	442.36
544.99	369.80
545.16	428.32
545.32	348.74
545.49	393.21
545.66	461.09
545.83	381.51
546.00	395.55
546.16	416.62
546.33	386.19
546.50	451.72
546.67	421.30
546.83	418.96
547.00	449.38
547.17	341.72
547.34	437.68
547.50	425.98
547.67	447.04
547.84	423.64
548.00	423.64
548.17	388.53
548.34	472.79
548.51	463.43
548.67	376.83
548.84	367.46
549.01	383.85
549.18	454.06
549.34	447.04
549.51	407.25
549.68	400.23
549.84	381.51
550.01	393.21
550.18	479.81
550.34	507.90
550.51	411.93
550.68	393.21
550.84	393.21
551.01	409.59
551.18	430.66
551.34	454.06
551.51	400.23
551.68	428.32
551.84	430.66
552.01	479.81
552.18	292.57
552.34	379.17
552.51	425.98
552.68	400.23
552.84	362.78
553.01	411.93
553.18	425.98
553.34	395.55
553.51	334.70
553.67	383.85
553.84	393.21
554.01	390.87
554.17	404.91
554.34	409.59
554.51	414.27
554.67	423.64
554.84	440.02
555.00	468.11
555.17	351.08
555.33	430.66
555.50	435.34
555.67	428.32
555.83	414.27
556.00	416.62
556.16	578.11
556.33	404.91
556.50	421.30
556.66	421.30
556.83	507.90
556.99	327.68
557.16	458.74
557.32	414.27
557.49	418.96
557.65	447.04
557.82	484.49
557.98	353.42
558.15	381.51
558.32	355.76
558.48	381.51
558.65	468.11
558.81	435.34
558.98	404.91
559.14	468.11
559.31	472.79
559.47	442.36
559.64	404.91
559.80	461.09
559.97	437.68
560.13	353.42
560.30	397.89
560.46	416.62
560.63	449.38
560.79	456.40
560.96	395.55
561.12	411.93
561.29	411.93
561.45	430.66
561.61	395.55
561.78	379.17
561.94	409.59
562.11	425.98
562.27	477.47
562.44	393.21
562.60	454.06
562.77	444.70
562.93	505.56
563.10	414.27
563.26	367.46
563.42	442.36
563.59	463.43
563.75	397.89
563.92	400.23
564.08	458.74
564.24	451.72
564.41	510.24
564.57	435.34
564.74	402.57
564.90	458.74
565.07	383.85
565.23	428.32
565.39	458.74
565.56	451.72
565.72	423.64
565.88	409.59
566.05	400.23
566.21	477.47
566.38	351.08
566.54	463.43
566.70	437.68
566.87	414.27
567.03	418.96
567.19	451.72
567.36	421.30
567.52	414.27
567.68	456.40
567.85	437.68
568.01	416.62
568.17	435.34
568.34	437.68
568.50	360.44
568.66	397.89
568.83	496.19
568.99	416.62
569.15	404.91
569.32	423.64
569.48	397.89
569.64	425.98
569.81	379.17
569.97	348.74
570.13	379.17
570.30	409.59
570.46	404.91
570.62	444.70
570.78	461.09
570.95	428.32
571.11	477.47
571.27	505.56
571.43	400.23
571.60	491.51
571.76	390.87
571.92	362.78
572.09	414.27
572.25	435.34
572.41	386.19
572.57	402.57
572.74	493.85
572.90	442.36
573.06	376.83
573.22	477.47
573.38	475.13
573.55	442.36
573.71	482.15
573.87	456.40
574.03	397.89
574.20	379.17
574.36	447.04
574.52	355.76
574.68	341.72
574.84	444.70
575.01	475.13
575.17	442.36
575.33	442.36
575.49	425.98
575.65	505.56
575.82	425.98
575.98	440.02
576.14	421.30
576.30	369.80
576.46	418.96
576.62	442.36
576.79	411.93
576.95	411.93
577.11	477.47
577.27	402.57
577.43	447.04
577.59	400.23
577.75	440.02
577.92	383.85
578.08	395.55
578.24	376.83
578.40	463.43
578.56	484.49
578.72	475.13
578.88	449.38
579.04	388.53
579.21	447.04
579.37	465.77
579.53	379.17
579.69	400.23
579.85	365.12
580.01	493.85
580.17	386.19
580.33	407.25
580.49	390.87
580.65	428.32
580.82	470.45
580.98	493.85
581.14	393.21
581.30	437.68
581.46	433.00
581.62	362.78
581.78	428.32
581.94	425.98
582.10	315.97
582.26	402.57
582.42	381.51
582.58	416.62
582.74	320.65
582.90	414.27
583.06	449.38
583.22	381.51
583.38	404.91
583.54	400.23
583.70	416.62
583.86	402.57
584.02	362.78
584.18	524.28
584.34	456.40
584.50	407.25
584.66	430.66
584.82	465.77
584.98	372.15
585.14	374.49
585.30	472.79
585.46	402.57
585.62	369.80
585.78	402.57
585.94	400.23
586.10	475.13
586.26	414.27
586.42	418.96
586.58	435.34
586.74	355.76
586.90	407.25
587.06	433.00
587.22	388.53
587.38	388.53
587.54	496.19
587.70	442.36
587.86	404.91
588.02	381.51
588.18	435.34
588.34	479.81
588.49	360.44
588.65	351.08
588.81	475.13
588.97	437.68
589.13	407.25
589.29	402.57
589.45	437.68
589.61	414.27
589.77	472.79
589.93	423.64
590.08	330.02
590.24	491.51
590.40	454.06
590.56	416.62
590.72	421.30
590.88	409.59
591.04	416.62
591.20	400.23
591.35	463.43
591.51	449.38
591.67	334.70
591.83	447.04
591.99	447.04
592.15	433.00
592.31	447.04
592.46	393.21
592.62	468.11
592.78	449.38
592.94	402.57
593.10	421.30
593.26	409.59
593.41	381.51
593.57	390.87
593.73	351.08
593.89	433.00
594.05	437.68
594.20	383.85
594.36	386.19
594.52	423.64
594.68	421.30
594.84	479.81
594.99	440.02
595.15	433.00
595.31	482.15
595.47	444.70
595.62	411.93
595.78	374.49
595.94	388.53
596.10	435.34
596.25	421.30
596.41	475.13
596.57	376.83
596.73	386.19
596.88	400.23
597.04	414.27
597.20	416.62
597.36	447.04
597.51	322.99
597.67	388.53
597.83	379.17
597.99	418.96
598.14	430.66
598.30	433.00
598.46	379.17
598.61	465.77
598.77	332.36
598.93	386.19
599.09	369.80
599.24	444.70
599.40	465.77
599.56	393.21
599.71	404.91
599.87	360.44
600.03	390.87
600.18	416.62
600.34	423.64
600.50	416.62
600.65	409.59
600.81	400.23
600.97	397.89
601.12	411.93
601.28	411.93
601.44	386.19
601.59	449.38
601.75	449.38
601.91	358.10
602.06	470.45
602.22	447.04
602.37	369.80
602.53	421.30
602.69	463.43
602.84	409.59
603.00	468.11
603.16	353.42
603.31	505.56
603.47	425.98
603.62	362.78
603.78	421.30
603.94	358.10
604.09	418.96
604.25	421.30
604.40	470.45
604.56	430.66
604.71	472.79
604.87	358.10
605.03	369.80
605.18	372.15
605.34	447.04
605.49	411.93
605.65	430.66
605.80	454.06
605.96	447.04
606.12	402.57
606.27	393.21
606.43	404.91
606.58	411.93
606.74	397.89
606.89	393.21
607.05	437.68
607.20	407.25
607.36	433.00
607.51	374.49
607.67	372.15
607.82	498.53
607.98	510.24
608.13	423.64
608.29	447.04
608.44	451.72
608.60	428.32
608.75	468.11
608.91	463.43
609.06	437.68
609.22	411.93
609.37	393.21
609.53	388.53
609.68	449.38
609.84	414.27
609.99	416.62
610.15	388.53
