SpectraSuite Data File
++++++++++++++++++++++++++++++++++++
Date: Fri Oct 25 12:11:34 EDT 2013
User: price-jones
Dark Spectrum Present: No
Reference Spectrum Present: No
Number of Sampled Component Spectra: 1
Spectrometers: USB2+H05261
Integration Time (usec): 100000 (USB2+H05261)
Spectra Averaged: 1 (USB2+H05261)
Boxcar Smoothing: 0 (USB2+H05261)
Correct for Electrical Dark: No (USB2+H05261)
Strobe/Lamp Enabled: No (USB2+H05261)
Correct for Detector Non-linearity: No (USB2+H05261)
Correct for Stray Light: No (USB2+H05261)
Number of Pixels in Processed Spectrum: 2048
>>>>>Begin Processed Spectral Data<<<<<
365.73	315.97
365.92	315.97
366.12	315.97
366.32	320.65
366.52	250.44
366.72	283.20
366.91	224.69
367.11	248.10
367.31	271.50
367.51	170.86
367.70	252.78
367.90	224.69
368.10	224.69
368.30	255.12
368.49	229.37
368.69	360.44
368.89	259.80
369.09	224.69
369.28	248.10
369.48	334.70
369.68	285.55
369.87	304.27
370.07	297.25
370.27	299.59
370.47	252.78
370.66	318.31
370.86	257.46
371.06	379.17
371.25	468.11
371.45	372.15
371.65	430.66
371.84	330.02
372.04	351.08
372.24	355.76
372.44	367.46
372.63	393.21
372.83	383.85
373.03	339.38
373.22	390.87
373.42	386.19
373.62	418.96
373.81	381.51
374.01	461.09
374.21	425.98
374.40	444.70
374.60	447.04
374.79	418.96
374.99	465.77
375.19	430.66
375.38	400.23
375.58	327.68
375.78	411.93
375.97	374.49
376.17	489.17
376.37	440.02
376.56	388.53
376.76	447.04
376.95	411.93
377.15	390.87
377.35	409.59
377.54	402.57
377.74	355.76
377.93	435.34
378.13	444.70
378.33	454.06
378.52	367.46
378.72	383.85
378.91	440.02
379.11	447.04
379.31	362.78
379.50	447.04
379.70	353.42
379.89	400.23
380.09	372.15
380.28	365.12
380.48	351.08
380.68	379.17
380.87	411.93
381.07	372.15
381.26	416.62
381.46	430.66
381.65	344.06
381.85	390.87
382.04	425.98
382.24	430.66
382.43	456.40
382.63	407.25
382.83	337.04
383.02	428.32
383.22	451.72
383.41	374.49
383.61	365.12
383.80	430.66
384.00	388.53
384.19	407.25
384.39	437.68
384.58	390.87
384.78	418.96
384.97	498.53
385.17	395.55
385.36	449.38
385.56	397.89
385.75	407.25
385.95	414.27
386.14	374.49
386.34	407.25
386.53	372.15
386.72	381.51
386.92	404.91
387.11	433.00
387.31	393.21
387.50	402.57
387.70	395.55
387.89	421.30
388.09	388.53
388.28	407.25
388.48	344.06
388.67	440.02
388.86	360.44
389.06	442.36
389.25	456.40
389.45	433.00
389.64	402.57
389.84	421.30
390.03	400.23
390.22	388.53
390.42	311.29
390.61	365.12
390.81	414.27
391.00	435.34
391.19	430.66
391.39	367.46
391.58	475.13
391.78	362.78
391.97	397.89
392.16	397.89
392.36	383.85
392.55	440.02
392.75	430.66
392.94	425.98
393.13	468.11
393.33	381.51
393.52	423.64
393.71	374.49
393.91	435.34
394.10	381.51
394.29	414.27
394.49	358.10
394.68	402.57
394.88	409.59
395.07	425.98
395.26	451.72
395.46	411.93
395.65	411.93
395.84	404.91
396.04	470.45
396.23	449.38
396.42	416.62
396.62	433.00
396.81	433.00
397.00	372.15
397.19	390.87
397.39	414.27
397.58	435.34
397.77	365.12
397.97	381.51
398.16	386.19
398.35	353.42
398.55	402.57
398.74	493.85
398.93	461.09
399.12	397.89
399.32	337.04
399.51	322.99
399.70	425.98
399.90	458.74
400.09	379.17
400.28	400.23
400.47	404.91
400.67	430.66
400.86	386.19
401.05	411.93
401.24	444.70
401.44	465.77
401.63	440.02
401.82	444.70
402.01	351.08
402.21	362.78
402.40	489.17
402.59	388.53
402.78	425.98
402.97	327.68
403.17	388.53
403.36	409.59
403.55	421.30
403.74	407.25
403.93	367.46
404.13	451.72
404.32	447.04
404.51	379.17
404.70	414.27
404.89	470.45
405.09	451.72
405.28	423.64
405.47	395.55
405.66	449.38
405.85	454.06
406.05	348.74
406.24	433.00
406.43	430.66
406.62	416.62
406.81	440.02
407.00	472.79
407.20	379.17
407.39	386.19
407.58	404.91
407.77	442.36
407.96	351.08
408.15	435.34
408.34	397.89
408.54	430.66
408.73	404.91
408.92	423.64
409.11	409.59
409.30	437.68
409.49	418.96
409.68	421.30
409.87	430.66
410.07	397.89
410.26	411.93
410.45	393.21
410.64	421.30
410.83	425.98
411.02	372.15
411.21	421.30
411.40	365.12
411.59	393.21
411.78	437.68
411.98	442.36
412.17	308.95
412.36	435.34
412.55	428.32
412.74	339.38
412.93	407.25
413.12	360.44
413.31	437.68
413.50	411.93
413.69	423.64
413.88	418.96
414.07	463.43
414.26	472.79
414.45	362.78
414.64	482.15
414.83	491.51
415.02	444.70
415.22	381.51
415.41	451.72
415.60	390.87
415.79	454.06
415.98	470.45
416.17	418.96
416.36	421.30
416.55	411.93
416.74	435.34
416.93	386.19
417.12	425.98
417.31	393.21
417.50	425.98
417.69	430.66
417.88	402.57
418.07	418.96
418.26	456.40
418.45	402.57
418.64	447.04
418.83	430.66
419.02	360.44
419.21	369.80
419.39	369.80
419.58	360.44
419.77	470.45
419.96	493.85
420.15	442.36
420.34	393.21
420.53	425.98
420.72	428.32
420.91	393.21
421.10	442.36
421.29	351.08
421.48	437.68
421.67	449.38
421.86	449.38
422.05	407.25
422.24	390.87
422.43	379.17
422.61	381.51
422.80	425.98
422.99	423.64
423.18	468.11
423.37	447.04
423.56	421.30
423.75	461.09
423.94	414.27
424.13	390.87
424.32	344.06
424.50	379.17
424.69	440.02
424.88	433.00
425.07	400.23
425.26	440.02
425.45	461.09
425.64	458.74
425.83	315.97
426.01	418.96
426.20	315.97
426.39	425.98
426.58	402.57
426.77	442.36
426.96	477.47
427.15	458.74
427.33	397.89
427.52	404.91
427.71	468.11
427.90	407.25
428.09	423.64
428.28	409.59
428.46	437.68
428.65	421.30
428.84	458.74
429.03	428.32
429.22	456.40
429.40	421.30
429.59	454.06
429.78	393.21
429.97	379.17
430.16	372.15
430.34	454.06
430.53	397.89
430.72	449.38
430.91	440.02
431.10	428.32
431.28	409.59
431.47	433.00
431.66	362.78
431.85	311.29
432.03	365.12
432.22	442.36
432.41	428.32
432.60	486.83
432.79	435.34
432.97	411.93
433.16	376.83
433.35	393.21
433.54	386.19
433.72	484.49
433.91	461.09
434.10	437.68
434.28	468.11
434.47	355.76
434.66	430.66
434.85	425.98
435.03	341.72
435.22	388.53
435.41	461.09
435.59	428.32
435.78	390.87
435.97	402.57
436.16	430.66
436.34	416.62
436.53	456.40
436.72	442.36
436.90	430.66
437.09	344.06
437.28	454.06
437.46	449.38
437.65	430.66
437.84	470.45
438.02	444.70
438.21	435.34
438.40	447.04
438.58	444.70
438.77	402.57
438.96	416.62
439.14	468.11
439.33	442.36
439.52	442.36
439.70	374.49
439.89	381.51
440.08	442.36
440.26	395.55
440.45	430.66
440.63	393.21
440.82	437.68
441.01	404.91
441.19	351.08
441.38	482.15
441.57	351.08
441.75	411.93
441.94	428.32
442.12	425.98
442.31	383.85
442.50	393.21
442.68	449.38
442.87	430.66
443.05	449.38
443.24	461.09
443.43	428.32
443.61	315.97
443.80	433.00
443.98	407.25
444.17	451.72
444.35	454.06
444.54	416.62
444.73	367.46
444.91	351.08
445.10	374.49
445.28	367.46
445.47	402.57
445.65	479.81
445.84	388.53
446.02	411.93
446.21	379.17
446.39	374.49
446.58	416.62
446.77	372.15
446.95	393.21
447.14	463.43
447.32	500.87
447.51	390.87
447.69	433.00
447.88	369.80
448.06	402.57
448.25	435.34
448.43	442.36
448.62	362.78
448.80	390.87
448.99	411.93
449.17	402.57
449.36	388.53
449.54	362.78
449.73	449.38
449.91	416.62
450.10	451.72
450.28	463.43
450.46	461.09
450.65	421.30
450.83	421.30
451.02	428.32
451.20	428.32
451.39	428.32
451.57	472.79
451.76	411.93
451.94	425.98
452.13	411.93
452.31	360.44
452.49	442.36
452.68	322.99
452.86	400.23
453.05	400.23
453.23	409.59
453.42	414.27
453.60	430.66
453.78	414.27
453.97	360.44
454.15	421.30
454.34	484.49
454.52	372.15
454.70	442.36
454.89	416.62
455.07	451.72
455.26	463.43
455.44	500.87
455.62	388.53
455.81	404.91
455.99	444.70
456.17	447.04
456.36	383.85
456.54	423.64
456.73	374.49
456.91	461.09
457.09	444.70
457.28	491.51
457.46	489.17
457.64	421.30
457.83	369.80
458.01	327.68
458.19	404.91
458.38	355.76
458.56	416.62
458.74	442.36
458.93	407.25
459.11	437.68
459.29	416.62
459.48	421.30
459.66	411.93
459.84	461.09
460.03	465.77
460.21	479.81
460.39	428.32
460.57	461.09
460.76	388.53
460.94	400.23
461.12	442.36
461.31	409.59
461.49	388.53
461.67	376.83
461.85	484.49
462.04	395.55
462.22	786.42
462.40	470.45
462.59	484.49
462.77	386.19
462.95	425.98
463.13	374.49
463.32	418.96
463.50	393.21
463.68	454.06
463.86	402.57
464.05	374.49
464.23	447.04
464.41	430.66
464.59	402.57
464.78	400.23
464.96	425.98
465.14	440.02
465.32	407.25
465.50	479.81
465.69	444.70
465.87	449.38
466.05	440.02
466.23	449.38
466.41	414.27
466.60	433.00
466.78	404.91
466.96	454.06
467.14	437.68
467.32	507.90
467.51	407.25
467.69	433.00
467.87	416.62
468.05	444.70
468.23	411.93
468.41	416.62
468.60	407.25
468.78	409.59
468.96	411.93
469.14	383.85
469.32	379.17
469.50	409.59
469.69	435.34
469.87	479.81
470.05	444.70
470.23	447.04
470.41	360.44
470.59	437.68
470.77	369.80
470.95	383.85
471.14	470.45
471.32	381.51
471.50	465.77
471.68	491.51
471.86	390.87
472.04	388.53
472.22	428.32
472.40	376.83
472.58	423.64
472.77	418.96
472.95	339.38
473.13	421.30
473.31	409.59
473.49	421.30
473.67	414.27
473.85	433.00
474.03	407.25
474.21	444.70
474.39	433.00
474.57	533.64
474.75	397.89
474.93	402.57
475.12	379.17
475.30	372.15
475.48	416.62
475.66	388.53
475.84	393.21
476.02	372.15
476.20	397.89
476.38	421.30
476.56	463.43
476.74	435.34
476.92	358.10
477.10	334.70
477.28	428.32
477.46	440.02
477.64	461.09
477.82	362.78
478.00	400.23
478.18	433.00
478.36	411.93
478.54	383.85
478.72	409.59
478.90	376.83
479.08	318.31
479.26	442.36
479.44	411.93
479.62	379.17
479.80	358.10
479.98	435.34
480.16	411.93
480.34	402.57
480.52	404.91
480.70	407.25
480.88	341.72
481.06	393.21
481.24	341.72
481.41	383.85
481.59	407.25
481.77	461.09
481.95	428.32
482.13	418.96
482.31	451.72
482.49	444.70
482.67	475.13
482.85	388.53
483.03	360.44
483.21	348.74
483.39	360.44
483.57	395.55
483.74	468.11
483.92	468.11
484.10	409.59
484.28	395.55
484.46	470.45
484.64	418.96
484.82	430.66
485.00	449.38
485.18	430.66
485.35	407.25
485.53	369.80
485.71	433.00
485.89	346.40
486.07	393.21
486.25	442.36
486.43	386.19
486.61	503.22
486.78	437.68
486.96	388.53
487.14	428.32
487.32	491.51
487.50	435.34
487.68	393.21
487.85	479.81
488.03	404.91
488.21	379.17
488.39	367.46
488.57	355.76
488.75	418.96
488.92	430.66
489.10	402.57
489.28	414.27
489.46	395.55
489.64	409.59
489.81	393.21
489.99	449.38
490.17	395.55
490.35	489.17
490.53	435.34
490.70	458.74
490.88	458.74
491.06	416.62
491.24	430.66
491.41	421.30
491.59	428.32
491.77	463.43
491.95	395.55
492.13	351.08
492.30	440.02
492.48	407.25
492.66	470.45
492.84	435.34
493.01	414.27
493.19	411.93
493.37	400.23
493.54	451.72
493.72	395.55
493.90	395.55
494.08	379.17
494.25	411.93
494.43	411.93
494.61	402.57
494.79	402.57
494.96	372.15
495.14	423.64
495.32	393.21
495.49	505.56
495.67	411.93
495.85	440.02
496.02	416.62
496.20	468.11
496.38	414.27
496.55	433.00
496.73	374.49
496.91	430.66
497.09	461.09
497.26	449.38
497.44	407.25
497.62	358.10
497.79	379.17
497.97	456.40
498.14	400.23
498.32	442.36
498.50	407.25
498.67	330.02
498.85	369.80
499.03	379.17
499.20	425.98
499.38	430.66
499.56	407.25
499.73	498.53
499.91	409.59
500.08	414.27
500.26	430.66
500.44	475.13
500.61	458.74
500.79	484.49
500.97	425.98
501.14	440.02
501.32	421.30
501.49	409.59
501.67	486.83
501.84	435.34
502.02	465.77
502.20	430.66
502.37	428.32
502.55	449.38
502.72	294.91
502.90	433.00
503.07	381.51
503.25	393.21
503.43	435.34
503.60	390.87
503.78	442.36
503.95	346.40
504.13	379.17
504.30	458.74
504.48	470.45
504.65	390.87
504.83	465.77
505.01	414.27
505.18	500.87
505.36	407.25
505.53	388.53
505.71	430.66
505.88	437.68
506.06	414.27
506.23	475.13
506.41	433.00
506.58	437.68
506.76	390.87
506.93	404.91
507.11	421.30
507.28	358.10
507.46	393.21
507.63	381.51
507.81	414.27
507.98	388.53
508.16	369.80
508.33	376.83
508.50	440.02
508.68	423.64
508.85	390.87
509.03	423.64
509.20	400.23
509.38	433.00
509.55	332.36
509.73	397.89
509.90	425.98
510.08	376.83
510.25	486.83
510.42	418.96
510.60	348.74
510.77	465.77
510.95	425.98
511.12	416.62
511.30	369.80
511.47	437.68
511.64	437.68
511.82	442.36
511.99	477.47
512.17	376.83
512.34	358.10
512.51	390.87
512.69	376.83
512.86	374.49
513.04	433.00
513.21	465.77
513.38	379.17
513.56	397.89
513.73	491.51
513.90	489.17
514.08	411.93
514.25	444.70
514.43	404.91
514.60	400.23
514.77	379.17
514.95	397.89
515.12	393.21
515.29	461.09
515.47	379.17
515.64	344.06
515.81	435.34
515.99	435.34
516.16	400.23
516.33	435.34
516.51	447.04
516.68	433.00
516.85	397.89
517.03	435.34
517.20	433.00
517.37	423.64
517.54	458.74
517.72	416.62
517.89	369.80
518.06	433.00
518.24	486.83
518.41	491.51
518.58	468.11
518.75	362.78
518.93	362.78
519.10	421.30
519.27	390.87
519.45	428.32
519.62	491.51
519.79	404.91
519.96	393.21
520.14	367.46
520.31	496.19
520.48	404.91
520.65	491.51
520.83	402.57
521.00	435.34
521.17	404.91
521.34	318.31
521.52	400.23
521.69	409.59
521.86	418.96
522.03	402.57
522.20	447.04
522.38	418.96
522.55	433.00
522.72	367.46
522.89	454.06
523.07	447.04
523.24	430.66
523.41	428.32
523.58	470.45
523.75	437.68
523.92	388.53
524.10	435.34
524.27	414.27
524.44	435.34
524.61	449.38
524.78	360.44
524.96	442.36
525.13	416.62
525.30	440.02
525.47	430.66
525.64	404.91
525.81	407.25
525.98	369.80
526.16	365.12
526.33	334.70
526.50	320.65
526.67	320.65
526.84	362.78
527.01	433.00
527.18	407.25
527.36	402.57
527.53	440.02
527.70	437.68
527.87	514.92
528.04	477.47
528.21	353.42
528.38	428.32
528.55	472.79
528.72	421.30
528.89	475.13
529.07	397.89
529.24	437.68
529.41	421.30
529.58	397.89
529.75	404.91
529.92	388.53
530.09	421.30
530.26	390.87
530.43	409.59
530.60	355.76
530.77	458.74
530.94	425.98
531.11	404.91
531.28	430.66
531.46	381.51
531.63	414.27
531.80	421.30
531.97	393.21
532.14	451.72
532.31	332.36
532.48	428.32
532.65	367.46
532.82	341.72
532.99	442.36
533.16	425.98
533.33	407.25
533.50	374.49
533.67	353.42
533.84	360.44
534.01	421.30
534.18	402.57
534.35	404.91
534.52	400.23
534.69	400.23
534.86	421.30
535.03	428.32
535.20	442.36
535.37	423.64
535.54	458.74
535.71	400.23
535.88	491.51
536.05	402.57
536.22	440.02
536.38	395.55
536.55	411.93
536.72	451.72
536.89	362.78
537.06	358.10
537.23	383.85
537.40	388.53
537.57	369.80
537.74	449.38
537.91	421.30
538.08	423.64
538.25	411.93
538.42	433.00
538.59	416.62
538.75	397.89
538.92	437.68
539.09	465.77
539.26	437.68
539.43	409.59
539.60	383.85
539.77	402.57
539.94	433.00
540.11	482.15
540.28	486.83
540.44	433.00
540.61	514.92
540.78	454.06
540.95	449.38
541.12	409.59
541.29	440.02
541.46	437.68
541.62	414.27
541.79	435.34
541.96	353.42
542.13	353.42
542.30	435.34
542.47	393.21
542.63	440.02
542.80	381.51
542.97	330.02
543.14	411.93
543.31	428.32
543.48	334.70
543.64	421.30
543.81	442.36
543.98	367.46
544.15	386.19
544.32	418.96
544.48	449.38
544.65	409.59
544.82	428.32
544.99	418.96
545.16	400.23
545.32	503.22
545.49	430.66
545.66	365.12
545.83	421.30
546.00	409.59
546.16	388.53
546.33	372.15
546.50	447.04
546.67	465.77
546.83	484.49
547.00	360.44
547.17	365.12
547.34	428.32
547.50	472.79
547.67	435.34
547.84	444.70
548.00	374.49
548.17	407.25
548.34	393.21
548.51	477.47
548.67	430.66
548.84	444.70
549.01	372.15
549.18	383.85
549.34	458.74
549.51	388.53
549.68	409.59
549.84	463.43
550.01	435.34
550.18	491.51
550.34	484.49
550.51	425.98
550.68	468.11
550.84	498.53
551.01	404.91
551.18	379.17
551.34	484.49
551.51	404.91
551.68	358.10
551.84	414.27
552.01	414.27
552.18	393.21
552.34	477.47
552.51	411.93
552.68	528.96
552.84	425.98
553.01	423.64
553.18	400.23
553.34	454.06
553.51	418.96
553.67	435.34
553.84	407.25
554.01	393.21
554.17	407.25
554.34	414.27
554.51	402.57
554.67	493.85
554.84	381.51
555.00	449.38
555.17	418.96
555.33	449.38
555.50	449.38
555.67	400.23
555.83	374.49
556.00	470.45
556.16	519.60
556.33	482.15
556.50	395.55
556.66	458.74
556.83	437.68
556.99	404.91
557.16	416.62
557.32	393.21
557.49	414.27
557.65	383.85
557.82	402.57
557.98	383.85
558.15	360.44
558.32	390.87
558.48	423.64
558.65	496.19
558.81	444.70
558.98	400.23
559.14	423.64
559.31	449.38
559.47	411.93
559.64	318.31
559.80	414.27
559.97	393.21
560.13	458.74
560.30	449.38
560.46	393.21
560.63	383.85
560.79	425.98
560.96	535.98
561.12	435.34
561.29	381.51
561.45	472.79
561.61	430.66
561.78	456.40
561.94	496.19
562.11	404.91
562.27	421.30
562.44	409.59
562.60	397.89
562.77	423.64
562.93	407.25
563.10	425.98
563.26	407.25
563.42	444.70
563.59	435.34
563.75	390.87
563.92	409.59
564.08	404.91
564.24	435.34
564.41	393.21
564.57	390.87
564.74	430.66
564.90	414.27
565.07	461.09
565.23	463.43
565.39	402.57
565.56	400.23
565.72	397.89
565.88	444.70
566.05	397.89
566.21	379.17
566.38	435.34
566.54	550.03
566.70	463.43
566.87	351.08
567.03	337.04
567.19	397.89
567.36	390.87
567.52	496.19
567.68	379.17
567.85	440.02
568.01	454.06
568.17	409.59
568.34	418.96
568.50	454.06
568.66	383.85
568.83	437.68
568.99	388.53
569.15	519.60
569.32	411.93
569.48	407.25
569.64	407.25
569.81	390.87
569.97	374.49
570.13	463.43
570.30	339.38
570.46	411.93
570.62	400.23
570.78	290.23
570.95	390.87
571.11	444.70
571.27	554.71
571.43	393.21
571.60	430.66
571.76	376.83
571.92	442.36
572.09	402.57
572.25	449.38
572.41	449.38
572.57	470.45
572.74	433.00
572.90	390.87
573.06	461.09
573.22	428.32
573.38	346.40
573.55	472.79
573.71	425.98
573.87	444.70
574.03	395.55
574.20	428.32
574.36	425.98
574.52	430.66
574.68	447.04
574.84	379.17
575.01	430.66
575.17	395.55
575.33	418.96
575.49	447.04
575.65	379.17
575.82	404.91
575.98	428.32
576.14	325.33
576.30	400.23
576.46	404.91
576.62	428.32
576.79	482.15
576.95	423.64
577.11	437.68
577.27	465.77
577.43	409.59
577.59	486.83
577.75	482.15
577.92	444.70
578.08	454.06
578.24	404.91
578.40	451.72
578.56	440.02
578.72	468.11
578.88	369.80
579.04	379.17
579.21	440.02
579.37	372.15
579.53	430.66
579.69	479.81
579.85	411.93
580.01	411.93
580.17	447.04
580.33	465.77
580.49	393.21
580.65	418.96
580.82	409.59
580.98	402.57
581.14	360.44
581.30	404.91
581.46	444.70
581.62	470.45
581.78	334.70
581.94	374.49
582.10	407.25
582.26	358.10
582.42	411.93
582.58	428.32
582.74	418.96
582.90	425.98
583.06	472.79
583.22	416.62
583.38	388.53
583.54	367.46
583.70	482.15
583.86	428.32
584.02	390.87
584.18	407.25
584.34	402.57
584.50	447.04
584.66	360.44
584.82	437.68
584.98	360.44
585.14	379.17
585.30	397.89
585.46	440.02
585.62	430.66
585.78	388.53
585.94	376.83
586.10	428.32
586.26	425.98
586.42	489.17
586.58	416.62
586.74	367.46
586.90	381.51
587.06	355.76
587.22	470.45
587.38	390.87
587.54	425.98
587.70	440.02
587.86	386.19
588.02	442.36
588.18	447.04
588.34	418.96
588.49	374.49
588.65	358.10
588.81	353.42
588.97	472.79
589.13	407.25
589.29	416.62
589.45	519.60
589.61	435.34
589.77	479.81
589.93	372.15
590.08	379.17
590.24	454.06
590.40	435.34
590.56	407.25
590.72	437.68
590.88	397.89
591.04	433.00
591.20	416.62
591.35	374.49
591.51	435.34
591.67	454.06
591.83	355.76
591.99	386.19
592.15	505.56
592.31	472.79
592.46	386.19
592.62	423.64
592.78	393.21
592.94	390.87
593.10	395.55
593.26	365.12
593.41	409.59
593.57	430.66
593.73	337.04
593.89	447.04
594.05	395.55
594.20	477.47
594.36	425.98
594.52	425.98
594.68	409.59
594.84	416.62
594.99	425.98
595.15	397.89
595.31	421.30
595.47	414.27
595.62	421.30
595.78	362.78
595.94	402.57
596.10	369.80
596.25	369.80
596.41	386.19
596.57	468.11
596.73	402.57
596.88	447.04
597.04	379.17
597.20	367.46
597.36	461.09
597.51	428.32
597.67	463.43
597.83	418.96
597.99	461.09
598.14	409.59
598.30	407.25
598.46	397.89
598.61	463.43
598.77	475.13
598.93	409.59
599.09	423.64
599.24	470.45
599.40	463.43
599.56	395.55
599.71	313.63
599.87	393.21
600.03	498.53
600.18	390.87
600.34	393.21
600.50	472.79
600.65	435.34
600.81	489.17
600.97	435.34
601.12	468.11
601.28	440.02
601.44	475.13
601.59	421.30
601.75	418.96
601.91	407.25
602.06	433.00
602.22	397.89
602.37	353.42
602.53	414.27
602.69	411.93
602.84	505.56
603.00	409.59
603.16	386.19
603.31	418.96
603.47	416.62
603.62	383.85
603.78	409.59
603.94	437.68
604.09	365.12
604.25	470.45
604.40	493.85
604.56	447.04
604.71	430.66
604.87	433.00
605.03	418.96
605.18	390.87
605.34	430.66
605.49	468.11
605.65	313.63
605.80	430.66
605.96	437.68
606.12	395.55
606.27	449.38
606.43	379.17
606.58	397.89
606.74	374.49
606.89	409.59
607.05	292.57
607.20	395.55
607.36	372.15
607.51	416.62
607.67	451.72
607.82	418.96
607.98	514.92
608.13	489.17
608.29	433.00
608.44	418.96
608.60	418.96
608.75	468.11
608.91	423.64
609.06	376.83
609.22	423.64
609.37	344.06
609.53	550.03
609.68	416.62
609.84	388.53
609.99	440.02
610.15	447.04
