SpectraSuite Data File
++++++++++++++++++++++++++++++++++++
Date: Fri Oct 25 12:11:33 EDT 2013
User: price-jones
Dark Spectrum Present: No
Reference Spectrum Present: No
Number of Sampled Component Spectra: 1
Spectrometers: USB2+H05261
Integration Time (usec): 100000 (USB2+H05261)
Spectra Averaged: 1 (USB2+H05261)
Boxcar Smoothing: 0 (USB2+H05261)
Correct for Electrical Dark: No (USB2+H05261)
Strobe/Lamp Enabled: No (USB2+H05261)
Correct for Detector Non-linearity: No (USB2+H05261)
Correct for Stray Light: No (USB2+H05261)
Number of Pixels in Processed Spectrum: 2048
>>>>>Begin Processed Spectral Data<<<<<
365.73	318.31
365.92	318.31
366.12	318.31
366.32	236.39
366.52	191.92
366.72	241.08
366.91	224.69
367.11	231.71
367.31	212.99
367.51	173.20
367.70	234.05
367.90	334.70
368.10	224.69
368.30	278.52
368.49	271.50
368.69	301.93
368.89	334.70
369.09	243.42
369.28	231.71
369.48	243.42
369.68	177.88
369.87	266.82
370.07	308.95
370.27	334.70
370.47	348.74
370.66	269.16
370.86	320.65
371.06	397.89
371.25	414.27
371.45	360.44
371.65	402.57
371.84	360.44
372.04	409.59
372.24	482.15
372.44	376.83
372.63	437.68
372.83	397.89
373.03	491.51
373.22	421.30
373.42	482.15
373.62	418.96
373.81	383.85
374.01	407.25
374.21	444.70
374.40	454.06
374.60	463.43
374.79	463.43
374.99	449.38
375.19	418.96
375.38	374.49
375.58	400.23
375.78	468.11
375.97	437.68
376.17	411.93
376.37	355.76
376.56	416.62
376.76	428.32
376.95	421.30
377.15	348.74
377.35	454.06
377.54	437.68
377.74	390.87
377.93	379.17
378.13	444.70
378.33	425.98
378.52	461.09
378.72	418.96
378.91	458.74
379.11	393.21
379.31	386.19
379.50	318.31
379.70	423.64
379.89	454.06
380.09	411.93
380.28	411.93
380.48	451.72
380.68	383.85
380.87	325.33
381.07	379.17
381.26	444.70
381.46	390.87
381.65	428.32
381.85	423.64
382.04	411.93
382.24	472.79
382.43	337.04
382.63	379.17
382.83	472.79
383.02	456.40
383.22	456.40
383.41	362.78
383.61	381.51
383.80	442.36
384.00	390.87
384.19	369.80
384.39	334.70
384.58	428.32
384.78	414.27
384.97	383.85
385.17	447.04
385.36	322.99
385.56	416.62
385.75	379.17
385.95	374.49
386.14	393.21
386.34	421.30
386.53	414.27
386.72	414.27
386.92	395.55
387.11	411.93
387.31	404.91
387.50	428.32
387.70	369.80
387.89	374.49
388.09	365.12
388.28	369.80
388.48	376.83
388.67	425.98
388.86	393.21
389.06	463.43
389.25	362.78
389.45	437.68
389.64	337.04
389.84	442.36
390.03	500.87
390.22	379.17
390.42	395.55
390.61	449.38
390.81	414.27
391.00	416.62
391.19	402.57
391.39	440.02
391.58	421.30
391.78	454.06
391.97	393.21
392.16	409.59
392.36	409.59
392.55	409.59
392.75	374.49
392.94	435.34
393.13	449.38
393.33	416.62
393.52	433.00
393.71	400.23
393.91	451.72
394.10	390.87
394.29	402.57
394.49	360.44
394.68	383.85
394.88	388.53
395.07	428.32
395.26	402.57
395.46	482.15
395.65	397.89
395.84	444.70
396.04	477.47
396.23	306.61
396.42	355.76
396.62	388.53
396.81	437.68
397.00	440.02
397.19	353.42
397.39	395.55
397.58	479.81
397.77	430.66
397.97	463.43
398.16	379.17
398.35	418.96
398.55	348.74
398.74	404.91
398.93	390.87
399.12	374.49
399.32	416.62
399.51	379.17
399.70	393.21
399.90	411.93
400.09	428.32
400.28	421.30
400.47	397.89
400.67	472.79
400.86	351.08
401.05	423.64
401.24	521.94
401.44	397.89
401.63	477.47
401.82	456.40
402.01	360.44
402.21	407.25
402.40	421.30
402.59	362.78
402.78	381.51
402.97	393.21
403.17	374.49
403.36	416.62
403.55	461.09
403.74	421.30
403.93	496.19
404.13	351.08
404.32	337.04
404.51	425.98
404.70	390.87
404.89	421.30
405.09	421.30
405.28	379.17
405.47	425.98
405.66	444.70
405.85	402.57
406.05	388.53
406.24	402.57
406.43	383.85
406.62	496.19
406.81	454.06
407.00	454.06
407.20	372.15
407.39	376.83
407.58	381.51
407.77	435.34
407.96	383.85
408.15	414.27
408.34	388.53
408.54	362.78
408.73	322.99
408.92	374.49
409.11	376.83
409.30	383.85
409.49	404.91
409.68	395.55
409.87	418.96
410.07	346.40
410.26	416.62
410.45	332.36
410.64	437.68
410.83	430.66
411.02	402.57
411.21	425.98
411.40	454.06
411.59	449.38
411.78	369.80
411.98	470.45
412.17	369.80
412.36	409.59
412.55	367.46
412.74	367.46
412.93	383.85
413.12	418.96
413.31	458.74
413.50	381.51
413.69	409.59
413.88	472.79
414.07	454.06
414.26	491.51
414.45	367.46
414.64	519.60
414.83	430.66
415.02	397.89
415.22	332.36
415.41	404.91
415.60	442.36
415.79	449.38
415.98	477.47
416.17	383.85
416.36	393.21
416.55	381.51
416.74	430.66
416.93	463.43
417.12	400.23
417.31	374.49
417.50	442.36
417.69	360.44
417.88	390.87
418.07	381.51
418.26	395.55
418.45	381.51
418.64	360.44
418.83	451.72
419.02	379.17
419.21	409.59
419.39	402.57
419.58	451.72
419.77	355.76
419.96	411.93
420.15	437.68
420.34	437.68
420.53	376.83
420.72	449.38
420.91	418.96
421.10	428.32
421.29	402.57
421.48	400.23
421.67	411.93
421.86	449.38
422.05	435.34
422.24	404.91
422.43	489.17
422.61	388.53
422.80	369.80
422.99	404.91
423.18	430.66
423.37	414.27
423.56	477.47
423.75	383.85
423.94	397.89
424.13	449.38
424.32	355.76
424.50	367.46
424.69	442.36
424.88	400.23
425.07	388.53
425.26	397.89
425.45	472.79
425.64	489.17
425.83	337.04
426.01	458.74
426.20	341.72
426.39	390.87
426.58	376.83
426.77	400.23
426.96	444.70
427.15	468.11
427.33	393.21
427.52	367.46
427.71	386.19
427.90	404.91
428.09	383.85
428.28	442.36
428.46	470.45
428.65	440.02
428.84	376.83
429.03	390.87
429.22	421.30
429.40	430.66
429.59	411.93
429.78	433.00
429.97	411.93
430.16	372.15
430.34	433.00
430.53	454.06
430.72	472.79
430.91	433.00
431.10	425.98
431.28	463.43
431.47	440.02
431.66	358.10
431.85	304.27
432.03	437.68
432.22	477.47
432.41	454.06
432.60	404.91
432.79	374.49
432.97	386.19
433.16	395.55
433.35	390.87
433.54	409.59
433.72	425.98
433.91	461.09
434.10	447.04
434.28	337.04
434.47	397.89
434.66	428.32
434.85	376.83
435.03	425.98
435.22	454.06
435.41	465.77
435.59	442.36
435.78	388.53
435.97	411.93
436.16	418.96
436.34	374.49
436.53	435.34
436.72	430.66
436.90	507.90
437.09	528.96
437.28	477.47
437.46	407.25
437.65	423.64
437.84	449.38
438.02	472.79
438.21	355.76
438.40	447.04
438.58	414.27
438.77	425.98
438.96	470.45
439.14	425.98
439.33	428.32
439.52	414.27
439.70	404.91
439.89	421.30
440.08	397.89
440.26	468.11
440.45	365.12
440.63	437.68
440.82	395.55
441.01	339.38
441.19	512.58
441.38	374.49
441.57	369.80
441.75	362.78
441.94	430.66
442.12	390.87
442.31	407.25
442.50	416.62
442.68	414.27
442.87	437.68
443.05	447.04
443.24	454.06
443.43	386.19
443.61	437.68
443.80	376.83
443.98	416.62
444.17	507.90
444.35	400.23
444.54	395.55
444.73	423.64
444.91	442.36
445.10	421.30
445.28	418.96
445.47	383.85
445.65	421.30
445.84	308.95
446.02	386.19
446.21	437.68
446.39	449.38
446.58	395.55
446.77	395.55
446.95	395.55
447.14	402.57
447.32	507.90
447.51	444.70
447.69	454.06
447.88	409.59
448.06	454.06
448.25	379.17
448.43	414.27
448.62	430.66
448.80	423.64
448.99	482.15
449.17	507.90
449.36	425.98
449.54	381.51
449.73	418.96
449.91	456.40
450.10	374.49
450.28	407.25
450.46	390.87
450.65	425.98
450.83	390.87
451.02	407.25
451.20	447.04
451.39	437.68
451.57	388.53
451.76	365.12
451.94	433.00
452.13	381.51
452.31	447.04
452.49	435.34
452.68	407.25
452.86	475.13
453.05	451.72
453.23	437.68
453.42	395.55
453.60	400.23
453.78	390.87
453.97	402.57
454.15	365.12
454.34	374.49
454.52	341.72
454.70	425.98
454.89	447.04
455.07	409.59
455.26	463.43
455.44	456.40
455.62	358.10
455.81	414.27
455.99	456.40
456.17	418.96
456.36	437.68
456.54	451.72
456.73	442.36
456.91	404.91
457.09	409.59
457.28	442.36
457.46	411.93
457.64	409.59
457.83	388.53
458.01	383.85
458.19	404.91
458.38	407.25
458.56	437.68
458.74	400.23
458.93	365.12
459.11	388.53
459.29	414.27
459.48	390.87
459.66	388.53
459.84	372.15
460.03	510.24
460.21	395.55
460.39	430.66
460.57	437.68
460.76	430.66
460.94	442.36
461.12	447.04
461.31	493.85
461.49	437.68
461.67	355.76
461.85	433.00
462.04	308.95
462.22	849.61
462.40	468.11
462.59	458.74
462.77	468.11
462.95	437.68
463.13	414.27
463.32	425.98
463.50	407.25
463.68	411.93
463.86	400.23
464.05	428.32
464.23	470.45
464.41	430.66
464.59	400.23
464.78	409.59
464.96	346.40
465.14	381.51
465.32	348.74
465.50	397.89
465.69	388.53
465.87	318.31
466.05	418.96
466.23	435.34
466.41	461.09
466.60	447.04
466.78	369.80
466.96	465.77
467.14	397.89
467.32	383.85
467.51	421.30
467.69	425.98
467.87	482.15
468.05	440.02
468.23	496.19
468.41	358.10
468.60	430.66
468.78	376.83
468.96	395.55
469.14	393.21
469.32	348.74
469.50	404.91
469.69	416.62
469.87	409.59
470.05	430.66
470.23	470.45
470.41	353.42
470.59	386.19
470.77	451.72
470.95	409.59
471.14	435.34
471.32	379.17
471.50	388.53
471.68	440.02
471.86	425.98
472.04	369.80
472.22	374.49
472.40	404.91
472.58	320.65
472.77	372.15
472.95	355.76
473.13	390.87
473.31	400.23
473.49	463.43
473.67	369.80
473.85	358.10
474.03	482.15
474.21	451.72
474.39	407.25
474.57	421.30
474.75	428.32
474.93	447.04
475.12	383.85
475.30	423.64
475.48	428.32
475.66	423.64
475.84	400.23
476.02	414.27
476.20	475.13
476.38	369.80
476.56	442.36
476.74	376.83
476.92	475.13
477.10	421.30
477.28	447.04
477.46	435.34
477.64	400.23
477.82	339.38
478.00	397.89
478.18	409.59
478.36	477.47
478.54	444.70
478.72	362.78
478.90	388.53
479.08	440.02
479.26	388.53
479.44	381.51
479.62	440.02
479.80	362.78
479.98	400.23
480.16	425.98
480.34	491.51
480.52	423.64
480.70	463.43
480.88	369.80
481.06	496.19
481.24	390.87
481.41	376.83
481.59	362.78
481.77	421.30
481.95	386.19
482.13	425.98
482.31	404.91
482.49	388.53
482.67	425.98
482.85	442.36
483.03	444.70
483.21	402.57
483.39	383.85
483.57	444.70
483.74	430.66
483.92	346.40
484.10	353.42
484.28	374.49
484.46	447.04
484.64	400.23
484.82	397.89
485.00	395.55
485.18	393.21
485.35	421.30
485.53	395.55
485.71	444.70
485.89	379.17
486.07	430.66
486.25	435.34
486.43	428.32
486.61	500.87
486.78	423.64
486.96	397.89
487.14	425.98
487.32	395.55
487.50	407.25
487.68	407.25
487.85	341.72
488.03	449.38
488.21	440.02
488.39	423.64
488.57	386.19
488.75	472.79
488.92	451.72
489.10	402.57
489.28	379.17
489.46	428.32
489.64	407.25
489.81	397.89
489.99	416.62
490.17	386.19
490.35	458.74
490.53	372.15
490.70	393.21
490.88	493.85
491.06	456.40
491.24	423.64
491.41	440.02
491.59	404.91
491.77	425.98
491.95	416.62
492.13	468.11
492.30	454.06
492.48	418.96
492.66	411.93
492.84	360.44
493.01	404.91
493.19	386.19
493.37	393.21
493.54	390.87
493.72	433.00
493.90	423.64
494.08	358.10
494.25	440.02
494.43	437.68
494.61	374.49
494.79	311.29
494.96	365.12
495.14	430.66
495.32	433.00
495.49	423.64
495.67	402.57
495.85	372.15
496.02	479.81
496.20	463.43
496.38	421.30
496.55	463.43
496.73	416.62
496.91	376.83
497.09	430.66
497.26	418.96
497.44	442.36
497.62	430.66
497.79	470.45
497.97	358.10
498.14	381.51
498.32	341.72
498.50	367.46
498.67	358.10
498.85	395.55
499.03	374.49
499.20	407.25
499.38	451.72
499.56	400.23
499.73	421.30
499.91	482.15
500.08	355.76
500.26	444.70
500.44	409.59
500.61	409.59
500.79	421.30
500.97	416.62
501.14	393.21
501.32	484.49
501.49	458.74
501.67	381.51
501.84	423.64
502.02	397.89
502.20	400.23
502.37	468.11
502.55	437.68
502.72	430.66
502.90	400.23
503.07	409.59
503.25	400.23
503.43	397.89
503.60	393.21
503.78	393.21
503.95	376.83
504.13	390.87
504.30	454.06
504.48	491.51
504.65	451.72
504.83	421.30
505.01	409.59
505.18	430.66
505.36	433.00
505.53	379.17
505.71	421.30
505.88	400.23
506.06	435.34
506.23	365.12
506.41	411.93
506.58	374.49
506.76	416.62
506.93	409.59
507.11	454.06
507.28	397.89
507.46	322.99
507.63	346.40
507.81	416.62
507.98	407.25
508.16	383.85
508.33	414.27
508.50	437.68
508.68	435.34
508.85	421.30
509.03	388.53
509.20	458.74
509.38	397.89
509.55	421.30
509.73	486.83
509.90	484.49
510.08	423.64
510.25	496.19
510.42	383.85
510.60	381.51
510.77	442.36
510.95	376.83
511.12	421.30
511.30	414.27
511.47	451.72
511.64	425.98
511.82	395.55
511.99	442.36
512.17	423.64
512.34	435.34
512.51	388.53
512.69	470.45
512.86	482.15
513.04	430.66
513.21	449.38
513.38	423.64
513.56	416.62
513.73	400.23
513.90	372.15
514.08	400.23
514.25	458.74
514.43	437.68
514.60	425.98
514.77	407.25
514.95	358.10
515.12	449.38
515.29	365.12
515.47	341.72
515.64	421.30
515.81	468.11
515.99	418.96
516.16	414.27
516.33	407.25
516.51	463.43
516.68	381.51
516.85	437.68
517.03	386.19
517.20	386.19
517.37	421.30
517.54	444.70
517.72	416.62
517.89	444.70
518.06	425.98
518.24	458.74
518.41	458.74
518.58	479.81
518.75	404.91
518.93	395.55
519.10	386.19
519.27	330.02
519.45	475.13
519.62	461.09
519.79	465.77
519.96	418.96
520.14	423.64
520.31	393.21
520.48	477.47
520.65	374.49
520.83	411.93
521.00	440.02
521.17	337.04
521.34	341.72
521.52	449.38
521.69	498.53
521.86	379.17
522.03	491.51
522.20	421.30
522.38	418.96
522.55	414.27
522.72	351.08
522.89	407.25
523.07	454.06
523.24	433.00
523.41	458.74
523.58	404.91
523.75	404.91
523.92	381.51
524.10	440.02
524.27	402.57
524.44	362.78
524.61	486.83
524.78	437.68
524.96	397.89
525.13	442.36
525.30	433.00
525.47	320.65
525.64	341.72
525.81	423.64
525.98	428.32
526.16	430.66
526.33	449.38
526.50	334.70
526.67	409.59
526.84	468.11
527.01	362.78
527.18	423.64
527.36	400.23
527.53	458.74
527.70	507.90
527.87	507.90
528.04	465.77
528.21	404.91
528.38	442.36
528.55	397.89
528.72	425.98
528.89	519.60
529.07	458.74
529.24	416.62
529.41	465.77
529.58	358.10
529.75	484.49
529.92	433.00
530.09	409.59
530.26	404.91
530.43	404.91
530.60	414.27
530.77	414.27
530.94	463.43
531.11	465.77
531.28	325.33
531.46	400.23
531.63	409.59
531.80	463.43
531.97	383.85
532.14	379.17
532.31	435.34
532.48	397.89
532.65	444.70
532.82	435.34
532.99	315.97
533.16	369.80
533.33	477.47
533.50	435.34
533.67	433.00
533.84	381.51
534.01	421.30
534.18	334.70
534.35	430.66
534.52	470.45
534.69	423.64
534.86	409.59
535.03	386.19
535.20	428.32
535.37	428.32
535.54	477.47
535.71	454.06
535.88	440.02
536.05	395.55
536.22	414.27
536.38	379.17
536.55	470.45
536.72	435.34
536.89	390.87
537.06	463.43
537.23	386.19
537.40	397.89
537.57	425.98
537.74	470.45
537.91	472.79
538.08	418.96
538.25	402.57
538.42	404.91
538.59	447.04
538.75	414.27
538.92	400.23
539.09	512.58
539.26	379.17
539.43	402.57
539.60	451.72
539.77	437.68
539.94	418.96
540.11	386.19
540.28	491.51
540.44	503.22
540.61	386.19
540.78	334.70
540.95	381.51
541.12	353.42
541.29	355.76
541.46	433.00
541.62	440.02
541.79	444.70
541.96	346.40
542.13	451.72
542.30	472.79
542.47	461.09
542.63	470.45
542.80	414.27
542.97	465.77
543.14	409.59
543.31	425.98
543.48	489.17
543.64	461.09
543.81	411.93
543.98	440.02
544.15	486.83
544.32	435.34
544.48	416.62
544.65	395.55
544.82	421.30
544.99	379.17
545.16	454.06
545.32	435.34
545.49	430.66
545.66	402.57
545.83	465.77
546.00	351.08
546.16	414.27
546.33	404.91
546.50	390.87
546.67	390.87
546.83	437.68
547.00	402.57
547.17	395.55
547.34	409.59
547.50	456.40
547.67	418.96
547.84	451.72
548.00	423.64
548.17	395.55
548.34	437.68
548.51	456.40
548.67	430.66
548.84	435.34
549.01	407.25
549.18	425.98
549.34	442.36
549.51	372.15
549.68	360.44
549.84	437.68
550.01	435.34
550.18	514.92
550.34	524.28
550.51	456.40
550.68	491.51
550.84	414.27
551.01	484.49
551.18	454.06
551.34	416.62
551.51	351.08
551.68	372.15
551.84	433.00
552.01	418.96
552.18	362.78
552.34	402.57
552.51	409.59
552.68	425.98
552.84	437.68
553.01	395.55
553.18	400.23
553.34	402.57
553.51	416.62
553.67	435.34
553.84	397.89
554.01	383.85
554.17	381.51
554.34	402.57
554.51	360.44
554.67	411.93
554.84	435.34
555.00	428.32
555.17	475.13
555.33	365.12
555.50	365.12
555.67	383.85
555.83	348.74
556.00	402.57
556.16	526.62
556.33	571.09
556.50	475.13
556.66	514.92
556.83	388.53
556.99	458.74
557.16	465.77
557.32	358.10
557.49	491.51
557.65	386.19
557.82	393.21
557.98	470.45
558.15	395.55
558.32	468.11
558.48	379.17
558.65	428.32
558.81	414.27
558.98	372.15
559.14	402.57
559.31	430.66
559.47	372.15
559.64	416.62
559.80	442.36
559.97	381.51
560.13	390.87
560.30	393.21
560.46	395.55
560.63	414.27
560.79	400.23
560.96	470.45
561.12	437.68
561.29	402.57
561.45	418.96
561.61	430.66
561.78	484.49
561.94	388.53
562.11	440.02
562.27	472.79
562.44	437.68
562.60	433.00
562.77	421.30
562.93	503.22
563.10	386.19
563.26	388.53
563.42	463.43
563.59	414.27
563.75	372.15
563.92	461.09
564.08	421.30
564.24	386.19
564.41	437.68
564.57	390.87
564.74	322.99
564.90	449.38
565.07	437.68
565.23	407.25
565.39	449.38
565.56	449.38
565.72	435.34
565.88	414.27
566.05	423.64
566.21	465.77
566.38	489.17
566.54	430.66
566.70	465.77
566.87	386.19
567.03	332.36
567.19	407.25
567.36	367.46
567.52	444.70
567.68	463.43
567.85	404.91
568.01	444.70
568.17	360.44
568.34	341.72
568.50	411.93
568.66	402.57
568.83	533.64
568.99	454.06
569.15	470.45
569.32	507.90
569.48	442.36
569.64	404.91
569.81	418.96
569.97	418.96
570.13	433.00
570.30	430.66
570.46	430.66
570.62	407.25
570.78	456.40
570.95	409.59
571.11	491.51
571.27	400.23
571.43	447.04
571.60	454.06
571.76	468.11
571.92	442.36
572.09	423.64
572.25	358.10
572.41	330.02
572.57	454.06
572.74	409.59
572.90	456.40
573.06	365.12
573.22	418.96
573.38	465.77
573.55	390.87
573.71	470.45
573.87	395.55
574.03	386.19
574.20	395.55
574.36	449.38
574.52	463.43
574.68	456.40
574.84	465.77
575.01	383.85
575.17	444.70
575.33	437.68
575.49	369.80
575.65	482.15
575.82	437.68
575.98	447.04
576.14	440.02
576.30	397.89
576.46	367.46
576.62	444.70
576.79	421.30
576.95	411.93
577.11	369.80
577.27	339.38
577.43	407.25
577.59	472.79
577.75	428.32
577.92	358.10
578.08	400.23
578.24	449.38
578.40	402.57
578.56	449.38
578.72	334.70
578.88	374.49
579.04	365.12
579.21	322.99
579.37	458.74
579.53	458.74
579.69	489.17
579.85	449.38
580.01	463.43
580.17	369.80
580.33	360.44
580.49	428.32
580.65	503.22
580.82	409.59
580.98	470.45
581.14	393.21
581.30	440.02
581.46	442.36
581.62	449.38
581.78	458.74
581.94	421.30
582.10	379.17
582.26	416.62
582.42	393.21
582.58	451.72
582.74	451.72
582.90	397.89
583.06	454.06
583.22	414.27
583.38	437.68
583.54	369.80
583.70	444.70
583.86	407.25
584.02	444.70
584.18	416.62
584.34	355.76
584.50	425.98
584.66	407.25
584.82	351.08
584.98	430.66
585.14	388.53
585.30	468.11
585.46	358.10
585.62	402.57
585.78	379.17
585.94	477.47
586.10	414.27
586.26	421.30
586.42	498.53
586.58	458.74
586.74	425.98
586.90	421.30
587.06	477.47
587.22	447.04
587.38	458.74
587.54	383.85
587.70	355.76
587.86	451.72
588.02	362.78
588.18	451.72
588.34	447.04
588.49	390.87
588.65	433.00
588.81	444.70
588.97	425.98
589.13	386.19
589.29	397.89
589.45	451.72
589.61	393.21
589.77	444.70
589.93	390.87
590.08	344.06
590.24	411.93
590.40	447.04
590.56	468.11
590.72	390.87
590.88	395.55
591.04	421.30
591.20	451.72
591.35	425.98
591.51	423.64
591.67	374.49
591.83	381.51
591.99	397.89
592.15	451.72
592.31	449.38
592.46	404.91
592.62	435.34
592.78	379.17
592.94	444.70
593.10	341.72
593.26	404.91
593.41	421.30
593.57	418.96
593.73	355.76
593.89	418.96
594.05	479.81
594.20	409.59
594.36	386.19
594.52	369.80
594.68	395.55
594.84	437.68
594.99	475.13
595.15	381.51
595.31	451.72
595.47	454.06
595.62	458.74
595.78	475.13
595.94	442.36
596.10	493.85
596.25	461.09
596.41	484.49
596.57	320.65
596.73	411.93
596.88	367.46
597.04	407.25
597.20	379.17
597.36	425.98
597.51	416.62
597.67	358.10
597.83	383.85
597.99	461.09
598.14	386.19
598.30	428.32
598.46	407.25
598.61	475.13
598.77	425.98
598.93	362.78
599.09	465.77
599.24	418.96
599.40	475.13
599.56	388.53
599.71	454.06
599.87	409.59
600.03	477.47
600.18	348.74
600.34	437.68
600.50	421.30
600.65	325.33
600.81	409.59
600.97	449.38
601.12	404.91
601.28	456.40
601.44	456.40
601.59	402.57
601.75	381.51
601.91	404.91
602.06	365.12
602.22	437.68
602.37	404.91
602.53	407.25
602.69	376.83
602.84	353.42
603.00	458.74
603.16	435.34
603.31	395.55
603.47	442.36
603.62	393.21
603.78	475.13
603.94	507.90
604.09	358.10
604.25	390.87
604.40	463.43
604.56	386.19
604.71	418.96
604.87	414.27
605.03	353.42
605.18	367.46
605.34	416.62
605.49	447.04
605.65	411.93
605.80	362.78
605.96	428.32
606.12	451.72
606.27	421.30
606.43	465.77
606.58	482.15
606.74	437.68
606.89	447.04
607.05	489.17
607.20	437.68
607.36	421.30
607.51	383.85
607.67	400.23
607.82	430.66
607.98	477.47
608.13	479.81
608.29	435.34
608.44	465.77
608.60	395.55
608.75	470.45
608.91	428.32
609.06	435.34
609.22	437.68
609.37	404.91
609.53	435.34
609.68	456.40
609.84	404.91
609.99	395.55
610.15	423.64
