SpectraSuite Data File
++++++++++++++++++++++++++++++++++++
Date: Fri Oct 25 12:10:19 EDT 2013
User: price-jones
Dark Spectrum Present: No
Reference Spectrum Present: No
Number of Sampled Component Spectra: 1
Spectrometers: USB2+H05261
Integration Time (usec): 100000 (USB2+H05261)
Spectra Averaged: 1 (USB2+H05261)
Boxcar Smoothing: 0 (USB2+H05261)
Correct for Electrical Dark: No (USB2+H05261)
Strobe/Lamp Enabled: No (USB2+H05261)
Correct for Detector Non-linearity: No (USB2+H05261)
Correct for Stray Light: No (USB2+H05261)
Number of Pixels in Processed Spectrum: 2048
>>>>>Begin Processed Spectral Data<<<<<
365.73	372.15
365.92	372.15
366.12	372.15
366.32	252.78
366.52	205.97
366.72	287.89
366.91	304.27
367.11	201.29
367.31	271.50
367.51	306.61
367.70	301.93
367.90	283.20
368.10	271.50
368.30	236.39
368.49	278.52
368.69	245.76
368.89	280.86
369.09	217.67
369.28	283.20
369.48	273.84
369.68	269.16
369.87	327.68
370.07	325.33
370.27	400.23
370.47	339.38
370.66	367.46
370.86	369.80
371.06	320.65
371.25	369.80
371.45	299.59
371.65	390.87
371.84	332.36
372.04	299.59
372.24	409.59
372.44	416.62
372.63	383.85
372.83	411.93
373.03	442.36
373.22	414.27
373.42	461.09
373.62	407.25
373.81	465.77
374.01	477.47
374.21	456.40
374.40	407.25
374.60	561.73
374.79	423.64
374.99	393.21
375.19	388.53
375.38	447.04
375.58	451.72
375.78	388.53
375.97	372.15
376.17	433.00
376.37	477.47
376.56	397.89
376.76	411.93
376.95	428.32
377.15	428.32
377.35	425.98
377.54	355.76
377.74	374.49
377.93	388.53
378.13	407.25
378.33	416.62
378.52	421.30
378.72	360.44
378.91	430.66
379.11	280.86
379.31	365.12
379.50	353.42
379.70	402.57
379.89	388.53
380.09	365.12
380.28	358.10
380.48	397.89
380.68	404.91
380.87	421.30
381.07	383.85
381.26	461.09
381.46	414.27
381.65	447.04
381.85	418.96
382.04	425.98
382.24	411.93
382.43	409.59
382.63	369.80
382.83	402.57
383.02	463.43
383.22	433.00
383.41	437.68
383.61	304.27
383.80	458.74
384.00	416.62
384.19	414.27
384.39	402.57
384.58	334.70
384.78	395.55
384.97	313.63
385.17	351.08
385.36	484.49
385.56	411.93
385.75	353.42
385.95	400.23
386.14	386.19
386.34	409.59
386.53	407.25
386.72	433.00
386.92	442.36
387.11	393.21
387.31	521.94
387.50	447.04
387.70	365.12
387.89	290.23
388.09	400.23
388.28	400.23
388.48	320.65
388.67	376.83
388.86	383.85
389.06	409.59
389.25	383.85
389.45	402.57
389.64	400.23
389.84	447.04
390.03	447.04
390.22	397.89
390.42	390.87
390.61	381.51
390.81	414.27
391.00	365.12
391.19	393.21
391.39	451.72
391.58	428.32
391.78	416.62
391.97	418.96
392.16	395.55
392.36	404.91
392.55	440.02
392.75	397.89
392.94	433.00
393.13	402.57
393.33	381.51
393.52	404.91
393.71	425.98
393.91	360.44
394.10	416.62
394.29	341.72
394.49	423.64
394.68	414.27
394.88	404.91
395.07	428.32
395.26	468.11
395.46	404.91
395.65	430.66
395.84	475.13
396.04	496.19
396.23	379.17
396.42	421.30
396.62	388.53
396.81	358.10
397.00	423.64
397.19	397.89
397.39	397.89
397.58	393.21
397.77	372.15
397.97	374.49
398.16	465.77
398.35	414.27
398.55	325.33
398.74	451.72
398.93	397.89
399.12	449.38
399.32	489.17
399.51	388.53
399.70	475.13
399.90	341.72
400.09	386.19
400.28	477.47
400.47	376.83
400.67	386.19
400.86	440.02
401.05	409.59
401.24	414.27
401.44	330.02
401.63	421.30
401.82	367.46
402.01	381.51
402.21	393.21
402.40	449.38
402.59	440.02
402.78	390.87
402.97	386.19
403.17	379.17
403.36	390.87
403.55	449.38
403.74	430.66
403.93	451.72
404.13	388.53
404.32	418.96
404.51	358.10
404.70	437.68
404.89	400.23
405.09	442.36
405.28	334.70
405.47	423.64
405.66	456.40
405.85	390.87
406.05	444.70
406.24	339.38
406.43	388.53
406.62	407.25
406.81	404.91
407.00	421.30
407.20	346.40
407.39	409.59
407.58	379.17
407.77	383.85
407.96	428.32
408.15	411.93
408.34	449.38
408.54	390.87
408.73	430.66
408.92	437.68
409.11	376.83
409.30	435.34
409.49	358.10
409.68	442.36
409.87	386.19
410.07	376.83
410.26	395.55
410.45	388.53
410.64	353.42
410.83	484.49
411.02	423.64
411.21	341.72
411.40	423.64
411.59	465.77
411.78	402.57
411.98	372.15
412.17	409.59
412.36	346.40
412.55	440.02
412.74	479.81
412.93	496.19
413.12	381.51
413.31	390.87
413.50	365.12
413.69	393.21
413.88	334.70
414.07	465.77
414.26	440.02
414.45	381.51
414.64	414.27
414.83	425.98
415.02	447.04
415.22	409.59
415.41	444.70
415.60	404.91
415.79	400.23
415.98	461.09
416.17	409.59
416.36	358.10
416.55	479.81
416.74	428.32
416.93	435.34
417.12	351.08
417.31	409.59
417.50	381.51
417.69	376.83
417.88	379.17
418.07	367.46
418.26	325.33
418.45	437.68
418.64	463.43
418.83	402.57
419.02	437.68
419.21	397.89
419.39	365.12
419.58	400.23
419.77	447.04
419.96	423.64
420.15	381.51
420.34	456.40
420.53	411.93
420.72	461.09
420.91	463.43
421.10	456.40
421.29	400.23
421.48	383.85
421.67	346.40
421.86	444.70
422.05	433.00
422.24	418.96
422.43	381.51
422.61	379.17
422.80	376.83
422.99	374.49
423.18	430.66
423.37	376.83
423.56	402.57
423.75	376.83
423.94	423.64
424.13	390.87
424.32	330.02
424.50	402.57
424.69	397.89
424.88	433.00
425.07	411.93
425.26	395.55
425.45	344.06
425.64	423.64
425.83	402.57
426.01	456.40
426.20	388.53
426.39	322.99
426.58	409.59
426.77	451.72
426.96	393.21
427.15	440.02
427.33	425.98
427.52	428.32
427.71	386.19
427.90	379.17
428.09	369.80
428.28	351.08
428.46	430.66
428.65	407.25
428.84	351.08
429.03	428.32
429.22	355.76
429.40	411.93
429.59	381.51
429.78	407.25
429.97	468.11
430.16	344.06
430.34	397.89
430.53	353.42
430.72	365.12
430.91	440.02
431.10	428.32
431.28	489.17
431.47	447.04
431.66	440.02
431.85	442.36
432.03	458.74
432.22	463.43
432.41	435.34
432.60	500.87
432.79	437.68
432.97	503.22
433.16	395.55
433.35	362.78
433.54	409.59
433.72	433.00
433.91	362.78
434.10	423.64
434.28	409.59
434.47	447.04
434.66	355.76
434.85	435.34
435.03	365.12
435.22	482.15
435.41	449.38
435.59	409.59
435.78	395.55
435.97	444.70
436.16	376.83
436.34	402.57
436.53	458.74
436.72	376.83
436.90	465.77
437.09	372.15
437.28	400.23
437.46	430.66
437.65	400.23
437.84	411.93
438.02	444.70
438.21	435.34
438.40	458.74
438.58	341.72
438.77	400.23
438.96	372.15
439.14	362.78
439.33	381.51
439.52	325.33
439.70	416.62
439.89	449.38
440.08	400.23
440.26	416.62
440.45	400.23
440.63	428.32
440.82	395.55
441.01	365.12
441.19	430.66
441.38	437.68
441.57	404.91
441.75	421.30
441.94	451.72
442.12	393.21
442.31	395.55
442.50	388.53
442.68	400.23
442.87	418.96
443.05	404.91
443.24	472.79
443.43	454.06
443.61	486.83
443.80	421.30
443.98	416.62
444.17	395.55
444.35	444.70
444.54	440.02
444.73	372.15
444.91	479.81
445.10	454.06
445.28	404.91
445.47	421.30
445.65	416.62
445.84	440.02
446.02	381.51
446.21	421.30
446.39	386.19
446.58	442.36
446.77	395.55
446.95	376.83
447.14	379.17
447.32	407.25
447.51	449.38
447.69	447.04
447.88	390.87
448.06	428.32
448.25	430.66
448.43	435.34
448.62	416.62
448.80	440.02
448.99	425.98
449.17	458.74
449.36	381.51
449.54	444.70
449.73	369.80
449.91	428.32
450.10	435.34
450.28	440.02
450.46	500.87
450.65	444.70
450.83	442.36
451.02	451.72
451.20	486.83
451.39	421.30
451.57	451.72
451.76	374.49
451.94	447.04
452.13	402.57
452.31	404.91
452.49	425.98
452.68	400.23
452.86	388.53
453.05	463.43
453.23	365.12
453.42	397.89
453.60	458.74
453.78	379.17
453.97	388.53
454.15	362.78
454.34	456.40
454.52	381.51
454.70	376.83
454.89	421.30
455.07	423.64
455.26	430.66
455.44	477.47
455.62	294.91
455.81	390.87
455.99	407.25
456.17	428.32
456.36	435.34
456.54	423.64
456.73	395.55
456.91	374.49
457.09	390.87
457.28	362.78
457.46	416.62
457.64	381.51
457.83	435.34
458.01	381.51
458.19	411.93
458.38	418.96
458.56	423.64
458.74	409.59
458.93	418.96
459.11	372.15
459.29	402.57
459.48	451.72
459.66	395.55
459.84	449.38
460.03	458.74
460.21	463.43
460.39	491.51
460.57	393.21
460.76	341.72
460.94	421.30
461.12	465.77
461.31	411.93
461.49	491.51
461.67	351.08
461.85	404.91
462.04	402.57
462.22	828.55
462.40	407.25
462.59	411.93
462.77	390.87
462.95	348.74
463.13	386.19
463.32	407.25
463.50	479.81
463.68	372.15
463.86	407.25
464.05	341.72
464.23	404.91
464.41	428.32
464.59	388.53
464.78	362.78
464.96	381.51
465.14	449.38
465.32	362.78
465.50	435.34
465.69	456.40
465.87	374.49
466.05	404.91
466.23	442.36
466.41	437.68
466.60	461.09
466.78	372.15
466.96	437.68
467.14	407.25
467.32	418.96
467.51	428.32
467.69	465.77
467.87	409.59
468.05	404.91
468.23	442.36
468.41	411.93
468.60	421.30
468.78	503.22
468.96	451.72
469.14	496.19
469.32	433.00
469.50	400.23
469.69	400.23
469.87	388.53
470.05	484.49
470.23	454.06
470.41	486.83
470.59	388.53
470.77	418.96
470.95	379.17
471.14	433.00
471.32	381.51
471.50	447.04
471.68	369.80
471.86	461.09
472.04	348.74
472.22	365.12
472.40	381.51
472.58	430.66
472.77	381.51
472.95	442.36
473.13	456.40
473.31	444.70
473.49	372.15
473.67	454.06
473.85	463.43
474.03	416.62
474.21	416.62
474.39	397.89
474.57	463.43
474.75	383.85
474.93	381.51
475.12	386.19
475.30	337.04
475.48	381.51
475.66	365.12
475.84	407.25
476.02	449.38
476.20	376.83
476.38	414.27
476.56	454.06
476.74	449.38
476.92	402.57
477.10	440.02
477.28	344.06
477.46	353.42
477.64	372.15
477.82	358.10
478.00	489.17
478.18	430.66
478.36	461.09
478.54	322.99
478.72	388.53
478.90	339.38
479.08	369.80
479.26	421.30
479.44	362.78
479.62	416.62
479.80	386.19
479.98	404.91
480.16	390.87
480.34	418.96
480.52	390.87
480.70	468.11
480.88	379.17
481.06	386.19
481.24	475.13
481.41	388.53
481.59	444.70
481.77	447.04
481.95	365.12
482.13	372.15
482.31	433.00
482.49	397.89
482.67	397.89
482.85	482.15
483.03	472.79
483.21	327.68
483.39	407.25
483.57	430.66
483.74	454.06
483.92	362.78
484.10	430.66
484.28	365.12
484.46	463.43
484.64	386.19
484.82	379.17
485.00	416.62
485.18	360.44
485.35	388.53
485.53	353.42
485.71	416.62
485.89	416.62
486.07	465.77
486.25	390.87
486.43	383.85
486.61	458.74
486.78	437.68
486.96	362.78
487.14	425.98
487.32	369.80
487.50	388.53
487.68	444.70
487.85	423.64
488.03	451.72
488.21	442.36
488.39	428.32
488.57	404.91
488.75	449.38
488.92	486.83
489.10	425.98
489.28	437.68
489.46	465.77
489.64	447.04
489.81	440.02
489.99	433.00
490.17	475.13
490.35	510.24
490.53	337.04
490.70	421.30
490.88	386.19
491.06	393.21
491.24	411.93
491.41	397.89
491.59	397.89
491.77	400.23
491.95	395.55
492.13	327.68
492.30	428.32
492.48	418.96
492.66	447.04
492.84	395.55
493.01	369.80
493.19	461.09
493.37	437.68
493.54	423.64
493.72	411.93
493.90	433.00
494.08	372.15
494.25	411.93
494.43	437.68
494.61	451.72
494.79	418.96
494.96	325.33
495.14	425.98
495.32	423.64
495.49	360.44
495.67	496.19
495.85	388.53
496.02	374.49
496.20	400.23
496.38	449.38
496.55	348.74
496.73	409.59
496.91	411.93
497.09	447.04
497.26	348.74
497.44	447.04
497.62	407.25
497.79	407.25
497.97	423.64
498.14	404.91
498.32	475.13
498.50	404.91
498.67	414.27
498.85	334.70
499.03	437.68
499.20	414.27
499.38	330.02
499.56	423.64
499.73	463.43
499.91	433.00
500.08	458.74
500.26	433.00
500.44	348.74
500.61	437.68
500.79	393.21
500.97	433.00
501.14	351.08
501.32	449.38
501.49	470.45
501.67	465.77
501.84	421.30
502.02	397.89
502.20	435.34
502.37	337.04
502.55	500.87
502.72	400.23
502.90	421.30
503.07	430.66
503.25	435.34
503.43	386.19
503.60	416.62
503.78	449.38
503.95	348.74
504.13	416.62
504.30	437.68
504.48	428.32
504.65	409.59
504.83	409.59
505.01	411.93
505.18	407.25
505.36	425.98
505.53	449.38
505.71	374.49
505.88	346.40
506.06	447.04
506.23	304.27
506.41	381.51
506.58	416.62
506.76	442.36
506.93	409.59
507.11	475.13
507.28	390.87
507.46	400.23
507.63	414.27
507.81	444.70
507.98	414.27
508.16	383.85
508.33	372.15
508.50	435.34
508.68	397.89
508.85	428.32
509.03	344.06
509.20	388.53
509.38	404.91
509.55	428.32
509.73	395.55
509.90	407.25
510.08	353.42
510.25	414.27
510.42	404.91
510.60	381.51
510.77	442.36
510.95	390.87
511.12	330.02
511.30	479.81
511.47	479.81
511.64	400.23
511.82	393.21
511.99	433.00
512.17	404.91
512.34	407.25
512.51	418.96
512.69	407.25
512.86	418.96
513.04	306.61
513.21	423.64
513.38	341.72
513.56	362.78
513.73	404.91
513.90	414.27
514.08	386.19
514.25	383.85
514.43	400.23
514.60	374.49
514.77	390.87
514.95	472.79
515.12	407.25
515.29	402.57
515.47	430.66
515.64	383.85
515.81	430.66
515.99	365.12
516.16	435.34
516.33	418.96
516.51	404.91
516.68	404.91
516.85	393.21
517.03	454.06
517.20	461.09
517.37	444.70
517.54	433.00
517.72	330.02
517.89	376.83
518.06	369.80
518.24	482.15
518.41	507.90
518.58	418.96
518.75	425.98
518.93	440.02
519.10	435.34
519.27	440.02
519.45	344.06
519.62	404.91
519.79	444.70
519.96	425.98
520.14	369.80
520.31	440.02
520.48	451.72
520.65	465.77
520.83	472.79
521.00	421.30
521.17	414.27
521.34	386.19
521.52	458.74
521.69	374.49
521.86	400.23
522.03	416.62
522.20	440.02
522.38	418.96
522.55	463.43
522.72	383.85
522.89	463.43
523.07	367.46
523.24	458.74
523.41	393.21
523.58	430.66
523.75	416.62
523.92	416.62
524.10	386.19
524.27	372.15
524.44	351.08
524.61	482.15
524.78	372.15
524.96	442.36
525.13	470.45
525.30	440.02
525.47	461.09
525.64	395.55
525.81	379.17
525.98	381.51
526.16	428.32
526.33	395.55
526.50	461.09
526.67	449.38
526.84	355.76
527.01	414.27
527.18	463.43
527.36	409.59
527.53	402.57
527.70	430.66
527.87	449.38
528.04	407.25
528.21	465.77
528.38	421.30
528.55	423.64
528.72	430.66
528.89	449.38
529.07	407.25
529.24	430.66
529.41	428.32
529.58	416.62
529.75	458.74
529.92	444.70
530.09	414.27
530.26	449.38
530.43	416.62
530.60	449.38
530.77	404.91
530.94	423.64
531.11	386.19
531.28	407.25
531.46	468.11
531.63	465.77
531.80	433.00
531.97	397.89
532.14	418.96
532.31	454.06
532.48	393.21
532.65	437.68
532.82	421.30
532.99	423.64
533.16	393.21
533.33	447.04
533.50	379.17
533.67	374.49
533.84	447.04
534.01	454.06
534.18	442.36
534.35	423.64
534.52	383.85
534.69	409.59
534.86	409.59
535.03	322.99
535.20	423.64
535.37	479.81
535.54	407.25
535.71	442.36
535.88	433.00
536.05	465.77
536.22	379.17
536.38	400.23
536.55	372.15
536.72	425.98
536.89	393.21
537.06	388.53
537.23	428.32
537.40	444.70
537.57	369.80
537.74	418.96
537.91	447.04
538.08	444.70
538.25	458.74
538.42	418.96
538.59	423.64
538.75	383.85
538.92	379.17
539.09	425.98
539.26	430.66
539.43	447.04
539.60	402.57
539.77	458.74
539.94	390.87
540.11	407.25
540.28	510.24
540.44	433.00
540.61	423.64
540.78	440.02
540.95	388.53
541.12	475.13
541.29	395.55
541.46	442.36
541.62	390.87
541.79	383.85
541.96	435.34
542.13	353.42
542.30	381.51
542.47	388.53
542.63	433.00
542.80	346.40
542.97	395.55
543.14	430.66
543.31	430.66
543.48	477.47
543.64	369.80
543.81	393.21
543.98	379.17
544.15	365.12
544.32	346.40
544.48	454.06
544.65	461.09
544.82	416.62
544.99	383.85
545.16	458.74
545.32	477.47
545.49	423.64
545.66	421.30
545.83	421.30
546.00	454.06
546.16	425.98
546.33	484.49
546.50	407.25
546.67	423.64
546.83	437.68
547.00	407.25
547.17	493.85
547.34	442.36
547.50	449.38
547.67	433.00
547.84	442.36
548.00	374.49
548.17	484.49
548.34	376.83
548.51	360.44
548.67	440.02
548.84	397.89
549.01	402.57
549.18	425.98
549.34	400.23
549.51	468.11
549.68	374.49
549.84	404.91
550.01	430.66
550.18	430.66
550.34	477.47
550.51	379.17
550.68	355.76
550.84	383.85
551.01	444.70
551.18	423.64
551.34	355.76
551.51	435.34
551.68	390.87
551.84	409.59
552.01	444.70
552.18	428.32
552.34	395.55
552.51	468.11
552.68	442.36
552.84	458.74
553.01	479.81
553.18	421.30
553.34	435.34
553.51	409.59
553.67	435.34
553.84	482.15
554.01	353.42
554.17	397.89
554.34	456.40
554.51	465.77
554.67	496.19
554.84	409.59
555.00	330.02
555.17	449.38
555.33	440.02
555.50	409.59
555.67	393.21
555.83	393.21
556.00	374.49
556.16	543.00
556.33	456.40
556.50	449.38
556.66	383.85
556.83	411.93
556.99	311.29
557.16	388.53
557.32	500.87
557.49	353.42
557.65	386.19
557.82	423.64
557.98	409.59
558.15	440.02
558.32	475.13
558.48	332.36
558.65	418.96
558.81	379.17
558.98	393.21
559.14	437.68
559.31	449.38
559.47	414.27
559.64	397.89
559.80	437.68
559.97	418.96
560.13	468.11
560.30	423.64
560.46	409.59
560.63	486.83
560.79	451.72
560.96	374.49
561.12	442.36
561.29	383.85
561.45	381.51
561.61	435.34
561.78	442.36
561.94	493.85
562.11	397.89
562.27	393.21
562.44	393.21
562.60	367.46
562.77	435.34
562.93	451.72
563.10	397.89
563.26	465.77
563.42	388.53
563.59	447.04
563.75	404.91
563.92	425.98
564.08	367.46
564.24	456.40
564.41	521.94
564.57	390.87
564.74	456.40
564.90	353.42
565.07	351.08
565.23	362.78
565.39	416.62
565.56	430.66
565.72	332.36
565.88	388.53
566.05	414.27
566.21	351.08
566.38	470.45
566.54	374.49
566.70	308.95
566.87	400.23
567.03	411.93
567.19	395.55
567.36	447.04
567.52	409.59
567.68	458.74
567.85	475.13
568.01	416.62
568.17	425.98
568.34	383.85
568.50	404.91
568.66	404.91
568.83	461.09
568.99	341.72
569.15	437.68
569.32	400.23
569.48	390.87
569.64	423.64
569.81	447.04
569.97	425.98
570.13	379.17
570.30	440.02
570.46	388.53
570.62	411.93
570.78	451.72
570.95	374.49
571.11	397.89
571.27	444.70
571.43	362.78
571.60	430.66
571.76	437.68
571.92	416.62
572.09	440.02
572.25	456.40
572.41	430.66
572.57	339.38
572.74	493.85
572.90	458.74
573.06	397.89
573.22	425.98
573.38	505.56
573.55	409.59
573.71	444.70
573.87	383.85
574.03	409.59
574.20	341.72
574.36	414.27
574.52	367.46
574.68	372.15
574.84	444.70
575.01	388.53
575.17	402.57
575.33	341.72
575.49	458.74
575.65	484.49
575.82	444.70
575.98	425.98
576.14	421.30
576.30	465.77
576.46	411.93
576.62	449.38
576.79	458.74
576.95	493.85
577.11	386.19
577.27	468.11
577.43	437.68
577.59	430.66
577.75	456.40
577.92	451.72
578.08	437.68
578.24	414.27
578.40	437.68
578.56	421.30
578.72	409.59
578.88	444.70
579.04	486.83
579.21	451.72
579.37	341.72
579.53	404.91
579.69	444.70
579.85	444.70
580.01	458.74
580.17	407.25
580.33	449.38
580.49	425.98
580.65	414.27
580.82	416.62
580.98	339.38
581.14	437.68
581.30	493.85
581.46	435.34
581.62	442.36
581.78	362.78
581.94	390.87
582.10	358.10
582.26	421.30
582.42	409.59
582.58	451.72
582.74	503.22
582.90	418.96
583.06	425.98
583.22	386.19
583.38	386.19
583.54	421.30
583.70	390.87
583.86	390.87
584.02	500.87
584.18	423.64
584.34	430.66
584.50	430.66
584.66	404.91
584.82	440.02
584.98	388.53
585.14	423.64
585.30	461.09
585.46	379.17
585.62	383.85
585.78	402.57
585.94	402.57
586.10	397.89
586.26	390.87
586.42	454.06
586.58	430.66
586.74	444.70
586.90	451.72
587.06	376.83
587.22	430.66
587.38	409.59
587.54	407.25
587.70	465.77
587.86	404.91
588.02	463.43
588.18	416.62
588.34	407.25
588.49	454.06
588.65	397.89
588.81	376.83
588.97	461.09
589.13	425.98
589.29	444.70
589.45	418.96
589.61	395.55
589.77	470.45
589.93	393.21
590.08	308.95
590.24	418.96
590.40	390.87
590.56	381.51
590.72	433.00
590.88	486.83
591.04	435.34
591.20	379.17
591.35	423.64
591.51	456.40
591.67	390.87
591.83	381.51
591.99	428.32
592.15	395.55
592.31	442.36
592.46	374.49
592.62	442.36
592.78	447.04
592.94	388.53
593.10	353.42
593.26	372.15
593.41	416.62
593.57	500.87
593.73	456.40
593.89	376.83
594.05	393.21
594.20	404.91
594.36	407.25
594.52	397.89
594.68	388.53
594.84	411.93
594.99	397.89
595.15	423.64
595.31	428.32
595.47	456.40
595.62	409.59
595.78	407.25
595.94	386.19
596.10	411.93
596.25	430.66
596.41	423.64
596.57	337.04
596.73	409.59
596.88	383.85
597.04	442.36
597.20	416.62
597.36	479.81
597.51	353.42
597.67	367.46
597.83	458.74
597.99	458.74
598.14	444.70
598.30	486.83
598.46	390.87
598.61	440.02
598.77	463.43
598.93	344.06
599.09	337.04
599.24	472.79
599.40	423.64
599.56	388.53
599.71	524.28
599.87	386.19
600.03	358.10
600.18	404.91
600.34	449.38
600.50	372.15
600.65	367.46
600.81	435.34
600.97	362.78
601.12	437.68
601.28	402.57
601.44	470.45
601.59	456.40
601.75	461.09
601.91	407.25
602.06	367.46
602.22	421.30
602.37	430.66
602.53	404.91
602.69	365.12
602.84	409.59
603.00	395.55
603.16	482.15
603.31	468.11
603.47	416.62
603.62	311.29
603.78	433.00
603.94	440.02
604.09	407.25
604.25	404.91
604.40	458.74
604.56	400.23
604.71	402.57
604.87	477.47
605.03	418.96
605.18	414.27
605.34	376.83
605.49	402.57
605.65	390.87
605.80	376.83
605.96	447.04
606.12	421.30
606.27	470.45
606.43	376.83
606.58	433.00
606.74	461.09
606.89	386.19
607.05	414.27
607.20	388.53
607.36	430.66
607.51	381.51
607.67	491.51
607.82	411.93
607.98	468.11
608.13	400.23
608.29	383.85
608.44	442.36
608.60	425.98
608.75	423.64
608.91	447.04
609.06	454.06
609.22	423.64
609.37	320.65
609.53	437.68
609.68	444.70
609.84	367.46
609.99	386.19
610.15	425.98
