SpectraSuite Data File
++++++++++++++++++++++++++++++++++++
Date: Fri Oct 25 12:10:15 EDT 2013
User: price-jones
Dark Spectrum Present: No
Reference Spectrum Present: No
Number of Sampled Component Spectra: 1
Spectrometers: USB2+H05261
Integration Time (usec): 100000 (USB2+H05261)
Spectra Averaged: 1 (USB2+H05261)
Boxcar Smoothing: 0 (USB2+H05261)
Correct for Electrical Dark: No (USB2+H05261)
Strobe/Lamp Enabled: No (USB2+H05261)
Correct for Detector Non-linearity: No (USB2+H05261)
Correct for Stray Light: No (USB2+H05261)
Number of Pixels in Processed Spectrum: 2048
>>>>>Begin Processed Spectral Data<<<<<
365.73	355.76
365.92	355.76
366.12	355.76
366.32	227.03
366.52	236.39
366.72	313.63
366.91	224.69
367.11	159.16
367.31	290.23
367.51	138.09
367.70	238.73
367.90	196.60
368.10	234.05
368.30	241.08
368.49	229.37
368.69	306.61
368.89	236.39
369.09	255.12
369.28	222.35
369.48	229.37
369.68	259.80
369.87	346.40
370.07	278.52
370.27	285.55
370.47	306.61
370.66	297.25
370.86	287.89
371.06	334.70
371.25	358.10
371.45	376.83
371.65	421.30
371.84	358.10
372.04	423.64
372.24	360.44
372.44	390.87
372.63	358.10
372.83	404.91
373.03	379.17
373.22	433.00
373.42	400.23
373.62	341.72
373.81	444.70
374.01	442.36
374.21	470.45
374.40	381.51
374.60	442.36
374.79	468.11
374.99	477.47
375.19	414.27
375.38	463.43
375.58	414.27
375.78	449.38
375.97	465.77
376.17	449.38
376.37	423.64
376.56	409.59
376.76	425.98
376.95	404.91
377.15	397.89
377.35	421.30
377.54	444.70
377.74	379.17
377.93	407.25
378.13	358.10
378.33	416.62
378.52	444.70
378.72	395.55
378.91	456.40
379.11	416.62
379.31	456.40
379.50	407.25
379.70	430.66
379.89	400.23
380.09	423.64
380.28	428.32
380.48	386.19
380.68	376.83
380.87	383.85
381.07	402.57
381.26	465.77
381.46	414.27
381.65	393.21
381.85	411.93
382.04	376.83
382.24	379.17
382.43	435.34
382.63	381.51
382.83	433.00
383.02	489.17
383.22	381.51
383.41	425.98
383.61	400.23
383.80	451.72
384.00	365.12
384.19	411.93
384.39	433.00
384.58	425.98
384.78	400.23
384.97	447.04
385.17	404.91
385.36	428.32
385.56	397.89
385.75	451.72
385.95	393.21
386.14	463.43
386.34	369.80
386.53	433.00
386.72	397.89
386.92	386.19
387.11	437.68
387.31	456.40
387.50	404.91
387.70	418.96
387.89	416.62
388.09	449.38
388.28	435.34
388.48	341.72
388.67	454.06
388.86	477.47
389.06	353.42
389.25	437.68
389.45	374.49
389.64	390.87
389.84	358.10
390.03	367.46
390.22	404.91
390.42	390.87
390.61	411.93
390.81	407.25
391.00	409.59
391.19	425.98
391.39	414.27
391.58	393.21
391.78	423.64
391.97	400.23
392.16	386.19
392.36	489.17
392.55	433.00
392.75	334.70
392.94	421.30
393.13	411.93
393.33	465.77
393.52	390.87
393.71	404.91
393.91	386.19
394.10	374.49
394.29	372.15
394.49	322.99
394.68	379.17
394.88	451.72
395.07	489.17
395.26	353.42
395.46	416.62
395.65	411.93
395.84	362.78
396.04	430.66
396.23	433.00
396.42	407.25
396.62	400.23
396.81	379.17
397.00	402.57
397.19	362.78
397.39	484.49
397.58	442.36
397.77	440.02
397.97	407.25
398.16	470.45
398.35	463.43
398.55	372.15
398.74	430.66
398.93	388.53
399.12	386.19
399.32	435.34
399.51	383.85
399.70	411.93
399.90	486.83
400.09	442.36
400.28	402.57
400.47	367.46
400.67	433.00
400.86	369.80
401.05	381.51
401.24	454.06
401.44	414.27
401.63	362.78
401.82	456.40
402.01	407.25
402.21	402.57
402.40	440.02
402.59	423.64
402.78	402.57
402.97	390.87
403.17	402.57
403.36	404.91
403.55	393.21
403.74	428.32
403.93	365.12
404.13	388.53
404.32	397.89
404.51	472.79
404.70	369.80
404.89	479.81
405.09	447.04
405.28	449.38
405.47	388.53
405.66	440.02
405.85	447.04
406.05	449.38
406.24	428.32
406.43	402.57
406.62	346.40
406.81	442.36
407.00	404.91
407.20	433.00
407.39	374.49
407.58	463.43
407.77	454.06
407.96	428.32
408.15	379.17
408.34	421.30
408.54	402.57
408.73	414.27
408.92	451.72
409.11	456.40
409.30	395.55
409.49	409.59
409.68	428.32
409.87	430.66
410.07	458.74
410.26	496.19
410.45	397.89
410.64	386.19
410.83	411.93
411.02	390.87
411.21	409.59
411.40	388.53
411.59	379.17
411.78	388.53
411.98	409.59
412.17	379.17
412.36	346.40
412.55	414.27
412.74	423.64
412.93	418.96
413.12	437.68
413.31	449.38
413.50	468.11
413.69	381.51
413.88	372.15
414.07	418.96
414.26	456.40
414.45	437.68
414.64	423.64
414.83	369.80
415.02	404.91
415.22	362.78
415.41	383.85
415.60	390.87
415.79	365.12
415.98	435.34
416.17	390.87
416.36	411.93
416.55	376.83
416.74	409.59
416.93	372.15
417.12	447.04
417.31	416.62
417.50	404.91
417.69	433.00
417.88	353.42
418.07	372.15
418.26	400.23
418.45	390.87
418.64	512.58
418.83	482.15
419.02	381.51
419.21	435.34
419.39	425.98
419.58	395.55
419.77	395.55
419.96	491.51
420.15	433.00
420.34	416.62
420.53	416.62
420.72	407.25
420.91	402.57
421.10	395.55
421.29	360.44
421.48	360.44
421.67	414.27
421.86	418.96
422.05	421.30
422.24	477.47
422.43	409.59
422.61	423.64
422.80	442.36
422.99	416.62
423.18	411.93
423.37	414.27
423.56	451.72
423.75	435.34
423.94	425.98
424.13	440.02
424.32	390.87
424.50	470.45
424.69	440.02
424.88	353.42
425.07	421.30
425.26	362.78
425.45	376.83
425.64	400.23
425.83	411.93
426.01	428.32
426.20	433.00
426.39	381.51
426.58	346.40
426.77	416.62
426.96	433.00
427.15	360.44
427.33	376.83
427.52	369.80
427.71	353.42
427.90	407.25
428.09	444.70
428.28	444.70
428.46	433.00
428.65	428.32
428.84	372.15
429.03	491.51
429.22	411.93
429.40	402.57
429.59	360.44
429.78	381.51
429.97	416.62
430.16	376.83
430.34	344.06
430.53	414.27
430.72	425.98
430.91	433.00
431.10	461.09
431.28	386.19
431.47	447.04
431.66	468.11
431.85	395.55
432.03	367.46
432.22	454.06
432.41	383.85
432.60	362.78
432.79	360.44
432.97	376.83
433.16	397.89
433.35	404.91
433.54	348.74
433.72	383.85
433.91	430.66
434.10	365.12
434.28	388.53
434.47	416.62
434.66	360.44
434.85	407.25
435.03	381.51
435.22	376.83
435.41	416.62
435.59	411.93
435.78	444.70
435.97	435.34
436.16	433.00
436.34	430.66
436.53	514.92
436.72	416.62
436.90	374.49
437.09	458.74
437.28	470.45
437.46	395.55
437.65	418.96
437.84	402.57
438.02	440.02
438.21	458.74
438.40	404.91
438.58	402.57
438.77	468.11
438.96	365.12
439.14	414.27
439.33	435.34
439.52	447.04
439.70	393.21
439.89	442.36
440.08	433.00
440.26	425.98
440.45	498.53
440.63	369.80
440.82	423.64
441.01	470.45
441.19	325.33
441.38	447.04
441.57	365.12
441.75	451.72
441.94	369.80
442.12	367.46
442.31	404.91
442.50	318.31
442.68	404.91
442.87	393.21
443.05	442.36
443.24	404.91
443.43	468.11
443.61	437.68
443.80	416.62
443.98	376.83
444.17	397.89
444.35	425.98
444.54	482.15
444.73	416.62
444.91	430.66
445.10	411.93
445.28	353.42
445.47	379.17
445.65	472.79
445.84	393.21
446.02	491.51
446.21	465.77
446.39	411.93
446.58	402.57
446.77	397.89
446.95	322.99
447.14	451.72
447.32	430.66
447.51	418.96
447.69	397.89
447.88	411.93
448.06	470.45
448.25	465.77
448.43	327.68
448.62	381.51
448.80	428.32
448.99	486.83
449.17	381.51
449.36	465.77
449.54	365.12
449.73	407.25
449.91	461.09
450.10	407.25
450.28	454.06
450.46	468.11
450.65	496.19
450.83	458.74
451.02	437.68
451.20	414.27
451.39	346.40
451.57	407.25
451.76	409.59
451.94	414.27
452.13	440.02
452.31	372.15
452.49	468.11
452.68	365.12
452.86	437.68
453.05	414.27
453.23	430.66
453.42	334.70
453.60	430.66
453.78	402.57
453.97	355.76
454.15	369.80
454.34	395.55
454.52	430.66
454.70	367.46
454.89	400.23
455.07	388.53
455.26	400.23
455.44	360.44
455.62	442.36
455.81	355.76
455.99	437.68
456.17	449.38
456.36	447.04
456.54	379.17
456.73	390.87
456.91	428.32
457.09	423.64
457.28	388.53
457.46	402.57
457.64	468.11
457.83	369.80
458.01	456.40
458.19	390.87
458.38	428.32
458.56	456.40
458.74	353.42
458.93	425.98
459.11	414.27
459.29	388.53
459.48	468.11
459.66	458.74
459.84	409.59
460.03	505.56
460.21	407.25
460.39	381.51
460.57	395.55
460.76	374.49
460.94	404.91
461.12	404.91
461.31	425.98
461.49	421.30
461.67	402.57
461.85	353.42
462.04	395.55
462.22	662.37
462.40	353.42
462.59	423.64
462.77	388.53
462.95	381.51
463.13	376.83
463.32	484.49
463.50	416.62
463.68	489.17
463.86	367.46
464.05	409.59
464.23	425.98
464.41	440.02
464.59	400.23
464.78	421.30
464.96	430.66
465.14	435.34
465.32	353.42
465.50	360.44
465.69	330.02
465.87	367.46
466.05	388.53
466.23	362.78
466.41	454.06
466.60	430.66
466.78	418.96
466.96	463.43
467.14	430.66
467.32	400.23
467.51	407.25
467.69	433.00
467.87	463.43
468.05	372.15
468.23	477.47
468.41	482.15
468.60	393.21
468.78	407.25
468.96	486.83
469.14	531.30
469.32	374.49
469.50	416.62
469.69	390.87
469.87	414.27
470.05	402.57
470.23	414.27
470.41	400.23
470.59	383.85
470.77	498.53
470.95	440.02
471.14	423.64
471.32	409.59
471.50	425.98
471.68	411.93
471.86	440.02
472.04	320.65
472.22	409.59
472.40	353.42
472.58	425.98
472.77	395.55
472.95	376.83
473.13	416.62
473.31	416.62
473.49	407.25
473.67	330.02
473.85	449.38
474.03	376.83
474.21	301.93
474.39	437.68
474.57	369.80
474.75	440.02
474.93	367.46
475.12	334.70
475.30	355.76
475.48	395.55
475.66	367.46
475.84	421.30
476.02	493.85
476.20	409.59
476.38	444.70
476.56	430.66
476.74	395.55
476.92	369.80
477.10	409.59
477.28	404.91
477.46	440.02
477.64	393.21
477.82	437.68
478.00	390.87
478.18	421.30
478.36	414.27
478.54	351.08
478.72	360.44
478.90	454.06
479.08	425.98
479.26	442.36
479.44	451.72
479.62	414.27
479.80	383.85
479.98	428.32
480.16	437.68
480.34	433.00
480.52	458.74
480.70	395.55
480.88	409.59
481.06	348.74
481.24	334.70
481.41	390.87
481.59	395.55
481.77	376.83
481.95	383.85
482.13	440.02
482.31	404.91
482.49	332.36
482.67	418.96
482.85	465.77
483.03	411.93
483.21	400.23
483.39	425.98
483.57	486.83
483.74	477.47
483.92	411.93
484.10	421.30
484.28	362.78
484.46	461.09
484.64	442.36
484.82	433.00
485.00	414.27
485.18	479.81
485.35	379.17
485.53	437.68
485.71	440.02
485.89	353.42
486.07	428.32
486.25	461.09
486.43	428.32
486.61	390.87
486.78	374.49
486.96	355.76
487.14	407.25
487.32	388.53
487.50	444.70
487.68	414.27
487.85	376.83
488.03	397.89
488.21	472.79
488.39	383.85
488.57	383.85
488.75	390.87
488.92	454.06
489.10	402.57
489.28	491.51
489.46	292.57
489.64	433.00
489.81	414.27
489.99	409.59
490.17	433.00
490.35	458.74
490.53	421.30
490.70	383.85
490.88	461.09
491.06	444.70
491.24	449.38
491.41	468.11
491.59	374.49
491.77	430.66
491.95	367.46
492.13	388.53
492.30	414.27
492.48	365.12
492.66	404.91
492.84	365.12
493.01	372.15
493.19	346.40
493.37	402.57
493.54	423.64
493.72	397.89
493.90	416.62
494.08	393.21
494.25	369.80
494.43	428.32
494.61	430.66
494.79	374.49
494.96	397.89
495.14	500.87
495.32	360.44
495.49	437.68
495.67	423.64
495.85	379.17
496.02	407.25
496.20	437.68
496.38	449.38
496.55	355.76
496.73	388.53
496.91	451.72
497.09	437.68
497.26	477.47
497.44	402.57
497.62	425.98
497.79	444.70
497.97	444.70
498.14	433.00
498.32	470.45
498.50	472.79
498.67	440.02
498.85	433.00
499.03	393.21
499.20	353.42
499.38	400.23
499.56	428.32
499.73	449.38
499.91	376.83
500.08	360.44
500.26	376.83
500.44	409.59
500.61	423.64
500.79	444.70
500.97	447.04
501.14	423.64
501.32	437.68
501.49	390.87
501.67	430.66
501.84	535.98
502.02	374.49
502.20	496.19
502.37	376.83
502.55	433.00
502.72	440.02
502.90	381.51
503.07	407.25
503.25	393.21
503.43	463.43
503.60	322.99
503.78	433.00
503.95	489.17
504.13	442.36
504.30	407.25
504.48	433.00
504.65	444.70
504.83	451.72
505.01	358.10
505.18	433.00
505.36	369.80
505.53	444.70
505.71	416.62
505.88	498.53
506.06	447.04
506.23	409.59
506.41	437.68
506.58	397.89
506.76	442.36
506.93	444.70
507.11	451.72
507.28	372.15
507.46	404.91
507.63	381.51
507.81	493.85
507.98	393.21
508.16	430.66
508.33	418.96
508.50	496.19
508.68	407.25
508.85	376.83
509.03	369.80
509.20	393.21
509.38	369.80
509.55	425.98
509.73	458.74
509.90	402.57
510.08	400.23
510.25	365.12
510.42	437.68
510.60	376.83
510.77	433.00
510.95	381.51
511.12	402.57
511.30	388.53
511.47	383.85
511.64	416.62
511.82	386.19
511.99	400.23
512.17	414.27
512.34	330.02
512.51	376.83
512.69	433.00
512.86	428.32
513.04	461.09
513.21	393.21
513.38	428.32
513.56	414.27
513.73	423.64
513.90	348.74
514.08	440.02
514.25	421.30
514.43	447.04
514.60	360.44
514.77	330.02
514.95	395.55
515.12	414.27
515.29	381.51
515.47	433.00
515.64	383.85
515.81	416.62
515.99	472.79
516.16	435.34
516.33	423.64
516.51	465.77
516.68	376.83
516.85	440.02
517.03	451.72
517.20	337.04
517.37	418.96
517.54	372.15
517.72	442.36
517.89	416.62
518.06	470.45
518.24	451.72
518.41	421.30
518.58	435.34
518.75	341.72
518.93	397.89
519.10	510.24
519.27	444.70
519.45	421.30
519.62	418.96
519.79	458.74
519.96	365.12
520.14	388.53
520.31	294.91
520.48	421.30
520.65	409.59
520.83	386.19
521.00	477.47
521.17	421.30
521.34	404.91
521.52	447.04
521.69	470.45
521.86	435.34
522.03	400.23
522.20	437.68
522.38	407.25
522.55	383.85
522.72	416.62
522.89	482.15
523.07	437.68
523.24	428.32
523.41	454.06
523.58	404.91
523.75	381.51
523.92	411.93
524.10	339.38
524.27	362.78
524.44	402.57
524.61	449.38
524.78	458.74
524.96	433.00
525.13	433.00
525.30	388.53
525.47	381.51
525.64	437.68
525.81	421.30
525.98	435.34
526.16	433.00
526.33	393.21
526.50	435.34
526.67	390.87
526.84	409.59
527.01	416.62
527.18	374.49
527.36	440.02
527.53	442.36
527.70	421.30
527.87	491.51
528.04	388.53
528.21	290.23
528.38	475.13
528.55	456.40
528.72	470.45
528.89	437.68
529.07	430.66
529.24	395.55
529.41	414.27
529.58	435.34
529.75	404.91
529.92	421.30
530.09	402.57
530.26	447.04
530.43	437.68
530.60	416.62
530.77	397.89
530.94	416.62
531.11	437.68
531.28	430.66
531.46	449.38
531.63	449.38
531.80	486.83
531.97	397.89
532.14	411.93
532.31	435.34
532.48	454.06
532.65	472.79
532.82	372.15
532.99	407.25
533.16	418.96
533.33	416.62
533.50	461.09
533.67	358.10
533.84	468.11
534.01	411.93
534.18	353.42
534.35	479.81
534.52	433.00
534.69	428.32
534.86	461.09
535.03	376.83
535.20	395.55
535.37	442.36
535.54	393.21
535.71	489.17
535.88	447.04
536.05	468.11
536.22	369.80
536.38	416.62
536.55	367.46
536.72	407.25
536.89	421.30
537.06	372.15
537.23	346.40
537.40	386.19
537.57	411.93
537.74	463.43
537.91	381.51
538.08	390.87
538.25	430.66
538.42	437.68
538.59	414.27
538.75	402.57
538.92	390.87
539.09	411.93
539.26	440.02
539.43	496.19
539.60	423.64
539.77	400.23
539.94	369.80
540.11	451.72
540.28	454.06
540.44	470.45
540.61	461.09
540.78	400.23
540.95	404.91
541.12	484.49
541.29	397.89
541.46	402.57
541.62	416.62
541.79	428.32
541.96	418.96
542.13	435.34
542.30	351.08
542.47	367.46
542.63	393.21
542.80	433.00
542.97	514.92
543.14	400.23
543.31	425.98
543.48	372.15
543.64	355.76
543.81	402.57
543.98	397.89
544.15	376.83
544.32	362.78
544.48	486.83
544.65	454.06
544.82	362.78
544.99	353.42
545.16	458.74
545.32	411.93
545.49	444.70
545.66	367.46
545.83	456.40
546.00	421.30
546.16	407.25
546.33	351.08
546.50	433.00
546.67	444.70
546.83	362.78
547.00	435.34
547.17	376.83
547.34	442.36
547.50	423.64
547.67	435.34
547.84	369.80
548.00	428.32
548.17	442.36
548.34	421.30
548.51	482.15
548.67	383.85
548.84	386.19
549.01	458.74
549.18	388.53
549.34	393.21
549.51	407.25
549.68	428.32
549.84	337.04
550.01	404.91
550.18	451.72
550.34	456.40
550.51	423.64
550.68	372.15
550.84	388.53
551.01	475.13
551.18	379.17
551.34	397.89
551.51	425.98
551.68	351.08
551.84	362.78
552.01	430.66
552.18	411.93
552.34	393.21
552.51	444.70
552.68	425.98
552.84	428.32
553.01	404.91
553.18	440.02
553.34	374.49
553.51	379.17
553.67	365.12
553.84	444.70
554.01	442.36
554.17	435.34
554.34	388.53
554.51	442.36
554.67	442.36
554.84	437.68
555.00	393.21
555.17	362.78
555.33	503.22
555.50	397.89
555.67	388.53
555.83	376.83
556.00	477.47
556.16	575.77
556.33	475.13
556.50	353.42
556.66	376.83
556.83	409.59
556.99	477.47
557.16	463.43
557.32	428.32
557.49	402.57
557.65	449.38
557.82	409.59
557.98	489.17
558.15	376.83
558.32	376.83
558.48	458.74
558.65	433.00
558.81	416.62
558.98	379.17
559.14	430.66
559.31	330.02
559.47	421.30
559.64	400.23
559.80	444.70
559.97	390.87
560.13	397.89
560.30	416.62
560.46	435.34
560.63	442.36
560.79	402.57
560.96	447.04
561.12	409.59
561.29	313.63
561.45	489.17
561.61	486.83
561.78	489.17
561.94	428.32
562.11	411.93
562.27	465.77
562.44	379.17
562.60	369.80
562.77	386.19
562.93	400.23
563.10	456.40
563.26	437.68
563.42	430.66
563.59	404.91
563.75	416.62
563.92	512.58
564.08	409.59
564.24	477.47
564.41	451.72
564.57	465.77
564.74	409.59
564.90	442.36
565.07	465.77
565.23	437.68
565.39	395.55
565.56	414.27
565.72	428.32
565.88	327.68
566.05	362.78
566.21	421.30
566.38	580.45
566.54	418.96
566.70	425.98
566.87	463.43
567.03	444.70
567.19	400.23
567.36	383.85
567.52	416.62
567.68	430.66
567.85	500.87
568.01	362.78
568.17	348.74
568.34	374.49
568.50	386.19
568.66	414.27
568.83	355.76
568.99	404.91
569.15	451.72
569.32	386.19
569.48	447.04
569.64	327.68
569.81	395.55
569.97	348.74
570.13	376.83
570.30	376.83
570.46	449.38
570.62	440.02
570.78	388.53
570.95	463.43
571.11	428.32
571.27	430.66
571.43	416.62
571.60	418.96
571.76	423.64
571.92	411.93
572.09	390.87
572.25	397.89
572.41	425.98
572.57	365.12
572.74	428.32
572.90	463.43
573.06	442.36
573.22	409.59
573.38	449.38
573.55	496.19
573.71	454.06
573.87	407.25
574.03	362.78
574.20	367.46
574.36	468.11
574.52	402.57
574.68	372.15
574.84	421.30
575.01	388.53
575.17	423.64
575.33	442.36
575.49	428.32
575.65	409.59
575.82	425.98
575.98	358.10
576.14	421.30
576.30	379.17
576.46	435.34
576.62	463.43
576.79	428.32
576.95	437.68
577.11	306.61
577.27	430.66
577.43	341.72
577.59	442.36
577.75	442.36
577.92	435.34
578.08	421.30
578.24	484.49
578.40	451.72
578.56	454.06
578.72	470.45
578.88	433.00
579.04	418.96
579.21	465.77
579.37	421.30
579.53	390.87
579.69	475.13
579.85	444.70
580.01	493.85
580.17	519.60
580.33	381.51
580.49	393.21
580.65	402.57
580.82	381.51
580.98	414.27
581.14	414.27
581.30	409.59
581.46	484.49
581.62	402.57
581.78	376.83
581.94	311.29
582.10	374.49
582.26	468.11
582.42	367.46
582.58	372.15
582.74	386.19
582.90	390.87
583.06	407.25
583.22	327.68
583.38	411.93
583.54	433.00
583.70	430.66
583.86	393.21
584.02	437.68
584.18	430.66
584.34	421.30
584.50	407.25
584.66	379.17
584.82	402.57
584.98	395.55
585.14	463.43
585.30	472.79
585.46	435.34
585.62	433.00
585.78	374.49
585.94	425.98
586.10	409.59
586.26	454.06
586.42	444.70
586.58	388.53
586.74	425.98
586.90	428.32
587.06	440.02
587.22	418.96
587.38	383.85
587.54	470.45
587.70	472.79
587.86	468.11
588.02	440.02
588.18	447.04
588.34	468.11
588.49	379.17
588.65	369.80
588.81	435.34
588.97	416.62
589.13	421.30
589.29	421.30
589.45	498.53
589.61	479.81
589.77	435.34
589.93	320.65
590.08	386.19
590.24	411.93
590.40	400.23
590.56	423.64
590.72	423.64
590.88	442.36
591.04	369.80
591.20	402.57
591.35	454.06
591.51	393.21
591.67	451.72
591.83	390.87
591.99	444.70
592.15	374.49
592.31	470.45
592.46	456.40
592.62	418.96
592.78	409.59
592.94	386.19
593.10	381.51
593.26	369.80
593.41	390.87
593.57	409.59
593.73	386.19
593.89	505.56
594.05	507.90
594.20	402.57
594.36	477.47
594.52	423.64
594.68	458.74
594.84	468.11
594.99	465.77
595.15	440.02
595.31	491.51
595.47	442.36
595.62	407.25
595.78	383.85
595.94	393.21
596.10	454.06
596.25	421.30
596.41	409.59
596.57	468.11
596.73	517.26
596.88	397.89
597.04	404.91
597.20	409.59
597.36	404.91
597.51	430.66
597.67	414.27
597.83	437.68
597.99	435.34
598.14	372.15
598.30	468.11
598.46	407.25
598.61	421.30
598.77	442.36
598.93	447.04
599.09	423.64
599.24	414.27
599.40	498.53
599.56	400.23
599.71	428.32
599.87	425.98
600.03	482.15
600.18	472.79
600.34	379.17
600.50	421.30
600.65	334.70
600.81	425.98
600.97	418.96
601.12	416.62
601.28	440.02
601.44	418.96
601.59	339.38
601.75	458.74
601.91	379.17
602.06	383.85
602.22	550.03
602.37	428.32
602.53	390.87
602.69	435.34
602.84	374.49
603.00	402.57
603.16	409.59
603.31	372.15
603.47	395.55
603.62	395.55
603.78	402.57
603.94	447.04
604.09	430.66
604.25	393.21
604.40	435.34
604.56	425.98
604.71	404.91
604.87	456.40
605.03	400.23
605.18	526.62
605.34	414.27
605.49	402.57
605.65	442.36
605.80	425.98
605.96	332.36
606.12	430.66
606.27	451.72
606.43	468.11
606.58	407.25
606.74	411.93
606.89	339.38
607.05	454.06
607.20	402.57
607.36	463.43
607.51	472.79
607.67	435.34
607.82	353.42
607.98	491.51
608.13	351.08
608.29	376.83
608.44	386.19
608.60	433.00
608.75	470.45
608.91	383.85
609.06	447.04
609.22	416.62
609.37	404.91
609.53	409.59
609.68	341.72
609.84	381.51
609.99	470.45
610.15	425.98
