SpectraSuite Data File
++++++++++++++++++++++++++++++++++++
Date: Fri Oct 25 12:11:41 EDT 2013
User: price-jones
Dark Spectrum Present: No
Reference Spectrum Present: No
Number of Sampled Component Spectra: 1
Spectrometers: USB2+H05261
Integration Time (usec): 100000 (USB2+H05261)
Spectra Averaged: 1 (USB2+H05261)
Boxcar Smoothing: 0 (USB2+H05261)
Correct for Electrical Dark: No (USB2+H05261)
Strobe/Lamp Enabled: No (USB2+H05261)
Correct for Detector Non-linearity: No (USB2+H05261)
Correct for Stray Light: No (USB2+H05261)
Number of Pixels in Processed Spectrum: 2048
>>>>>Begin Processed Spectral Data<<<<<
365.73	330.02
365.92	330.02
366.12	330.02
366.32	264.48
366.52	245.76
366.72	325.33
366.91	262.14
367.11	292.57
367.31	243.42
367.51	194.26
367.70	220.01
367.90	250.44
368.10	201.29
368.30	236.39
368.49	140.43
368.69	278.52
368.89	315.97
369.09	257.46
369.28	241.08
369.48	222.35
369.68	229.37
369.87	313.63
370.07	294.91
370.27	411.93
370.47	355.76
370.66	341.72
370.86	355.76
371.06	379.17
371.25	456.40
371.45	395.55
371.65	353.42
371.84	379.17
372.04	397.89
372.24	390.87
372.44	383.85
372.63	435.34
372.83	327.68
373.03	393.21
373.22	397.89
373.42	433.00
373.62	435.34
373.81	425.98
374.01	447.04
374.21	491.51
374.40	472.79
374.60	348.74
374.79	496.19
374.99	425.98
375.19	435.34
375.38	404.91
375.58	463.43
375.78	400.23
375.97	435.34
376.17	416.62
376.37	437.68
376.56	390.87
376.76	355.76
376.95	414.27
377.15	447.04
377.35	440.02
377.54	435.34
377.74	444.70
377.93	465.77
378.13	411.93
378.33	383.85
378.52	388.53
378.72	550.03
378.91	397.89
379.11	393.21
379.31	425.98
379.50	362.78
379.70	409.59
379.89	402.57
380.09	414.27
380.28	337.04
380.48	435.34
380.68	337.04
380.87	479.81
381.07	484.49
381.26	437.68
381.46	447.04
381.65	430.66
381.85	355.76
382.04	418.96
382.24	442.36
382.43	376.83
382.63	458.74
382.83	388.53
383.02	353.42
383.22	376.83
383.41	428.32
383.61	435.34
383.80	416.62
384.00	444.70
384.19	400.23
384.39	507.90
384.58	454.06
384.78	411.93
384.97	414.27
385.17	430.66
385.36	402.57
385.56	428.32
385.75	451.72
385.95	400.23
386.14	367.46
386.34	400.23
386.53	475.13
386.72	386.19
386.92	440.02
387.11	437.68
387.31	386.19
387.50	379.17
387.70	433.00
387.89	433.00
388.09	362.78
388.28	383.85
388.48	332.36
388.67	390.87
388.86	435.34
389.06	402.57
389.25	442.36
389.45	421.30
389.64	381.51
389.84	447.04
390.03	442.36
390.22	383.85
390.42	451.72
390.61	414.27
390.81	421.30
391.00	425.98
391.19	435.34
391.39	344.06
391.58	374.49
391.78	400.23
391.97	423.64
392.16	409.59
392.36	407.25
392.55	472.79
392.75	402.57
392.94	390.87
393.13	430.66
393.33	407.25
393.52	367.46
393.71	458.74
393.91	355.76
394.10	362.78
394.29	409.59
394.49	353.42
394.68	407.25
394.88	369.80
395.07	477.47
395.26	449.38
395.46	397.89
395.65	374.49
395.84	397.89
396.04	470.45
396.23	346.40
396.42	444.70
396.62	402.57
396.81	449.38
397.00	372.15
397.19	451.72
397.39	440.02
397.58	425.98
397.77	465.77
397.97	482.15
398.16	463.43
398.35	428.32
398.55	458.74
398.74	449.38
398.93	351.08
399.12	393.21
399.32	402.57
399.51	451.72
399.70	472.79
399.90	407.25
400.09	433.00
400.28	402.57
400.47	381.51
400.67	400.23
400.86	390.87
401.05	428.32
401.24	407.25
401.44	454.06
401.63	456.40
401.82	407.25
402.01	358.10
402.21	407.25
402.40	397.89
402.59	320.65
402.78	425.98
402.97	423.64
403.17	421.30
403.36	430.66
403.55	376.83
403.74	402.57
403.93	365.12
404.13	353.42
404.32	379.17
404.51	433.00
404.70	376.83
404.89	376.83
405.09	416.62
405.28	435.34
405.47	451.72
405.66	437.68
405.85	421.30
406.05	428.32
406.24	447.04
406.43	461.09
406.62	390.87
406.81	390.87
407.00	435.34
407.20	454.06
407.39	374.49
407.58	388.53
407.77	393.21
407.96	411.93
408.15	393.21
408.34	374.49
408.54	425.98
408.73	390.87
408.92	411.93
409.11	449.38
409.30	400.23
409.49	400.23
409.68	374.49
409.87	362.78
410.07	414.27
410.26	468.11
410.45	451.72
410.64	379.17
410.83	393.21
411.02	362.78
411.21	402.57
411.40	386.19
411.59	425.98
411.78	411.93
411.98	362.78
412.17	388.53
412.36	430.66
412.55	383.85
412.74	428.32
412.93	407.25
413.12	442.36
413.31	367.46
413.50	437.68
413.69	376.83
413.88	421.30
414.07	395.55
414.26	397.89
414.45	402.57
414.64	454.06
414.83	397.89
415.02	444.70
415.22	491.51
415.41	456.40
415.60	383.85
415.79	425.98
415.98	416.62
416.17	374.49
416.36	430.66
416.55	334.70
416.74	416.62
416.93	500.87
417.12	433.00
417.31	397.89
417.50	395.55
417.69	442.36
417.88	353.42
418.07	355.76
418.26	414.27
418.45	383.85
418.64	470.45
418.83	400.23
419.02	393.21
419.21	451.72
419.39	390.87
419.58	372.15
419.77	404.91
419.96	514.92
420.15	395.55
420.34	341.72
420.53	437.68
420.72	353.42
420.91	470.45
421.10	430.66
421.29	325.33
421.48	365.12
421.67	435.34
421.86	404.91
422.05	416.62
422.24	442.36
422.43	388.53
422.61	365.12
422.80	475.13
422.99	437.68
423.18	355.76
423.37	465.77
423.56	500.87
423.75	475.13
423.94	454.06
424.13	407.25
424.32	353.42
424.50	383.85
424.69	339.38
424.88	409.59
425.07	414.27
425.26	458.74
425.45	409.59
425.64	360.44
425.83	376.83
426.01	458.74
426.20	433.00
426.39	381.51
426.58	383.85
426.77	425.98
426.96	407.25
427.15	416.62
427.33	447.04
427.52	400.23
427.71	414.27
427.90	447.04
428.09	454.06
428.28	479.81
428.46	411.93
428.65	428.32
428.84	491.51
429.03	451.72
429.22	468.11
429.40	386.19
429.59	402.57
429.78	383.85
429.97	383.85
430.16	411.93
430.34	402.57
430.53	437.68
430.72	407.25
430.91	458.74
431.10	381.51
431.28	440.02
431.47	475.13
431.66	430.66
431.85	374.49
432.03	430.66
432.22	477.47
432.41	381.51
432.60	409.59
432.79	414.27
432.97	425.98
433.16	423.64
433.35	372.15
433.54	414.27
433.72	402.57
433.91	482.15
434.10	386.19
434.28	416.62
434.47	351.08
434.66	447.04
434.85	344.06
435.03	416.62
435.22	496.19
435.41	362.78
435.59	411.93
435.78	449.38
435.97	376.83
436.16	465.77
436.34	414.27
436.53	503.22
436.72	400.23
436.90	482.15
437.09	383.85
437.28	404.91
437.46	416.62
437.65	475.13
437.84	416.62
438.02	372.15
438.21	456.40
438.40	421.30
438.58	379.17
438.77	470.45
438.96	444.70
439.14	386.19
439.33	468.11
439.52	367.46
439.70	322.99
439.89	409.59
440.08	383.85
440.26	383.85
440.45	365.12
440.63	468.11
440.82	442.36
441.01	428.32
441.19	428.32
441.38	393.21
441.57	369.80
441.75	447.04
441.94	421.30
442.12	358.10
442.31	454.06
442.50	400.23
442.68	444.70
442.87	430.66
443.05	430.66
443.24	433.00
443.43	437.68
443.61	498.53
443.80	468.11
443.98	369.80
444.17	416.62
444.35	472.79
444.54	348.74
444.73	440.02
444.91	421.30
445.10	421.30
445.28	435.34
445.47	383.85
445.65	360.44
445.84	400.23
446.02	425.98
446.21	358.10
446.39	346.40
446.58	411.93
446.77	416.62
446.95	430.66
447.14	496.19
447.32	447.04
447.51	400.23
447.69	440.02
447.88	407.25
448.06	414.27
448.25	423.64
448.43	374.49
448.62	411.93
448.80	414.27
448.99	409.59
449.17	358.10
449.36	423.64
449.54	465.77
449.73	395.55
449.91	390.87
450.10	374.49
450.28	468.11
450.46	470.45
450.65	465.77
450.83	451.72
451.02	456.40
451.20	440.02
451.39	379.17
451.57	425.98
451.76	386.19
451.94	435.34
452.13	482.15
452.31	423.64
452.49	461.09
452.68	376.83
452.86	395.55
453.05	425.98
453.23	414.27
453.42	442.36
453.60	461.09
453.78	407.25
453.97	451.72
454.15	409.59
454.34	374.49
454.52	313.63
454.70	440.02
454.89	374.49
455.07	458.74
455.26	461.09
455.44	479.81
455.62	440.02
455.81	456.40
455.99	418.96
456.17	404.91
456.36	367.46
456.54	411.93
456.73	397.89
456.91	437.68
457.09	444.70
457.28	428.32
457.46	388.53
457.64	407.25
457.83	383.85
458.01	383.85
458.19	435.34
458.38	423.64
458.56	411.93
458.74	407.25
458.93	407.25
459.11	369.80
459.29	442.36
459.48	423.64
459.66	454.06
459.84	475.13
460.03	447.04
460.21	411.93
460.39	458.74
460.57	411.93
460.76	358.10
460.94	379.17
461.12	524.28
461.31	468.11
461.49	418.96
461.67	400.23
461.85	428.32
462.04	376.83
462.22	809.83
462.40	451.72
462.59	358.10
462.77	383.85
462.95	402.57
463.13	411.93
463.32	433.00
463.50	411.93
463.68	397.89
463.86	353.42
464.05	397.89
464.23	463.43
464.41	416.62
464.59	428.32
464.78	400.23
464.96	404.91
465.14	409.59
465.32	463.43
465.50	430.66
465.69	447.04
465.87	444.70
466.05	416.62
466.23	433.00
466.41	435.34
466.60	407.25
466.78	447.04
466.96	463.43
467.14	451.72
467.32	449.38
467.51	456.40
467.69	484.49
467.87	416.62
468.05	461.09
468.23	402.57
468.41	400.23
468.60	379.17
468.78	416.62
468.96	491.51
469.14	390.87
469.32	376.83
469.50	449.38
469.69	411.93
469.87	369.80
470.05	418.96
470.23	507.90
470.41	430.66
470.59	421.30
470.77	468.11
470.95	339.38
471.14	402.57
471.32	440.02
471.50	454.06
471.68	470.45
471.86	402.57
472.04	421.30
472.22	341.72
472.40	430.66
472.58	454.06
472.77	404.91
472.95	440.02
473.13	510.24
473.31	491.51
473.49	437.68
473.67	388.53
473.85	444.70
474.03	503.22
474.21	376.83
474.39	355.76
474.57	414.27
474.75	428.32
474.93	400.23
475.12	334.70
475.30	383.85
475.48	477.47
475.66	425.98
475.84	479.81
476.02	414.27
476.20	449.38
476.38	388.53
476.56	533.64
476.74	428.32
476.92	461.09
477.10	362.78
477.28	400.23
477.46	322.99
477.64	409.59
477.82	376.83
478.00	421.30
478.18	390.87
478.36	484.49
478.54	423.64
478.72	430.66
478.90	404.91
479.08	386.19
479.26	444.70
479.44	409.59
479.62	330.02
479.80	437.68
479.98	400.23
480.16	397.89
480.34	409.59
480.52	400.23
480.70	407.25
480.88	397.89
481.06	402.57
481.24	393.21
481.41	430.66
481.59	355.76
481.77	397.89
481.95	395.55
482.13	433.00
482.31	416.62
482.49	397.89
482.67	409.59
482.85	395.55
483.03	447.04
483.21	367.46
483.39	437.68
483.57	486.83
483.74	423.64
483.92	372.15
484.10	449.38
484.28	390.87
484.46	482.15
484.64	409.59
484.82	411.93
485.00	409.59
485.18	430.66
485.35	461.09
485.53	390.87
485.71	451.72
485.89	339.38
486.07	430.66
486.25	491.51
486.43	428.32
486.61	489.17
486.78	482.15
486.96	341.72
487.14	423.64
487.32	395.55
487.50	358.10
487.68	486.83
487.85	409.59
488.03	414.27
488.21	407.25
488.39	381.51
488.57	421.30
488.75	362.78
488.92	554.71
489.10	437.68
489.28	479.81
489.46	379.17
489.64	437.68
489.81	386.19
489.99	416.62
490.17	428.32
490.35	379.17
490.53	421.30
490.70	369.80
490.88	409.59
491.06	407.25
491.24	463.43
491.41	440.02
491.59	484.49
491.77	351.08
491.95	421.30
492.13	358.10
492.30	442.36
492.48	430.66
492.66	400.23
492.84	353.42
493.01	409.59
493.19	447.04
493.37	479.81
493.54	451.72
493.72	414.27
493.90	463.43
494.08	341.72
494.25	433.00
494.43	409.59
494.61	404.91
494.79	369.80
494.96	393.21
495.14	468.11
495.32	400.23
495.49	421.30
495.67	491.51
495.85	351.08
496.02	456.40
496.20	465.77
496.38	425.98
496.55	440.02
496.73	390.87
496.91	407.25
497.09	425.98
497.26	404.91
497.44	454.06
497.62	379.17
497.79	416.62
497.97	472.79
498.14	383.85
498.32	404.91
498.50	322.99
498.67	395.55
498.85	379.17
499.03	388.53
499.20	430.66
499.38	348.74
499.56	447.04
499.73	538.32
499.91	482.15
500.08	444.70
500.26	414.27
500.44	437.68
500.61	440.02
500.79	451.72
500.97	393.21
501.14	477.47
501.32	486.83
501.49	468.11
501.67	381.51
501.84	372.15
502.02	444.70
502.20	456.40
502.37	327.68
502.55	418.96
502.72	442.36
502.90	451.72
503.07	465.77
503.25	435.34
503.43	365.12
503.60	482.15
503.78	421.30
503.95	418.96
504.13	351.08
504.30	440.02
504.48	341.72
504.65	500.87
504.83	463.43
505.01	353.42
505.18	400.23
505.36	402.57
505.53	449.38
505.71	334.70
505.88	423.64
506.06	416.62
506.23	376.83
506.41	330.02
506.58	440.02
506.76	442.36
506.93	379.17
507.11	514.92
507.28	435.34
507.46	402.57
507.63	400.23
507.81	372.15
507.98	423.64
508.16	339.38
508.33	376.83
508.50	362.78
508.68	442.36
508.85	411.93
509.03	423.64
509.20	433.00
509.38	433.00
509.55	402.57
509.73	458.74
509.90	411.93
510.08	353.42
510.25	414.27
510.42	390.87
510.60	444.70
510.77	442.36
510.95	400.23
511.12	386.19
511.30	442.36
511.47	423.64
511.64	409.59
511.82	440.02
511.99	435.34
512.17	435.34
512.34	400.23
512.51	407.25
512.69	433.00
512.86	449.38
513.04	442.36
513.21	433.00
513.38	486.83
513.56	430.66
513.73	330.02
513.90	337.04
514.08	416.62
514.25	411.93
514.43	435.34
514.60	437.68
514.77	486.83
514.95	351.08
515.12	444.70
515.29	447.04
515.47	442.36
515.64	430.66
515.81	500.87
515.99	386.19
516.16	484.49
516.33	472.79
516.51	456.40
516.68	390.87
516.85	400.23
517.03	449.38
517.20	416.62
517.37	458.74
517.54	465.77
517.72	425.98
517.89	362.78
518.06	418.96
518.24	456.40
518.41	407.25
518.58	404.91
518.75	393.21
518.93	409.59
519.10	475.13
519.27	411.93
519.45	400.23
519.62	414.27
519.79	437.68
519.96	407.25
520.14	425.98
520.31	397.89
520.48	458.74
520.65	449.38
520.83	447.04
521.00	374.49
521.17	409.59
521.34	381.51
521.52	428.32
521.69	447.04
521.86	393.21
522.03	390.87
522.20	449.38
522.38	411.93
522.55	383.85
522.72	390.87
522.89	400.23
523.07	449.38
523.24	416.62
523.41	479.81
523.58	374.49
523.75	397.89
523.92	456.40
524.10	388.53
524.27	407.25
524.44	414.27
524.61	407.25
524.78	400.23
524.96	463.43
525.13	416.62
525.30	400.23
525.47	428.32
525.64	381.51
525.81	440.02
525.98	418.96
526.16	362.78
526.33	365.12
526.50	416.62
526.67	360.44
526.84	442.36
527.01	430.66
527.18	463.43
527.36	423.64
527.53	374.49
527.70	479.81
527.87	428.32
528.04	503.22
528.21	402.57
528.38	489.17
528.55	435.34
528.72	505.56
528.89	538.32
529.07	444.70
529.24	400.23
529.41	491.51
529.58	411.93
529.75	435.34
529.92	447.04
530.09	437.68
530.26	440.02
530.43	411.93
530.60	407.25
530.77	463.43
530.94	435.34
531.11	379.17
531.28	418.96
531.46	437.68
531.63	444.70
531.80	468.11
531.97	423.64
532.14	447.04
532.31	423.64
532.48	421.30
532.65	421.30
532.82	447.04
532.99	390.87
533.16	433.00
533.33	407.25
533.50	404.91
533.67	402.57
533.84	337.04
534.01	491.51
534.18	379.17
534.35	423.64
534.52	395.55
534.69	418.96
534.86	348.74
535.03	425.98
535.20	395.55
535.37	334.70
535.54	397.89
535.71	390.87
535.88	433.00
536.05	411.93
536.22	458.74
536.38	379.17
536.55	465.77
536.72	430.66
536.89	395.55
537.06	414.27
537.23	362.78
537.40	374.49
537.57	383.85
537.74	489.17
537.91	411.93
538.08	418.96
538.25	367.46
538.42	395.55
538.59	440.02
538.75	407.25
538.92	461.09
539.09	458.74
539.26	407.25
539.43	496.19
539.60	418.96
539.77	351.08
539.94	397.89
540.11	416.62
540.28	388.53
540.44	528.96
540.61	421.30
540.78	411.93
540.95	430.66
541.12	416.62
541.29	475.13
541.46	444.70
541.62	461.09
541.79	407.25
541.96	400.23
542.13	369.80
542.30	442.36
542.47	362.78
542.63	414.27
542.80	397.89
542.97	470.45
543.14	437.68
543.31	416.62
543.48	407.25
543.64	440.02
543.81	379.17
543.98	393.21
544.15	404.91
544.32	390.87
544.48	372.15
544.65	423.64
544.82	348.74
544.99	416.62
545.16	465.77
545.32	409.59
545.49	444.70
545.66	423.64
545.83	374.49
546.00	325.33
546.16	421.30
546.33	369.80
546.50	341.72
546.67	407.25
546.83	444.70
547.00	404.91
547.17	407.25
547.34	355.76
547.50	428.32
547.67	411.93
547.84	442.36
548.00	428.32
548.17	386.19
548.34	339.38
548.51	512.58
548.67	463.43
548.84	414.27
549.01	407.25
549.18	428.32
549.34	425.98
549.51	421.30
549.68	456.40
549.84	440.02
550.01	402.57
550.18	435.34
550.34	451.72
550.51	472.79
550.68	484.49
550.84	456.40
551.01	355.76
551.18	456.40
551.34	379.17
551.51	416.62
551.68	418.96
551.84	454.06
552.01	409.59
552.18	433.00
552.34	482.15
552.51	362.78
552.68	407.25
552.84	454.06
553.01	428.32
553.18	414.27
553.34	318.31
553.51	409.59
553.67	437.68
553.84	428.32
554.01	435.34
554.17	458.74
554.34	440.02
554.51	484.49
554.67	470.45
554.84	442.36
555.00	365.12
555.17	470.45
555.33	465.77
555.50	416.62
555.67	475.13
555.83	355.76
556.00	482.15
556.16	552.37
556.33	519.60
556.50	367.46
556.66	393.21
556.83	418.96
556.99	337.04
557.16	372.15
557.32	407.25
557.49	407.25
557.65	393.21
557.82	390.87
557.98	418.96
558.15	381.51
558.32	430.66
558.48	430.66
558.65	486.83
558.81	477.47
558.98	355.76
559.14	409.59
559.31	456.40
559.47	458.74
559.64	393.21
559.80	423.64
559.97	383.85
560.13	442.36
560.30	379.17
560.46	435.34
560.63	447.04
560.79	435.34
560.96	402.57
561.12	388.53
561.29	468.11
561.45	458.74
561.61	425.98
561.78	524.28
561.94	353.42
562.11	421.30
562.27	507.90
562.44	442.36
562.60	395.55
562.77	390.87
562.93	463.43
563.10	454.06
563.26	456.40
563.42	433.00
563.59	456.40
563.75	449.38
563.92	447.04
564.08	376.83
564.24	435.34
564.41	475.13
564.57	358.10
564.74	367.46
564.90	416.62
565.07	355.76
565.23	381.51
565.39	383.85
565.56	332.36
565.72	440.02
565.88	463.43
566.05	383.85
566.21	386.19
566.38	379.17
566.54	418.96
566.70	414.27
566.87	400.23
567.03	381.51
567.19	393.21
567.36	400.23
567.52	306.61
567.68	411.93
567.85	484.49
568.01	430.66
568.17	428.32
568.34	376.83
568.50	372.15
568.66	430.66
568.83	498.53
568.99	411.93
569.15	418.96
569.32	414.27
569.48	388.53
569.64	390.87
569.81	360.44
569.97	367.46
570.13	451.72
570.30	435.34
570.46	423.64
570.62	386.19
570.78	393.21
570.95	395.55
571.11	461.09
571.27	468.11
571.43	423.64
571.60	414.27
571.76	383.85
571.92	435.34
572.09	449.38
572.25	388.53
572.41	374.49
572.57	425.98
572.74	435.34
572.90	440.02
573.06	376.83
573.22	386.19
573.38	463.43
573.55	414.27
573.71	447.04
573.87	451.72
574.03	388.53
574.20	437.68
574.36	428.32
574.52	383.85
574.68	411.93
574.84	421.30
575.01	437.68
575.17	435.34
575.33	484.49
575.49	470.45
575.65	388.53
575.82	447.04
575.98	470.45
576.14	500.87
576.30	379.17
576.46	454.06
576.62	479.81
576.79	425.98
576.95	381.51
577.11	411.93
577.27	465.77
577.43	470.45
577.59	376.83
577.75	463.43
577.92	411.93
578.08	463.43
578.24	365.12
578.40	456.40
578.56	418.96
578.72	461.09
578.88	395.55
579.04	367.46
579.21	447.04
579.37	379.17
579.53	416.62
579.69	395.55
579.85	451.72
580.01	379.17
580.17	421.30
580.33	386.19
580.49	482.15
580.65	447.04
580.82	444.70
580.98	414.27
581.14	369.80
581.30	440.02
581.46	461.09
581.62	388.53
581.78	411.93
581.94	470.45
582.10	390.87
582.26	395.55
582.42	381.51
582.58	482.15
582.74	435.34
582.90	407.25
583.06	442.36
583.22	428.32
583.38	421.30
583.54	423.64
583.70	454.06
583.86	451.72
584.02	416.62
584.18	444.70
584.34	425.98
584.50	348.74
584.66	418.96
584.82	397.89
584.98	465.77
585.14	472.79
585.30	423.64
585.46	358.10
585.62	400.23
585.78	369.80
585.94	428.32
586.10	365.12
586.26	491.51
586.42	463.43
586.58	458.74
586.74	372.15
586.90	442.36
587.06	433.00
587.22	430.66
587.38	411.93
587.54	458.74
587.70	407.25
587.86	433.00
588.02	475.13
588.18	376.83
588.34	388.53
588.49	376.83
588.65	428.32
588.81	442.36
588.97	444.70
589.13	493.85
589.29	458.74
589.45	447.04
589.61	425.98
589.77	461.09
589.93	458.74
590.08	407.25
590.24	407.25
590.40	461.09
590.56	400.23
590.72	381.51
590.88	433.00
591.04	393.21
591.20	482.15
591.35	454.06
591.51	437.68
591.67	358.10
591.83	400.23
591.99	465.77
592.15	456.40
592.31	433.00
592.46	425.98
592.62	393.21
592.78	362.78
592.94	442.36
593.10	381.51
593.26	395.55
593.41	365.12
593.57	381.51
593.73	425.98
593.89	505.56
594.05	472.79
594.20	458.74
594.36	397.89
594.52	456.40
594.68	440.02
594.84	449.38
594.99	463.43
595.15	442.36
595.31	421.30
595.47	435.34
595.62	383.85
595.78	383.85
595.94	447.04
596.10	435.34
596.25	416.62
596.41	454.06
596.57	407.25
596.73	393.21
596.88	411.93
597.04	374.49
597.20	484.49
597.36	440.02
597.51	463.43
597.67	463.43
597.83	456.40
597.99	423.64
598.14	465.77
598.30	411.93
598.46	414.27
598.61	414.27
598.77	390.87
598.93	414.27
599.09	367.46
599.24	430.66
599.40	463.43
599.56	409.59
599.71	475.13
599.87	461.09
600.03	374.49
600.18	388.53
600.34	393.21
600.50	407.25
600.65	402.57
600.81	444.70
600.97	430.66
601.12	409.59
601.28	402.57
601.44	388.53
601.59	308.95
601.75	374.49
601.91	372.15
602.06	379.17
602.22	435.34
602.37	468.11
602.53	449.38
602.69	433.00
602.84	430.66
603.00	444.70
603.16	416.62
603.31	428.32
603.47	411.93
603.62	407.25
603.78	388.53
603.94	416.62
604.09	404.91
604.25	409.59
604.40	393.21
604.56	418.96
604.71	360.44
604.87	411.93
605.03	376.83
605.18	463.43
605.34	444.70
605.49	407.25
605.65	416.62
605.80	369.80
605.96	407.25
606.12	411.93
606.27	423.64
606.43	449.38
606.58	449.38
606.74	421.30
606.89	449.38
607.05	409.59
607.20	369.80
607.36	461.09
607.51	435.34
607.67	456.40
607.82	437.68
607.98	472.79
608.13	418.96
608.29	402.57
608.44	461.09
608.60	376.83
608.75	421.30
608.91	362.78
609.06	442.36
609.22	514.92
609.37	397.89
609.53	358.10
609.68	465.77
609.84	423.64
609.99	449.38
610.15	433.00
