SpectraSuite Data File
++++++++++++++++++++++++++++++++++++
Date: Fri Oct 25 12:11:33 EDT 2013
User: price-jones
Dark Spectrum Present: No
Reference Spectrum Present: No
Number of Sampled Component Spectra: 1
Spectrometers: USB2+H05261
Integration Time (usec): 100000 (USB2+H05261)
Spectra Averaged: 1 (USB2+H05261)
Boxcar Smoothing: 0 (USB2+H05261)
Correct for Electrical Dark: No (USB2+H05261)
Strobe/Lamp Enabled: No (USB2+H05261)
Correct for Detector Non-linearity: No (USB2+H05261)
Correct for Stray Light: No (USB2+H05261)
Number of Pixels in Processed Spectrum: 2048
>>>>>Begin Processed Spectral Data<<<<<
365.73	395.55
365.92	395.55
366.12	395.55
366.32	278.52
366.52	234.05
366.72	299.59
366.91	248.10
367.11	231.71
367.31	222.35
367.51	159.16
367.70	220.01
367.90	208.31
368.10	248.10
368.30	243.42
368.49	287.89
368.69	278.52
368.89	297.25
369.09	241.08
369.28	273.84
369.48	285.55
369.68	276.18
369.87	308.95
370.07	318.31
370.27	299.59
370.47	358.10
370.66	320.65
370.86	418.96
371.06	374.49
371.25	386.19
371.45	287.89
371.65	416.62
371.84	416.62
372.04	360.44
372.24	409.59
372.44	327.68
372.63	465.77
372.83	444.70
373.03	463.43
373.22	395.55
373.42	390.87
373.62	355.76
373.81	411.93
374.01	423.64
374.21	475.13
374.40	442.36
374.60	430.66
374.79	369.80
374.99	381.51
375.19	449.38
375.38	437.68
375.58	353.42
375.78	437.68
375.97	458.74
376.17	414.27
376.37	390.87
376.56	458.74
376.76	388.53
376.95	379.17
377.15	437.68
377.35	383.85
377.54	477.47
377.74	416.62
377.93	395.55
378.13	381.51
378.33	465.77
378.52	383.85
378.72	454.06
378.91	386.19
379.11	348.74
379.31	409.59
379.50	437.68
379.70	458.74
379.89	433.00
380.09	416.62
380.28	383.85
380.48	435.34
380.68	362.78
380.87	472.79
381.07	393.21
381.26	400.23
381.46	461.09
381.65	397.89
381.85	320.65
382.04	411.93
382.24	358.10
382.43	402.57
382.63	435.34
382.83	435.34
383.02	367.46
383.22	444.70
383.41	418.96
383.61	393.21
383.80	442.36
384.00	355.76
384.19	381.51
384.39	425.98
384.58	393.21
384.78	421.30
384.97	379.17
385.17	407.25
385.36	372.15
385.56	465.77
385.75	407.25
385.95	428.32
386.14	421.30
386.34	447.04
386.53	463.43
386.72	411.93
386.92	435.34
387.11	477.47
387.31	437.68
387.50	395.55
387.70	414.27
387.89	395.55
388.09	381.51
388.28	461.09
388.48	367.46
388.67	451.72
388.86	472.79
389.06	351.08
389.25	437.68
389.45	402.57
389.64	475.13
389.84	454.06
390.03	369.80
390.22	395.55
390.42	362.78
390.61	423.64
390.81	304.27
391.00	428.32
391.19	367.46
391.39	348.74
391.58	433.00
391.78	433.00
391.97	428.32
392.16	388.53
392.36	437.68
392.55	423.64
392.75	454.06
392.94	472.79
393.13	355.76
393.33	362.78
393.52	388.53
393.71	397.89
393.91	437.68
394.10	430.66
394.29	425.98
394.49	393.21
394.68	456.40
394.88	498.53
395.07	444.70
395.26	404.91
395.46	404.91
395.65	463.43
395.84	367.46
396.04	484.49
396.23	477.47
396.42	397.89
396.62	428.32
396.81	449.38
397.00	409.59
397.19	409.59
397.39	416.62
397.58	383.85
397.77	409.59
397.97	423.64
398.16	440.02
398.35	418.96
398.55	327.68
398.74	409.59
398.93	472.79
399.12	463.43
399.32	395.55
399.51	475.13
399.70	414.27
399.90	468.11
400.09	421.30
400.28	447.04
400.47	407.25
400.67	407.25
400.86	360.44
401.05	416.62
401.24	414.27
401.44	425.98
401.63	390.87
401.82	435.34
402.01	374.49
402.21	386.19
402.40	435.34
402.59	386.19
402.78	390.87
402.97	404.91
403.17	421.30
403.36	407.25
403.55	421.30
403.74	348.74
403.93	414.27
404.13	351.08
404.32	440.02
404.51	456.40
404.70	372.15
404.89	346.40
405.09	472.79
405.28	362.78
405.47	379.17
405.66	393.21
405.85	395.55
406.05	376.83
406.24	451.72
406.43	458.74
406.62	362.78
406.81	440.02
407.00	433.00
407.20	444.70
407.39	442.36
407.58	334.70
407.77	390.87
407.96	416.62
408.15	402.57
408.34	430.66
408.54	411.93
408.73	414.27
408.92	348.74
409.11	433.00
409.30	365.12
409.49	365.12
409.68	360.44
409.87	360.44
410.07	320.65
410.26	395.55
410.45	475.13
410.64	313.63
410.83	482.15
411.02	386.19
411.21	437.68
411.40	435.34
411.59	479.81
411.78	379.17
411.98	390.87
412.17	393.21
412.36	393.21
412.55	414.27
412.74	472.79
412.93	379.17
413.12	320.65
413.31	411.93
413.50	470.45
413.69	461.09
413.88	425.98
414.07	388.53
414.26	425.98
414.45	402.57
414.64	344.06
414.83	379.17
415.02	440.02
415.22	379.17
415.41	510.24
415.60	428.32
415.79	383.85
415.98	409.59
416.17	409.59
416.36	402.57
416.55	360.44
416.74	425.98
416.93	437.68
417.12	454.06
417.31	409.59
417.50	428.32
417.69	486.83
417.88	386.19
418.07	369.80
418.26	402.57
418.45	414.27
418.64	440.02
418.83	470.45
419.02	458.74
419.21	447.04
419.39	390.87
419.58	395.55
419.77	346.40
419.96	442.36
420.15	390.87
420.34	437.68
420.53	360.44
420.72	440.02
420.91	418.96
421.10	430.66
421.29	479.81
421.48	425.98
421.67	463.43
421.86	454.06
422.05	393.21
422.24	388.53
422.43	421.30
422.61	381.51
422.80	458.74
422.99	454.06
423.18	440.02
423.37	447.04
423.56	409.59
423.75	400.23
423.94	423.64
424.13	367.46
424.32	388.53
424.50	355.76
424.69	404.91
424.88	456.40
425.07	341.72
425.26	414.27
425.45	341.72
425.64	374.49
425.83	435.34
426.01	470.45
426.20	440.02
426.39	411.93
426.58	397.89
426.77	444.70
426.96	325.33
427.15	463.43
427.33	294.91
427.52	416.62
427.71	435.34
427.90	369.80
428.09	351.08
428.28	393.21
428.46	374.49
428.65	437.68
428.84	402.57
429.03	414.27
429.22	491.51
429.40	458.74
429.59	367.46
429.78	402.57
429.97	395.55
430.16	461.09
430.34	400.23
430.53	388.53
430.72	451.72
430.91	390.87
431.10	353.42
431.28	341.72
431.47	418.96
431.66	369.80
431.85	437.68
432.03	463.43
432.22	435.34
432.41	461.09
432.60	463.43
432.79	440.02
432.97	411.93
433.16	489.17
433.35	433.00
433.54	367.46
433.72	489.17
433.91	447.04
434.10	421.30
434.28	435.34
434.47	346.40
434.66	397.89
434.85	440.02
435.03	374.49
435.22	395.55
435.41	468.11
435.59	393.21
435.78	393.21
435.97	348.74
436.16	372.15
436.34	423.64
436.53	393.21
436.72	456.40
436.90	430.66
437.09	374.49
437.28	425.98
437.46	355.76
437.65	477.47
437.84	383.85
438.02	407.25
438.21	433.00
438.40	381.51
438.58	369.80
438.77	437.68
438.96	435.34
439.14	374.49
439.33	421.30
439.52	327.68
439.70	337.04
439.89	404.91
440.08	442.36
440.26	435.34
440.45	451.72
440.63	409.59
440.82	465.77
441.01	486.83
441.19	353.42
441.38	341.72
441.57	468.11
441.75	397.89
441.94	397.89
442.12	477.47
442.31	433.00
442.50	351.08
442.68	402.57
442.87	388.53
443.05	458.74
443.24	503.22
443.43	433.00
443.61	449.38
443.80	313.63
443.98	400.23
444.17	353.42
444.35	433.00
444.54	411.93
444.73	425.98
444.91	418.96
445.10	386.19
445.28	423.64
445.47	332.36
445.65	402.57
445.84	409.59
446.02	388.53
446.21	367.46
446.39	456.40
446.58	395.55
446.77	407.25
446.95	430.66
447.14	472.79
447.32	393.21
447.51	397.89
447.69	411.93
447.88	428.32
448.06	421.30
448.25	407.25
448.43	362.78
448.62	383.85
448.80	322.99
448.99	402.57
449.17	355.76
449.36	451.72
449.54	376.83
449.73	407.25
449.91	510.24
450.10	430.66
450.28	486.83
450.46	507.90
450.65	461.09
450.83	444.70
451.02	418.96
451.20	416.62
451.39	433.00
451.57	390.87
451.76	463.43
451.94	472.79
452.13	437.68
452.31	440.02
452.49	437.68
452.68	304.27
452.86	346.40
453.05	390.87
453.23	402.57
453.42	400.23
453.60	435.34
453.78	440.02
453.97	479.81
454.15	360.44
454.34	437.68
454.52	402.57
454.70	418.96
454.89	383.85
455.07	379.17
455.26	414.27
455.44	451.72
455.62	355.76
455.81	433.00
455.99	465.77
456.17	451.72
456.36	421.30
456.54	409.59
456.73	365.12
456.91	393.21
457.09	451.72
457.28	393.21
457.46	362.78
457.64	395.55
457.83	435.34
458.01	369.80
458.19	374.49
458.38	379.17
458.56	383.85
458.74	393.21
458.93	461.09
459.11	351.08
459.29	433.00
459.48	461.09
459.66	479.81
459.84	430.66
460.03	482.15
460.21	475.13
460.39	383.85
460.57	418.96
460.76	428.32
460.94	433.00
461.12	418.96
461.31	477.47
461.49	433.00
461.67	390.87
461.85	404.91
462.04	456.40
462.22	842.59
462.40	374.49
462.59	433.00
462.77	435.34
462.95	454.06
463.13	388.53
463.32	402.57
463.50	423.64
463.68	477.47
463.86	423.64
464.05	400.23
464.23	428.32
464.41	444.70
464.59	430.66
464.78	425.98
464.96	348.74
465.14	449.38
465.32	449.38
465.50	437.68
465.69	444.70
465.87	346.40
466.05	442.36
466.23	386.19
466.41	472.79
466.60	512.58
466.78	369.80
466.96	477.47
467.14	447.04
467.32	388.53
467.51	425.98
467.69	440.02
467.87	433.00
468.05	393.21
468.23	402.57
468.41	411.93
468.60	381.51
468.78	390.87
468.96	505.56
469.14	447.04
469.32	430.66
469.50	423.64
469.69	376.83
469.87	383.85
470.05	423.64
470.23	447.04
470.41	397.89
470.59	449.38
470.77	486.83
470.95	414.27
471.14	456.40
471.32	449.38
471.50	440.02
471.68	404.91
471.86	458.74
472.04	468.11
472.22	404.91
472.40	381.51
472.58	397.89
472.77	458.74
472.95	461.09
473.13	430.66
473.31	397.89
473.49	367.46
473.67	381.51
473.85	367.46
474.03	489.17
474.21	376.83
474.39	379.17
474.57	425.98
474.75	465.77
474.93	376.83
475.12	383.85
475.30	390.87
475.48	397.89
475.66	458.74
475.84	402.57
476.02	425.98
476.20	461.09
476.38	435.34
476.56	472.79
476.74	407.25
476.92	383.85
477.10	402.57
477.28	383.85
477.46	407.25
477.64	416.62
477.82	372.15
478.00	362.78
478.18	337.04
478.36	425.98
478.54	428.32
478.72	374.49
478.90	416.62
479.08	458.74
479.26	440.02
479.44	482.15
479.62	456.40
479.80	437.68
479.98	402.57
480.16	397.89
480.34	416.62
480.52	390.87
480.70	407.25
480.88	414.27
481.06	393.21
481.24	414.27
481.41	332.36
481.59	400.23
481.77	411.93
481.95	388.53
482.13	472.79
482.31	425.98
482.49	376.83
482.67	383.85
482.85	486.83
483.03	442.36
483.21	372.15
483.39	381.51
483.57	402.57
483.74	395.55
483.92	395.55
484.10	334.70
484.28	397.89
484.46	472.79
484.64	362.78
484.82	374.49
485.00	383.85
485.18	449.38
485.35	402.57
485.53	433.00
485.71	451.72
485.89	400.23
486.07	348.74
486.25	463.43
486.43	411.93
486.61	500.87
486.78	376.83
486.96	386.19
487.14	397.89
487.32	395.55
487.50	386.19
487.68	498.53
487.85	409.59
488.03	430.66
488.21	433.00
488.39	477.47
488.57	404.91
488.75	390.87
488.92	496.19
489.10	423.64
489.28	421.30
489.46	379.17
489.64	428.32
489.81	407.25
489.99	477.47
490.17	386.19
490.35	444.70
490.53	355.76
490.70	433.00
490.88	379.17
491.06	411.93
491.24	437.68
491.41	393.21
491.59	369.80
491.77	404.91
491.95	393.21
492.13	372.15
492.30	461.09
492.48	421.30
492.66	430.66
492.84	477.47
493.01	388.53
493.19	404.91
493.37	486.83
493.54	365.12
493.72	437.68
493.90	369.80
494.08	372.15
494.25	341.72
494.43	386.19
494.61	451.72
494.79	374.49
494.96	379.17
495.14	458.74
495.32	444.70
495.49	442.36
495.67	397.89
495.85	397.89
496.02	369.80
496.20	397.89
496.38	414.27
496.55	440.02
496.73	379.17
496.91	421.30
497.09	442.36
497.26	416.62
497.44	414.27
497.62	407.25
497.79	390.87
497.97	411.93
498.14	374.49
498.32	470.45
498.50	421.30
498.67	416.62
498.85	379.17
499.03	470.45
499.20	486.83
499.38	348.74
499.56	425.98
499.73	416.62
499.91	367.46
500.08	421.30
500.26	376.83
500.44	430.66
500.61	468.11
500.79	428.32
500.97	479.81
501.14	442.36
501.32	418.96
501.49	404.91
501.67	442.36
501.84	428.32
502.02	437.68
502.20	451.72
502.37	440.02
502.55	386.19
502.72	463.43
502.90	369.80
503.07	400.23
503.25	444.70
503.43	458.74
503.60	409.59
503.78	472.79
503.95	456.40
504.13	437.68
504.30	411.93
504.48	379.17
504.65	339.38
504.83	425.98
505.01	451.72
505.18	407.25
505.36	397.89
505.53	416.62
505.71	489.17
505.88	383.85
506.06	393.21
506.23	442.36
506.41	430.66
506.58	489.17
506.76	369.80
506.93	404.91
507.11	425.98
507.28	402.57
507.46	362.78
507.63	437.68
507.81	327.68
507.98	402.57
508.16	437.68
508.33	451.72
508.50	414.27
508.68	425.98
508.85	402.57
509.03	423.64
509.20	414.27
509.38	365.12
509.55	407.25
509.73	355.76
509.90	465.77
510.08	447.04
510.25	393.21
510.42	418.96
510.60	367.46
510.77	418.96
510.95	435.34
511.12	507.90
511.30	376.83
511.47	395.55
511.64	454.06
511.82	437.68
511.99	318.31
512.17	456.40
512.34	416.62
512.51	489.17
512.69	435.34
512.86	468.11
513.04	458.74
513.21	353.42
513.38	346.40
513.56	341.72
513.73	411.93
513.90	416.62
514.08	442.36
514.25	470.45
514.43	416.62
514.60	421.30
514.77	407.25
514.95	458.74
515.12	379.17
515.29	437.68
515.47	362.78
515.64	358.10
515.81	437.68
515.99	440.02
516.16	414.27
516.33	468.11
516.51	344.06
516.68	451.72
516.85	393.21
517.03	454.06
517.20	381.51
517.37	381.51
517.54	402.57
517.72	369.80
517.89	365.12
518.06	358.10
518.24	477.47
518.41	447.04
518.58	461.09
518.75	472.79
518.93	390.87
519.10	428.32
519.27	477.47
519.45	404.91
519.62	425.98
519.79	496.19
519.96	400.23
520.14	440.02
520.31	437.68
520.48	444.70
520.65	425.98
520.83	393.21
521.00	404.91
521.17	519.60
521.34	442.36
521.52	393.21
521.69	393.21
521.86	442.36
522.03	428.32
522.20	442.36
522.38	475.13
522.55	400.23
522.72	484.49
522.89	402.57
523.07	430.66
523.24	383.85
523.41	428.32
523.58	376.83
523.75	407.25
523.92	430.66
524.10	416.62
524.27	395.55
524.44	470.45
524.61	430.66
524.78	444.70
524.96	376.83
525.13	402.57
525.30	395.55
525.47	449.38
525.64	395.55
525.81	388.53
525.98	402.57
526.16	365.12
526.33	393.21
526.50	383.85
526.67	390.87
526.84	393.21
527.01	372.15
527.18	433.00
527.36	390.87
527.53	395.55
527.70	360.44
527.87	479.81
528.04	458.74
528.21	376.83
528.38	447.04
528.55	437.68
528.72	411.93
528.89	514.92
529.07	447.04
529.24	374.49
529.41	512.58
529.58	468.11
529.75	430.66
529.92	402.57
530.09	421.30
530.26	390.87
530.43	337.04
530.60	421.30
530.77	330.02
530.94	425.98
531.11	390.87
531.28	397.89
531.46	369.80
531.63	461.09
531.80	461.09
531.97	407.25
532.14	407.25
532.31	386.19
532.48	442.36
532.65	463.43
532.82	393.21
532.99	376.83
533.16	423.64
533.33	393.21
533.50	442.36
533.67	421.30
533.84	437.68
534.01	444.70
534.18	425.98
534.35	454.06
534.52	414.27
534.69	409.59
534.86	346.40
535.03	381.51
535.20	416.62
535.37	468.11
535.54	428.32
535.71	369.80
535.88	421.30
536.05	454.06
536.22	435.34
536.38	390.87
536.55	414.27
536.72	346.40
536.89	414.27
537.06	383.85
537.23	484.49
537.40	414.27
537.57	414.27
537.74	491.51
537.91	421.30
538.08	409.59
538.25	447.04
538.42	381.51
538.59	365.12
538.75	348.74
538.92	430.66
539.09	442.36
539.26	442.36
539.43	461.09
539.60	451.72
539.77	397.89
539.94	440.02
540.11	388.53
540.28	423.64
540.44	437.68
540.61	332.36
540.78	365.12
540.95	397.89
541.12	442.36
541.29	393.21
541.46	409.59
541.62	411.93
541.79	369.80
541.96	428.32
542.13	435.34
542.30	407.25
542.47	435.34
542.63	430.66
542.80	360.44
542.97	430.66
543.14	409.59
543.31	440.02
543.48	367.46
543.64	388.53
543.81	416.62
543.98	425.98
544.15	388.53
544.32	409.59
544.48	465.77
544.65	423.64
544.82	395.55
544.99	468.11
545.16	503.22
545.32	395.55
545.49	468.11
545.66	428.32
545.83	393.21
546.00	430.66
546.16	435.34
546.33	416.62
546.50	383.85
546.67	421.30
546.83	449.38
547.00	383.85
547.17	428.32
547.34	477.47
547.50	468.11
547.67	437.68
547.84	451.72
548.00	440.02
548.17	444.70
548.34	461.09
548.51	444.70
548.67	404.91
548.84	395.55
549.01	433.00
549.18	379.17
549.34	418.96
549.51	386.19
549.68	472.79
549.84	463.43
550.01	458.74
550.18	463.43
550.34	423.64
550.51	379.17
550.68	461.09
550.84	374.49
551.01	376.83
551.18	435.34
551.34	435.34
551.51	470.45
551.68	395.55
551.84	320.65
552.01	400.23
552.18	435.34
552.34	440.02
552.51	416.62
552.68	465.77
552.84	425.98
553.01	418.96
553.18	348.74
553.34	374.49
553.51	393.21
553.67	409.59
553.84	400.23
554.01	430.66
554.17	393.21
554.34	430.66
554.51	437.68
554.67	362.78
554.84	416.62
555.00	456.40
555.17	423.64
555.33	425.98
555.50	404.91
555.67	397.89
555.83	362.78
556.00	479.81
556.16	601.52
556.33	451.72
556.50	376.83
556.66	454.06
556.83	393.21
556.99	444.70
557.16	442.36
557.32	421.30
557.49	454.06
557.65	355.76
557.82	430.66
557.98	442.36
558.15	294.91
558.32	465.77
558.48	395.55
558.65	463.43
558.81	425.98
558.98	435.34
559.14	440.02
559.31	416.62
559.47	433.00
559.64	411.93
559.80	395.55
559.97	409.59
560.13	362.78
560.30	416.62
560.46	444.70
560.63	454.06
560.79	425.98
560.96	425.98
561.12	428.32
561.29	418.96
561.45	416.62
561.61	449.38
561.78	507.90
561.94	402.57
562.11	472.79
562.27	437.68
562.44	362.78
562.60	449.38
562.77	430.66
562.93	489.17
563.10	442.36
563.26	414.27
563.42	362.78
563.59	416.62
563.75	393.21
563.92	402.57
564.08	400.23
564.24	397.89
564.41	409.59
564.57	390.87
564.74	407.25
564.90	362.78
565.07	440.02
565.23	440.02
565.39	435.34
565.56	409.59
565.72	400.23
565.88	479.81
566.05	397.89
566.21	344.06
566.38	390.87
566.54	376.83
566.70	416.62
566.87	376.83
567.03	409.59
567.19	390.87
567.36	421.30
567.52	451.72
567.68	454.06
567.85	393.21
568.01	423.64
568.17	402.57
568.34	414.27
568.50	463.43
568.66	468.11
568.83	430.66
568.99	402.57
569.15	454.06
569.32	376.83
569.48	411.93
569.64	482.15
569.81	376.83
569.97	386.19
570.13	409.59
570.30	416.62
570.46	414.27
570.62	397.89
570.78	411.93
570.95	374.49
571.11	418.96
571.27	428.32
571.43	428.32
571.60	372.15
571.76	433.00
571.92	454.06
572.09	440.02
572.25	395.55
572.41	395.55
572.57	407.25
572.74	475.13
572.90	423.64
573.06	374.49
573.22	393.21
573.38	433.00
573.55	463.43
573.71	402.57
573.87	383.85
574.03	447.04
574.20	416.62
574.36	334.70
574.52	402.57
574.68	409.59
574.84	470.45
575.01	402.57
575.17	428.32
575.33	505.56
575.49	465.77
575.65	482.15
575.82	407.25
575.98	454.06
576.14	416.62
576.30	367.46
576.46	414.27
576.62	421.30
576.79	397.89
576.95	489.17
577.11	390.87
577.27	411.93
577.43	447.04
577.59	519.60
577.75	444.70
577.92	430.66
578.08	381.51
578.24	407.25
578.40	404.91
578.56	484.49
578.72	423.64
578.88	545.34
579.04	425.98
579.21	456.40
579.37	461.09
579.53	404.91
579.69	416.62
579.85	428.32
580.01	411.93
580.17	397.89
580.33	388.53
580.49	449.38
580.65	468.11
580.82	388.53
580.98	341.72
581.14	376.83
581.30	409.59
581.46	461.09
581.62	451.72
581.78	421.30
581.94	454.06
582.10	395.55
582.26	498.53
582.42	472.79
582.58	435.34
582.74	461.09
582.90	388.53
583.06	411.93
583.22	435.34
583.38	416.62
583.54	409.59
583.70	472.79
583.86	390.87
584.02	414.27
584.18	510.24
584.34	442.36
584.50	517.26
584.66	416.62
584.82	458.74
584.98	374.49
585.14	442.36
585.30	433.00
585.46	383.85
585.62	404.91
585.78	437.68
585.94	386.19
586.10	390.87
586.26	388.53
586.42	477.47
586.58	435.34
586.74	402.57
586.90	465.77
587.06	444.70
587.22	421.30
587.38	477.47
587.54	353.42
587.70	360.44
587.86	451.72
588.02	430.66
588.18	503.22
588.34	369.80
588.49	411.93
588.65	496.19
588.81	465.77
588.97	423.64
589.13	376.83
589.29	418.96
589.45	440.02
589.61	472.79
589.77	461.09
589.93	414.27
590.08	430.66
590.24	400.23
590.40	397.89
590.56	442.36
590.72	435.34
590.88	470.45
591.04	379.17
591.20	421.30
591.35	521.94
591.51	454.06
591.67	418.96
591.83	465.77
591.99	409.59
592.15	383.85
592.31	477.47
592.46	400.23
592.62	454.06
592.78	416.62
592.94	386.19
593.10	423.64
593.26	365.12
593.41	449.38
593.57	362.78
593.73	344.06
593.89	468.11
594.05	440.02
594.20	421.30
594.36	458.74
594.52	437.68
594.68	414.27
594.84	421.30
594.99	454.06
595.15	435.34
595.31	386.19
595.47	454.06
595.62	447.04
595.78	409.59
595.94	437.68
596.10	463.43
596.25	421.30
596.41	409.59
596.57	355.76
596.73	435.34
596.88	425.98
597.04	397.89
597.20	294.91
597.36	381.51
597.51	360.44
597.67	390.87
597.83	320.65
597.99	402.57
598.14	430.66
598.30	442.36
598.46	421.30
598.61	472.79
598.77	374.49
598.93	411.93
599.09	533.64
599.24	397.89
599.40	442.36
599.56	383.85
599.71	428.32
599.87	430.66
600.03	442.36
600.18	423.64
600.34	435.34
600.50	440.02
600.65	435.34
600.81	402.57
600.97	367.46
601.12	416.62
601.28	449.38
601.44	435.34
601.59	379.17
601.75	421.30
601.91	386.19
602.06	379.17
602.22	440.02
602.37	362.78
602.53	388.53
602.69	404.91
602.84	358.10
603.00	430.66
603.16	444.70
603.31	470.45
603.47	407.25
603.62	337.04
603.78	451.72
603.94	456.40
604.09	463.43
604.25	407.25
604.40	383.85
604.56	425.98
604.71	390.87
604.87	428.32
605.03	332.36
605.18	390.87
605.34	430.66
605.49	388.53
605.65	330.02
605.80	416.62
605.96	393.21
606.12	458.74
606.27	463.43
606.43	447.04
606.58	372.15
606.74	442.36
606.89	414.27
607.05	475.13
607.20	367.46
607.36	421.30
607.51	379.17
607.67	395.55
607.82	407.25
607.98	430.66
608.13	386.19
608.29	390.87
608.44	454.06
608.60	400.23
608.75	397.89
608.91	409.59
609.06	463.43
609.22	418.96
609.37	414.27
609.53	390.87
609.68	390.87
609.84	416.62
609.99	400.23
610.15	374.49
