SpectraSuite Data File
++++++++++++++++++++++++++++++++++++
Date: Fri Oct 25 12:11:13 EDT 2013
User: price-jones
Dark Spectrum Present: No
Reference Spectrum Present: No
Number of Sampled Component Spectra: 1
Spectrometers: USB2+H05261
Integration Time (usec): 100000 (USB2+H05261)
Spectra Averaged: 1 (USB2+H05261)
Boxcar Smoothing: 0 (USB2+H05261)
Correct for Electrical Dark: No (USB2+H05261)
Strobe/Lamp Enabled: No (USB2+H05261)
Correct for Detector Non-linearity: No (USB2+H05261)
Correct for Stray Light: No (USB2+H05261)
Number of Pixels in Processed Spectrum: 2048
>>>>>Begin Processed Spectral Data<<<<<
365.73	393.21
365.92	393.21
366.12	393.21
366.32	203.63
366.52	236.39
366.72	311.29
366.91	250.44
367.11	212.99
367.31	283.20
367.51	292.57
367.70	220.01
367.90	234.05
368.10	262.14
368.30	257.46
368.49	269.16
368.69	299.59
368.89	269.16
369.09	205.97
369.28	262.14
369.48	262.14
369.68	264.48
369.87	308.95
370.07	344.06
370.27	390.87
370.47	304.27
370.66	344.06
370.86	358.10
371.06	400.23
371.25	393.21
371.45	414.27
371.65	407.25
371.84	334.70
372.04	374.49
372.24	379.17
372.44	421.30
372.63	386.19
372.83	334.70
373.03	407.25
373.22	388.53
373.42	456.40
373.62	397.89
373.81	449.38
374.01	437.68
374.21	449.38
374.40	433.00
374.60	390.87
374.79	414.27
374.99	461.09
375.19	444.70
375.38	379.17
375.58	372.15
375.78	505.56
375.97	428.32
376.17	463.43
376.37	437.68
376.56	425.98
376.76	383.85
376.95	355.76
377.15	369.80
377.35	451.72
377.54	402.57
377.74	372.15
377.93	444.70
378.13	409.59
378.33	416.62
378.52	428.32
378.72	458.74
378.91	440.02
379.11	486.83
379.31	430.66
379.50	411.93
379.70	498.53
379.89	465.77
380.09	383.85
380.28	393.21
380.48	444.70
380.68	411.93
380.87	353.42
381.07	437.68
381.26	465.77
381.46	430.66
381.65	423.64
381.85	433.00
382.04	379.17
382.24	463.43
382.43	367.46
382.63	344.06
382.83	393.21
383.02	465.77
383.22	390.87
383.41	433.00
383.61	341.72
383.80	435.34
384.00	418.96
384.19	344.06
384.39	365.12
384.58	421.30
384.78	447.04
384.97	383.85
385.17	440.02
385.36	386.19
385.56	397.89
385.75	369.80
385.95	433.00
386.14	442.36
386.34	372.15
386.53	463.43
386.72	447.04
386.92	456.40
387.11	451.72
387.31	379.17
387.50	461.09
387.70	433.00
387.89	390.87
388.09	327.68
388.28	400.23
388.48	393.21
388.67	355.76
388.86	386.19
389.06	414.27
389.25	444.70
389.45	416.62
389.64	435.34
389.84	409.59
390.03	383.85
390.22	442.36
390.42	367.46
390.61	390.87
390.81	430.66
391.00	383.85
391.19	456.40
391.39	299.59
391.58	400.23
391.78	409.59
391.97	458.74
392.16	334.70
392.36	440.02
392.55	409.59
392.75	414.27
392.94	468.11
393.13	374.49
393.33	395.55
393.52	428.32
393.71	376.83
393.91	421.30
394.10	390.87
394.29	435.34
394.49	393.21
394.68	395.55
394.88	388.53
395.07	425.98
395.26	418.96
395.46	440.02
395.65	388.53
395.84	458.74
396.04	428.32
396.23	437.68
396.42	440.02
396.62	444.70
396.81	381.51
397.00	421.30
397.19	454.06
397.39	393.21
397.58	423.64
397.77	461.09
397.97	454.06
398.16	423.64
398.35	435.34
398.55	456.40
398.74	411.93
398.93	411.93
399.12	440.02
399.32	376.83
399.51	402.57
399.70	390.87
399.90	421.30
400.09	477.47
400.28	437.68
400.47	376.83
400.67	428.32
400.86	374.49
401.05	428.32
401.24	454.06
401.44	435.34
401.63	369.80
401.82	414.27
402.01	456.40
402.21	440.02
402.40	400.23
402.59	414.27
402.78	440.02
402.97	386.19
403.17	428.32
403.36	318.31
403.55	390.87
403.74	330.02
403.93	341.72
404.13	425.98
404.32	379.17
404.51	421.30
404.70	355.76
404.89	383.85
405.09	421.30
405.28	388.53
405.47	404.91
405.66	447.04
405.85	430.66
406.05	454.06
406.24	454.06
406.43	472.79
406.62	433.00
406.81	386.19
407.00	425.98
407.20	421.30
407.39	428.32
407.58	407.25
407.77	374.49
407.96	365.12
408.15	470.45
408.34	372.15
408.54	400.23
408.73	421.30
408.92	428.32
409.11	484.49
409.30	433.00
409.49	365.12
409.68	369.80
409.87	442.36
410.07	386.19
410.26	404.91
410.45	402.57
410.64	454.06
410.83	449.38
411.02	330.02
411.21	430.66
411.40	400.23
411.59	489.17
411.78	379.17
411.98	409.59
412.17	327.68
412.36	393.21
412.55	334.70
412.74	430.66
412.93	514.92
413.12	379.17
413.31	381.51
413.50	433.00
413.69	463.43
413.88	395.55
414.07	435.34
414.26	423.64
414.45	365.12
414.64	416.62
414.83	348.74
415.02	358.10
415.22	505.56
415.41	421.30
415.60	409.59
415.79	388.53
415.98	395.55
416.17	386.19
416.36	393.21
416.55	360.44
416.74	409.59
416.93	416.62
417.12	344.06
417.31	390.87
417.50	395.55
417.69	479.81
417.88	433.00
418.07	428.32
418.26	346.40
418.45	367.46
418.64	390.87
418.83	421.30
419.02	451.72
419.21	376.83
419.39	425.98
419.58	395.55
419.77	444.70
419.96	428.32
420.15	404.91
420.34	416.62
420.53	411.93
420.72	381.51
420.91	388.53
421.10	409.59
421.29	425.98
421.48	407.25
421.67	451.72
421.86	418.96
422.05	411.93
422.24	416.62
422.43	404.91
422.61	397.89
422.80	402.57
422.99	386.19
423.18	409.59
423.37	400.23
423.56	468.11
423.75	400.23
423.94	407.25
424.13	369.80
424.32	447.04
424.50	358.10
424.69	390.87
424.88	465.77
425.07	416.62
425.26	491.51
425.45	493.85
425.64	437.68
425.83	367.46
426.01	423.64
426.20	587.47
426.39	458.74
426.58	409.59
426.77	437.68
426.96	430.66
427.15	400.23
427.33	372.15
427.52	395.55
427.71	409.59
427.90	407.25
428.09	351.08
428.28	425.98
428.46	409.59
428.65	369.80
428.84	440.02
429.03	416.62
429.22	383.85
429.40	442.36
429.59	454.06
429.78	477.47
429.97	416.62
430.16	437.68
430.34	440.02
430.53	430.66
430.72	430.66
430.91	493.85
431.10	390.87
431.28	379.17
431.47	362.78
431.66	486.83
431.85	416.62
432.03	397.89
432.22	421.30
432.41	425.98
432.60	376.83
432.79	376.83
432.97	397.89
433.16	358.10
433.35	404.91
433.54	402.57
433.72	411.93
433.91	416.62
434.10	395.55
434.28	437.68
434.47	386.19
434.66	397.89
434.85	423.64
435.03	376.83
435.22	475.13
435.41	402.57
435.59	358.10
435.78	353.42
435.97	449.38
436.16	477.47
436.34	451.72
436.53	397.89
436.72	491.51
436.90	407.25
437.09	423.64
437.28	411.93
437.46	423.64
437.65	404.91
437.84	440.02
438.02	437.68
438.21	404.91
438.40	404.91
438.58	442.36
438.77	407.25
438.96	421.30
439.14	367.46
439.33	397.89
439.52	379.17
439.70	393.21
439.89	409.59
440.08	386.19
440.26	470.45
440.45	411.93
440.63	390.87
440.82	449.38
441.01	493.85
441.19	440.02
441.38	393.21
441.57	416.62
441.75	397.89
441.94	435.34
442.12	337.04
442.31	440.02
442.50	440.02
442.68	330.02
442.87	421.30
443.05	430.66
443.24	414.27
443.43	411.93
443.61	372.15
443.80	351.08
443.98	430.66
444.17	444.70
444.35	353.42
444.54	409.59
444.73	348.74
444.91	458.74
445.10	339.38
445.28	388.53
445.47	435.34
445.65	468.11
445.84	442.36
446.02	425.98
446.21	416.62
446.39	447.04
446.58	416.62
446.77	358.10
446.95	395.55
447.14	404.91
447.32	440.02
447.51	428.32
447.69	430.66
447.88	390.87
448.06	470.45
448.25	383.85
448.43	379.17
448.62	341.72
448.80	372.15
448.99	351.08
449.17	418.96
449.36	320.65
449.54	341.72
449.73	414.27
449.91	388.53
450.10	397.89
450.28	425.98
450.46	482.15
450.65	416.62
450.83	423.64
451.02	479.81
451.20	423.64
451.39	367.46
451.57	437.68
451.76	484.49
451.94	404.91
452.13	423.64
452.31	461.09
452.49	416.62
452.68	430.66
452.86	421.30
453.05	425.98
453.23	433.00
453.42	348.74
453.60	407.25
453.78	463.43
453.97	428.32
454.15	379.17
454.34	393.21
454.52	435.34
454.70	404.91
454.89	463.43
455.07	423.64
455.26	454.06
455.44	440.02
455.62	365.12
455.81	461.09
455.99	428.32
456.17	440.02
456.36	414.27
456.54	390.87
456.73	463.43
456.91	404.91
457.09	503.22
457.28	461.09
457.46	470.45
457.64	489.17
457.83	362.78
458.01	351.08
458.19	400.23
458.38	376.83
458.56	386.19
458.74	414.27
458.93	395.55
459.11	388.53
459.29	318.31
459.48	430.66
459.66	514.92
459.84	449.38
460.03	477.47
460.21	376.83
460.39	374.49
460.57	461.09
460.76	414.27
460.94	381.51
461.12	430.66
461.31	477.47
461.49	409.59
461.67	447.04
461.85	367.46
462.04	414.27
462.22	798.12
462.40	400.23
462.59	402.57
462.77	400.23
462.95	454.06
463.13	430.66
463.32	496.19
463.50	390.87
463.68	472.79
463.86	416.62
464.05	484.49
464.23	463.43
464.41	383.85
464.59	397.89
464.78	395.55
464.96	442.36
465.14	409.59
465.32	397.89
465.50	433.00
465.69	491.51
465.87	454.06
466.05	411.93
466.23	444.70
466.41	320.65
466.60	414.27
466.78	414.27
466.96	416.62
467.14	479.81
467.32	425.98
467.51	414.27
467.69	351.08
467.87	468.11
468.05	433.00
468.23	418.96
468.41	430.66
468.60	435.34
468.78	397.89
468.96	411.93
469.14	365.12
469.32	341.72
469.50	454.06
469.69	395.55
469.87	404.91
470.05	425.98
470.23	423.64
470.41	386.19
470.59	383.85
470.77	414.27
470.95	468.11
471.14	479.81
471.32	397.89
471.50	486.83
471.68	386.19
471.86	465.77
472.04	454.06
472.22	470.45
472.40	430.66
472.58	451.72
472.77	468.11
472.95	440.02
473.13	425.98
473.31	493.85
473.49	411.93
473.67	430.66
473.85	341.72
474.03	374.49
474.21	397.89
474.39	458.74
474.57	414.27
474.75	489.17
474.93	362.78
475.12	369.80
475.30	355.76
475.48	402.57
475.66	390.87
475.84	332.36
476.02	411.93
476.20	404.91
476.38	414.27
476.56	400.23
476.74	409.59
476.92	444.70
477.10	404.91
477.28	383.85
477.46	393.21
477.64	376.83
477.82	451.72
478.00	428.32
478.18	418.96
478.36	440.02
478.54	397.89
478.72	442.36
478.90	344.06
479.08	407.25
479.26	367.46
479.44	407.25
479.62	388.53
479.80	461.09
479.98	397.89
480.16	367.46
480.34	461.09
480.52	454.06
480.70	369.80
480.88	348.74
481.06	449.38
481.24	388.53
481.41	376.83
481.59	447.04
481.77	404.91
481.95	414.27
482.13	425.98
482.31	365.12
482.49	428.32
482.67	351.08
482.85	404.91
483.03	435.34
483.21	388.53
483.39	376.83
483.57	367.46
483.74	407.25
483.92	442.36
484.10	425.98
484.28	433.00
484.46	526.62
484.64	411.93
484.82	407.25
485.00	409.59
485.18	491.51
485.35	461.09
485.53	486.83
485.71	496.19
485.89	365.12
486.07	440.02
486.25	407.25
486.43	402.57
486.61	414.27
486.78	390.87
486.96	416.62
487.14	440.02
487.32	376.83
487.50	416.62
487.68	454.06
487.85	447.04
488.03	482.15
488.21	486.83
488.39	435.34
488.57	435.34
488.75	337.04
488.92	463.43
489.10	449.38
489.28	463.43
489.46	428.32
489.64	322.99
489.81	341.72
489.99	430.66
490.17	402.57
490.35	447.04
490.53	386.19
490.70	367.46
490.88	454.06
491.06	475.13
491.24	390.87
491.41	390.87
491.59	411.93
491.77	407.25
491.95	379.17
492.13	393.21
492.30	395.55
492.48	449.38
492.66	421.30
492.84	482.15
493.01	404.91
493.19	355.76
493.37	461.09
493.54	416.62
493.72	414.27
493.90	376.83
494.08	442.36
494.25	423.64
494.43	348.74
494.61	440.02
494.79	428.32
494.96	344.06
495.14	440.02
495.32	362.78
495.49	435.34
495.67	372.15
495.85	404.91
496.02	376.83
496.20	414.27
496.38	393.21
496.55	330.02
496.73	346.40
496.91	416.62
497.09	477.47
497.26	425.98
497.44	381.51
497.62	404.91
497.79	411.93
497.97	428.32
498.14	383.85
498.32	381.51
498.50	437.68
498.67	383.85
498.85	458.74
499.03	428.32
499.20	437.68
499.38	400.23
499.56	374.49
499.73	414.27
499.91	400.23
500.08	423.64
500.26	435.34
500.44	416.62
500.61	486.83
500.79	449.38
500.97	404.91
501.14	428.32
501.32	393.21
501.49	451.72
501.67	430.66
501.84	463.43
502.02	353.42
502.20	400.23
502.37	430.66
502.55	395.55
502.72	395.55
502.90	423.64
503.07	388.53
503.25	402.57
503.43	311.29
503.60	393.21
503.78	435.34
503.95	472.79
504.13	407.25
504.30	435.34
504.48	472.79
504.65	435.34
504.83	447.04
505.01	397.89
505.18	355.76
505.36	407.25
505.53	416.62
505.71	425.98
505.88	461.09
506.06	435.34
506.23	433.00
506.41	358.10
506.58	313.63
506.76	463.43
506.93	475.13
507.11	360.44
507.28	404.91
507.46	468.11
507.63	428.32
507.81	433.00
507.98	400.23
508.16	456.40
508.33	409.59
508.50	418.96
508.68	411.93
508.85	440.02
509.03	388.53
509.20	330.02
509.38	435.34
509.55	440.02
509.73	407.25
509.90	500.87
510.08	418.96
510.25	390.87
510.42	414.27
510.60	442.36
510.77	449.38
510.95	383.85
511.12	414.27
511.30	393.21
511.47	435.34
511.64	440.02
511.82	465.77
511.99	437.68
512.17	388.53
512.34	388.53
512.51	421.30
512.69	397.89
512.86	409.59
513.04	421.30
513.21	411.93
513.38	388.53
513.56	395.55
513.73	374.49
513.90	390.87
514.08	397.89
514.25	440.02
514.43	400.23
514.60	472.79
514.77	362.78
514.95	475.13
515.12	404.91
515.29	327.68
515.47	381.51
515.64	365.12
515.81	404.91
515.99	430.66
516.16	463.43
516.33	379.17
516.51	468.11
516.68	404.91
516.85	425.98
517.03	376.83
517.20	388.53
517.37	456.40
517.54	435.34
517.72	416.62
517.89	411.93
518.06	393.21
518.24	458.74
518.41	454.06
518.58	386.19
518.75	463.43
518.93	475.13
519.10	386.19
519.27	362.78
519.45	442.36
519.62	395.55
519.79	482.15
519.96	454.06
520.14	486.83
520.31	477.47
520.48	414.27
520.65	397.89
520.83	521.94
521.00	472.79
521.17	498.53
521.34	449.38
521.52	367.46
521.69	449.38
521.86	444.70
522.03	430.66
522.20	416.62
522.38	437.68
522.55	383.85
522.72	365.12
522.89	409.59
523.07	493.85
523.24	390.87
523.41	425.98
523.58	337.04
523.75	411.93
523.92	376.83
524.10	456.40
524.27	407.25
524.44	351.08
524.61	472.79
524.78	477.47
524.96	421.30
525.13	423.64
525.30	458.74
525.47	421.30
525.64	365.12
525.81	423.64
525.98	442.36
526.16	447.04
526.33	433.00
526.50	449.38
526.67	444.70
526.84	388.53
527.01	400.23
527.18	418.96
527.36	393.21
527.53	454.06
527.70	444.70
527.87	421.30
528.04	503.22
528.21	465.77
528.38	456.40
528.55	479.81
528.72	449.38
528.89	440.02
529.07	425.98
529.24	407.25
529.41	458.74
529.58	449.38
529.75	381.51
529.92	435.34
530.09	400.23
530.26	425.98
530.43	351.08
530.60	386.19
530.77	362.78
530.94	355.76
531.11	475.13
531.28	381.51
531.46	404.91
531.63	440.02
531.80	421.30
531.97	395.55
532.14	440.02
532.31	458.74
532.48	440.02
532.65	465.77
532.82	374.49
532.99	404.91
533.16	365.12
533.33	433.00
533.50	362.78
533.67	374.49
533.84	449.38
534.01	458.74
534.18	465.77
534.35	461.09
534.52	372.15
534.69	397.89
534.86	376.83
535.03	465.77
535.20	428.32
535.37	397.89
535.54	444.70
535.71	454.06
535.88	454.06
536.05	447.04
536.22	477.47
536.38	400.23
536.55	418.96
536.72	442.36
536.89	463.43
537.06	423.64
537.23	287.89
537.40	400.23
537.57	365.12
537.74	402.57
537.91	435.34
538.08	475.13
538.25	463.43
538.42	404.91
538.59	437.68
538.75	404.91
538.92	442.36
539.09	505.56
539.26	418.96
539.43	428.32
539.60	344.06
539.77	388.53
539.94	437.68
540.11	447.04
540.28	418.96
540.44	465.77
540.61	397.89
540.78	369.80
540.95	416.62
541.12	461.09
541.29	435.34
541.46	425.98
541.62	435.34
541.79	498.53
541.96	393.21
542.13	451.72
542.30	386.19
542.47	437.68
542.63	435.34
542.80	411.93
542.97	491.51
543.14	461.09
543.31	475.13
543.48	461.09
543.64	484.49
543.81	444.70
543.98	402.57
544.15	442.36
544.32	418.96
544.48	372.15
544.65	425.98
544.82	463.43
544.99	433.00
545.16	421.30
545.32	372.15
545.49	362.78
545.66	376.83
545.83	416.62
546.00	407.25
546.16	322.99
546.33	397.89
546.50	442.36
546.67	381.51
546.83	475.13
547.00	468.11
547.17	374.49
547.34	402.57
547.50	449.38
547.67	337.04
547.84	400.23
548.00	407.25
548.17	383.85
548.34	407.25
548.51	414.27
548.67	465.77
548.84	442.36
549.01	465.77
549.18	449.38
549.34	435.34
549.51	360.44
549.68	418.96
549.84	404.91
550.01	388.53
550.18	491.51
550.34	491.51
550.51	447.04
550.68	416.62
550.84	421.30
551.01	456.40
551.18	442.36
551.34	411.93
551.51	409.59
551.68	458.74
551.84	418.96
552.01	437.68
552.18	477.47
552.34	484.49
552.51	334.70
552.68	362.78
552.84	461.09
553.01	402.57
553.18	411.93
553.34	409.59
553.51	388.53
553.67	444.70
553.84	475.13
554.01	388.53
554.17	451.72
554.34	383.85
554.51	503.22
554.67	437.68
554.84	447.04
555.00	402.57
555.17	346.40
555.33	337.04
555.50	402.57
555.67	440.02
555.83	330.02
556.00	381.51
556.16	498.53
556.33	463.43
556.50	461.09
556.66	402.57
556.83	484.49
556.99	388.53
557.16	489.17
557.32	395.55
557.49	423.64
557.65	433.00
557.82	416.62
557.98	372.15
558.15	437.68
558.32	475.13
558.48	461.09
558.65	376.83
558.81	390.87
558.98	423.64
559.14	374.49
559.31	395.55
559.47	493.85
559.64	472.79
559.80	425.98
559.97	475.13
560.13	465.77
560.30	418.96
560.46	451.72
560.63	379.17
560.79	482.15
560.96	404.91
561.12	390.87
561.29	407.25
561.45	418.96
561.61	479.81
561.78	468.11
561.94	416.62
562.11	402.57
562.27	440.02
562.44	379.17
562.60	440.02
562.77	411.93
562.93	372.15
563.10	435.34
563.26	479.81
563.42	411.93
563.59	433.00
563.75	390.87
563.92	507.90
564.08	421.30
564.24	390.87
564.41	491.51
564.57	458.74
564.74	447.04
564.90	428.32
565.07	444.70
565.23	423.64
565.39	402.57
565.56	503.22
565.72	381.51
565.88	411.93
566.05	416.62
566.21	404.91
566.38	430.66
566.54	437.68
566.70	411.93
566.87	395.55
567.03	414.27
567.19	386.19
567.36	470.45
567.52	428.32
567.68	355.76
567.85	409.59
568.01	418.96
568.17	418.96
568.34	397.89
568.50	456.40
568.66	379.17
568.83	444.70
568.99	465.77
569.15	358.10
569.32	421.30
569.48	451.72
569.64	435.34
569.81	372.15
569.97	411.93
570.13	421.30
570.30	301.93
570.46	456.40
570.62	365.12
570.78	458.74
570.95	440.02
571.11	421.30
571.27	475.13
571.43	367.46
571.60	468.11
571.76	383.85
571.92	430.66
572.09	374.49
572.25	409.59
572.41	388.53
572.57	430.66
572.74	496.19
572.90	486.83
573.06	397.89
573.22	407.25
573.38	507.90
573.55	379.17
573.71	475.13
573.87	407.25
574.03	402.57
574.20	418.96
574.36	423.64
574.52	400.23
574.68	411.93
574.84	388.53
575.01	402.57
575.17	475.13
575.33	428.32
575.49	421.30
575.65	402.57
575.82	421.30
575.98	458.74
576.14	390.87
576.30	379.17
576.46	367.46
576.62	414.27
576.79	404.91
576.95	442.36
577.11	390.87
577.27	416.62
577.43	421.30
577.59	442.36
577.75	454.06
577.92	362.78
578.08	454.06
578.24	381.51
578.40	425.98
578.56	388.53
578.72	435.34
578.88	381.51
579.04	470.45
579.21	444.70
579.37	418.96
579.53	416.62
579.69	444.70
579.85	472.79
580.01	489.17
580.17	461.09
580.33	308.95
580.49	397.89
580.65	475.13
580.82	477.47
580.98	402.57
581.14	465.77
581.30	435.34
581.46	365.12
581.62	421.30
581.78	402.57
581.94	423.64
582.10	358.10
582.26	369.80
582.42	381.51
582.58	456.40
582.74	395.55
582.90	477.47
583.06	458.74
583.22	449.38
583.38	416.62
583.54	425.98
583.70	425.98
583.86	376.83
584.02	386.19
584.18	409.59
584.34	374.49
584.50	402.57
584.66	409.59
584.82	393.21
584.98	440.02
585.14	414.27
585.30	388.53
585.46	409.59
585.62	409.59
585.78	409.59
585.94	486.83
586.10	458.74
586.26	449.38
586.42	440.02
586.58	365.12
586.74	416.62
586.90	430.66
587.06	400.23
587.22	376.83
587.38	358.10
587.54	430.66
587.70	442.36
587.86	503.22
588.02	411.93
588.18	393.21
588.34	435.34
588.49	409.59
588.65	409.59
588.81	456.40
588.97	418.96
589.13	353.42
589.29	416.62
589.45	451.72
589.61	461.09
589.77	435.34
589.93	379.17
590.08	393.21
590.24	294.91
590.40	367.46
590.56	477.47
590.72	416.62
590.88	395.55
591.04	404.91
591.20	397.89
591.35	465.77
591.51	468.11
591.67	353.42
591.83	390.87
591.99	407.25
592.15	435.34
592.31	421.30
592.46	428.32
592.62	421.30
592.78	435.34
592.94	402.57
593.10	456.40
593.26	390.87
593.41	449.38
593.57	428.32
593.73	418.96
593.89	407.25
594.05	447.04
594.20	381.51
594.36	430.66
594.52	348.74
594.68	411.93
594.84	437.68
594.99	442.36
595.15	451.72
595.31	365.12
595.47	425.98
595.62	465.77
595.78	428.32
595.94	493.85
596.10	454.06
596.25	416.62
596.41	414.27
596.57	421.30
596.73	433.00
596.88	395.55
597.04	418.96
597.20	379.17
597.36	395.55
597.51	400.23
597.67	449.38
597.83	465.77
597.99	463.43
598.14	465.77
598.30	362.78
598.46	458.74
598.61	402.57
598.77	435.34
598.93	395.55
599.09	381.51
599.24	411.93
599.40	411.93
599.56	484.49
599.71	454.06
599.87	433.00
600.03	428.32
600.18	360.44
600.34	421.30
600.50	402.57
600.65	358.10
600.81	465.77
600.97	435.34
601.12	414.27
601.28	442.36
601.44	416.62
601.59	475.13
601.75	421.30
601.91	451.72
602.06	454.06
602.22	430.66
602.37	486.83
602.53	458.74
602.69	430.66
602.84	362.78
603.00	362.78
603.16	425.98
603.31	482.15
603.47	402.57
603.62	418.96
603.78	393.21
603.94	376.83
604.09	369.80
604.25	428.32
604.40	435.34
604.56	454.06
604.71	428.32
604.87	360.44
605.03	407.25
605.18	454.06
605.34	365.12
605.49	390.87
605.65	393.21
605.80	397.89
605.96	414.27
606.12	411.93
606.27	433.00
606.43	435.34
606.58	535.98
606.74	430.66
606.89	437.68
607.05	381.51
607.20	435.34
607.36	444.70
607.51	430.66
607.67	465.77
607.82	447.04
607.98	416.62
608.13	416.62
608.29	383.85
608.44	411.93
608.60	421.30
608.75	428.32
608.91	456.40
609.06	461.09
609.22	472.79
609.37	388.53
609.53	360.44
609.68	411.93
609.84	397.89
609.99	390.87
610.15	433.00
