SpectraSuite Data File
++++++++++++++++++++++++++++++++++++
Date: Fri Oct 25 12:11:43 EDT 2013
User: price-jones
Dark Spectrum Present: No
Reference Spectrum Present: No
Number of Sampled Component Spectra: 1
Spectrometers: USB2+H05261
Integration Time (usec): 100000 (USB2+H05261)
Spectra Averaged: 1 (USB2+H05261)
Boxcar Smoothing: 0 (USB2+H05261)
Correct for Electrical Dark: No (USB2+H05261)
Strobe/Lamp Enabled: No (USB2+H05261)
Correct for Detector Non-linearity: No (USB2+H05261)
Correct for Stray Light: No (USB2+H05261)
Number of Pixels in Processed Spectrum: 2048
>>>>>Begin Processed Spectral Data<<<<<
365.73	376.83
365.92	376.83
366.12	376.83
366.32	173.20
366.52	245.76
366.72	255.12
366.91	276.18
367.11	257.46
367.31	238.73
367.51	231.71
367.70	191.92
367.90	224.69
368.10	264.48
368.30	276.18
368.49	231.71
368.69	215.33
368.89	290.23
369.09	248.10
369.28	262.14
369.48	273.84
369.68	255.12
369.87	278.52
370.07	330.02
370.27	344.06
370.47	339.38
370.66	311.29
370.86	304.27
371.06	440.02
371.25	327.68
371.45	367.46
371.65	430.66
371.84	376.83
372.04	372.15
372.24	374.49
372.44	383.85
372.63	386.19
372.83	386.19
373.03	425.98
373.22	355.76
373.42	332.36
373.62	433.00
373.81	379.17
374.01	433.00
374.21	409.59
374.40	458.74
374.60	456.40
374.79	425.98
374.99	381.51
375.19	418.96
375.38	418.96
375.58	435.34
375.78	496.19
375.97	414.27
376.17	444.70
376.37	428.32
376.56	414.27
376.76	383.85
376.95	491.51
377.15	451.72
377.35	395.55
377.54	388.53
377.74	430.66
377.93	430.66
378.13	383.85
378.33	458.74
378.52	465.77
378.72	456.40
378.91	381.51
379.11	341.72
379.31	379.17
379.50	393.21
379.70	421.30
379.89	454.06
380.09	334.70
380.28	381.51
380.48	381.51
380.68	465.77
380.87	437.68
381.07	418.96
381.26	440.02
381.46	411.93
381.65	435.34
381.85	475.13
382.04	397.89
382.24	437.68
382.43	409.59
382.63	442.36
382.83	423.64
383.02	411.93
383.22	383.85
383.41	330.02
383.61	397.89
383.80	447.04
384.00	442.36
384.19	339.38
384.39	376.83
384.58	299.59
384.78	454.06
384.97	451.72
385.17	402.57
385.36	400.23
385.56	444.70
385.75	440.02
385.95	458.74
386.14	372.15
386.34	395.55
386.53	463.43
386.72	402.57
386.92	482.15
387.11	430.66
387.31	404.91
387.50	341.72
387.70	379.17
387.89	423.64
388.09	397.89
388.28	374.49
388.48	447.04
388.67	372.15
388.86	386.19
389.06	376.83
389.25	416.62
389.45	451.72
389.64	430.66
389.84	442.36
390.03	447.04
390.22	341.72
390.42	381.51
390.61	428.32
390.81	365.12
391.00	430.66
391.19	381.51
391.39	407.25
391.58	383.85
391.78	379.17
391.97	388.53
392.16	409.59
392.36	433.00
392.55	440.02
392.75	430.66
392.94	423.64
393.13	430.66
393.33	383.85
393.52	479.81
393.71	400.23
393.91	395.55
394.10	425.98
394.29	428.32
394.49	416.62
394.68	489.17
394.88	418.96
395.07	404.91
395.26	379.17
395.46	456.40
395.65	411.93
395.84	442.36
396.04	418.96
396.23	407.25
396.42	416.62
396.62	407.25
396.81	458.74
397.00	351.08
397.19	470.45
397.39	397.89
397.58	414.27
397.77	360.44
397.97	334.70
398.16	414.27
398.35	393.21
398.55	390.87
398.74	397.89
398.93	388.53
399.12	332.36
399.32	353.42
399.51	362.78
399.70	374.49
399.90	367.46
400.09	409.59
400.28	397.89
400.47	341.72
400.67	500.87
400.86	383.85
401.05	428.32
401.24	491.51
401.44	433.00
401.63	454.06
401.82	435.34
402.01	433.00
402.21	423.64
402.40	454.06
402.59	369.80
402.78	428.32
402.97	388.53
403.17	337.04
403.36	447.04
403.55	360.44
403.74	416.62
403.93	444.70
404.13	451.72
404.32	444.70
404.51	447.04
404.70	470.45
404.89	447.04
405.09	475.13
405.28	433.00
405.47	353.42
405.66	449.38
405.85	454.06
406.05	416.62
406.24	479.81
406.43	461.09
406.62	388.53
406.81	360.44
407.00	407.25
407.20	402.57
407.39	360.44
407.58	355.76
407.77	461.09
407.96	543.00
408.15	433.00
408.34	447.04
408.54	425.98
408.73	404.91
408.92	369.80
409.11	402.57
409.30	402.57
409.49	402.57
409.68	435.34
409.87	388.53
410.07	414.27
410.26	414.27
410.45	433.00
410.64	397.89
410.83	435.34
411.02	381.51
411.21	458.74
411.40	456.40
411.59	423.64
411.78	365.12
411.98	454.06
412.17	411.93
412.36	463.43
412.55	339.38
412.74	409.59
412.93	451.72
413.12	416.62
413.31	409.59
413.50	477.47
413.69	454.06
413.88	372.15
414.07	428.32
414.26	411.93
414.45	414.27
414.64	435.34
414.83	341.72
415.02	411.93
415.22	423.64
415.41	397.89
415.60	407.25
415.79	423.64
415.98	437.68
416.17	461.09
416.36	372.15
416.55	416.62
416.74	339.38
416.93	404.91
417.12	416.62
417.31	418.96
417.50	500.87
417.69	381.51
417.88	362.78
418.07	383.85
418.26	456.40
418.45	393.21
418.64	442.36
418.83	407.25
419.02	383.85
419.21	376.83
419.39	430.66
419.58	423.64
419.77	414.27
419.96	451.72
420.15	493.85
420.34	437.68
420.53	362.78
420.72	393.21
420.91	442.36
421.10	386.19
421.29	407.25
421.48	367.46
421.67	402.57
421.86	418.96
422.05	465.77
422.24	358.10
422.43	393.21
422.61	407.25
422.80	447.04
422.99	388.53
423.18	440.02
423.37	479.81
423.56	475.13
423.75	393.21
423.94	404.91
424.13	402.57
424.32	367.46
424.50	337.04
424.69	386.19
424.88	454.06
425.07	386.19
425.26	407.25
425.45	390.87
425.64	346.40
425.83	423.64
426.01	339.38
426.20	400.23
426.39	409.59
426.58	456.40
426.77	479.81
426.96	416.62
427.15	433.00
427.33	433.00
427.52	409.59
427.71	461.09
427.90	388.53
428.09	468.11
428.28	421.30
428.46	367.46
428.65	367.46
428.84	334.70
429.03	503.22
429.22	374.49
429.40	372.15
429.59	397.89
429.78	440.02
429.97	332.36
430.16	355.76
430.34	418.96
430.53	418.96
430.72	418.96
430.91	451.72
431.10	376.83
431.28	491.51
431.47	440.02
431.66	456.40
431.85	404.91
432.03	393.21
432.22	479.81
432.41	379.17
432.60	423.64
432.79	407.25
432.97	430.66
433.16	411.93
433.35	367.46
433.54	374.49
433.72	393.21
433.91	447.04
434.10	397.89
434.28	458.74
434.47	395.55
434.66	421.30
434.85	409.59
435.03	461.09
435.22	428.32
435.41	451.72
435.59	358.10
435.78	414.27
435.97	416.62
436.16	437.68
436.34	390.87
436.53	411.93
436.72	451.72
436.90	414.27
437.09	451.72
437.28	496.19
437.46	411.93
437.65	372.15
437.84	425.98
438.02	451.72
438.21	447.04
438.40	397.89
438.58	362.78
438.77	440.02
438.96	451.72
439.14	402.57
439.33	461.09
439.52	416.62
439.70	383.85
439.89	510.24
440.08	407.25
440.26	454.06
440.45	400.23
440.63	393.21
440.82	355.76
441.01	372.15
441.19	470.45
441.38	383.85
441.57	458.74
441.75	418.96
441.94	416.62
442.12	440.02
442.31	435.34
442.50	442.36
442.68	344.06
442.87	430.66
443.05	449.38
443.24	374.49
443.43	449.38
443.61	430.66
443.80	348.74
443.98	365.12
444.17	376.83
444.35	395.55
444.54	496.19
444.73	393.21
444.91	421.30
445.10	411.93
445.28	337.04
445.47	430.66
445.65	430.66
445.84	386.19
446.02	465.77
446.21	430.66
446.39	313.63
446.58	423.64
446.77	402.57
446.95	393.21
447.14	421.30
447.32	440.02
447.51	435.34
447.69	409.59
447.88	435.34
448.06	470.45
448.25	456.40
448.43	433.00
448.62	418.96
448.80	362.78
448.99	482.15
449.17	409.59
449.36	418.96
449.54	484.49
449.73	397.89
449.91	390.87
450.10	418.96
450.28	458.74
450.46	416.62
450.65	454.06
450.83	376.83
451.02	400.23
451.20	418.96
451.39	393.21
451.57	409.59
451.76	374.49
451.94	376.83
452.13	304.27
452.31	402.57
452.49	365.12
452.68	409.59
452.86	451.72
453.05	428.32
453.23	388.53
453.42	334.70
453.60	433.00
453.78	447.04
453.97	362.78
454.15	472.79
454.34	395.55
454.52	416.62
454.70	461.09
454.89	395.55
455.07	447.04
455.26	416.62
455.44	486.83
455.62	425.98
455.81	454.06
455.99	425.98
456.17	383.85
456.36	353.42
456.54	454.06
456.73	395.55
456.91	390.87
457.09	374.49
457.28	390.87
457.46	418.96
457.64	400.23
457.83	425.98
458.01	400.23
458.19	442.36
458.38	425.98
458.56	421.30
458.74	430.66
458.93	444.70
459.11	447.04
459.29	416.62
459.48	381.51
459.66	425.98
459.84	404.91
460.03	475.13
460.21	390.87
460.39	416.62
460.57	486.83
460.76	400.23
460.94	491.51
461.12	395.55
461.31	416.62
461.49	423.64
461.67	435.34
461.85	409.59
462.04	402.57
462.22	837.91
462.40	414.27
462.59	395.55
462.77	423.64
462.95	421.30
463.13	421.30
463.32	456.40
463.50	414.27
463.68	496.19
463.86	386.19
464.05	437.68
464.23	463.43
464.41	430.66
464.59	395.55
464.78	423.64
464.96	404.91
465.14	454.06
465.32	383.85
465.50	440.02
465.69	404.91
465.87	468.11
466.05	397.89
466.23	355.76
466.41	451.72
466.60	358.10
466.78	421.30
466.96	444.70
467.14	358.10
467.32	404.91
467.51	393.21
467.69	428.32
467.87	428.32
468.05	423.64
468.23	447.04
468.41	416.62
468.60	423.64
468.78	449.38
468.96	418.96
469.14	463.43
469.32	395.55
469.50	358.10
469.69	393.21
469.87	390.87
470.05	383.85
470.23	390.87
470.41	393.21
470.59	425.98
470.77	344.06
470.95	397.89
471.14	423.64
471.32	423.64
471.50	348.74
471.68	430.66
471.86	444.70
472.04	402.57
472.22	374.49
472.40	407.25
472.58	430.66
472.77	372.15
472.95	421.30
473.13	435.34
473.31	395.55
473.49	440.02
473.67	313.63
473.85	388.53
474.03	444.70
474.21	458.74
474.39	461.09
474.57	447.04
474.75	442.36
474.93	379.17
475.12	390.87
475.30	388.53
475.48	465.77
475.66	430.66
475.84	416.62
476.02	484.49
476.20	440.02
476.38	435.34
476.56	447.04
476.74	416.62
476.92	447.04
477.10	332.36
477.28	411.93
477.46	395.55
477.64	365.12
477.82	360.44
478.00	468.11
478.18	376.83
478.36	433.00
478.54	395.55
478.72	339.38
478.90	369.80
479.08	355.76
479.26	440.02
479.44	386.19
479.62	458.74
479.80	404.91
479.98	388.53
480.16	421.30
480.34	397.89
480.52	442.36
480.70	465.77
480.88	440.02
481.06	461.09
481.24	292.57
481.41	395.55
481.59	407.25
481.77	402.57
481.95	353.42
482.13	402.57
482.31	395.55
482.49	409.59
482.67	407.25
482.85	351.08
483.03	409.59
483.21	404.91
483.39	416.62
483.57	423.64
483.74	465.77
483.92	461.09
484.10	411.93
484.28	456.40
484.46	470.45
484.64	456.40
484.82	376.83
485.00	351.08
485.18	381.51
485.35	358.10
485.53	411.93
485.71	519.60
485.89	451.72
486.07	437.68
486.25	397.89
486.43	442.36
486.61	475.13
486.78	423.64
486.96	393.21
487.14	362.78
487.32	383.85
487.50	470.45
487.68	421.30
487.85	397.89
488.03	433.00
488.21	433.00
488.39	409.59
488.57	397.89
488.75	440.02
488.92	496.19
489.10	402.57
489.28	435.34
489.46	379.17
489.64	388.53
489.81	421.30
489.99	383.85
490.17	367.46
490.35	444.70
490.53	435.34
490.70	353.42
490.88	510.24
491.06	435.34
491.24	414.27
491.41	456.40
491.59	416.62
491.77	395.55
491.95	433.00
492.13	421.30
492.30	428.32
492.48	409.59
492.66	423.64
492.84	430.66
493.01	369.80
493.19	433.00
493.37	395.55
493.54	428.32
493.72	388.53
493.90	397.89
494.08	411.93
494.25	423.64
494.43	465.77
494.61	421.30
494.79	449.38
494.96	461.09
495.14	428.32
495.32	468.11
495.49	437.68
495.67	390.87
495.85	393.21
496.02	411.93
496.20	472.79
496.38	397.89
496.55	383.85
496.73	437.68
496.91	339.38
497.09	411.93
497.26	425.98
497.44	383.85
497.62	409.59
497.79	458.74
497.97	425.98
498.14	444.70
498.32	418.96
498.50	383.85
498.67	362.78
498.85	437.68
499.03	435.34
499.20	414.27
499.38	409.59
499.56	428.32
499.73	414.27
499.91	442.36
500.08	428.32
500.26	388.53
500.44	451.72
500.61	390.87
500.79	437.68
500.97	465.77
501.14	423.64
501.32	346.40
501.49	423.64
501.67	482.15
501.84	425.98
502.02	421.30
502.20	414.27
502.37	470.45
502.55	425.98
502.72	381.51
502.90	477.47
503.07	461.09
503.25	489.17
503.43	404.91
503.60	440.02
503.78	409.59
503.95	456.40
504.13	397.89
504.30	428.32
504.48	409.59
504.65	407.25
504.83	374.49
505.01	407.25
505.18	428.32
505.36	407.25
505.53	421.30
505.71	437.68
505.88	411.93
506.06	489.17
506.23	397.89
506.41	407.25
506.58	297.25
506.76	463.43
506.93	440.02
507.11	454.06
507.28	458.74
507.46	416.62
507.63	468.11
507.81	444.70
507.98	330.02
508.16	421.30
508.33	451.72
508.50	400.23
508.68	468.11
508.85	416.62
509.03	437.68
509.20	416.62
509.38	414.27
509.55	414.27
509.73	489.17
509.90	425.98
510.08	423.64
510.25	451.72
510.42	409.59
510.60	433.00
510.77	498.53
510.95	477.47
511.12	395.55
511.30	416.62
511.47	454.06
511.64	414.27
511.82	351.08
511.99	383.85
512.17	416.62
512.34	376.83
512.51	430.66
512.69	407.25
512.86	484.49
513.04	449.38
513.21	397.89
513.38	407.25
513.56	362.78
513.73	433.00
513.90	393.21
514.08	362.78
514.25	465.77
514.43	330.02
514.60	400.23
514.77	362.78
514.95	404.91
515.12	395.55
515.29	423.64
515.47	369.80
515.64	421.30
515.81	402.57
515.99	416.62
516.16	458.74
516.33	353.42
516.51	374.49
516.68	407.25
516.85	411.93
517.03	411.93
517.20	454.06
517.37	477.47
517.54	430.66
517.72	379.17
517.89	383.85
518.06	358.10
518.24	414.27
518.41	444.70
518.58	362.78
518.75	404.91
518.93	423.64
519.10	395.55
519.27	376.83
519.45	390.87
519.62	386.19
519.79	428.32
519.96	400.23
520.14	379.17
520.31	442.36
520.48	430.66
520.65	393.21
520.83	444.70
521.00	458.74
521.17	423.64
521.34	388.53
521.52	365.12
521.69	379.17
521.86	442.36
522.03	437.68
522.20	421.30
522.38	444.70
522.55	489.17
522.72	388.53
522.89	414.27
523.07	437.68
523.24	397.89
523.41	409.59
523.58	482.15
523.75	414.27
523.92	465.77
524.10	395.55
524.27	421.30
524.44	393.21
524.61	379.17
524.78	475.13
524.96	379.17
525.13	386.19
525.30	348.74
525.47	440.02
525.64	440.02
525.81	360.44
525.98	379.17
526.16	409.59
526.33	404.91
526.50	404.91
526.67	428.32
526.84	386.19
527.01	416.62
527.18	414.27
527.36	411.93
527.53	456.40
527.70	482.15
527.87	442.36
528.04	440.02
528.21	447.04
528.38	418.96
528.55	447.04
528.72	409.59
528.89	454.06
529.07	425.98
529.24	444.70
529.41	514.92
529.58	418.96
529.75	381.51
529.92	411.93
530.09	372.15
530.26	423.64
530.43	404.91
530.60	449.38
530.77	442.36
530.94	433.00
531.11	458.74
531.28	407.25
531.46	449.38
531.63	423.64
531.80	425.98
531.97	400.23
532.14	409.59
532.31	400.23
532.48	404.91
532.65	477.47
532.82	404.91
532.99	407.25
533.16	407.25
533.33	318.31
533.50	383.85
533.67	433.00
533.84	463.43
534.01	358.10
534.18	416.62
534.35	451.72
534.52	477.47
534.69	411.93
534.86	409.59
535.03	440.02
535.20	425.98
535.37	442.36
535.54	376.83
535.71	411.93
535.88	463.43
536.05	397.89
536.22	440.02
536.38	425.98
536.55	447.04
536.72	458.74
536.89	425.98
537.06	470.45
537.23	458.74
537.40	421.30
537.57	386.19
537.74	442.36
537.91	458.74
538.08	418.96
538.25	423.64
538.42	397.89
538.59	404.91
538.75	395.55
538.92	461.09
539.09	400.23
539.26	379.17
539.43	484.49
539.60	423.64
539.77	477.47
539.94	435.34
540.11	379.17
540.28	416.62
540.44	411.93
540.61	449.38
540.78	430.66
540.95	376.83
541.12	449.38
541.29	376.83
541.46	477.47
541.62	390.87
541.79	500.87
541.96	444.70
542.13	458.74
542.30	463.43
542.47	404.91
542.63	395.55
542.80	414.27
542.97	493.85
543.14	428.32
543.31	402.57
543.48	465.77
543.64	409.59
543.81	425.98
543.98	383.85
544.15	376.83
544.32	423.64
544.48	425.98
544.65	402.57
544.82	428.32
544.99	454.06
545.16	440.02
545.32	425.98
545.49	472.79
545.66	423.64
545.83	468.11
546.00	425.98
546.16	393.21
546.33	367.46
546.50	444.70
546.67	463.43
546.83	421.30
547.00	397.89
547.17	484.49
547.34	409.59
547.50	484.49
547.67	404.91
547.84	386.19
548.00	339.38
548.17	397.89
548.34	472.79
548.51	388.53
548.67	414.27
548.84	400.23
549.01	390.87
549.18	428.32
549.34	402.57
549.51	430.66
549.68	383.85
549.84	395.55
550.01	440.02
550.18	449.38
550.34	440.02
550.51	409.59
550.68	414.27
550.84	437.68
551.01	447.04
551.18	423.64
551.34	386.19
551.51	379.17
551.68	409.59
551.84	423.64
552.01	390.87
552.18	390.87
552.34	428.32
552.51	407.25
552.68	421.30
552.84	423.64
553.01	482.15
553.18	407.25
553.34	409.59
553.51	418.96
553.67	397.89
553.84	365.12
554.01	489.17
554.17	475.13
554.34	414.27
554.51	390.87
554.67	383.85
554.84	327.68
555.00	383.85
555.17	390.87
555.33	428.32
555.50	388.53
555.67	395.55
555.83	456.40
556.00	425.98
556.16	491.51
556.33	463.43
556.50	397.89
556.66	430.66
556.83	416.62
556.99	430.66
557.16	444.70
557.32	383.85
557.49	367.46
557.65	397.89
557.82	484.49
557.98	362.78
558.15	369.80
558.32	327.68
558.48	397.89
558.65	393.21
558.81	423.64
558.98	395.55
559.14	458.74
559.31	416.62
559.47	428.32
559.64	425.98
559.80	435.34
559.97	367.46
560.13	397.89
560.30	400.23
560.46	348.74
560.63	379.17
560.79	463.43
560.96	381.51
561.12	341.72
561.29	400.23
561.45	411.93
561.61	358.10
561.78	526.62
561.94	449.38
562.11	461.09
562.27	428.32
562.44	421.30
562.60	423.64
562.77	372.15
562.93	456.40
563.10	358.10
563.26	437.68
563.42	449.38
563.59	484.49
563.75	372.15
563.92	421.30
564.08	386.19
564.24	500.87
564.41	435.34
564.57	442.36
564.74	461.09
564.90	365.12
565.07	423.64
565.23	465.77
565.39	374.49
565.56	458.74
565.72	416.62
565.88	465.77
566.05	468.11
566.21	327.68
566.38	344.06
566.54	418.96
566.70	428.32
566.87	425.98
567.03	369.80
567.19	475.13
567.36	479.81
567.52	409.59
567.68	428.32
567.85	421.30
568.01	428.32
568.17	435.34
568.34	454.06
568.50	461.09
568.66	428.32
568.83	416.62
568.99	451.72
569.15	442.36
569.32	437.68
569.48	433.00
569.64	451.72
569.81	454.06
569.97	461.09
570.13	400.23
570.30	416.62
570.46	454.06
570.62	330.02
570.78	409.59
570.95	416.62
571.11	503.22
571.27	388.53
571.43	411.93
571.60	449.38
571.76	475.13
571.92	444.70
572.09	325.33
572.25	463.43
572.41	421.30
572.57	435.34
572.74	512.58
572.90	430.66
573.06	425.98
573.22	447.04
573.38	449.38
573.55	444.70
573.71	463.43
573.87	416.62
574.03	435.34
574.20	440.02
574.36	456.40
574.52	339.38
574.68	411.93
574.84	425.98
575.01	353.42
575.17	397.89
575.33	395.55
575.49	470.45
575.65	395.55
575.82	402.57
575.98	418.96
576.14	465.77
576.30	435.34
576.46	397.89
576.62	400.23
576.79	421.30
576.95	414.27
577.11	425.98
577.27	409.59
577.43	498.53
577.59	379.17
577.75	428.32
577.92	437.68
578.08	383.85
578.24	411.93
578.40	374.49
578.56	484.49
578.72	447.04
578.88	451.72
579.04	463.43
579.21	435.34
579.37	421.30
579.53	334.70
579.69	458.74
579.85	337.04
580.01	472.79
580.17	451.72
580.33	362.78
580.49	409.59
580.65	444.70
580.82	386.19
580.98	325.33
581.14	362.78
581.30	475.13
581.46	470.45
581.62	386.19
581.78	444.70
581.94	395.55
582.10	374.49
582.26	411.93
582.42	461.09
582.58	315.97
582.74	425.98
582.90	440.02
583.06	395.55
583.22	425.98
583.38	397.89
583.54	461.09
583.70	463.43
583.86	468.11
584.02	393.21
584.18	484.49
584.34	365.12
584.50	486.83
584.66	437.68
584.82	358.10
584.98	402.57
585.14	482.15
585.30	437.68
585.46	456.40
585.62	341.72
585.78	409.59
585.94	346.40
586.10	388.53
586.26	433.00
586.42	433.00
586.58	440.02
586.74	374.49
586.90	390.87
587.06	388.53
587.22	400.23
587.38	421.30
587.54	454.06
587.70	430.66
587.86	425.98
588.02	451.72
588.18	353.42
588.34	407.25
588.49	425.98
588.65	444.70
588.81	383.85
588.97	479.81
589.13	456.40
589.29	447.04
589.45	395.55
589.61	409.59
589.77	334.70
589.93	386.19
590.08	358.10
590.24	430.66
590.40	440.02
590.56	400.23
590.72	423.64
590.88	393.21
591.04	430.66
591.20	390.87
591.35	456.40
591.51	456.40
591.67	430.66
591.83	465.77
591.99	449.38
592.15	400.23
592.31	421.30
592.46	365.12
592.62	433.00
592.78	423.64
592.94	362.78
593.10	454.06
593.26	411.93
593.41	341.72
593.57	409.59
593.73	393.21
593.89	416.62
594.05	477.47
594.20	390.87
594.36	390.87
594.52	390.87
594.68	374.49
594.84	454.06
594.99	437.68
595.15	379.17
595.31	437.68
595.47	379.17
595.62	379.17
595.78	332.36
595.94	440.02
596.10	468.11
596.25	376.83
596.41	407.25
596.57	435.34
596.73	449.38
596.88	400.23
597.04	402.57
597.20	423.64
597.36	484.49
597.51	430.66
597.67	444.70
597.83	449.38
597.99	444.70
598.14	440.02
598.30	416.62
598.46	470.45
598.61	430.66
598.77	437.68
598.93	428.32
599.09	348.74
599.24	362.78
599.40	369.80
599.56	400.23
599.71	423.64
599.87	400.23
600.03	430.66
600.18	362.78
600.34	388.53
600.50	407.25
600.65	470.45
600.81	390.87
600.97	437.68
601.12	379.17
601.28	383.85
601.44	393.21
601.59	397.89
601.75	395.55
601.91	449.38
602.06	386.19
602.22	475.13
602.37	365.12
602.53	416.62
602.69	472.79
602.84	411.93
603.00	449.38
603.16	472.79
603.31	442.36
603.47	400.23
603.62	428.32
603.78	449.38
603.94	404.91
604.09	416.62
604.25	379.17
604.40	461.09
604.56	423.64
604.71	444.70
604.87	400.23
605.03	402.57
605.18	444.70
605.34	400.23
605.49	360.44
605.65	411.93
605.80	409.59
605.96	407.25
606.12	355.76
606.27	379.17
606.43	411.93
606.58	362.78
606.74	407.25
606.89	430.66
607.05	461.09
607.20	414.27
607.36	425.98
607.51	430.66
607.67	414.27
607.82	409.59
607.98	449.38
608.13	440.02
608.29	407.25
608.44	435.34
608.60	367.46
608.75	461.09
608.91	383.85
609.06	437.68
609.22	414.27
609.37	402.57
609.53	390.87
609.68	414.27
609.84	376.83
609.99	372.15
610.15	425.98
