SpectraSuite Data File
++++++++++++++++++++++++++++++++++++
Date: Fri Oct 25 12:11:07 EDT 2013
User: price-jones
Dark Spectrum Present: No
Reference Spectrum Present: No
Number of Sampled Component Spectra: 1
Spectrometers: USB2+H05261
Integration Time (usec): 100000 (USB2+H05261)
Spectra Averaged: 1 (USB2+H05261)
Boxcar Smoothing: 0 (USB2+H05261)
Correct for Electrical Dark: No (USB2+H05261)
Strobe/Lamp Enabled: No (USB2+H05261)
Correct for Detector Non-linearity: No (USB2+H05261)
Correct for Stray Light: No (USB2+H05261)
Number of Pixels in Processed Spectrum: 2048
>>>>>Begin Processed Spectral Data<<<<<
365.73	402.57
365.92	402.57
366.12	402.57
366.32	250.44
366.52	191.92
366.72	327.68
366.91	285.55
367.11	189.58
367.31	177.88
367.51	236.39
367.70	201.29
367.90	252.78
368.10	266.82
368.30	245.76
368.49	175.54
368.69	248.10
368.89	248.10
369.09	271.50
369.28	283.20
369.48	278.52
369.68	290.23
369.87	287.89
370.07	248.10
370.27	346.40
370.47	322.99
370.66	283.20
370.86	259.80
371.06	440.02
371.25	388.53
371.45	294.91
371.65	458.74
371.84	383.85
372.04	379.17
372.24	348.74
372.44	379.17
372.63	409.59
372.83	454.06
373.03	372.15
373.22	468.11
373.42	395.55
373.62	397.89
373.81	362.78
374.01	404.91
374.21	447.04
374.40	402.57
374.60	472.79
374.79	400.23
374.99	367.46
375.19	358.10
375.38	430.66
375.58	400.23
375.78	437.68
375.97	425.98
376.17	435.34
376.37	388.53
376.56	456.40
376.76	430.66
376.95	362.78
377.15	482.15
377.35	374.49
377.54	374.49
377.74	409.59
377.93	397.89
378.13	484.49
378.33	435.34
378.52	440.02
378.72	449.38
378.91	444.70
379.11	400.23
379.31	400.23
379.50	416.62
379.70	465.77
379.89	447.04
380.09	393.21
380.28	409.59
380.48	390.87
380.68	435.34
380.87	437.68
381.07	442.36
381.26	409.59
381.46	386.19
381.65	407.25
381.85	409.59
382.04	437.68
382.24	428.32
382.43	433.00
382.63	395.55
382.83	369.80
383.02	435.34
383.22	447.04
383.41	395.55
383.61	411.93
383.80	369.80
384.00	372.15
384.19	372.15
384.39	390.87
384.58	346.40
384.78	430.66
384.97	411.93
385.17	416.62
385.36	423.64
385.56	397.89
385.75	386.19
385.95	341.72
386.14	411.93
386.34	372.15
386.53	341.72
386.72	437.68
386.92	470.45
387.11	428.32
387.31	341.72
387.50	393.21
387.70	421.30
387.89	355.76
388.09	442.36
388.28	444.70
388.48	381.51
388.67	484.49
388.86	423.64
389.06	423.64
389.25	416.62
389.45	425.98
389.64	428.32
389.84	411.93
390.03	437.68
390.22	454.06
390.42	381.51
390.61	421.30
390.81	397.89
391.00	393.21
391.19	404.91
391.39	395.55
391.58	409.59
391.78	322.99
391.97	472.79
392.16	376.83
392.36	322.99
392.55	425.98
392.75	407.25
392.94	376.83
393.13	418.96
393.33	362.78
393.52	461.09
393.71	454.06
393.91	376.83
394.10	421.30
394.29	397.89
394.49	430.66
394.68	428.32
394.88	444.70
395.07	386.19
395.26	290.23
395.46	397.89
395.65	411.93
395.84	470.45
396.04	372.15
396.23	409.59
396.42	372.15
396.62	393.21
396.81	402.57
397.00	430.66
397.19	465.77
397.39	404.91
397.58	372.15
397.77	489.17
397.97	407.25
398.16	393.21
398.35	428.32
398.55	353.42
398.74	440.02
398.93	421.30
399.12	337.04
399.32	379.17
399.51	348.74
399.70	383.85
399.90	379.17
400.09	402.57
400.28	402.57
400.47	414.27
400.67	390.87
400.86	444.70
401.05	454.06
401.24	503.22
401.44	393.21
401.63	456.40
401.82	337.04
402.01	393.21
402.21	461.09
402.40	395.55
402.59	409.59
402.78	433.00
402.97	416.62
403.17	414.27
403.36	360.44
403.55	397.89
403.74	400.23
403.93	351.08
404.13	416.62
404.32	393.21
404.51	472.79
404.70	421.30
404.89	379.17
405.09	538.32
405.28	402.57
405.47	442.36
405.66	456.40
405.85	409.59
406.05	397.89
406.24	393.21
406.43	409.59
406.62	379.17
406.81	402.57
407.00	416.62
407.20	440.02
407.39	416.62
407.58	376.83
407.77	451.72
407.96	411.93
408.15	414.27
408.34	379.17
408.54	390.87
408.73	358.10
408.92	397.89
409.11	416.62
409.30	428.32
409.49	407.25
409.68	388.53
409.87	423.64
410.07	397.89
410.26	395.55
410.45	425.98
410.64	344.06
410.83	463.43
411.02	353.42
411.21	463.43
411.40	386.19
411.59	465.77
411.78	484.49
411.98	411.93
412.17	416.62
412.36	397.89
412.55	400.23
412.74	507.90
412.93	458.74
413.12	388.53
413.31	463.43
413.50	421.30
413.69	437.68
413.88	440.02
414.07	381.51
414.26	458.74
414.45	409.59
414.64	433.00
414.83	383.85
415.02	409.59
415.22	430.66
415.41	433.00
415.60	320.65
415.79	409.59
415.98	428.32
416.17	456.40
416.36	358.10
416.55	337.04
416.74	411.93
416.93	468.11
417.12	402.57
417.31	449.38
417.50	381.51
417.69	479.81
417.88	409.59
418.07	447.04
418.26	411.93
418.45	465.77
418.64	383.85
418.83	409.59
419.02	393.21
419.21	365.12
419.39	409.59
419.58	388.53
419.77	437.68
419.96	423.64
420.15	491.51
420.34	447.04
420.53	365.12
420.72	379.17
420.91	404.91
421.10	461.09
421.29	423.64
421.48	390.87
421.67	421.30
421.86	397.89
422.05	386.19
422.24	383.85
422.43	416.62
422.61	437.68
422.80	421.30
422.99	437.68
423.18	397.89
423.37	409.59
423.56	404.91
423.75	454.06
423.94	386.19
424.13	393.21
424.32	379.17
424.50	414.27
424.69	428.32
424.88	472.79
425.07	461.09
425.26	454.06
425.45	472.79
425.64	355.76
425.83	486.83
426.01	477.47
426.20	400.23
426.39	421.30
426.58	397.89
426.77	425.98
426.96	397.89
427.15	423.64
427.33	411.93
427.52	425.98
427.71	461.09
427.90	435.34
428.09	404.91
428.28	393.21
428.46	390.87
428.65	404.91
428.84	414.27
429.03	334.70
429.22	369.80
429.40	428.32
429.59	449.38
429.78	416.62
429.97	411.93
430.16	404.91
430.34	437.68
430.53	416.62
430.72	360.44
430.91	468.11
431.10	365.12
431.28	390.87
431.47	421.30
431.66	477.47
431.85	372.15
432.03	442.36
432.22	489.17
432.41	456.40
432.60	411.93
432.79	503.22
432.97	465.77
433.16	393.21
433.35	440.02
433.54	400.23
433.72	400.23
433.91	351.08
434.10	461.09
434.28	411.93
434.47	461.09
434.66	376.83
434.85	383.85
435.03	444.70
435.22	346.40
435.41	374.49
435.59	440.02
435.78	383.85
435.97	428.32
436.16	477.47
436.34	353.42
436.53	381.51
436.72	400.23
436.90	388.53
437.09	341.72
437.28	358.10
437.46	423.64
437.65	402.57
437.84	440.02
438.02	418.96
438.21	423.64
438.40	425.98
438.58	435.34
438.77	362.78
438.96	402.57
439.14	433.00
439.33	430.66
439.52	372.15
439.70	355.76
439.89	423.64
440.08	402.57
440.26	362.78
440.45	383.85
440.63	435.34
440.82	355.76
441.01	393.21
441.19	454.06
441.38	367.46
441.57	351.08
441.75	416.62
441.94	400.23
442.12	463.43
442.31	383.85
442.50	433.00
442.68	430.66
442.87	404.91
443.05	355.76
443.24	414.27
443.43	477.47
443.61	409.59
443.80	402.57
443.98	440.02
444.17	416.62
444.35	416.62
444.54	383.85
444.73	442.36
444.91	428.32
445.10	358.10
445.28	400.23
445.47	418.96
445.65	383.85
445.84	393.21
446.02	454.06
446.21	355.76
446.39	393.21
446.58	454.06
446.77	404.91
446.95	440.02
447.14	447.04
447.32	484.49
447.51	416.62
447.69	428.32
447.88	475.13
448.06	430.66
448.25	400.23
448.43	379.17
448.62	393.21
448.80	393.21
448.99	449.38
449.17	360.44
449.36	477.47
449.54	402.57
449.73	418.96
449.91	423.64
450.10	388.53
450.28	428.32
450.46	510.24
450.65	449.38
450.83	444.70
451.02	454.06
451.20	470.45
451.39	421.30
451.57	442.36
451.76	425.98
451.94	447.04
452.13	404.91
452.31	374.49
452.49	421.30
452.68	376.83
452.86	362.78
453.05	475.13
453.23	421.30
453.42	409.59
453.60	411.93
453.78	444.70
453.97	397.89
454.15	369.80
454.34	454.06
454.52	425.98
454.70	475.13
454.89	472.79
455.07	435.34
455.26	454.06
455.44	451.72
455.62	374.49
455.81	489.17
455.99	348.74
456.17	325.33
456.36	388.53
456.54	425.98
456.73	411.93
456.91	390.87
457.09	416.62
457.28	472.79
457.46	461.09
457.64	442.36
457.83	493.85
458.01	393.21
458.19	379.17
458.38	393.21
458.56	479.81
458.74	393.21
458.93	468.11
459.11	365.12
459.29	339.38
459.48	365.12
459.66	433.00
459.84	423.64
460.03	475.13
460.21	458.74
460.39	390.87
460.57	416.62
460.76	449.38
460.94	388.53
461.12	414.27
461.31	440.02
461.49	358.10
461.67	397.89
461.85	435.34
462.04	433.00
462.22	734.93
462.40	437.68
462.59	433.00
462.77	472.79
462.95	416.62
463.13	449.38
463.32	372.15
463.50	428.32
463.68	526.62
463.86	418.96
464.05	416.62
464.23	444.70
464.41	425.98
464.59	416.62
464.78	376.83
464.96	475.13
465.14	404.91
465.32	397.89
465.50	442.36
465.69	388.53
465.87	369.80
466.05	404.91
466.23	433.00
466.41	402.57
466.60	414.27
466.78	456.40
466.96	430.66
467.14	416.62
467.32	414.27
467.51	440.02
467.69	390.87
467.87	411.93
468.05	404.91
468.23	461.09
468.41	376.83
468.60	451.72
468.78	372.15
468.96	383.85
469.14	428.32
469.32	400.23
469.50	395.55
469.69	411.93
469.87	409.59
470.05	477.47
470.23	454.06
470.41	416.62
470.59	428.32
470.77	367.46
470.95	374.49
471.14	325.33
471.32	458.74
471.50	386.19
471.68	395.55
471.86	400.23
472.04	393.21
472.22	454.06
472.40	395.55
472.58	435.34
472.77	383.85
472.95	395.55
473.13	447.04
473.31	414.27
473.49	421.30
473.67	404.91
473.85	423.64
474.03	423.64
474.21	388.53
474.39	423.64
474.57	442.36
474.75	493.85
474.93	416.62
475.12	397.89
475.30	440.02
475.48	421.30
475.66	348.74
475.84	470.45
476.02	379.17
476.20	440.02
476.38	404.91
476.56	418.96
476.74	447.04
476.92	337.04
477.10	465.77
477.28	435.34
477.46	423.64
477.64	353.42
477.82	386.19
478.00	440.02
478.18	465.77
478.36	482.15
478.54	463.43
478.72	423.64
478.90	404.91
479.08	404.91
479.26	418.96
479.44	402.57
479.62	383.85
479.80	447.04
479.98	365.12
480.16	456.40
480.34	428.32
480.52	430.66
480.70	423.64
480.88	435.34
481.06	397.89
481.24	339.38
481.41	402.57
481.59	435.34
481.77	369.80
481.95	388.53
482.13	475.13
482.31	344.06
482.49	351.08
482.67	386.19
482.85	372.15
483.03	477.47
483.21	479.81
483.39	355.76
483.57	407.25
483.74	440.02
483.92	367.46
484.10	374.49
484.28	444.70
484.46	472.79
484.64	454.06
484.82	479.81
485.00	479.81
485.18	411.93
485.35	430.66
485.53	472.79
485.71	402.57
485.89	397.89
486.07	423.64
486.25	444.70
486.43	376.83
486.61	470.45
486.78	477.47
486.96	379.17
487.14	437.68
487.32	400.23
487.50	442.36
487.68	514.92
487.85	341.72
488.03	444.70
488.21	400.23
488.39	442.36
488.57	456.40
488.75	397.89
488.92	510.24
489.10	440.02
489.28	418.96
489.46	430.66
489.64	395.55
489.81	435.34
489.99	402.57
490.17	442.36
490.35	465.77
490.53	383.85
490.70	395.55
490.88	486.83
491.06	425.98
491.24	451.72
491.41	463.43
491.59	468.11
491.77	435.34
491.95	468.11
492.13	475.13
492.30	430.66
492.48	360.44
492.66	442.36
492.84	327.68
493.01	409.59
493.19	440.02
493.37	463.43
493.54	463.43
493.72	440.02
493.90	465.77
494.08	533.64
494.25	451.72
494.43	388.53
494.61	395.55
494.79	416.62
494.96	360.44
495.14	411.93
495.32	416.62
495.49	470.45
495.67	418.96
495.85	440.02
496.02	395.55
496.20	379.17
496.38	369.80
496.55	437.68
496.73	428.32
496.91	334.70
497.09	397.89
497.26	358.10
497.44	407.25
497.62	386.19
497.79	402.57
497.97	475.13
498.14	407.25
498.32	416.62
498.50	456.40
498.67	367.46
498.85	468.11
499.03	428.32
499.20	444.70
499.38	423.64
499.56	451.72
499.73	409.59
499.91	486.83
500.08	496.19
500.26	388.53
500.44	407.25
500.61	397.89
500.79	402.57
500.97	512.58
501.14	465.77
501.32	423.64
501.49	435.34
501.67	360.44
501.84	451.72
502.02	491.51
502.20	440.02
502.37	409.59
502.55	393.21
502.72	379.17
502.90	442.36
503.07	421.30
503.25	444.70
503.43	332.36
503.60	353.42
503.78	496.19
503.95	358.10
504.13	301.93
504.30	376.83
504.48	393.21
504.65	456.40
504.83	440.02
505.01	409.59
505.18	337.04
505.36	379.17
505.53	386.19
505.71	388.53
505.88	454.06
506.06	411.93
506.23	379.17
506.41	386.19
506.58	449.38
506.76	402.57
506.93	440.02
507.11	393.21
507.28	402.57
507.46	440.02
507.63	447.04
507.81	381.51
507.98	442.36
508.16	491.51
508.33	425.98
508.50	442.36
508.68	486.83
508.85	447.04
509.03	442.36
509.20	425.98
509.38	477.47
509.55	358.10
509.73	465.77
509.90	458.74
510.08	365.12
510.25	449.38
510.42	468.11
510.60	475.13
510.77	463.43
510.95	435.34
511.12	454.06
511.30	454.06
511.47	388.53
511.64	411.93
511.82	447.04
511.99	414.27
512.17	418.96
512.34	374.49
512.51	414.27
512.69	409.59
512.86	425.98
513.04	355.76
513.21	447.04
513.38	390.87
513.56	325.33
513.73	411.93
513.90	383.85
514.08	397.89
514.25	428.32
514.43	402.57
514.60	411.93
514.77	430.66
514.95	379.17
515.12	447.04
515.29	344.06
515.47	465.77
515.64	503.22
515.81	449.38
515.99	402.57
516.16	447.04
516.33	430.66
516.51	414.27
516.68	407.25
516.85	475.13
517.03	416.62
517.20	423.64
517.37	440.02
517.54	477.47
517.72	425.98
517.89	381.51
518.06	344.06
518.24	470.45
518.41	449.38
518.58	418.96
518.75	353.42
518.93	433.00
519.10	425.98
519.27	404.91
519.45	433.00
519.62	484.49
519.79	458.74
519.96	414.27
520.14	372.15
520.31	372.15
520.48	383.85
520.65	379.17
520.83	465.77
521.00	433.00
521.17	425.98
521.34	447.04
521.52	411.93
521.69	442.36
521.86	470.45
522.03	454.06
522.20	458.74
522.38	430.66
522.55	437.68
522.72	414.27
522.89	461.09
523.07	458.74
523.24	393.21
523.41	407.25
523.58	428.32
523.75	409.59
523.92	395.55
524.10	402.57
524.27	475.13
524.44	365.12
524.61	437.68
524.78	428.32
524.96	437.68
525.13	390.87
525.30	365.12
525.47	437.68
525.64	397.89
525.81	400.23
525.98	344.06
526.16	447.04
526.33	400.23
526.50	409.59
526.67	362.78
526.84	365.12
527.01	433.00
527.18	458.74
527.36	383.85
527.53	334.70
527.70	409.59
527.87	451.72
528.04	468.11
528.21	454.06
528.38	456.40
528.55	428.32
528.72	470.45
528.89	395.55
529.07	433.00
529.24	416.62
529.41	402.57
529.58	442.36
529.75	437.68
529.92	402.57
530.09	430.66
530.26	451.72
530.43	393.21
530.60	395.55
530.77	327.68
530.94	451.72
531.11	458.74
531.28	442.36
531.46	425.98
531.63	433.00
531.80	444.70
531.97	454.06
532.14	454.06
532.31	461.09
532.48	369.80
532.65	393.21
532.82	402.57
532.99	423.64
533.16	402.57
533.33	416.62
533.50	402.57
533.67	379.17
533.84	482.15
534.01	477.47
534.18	435.34
534.35	503.22
534.52	409.59
534.69	411.93
534.86	442.36
535.03	437.68
535.20	395.55
535.37	479.81
535.54	376.83
535.71	430.66
535.88	428.32
536.05	425.98
536.22	435.34
536.38	337.04
536.55	423.64
536.72	409.59
536.89	348.74
537.06	395.55
537.23	425.98
537.40	355.76
537.57	367.46
537.74	472.79
537.91	421.30
538.08	355.76
538.25	379.17
538.42	383.85
538.59	421.30
538.75	447.04
538.92	428.32
539.09	477.47
539.26	458.74
539.43	449.38
539.60	409.59
539.77	428.32
539.94	505.56
540.11	365.12
540.28	397.89
540.44	433.00
540.61	433.00
540.78	500.87
540.95	428.32
541.12	433.00
541.29	379.17
541.46	400.23
541.62	395.55
541.79	430.66
541.96	442.36
542.13	393.21
542.30	379.17
542.47	458.74
542.63	440.02
542.80	477.47
542.97	421.30
543.14	386.19
543.31	440.02
543.48	416.62
543.64	376.83
543.81	458.74
543.98	437.68
544.15	482.15
544.32	442.36
544.48	404.91
544.65	496.19
544.82	376.83
544.99	379.17
545.16	381.51
545.32	454.06
545.49	440.02
545.66	322.99
545.83	390.87
546.00	409.59
546.16	421.30
546.33	451.72
546.50	404.91
546.67	414.27
546.83	393.21
547.00	414.27
547.17	365.12
547.34	414.27
547.50	411.93
547.67	376.83
547.84	456.40
548.00	393.21
548.17	442.36
548.34	414.27
548.51	451.72
548.67	365.12
548.84	472.79
549.01	433.00
549.18	414.27
549.34	421.30
549.51	418.96
549.68	416.62
549.84	500.87
550.01	325.33
550.18	484.49
550.34	444.70
550.51	444.70
550.68	430.66
550.84	447.04
551.01	400.23
551.18	390.87
551.34	407.25
551.51	407.25
551.68	390.87
551.84	477.47
552.01	397.89
552.18	435.34
552.34	456.40
552.51	418.96
552.68	418.96
552.84	440.02
553.01	442.36
553.18	447.04
553.34	395.55
553.51	376.83
553.67	503.22
553.84	461.09
554.01	465.77
554.17	355.76
554.34	435.34
554.51	425.98
554.67	454.06
554.84	444.70
555.00	451.72
555.17	400.23
555.33	346.40
555.50	479.81
555.67	369.80
555.83	402.57
556.00	358.10
556.16	512.58
556.33	442.36
556.50	416.62
556.66	365.12
556.83	428.32
556.99	486.83
557.16	528.96
557.32	355.76
557.49	353.42
557.65	379.17
557.82	393.21
557.98	454.06
558.15	397.89
558.32	362.78
558.48	430.66
558.65	428.32
558.81	402.57
558.98	372.15
559.14	428.32
559.31	440.02
559.47	465.77
559.64	414.27
559.80	451.72
559.97	411.93
560.13	421.30
560.30	404.91
560.46	433.00
560.63	423.64
560.79	402.57
560.96	388.53
561.12	440.02
561.29	454.06
561.45	425.98
561.61	388.53
561.78	486.83
561.94	344.06
562.11	407.25
562.27	425.98
562.44	369.80
562.60	456.40
562.77	435.34
562.93	430.66
563.10	458.74
563.26	428.32
563.42	386.19
563.59	397.89
563.75	428.32
563.92	449.38
564.08	411.93
564.24	423.64
564.41	496.19
564.57	386.19
564.74	449.38
564.90	435.34
565.07	458.74
565.23	468.11
565.39	416.62
565.56	393.21
565.72	381.51
565.88	472.79
566.05	425.98
566.21	444.70
566.38	421.30
566.54	411.93
566.70	393.21
566.87	388.53
567.03	393.21
567.19	407.25
567.36	428.32
567.52	379.17
567.68	393.21
567.85	409.59
568.01	365.12
568.17	433.00
568.34	400.23
568.50	404.91
568.66	358.10
568.83	447.04
568.99	463.43
569.15	484.49
569.32	418.96
569.48	386.19
569.64	425.98
569.81	374.49
569.97	358.10
570.13	430.66
570.30	418.96
570.46	435.34
570.62	416.62
570.78	461.09
570.95	416.62
571.11	458.74
571.27	435.34
571.43	437.68
571.60	454.06
571.76	447.04
571.92	388.53
572.09	416.62
572.25	402.57
572.41	449.38
572.57	449.38
572.74	519.60
572.90	458.74
573.06	402.57
573.22	383.85
573.38	433.00
573.55	381.51
573.71	500.87
573.87	414.27
574.03	358.10
574.20	397.89
574.36	414.27
574.52	376.83
574.68	470.45
574.84	449.38
575.01	447.04
575.17	404.91
575.33	416.62
575.49	491.51
575.65	404.91
575.82	454.06
575.98	468.11
576.14	414.27
576.30	442.36
576.46	416.62
576.62	472.79
576.79	505.56
576.95	402.57
577.11	397.89
577.27	358.10
577.43	479.81
577.59	496.19
577.75	437.68
577.92	428.32
578.08	397.89
578.24	376.83
578.40	435.34
578.56	465.77
578.72	423.64
578.88	484.49
579.04	346.40
579.21	430.66
579.37	407.25
579.53	402.57
579.69	428.32
579.85	461.09
580.01	372.15
580.17	477.47
580.33	407.25
580.49	421.30
580.65	454.06
580.82	400.23
580.98	362.78
581.14	416.62
581.30	435.34
581.46	428.32
581.62	433.00
581.78	395.55
581.94	360.44
582.10	360.44
582.26	416.62
582.42	475.13
582.58	496.19
582.74	444.70
582.90	442.36
583.06	414.27
583.22	428.32
583.38	390.87
583.54	407.25
583.70	489.17
583.86	458.74
584.02	458.74
584.18	397.89
584.34	400.23
584.50	435.34
584.66	411.93
584.82	423.64
584.98	437.68
585.14	381.51
585.30	468.11
585.46	440.02
585.62	407.25
585.78	325.33
585.94	318.31
586.10	400.23
586.26	428.32
586.42	477.47
586.58	433.00
586.74	395.55
586.90	430.66
587.06	393.21
587.22	437.68
587.38	365.12
587.54	437.68
587.70	395.55
587.86	376.83
588.02	360.44
588.18	428.32
588.34	444.70
588.49	437.68
588.65	451.72
588.81	449.38
588.97	367.46
589.13	409.59
589.29	367.46
589.45	449.38
589.61	416.62
589.77	411.93
589.93	444.70
590.08	390.87
590.24	414.27
590.40	437.68
590.56	388.53
590.72	437.68
590.88	386.19
591.04	404.91
591.20	435.34
591.35	456.40
591.51	463.43
591.67	421.30
591.83	409.59
591.99	430.66
592.15	465.77
592.31	402.57
592.46	430.66
592.62	463.43
592.78	383.85
592.94	407.25
593.10	400.23
593.26	402.57
593.41	472.79
593.57	458.74
593.73	381.51
593.89	482.15
594.05	451.72
594.20	444.70
594.36	463.43
594.52	355.76
594.68	402.57
594.84	458.74
594.99	416.62
595.15	475.13
595.31	507.90
595.47	447.04
595.62	442.36
595.78	433.00
595.94	442.36
596.10	390.87
596.25	411.93
596.41	351.08
596.57	404.91
596.73	353.42
596.88	374.49
597.04	423.64
597.20	411.93
597.36	423.64
597.51	418.96
597.67	433.00
597.83	409.59
597.99	440.02
598.14	397.89
598.30	468.11
598.46	442.36
598.61	451.72
598.77	526.62
598.93	325.33
599.09	454.06
599.24	411.93
599.40	451.72
599.56	447.04
599.71	435.34
599.87	456.40
600.03	407.25
600.18	397.89
600.34	400.23
600.50	341.72
600.65	425.98
600.81	400.23
600.97	423.64
601.12	411.93
601.28	421.30
601.44	472.79
601.59	383.85
601.75	388.53
601.91	397.89
602.06	425.98
602.22	425.98
602.37	388.53
602.53	465.77
602.69	416.62
602.84	425.98
603.00	433.00
603.16	388.53
603.31	404.91
603.47	322.99
603.62	395.55
603.78	409.59
603.94	444.70
604.09	449.38
604.25	411.93
604.40	372.15
604.56	346.40
604.71	397.89
604.87	465.77
605.03	475.13
605.18	390.87
605.34	383.85
605.49	411.93
605.65	435.34
605.80	334.70
605.96	440.02
606.12	383.85
606.27	475.13
606.43	440.02
606.58	447.04
606.74	440.02
606.89	362.78
607.05	472.79
607.20	458.74
607.36	451.72
607.51	393.21
607.67	400.23
607.82	433.00
607.98	505.56
608.13	472.79
608.29	437.68
608.44	390.87
608.60	407.25
608.75	444.70
608.91	379.17
609.06	414.27
609.22	407.25
609.37	395.55
609.53	414.27
609.68	374.49
609.84	390.87
609.99	468.11
610.15	430.66
