SpectraSuite Data File
++++++++++++++++++++++++++++++++++++
Date: Fri Oct 25 12:11:09 EDT 2013
User: price-jones
Dark Spectrum Present: No
Reference Spectrum Present: No
Number of Sampled Component Spectra: 1
Spectrometers: USB2+H05261
Integration Time (usec): 100000 (USB2+H05261)
Spectra Averaged: 1 (USB2+H05261)
Boxcar Smoothing: 0 (USB2+H05261)
Correct for Electrical Dark: No (USB2+H05261)
Strobe/Lamp Enabled: No (USB2+H05261)
Correct for Detector Non-linearity: No (USB2+H05261)
Correct for Stray Light: No (USB2+H05261)
Number of Pixels in Processed Spectrum: 2048
>>>>>Begin Processed Spectral Data<<<<<
365.73	330.02
365.92	330.02
366.12	330.02
366.32	224.69
366.52	173.20
366.72	224.69
366.91	294.91
367.11	224.69
367.31	280.86
367.51	276.18
367.70	285.55
367.90	271.50
368.10	229.37
368.30	273.84
368.49	198.95
368.69	231.71
368.89	227.03
369.09	299.59
369.28	322.99
369.48	264.48
369.68	362.78
369.87	297.25
370.07	318.31
370.27	346.40
370.47	224.69
370.66	234.05
370.86	344.06
371.06	395.55
371.25	386.19
371.45	341.72
371.65	397.89
371.84	341.72
372.04	421.30
372.24	334.70
372.44	355.76
372.63	372.15
372.83	407.25
373.03	416.62
373.22	367.46
373.42	355.76
373.62	425.98
373.81	390.87
374.01	369.80
374.21	374.49
374.40	337.04
374.60	423.64
374.79	472.79
374.99	425.98
375.19	376.83
375.38	465.77
375.58	365.12
375.78	444.70
375.97	444.70
376.17	470.45
376.37	470.45
376.56	383.85
376.76	381.51
376.95	421.30
377.15	395.55
377.35	404.91
377.54	416.62
377.74	358.10
377.93	416.62
378.13	388.53
378.33	465.77
378.52	404.91
378.72	376.83
378.91	463.43
379.11	470.45
379.31	400.23
379.50	440.02
379.70	440.02
379.89	437.68
380.09	379.17
380.28	393.21
380.48	388.53
380.68	358.10
380.87	372.15
381.07	393.21
381.26	414.27
381.46	442.36
381.65	411.93
381.85	358.10
382.04	346.40
382.24	407.25
382.43	414.27
382.63	423.64
382.83	374.49
383.02	386.19
383.22	407.25
383.41	437.68
383.61	365.12
383.80	440.02
384.00	351.08
384.19	428.32
384.39	423.64
384.58	332.36
384.78	486.83
384.97	404.91
385.17	393.21
385.36	449.38
385.56	416.62
385.75	315.97
385.95	402.57
386.14	421.30
386.34	425.98
386.53	461.09
386.72	351.08
386.92	421.30
387.11	376.83
387.31	395.55
387.50	407.25
387.70	351.08
387.89	372.15
388.09	418.96
388.28	367.46
388.48	407.25
388.67	355.76
388.86	372.15
389.06	418.96
389.25	435.34
389.45	428.32
389.64	332.36
389.84	388.53
390.03	390.87
390.22	369.80
390.42	444.70
390.61	365.12
390.81	425.98
391.00	369.80
391.19	397.89
391.39	395.55
391.58	430.66
391.78	386.19
391.97	383.85
392.16	374.49
392.36	491.51
392.55	407.25
392.75	355.76
392.94	463.43
393.13	383.85
393.33	383.85
393.52	397.89
393.71	379.17
393.91	440.02
394.10	425.98
394.29	393.21
394.49	421.30
394.68	496.19
394.88	416.62
395.07	440.02
395.26	404.91
395.46	451.72
395.65	456.40
395.84	435.34
396.04	477.47
396.23	383.85
396.42	425.98
396.62	402.57
396.81	430.66
397.00	402.57
397.19	360.44
397.39	386.19
397.58	409.59
397.77	374.49
397.97	454.06
398.16	456.40
398.35	379.17
398.55	355.76
398.74	496.19
398.93	407.25
399.12	390.87
399.32	411.93
399.51	358.10
399.70	407.25
399.90	440.02
400.09	404.91
400.28	404.91
400.47	376.83
400.67	458.74
400.86	400.23
401.05	334.70
401.24	463.43
401.44	433.00
401.63	386.19
401.82	355.76
402.01	379.17
402.21	369.80
402.40	414.27
402.59	444.70
402.78	402.57
402.97	421.30
403.17	388.53
403.36	365.12
403.55	435.34
403.74	428.32
403.93	442.36
404.13	390.87
404.32	353.42
404.51	444.70
404.70	407.25
404.89	407.25
405.09	519.60
405.28	395.55
405.47	376.83
405.66	386.19
405.85	491.51
406.05	367.46
406.24	414.27
406.43	339.38
406.62	416.62
406.81	411.93
407.00	447.04
407.20	374.49
407.39	325.33
407.58	428.32
407.77	444.70
407.96	421.30
408.15	489.17
408.34	428.32
408.54	353.42
408.73	379.17
408.92	360.44
409.11	402.57
409.30	379.17
409.49	428.32
409.68	437.68
409.87	383.85
410.07	311.29
410.26	360.44
410.45	428.32
410.64	395.55
410.83	374.49
411.02	358.10
411.21	376.83
411.40	337.04
411.59	397.89
411.78	372.15
411.98	372.15
412.17	444.70
412.36	369.80
412.55	404.91
412.74	369.80
412.93	451.72
413.12	386.19
413.31	404.91
413.50	341.72
413.69	411.93
413.88	407.25
414.07	351.08
414.26	463.43
414.45	423.64
414.64	442.36
414.83	479.81
415.02	407.25
415.22	407.25
415.41	449.38
415.60	393.21
415.79	388.53
415.98	358.10
416.17	425.98
416.36	451.72
416.55	393.21
416.74	374.49
416.93	456.40
417.12	367.46
417.31	374.49
417.50	318.31
417.69	388.53
417.88	423.64
418.07	383.85
418.26	418.96
418.45	442.36
418.64	456.40
418.83	423.64
419.02	388.53
419.21	416.62
419.39	423.64
419.58	390.87
419.77	355.76
419.96	489.17
420.15	442.36
420.34	416.62
420.53	423.64
420.72	374.49
420.91	447.04
421.10	360.44
421.29	414.27
421.48	414.27
421.67	442.36
421.86	395.55
422.05	414.27
422.24	376.83
422.43	367.46
422.61	407.25
422.80	411.93
422.99	383.85
423.18	433.00
423.37	454.06
423.56	407.25
423.75	458.74
423.94	351.08
424.13	440.02
424.32	386.19
424.50	374.49
424.69	416.62
424.88	418.96
425.07	369.80
425.26	433.00
425.45	411.93
425.64	437.68
425.83	362.78
426.01	484.49
426.20	416.62
426.39	365.12
426.58	397.89
426.77	351.08
426.96	383.85
427.15	463.43
427.33	416.62
427.52	442.36
427.71	428.32
427.90	465.77
428.09	414.27
428.28	407.25
428.46	383.85
428.65	416.62
428.84	411.93
429.03	433.00
429.22	409.59
429.40	365.12
429.59	416.62
429.78	440.02
429.97	374.49
430.16	411.93
430.34	315.97
430.53	414.27
430.72	395.55
430.91	447.04
431.10	449.38
431.28	440.02
431.47	397.89
431.66	484.49
431.85	440.02
432.03	409.59
432.22	414.27
432.41	393.21
432.60	461.09
432.79	383.85
432.97	360.44
433.16	395.55
433.35	407.25
433.54	444.70
433.72	395.55
433.91	418.96
434.10	353.42
434.28	360.44
434.47	390.87
434.66	416.62
434.85	449.38
435.03	301.93
435.22	411.93
435.41	337.04
435.59	489.17
435.78	409.59
435.97	440.02
436.16	369.80
436.34	402.57
436.53	404.91
436.72	418.96
436.90	388.53
437.09	339.38
437.28	437.68
437.46	383.85
437.65	449.38
437.84	395.55
438.02	381.51
438.21	423.64
438.40	416.62
438.58	320.65
438.77	381.51
438.96	397.89
439.14	306.61
439.33	477.47
439.52	418.96
439.70	437.68
439.89	433.00
440.08	470.45
440.26	390.87
440.45	360.44
440.63	440.02
440.82	470.45
441.01	411.93
441.19	404.91
441.38	351.08
441.57	393.21
441.75	507.90
441.94	461.09
442.12	411.93
442.31	407.25
442.50	388.53
442.68	393.21
442.87	369.80
443.05	376.83
443.24	423.64
443.43	388.53
443.61	367.46
443.80	388.53
443.98	447.04
444.17	411.93
444.35	447.04
444.54	418.96
444.73	379.17
444.91	543.00
445.10	456.40
445.28	351.08
445.47	416.62
445.65	416.62
445.84	379.17
446.02	404.91
446.21	383.85
446.39	414.27
446.58	402.57
446.77	390.87
446.95	383.85
447.14	388.53
447.32	442.36
447.51	404.91
447.69	454.06
447.88	468.11
448.06	447.04
448.25	414.27
448.43	461.09
448.62	376.83
448.80	430.66
448.99	433.00
449.17	383.85
449.36	463.43
449.54	437.68
449.73	383.85
449.91	451.72
450.10	479.81
450.28	372.15
450.46	400.23
450.65	479.81
450.83	442.36
451.02	465.77
451.20	374.49
451.39	411.93
451.57	393.21
451.76	411.93
451.94	360.44
452.13	472.79
452.31	470.45
452.49	423.64
452.68	407.25
452.86	468.11
453.05	477.47
453.23	425.98
453.42	374.49
453.60	409.59
453.78	465.77
453.97	379.17
454.15	379.17
454.34	440.02
454.52	353.42
454.70	407.25
454.89	463.43
455.07	451.72
455.26	379.17
455.44	421.30
455.62	433.00
455.81	491.51
455.99	416.62
456.17	491.51
456.36	465.77
456.54	451.72
456.73	435.34
456.91	353.42
457.09	348.74
457.28	388.53
457.46	491.51
457.64	470.45
457.83	388.53
458.01	402.57
458.19	388.53
458.38	433.00
458.56	386.19
458.74	484.49
458.93	395.55
459.11	351.08
459.29	400.23
459.48	482.15
459.66	484.49
459.84	433.00
460.03	496.19
460.21	390.87
460.39	395.55
460.57	397.89
460.76	402.57
460.94	447.04
461.12	456.40
461.31	437.68
461.49	463.43
461.67	404.91
461.85	425.98
462.04	397.89
462.22	760.67
462.40	430.66
462.59	388.53
462.77	440.02
462.95	458.74
463.13	362.78
463.32	423.64
463.50	430.66
463.68	397.89
463.86	360.44
464.05	416.62
464.23	402.57
464.41	400.23
464.59	358.10
464.78	318.31
464.96	360.44
465.14	369.80
465.32	397.89
465.50	339.38
465.69	416.62
465.87	379.17
466.05	409.59
466.23	435.34
466.41	407.25
466.60	395.55
466.78	402.57
466.96	461.09
467.14	407.25
467.32	479.81
467.51	393.21
467.69	386.19
467.87	416.62
468.05	365.12
468.23	510.24
468.41	294.91
468.60	365.12
468.78	423.64
468.96	402.57
469.14	449.38
469.32	440.02
469.50	437.68
469.69	393.21
469.87	458.74
470.05	491.51
470.23	435.34
470.41	442.36
470.59	454.06
470.77	484.49
470.95	468.11
471.14	440.02
471.32	337.04
471.50	397.89
471.68	454.06
471.86	442.36
472.04	418.96
472.22	440.02
472.40	425.98
472.58	332.36
472.77	472.79
472.95	409.59
473.13	437.68
473.31	449.38
473.49	388.53
473.67	409.59
473.85	477.47
474.03	461.09
474.21	444.70
474.39	365.12
474.57	486.83
474.75	451.72
474.93	395.55
475.12	468.11
475.30	477.47
475.48	367.46
475.66	458.74
475.84	416.62
476.02	320.65
476.20	414.27
476.38	379.17
476.56	475.13
476.74	428.32
476.92	404.91
477.10	465.77
477.28	444.70
477.46	327.68
477.64	395.55
477.82	393.21
478.00	404.91
478.18	472.79
478.36	397.89
478.54	442.36
478.72	505.56
478.90	458.74
479.08	369.80
479.26	456.40
479.44	437.68
479.62	435.34
479.80	393.21
479.98	444.70
480.16	414.27
480.34	428.32
480.52	400.23
480.70	397.89
480.88	390.87
481.06	477.47
481.24	433.00
481.41	421.30
481.59	393.21
481.77	393.21
481.95	425.98
482.13	442.36
482.31	381.51
482.49	489.17
482.67	423.64
482.85	351.08
483.03	458.74
483.21	461.09
483.39	407.25
483.57	393.21
483.74	463.43
483.92	456.40
484.10	379.17
484.28	416.62
484.46	463.43
484.64	404.91
484.82	437.68
485.00	402.57
485.18	386.19
485.35	414.27
485.53	414.27
485.71	404.91
485.89	379.17
486.07	409.59
486.25	503.22
486.43	409.59
486.61	437.68
486.78	388.53
486.96	454.06
487.14	449.38
487.32	344.06
487.50	407.25
487.68	418.96
487.85	379.17
488.03	468.11
488.21	463.43
488.39	416.62
488.57	402.57
488.75	402.57
488.92	524.28
489.10	449.38
489.28	362.78
489.46	369.80
489.64	433.00
489.81	444.70
489.99	409.59
490.17	388.53
490.35	449.38
490.53	449.38
490.70	407.25
490.88	425.98
491.06	351.08
491.24	482.15
491.41	505.56
491.59	557.05
491.77	388.53
491.95	348.74
492.13	381.51
492.30	381.51
492.48	430.66
492.66	463.43
492.84	456.40
493.01	440.02
493.19	414.27
493.37	433.00
493.54	430.66
493.72	390.87
493.90	388.53
494.08	418.96
494.25	369.80
494.43	421.30
494.61	402.57
494.79	339.38
494.96	386.19
495.14	437.68
495.32	395.55
495.49	365.12
495.67	440.02
495.85	388.53
496.02	379.17
496.20	440.02
496.38	505.56
496.55	451.72
496.73	365.12
496.91	362.78
497.09	430.66
497.26	416.62
497.44	451.72
497.62	393.21
497.79	388.53
497.97	433.00
498.14	411.93
498.32	369.80
498.50	437.68
498.67	339.38
498.85	360.44
499.03	376.83
499.20	381.51
499.38	379.17
499.56	430.66
499.73	437.68
499.91	433.00
500.08	433.00
500.26	411.93
500.44	414.27
500.61	358.10
500.79	458.74
500.97	407.25
501.14	374.49
501.32	463.43
501.49	461.09
501.67	407.25
501.84	472.79
502.02	416.62
502.20	414.27
502.37	402.57
502.55	421.30
502.72	395.55
502.90	498.53
503.07	454.06
503.25	369.80
503.43	423.64
503.60	416.62
503.78	458.74
503.95	393.21
504.13	425.98
504.30	428.32
504.48	463.43
504.65	430.66
504.83	498.53
505.01	416.62
505.18	374.49
505.36	390.87
505.53	404.91
505.71	379.17
505.88	400.23
506.06	463.43
506.23	390.87
506.41	376.83
506.58	470.45
506.76	418.96
506.93	421.30
507.11	409.59
507.28	451.72
507.46	390.87
507.63	428.32
507.81	428.32
507.98	383.85
508.16	388.53
508.33	461.09
508.50	444.70
508.68	418.96
508.85	496.19
509.03	386.19
509.20	447.04
509.38	367.46
509.55	456.40
509.73	397.89
509.90	468.11
510.08	418.96
510.25	423.64
510.42	404.91
510.60	346.40
510.77	435.34
510.95	409.59
511.12	386.19
511.30	428.32
511.47	355.76
511.64	404.91
511.82	428.32
511.99	320.65
512.17	458.74
512.34	423.64
512.51	376.83
512.69	404.91
512.86	449.38
513.04	395.55
513.21	425.98
513.38	437.68
513.56	360.44
513.73	411.93
513.90	414.27
514.08	423.64
514.25	447.04
514.43	421.30
514.60	409.59
514.77	456.40
514.95	379.17
515.12	388.53
515.29	500.87
515.47	381.51
515.64	423.64
515.81	402.57
515.99	339.38
516.16	409.59
516.33	433.00
516.51	418.96
516.68	376.83
516.85	489.17
517.03	367.46
517.20	433.00
517.37	411.93
517.54	404.91
517.72	472.79
517.89	416.62
518.06	365.12
518.24	402.57
518.41	458.74
518.58	465.77
518.75	444.70
518.93	409.59
519.10	423.64
519.27	433.00
519.45	379.17
519.62	376.83
519.79	390.87
519.96	400.23
520.14	433.00
520.31	395.55
520.48	465.77
520.65	407.25
520.83	400.23
521.00	449.38
521.17	425.98
521.34	402.57
521.52	367.46
521.69	458.74
521.86	440.02
522.03	400.23
522.20	472.79
522.38	423.64
522.55	386.19
522.72	428.32
522.89	418.96
523.07	397.89
523.24	416.62
523.41	437.68
523.58	433.00
523.75	423.64
523.92	437.68
524.10	414.27
524.27	489.17
524.44	468.11
524.61	440.02
524.78	404.91
524.96	388.53
525.13	416.62
525.30	437.68
525.47	362.78
525.64	428.32
525.81	414.27
525.98	411.93
526.16	372.15
526.33	358.10
526.50	400.23
526.67	444.70
526.84	402.57
527.01	369.80
527.18	440.02
527.36	421.30
527.53	369.80
527.70	442.36
527.87	463.43
528.04	433.00
528.21	440.02
528.38	376.83
528.55	475.13
528.72	388.53
528.89	484.49
529.07	334.70
529.24	444.70
529.41	447.04
529.58	447.04
529.75	358.10
529.92	505.56
530.09	421.30
530.26	418.96
530.43	444.70
530.60	404.91
530.77	386.19
530.94	421.30
531.11	458.74
531.28	376.83
531.46	409.59
531.63	351.08
531.80	355.76
531.97	344.06
532.14	411.93
532.31	409.59
532.48	367.46
532.65	430.66
532.82	440.02
532.99	437.68
533.16	367.46
533.33	374.49
533.50	414.27
533.67	440.02
533.84	372.15
534.01	386.19
534.18	428.32
534.35	369.80
534.52	421.30
534.69	388.53
534.86	430.66
535.03	449.38
535.20	351.08
535.37	461.09
535.54	395.55
535.71	372.15
535.88	449.38
536.05	444.70
536.22	435.34
536.38	489.17
536.55	409.59
536.72	517.26
536.89	425.98
537.06	397.89
537.23	372.15
537.40	414.27
537.57	407.25
537.74	418.96
537.91	372.15
538.08	477.47
538.25	421.30
538.42	388.53
538.59	418.96
538.75	383.85
538.92	334.70
539.09	369.80
539.26	383.85
539.43	423.64
539.60	449.38
539.77	442.36
539.94	351.08
540.11	428.32
540.28	437.68
540.44	402.57
540.61	388.53
540.78	367.46
540.95	397.89
541.12	470.45
541.29	369.80
541.46	423.64
541.62	430.66
541.79	435.34
541.96	484.49
542.13	479.81
542.30	411.93
542.47	458.74
542.63	365.12
542.80	339.38
542.97	482.15
543.14	381.51
543.31	423.64
543.48	423.64
543.64	470.45
543.81	358.10
543.98	428.32
544.15	475.13
544.32	496.19
544.48	369.80
544.65	416.62
544.82	500.87
544.99	365.12
545.16	407.25
545.32	430.66
545.49	447.04
545.66	472.79
545.83	400.23
546.00	348.74
546.16	414.27
546.33	402.57
546.50	409.59
546.67	425.98
546.83	374.49
547.00	449.38
547.17	437.68
547.34	365.12
547.50	376.83
547.67	435.34
547.84	454.06
548.00	447.04
548.17	367.46
548.34	393.21
548.51	451.72
548.67	435.34
548.84	465.77
549.01	416.62
549.18	444.70
549.34	428.32
549.51	400.23
549.68	461.09
549.84	449.38
550.01	409.59
550.18	465.77
550.34	397.89
550.51	411.93
550.68	421.30
550.84	421.30
551.01	435.34
551.18	468.11
551.34	395.55
551.51	390.87
551.68	376.83
551.84	475.13
552.01	414.27
552.18	393.21
552.34	372.15
552.51	475.13
552.68	372.15
552.84	447.04
553.01	407.25
553.18	489.17
553.34	409.59
553.51	390.87
553.67	465.77
553.84	479.81
554.01	458.74
554.17	442.36
554.34	407.25
554.51	404.91
554.67	388.53
554.84	444.70
555.00	454.06
555.17	451.72
555.33	437.68
555.50	468.11
555.67	456.40
555.83	393.21
556.00	463.43
556.16	503.22
556.33	425.98
556.50	393.21
556.66	416.62
556.83	425.98
556.99	411.93
557.16	414.27
557.32	308.95
557.49	409.59
557.65	435.34
557.82	430.66
557.98	444.70
558.15	374.49
558.32	404.91
558.48	456.40
558.65	456.40
558.81	550.03
558.98	390.87
559.14	341.72
559.31	472.79
559.47	451.72
559.64	404.91
559.80	447.04
559.97	369.80
560.13	404.91
560.30	423.64
560.46	444.70
560.63	407.25
560.79	458.74
560.96	379.17
561.12	444.70
561.29	425.98
561.45	475.13
561.61	390.87
561.78	503.22
561.94	374.49
562.11	428.32
562.27	397.89
562.44	458.74
562.60	409.59
562.77	423.64
562.93	435.34
563.10	402.57
563.26	402.57
563.42	503.22
563.59	456.40
563.75	416.62
563.92	423.64
564.08	444.70
564.24	418.96
564.41	484.49
564.57	355.76
564.74	397.89
564.90	418.96
565.07	407.25
565.23	454.06
565.39	416.62
565.56	465.77
565.72	463.43
565.88	414.27
566.05	346.40
566.21	397.89
566.38	365.12
566.54	421.30
566.70	463.43
566.87	285.55
567.03	390.87
567.19	397.89
567.36	433.00
567.52	449.38
567.68	442.36
567.85	465.77
568.01	402.57
568.17	416.62
568.34	449.38
568.50	390.87
568.66	416.62
568.83	447.04
568.99	407.25
569.15	407.25
569.32	437.68
569.48	395.55
569.64	301.93
569.81	454.06
569.97	435.34
570.13	390.87
570.30	318.31
570.46	447.04
570.62	407.25
570.78	381.51
570.95	388.53
571.11	468.11
571.27	484.49
571.43	407.25
571.60	372.15
571.76	294.91
571.92	393.21
572.09	404.91
572.25	449.38
572.41	414.27
572.57	409.59
572.74	468.11
572.90	465.77
573.06	393.21
573.22	381.51
573.38	411.93
573.55	397.89
573.71	470.45
573.87	397.89
574.03	395.55
574.20	411.93
574.36	414.27
574.52	355.76
574.68	433.00
574.84	353.42
575.01	404.91
575.17	402.57
575.33	451.72
575.49	475.13
575.65	362.78
575.82	498.53
575.98	477.47
576.14	351.08
576.30	430.66
576.46	437.68
576.62	369.80
576.79	369.80
576.95	433.00
577.11	456.40
577.27	470.45
577.43	444.70
577.59	477.47
577.75	428.32
577.92	388.53
578.08	372.15
578.24	397.89
578.40	367.46
578.56	383.85
578.72	475.13
578.88	428.32
579.04	409.59
579.21	433.00
579.37	397.89
579.53	416.62
579.69	486.83
579.85	407.25
580.01	433.00
580.17	397.89
580.33	414.27
580.49	355.76
580.65	390.87
580.82	407.25
580.98	484.49
581.14	421.30
581.30	360.44
581.46	379.17
581.62	397.89
581.78	425.98
581.94	458.74
582.10	360.44
582.26	440.02
582.42	402.57
582.58	461.09
582.74	390.87
582.90	437.68
583.06	383.85
583.22	437.68
583.38	390.87
583.54	395.55
583.70	416.62
583.86	468.11
584.02	416.62
584.18	425.98
584.34	395.55
584.50	407.25
584.66	444.70
584.82	358.10
584.98	440.02
585.14	372.15
585.30	374.49
585.46	475.13
585.62	440.02
585.78	369.80
585.94	397.89
586.10	433.00
586.26	421.30
586.42	433.00
586.58	421.30
586.74	376.83
586.90	402.57
587.06	407.25
587.22	376.83
587.38	376.83
587.54	365.12
587.70	430.66
587.86	409.59
588.02	397.89
588.18	428.32
588.34	414.27
588.49	430.66
588.65	425.98
588.81	423.64
588.97	381.51
589.13	421.30
589.29	367.46
589.45	454.06
589.61	411.93
589.77	465.77
589.93	369.80
590.08	372.15
590.24	440.02
590.40	430.66
590.56	367.46
590.72	404.91
590.88	390.87
591.04	390.87
591.20	482.15
591.35	468.11
591.51	423.64
591.67	351.08
591.83	386.19
591.99	383.85
592.15	475.13
592.31	435.34
592.46	400.23
592.62	381.51
592.78	383.85
592.94	447.04
593.10	440.02
593.26	381.51
593.41	423.64
593.57	472.79
593.73	421.30
593.89	449.38
594.05	423.64
594.20	397.89
594.36	444.70
594.52	372.15
594.68	437.68
594.84	404.91
594.99	468.11
595.15	397.89
595.31	414.27
595.47	451.72
595.62	407.25
595.78	458.74
595.94	430.66
596.10	465.77
596.25	468.11
596.41	393.21
596.57	388.53
596.73	374.49
596.88	423.64
597.04	425.98
597.20	425.98
597.36	433.00
597.51	388.53
597.67	404.91
597.83	440.02
597.99	409.59
598.14	369.80
598.30	484.49
598.46	351.08
598.61	507.90
598.77	458.74
598.93	339.38
599.09	386.19
599.24	372.15
599.40	360.44
599.56	421.30
599.71	414.27
599.87	430.66
600.03	425.98
600.18	493.85
600.34	416.62
600.50	383.85
600.65	376.83
600.81	397.89
600.97	444.70
601.12	379.17
601.28	430.66
601.44	379.17
601.59	358.10
601.75	320.65
601.91	428.32
602.06	348.74
602.22	461.09
602.37	421.30
602.53	437.68
602.69	498.53
602.84	376.83
603.00	430.66
603.16	411.93
603.31	454.06
603.47	428.32
603.62	409.59
603.78	458.74
603.94	409.59
604.09	458.74
604.25	428.32
604.40	404.91
604.56	418.96
604.71	475.13
604.87	404.91
605.03	397.89
605.18	428.32
605.34	454.06
605.49	440.02
605.65	454.06
605.80	372.15
605.96	418.96
606.12	451.72
606.27	327.68
606.43	440.02
606.58	411.93
606.74	409.59
606.89	433.00
607.05	461.09
607.20	365.12
607.36	416.62
607.51	423.64
607.67	351.08
607.82	409.59
607.98	479.81
608.13	367.46
608.29	367.46
608.44	369.80
608.60	418.96
608.75	430.66
608.91	440.02
609.06	411.93
609.22	388.53
609.37	379.17
609.53	407.25
609.68	444.70
609.84	367.46
609.99	393.21
610.15	468.11
