SpectraSuite Data File
++++++++++++++++++++++++++++++++++++
Date: Fri Oct 25 12:11:14 EDT 2013
User: price-jones
Dark Spectrum Present: No
Reference Spectrum Present: No
Number of Sampled Component Spectra: 1
Spectrometers: USB2+H05261
Integration Time (usec): 100000 (USB2+H05261)
Spectra Averaged: 1 (USB2+H05261)
Boxcar Smoothing: 0 (USB2+H05261)
Correct for Electrical Dark: No (USB2+H05261)
Strobe/Lamp Enabled: No (USB2+H05261)
Correct for Detector Non-linearity: No (USB2+H05261)
Correct for Stray Light: No (USB2+H05261)
Number of Pixels in Processed Spectrum: 2048
>>>>>Begin Processed Spectral Data<<<<<
365.73	383.85
365.92	383.85
366.12	383.85
366.32	231.71
366.52	245.76
366.72	224.69
366.91	252.78
367.11	285.55
367.31	262.14
367.51	208.31
367.70	245.76
367.90	257.46
368.10	266.82
368.30	325.33
368.49	276.18
368.69	262.14
368.89	250.44
369.09	264.48
369.28	372.15
369.48	339.38
369.68	337.04
369.87	205.97
370.07	353.42
370.27	327.68
370.47	372.15
370.66	337.04
370.86	341.72
371.06	386.19
371.25	447.04
371.45	351.08
371.65	414.27
371.84	308.95
372.04	285.55
372.24	421.30
372.44	418.96
372.63	383.85
372.83	416.62
373.03	358.10
373.22	395.55
373.42	423.64
373.62	435.34
373.81	379.17
374.01	451.72
374.21	416.62
374.40	411.93
374.60	475.13
374.79	442.36
374.99	402.57
375.19	416.62
375.38	454.06
375.58	425.98
375.78	395.55
375.97	472.79
376.17	442.36
376.37	423.64
376.56	421.30
376.76	407.25
376.95	444.70
377.15	458.74
377.35	503.22
377.54	379.17
377.74	435.34
377.93	311.29
378.13	372.15
378.33	475.13
378.52	402.57
378.72	395.55
378.91	393.21
379.11	369.80
379.31	423.64
379.50	458.74
379.70	388.53
379.89	374.49
380.09	402.57
380.28	430.66
380.48	395.55
380.68	376.83
380.87	440.02
381.07	381.51
381.26	407.25
381.46	351.08
381.65	393.21
381.85	344.06
382.04	334.70
382.24	414.27
382.43	440.02
382.63	400.23
382.83	449.38
383.02	409.59
383.22	414.27
383.41	437.68
383.61	365.12
383.80	463.43
384.00	416.62
384.19	304.27
384.39	421.30
384.58	360.44
384.78	404.91
384.97	376.83
385.17	372.15
385.36	411.93
385.56	404.91
385.75	400.23
385.95	353.42
386.14	454.06
386.34	367.46
386.53	407.25
386.72	456.40
386.92	337.04
387.11	379.17
387.31	346.40
387.50	332.36
387.70	402.57
387.89	395.55
388.09	372.15
388.28	409.59
388.48	388.53
388.67	400.23
388.86	428.32
389.06	411.93
389.25	454.06
389.45	440.02
389.64	397.89
389.84	404.91
390.03	435.34
390.22	353.42
390.42	456.40
390.61	386.19
390.81	468.11
391.00	425.98
391.19	423.64
391.39	355.76
391.58	400.23
391.78	369.80
391.97	379.17
392.16	423.64
392.36	463.43
392.55	507.90
392.75	388.53
392.94	367.46
393.13	468.11
393.33	433.00
393.52	355.76
393.71	477.47
393.91	421.30
394.10	344.06
394.29	351.08
394.49	372.15
394.68	454.06
394.88	444.70
395.07	493.85
395.26	381.51
395.46	449.38
395.65	444.70
395.84	458.74
396.04	456.40
396.23	330.02
396.42	440.02
396.62	425.98
396.81	425.98
397.00	442.36
397.19	409.59
397.39	346.40
397.58	465.77
397.77	418.96
397.97	430.66
398.16	400.23
398.35	390.87
398.55	390.87
398.74	430.66
398.93	435.34
399.12	390.87
399.32	388.53
399.51	376.83
399.70	376.83
399.90	418.96
400.09	442.36
400.28	449.38
400.47	383.85
400.67	440.02
400.86	330.02
401.05	475.13
401.24	404.91
401.44	409.59
401.63	393.21
401.82	367.46
402.01	425.98
402.21	409.59
402.40	535.98
402.59	447.04
402.78	463.43
402.97	383.85
403.17	322.99
403.36	430.66
403.55	409.59
403.74	409.59
403.93	428.32
404.13	414.27
404.32	411.93
404.51	358.10
404.70	423.64
404.89	433.00
405.09	440.02
405.28	332.36
405.47	414.27
405.66	404.91
405.85	327.68
406.05	353.42
406.24	379.17
406.43	351.08
406.62	428.32
406.81	407.25
407.00	437.68
407.20	418.96
407.39	421.30
407.58	437.68
407.77	418.96
407.96	433.00
408.15	381.51
408.34	409.59
408.54	367.46
408.73	400.23
408.92	470.45
409.11	379.17
409.30	409.59
409.49	339.38
409.68	388.53
409.87	400.23
410.07	425.98
410.26	369.80
410.45	425.98
410.64	379.17
410.83	395.55
411.02	395.55
411.21	400.23
411.40	444.70
411.59	411.93
411.78	390.87
411.98	421.30
412.17	433.00
412.36	369.80
412.55	395.55
412.74	369.80
412.93	379.17
413.12	423.64
413.31	440.02
413.50	369.80
413.69	351.08
413.88	447.04
414.07	409.59
414.26	498.53
414.45	407.25
414.64	421.30
414.83	421.30
415.02	346.40
415.22	451.72
415.41	454.06
415.60	365.12
415.79	367.46
415.98	428.32
416.17	360.44
416.36	428.32
416.55	409.59
416.74	383.85
416.93	433.00
417.12	376.83
417.31	365.12
417.50	414.27
417.69	449.38
417.88	353.42
418.07	374.49
418.26	433.00
418.45	383.85
418.64	409.59
418.83	339.38
419.02	341.72
419.21	482.15
419.39	383.85
419.58	437.68
419.77	416.62
419.96	414.27
420.15	393.21
420.34	418.96
420.53	388.53
420.72	491.51
420.91	407.25
421.10	358.10
421.29	379.17
421.48	435.34
421.67	411.93
421.86	411.93
422.05	362.78
422.24	433.00
422.43	372.15
422.61	425.98
422.80	423.64
422.99	400.23
423.18	397.89
423.37	423.64
423.56	428.32
423.75	423.64
423.94	388.53
424.13	397.89
424.32	383.85
424.50	461.09
424.69	376.83
424.88	407.25
425.07	339.38
425.26	414.27
425.45	390.87
425.64	390.87
425.83	404.91
426.01	430.66
426.20	440.02
426.39	425.98
426.58	390.87
426.77	386.19
426.96	442.36
427.15	407.25
427.33	423.64
427.52	498.53
427.71	381.51
427.90	400.23
428.09	400.23
428.28	451.72
428.46	435.34
428.65	421.30
428.84	390.87
429.03	411.93
429.22	428.32
429.40	444.70
429.59	442.36
429.78	423.64
429.97	383.85
430.16	411.93
430.34	430.66
430.53	355.76
430.72	346.40
430.91	376.83
431.10	468.11
431.28	365.12
431.47	440.02
431.66	423.64
431.85	393.21
432.03	435.34
432.22	489.17
432.41	407.25
432.60	517.26
432.79	421.30
432.97	449.38
433.16	435.34
433.35	395.55
433.54	393.21
433.72	395.55
433.91	409.59
434.10	383.85
434.28	400.23
434.47	447.04
434.66	433.00
434.85	418.96
435.03	374.49
435.22	402.57
435.41	477.47
435.59	351.08
435.78	374.49
435.97	348.74
436.16	468.11
436.34	463.43
436.53	433.00
436.72	409.59
436.90	414.27
437.09	528.96
437.28	428.32
437.46	421.30
437.65	425.98
437.84	416.62
438.02	411.93
438.21	449.38
438.40	421.30
438.58	353.42
438.77	437.68
438.96	374.49
439.14	414.27
439.33	425.98
439.52	358.10
439.70	390.87
439.89	451.72
440.08	400.23
440.26	416.62
440.45	409.59
440.63	423.64
440.82	374.49
441.01	428.32
441.19	437.68
441.38	397.89
441.57	395.55
441.75	372.15
441.94	397.89
442.12	463.43
442.31	418.96
442.50	449.38
442.68	458.74
442.87	421.30
443.05	372.15
443.24	437.68
443.43	397.89
443.61	458.74
443.80	421.30
443.98	381.51
444.17	423.64
444.35	411.93
444.54	461.09
444.73	430.66
444.91	421.30
445.10	374.49
445.28	306.61
445.47	379.17
445.65	507.90
445.84	423.64
446.02	416.62
446.21	411.93
446.39	393.21
446.58	369.80
446.77	440.02
446.95	407.25
447.14	447.04
447.32	486.83
447.51	409.59
447.69	367.46
447.88	435.34
448.06	486.83
448.25	479.81
448.43	409.59
448.62	430.66
448.80	334.70
448.99	414.27
449.17	397.89
449.36	411.93
449.54	463.43
449.73	463.43
449.91	458.74
450.10	379.17
450.28	435.34
450.46	454.06
450.65	418.96
450.83	416.62
451.02	437.68
451.20	449.38
451.39	388.53
451.57	383.85
451.76	433.00
451.94	355.76
452.13	416.62
452.31	442.36
452.49	397.89
452.68	414.27
452.86	458.74
453.05	425.98
453.23	402.57
453.42	440.02
453.60	407.25
453.78	456.40
453.97	425.98
454.15	423.64
454.34	390.87
454.52	433.00
454.70	409.59
454.89	435.34
455.07	449.38
455.26	358.10
455.44	351.08
455.62	379.17
455.81	416.62
455.99	404.91
456.17	484.49
456.36	421.30
456.54	400.23
456.73	465.77
456.91	421.30
457.09	381.51
457.28	367.46
457.46	341.72
457.64	372.15
457.83	437.68
458.01	388.53
458.19	418.96
458.38	362.78
458.56	332.36
458.74	479.81
458.93	381.51
459.11	393.21
459.29	437.68
459.48	393.21
459.66	442.36
459.84	372.15
460.03	491.51
460.21	353.42
460.39	360.44
460.57	479.81
460.76	428.32
460.94	493.85
461.12	472.79
461.31	447.04
461.49	416.62
461.67	418.96
461.85	437.68
462.04	409.59
462.22	816.85
462.40	400.23
462.59	358.10
462.77	440.02
462.95	428.32
463.13	428.32
463.32	395.55
463.50	400.23
463.68	491.51
463.86	454.06
464.05	344.06
464.23	437.68
464.41	477.47
464.59	435.34
464.78	393.21
464.96	400.23
465.14	416.62
465.32	433.00
465.50	404.91
465.69	416.62
465.87	444.70
466.05	463.43
466.23	402.57
466.41	416.62
466.60	428.32
466.78	418.96
466.96	430.66
467.14	433.00
467.32	421.30
467.51	395.55
467.69	421.30
467.87	409.59
468.05	351.08
468.23	407.25
468.41	383.85
468.60	433.00
468.78	376.83
468.96	433.00
469.14	402.57
469.32	402.57
469.50	433.00
469.69	404.91
469.87	376.83
470.05	444.70
470.23	512.58
470.41	428.32
470.59	421.30
470.77	437.68
470.95	430.66
471.14	477.47
471.32	440.02
471.50	423.64
471.68	372.15
471.86	421.30
472.04	435.34
472.22	470.45
472.40	376.83
472.58	390.87
472.77	447.04
472.95	454.06
473.13	388.53
473.31	528.96
473.49	447.04
473.67	393.21
473.85	386.19
474.03	437.68
474.21	395.55
474.39	440.02
474.57	409.59
474.75	379.17
474.93	386.19
475.12	327.68
475.30	468.11
475.48	402.57
475.66	386.19
475.84	421.30
476.02	421.30
476.20	374.49
476.38	461.09
476.56	447.04
476.74	543.00
476.92	362.78
477.10	425.98
477.28	376.83
477.46	430.66
477.64	393.21
477.82	388.53
478.00	369.80
478.18	440.02
478.36	435.34
478.54	390.87
478.72	430.66
478.90	339.38
479.08	393.21
479.26	339.38
479.44	418.96
479.62	351.08
479.80	425.98
479.98	369.80
480.16	358.10
480.34	430.66
480.52	407.25
480.70	416.62
480.88	393.21
481.06	358.10
481.24	355.76
481.41	376.83
481.59	423.64
481.77	458.74
481.95	386.19
482.13	400.23
482.31	451.72
482.49	402.57
482.67	458.74
482.85	444.70
483.03	414.27
483.21	421.30
483.39	454.06
483.57	367.46
483.74	465.77
483.92	393.21
484.10	472.79
484.28	418.96
484.46	425.98
484.64	418.96
484.82	402.57
485.00	381.51
485.18	437.68
485.35	428.32
485.53	442.36
485.71	440.02
485.89	404.91
486.07	372.15
486.25	433.00
486.43	463.43
486.61	409.59
486.78	465.77
486.96	470.45
487.14	451.72
487.32	388.53
487.50	423.64
487.68	414.27
487.85	428.32
488.03	447.04
488.21	430.66
488.39	449.38
488.57	376.83
488.75	407.25
488.92	503.22
489.10	416.62
489.28	437.68
489.46	447.04
489.64	416.62
489.81	430.66
489.99	416.62
490.17	458.74
490.35	437.68
490.53	390.87
490.70	395.55
490.88	444.70
491.06	365.12
491.24	393.21
491.41	491.51
491.59	397.89
491.77	461.09
491.95	351.08
492.13	367.46
492.30	411.93
492.48	379.17
492.66	409.59
492.84	388.53
493.01	421.30
493.19	437.68
493.37	472.79
493.54	472.79
493.72	393.21
493.90	383.85
494.08	388.53
494.25	397.89
494.43	423.64
494.61	400.23
494.79	332.36
494.96	404.91
495.14	421.30
495.32	400.23
495.49	454.06
495.67	334.70
495.85	369.80
496.02	400.23
496.20	451.72
496.38	442.36
496.55	358.10
496.73	470.45
496.91	374.49
497.09	454.06
497.26	477.47
497.44	425.98
497.62	447.04
497.79	449.38
497.97	456.40
498.14	383.85
498.32	404.91
498.50	437.68
498.67	390.87
498.85	388.53
499.03	421.30
499.20	451.72
499.38	393.21
499.56	461.09
499.73	433.00
499.91	442.36
500.08	423.64
500.26	407.25
500.44	346.40
500.61	447.04
500.79	404.91
500.97	454.06
501.14	409.59
501.32	451.72
501.49	498.53
501.67	369.80
501.84	430.66
502.02	383.85
502.20	470.45
502.37	397.89
502.55	475.13
502.72	409.59
502.90	407.25
503.07	381.51
503.25	379.17
503.43	386.19
503.60	514.92
503.78	369.80
503.95	404.91
504.13	365.12
504.30	411.93
504.48	458.74
504.65	404.91
504.83	475.13
505.01	463.43
505.18	407.25
505.36	362.78
505.53	440.02
505.71	423.64
505.88	468.11
506.06	451.72
506.23	383.85
506.41	390.87
506.58	425.98
506.76	411.93
506.93	421.30
507.11	433.00
507.28	402.57
507.46	395.55
507.63	440.02
507.81	386.19
507.98	456.40
508.16	388.53
508.33	353.42
508.50	402.57
508.68	421.30
508.85	414.27
509.03	346.40
509.20	395.55
509.38	395.55
509.55	482.15
509.73	449.38
509.90	451.72
510.08	320.65
510.25	418.96
510.42	421.30
510.60	388.53
510.77	388.53
510.95	482.15
511.12	425.98
511.30	463.43
511.47	414.27
511.64	461.09
511.82	486.83
511.99	411.93
512.17	341.72
512.34	388.53
512.51	369.80
512.69	379.17
512.86	538.32
513.04	418.96
513.21	395.55
513.38	376.83
513.56	437.68
513.73	369.80
513.90	397.89
514.08	440.02
514.25	407.25
514.43	372.15
514.60	348.74
514.77	390.87
514.95	489.17
515.12	344.06
515.29	416.62
515.47	447.04
515.64	400.23
515.81	423.64
515.99	409.59
516.16	491.51
516.33	400.23
516.51	479.81
516.68	425.98
516.85	407.25
517.03	472.79
517.20	435.34
517.37	440.02
517.54	402.57
517.72	400.23
517.89	461.09
518.06	379.17
518.24	397.89
518.41	444.70
518.58	454.06
518.75	423.64
518.93	379.17
519.10	447.04
519.27	418.96
519.45	454.06
519.62	440.02
519.79	409.59
519.96	404.91
520.14	421.30
520.31	547.69
520.48	372.15
520.65	414.27
520.83	421.30
521.00	425.98
521.17	451.72
521.34	430.66
521.52	451.72
521.69	447.04
521.86	400.23
522.03	411.93
522.20	463.43
522.38	447.04
522.55	404.91
522.72	423.64
522.89	437.68
523.07	437.68
523.24	332.36
523.41	397.89
523.58	456.40
523.75	369.80
523.92	372.15
524.10	428.32
524.27	451.72
524.44	313.63
524.61	517.26
524.78	484.49
524.96	451.72
525.13	447.04
525.30	402.57
525.47	381.51
525.64	404.91
525.81	365.12
525.98	393.21
526.16	428.32
526.33	409.59
526.50	376.83
526.67	318.31
526.84	414.27
527.01	386.19
527.18	372.15
527.36	386.19
527.53	369.80
527.70	493.85
527.87	418.96
528.04	414.27
528.21	390.87
528.38	435.34
528.55	484.49
528.72	369.80
528.89	444.70
529.07	409.59
529.24	409.59
529.41	425.98
529.58	442.36
529.75	393.21
529.92	486.83
530.09	440.02
530.26	395.55
530.43	369.80
530.60	372.15
530.77	344.06
530.94	376.83
531.11	449.38
531.28	402.57
531.46	437.68
531.63	407.25
531.80	458.74
531.97	430.66
532.14	486.83
532.31	411.93
532.48	472.79
532.65	449.38
532.82	444.70
532.99	386.19
533.16	535.98
533.33	404.91
533.50	330.02
533.67	388.53
533.84	327.68
534.01	337.04
534.18	430.66
534.35	468.11
534.52	437.68
534.69	472.79
534.86	447.04
535.03	381.51
535.20	404.91
535.37	379.17
535.54	409.59
535.71	353.42
535.88	442.36
536.05	404.91
536.22	407.25
536.38	341.72
536.55	407.25
536.72	433.00
536.89	451.72
537.06	414.27
537.23	418.96
537.40	433.00
537.57	449.38
537.74	430.66
537.91	414.27
538.08	365.12
538.25	456.40
538.42	430.66
538.59	404.91
538.75	416.62
538.92	416.62
539.09	458.74
539.26	407.25
539.43	388.53
539.60	390.87
539.77	425.98
539.94	383.85
540.11	475.13
540.28	435.34
540.44	407.25
540.61	374.49
540.78	402.57
540.95	386.19
541.12	465.77
541.29	425.98
541.46	395.55
541.62	423.64
541.79	407.25
541.96	367.46
542.13	423.64
542.30	369.80
542.47	418.96
542.63	386.19
542.80	418.96
542.97	397.89
543.14	458.74
543.31	458.74
543.48	388.53
543.64	390.87
543.81	430.66
543.98	477.47
544.15	470.45
544.32	404.91
544.48	414.27
544.65	386.19
544.82	393.21
544.99	388.53
545.16	449.38
545.32	409.59
545.49	435.34
545.66	442.36
545.83	437.68
546.00	444.70
546.16	435.34
546.33	402.57
546.50	433.00
546.67	435.34
546.83	411.93
547.00	381.51
547.17	435.34
547.34	414.27
547.50	383.85
547.67	383.85
547.84	416.62
548.00	402.57
548.17	451.72
548.34	390.87
548.51	477.47
548.67	454.06
548.84	400.23
549.01	433.00
549.18	430.66
549.34	409.59
549.51	463.43
549.68	416.62
549.84	465.77
550.01	425.98
550.18	535.98
550.34	428.32
550.51	433.00
550.68	505.56
550.84	421.30
551.01	477.47
551.18	472.79
551.34	414.27
551.51	440.02
551.68	369.80
551.84	418.96
552.01	437.68
552.18	458.74
552.34	449.38
552.51	407.25
552.68	423.64
552.84	332.36
553.01	451.72
553.18	425.98
553.34	435.34
553.51	458.74
553.67	379.17
553.84	421.30
554.01	362.78
554.17	498.53
554.34	402.57
554.51	367.46
554.67	482.15
554.84	447.04
555.00	444.70
555.17	482.15
555.33	376.83
555.50	468.11
555.67	407.25
555.83	430.66
556.00	407.25
556.16	554.71
556.33	437.68
556.50	447.04
556.66	411.93
556.83	451.72
556.99	454.06
557.16	397.89
557.32	442.36
557.49	416.62
557.65	442.36
557.82	369.80
557.98	402.57
558.15	407.25
558.32	411.93
558.48	374.49
558.65	451.72
558.81	435.34
558.98	365.12
559.14	421.30
559.31	435.34
559.47	498.53
559.64	367.46
559.80	402.57
559.97	374.49
560.13	479.81
560.30	376.83
560.46	407.25
560.63	383.85
560.79	421.30
560.96	418.96
561.12	400.23
561.29	374.49
561.45	435.34
561.61	409.59
561.78	505.56
561.94	407.25
562.11	418.96
562.27	414.27
562.44	451.72
562.60	388.53
562.77	404.91
562.93	444.70
563.10	416.62
563.26	440.02
563.42	397.89
563.59	416.62
563.75	444.70
563.92	433.00
564.08	433.00
564.24	369.80
564.41	454.06
564.57	409.59
564.74	414.27
564.90	390.87
565.07	400.23
565.23	437.68
565.39	374.49
565.56	451.72
565.72	407.25
565.88	433.00
566.05	463.43
566.21	372.15
566.38	435.34
566.54	386.19
566.70	423.64
566.87	433.00
567.03	400.23
567.19	486.83
567.36	454.06
567.52	456.40
567.68	454.06
567.85	444.70
568.01	421.30
568.17	404.91
568.34	418.96
568.50	440.02
568.66	407.25
568.83	454.06
568.99	353.42
569.15	477.47
569.32	369.80
569.48	435.34
569.64	423.64
569.81	353.42
569.97	404.91
570.13	393.21
570.30	435.34
570.46	454.06
570.62	395.55
570.78	386.19
570.95	409.59
571.11	444.70
571.27	411.93
571.43	388.53
571.60	397.89
571.76	367.46
571.92	358.10
572.09	414.27
572.25	409.59
572.41	437.68
572.57	451.72
572.74	442.36
572.90	388.53
573.06	414.27
573.22	468.11
573.38	437.68
573.55	409.59
573.71	379.17
573.87	402.57
574.03	477.47
574.20	486.83
574.36	463.43
574.52	376.83
574.68	393.21
574.84	454.06
575.01	414.27
575.17	463.43
575.33	430.66
575.49	479.81
575.65	416.62
575.82	407.25
575.98	472.79
576.14	421.30
576.30	430.66
576.46	468.11
576.62	440.02
576.79	404.91
576.95	463.43
577.11	388.53
577.27	451.72
577.43	437.68
577.59	477.47
577.75	409.59
577.92	388.53
578.08	430.66
578.24	428.32
578.40	430.66
578.56	458.74
578.72	491.51
578.88	440.02
579.04	400.23
579.21	369.80
579.37	461.09
579.53	456.40
579.69	425.98
579.85	454.06
580.01	491.51
580.17	390.87
580.33	500.87
580.49	442.36
580.65	423.64
580.82	458.74
580.98	383.85
581.14	435.34
581.30	393.21
581.46	440.02
581.62	423.64
581.78	411.93
581.94	411.93
582.10	425.98
582.26	442.36
582.42	404.91
582.58	456.40
582.74	414.27
582.90	456.40
583.06	425.98
583.22	411.93
583.38	376.83
583.54	421.30
583.70	397.89
583.86	486.83
584.02	435.34
584.18	479.81
584.34	379.17
584.50	388.53
584.66	322.99
584.82	355.76
584.98	411.93
585.14	454.06
585.30	423.64
585.46	447.04
585.62	454.06
585.78	351.08
585.94	430.66
586.10	418.96
586.26	367.46
586.42	430.66
586.58	482.15
586.74	397.89
586.90	379.17
587.06	444.70
587.22	421.30
587.38	425.98
587.54	444.70
587.70	388.53
587.86	442.36
588.02	379.17
588.18	409.59
588.34	409.59
588.49	458.74
588.65	421.30
588.81	449.38
588.97	379.17
589.13	383.85
589.29	407.25
589.45	381.51
589.61	402.57
589.77	479.81
589.93	437.68
590.08	355.76
590.24	397.89
590.40	411.93
590.56	454.06
590.72	407.25
590.88	416.62
591.04	362.78
591.20	374.49
591.35	550.03
591.51	341.72
591.67	306.61
591.83	374.49
591.99	461.09
592.15	362.78
592.31	423.64
592.46	400.23
592.62	454.06
592.78	369.80
592.94	454.06
593.10	428.32
593.26	388.53
593.41	444.70
593.57	388.53
593.73	409.59
593.89	409.59
594.05	411.93
594.20	390.87
594.36	444.70
594.52	423.64
594.68	404.91
594.84	418.96
594.99	507.90
595.15	451.72
595.31	486.83
595.47	416.62
595.62	437.68
595.78	456.40
595.94	367.46
596.10	428.32
596.25	414.27
596.41	397.89
596.57	416.62
596.73	449.38
596.88	479.81
597.04	416.62
597.20	402.57
597.36	444.70
597.51	355.76
597.67	428.32
597.83	444.70
597.99	451.72
598.14	430.66
598.30	411.93
598.46	458.74
598.61	440.02
598.77	458.74
598.93	407.25
599.09	418.96
599.24	402.57
599.40	465.77
599.56	372.15
599.71	397.89
599.87	416.62
600.03	409.59
600.18	397.89
600.34	383.85
600.50	397.89
600.65	409.59
600.81	407.25
600.97	395.55
601.12	388.53
601.28	437.68
601.44	442.36
601.59	425.98
601.75	409.59
601.91	407.25
602.06	360.44
602.22	470.45
602.37	425.98
602.53	376.83
602.69	395.55
602.84	369.80
603.00	416.62
603.16	390.87
603.31	416.62
603.47	465.77
603.62	430.66
603.78	447.04
603.94	461.09
604.09	433.00
604.25	423.64
604.40	458.74
604.56	400.23
604.71	475.13
604.87	365.12
605.03	428.32
605.18	374.49
605.34	461.09
605.49	367.46
605.65	484.49
605.80	395.55
605.96	381.51
606.12	411.93
606.27	400.23
606.43	456.40
606.58	435.34
606.74	386.19
606.89	416.62
607.05	454.06
607.20	411.93
607.36	447.04
607.51	440.02
607.67	393.21
607.82	423.64
607.98	482.15
608.13	397.89
608.29	456.40
608.44	449.38
608.60	433.00
608.75	435.34
608.91	414.27
609.06	351.08
609.22	440.02
609.37	430.66
609.53	423.64
609.68	393.21
609.84	393.21
609.99	379.17
610.15	390.87
