SpectraSuite Data File
++++++++++++++++++++++++++++++++++++
Date: Fri Oct 25 12:10:54 EDT 2013
User: price-jones
Dark Spectrum Present: No
Reference Spectrum Present: No
Number of Sampled Component Spectra: 1
Spectrometers: USB2+H05261
Integration Time (usec): 100000 (USB2+H05261)
Spectra Averaged: 1 (USB2+H05261)
Boxcar Smoothing: 0 (USB2+H05261)
Correct for Electrical Dark: No (USB2+H05261)
Strobe/Lamp Enabled: No (USB2+H05261)
Correct for Detector Non-linearity: No (USB2+H05261)
Correct for Stray Light: No (USB2+H05261)
Number of Pixels in Processed Spectrum: 2048
>>>>>Begin Processed Spectral Data<<<<<
365.73	315.97
365.92	315.97
366.12	315.97
366.32	306.61
366.52	241.08
366.72	203.63
366.91	252.78
367.11	259.80
367.31	234.05
367.51	243.42
367.70	222.35
367.90	250.44
368.10	238.73
368.30	210.65
368.49	273.84
368.69	269.16
368.89	220.01
369.09	318.31
369.28	259.80
369.48	306.61
369.68	245.76
369.87	306.61
370.07	341.72
370.27	285.55
370.47	344.06
370.66	299.59
370.86	381.51
371.06	407.25
371.25	465.77
371.45	374.49
371.65	430.66
371.84	428.32
372.04	348.74
372.24	337.04
372.44	402.57
372.63	411.93
372.83	458.74
373.03	444.70
373.22	414.27
373.42	444.70
373.62	311.29
373.81	372.15
374.01	423.64
374.21	418.96
374.40	404.91
374.60	376.83
374.79	454.06
374.99	449.38
375.19	400.23
375.38	437.68
375.58	421.30
375.78	397.89
375.97	442.36
376.17	507.90
376.37	416.62
376.56	468.11
376.76	402.57
376.95	416.62
377.15	407.25
377.35	339.38
377.54	454.06
377.74	400.23
377.93	407.25
378.13	397.89
378.33	407.25
378.52	402.57
378.72	388.53
378.91	449.38
379.11	414.27
379.31	423.64
379.50	374.49
379.70	437.68
379.89	458.74
380.09	545.34
380.28	416.62
380.48	351.08
380.68	344.06
380.87	351.08
381.07	390.87
381.26	475.13
381.46	409.59
381.65	447.04
381.85	470.45
382.04	435.34
382.24	365.12
382.43	430.66
382.63	418.96
382.83	365.12
383.02	521.94
383.22	437.68
383.41	332.36
383.61	379.17
383.80	388.53
384.00	435.34
384.19	447.04
384.39	390.87
384.58	344.06
384.78	437.68
384.97	456.40
385.17	402.57
385.36	402.57
385.56	414.27
385.75	390.87
385.95	442.36
386.14	390.87
386.34	374.49
386.53	416.62
386.72	348.74
386.92	407.25
387.11	353.42
387.31	447.04
387.50	416.62
387.70	369.80
387.89	386.19
388.09	341.72
388.28	402.57
388.48	416.62
388.67	404.91
388.86	425.98
389.06	372.15
389.25	433.00
389.45	376.83
389.64	428.32
389.84	440.02
390.03	390.87
390.22	397.89
390.42	498.53
390.61	440.02
390.81	433.00
391.00	411.93
391.19	407.25
391.39	320.65
391.58	411.93
391.78	458.74
391.97	421.30
392.16	472.79
392.36	409.59
392.55	435.34
392.75	425.98
392.94	337.04
393.13	470.45
393.33	346.40
393.52	402.57
393.71	411.93
393.91	442.36
394.10	390.87
394.29	425.98
394.49	416.62
394.68	402.57
394.88	433.00
395.07	386.19
395.26	383.85
395.46	409.59
395.65	402.57
395.84	393.21
396.04	461.09
396.23	421.30
396.42	442.36
396.62	400.23
396.81	383.85
397.00	447.04
397.19	433.00
397.39	421.30
397.58	449.38
397.77	381.51
397.97	482.15
398.16	440.02
398.35	433.00
398.55	372.15
398.74	367.46
398.93	395.55
399.12	428.32
399.32	435.34
399.51	374.49
399.70	372.15
399.90	376.83
400.09	407.25
400.28	454.06
400.47	372.15
400.67	374.49
400.86	477.47
401.05	367.46
401.24	388.53
401.44	475.13
401.63	390.87
401.82	383.85
402.01	372.15
402.21	355.76
402.40	416.62
402.59	369.80
402.78	402.57
402.97	421.30
403.17	351.08
403.36	486.83
403.55	362.78
403.74	374.49
403.93	435.34
404.13	393.21
404.32	367.46
404.51	379.17
404.70	386.19
404.89	484.49
405.09	477.47
405.28	381.51
405.47	425.98
405.66	400.23
405.85	479.81
406.05	390.87
406.24	414.27
406.43	348.74
406.62	456.40
406.81	407.25
407.00	393.21
407.20	418.96
407.39	407.25
407.58	411.93
407.77	388.53
407.96	430.66
408.15	421.30
408.34	470.45
408.54	414.27
408.73	425.98
408.92	503.22
409.11	411.93
409.30	409.59
409.49	365.12
409.68	465.77
409.87	379.17
410.07	409.59
410.26	425.98
410.45	435.34
410.64	477.47
410.83	456.40
411.02	407.25
411.21	332.36
411.40	425.98
411.59	421.30
411.78	521.94
411.98	386.19
412.17	414.27
412.36	430.66
412.55	400.23
412.74	472.79
412.93	470.45
413.12	402.57
413.31	421.30
413.50	365.12
413.69	421.30
413.88	468.11
414.07	428.32
414.26	397.89
414.45	390.87
414.64	402.57
414.83	456.40
415.02	402.57
415.22	454.06
415.41	353.42
415.60	379.17
415.79	425.98
415.98	393.21
416.17	395.55
416.36	374.49
416.55	393.21
416.74	376.83
416.93	479.81
417.12	414.27
417.31	411.93
417.50	400.23
417.69	437.68
417.88	397.89
418.07	442.36
418.26	407.25
418.45	344.06
418.64	463.43
418.83	449.38
419.02	400.23
419.21	390.87
419.39	409.59
419.58	369.80
419.77	334.70
419.96	395.55
420.15	386.19
420.34	435.34
420.53	367.46
420.72	409.59
420.91	507.90
421.10	444.70
421.29	411.93
421.48	430.66
421.67	379.17
421.86	421.30
422.05	376.83
422.24	372.15
422.43	416.62
422.61	437.68
422.80	397.89
422.99	423.64
423.18	388.53
423.37	461.09
423.56	407.25
423.75	409.59
423.94	369.80
424.13	407.25
424.32	348.74
424.50	437.68
424.69	430.66
424.88	484.49
425.07	383.85
425.26	348.74
425.45	388.53
425.64	425.98
425.83	402.57
426.01	444.70
426.20	334.70
426.39	362.78
426.58	414.27
426.77	390.87
426.96	393.21
427.15	351.08
427.33	407.25
427.52	433.00
427.71	418.96
427.90	409.59
428.09	437.68
428.28	362.78
428.46	383.85
428.65	397.89
428.84	444.70
429.03	463.43
429.22	414.27
429.40	358.10
429.59	386.19
429.78	423.64
429.97	423.64
430.16	395.55
430.34	393.21
430.53	355.76
430.72	444.70
430.91	395.55
431.10	397.89
431.28	418.96
431.47	414.27
431.66	320.65
431.85	440.02
432.03	388.53
432.22	486.83
432.41	447.04
432.60	433.00
432.79	444.70
432.97	367.46
433.16	444.70
433.35	383.85
433.54	376.83
433.72	437.68
433.91	402.57
434.10	379.17
434.28	400.23
434.47	397.89
434.66	407.25
434.85	388.53
435.03	428.32
435.22	402.57
435.41	433.00
435.59	435.34
435.78	428.32
435.97	395.55
436.16	416.62
436.34	381.51
436.53	465.77
436.72	479.81
436.90	411.93
437.09	416.62
437.28	388.53
437.46	430.66
437.65	402.57
437.84	418.96
438.02	425.98
438.21	461.09
438.40	442.36
438.58	414.27
438.77	489.17
438.96	437.68
439.14	330.02
439.33	456.40
439.52	433.00
439.70	365.12
439.89	475.13
440.08	458.74
440.26	379.17
440.45	360.44
440.63	390.87
440.82	498.53
441.01	440.02
441.19	444.70
441.38	430.66
441.57	411.93
441.75	531.30
441.94	379.17
442.12	442.36
442.31	465.77
442.50	390.87
442.68	451.72
442.87	383.85
443.05	451.72
443.24	337.04
443.43	440.02
443.61	447.04
443.80	418.96
443.98	458.74
444.17	407.25
444.35	451.72
444.54	351.08
444.73	367.46
444.91	449.38
445.10	418.96
445.28	393.21
445.47	409.59
445.65	395.55
445.84	411.93
446.02	409.59
446.21	451.72
446.39	402.57
446.58	423.64
446.77	418.96
446.95	407.25
447.14	433.00
447.32	472.79
447.51	402.57
447.69	479.81
447.88	458.74
448.06	442.36
448.25	367.46
448.43	456.40
448.62	418.96
448.80	472.79
448.99	475.13
449.17	433.00
449.36	374.49
449.54	461.09
449.73	404.91
449.91	472.79
450.10	390.87
450.28	491.51
450.46	468.11
450.65	390.87
450.83	477.47
451.02	430.66
451.20	374.49
451.39	411.93
451.57	407.25
451.76	472.79
451.94	407.25
452.13	400.23
452.31	442.36
452.49	447.04
452.68	430.66
452.86	425.98
453.05	486.83
453.23	430.66
453.42	447.04
453.60	395.55
453.78	477.47
453.97	402.57
454.15	397.89
454.34	442.36
454.52	444.70
454.70	433.00
454.89	411.93
455.07	383.85
455.26	461.09
455.44	430.66
455.62	435.34
455.81	411.93
455.99	440.02
456.17	456.40
456.36	402.57
456.54	463.43
456.73	388.53
456.91	376.83
457.09	444.70
457.28	423.64
457.46	428.32
457.64	409.59
457.83	423.64
458.01	425.98
458.19	344.06
458.38	372.15
458.56	383.85
458.74	402.57
458.93	390.87
459.11	402.57
459.29	444.70
459.48	430.66
459.66	519.60
459.84	463.43
460.03	454.06
460.21	463.43
460.39	374.49
460.57	386.19
460.76	486.83
460.94	451.72
461.12	409.59
461.31	404.91
461.49	411.93
461.67	428.32
461.85	402.57
462.04	372.15
462.22	863.66
462.40	428.32
462.59	397.89
462.77	475.13
462.95	411.93
463.13	477.47
463.32	351.08
463.50	423.64
463.68	458.74
463.86	433.00
464.05	381.51
464.23	482.15
464.41	477.47
464.59	388.53
464.78	451.72
464.96	500.87
465.14	440.02
465.32	442.36
465.50	414.27
465.69	484.49
465.87	355.76
466.05	395.55
466.23	369.80
466.41	409.59
466.60	402.57
466.78	428.32
466.96	465.77
467.14	367.46
467.32	414.27
467.51	325.33
467.69	376.83
467.87	491.51
468.05	416.62
468.23	458.74
468.41	409.59
468.60	425.98
468.78	395.55
468.96	449.38
469.14	407.25
469.32	442.36
469.50	369.80
469.69	449.38
469.87	402.57
470.05	402.57
470.23	430.66
470.41	484.49
470.59	376.83
470.77	440.02
470.95	435.34
471.14	418.96
471.32	390.87
471.50	435.34
471.68	362.78
471.86	458.74
472.04	369.80
472.22	393.21
472.40	404.91
472.58	430.66
472.77	386.19
472.95	440.02
473.13	440.02
473.31	475.13
473.49	330.02
473.67	402.57
473.85	407.25
474.03	416.62
474.21	372.15
474.39	383.85
474.57	397.89
474.75	402.57
474.93	479.81
475.12	411.93
475.30	409.59
475.48	388.53
475.66	407.25
475.84	386.19
476.02	379.17
476.20	442.36
476.38	381.51
476.56	411.93
476.74	348.74
476.92	414.27
477.10	425.98
477.28	423.64
477.46	393.21
477.64	449.38
477.82	428.32
478.00	461.09
478.18	447.04
478.36	437.68
478.54	355.76
478.72	437.68
478.90	430.66
479.08	470.45
479.26	362.78
479.44	498.53
479.62	407.25
479.80	351.08
479.98	425.98
480.16	437.68
480.34	458.74
480.52	271.50
480.70	421.30
480.88	444.70
481.06	470.45
481.24	353.42
481.41	390.87
481.59	505.56
481.77	425.98
481.95	388.53
482.13	433.00
482.31	442.36
482.49	381.51
482.67	425.98
482.85	440.02
483.03	409.59
483.21	400.23
483.39	407.25
483.57	493.85
483.74	393.21
483.92	379.17
484.10	435.34
484.28	435.34
484.46	428.32
484.64	451.72
484.82	456.40
485.00	447.04
485.18	428.32
485.35	463.43
485.53	433.00
485.71	484.49
485.89	351.08
486.07	425.98
486.25	461.09
486.43	381.51
486.61	433.00
486.78	407.25
486.96	397.89
487.14	362.78
487.32	402.57
487.50	404.91
487.68	402.57
487.85	407.25
488.03	388.53
488.21	381.51
488.39	444.70
488.57	449.38
488.75	397.89
488.92	465.77
489.10	344.06
489.28	451.72
489.46	339.38
489.64	407.25
489.81	433.00
489.99	454.06
490.17	390.87
490.35	477.47
490.53	409.59
490.70	458.74
490.88	409.59
491.06	416.62
491.24	463.43
491.41	425.98
491.59	348.74
491.77	348.74
491.95	430.66
492.13	418.96
492.30	376.83
492.48	430.66
492.66	416.62
492.84	468.11
493.01	423.64
493.19	379.17
493.37	374.49
493.54	447.04
493.72	425.98
493.90	411.93
494.08	433.00
494.25	447.04
494.43	423.64
494.61	404.91
494.79	486.83
494.96	418.96
495.14	341.72
495.32	390.87
495.49	379.17
495.67	421.30
495.85	421.30
496.02	379.17
496.20	451.72
496.38	437.68
496.55	390.87
496.73	458.74
496.91	425.98
497.09	456.40
497.26	418.96
497.44	386.19
497.62	372.15
497.79	451.72
497.97	393.21
498.14	461.09
498.32	369.80
498.50	358.10
498.67	416.62
498.85	400.23
499.03	386.19
499.20	430.66
499.38	339.38
499.56	397.89
499.73	472.79
499.91	498.53
500.08	475.13
500.26	421.30
500.44	365.12
500.61	416.62
500.79	404.91
500.97	404.91
501.14	437.68
501.32	470.45
501.49	376.83
501.67	367.46
501.84	416.62
502.02	337.04
502.20	362.78
502.37	433.00
502.55	411.93
502.72	395.55
502.90	393.21
503.07	447.04
503.25	407.25
503.43	414.27
503.60	404.91
503.78	454.06
503.95	428.32
504.13	409.59
504.30	461.09
504.48	479.81
504.65	423.64
504.83	390.87
505.01	388.53
505.18	334.70
505.36	437.68
505.53	500.87
505.71	428.32
505.88	393.21
506.06	409.59
506.23	416.62
506.41	440.02
506.58	433.00
506.76	409.59
506.93	444.70
507.11	421.30
507.28	358.10
507.46	374.49
507.63	444.70
507.81	381.51
507.98	477.47
508.16	376.83
508.33	449.38
508.50	421.30
508.68	517.26
508.85	458.74
509.03	344.06
509.20	423.64
509.38	423.64
509.55	416.62
509.73	477.47
509.90	524.28
510.08	416.62
510.25	440.02
510.42	402.57
510.60	428.32
510.77	442.36
510.95	444.70
511.12	421.30
511.30	461.09
511.47	411.93
511.64	437.68
511.82	386.19
511.99	386.19
512.17	456.40
512.34	489.17
512.51	440.02
512.69	437.68
512.86	470.45
513.04	360.44
513.21	362.78
513.38	463.43
513.56	374.49
513.73	402.57
513.90	372.15
514.08	423.64
514.25	449.38
514.43	360.44
514.60	409.59
514.77	360.44
514.95	376.83
515.12	374.49
515.29	388.53
515.47	433.00
515.64	447.04
515.81	339.38
515.99	479.81
516.16	430.66
516.33	428.32
516.51	435.34
516.68	461.09
516.85	414.27
517.03	369.80
517.20	463.43
517.37	470.45
517.54	423.64
517.72	421.30
517.89	372.15
518.06	390.87
518.24	472.79
518.41	423.64
518.58	430.66
518.75	447.04
518.93	376.83
519.10	425.98
519.27	421.30
519.45	442.36
519.62	362.78
519.79	409.59
519.96	437.68
520.14	440.02
520.31	423.64
520.48	407.25
520.65	454.06
520.83	379.17
521.00	425.98
521.17	421.30
521.34	440.02
521.52	447.04
521.69	414.27
521.86	423.64
522.03	395.55
522.20	404.91
522.38	393.21
522.55	482.15
522.72	437.68
522.89	372.15
523.07	479.81
523.24	374.49
523.41	454.06
523.58	447.04
523.75	379.17
523.92	409.59
524.10	372.15
524.27	390.87
524.44	416.62
524.61	482.15
524.78	353.42
524.96	423.64
525.13	367.46
525.30	442.36
525.47	411.93
525.64	402.57
525.81	463.43
525.98	442.36
526.16	395.55
526.33	468.11
526.50	423.64
526.67	440.02
526.84	334.70
527.01	374.49
527.18	416.62
527.36	407.25
527.53	404.91
527.70	402.57
527.87	351.08
528.04	400.23
528.21	433.00
528.38	435.34
528.55	440.02
528.72	472.79
528.89	524.28
529.07	447.04
529.24	430.66
529.41	463.43
529.58	411.93
529.75	416.62
529.92	449.38
530.09	442.36
530.26	409.59
530.43	416.62
530.60	383.85
530.77	367.46
530.94	425.98
531.11	454.06
531.28	386.19
531.46	449.38
531.63	416.62
531.80	493.85
531.97	414.27
532.14	395.55
532.31	418.96
532.48	433.00
532.65	430.66
532.82	397.89
532.99	416.62
533.16	423.64
533.33	435.34
533.50	435.34
533.67	404.91
533.84	444.70
534.01	423.64
534.18	367.46
534.35	374.49
534.52	381.51
534.69	435.34
534.86	454.06
535.03	425.98
535.20	433.00
535.37	397.89
535.54	404.91
535.71	458.74
535.88	416.62
536.05	463.43
536.22	404.91
536.38	421.30
536.55	414.27
536.72	409.59
536.89	505.56
537.06	416.62
537.23	444.70
537.40	437.68
537.57	358.10
537.74	430.66
537.91	423.64
538.08	475.13
538.25	465.77
538.42	330.02
538.59	512.58
538.75	428.32
538.92	442.36
539.09	433.00
539.26	397.89
539.43	437.68
539.60	477.47
539.77	386.19
539.94	379.17
540.11	355.76
540.28	421.30
540.44	404.91
540.61	390.87
540.78	369.80
540.95	390.87
541.12	444.70
541.29	421.30
541.46	442.36
541.62	409.59
541.79	440.02
541.96	411.93
542.13	470.45
542.30	400.23
542.47	372.15
542.63	407.25
542.80	461.09
542.97	402.57
543.14	393.21
543.31	381.51
543.48	402.57
543.64	449.38
543.81	402.57
543.98	479.81
544.15	421.30
544.32	442.36
544.48	491.51
544.65	437.68
544.82	407.25
544.99	418.96
545.16	414.27
545.32	418.96
545.49	423.64
545.66	444.70
545.83	418.96
546.00	472.79
546.16	421.30
546.33	400.23
546.50	409.59
546.67	409.59
546.83	421.30
547.00	421.30
547.17	454.06
547.34	351.08
547.50	440.02
547.67	407.25
547.84	383.85
548.00	400.23
548.17	451.72
548.34	428.32
548.51	423.64
548.67	477.47
548.84	437.68
549.01	454.06
549.18	416.62
549.34	475.13
549.51	416.62
549.68	416.62
549.84	355.76
550.01	423.64
550.18	479.81
550.34	472.79
550.51	489.17
550.68	435.34
550.84	425.98
551.01	355.76
551.18	400.23
551.34	484.49
551.51	404.91
551.68	388.53
551.84	425.98
552.01	397.89
552.18	407.25
552.34	496.19
552.51	388.53
552.68	418.96
552.84	444.70
553.01	465.77
553.18	425.98
553.34	407.25
553.51	465.77
553.67	414.27
553.84	437.68
554.01	444.70
554.17	463.43
554.34	430.66
554.51	447.04
554.67	507.90
554.84	390.87
555.00	411.93
555.17	470.45
555.33	411.93
555.50	421.30
555.67	451.72
555.83	461.09
556.00	437.68
556.16	578.11
556.33	510.24
556.50	411.93
556.66	433.00
556.83	339.38
556.99	381.51
557.16	367.46
557.32	341.72
557.49	334.70
557.65	444.70
557.82	428.32
557.98	428.32
558.15	390.87
558.32	407.25
558.48	400.23
558.65	348.74
558.81	376.83
558.98	381.51
559.14	538.32
559.31	475.13
559.47	418.96
559.64	374.49
559.80	395.55
559.97	395.55
560.13	404.91
560.30	362.78
560.46	388.53
560.63	400.23
560.79	418.96
560.96	358.10
561.12	421.30
561.29	407.25
561.45	409.59
561.61	440.02
561.78	477.47
561.94	344.06
562.11	416.62
562.27	428.32
562.44	404.91
562.60	395.55
562.77	428.32
562.93	463.43
563.10	383.85
563.26	454.06
563.42	402.57
563.59	479.81
563.75	428.32
563.92	458.74
564.08	421.30
564.24	414.27
564.41	484.49
564.57	386.19
564.74	463.43
564.90	411.93
565.07	339.38
565.23	458.74
565.39	458.74
565.56	456.40
565.72	461.09
565.88	351.08
566.05	416.62
566.21	477.47
566.38	388.53
566.54	444.70
566.70	442.36
566.87	458.74
567.03	451.72
567.19	423.64
567.36	404.91
567.52	379.17
567.68	444.70
567.85	390.87
568.01	437.68
568.17	360.44
568.34	393.21
568.50	428.32
568.66	404.91
568.83	472.79
568.99	468.11
569.15	477.47
569.32	402.57
569.48	362.78
569.64	388.53
569.81	367.46
569.97	458.74
570.13	437.68
570.30	442.36
570.46	330.02
570.62	402.57
570.78	325.33
570.95	416.62
571.11	433.00
571.27	437.68
571.43	491.51
571.60	383.85
571.76	484.49
571.92	386.19
572.09	418.96
572.25	468.11
572.41	472.79
572.57	407.25
572.74	493.85
572.90	465.77
573.06	435.34
573.22	400.23
573.38	395.55
573.55	332.36
573.71	430.66
573.87	416.62
574.03	390.87
574.20	414.27
574.36	468.11
574.52	411.93
574.68	447.04
574.84	425.98
575.01	383.85
575.17	383.85
575.33	440.02
575.49	411.93
575.65	475.13
575.82	493.85
575.98	479.81
576.14	418.96
576.30	411.93
576.46	376.83
576.62	411.93
576.79	383.85
576.95	451.72
577.11	414.27
577.27	393.21
577.43	454.06
577.59	433.00
577.75	454.06
577.92	353.42
578.08	386.19
578.24	402.57
578.40	423.64
578.56	503.22
578.72	428.32
578.88	400.23
579.04	393.21
579.21	454.06
579.37	411.93
579.53	421.30
579.69	447.04
579.85	416.62
580.01	386.19
580.17	365.12
580.33	348.74
580.49	435.34
580.65	397.89
580.82	374.49
580.98	379.17
581.14	409.59
581.30	404.91
581.46	461.09
581.62	395.55
581.78	409.59
581.94	430.66
582.10	437.68
582.26	388.53
582.42	332.36
582.58	397.89
582.74	397.89
582.90	433.00
583.06	430.66
583.22	402.57
583.38	428.32
583.54	400.23
583.70	425.98
583.86	397.89
584.02	437.68
584.18	440.02
584.34	447.04
584.50	411.93
584.66	425.98
584.82	435.34
584.98	372.15
585.14	390.87
585.30	400.23
585.46	379.17
585.62	409.59
585.78	416.62
585.94	468.11
586.10	395.55
586.26	458.74
586.42	402.57
586.58	477.47
586.74	430.66
586.90	489.17
587.06	388.53
587.22	454.06
587.38	404.91
587.54	423.64
587.70	367.46
587.86	425.98
588.02	440.02
588.18	397.89
588.34	383.85
588.49	395.55
588.65	416.62
588.81	397.89
588.97	339.38
589.13	423.64
589.29	409.59
589.45	505.56
589.61	421.30
589.77	519.60
589.93	407.25
590.08	353.42
590.24	428.32
590.40	386.19
590.56	388.53
590.72	437.68
590.88	346.40
591.04	407.25
591.20	411.93
591.35	498.53
591.51	430.66
591.67	383.85
591.83	470.45
591.99	367.46
592.15	449.38
592.31	395.55
592.46	465.77
592.62	451.72
592.78	440.02
592.94	376.83
593.10	388.53
593.26	395.55
593.41	390.87
593.57	435.34
593.73	383.85
593.89	468.11
594.05	430.66
594.20	468.11
594.36	433.00
594.52	423.64
594.68	479.81
594.84	500.87
594.99	465.77
595.15	400.23
595.31	470.45
595.47	461.09
595.62	425.98
595.78	477.47
595.94	423.64
596.10	496.19
596.25	383.85
596.41	407.25
596.57	376.83
596.73	433.00
596.88	444.70
597.04	320.65
597.20	390.87
597.36	470.45
597.51	454.06
597.67	379.17
597.83	390.87
597.99	440.02
598.14	444.70
598.30	425.98
598.46	470.45
598.61	449.38
598.77	386.19
598.93	486.83
599.09	334.70
599.24	416.62
599.40	479.81
599.56	390.87
599.71	395.55
599.87	409.59
600.03	444.70
600.18	430.66
600.34	489.17
600.50	477.47
600.65	369.80
600.81	362.78
600.97	365.12
601.12	400.23
601.28	489.17
601.44	418.96
601.59	456.40
601.75	409.59
601.91	433.00
602.06	437.68
602.22	512.58
602.37	339.38
602.53	395.55
602.69	418.96
602.84	369.80
603.00	393.21
603.16	430.66
603.31	477.47
603.47	468.11
603.62	442.36
603.78	451.72
603.94	416.62
604.09	447.04
604.25	360.44
604.40	423.64
604.56	367.46
604.71	407.25
604.87	421.30
605.03	376.83
605.18	430.66
605.34	425.98
605.49	397.89
605.65	334.70
605.80	437.68
605.96	477.47
606.12	514.92
606.27	433.00
606.43	376.83
606.58	365.12
606.74	306.61
606.89	425.98
607.05	468.11
607.20	416.62
607.36	407.25
607.51	423.64
607.67	433.00
607.82	390.87
607.98	470.45
608.13	393.21
608.29	348.74
608.44	383.85
608.60	433.00
608.75	477.47
608.91	407.25
609.06	489.17
609.22	498.53
609.37	386.19
609.53	421.30
609.68	414.27
609.84	444.70
609.99	332.36
610.15	433.00
