SpectraSuite Data File
++++++++++++++++++++++++++++++++++++
Date: Fri Oct 25 12:10:14 EDT 2013
User: price-jones
Dark Spectrum Present: No
Reference Spectrum Present: No
Number of Sampled Component Spectra: 1
Spectrometers: USB2+H05261
Integration Time (usec): 100000 (USB2+H05261)
Spectra Averaged: 1 (USB2+H05261)
Boxcar Smoothing: 0 (USB2+H05261)
Correct for Electrical Dark: No (USB2+H05261)
Strobe/Lamp Enabled: No (USB2+H05261)
Correct for Detector Non-linearity: No (USB2+H05261)
Correct for Stray Light: No (USB2+H05261)
Number of Pixels in Processed Spectrum: 2048
>>>>>Begin Processed Spectral Data<<<<<
365.73	351.08
365.92	351.08
366.12	351.08
366.32	252.78
366.52	245.76
366.72	217.67
366.91	269.16
367.11	236.39
367.31	245.76
367.51	208.31
367.70	252.78
367.90	255.12
368.10	212.99
368.30	234.05
368.49	250.44
368.69	243.42
368.89	217.67
369.09	301.93
369.28	287.89
369.48	278.52
369.68	278.52
369.87	386.19
370.07	383.85
370.27	421.30
370.47	358.10
370.66	358.10
370.86	294.91
371.06	358.10
371.25	468.11
371.45	360.44
371.65	447.04
371.84	418.96
372.04	400.23
372.24	397.89
372.44	393.21
372.63	423.64
372.83	402.57
373.03	463.43
373.22	393.21
373.42	374.49
373.62	414.27
373.81	386.19
374.01	442.36
374.21	440.02
374.40	374.49
374.60	418.96
374.79	404.91
374.99	390.87
375.19	456.40
375.38	458.74
375.58	468.11
375.78	379.17
375.97	437.68
376.17	510.24
376.37	390.87
376.56	435.34
376.76	390.87
376.95	358.10
377.15	425.98
377.35	423.64
377.54	433.00
377.74	402.57
377.93	353.42
378.13	416.62
378.33	404.91
378.52	388.53
378.72	393.21
378.91	411.93
379.11	442.36
379.31	362.78
379.50	353.42
379.70	449.38
379.89	435.34
380.09	266.82
380.28	376.83
380.48	409.59
380.68	395.55
380.87	404.91
381.07	463.43
381.26	463.43
381.46	421.30
381.65	416.62
381.85	475.13
382.04	372.15
382.24	491.51
382.43	320.65
382.63	433.00
382.83	409.59
383.02	344.06
383.22	416.62
383.41	341.72
383.61	362.78
383.80	400.23
384.00	390.87
384.19	454.06
384.39	383.85
384.58	404.91
384.78	407.25
384.97	437.68
385.17	393.21
385.36	334.70
385.56	442.36
385.75	348.74
385.95	437.68
386.14	369.80
386.34	358.10
386.53	388.53
386.72	456.40
386.92	454.06
387.11	369.80
387.31	402.57
387.50	341.72
387.70	379.17
387.89	423.64
388.09	369.80
388.28	407.25
388.48	400.23
388.67	418.96
388.86	404.91
389.06	351.08
389.25	402.57
389.45	458.74
389.64	390.87
389.84	388.53
390.03	442.36
390.22	428.32
390.42	458.74
390.61	393.21
390.81	376.83
391.00	416.62
391.19	388.53
391.39	433.00
391.58	353.42
391.78	388.53
391.97	451.72
392.16	458.74
392.36	444.70
392.55	468.11
392.75	409.59
392.94	383.85
393.13	365.12
393.33	411.93
393.52	362.78
393.71	374.49
393.91	393.21
394.10	421.30
394.29	330.02
394.49	421.30
394.68	428.32
394.88	437.68
395.07	409.59
395.26	365.12
395.46	411.93
395.65	390.87
395.84	397.89
396.04	421.30
396.23	416.62
396.42	374.49
396.62	388.53
396.81	388.53
397.00	393.21
397.19	374.49
397.39	311.29
397.58	425.98
397.77	353.42
397.97	421.30
398.16	390.87
398.35	381.51
398.55	425.98
398.74	444.70
398.93	411.93
399.12	451.72
399.32	475.13
399.51	458.74
399.70	440.02
399.90	372.15
400.09	489.17
400.28	369.80
400.47	421.30
400.67	435.34
400.86	435.34
401.05	449.38
401.24	376.83
401.44	458.74
401.63	468.11
401.82	440.02
402.01	470.45
402.21	458.74
402.40	416.62
402.59	404.91
402.78	425.98
402.97	393.21
403.17	395.55
403.36	409.59
403.55	442.36
403.74	444.70
403.93	395.55
404.13	411.93
404.32	404.91
404.51	341.72
404.70	430.66
404.89	404.91
405.09	444.70
405.28	395.55
405.47	430.66
405.66	461.09
405.85	463.43
406.05	461.09
406.24	435.34
406.43	404.91
406.62	437.68
406.81	456.40
407.00	507.90
407.20	463.43
407.39	379.17
407.58	397.89
407.77	386.19
407.96	379.17
408.15	421.30
408.34	379.17
408.54	397.89
408.73	395.55
408.92	393.21
409.11	425.98
409.30	390.87
409.49	393.21
409.68	379.17
409.87	376.83
410.07	404.91
410.26	407.25
410.45	404.91
410.64	444.70
410.83	423.64
411.02	330.02
411.21	433.00
411.40	440.02
411.59	444.70
411.78	435.34
411.98	421.30
412.17	421.30
412.36	397.89
412.55	449.38
412.74	362.78
412.93	461.09
413.12	430.66
413.31	365.12
413.50	414.27
413.69	454.06
413.88	409.59
414.07	395.55
414.26	428.32
414.45	425.98
414.64	430.66
414.83	463.43
415.02	447.04
415.22	465.77
415.41	360.44
415.60	402.57
415.79	393.21
415.98	477.47
416.17	416.62
416.36	451.72
416.55	388.53
416.74	393.21
416.93	435.34
417.12	435.34
417.31	451.72
417.50	390.87
417.69	489.17
417.88	393.21
418.07	388.53
418.26	416.62
418.45	449.38
418.64	451.72
418.83	428.32
419.02	442.36
419.21	379.17
419.39	456.40
419.58	479.81
419.77	388.53
419.96	470.45
420.15	468.11
420.34	437.68
420.53	437.68
420.72	407.25
420.91	414.27
421.10	404.91
421.29	390.87
421.48	411.93
421.67	411.93
421.86	456.40
422.05	437.68
422.24	451.72
422.43	435.34
422.61	433.00
422.80	430.66
422.99	376.83
423.18	390.87
423.37	367.46
423.56	437.68
423.75	444.70
423.94	362.78
424.13	400.23
424.32	437.68
424.50	379.17
424.69	440.02
424.88	451.72
425.07	339.38
425.26	383.85
425.45	435.34
425.64	416.62
425.83	386.19
426.01	383.85
426.20	440.02
426.39	397.89
426.58	458.74
426.77	362.78
426.96	479.81
427.15	388.53
427.33	390.87
427.52	477.47
427.71	428.32
427.90	383.85
428.09	386.19
428.28	423.64
428.46	456.40
428.65	416.62
428.84	386.19
429.03	475.13
429.22	409.59
429.40	348.74
429.59	348.74
429.78	395.55
429.97	400.23
430.16	442.36
430.34	351.08
430.53	437.68
430.72	442.36
430.91	421.30
431.10	386.19
431.28	332.36
431.47	414.27
431.66	510.24
431.85	430.66
432.03	414.27
432.22	442.36
432.41	402.57
432.60	463.43
432.79	444.70
432.97	414.27
433.16	388.53
433.35	404.91
433.54	388.53
433.72	414.27
433.91	437.68
434.10	416.62
434.28	381.51
434.47	379.17
434.66	418.96
434.85	393.21
435.03	440.02
435.22	430.66
435.41	454.06
435.59	477.47
435.78	409.59
435.97	383.85
436.16	386.19
436.34	374.49
436.53	395.55
436.72	472.79
436.90	421.30
437.09	409.59
437.28	510.24
437.46	470.45
437.65	365.12
437.84	423.64
438.02	475.13
438.21	477.47
438.40	454.06
438.58	362.78
438.77	369.80
438.96	414.27
439.14	418.96
439.33	444.70
439.52	411.93
439.70	421.30
439.89	416.62
440.08	404.91
440.26	388.53
440.45	388.53
440.63	496.19
440.82	435.34
441.01	433.00
441.19	402.57
441.38	402.57
441.57	444.70
441.75	475.13
441.94	425.98
442.12	397.89
442.31	428.32
442.50	341.72
442.68	449.38
442.87	395.55
443.05	390.87
443.24	440.02
443.43	383.85
443.61	456.40
443.80	402.57
443.98	411.93
444.17	418.96
444.35	400.23
444.54	414.27
444.73	430.66
444.91	433.00
445.10	421.30
445.28	334.70
445.47	428.32
445.65	388.53
445.84	358.10
446.02	418.96
446.21	365.12
446.39	390.87
446.58	498.53
446.77	411.93
446.95	475.13
447.14	369.80
447.32	472.79
447.51	409.59
447.69	472.79
447.88	433.00
448.06	463.43
448.25	423.64
448.43	423.64
448.62	381.51
448.80	404.91
448.99	444.70
449.17	411.93
449.36	381.51
449.54	421.30
449.73	449.38
449.91	451.72
450.10	414.27
450.28	425.98
450.46	491.51
450.65	404.91
450.83	477.47
451.02	358.10
451.20	402.57
451.39	430.66
451.57	430.66
451.76	386.19
451.94	365.12
452.13	390.87
452.31	395.55
452.49	362.78
452.68	334.70
452.86	376.83
453.05	486.83
453.23	369.80
453.42	404.91
453.60	437.68
453.78	379.17
453.97	411.93
454.15	437.68
454.34	421.30
454.52	416.62
454.70	447.04
454.89	463.43
455.07	416.62
455.26	418.96
455.44	486.83
455.62	428.32
455.81	376.83
455.99	362.78
456.17	463.43
456.36	383.85
456.54	397.89
456.73	423.64
456.91	383.85
457.09	418.96
457.28	416.62
457.46	395.55
457.64	372.15
457.83	423.64
458.01	365.12
458.19	407.25
458.38	344.06
458.56	435.34
458.74	458.74
458.93	409.59
459.11	442.36
459.29	344.06
459.48	348.74
459.66	449.38
459.84	369.80
460.03	477.47
460.21	376.83
460.39	367.46
460.57	369.80
460.76	430.66
460.94	381.51
461.12	496.19
461.31	435.34
461.49	440.02
461.67	411.93
461.85	409.59
462.04	416.62
462.22	725.57
462.40	414.27
462.59	404.91
462.77	400.23
462.95	414.27
463.13	353.42
463.32	447.04
463.50	425.98
463.68	351.08
463.86	411.93
464.05	320.65
464.23	451.72
464.41	358.10
464.59	400.23
464.78	402.57
464.96	383.85
465.14	423.64
465.32	411.93
465.50	416.62
465.69	402.57
465.87	369.80
466.05	416.62
466.23	444.70
466.41	409.59
466.60	341.72
466.78	358.10
466.96	402.57
467.14	447.04
467.32	465.77
467.51	397.89
467.69	465.77
467.87	444.70
468.05	353.42
468.23	400.23
468.41	454.06
468.60	393.21
468.78	423.64
468.96	484.49
469.14	360.44
469.32	374.49
469.50	395.55
469.69	463.43
469.87	447.04
470.05	409.59
470.23	430.66
470.41	386.19
470.59	367.46
470.77	496.19
470.95	435.34
471.14	451.72
471.32	454.06
471.50	386.19
471.68	463.43
471.86	437.68
472.04	339.38
472.22	369.80
472.40	423.64
472.58	482.15
472.77	383.85
472.95	372.15
473.13	470.45
473.31	437.68
473.49	404.91
473.67	414.27
473.85	416.62
474.03	472.79
474.21	430.66
474.39	456.40
474.57	395.55
474.75	430.66
474.93	489.17
475.12	395.55
475.30	332.36
475.48	437.68
475.66	421.30
475.84	472.79
476.02	421.30
476.20	463.43
476.38	442.36
476.56	435.34
476.74	449.38
476.92	444.70
477.10	437.68
477.28	374.49
477.46	411.93
477.64	423.64
477.82	388.53
478.00	447.04
478.18	440.02
478.36	454.06
478.54	418.96
478.72	362.78
478.90	414.27
479.08	493.85
479.26	456.40
479.44	423.64
479.62	341.72
479.80	339.38
479.98	425.98
480.16	353.42
480.34	348.74
480.52	339.38
480.70	461.09
480.88	458.74
481.06	365.12
481.24	372.15
481.41	355.76
481.59	437.68
481.77	369.80
481.95	442.36
482.13	442.36
482.31	435.34
482.49	407.25
482.67	496.19
482.85	465.77
483.03	409.59
483.21	320.65
483.39	402.57
483.57	468.11
483.74	416.62
483.92	404.91
484.10	442.36
484.28	409.59
484.46	458.74
484.64	393.21
484.82	442.36
485.00	404.91
485.18	402.57
485.35	407.25
485.53	386.19
485.71	402.57
485.89	430.66
486.07	456.40
486.25	489.17
486.43	418.96
486.61	482.15
486.78	458.74
486.96	444.70
487.14	355.76
487.32	493.85
487.50	428.32
487.68	414.27
487.85	332.36
488.03	400.23
488.21	458.74
488.39	334.70
488.57	489.17
488.75	482.15
488.92	437.68
489.10	428.32
489.28	465.77
489.46	367.46
489.64	418.96
489.81	393.21
489.99	505.56
490.17	458.74
490.35	454.06
490.53	386.19
490.70	430.66
490.88	470.45
491.06	409.59
491.24	348.74
491.41	425.98
491.59	400.23
491.77	435.34
491.95	409.59
492.13	383.85
492.30	355.76
492.48	402.57
492.66	397.89
492.84	430.66
493.01	376.83
493.19	367.46
493.37	397.89
493.54	433.00
493.72	397.89
493.90	425.98
494.08	400.23
494.25	388.53
494.43	423.64
494.61	407.25
494.79	428.32
494.96	458.74
495.14	430.66
495.32	395.55
495.49	505.56
495.67	409.59
495.85	402.57
496.02	416.62
496.20	404.91
496.38	425.98
496.55	379.17
496.73	369.80
496.91	461.09
497.09	437.68
497.26	461.09
497.44	421.30
497.62	437.68
497.79	451.72
497.97	430.66
498.14	428.32
498.32	402.57
498.50	332.36
498.67	418.96
498.85	395.55
499.03	388.53
499.20	400.23
499.38	409.59
499.56	381.51
499.73	381.51
499.91	451.72
500.08	433.00
500.26	388.53
500.44	315.97
500.61	428.32
500.79	372.15
500.97	381.51
501.14	447.04
501.32	407.25
501.49	540.66
501.67	517.26
501.84	498.53
502.02	397.89
502.20	428.32
502.37	468.11
502.55	414.27
502.72	395.55
502.90	404.91
503.07	425.98
503.25	404.91
503.43	468.11
503.60	435.34
503.78	409.59
503.95	430.66
504.13	479.81
504.30	428.32
504.48	374.49
504.65	449.38
504.83	442.36
505.01	444.70
505.18	456.40
505.36	407.25
505.53	421.30
505.71	381.51
505.88	411.93
506.06	411.93
506.23	428.32
506.41	386.19
506.58	388.53
506.76	330.02
506.93	463.43
507.11	482.15
507.28	397.89
507.46	381.51
507.63	425.98
507.81	440.02
507.98	404.91
508.16	440.02
508.33	402.57
508.50	390.87
508.68	418.96
508.85	411.93
509.03	332.36
509.20	400.23
509.38	482.15
509.55	451.72
509.73	472.79
509.90	472.79
510.08	411.93
510.25	409.59
510.42	393.21
510.60	395.55
510.77	423.64
510.95	411.93
511.12	383.85
511.30	407.25
511.47	372.15
511.64	430.66
511.82	355.76
511.99	414.27
512.17	458.74
512.34	381.51
512.51	365.12
512.69	388.53
512.86	435.34
513.04	423.64
513.21	383.85
513.38	346.40
513.56	421.30
513.73	444.70
513.90	421.30
514.08	339.38
514.25	346.40
514.43	449.38
514.60	425.98
514.77	362.78
514.95	491.51
515.12	334.70
515.29	318.31
515.47	386.19
515.64	416.62
515.81	367.46
515.99	449.38
516.16	416.62
516.33	496.19
516.51	374.49
516.68	477.47
516.85	369.80
517.03	435.34
517.20	388.53
517.37	470.45
517.54	496.19
517.72	411.93
517.89	418.96
518.06	414.27
518.24	496.19
518.41	372.15
518.58	397.89
518.75	477.47
518.93	416.62
519.10	449.38
519.27	325.33
519.45	454.06
519.62	397.89
519.79	411.93
519.96	353.42
520.14	388.53
520.31	465.77
520.48	416.62
520.65	428.32
520.83	388.53
521.00	442.36
521.17	486.83
521.34	444.70
521.52	334.70
521.69	425.98
521.86	423.64
522.03	428.32
522.20	428.32
522.38	381.51
522.55	362.78
522.72	369.80
522.89	433.00
523.07	484.49
523.24	425.98
523.41	374.49
523.58	402.57
523.75	402.57
523.92	435.34
524.10	374.49
524.27	379.17
524.44	400.23
524.61	421.30
524.78	437.68
524.96	414.27
525.13	397.89
525.30	458.74
525.47	484.49
525.64	440.02
525.81	372.15
525.98	416.62
526.16	428.32
526.33	477.47
526.50	425.98
526.67	390.87
526.84	379.17
527.01	393.21
527.18	463.43
527.36	454.06
527.53	404.91
527.70	411.93
527.87	463.43
528.04	437.68
528.21	440.02
528.38	437.68
528.55	365.12
528.72	449.38
528.89	463.43
529.07	379.17
529.24	381.51
529.41	442.36
529.58	400.23
529.75	411.93
529.92	433.00
530.09	430.66
530.26	402.57
530.43	400.23
530.60	461.09
530.77	486.83
530.94	414.27
531.11	428.32
531.28	458.74
531.46	449.38
531.63	402.57
531.80	458.74
531.97	486.83
532.14	428.32
532.31	322.99
532.48	440.02
532.65	430.66
532.82	402.57
532.99	435.34
533.16	489.17
533.33	390.87
533.50	388.53
533.67	374.49
533.84	472.79
534.01	404.91
534.18	400.23
534.35	393.21
534.52	404.91
534.69	430.66
534.86	423.64
535.03	369.80
535.20	365.12
535.37	418.96
535.54	418.96
535.71	383.85
535.88	414.27
536.05	407.25
536.22	346.40
536.38	393.21
536.55	444.70
536.72	425.98
536.89	376.83
537.06	409.59
537.23	463.43
537.40	444.70
537.57	428.32
537.74	428.32
537.91	421.30
538.08	472.79
538.25	414.27
538.42	332.36
538.59	430.66
538.75	351.08
538.92	390.87
539.09	440.02
539.26	353.42
539.43	404.91
539.60	435.34
539.77	444.70
539.94	322.99
540.11	421.30
540.28	404.91
540.44	395.55
540.61	444.70
540.78	369.80
540.95	461.09
541.12	521.94
541.29	383.85
541.46	372.15
541.62	369.80
541.79	365.12
541.96	491.51
542.13	423.64
542.30	344.06
542.47	400.23
542.63	404.91
542.80	477.47
542.97	447.04
543.14	414.27
543.31	444.70
543.48	418.96
543.64	372.15
543.81	290.23
543.98	418.96
544.15	402.57
544.32	416.62
544.48	395.55
544.65	400.23
544.82	379.17
544.99	262.14
545.16	418.96
545.32	451.72
545.49	437.68
545.66	400.23
545.83	358.10
546.00	423.64
546.16	362.78
546.33	379.17
546.50	379.17
546.67	407.25
546.83	379.17
547.00	379.17
547.17	498.53
547.34	409.59
547.50	402.57
547.67	383.85
547.84	393.21
548.00	463.43
548.17	456.40
548.34	383.85
548.51	489.17
548.67	470.45
548.84	416.62
549.01	465.77
549.18	493.85
549.34	397.89
549.51	458.74
549.68	430.66
549.84	379.17
550.01	451.72
550.18	493.85
550.34	491.51
550.51	411.93
550.68	458.74
550.84	428.32
551.01	428.32
551.18	393.21
551.34	416.62
551.51	416.62
551.68	444.70
551.84	521.94
552.01	442.36
552.18	372.15
552.34	416.62
552.51	418.96
552.68	404.91
552.84	348.74
553.01	372.15
553.18	404.91
553.34	395.55
553.51	404.91
553.67	402.57
553.84	433.00
554.01	395.55
554.17	454.06
554.34	463.43
554.51	365.12
554.67	461.09
554.84	454.06
555.00	433.00
555.17	390.87
555.33	395.55
555.50	404.91
555.67	447.04
555.83	390.87
556.00	440.02
556.16	557.05
556.33	470.45
556.50	404.91
556.66	393.21
556.83	355.76
556.99	404.91
557.16	339.38
557.32	465.77
557.49	358.10
557.65	482.15
557.82	447.04
557.98	454.06
558.15	409.59
558.32	433.00
558.48	465.77
558.65	379.17
558.81	388.53
558.98	449.38
559.14	428.32
559.31	423.64
559.47	421.30
559.64	388.53
559.80	365.12
559.97	428.32
560.13	423.64
560.30	372.15
560.46	418.96
560.63	437.68
560.79	440.02
560.96	372.15
561.12	440.02
561.29	390.87
561.45	414.27
561.61	416.62
561.78	440.02
561.94	367.46
562.11	409.59
562.27	484.49
562.44	442.36
562.60	454.06
562.77	355.76
562.93	404.91
563.10	418.96
563.26	409.59
563.42	423.64
563.59	442.36
563.75	423.64
563.92	395.55
564.08	421.30
564.24	416.62
564.41	461.09
564.57	353.42
564.74	433.00
564.90	390.87
565.07	440.02
565.23	540.66
565.39	404.91
565.56	365.12
565.72	458.74
565.88	367.46
566.05	332.36
566.21	404.91
566.38	440.02
566.54	388.53
566.70	437.68
566.87	423.64
567.03	468.11
567.19	414.27
567.36	376.83
567.52	449.38
567.68	397.89
567.85	383.85
568.01	308.95
568.17	411.93
568.34	365.12
568.50	454.06
568.66	395.55
568.83	465.77
568.99	397.89
569.15	484.49
569.32	449.38
569.48	456.40
569.64	465.77
569.81	437.68
569.97	423.64
570.13	327.68
570.30	353.42
570.46	451.72
570.62	414.27
570.78	360.44
570.95	402.57
571.11	493.85
571.27	465.77
571.43	383.85
571.60	428.32
571.76	430.66
571.92	433.00
572.09	456.40
572.25	416.62
572.41	430.66
572.57	358.10
572.74	414.27
572.90	489.17
573.06	395.55
573.22	507.90
573.38	482.15
573.55	468.11
573.71	458.74
573.87	402.57
574.03	442.36
574.20	369.80
574.36	468.11
574.52	327.68
574.68	376.83
574.84	388.53
575.01	475.13
575.17	428.32
575.33	379.17
575.49	437.68
575.65	416.62
575.82	463.43
575.98	442.36
576.14	381.51
576.30	442.36
576.46	402.57
576.62	440.02
576.79	500.87
576.95	465.77
577.11	444.70
577.27	433.00
577.43	416.62
577.59	430.66
577.75	414.27
577.92	449.38
578.08	465.77
578.24	484.49
578.40	435.34
578.56	397.89
578.72	414.27
578.88	465.77
579.04	496.19
579.21	411.93
579.37	451.72
579.53	421.30
579.69	397.89
579.85	374.49
580.01	428.32
580.17	440.02
580.33	383.85
580.49	411.93
580.65	433.00
580.82	479.81
580.98	477.47
581.14	463.43
581.30	477.47
581.46	447.04
581.62	472.79
581.78	465.77
581.94	433.00
582.10	404.91
582.26	416.62
582.42	365.12
582.58	507.90
582.74	402.57
582.90	367.46
583.06	395.55
583.22	269.16
583.38	468.11
583.54	355.76
583.70	437.68
583.86	491.51
584.02	411.93
584.18	386.19
584.34	433.00
584.50	386.19
584.66	383.85
584.82	372.15
584.98	454.06
585.14	470.45
585.30	451.72
585.46	444.70
585.62	365.12
585.78	451.72
585.94	461.09
586.10	423.64
586.26	418.96
586.42	430.66
586.58	447.04
586.74	346.40
586.90	381.51
587.06	468.11
587.22	397.89
587.38	397.89
587.54	393.21
587.70	400.23
587.86	435.34
588.02	458.74
588.18	425.98
588.34	395.55
588.49	430.66
588.65	461.09
588.81	423.64
588.97	386.19
589.13	369.80
589.29	395.55
589.45	447.04
589.61	454.06
589.77	409.59
589.93	372.15
590.08	430.66
590.24	416.62
590.40	428.32
590.56	402.57
590.72	381.51
590.88	430.66
591.04	496.19
591.20	407.25
591.35	437.68
591.51	433.00
591.67	393.21
591.83	379.17
591.99	437.68
592.15	470.45
592.31	463.43
592.46	430.66
592.62	447.04
592.78	435.34
592.94	486.83
593.10	381.51
593.26	376.83
593.41	430.66
593.57	418.96
593.73	475.13
593.89	456.40
594.05	409.59
594.20	404.91
594.36	447.04
594.52	402.57
594.68	362.78
594.84	470.45
594.99	526.62
595.15	444.70
595.31	435.34
595.47	477.47
595.62	418.96
595.78	374.49
595.94	437.68
596.10	383.85
596.25	393.21
596.41	362.78
596.57	454.06
596.73	360.44
596.88	397.89
597.04	472.79
597.20	404.91
597.36	440.02
597.51	414.27
597.67	383.85
597.83	430.66
597.99	479.81
598.14	423.64
598.30	437.68
598.46	355.76
598.61	461.09
598.77	407.25
598.93	463.43
599.09	428.32
599.24	430.66
599.40	472.79
599.56	461.09
599.71	397.89
599.87	353.42
600.03	442.36
600.18	386.19
600.34	531.30
600.50	433.00
600.65	433.00
600.81	440.02
600.97	395.55
601.12	430.66
601.28	461.09
601.44	472.79
601.59	440.02
601.75	442.36
601.91	423.64
602.06	435.34
602.22	465.77
602.37	383.85
602.53	362.78
602.69	437.68
602.84	425.98
603.00	465.77
603.16	393.21
603.31	433.00
603.47	304.27
603.62	416.62
603.78	423.64
603.94	402.57
604.09	397.89
604.25	440.02
604.40	425.98
604.56	404.91
604.71	421.30
604.87	418.96
605.03	414.27
605.18	449.38
605.34	484.49
605.49	327.68
605.65	414.27
605.80	358.10
605.96	442.36
606.12	348.74
606.27	442.36
606.43	383.85
606.58	435.34
606.74	409.59
606.89	447.04
607.05	379.17
607.20	379.17
607.36	393.21
607.51	348.74
607.67	430.66
607.82	423.64
607.98	430.66
608.13	447.04
608.29	430.66
608.44	458.74
608.60	418.96
608.75	493.85
608.91	390.87
609.06	421.30
609.22	425.98
609.37	411.93
609.53	402.57
609.68	400.23
609.84	369.80
609.99	479.81
610.15	421.30
