SpectraSuite Data File
++++++++++++++++++++++++++++++++++++
Date: Fri Oct 25 12:10:58 EDT 2013
User: price-jones
Dark Spectrum Present: No
Reference Spectrum Present: No
Number of Sampled Component Spectra: 1
Spectrometers: USB2+H05261
Integration Time (usec): 100000 (USB2+H05261)
Spectra Averaged: 1 (USB2+H05261)
Boxcar Smoothing: 0 (USB2+H05261)
Correct for Electrical Dark: No (USB2+H05261)
Strobe/Lamp Enabled: No (USB2+H05261)
Correct for Detector Non-linearity: No (USB2+H05261)
Correct for Stray Light: No (USB2+H05261)
Number of Pixels in Processed Spectrum: 2048
>>>>>Begin Processed Spectral Data<<<<<
365.73	351.08
365.92	351.08
366.12	351.08
366.32	222.35
366.52	170.86
366.72	301.93
366.91	210.65
367.11	245.76
367.31	175.54
367.51	177.88
367.70	212.99
367.90	264.48
368.10	198.95
368.30	222.35
368.49	234.05
368.69	269.16
368.89	285.55
369.09	297.25
369.28	250.44
369.48	280.86
369.68	231.71
369.87	287.89
370.07	287.89
370.27	311.29
370.47	311.29
370.66	374.49
370.86	334.70
371.06	372.15
371.25	409.59
371.45	381.51
371.65	409.59
371.84	346.40
372.04	444.70
372.24	407.25
372.44	346.40
372.63	337.04
372.83	388.53
373.03	475.13
373.22	409.59
373.42	404.91
373.62	383.85
373.81	442.36
374.01	390.87
374.21	430.66
374.40	414.27
374.60	442.36
374.79	416.62
374.99	430.66
375.19	362.78
375.38	482.15
375.58	379.17
375.78	451.72
375.97	404.91
376.17	433.00
376.37	433.00
376.56	449.38
376.76	407.25
376.95	433.00
377.15	465.77
377.35	454.06
377.54	376.83
377.74	379.17
377.93	400.23
378.13	393.21
378.33	528.96
378.52	365.12
378.72	404.91
378.91	376.83
379.11	322.99
379.31	397.89
379.50	304.27
379.70	435.34
379.89	337.04
380.09	416.62
380.28	440.02
380.48	411.93
380.68	468.11
380.87	374.49
381.07	400.23
381.26	428.32
381.46	414.27
381.65	388.53
381.85	433.00
382.04	362.78
382.24	411.93
382.43	395.55
382.63	390.87
382.83	409.59
383.02	414.27
383.22	442.36
383.41	414.27
383.61	489.17
383.80	437.68
384.00	416.62
384.19	367.46
384.39	388.53
384.58	425.98
384.78	395.55
384.97	449.38
385.17	386.19
385.36	351.08
385.56	430.66
385.75	423.64
385.95	365.12
386.14	472.79
386.34	440.02
386.53	465.77
386.72	451.72
386.92	449.38
387.11	393.21
387.31	425.98
387.50	449.38
387.70	339.38
387.89	381.51
388.09	365.12
388.28	386.19
388.48	442.36
388.67	393.21
388.86	414.27
389.06	374.49
389.25	376.83
389.45	440.02
389.64	400.23
389.84	433.00
390.03	414.27
390.22	444.70
390.42	395.55
390.61	367.46
390.81	379.17
391.00	411.93
391.19	437.68
391.39	435.34
391.58	400.23
391.78	390.87
391.97	409.59
392.16	379.17
392.36	383.85
392.55	409.59
392.75	407.25
392.94	430.66
393.13	454.06
393.33	423.64
393.52	400.23
393.71	454.06
393.91	299.59
394.10	423.64
394.29	383.85
394.49	451.72
394.68	341.72
394.88	402.57
395.07	400.23
395.26	383.85
395.46	348.74
395.65	421.30
395.84	414.27
396.04	465.77
396.23	397.89
396.42	400.23
396.62	372.15
396.81	423.64
397.00	470.45
397.19	465.77
397.39	458.74
397.58	451.72
397.77	360.44
397.97	404.91
398.16	400.23
398.35	421.30
398.55	463.43
398.74	472.79
398.93	411.93
399.12	348.74
399.32	454.06
399.51	372.15
399.70	400.23
399.90	372.15
400.09	388.53
400.28	353.42
400.47	421.30
400.67	365.12
400.86	402.57
401.05	418.96
401.24	458.74
401.44	397.89
401.63	451.72
401.82	489.17
402.01	425.98
402.21	425.98
402.40	367.46
402.59	418.96
402.78	482.15
402.97	379.17
403.17	430.66
403.36	421.30
403.55	414.27
403.74	428.32
403.93	421.30
404.13	449.38
404.32	418.96
404.51	390.87
404.70	395.55
404.89	449.38
405.09	379.17
405.28	393.21
405.47	442.36
405.66	404.91
405.85	402.57
406.05	388.53
406.24	341.72
406.43	409.59
406.62	421.30
406.81	463.43
407.00	414.27
407.20	402.57
407.39	449.38
407.58	458.74
407.77	521.94
407.96	461.09
408.15	458.74
408.34	456.40
408.54	407.25
408.73	369.80
408.92	421.30
409.11	409.59
409.30	468.11
409.49	390.87
409.68	367.46
409.87	395.55
410.07	369.80
410.26	369.80
410.45	418.96
410.64	376.83
410.83	379.17
411.02	428.32
411.21	393.21
411.40	339.38
411.59	414.27
411.78	428.32
411.98	423.64
412.17	360.44
412.36	407.25
412.55	379.17
412.74	409.59
412.93	568.75
413.12	337.04
413.31	442.36
413.50	423.64
413.69	374.49
413.88	409.59
414.07	402.57
414.26	400.23
414.45	430.66
414.64	437.68
414.83	404.91
415.02	418.96
415.22	437.68
415.41	428.32
415.60	465.77
415.79	346.40
415.98	454.06
416.17	416.62
416.36	374.49
416.55	390.87
416.74	376.83
416.93	393.21
417.12	400.23
417.31	379.17
417.50	425.98
417.69	454.06
417.88	365.12
418.07	402.57
418.26	374.49
418.45	463.43
418.64	475.13
418.83	416.62
419.02	458.74
419.21	435.34
419.39	465.77
419.58	386.19
419.77	362.78
419.96	423.64
420.15	449.38
420.34	400.23
420.53	414.27
420.72	358.10
420.91	395.55
421.10	376.83
421.29	430.66
421.48	425.98
421.67	465.77
421.86	428.32
422.05	383.85
422.24	447.04
422.43	416.62
422.61	341.72
422.80	435.34
422.99	409.59
423.18	435.34
423.37	395.55
423.56	362.78
423.75	428.32
423.94	447.04
424.13	322.99
424.32	362.78
424.50	400.23
424.69	425.98
424.88	454.06
425.07	390.87
425.26	360.44
425.45	454.06
425.64	461.09
425.83	475.13
426.01	440.02
426.20	470.45
426.39	390.87
426.58	433.00
426.77	334.70
426.96	365.12
427.15	365.12
427.33	402.57
427.52	381.51
427.71	472.79
427.90	393.21
428.09	351.08
428.28	344.06
428.46	411.93
428.65	407.25
428.84	444.70
429.03	540.66
429.22	447.04
429.40	407.25
429.59	407.25
429.78	470.45
429.97	376.83
430.16	402.57
430.34	397.89
430.53	358.10
430.72	444.70
430.91	411.93
431.10	362.78
431.28	437.68
431.47	430.66
431.66	372.15
431.85	437.68
432.03	414.27
432.22	519.60
432.41	454.06
432.60	479.81
432.79	423.64
432.97	400.23
433.16	341.72
433.35	470.45
433.54	482.15
433.72	423.64
433.91	479.81
434.10	428.32
434.28	351.08
434.47	369.80
434.66	397.89
434.85	484.49
435.03	383.85
435.22	416.62
435.41	437.68
435.59	475.13
435.78	442.36
435.97	362.78
436.16	393.21
436.34	315.97
436.53	409.59
436.72	414.27
436.90	454.06
437.09	393.21
437.28	449.38
437.46	344.06
437.65	468.11
437.84	376.83
438.02	475.13
438.21	447.04
438.40	409.59
438.58	374.49
438.77	454.06
438.96	435.34
439.14	414.27
439.33	430.66
439.52	397.89
439.70	461.09
439.89	390.87
440.08	437.68
440.26	428.32
440.45	433.00
440.63	479.81
440.82	395.55
441.01	362.78
441.19	379.17
441.38	402.57
441.57	449.38
441.75	404.91
441.94	414.27
442.12	451.72
442.31	435.34
442.50	411.93
442.68	454.06
442.87	332.36
443.05	423.64
443.24	367.46
443.43	390.87
443.61	463.43
443.80	433.00
443.98	386.19
444.17	381.51
444.35	407.25
444.54	416.62
444.73	425.98
444.91	451.72
445.10	402.57
445.28	358.10
445.47	454.06
445.65	479.81
445.84	416.62
446.02	381.51
446.21	465.77
446.39	451.72
446.58	449.38
446.77	358.10
446.95	388.53
447.14	416.62
447.32	447.04
447.51	362.78
447.69	496.19
447.88	379.17
448.06	428.32
448.25	418.96
448.43	404.91
448.62	400.23
448.80	383.85
448.99	444.70
449.17	440.02
449.36	386.19
449.54	456.40
449.73	362.78
449.91	470.45
450.10	383.85
450.28	414.27
450.46	472.79
450.65	397.89
450.83	463.43
451.02	409.59
451.20	358.10
451.39	442.36
451.57	395.55
451.76	440.02
451.94	465.77
452.13	421.30
452.31	320.65
452.49	437.68
452.68	379.17
452.86	416.62
453.05	444.70
453.23	376.83
453.42	353.42
453.60	393.21
453.78	440.02
453.97	355.76
454.15	404.91
454.34	369.80
454.52	402.57
454.70	433.00
454.89	393.21
455.07	468.11
455.26	418.96
455.44	451.72
455.62	421.30
455.81	458.74
455.99	388.53
456.17	442.36
456.36	442.36
456.54	369.80
456.73	435.34
456.91	475.13
457.09	435.34
457.28	493.85
457.46	465.77
457.64	379.17
457.83	386.19
458.01	379.17
458.19	444.70
458.38	400.23
458.56	433.00
458.74	374.49
458.93	484.49
459.11	414.27
459.29	395.55
459.48	421.30
459.66	423.64
459.84	444.70
460.03	458.74
460.21	458.74
460.39	376.83
460.57	421.30
460.76	418.96
460.94	465.77
461.12	425.98
461.31	428.32
461.49	428.32
461.67	409.59
461.85	430.66
462.04	383.85
462.22	730.25
462.40	491.51
462.59	444.70
462.77	411.93
462.95	416.62
463.13	395.55
463.32	372.15
463.50	454.06
463.68	423.64
463.86	407.25
464.05	416.62
464.23	463.43
464.41	416.62
464.59	477.47
464.78	423.64
464.96	362.78
465.14	465.77
465.32	334.70
465.50	507.90
465.69	372.15
465.87	486.83
466.05	463.43
466.23	388.53
466.41	414.27
466.60	344.06
466.78	301.93
466.96	442.36
467.14	444.70
467.32	397.89
467.51	475.13
467.69	376.83
467.87	418.96
468.05	456.40
468.23	404.91
468.41	461.09
468.60	383.85
468.78	418.96
468.96	470.45
469.14	409.59
469.32	390.87
469.50	383.85
469.69	409.59
469.87	430.66
470.05	470.45
470.23	372.15
470.41	367.46
470.59	404.91
470.77	433.00
470.95	360.44
471.14	433.00
471.32	430.66
471.50	374.49
471.68	362.78
471.86	437.68
472.04	421.30
472.22	404.91
472.40	400.23
472.58	397.89
472.77	409.59
472.95	421.30
473.13	407.25
473.31	498.53
473.49	451.72
473.67	437.68
473.85	365.12
474.03	461.09
474.21	484.49
474.39	388.53
474.57	468.11
474.75	367.46
474.93	409.59
475.12	379.17
475.30	386.19
475.48	440.02
475.66	430.66
475.84	400.23
476.02	418.96
476.20	400.23
476.38	425.98
476.56	463.43
476.74	379.17
476.92	374.49
477.10	409.59
477.28	383.85
477.46	379.17
477.64	465.77
477.82	433.00
478.00	393.21
478.18	456.40
478.36	351.08
478.54	414.27
478.72	383.85
478.90	414.27
479.08	484.49
479.26	355.76
479.44	418.96
479.62	411.93
479.80	369.80
479.98	425.98
480.16	416.62
480.34	475.13
480.52	451.72
480.70	369.80
480.88	430.66
481.06	395.55
481.24	433.00
481.41	411.93
481.59	388.53
481.77	425.98
481.95	430.66
482.13	374.49
482.31	383.85
482.49	404.91
482.67	372.15
482.85	440.02
483.03	447.04
483.21	409.59
483.39	444.70
483.57	374.49
483.74	503.22
483.92	381.51
484.10	418.96
484.28	442.36
484.46	519.60
484.64	379.17
484.82	348.74
485.00	374.49
485.18	365.12
485.35	379.17
485.53	425.98
485.71	433.00
485.89	400.23
486.07	372.15
486.25	470.45
486.43	437.68
486.61	400.23
486.78	409.59
486.96	470.45
487.14	402.57
487.32	418.96
487.50	379.17
487.68	510.24
487.85	393.21
488.03	397.89
488.21	505.56
488.39	458.74
488.57	409.59
488.75	440.02
488.92	505.56
489.10	430.66
489.28	421.30
489.46	376.83
489.64	411.93
489.81	477.47
489.99	388.53
490.17	402.57
490.35	465.77
490.53	425.98
490.70	367.46
490.88	449.38
491.06	365.12
491.24	479.81
491.41	418.96
491.59	381.51
491.77	376.83
491.95	376.83
492.13	376.83
492.30	383.85
492.48	353.42
492.66	465.77
492.84	433.00
493.01	379.17
493.19	451.72
493.37	435.34
493.54	486.83
493.72	423.64
493.90	479.81
494.08	430.66
494.25	477.47
494.43	400.23
494.61	430.66
494.79	360.44
494.96	416.62
495.14	475.13
495.32	414.27
495.49	437.68
495.67	411.93
495.85	454.06
496.02	442.36
496.20	451.72
496.38	423.64
496.55	351.08
496.73	418.96
496.91	404.91
497.09	425.98
497.26	397.89
497.44	414.27
497.62	369.80
497.79	463.43
497.97	395.55
498.14	337.04
498.32	463.43
498.50	372.15
498.67	404.91
498.85	447.04
499.03	407.25
499.20	468.11
499.38	440.02
499.56	390.87
499.73	414.27
499.91	409.59
500.08	386.19
500.26	428.32
500.44	381.51
500.61	514.92
500.79	393.21
500.97	397.89
501.14	449.38
501.32	447.04
501.49	540.66
501.67	400.23
501.84	430.66
502.02	386.19
502.20	435.34
502.37	477.47
502.55	360.44
502.72	454.06
502.90	449.38
503.07	409.59
503.25	425.98
503.43	339.38
503.60	465.77
503.78	470.45
503.95	421.30
504.13	400.23
504.30	407.25
504.48	472.79
504.65	454.06
504.83	447.04
505.01	374.49
505.18	418.96
505.36	362.78
505.53	402.57
505.71	437.68
505.88	397.89
506.06	465.77
506.23	435.34
506.41	430.66
506.58	454.06
506.76	416.62
506.93	318.31
507.11	468.11
507.28	388.53
507.46	428.32
507.63	397.89
507.81	425.98
507.98	407.25
508.16	449.38
508.33	346.40
508.50	458.74
508.68	374.49
508.85	400.23
509.03	386.19
509.20	341.72
509.38	397.89
509.55	456.40
509.73	397.89
509.90	463.43
510.08	512.58
510.25	510.24
510.42	393.21
510.60	404.91
510.77	402.57
510.95	447.04
511.12	423.64
511.30	383.85
511.47	451.72
511.64	435.34
511.82	395.55
511.99	404.91
512.17	454.06
512.34	505.56
512.51	386.19
512.69	440.02
512.86	376.83
513.04	411.93
513.21	447.04
513.38	407.25
513.56	440.02
513.73	379.17
513.90	442.36
514.08	304.27
514.25	395.55
514.43	418.96
514.60	423.64
514.77	390.87
514.95	402.57
515.12	409.59
515.29	447.04
515.47	374.49
515.64	433.00
515.81	414.27
515.99	402.57
516.16	388.53
516.33	449.38
516.51	360.44
516.68	381.51
516.85	367.46
517.03	433.00
517.20	411.93
517.37	400.23
517.54	402.57
517.72	402.57
517.89	390.87
518.06	482.15
518.24	379.17
518.41	402.57
518.58	411.93
518.75	414.27
518.93	411.93
519.10	491.51
519.27	337.04
519.45	437.68
519.62	393.21
519.79	332.36
519.96	395.55
520.14	388.53
520.31	383.85
520.48	393.21
520.65	379.17
520.83	423.64
521.00	411.93
521.17	428.32
521.34	447.04
521.52	440.02
521.69	388.53
521.86	409.59
522.03	379.17
522.20	400.23
522.38	388.53
522.55	444.70
522.72	437.68
522.89	454.06
523.07	477.47
523.24	444.70
523.41	409.59
523.58	444.70
523.75	416.62
523.92	397.89
524.10	358.10
524.27	367.46
524.44	451.72
524.61	442.36
524.78	402.57
524.96	353.42
525.13	451.72
525.30	402.57
525.47	433.00
525.64	465.77
525.81	470.45
525.98	418.96
526.16	372.15
526.33	402.57
526.50	393.21
526.67	376.83
526.84	468.11
527.01	433.00
527.18	337.04
527.36	449.38
527.53	395.55
527.70	353.42
527.87	395.55
528.04	458.74
528.21	330.02
528.38	407.25
528.55	435.34
528.72	402.57
528.89	435.34
529.07	388.53
529.24	425.98
529.41	454.06
529.58	362.78
529.75	433.00
529.92	489.17
530.09	414.27
530.26	461.09
530.43	425.98
530.60	447.04
530.77	433.00
530.94	447.04
531.11	407.25
531.28	500.87
531.46	425.98
531.63	449.38
531.80	489.17
531.97	447.04
532.14	423.64
532.31	465.77
532.48	395.55
532.65	383.85
532.82	421.30
532.99	458.74
533.16	442.36
533.33	404.91
533.50	381.51
533.67	369.80
533.84	423.64
534.01	468.11
534.18	425.98
534.35	414.27
534.52	348.74
534.69	374.49
534.86	442.36
535.03	425.98
535.20	416.62
535.37	484.49
535.54	397.89
535.71	358.10
535.88	423.64
536.05	430.66
536.22	447.04
536.38	425.98
536.55	468.11
536.72	493.85
536.89	451.72
537.06	489.17
537.23	433.00
537.40	402.57
537.57	369.80
537.74	486.83
537.91	449.38
538.08	479.81
538.25	388.53
538.42	376.83
538.59	379.17
538.75	383.85
538.92	447.04
539.09	472.79
539.26	374.49
539.43	395.55
539.60	346.40
539.77	423.64
539.94	442.36
540.11	433.00
540.28	458.74
540.44	440.02
540.61	386.19
540.78	379.17
540.95	447.04
541.12	397.89
541.29	351.08
541.46	498.53
541.62	386.19
541.79	404.91
541.96	325.33
542.13	472.79
542.30	395.55
542.47	458.74
542.63	362.78
542.80	400.23
542.97	437.68
543.14	425.98
543.31	425.98
543.48	383.85
543.64	404.91
543.81	454.06
543.98	369.80
544.15	454.06
544.32	440.02
544.48	418.96
544.65	374.49
544.82	395.55
544.99	461.09
545.16	540.66
545.32	395.55
545.49	430.66
545.66	390.87
545.83	374.49
546.00	388.53
546.16	341.72
546.33	425.98
546.50	447.04
546.67	479.81
546.83	447.04
547.00	418.96
547.17	390.87
547.34	290.23
547.50	376.83
547.67	395.55
547.84	411.93
548.00	404.91
548.17	374.49
548.34	416.62
548.51	454.06
548.67	393.21
548.84	369.80
549.01	437.68
549.18	468.11
549.34	418.96
549.51	395.55
549.68	374.49
549.84	440.02
550.01	409.59
550.18	454.06
550.34	444.70
550.51	416.62
550.68	465.77
550.84	404.91
551.01	442.36
551.18	433.00
551.34	400.23
551.51	440.02
551.68	503.22
551.84	393.21
552.01	458.74
552.18	400.23
552.34	416.62
552.51	472.79
552.68	514.92
552.84	365.12
553.01	402.57
553.18	383.85
553.34	353.42
553.51	428.32
553.67	468.11
553.84	486.83
554.01	407.25
554.17	465.77
554.34	351.08
554.51	444.70
554.67	470.45
554.84	369.80
555.00	470.45
555.17	500.87
555.33	472.79
555.50	435.34
555.67	400.23
555.83	402.57
556.00	444.70
556.16	475.13
556.33	395.55
556.50	381.51
556.66	390.87
556.83	358.10
556.99	379.17
557.16	404.91
557.32	430.66
557.49	414.27
557.65	374.49
557.82	376.83
557.98	395.55
558.15	376.83
558.32	430.66
558.48	376.83
558.65	465.77
558.81	496.19
558.98	404.91
559.14	430.66
559.31	390.87
559.47	456.40
559.64	449.38
559.80	447.04
559.97	428.32
560.13	369.80
560.30	348.74
560.46	393.21
560.63	411.93
560.79	456.40
560.96	430.66
561.12	346.40
561.29	484.49
561.45	386.19
561.61	463.43
561.78	430.66
561.94	463.43
562.11	493.85
562.27	400.23
562.44	475.13
562.60	397.89
562.77	393.21
562.93	472.79
563.10	428.32
563.26	468.11
563.42	407.25
563.59	428.32
563.75	418.96
563.92	393.21
564.08	372.15
564.24	383.85
564.41	442.36
564.57	404.91
564.74	395.55
564.90	456.40
565.07	421.30
565.23	442.36
565.39	390.87
565.56	435.34
565.72	491.51
565.88	454.06
566.05	393.21
566.21	468.11
566.38	454.06
566.54	447.04
566.70	449.38
566.87	376.83
567.03	449.38
567.19	423.64
567.36	428.32
567.52	386.19
567.68	414.27
567.85	444.70
568.01	407.25
568.17	440.02
568.34	390.87
568.50	440.02
568.66	435.34
568.83	545.34
568.99	482.15
569.15	379.17
569.32	390.87
569.48	442.36
569.64	414.27
569.81	430.66
569.97	395.55
570.13	468.11
570.30	454.06
570.46	339.38
570.62	353.42
570.78	458.74
570.95	423.64
571.11	379.17
571.27	461.09
571.43	472.79
571.60	397.89
571.76	418.96
571.92	407.25
572.09	379.17
572.25	376.83
572.41	390.87
572.57	444.70
572.74	425.98
572.90	479.81
573.06	372.15
573.22	458.74
573.38	404.91
573.55	470.45
573.71	433.00
573.87	479.81
574.03	407.25
574.20	381.51
574.36	463.43
574.52	418.96
574.68	390.87
574.84	507.90
575.01	428.32
575.17	461.09
575.33	395.55
575.49	435.34
575.65	393.21
575.82	454.06
575.98	418.96
576.14	369.80
576.30	372.15
576.46	437.68
576.62	411.93
576.79	456.40
576.95	362.78
577.11	348.74
577.27	409.59
577.43	390.87
577.59	407.25
577.75	430.66
577.92	397.89
578.08	402.57
578.24	479.81
578.40	418.96
578.56	393.21
578.72	465.77
578.88	472.79
579.04	355.76
579.21	440.02
579.37	423.64
579.53	456.40
579.69	381.51
579.85	297.25
580.01	428.32
580.17	479.81
580.33	397.89
580.49	404.91
580.65	409.59
580.82	437.68
580.98	440.02
581.14	397.89
581.30	404.91
581.46	414.27
581.62	461.09
581.78	388.53
581.94	416.62
582.10	402.57
582.26	411.93
582.42	402.57
582.58	407.25
582.74	402.57
582.90	491.51
583.06	421.30
583.22	397.89
583.38	409.59
583.54	374.49
583.70	430.66
583.86	423.64
584.02	437.68
584.18	463.43
584.34	372.15
584.50	360.44
584.66	381.51
584.82	404.91
584.98	402.57
585.14	379.17
585.30	421.30
585.46	491.51
585.62	390.87
585.78	287.89
585.94	472.79
586.10	437.68
586.26	449.38
586.42	484.49
586.58	416.62
586.74	475.13
586.90	414.27
587.06	423.64
587.22	416.62
587.38	402.57
587.54	449.38
587.70	461.09
587.86	376.83
588.02	362.78
588.18	425.98
588.34	400.23
588.49	416.62
588.65	447.04
588.81	465.77
588.97	367.46
589.13	440.02
589.29	491.51
589.45	397.89
589.61	447.04
589.77	468.11
589.93	395.55
590.08	437.68
590.24	369.80
590.40	458.74
590.56	388.53
590.72	491.51
590.88	428.32
591.04	440.02
591.20	404.91
591.35	496.19
591.51	479.81
591.67	404.91
591.83	411.93
591.99	479.81
592.15	451.72
592.31	362.78
592.46	430.66
592.62	421.30
592.78	395.55
592.94	381.51
593.10	360.44
593.26	456.40
593.41	491.51
593.57	376.83
593.73	355.76
593.89	416.62
594.05	465.77
594.20	383.85
594.36	334.70
594.52	416.62
594.68	475.13
594.84	463.43
594.99	376.83
595.15	484.49
595.31	449.38
595.47	503.22
595.62	409.59
595.78	365.12
595.94	367.46
596.10	458.74
596.25	425.98
596.41	388.53
596.57	418.96
596.73	372.15
596.88	461.09
597.04	374.49
597.20	353.42
597.36	433.00
597.51	442.36
597.67	440.02
597.83	404.91
597.99	430.66
598.14	491.51
598.30	386.19
598.46	482.15
598.61	414.27
598.77	393.21
598.93	313.63
599.09	327.68
599.24	414.27
599.40	437.68
599.56	465.77
599.71	418.96
599.87	458.74
600.03	353.42
600.18	402.57
600.34	402.57
600.50	351.08
600.65	360.44
600.81	451.72
600.97	463.43
601.12	411.93
601.28	425.98
601.44	458.74
601.59	430.66
601.75	442.36
601.91	351.08
602.06	369.80
602.22	454.06
602.37	393.21
602.53	397.89
602.69	348.74
602.84	414.27
603.00	393.21
603.16	395.55
603.31	437.68
603.47	421.30
603.62	395.55
603.78	327.68
603.94	444.70
604.09	425.98
604.25	461.09
604.40	545.34
604.56	416.62
604.71	388.53
604.87	458.74
605.03	409.59
605.18	404.91
605.34	458.74
605.49	372.15
605.65	423.64
605.80	414.27
605.96	433.00
606.12	468.11
606.27	454.06
606.43	411.93
606.58	425.98
606.74	435.34
606.89	386.19
607.05	428.32
607.20	409.59
607.36	397.89
607.51	468.11
607.67	395.55
607.82	433.00
607.98	418.96
608.13	395.55
608.29	416.62
608.44	451.72
608.60	402.57
608.75	435.34
608.91	418.96
609.06	430.66
609.22	435.34
609.37	425.98
609.53	381.51
609.68	325.33
609.84	397.89
609.99	325.33
610.15	395.55
