SpectraSuite Data File
++++++++++++++++++++++++++++++++++++
Date: Fri Oct 25 11:33:55 EDT 2013
User: price-jones
Dark Spectrum Present: No
Reference Spectrum Present: No
Number of Sampled Component Spectra: 1
Spectrometers: USB2+H05261
Integration Time (usec): 100000 (USB2+H05261)
Spectra Averaged: 1 (USB2+H05261)
Boxcar Smoothing: 0 (USB2+H05261)
Correct for Electrical Dark: No (USB2+H05261)
Strobe/Lamp Enabled: No (USB2+H05261)
Correct for Detector Non-linearity: No (USB2+H05261)
Correct for Stray Light: No (USB2+H05261)
Number of Pixels in Processed Spectrum: 2048
>>>>>Begin Processed Spectral Data<<<<<
365.73	330.02
365.92	330.02
366.12	330.02
366.32	175.54
366.52	142.77
366.72	128.73
366.91	124.05
367.11	177.88
367.31	147.45
367.51	203.63
367.70	231.71
367.90	189.58
368.10	161.50
368.30	205.97
368.49	173.20
368.69	163.84
368.89	224.69
369.09	177.88
369.28	177.88
369.48	93.62
369.68	212.99
369.87	236.39
370.07	212.99
370.27	259.80
370.47	322.99
370.66	489.17
370.86	538.32
371.06	657.69
371.25	512.58
371.45	514.92
371.65	528.96
371.84	491.51
372.04	512.58
372.24	557.05
372.44	585.13
372.63	589.82
372.83	671.73
373.03	592.16
373.22	531.30
373.42	620.24
373.62	599.18
373.81	624.92
374.01	660.03
374.21	685.78
374.40	615.56
374.60	622.58
374.79	617.90
374.99	660.03
375.19	674.07
375.38	683.44
375.58	627.26
375.78	692.80
375.97	685.78
376.17	697.48
376.37	718.54
376.56	727.91
376.76	699.82
376.95	748.97
377.15	725.57
377.35	617.90
377.54	692.80
377.74	650.67
377.93	641.31
378.13	748.97
378.33	758.33
378.52	770.04
378.72	744.29
378.91	734.93
379.11	720.88
379.31	711.52
379.50	695.14
379.70	737.27
379.89	741.95
380.09	706.84
380.28	711.52
380.48	692.80
380.68	662.37
380.87	781.74
381.07	709.18
381.26	706.84
381.46	704.50
381.65	746.63
381.85	718.54
382.04	767.70
382.24	870.68
382.43	809.83
382.63	791.10
382.83	770.04
383.02	828.55
383.22	779.40
383.41	770.04
383.61	854.30
383.80	833.23
384.00	784.08
384.19	823.87
384.39	805.14
384.58	807.48
384.78	842.59
384.97	866.00
385.17	763.01
385.36	847.27
385.56	851.96
385.75	830.89
385.95	875.36
386.14	833.23
386.34	917.49
386.53	915.15
386.72	809.83
386.92	968.98
387.11	858.98
387.31	898.77
387.50	896.43
387.70	880.04
387.89	912.81
388.09	884.72
388.28	856.64
388.48	903.45
388.67	901.11
388.86	910.47
389.06	905.79
389.25	936.21
389.45	938.55
389.64	952.60
389.84	999.41
390.03	912.81
390.22	950.26
390.42	957.28
390.61	959.62
390.81	891.74
391.00	1008.77
391.19	964.30
391.39	1020.47
391.58	1046.22
391.78	1104.73
391.97	1050.90
392.16	1048.56
392.36	1086.01
392.55	1123.46
392.75	1027.50
392.94	1015.79
393.13	1083.67
393.33	1032.18
393.52	1114.10
393.71	1095.37
393.91	1116.44
394.10	1081.33
394.29	1118.78
394.49	1001.75
394.68	1022.81
394.88	1104.73
395.07	1144.52
395.26	1139.84
395.46	1149.20
395.65	1121.12
395.84	1203.04
396.04	1217.08
396.23	1142.18
396.42	1191.33
396.62	1193.67
396.81	1233.46
397.00	1219.42
397.19	1254.53
397.39	1186.65
397.58	1277.93
397.77	1184.31
397.97	1266.23
398.16	1287.29
398.35	1263.89
398.55	1240.48
398.74	1247.51
398.93	1315.38
399.12	1341.13
399.32	1287.29
399.51	1376.24
399.70	1416.02
399.90	1336.45
400.09	1392.62
400.28	1350.49
400.47	1385.60
400.67	1369.21
400.86	1437.09
401.05	1409.00
401.24	1514.33
401.44	1460.49
401.63	1476.88
401.82	1409.00
402.01	1479.22
402.21	1514.33
402.40	1465.18
402.59	1469.86
402.78	1509.65
402.97	1516.67
403.17	1479.22
403.36	1528.37
403.55	1666.46
403.74	1621.99
403.93	1575.18
404.13	1629.01
404.32	1610.29
404.51	1593.90
404.70	1621.99
404.89	1661.78
405.09	1724.97
405.28	1647.74
405.47	1664.12
405.66	1643.06
405.85	1675.82
406.05	1776.47
406.24	1767.10
406.43	1706.25
406.62	1849.02
406.81	1806.89
407.00	1713.27
407.20	1746.04
407.39	1750.72
407.58	1891.15
407.77	1916.90
407.96	1837.32
408.15	1893.49
408.34	1802.21
408.54	1839.66
408.73	1860.73
408.92	1837.32
409.11	1830.30
409.30	1886.47
409.49	2015.20
409.68	1966.05
409.87	1989.46
410.07	2066.69
410.26	2062.01
410.45	2052.65
410.64	2193.08
410.83	2069.03
411.02	2186.06
411.21	2249.25
411.40	2157.97
411.59	2129.89
411.78	2188.40
411.98	2253.94
412.17	2225.85
412.36	2179.04
412.55	2249.25
412.74	2232.87
412.93	2338.20
413.12	2239.89
413.31	2413.09
413.50	2377.98
413.69	2427.14
413.88	2567.57
414.07	2569.91
414.26	2602.68
414.45	2511.39
414.64	2499.69
414.83	2471.61
415.02	2569.91
415.22	2574.59
415.41	2640.12
415.60	2630.76
415.79	2764.17
415.98	2715.02
416.17	2740.77
416.36	2778.22
416.55	2743.11
416.74	2731.41
416.93	2698.64
417.12	2801.62
417.31	2810.98
417.50	2939.71
417.69	2944.39
417.88	2911.63
418.07	2913.97
418.26	2951.42
418.45	2993.55
418.64	3066.10
418.83	2965.46
419.02	3028.65
419.21	3129.30
419.39	3138.66
419.58	3059.08
419.77	2979.50
419.96	3215.90
420.15	3105.89
420.34	3145.68
420.53	3075.46
420.72	3173.77
420.91	3164.40
421.10	3215.90
421.29	3293.13
421.48	3218.24
421.67	3197.17
421.86	3283.77
422.05	3267.39
422.24	3349.31
422.43	3309.52
422.61	3424.20
422.80	3499.10
422.99	3382.07
423.18	3361.01
423.37	3452.29
423.56	3307.18
423.75	3328.24
423.94	3232.28
424.13	3236.96
424.32	3197.17
424.50	3494.42
424.69	3461.65
424.88	3592.72
425.07	3452.29
425.26	3262.71
425.45	3283.77
425.64	3368.03
425.83	3478.04
426.01	3590.38
426.20	3440.59
426.39	3559.95
426.58	3503.78
426.77	3440.59
426.96	3552.93
427.15	3520.17
427.33	3508.46
427.52	3496.76
427.71	3492.08
427.90	3578.68
428.09	3719.11
428.28	3555.27
428.46	3756.56
428.65	3564.64
428.84	3808.05
429.03	3625.49
429.22	3644.21
429.40	3761.24
429.59	3737.84
429.78	3555.27
429.97	3639.53
430.16	3740.18
430.34	3772.94
430.53	3929.76
430.72	3758.90
430.91	3803.37
431.10	3742.52
431.28	3880.61
431.47	3939.12
431.66	3922.74
431.85	3950.82
432.03	4168.49
432.22	4152.11
432.41	3908.69
432.60	4014.02
432.79	4063.17
432.97	4124.02
433.16	4056.15
433.35	4145.09
433.54	4201.26
433.72	4210.62
433.91	4191.90
434.10	4100.62
434.28	4058.49
434.47	4339.35
434.66	4332.33
434.85	4262.12
435.03	4301.90
435.22	4241.05
435.41	4259.78
435.59	4475.10
435.78	4348.72
435.97	4463.40
436.16	4388.50
436.34	4463.40
436.53	4355.74
436.72	4493.83
436.90	4411.91
437.09	4507.87
437.28	4402.55
437.46	4470.42
437.65	4601.49
437.84	4517.23
438.02	4557.02
438.21	4463.40
438.40	4472.76
438.58	4739.58
438.77	4683.41
438.96	4711.50
439.14	4753.63
439.33	4880.02
439.52	5039.17
439.70	4924.49
439.89	5036.83
440.08	5130.45
440.26	5132.79
440.45	5043.85
440.63	5076.62
440.82	5191.31
441.01	5067.26
441.19	5203.01
441.38	5310.68
441.57	5210.03
441.75	5210.03
441.94	5338.76
442.12	5259.18
442.31	5479.19
442.50	5423.02
442.68	5387.91
442.87	5455.79
443.05	5474.51
443.24	5490.90
443.43	5474.51
443.61	5535.37
443.80	5657.07
443.98	5341.10
444.17	5366.85
444.35	5535.37
444.54	5575.16
444.73	5689.84
444.91	5561.11
445.10	5710.91
445.28	5554.09
445.47	5390.25
445.65	5614.95
445.84	5762.40
446.02	5664.10
446.21	5776.44
446.39	5685.16
446.58	5682.82
446.77	5874.74
446.95	5640.69
447.14	5668.78
447.32	5689.84
447.51	5778.78
447.69	5785.80
447.88	5727.29
448.06	5701.54
448.25	5717.93
448.43	5825.59
448.62	5762.40
448.80	5668.78
448.99	5757.72
449.17	5966.03
449.36	5778.78
449.54	6043.26
449.73	5998.79
449.91	5989.43
450.10	6010.50
450.28	6169.65
450.46	6125.18
450.65	6174.33
450.83	6113.48
451.02	6061.99
451.20	6225.82
451.39	6186.04
451.57	6073.69
451.76	6026.88
451.94	6064.33
452.13	6221.14
452.31	6111.14
452.49	6090.07
452.68	6232.85
452.86	6279.66
453.05	6424.77
453.23	6457.54
453.42	6375.62
453.60	6286.68
453.78	6333.49
453.97	6239.87
454.15	6303.06
454.34	6464.56
454.52	6581.59
454.70	6527.75
454.89	6462.22
455.07	6576.91
455.26	6754.79
455.44	6745.42
455.62	6686.91
455.81	6583.93
455.99	6799.26
456.17	6689.25
456.36	6759.47
456.54	6747.76
456.73	6944.37
456.91	7066.08
457.09	6810.96
457.28	7192.47
457.46	6995.86
457.64	7122.25
457.83	6911.60
458.01	6991.18
458.19	7145.66
458.38	6881.18
458.56	7211.19
458.74	7056.72
458.93	7157.36
459.11	7115.23
459.29	7194.81
459.48	7148.00
459.66	7112.89
459.84	7248.64
460.03	7461.63
460.21	7468.65
460.39	7492.05
460.57	7480.35
460.76	7304.81
460.94	7440.56
461.12	7456.95
461.31	7496.74
461.49	7241.62
461.67	7433.54
461.85	7599.72
462.04	7592.70
462.22	8149.75
462.40	7786.96
462.59	7620.78
462.77	7576.31
462.95	7747.17
463.13	7756.54
463.32	7709.72
463.50	7810.37
463.68	7808.03
463.86	7981.23
464.05	7815.05
464.23	7658.23
464.41	8002.29
464.59	7658.23
464.78	8063.15
464.96	8011.65
465.14	7793.98
465.32	7948.46
465.50	8063.15
465.69	8098.25
465.87	8217.62
466.05	8100.59
466.23	8063.15
466.41	8135.70
466.60	8456.36
466.78	8124.00
466.96	8056.12
467.14	8346.35
467.32	8329.97
467.51	8219.96
467.69	8215.28
467.87	8348.69
468.05	8369.76
468.23	8362.73
468.41	8149.75
468.60	8299.54
468.78	8439.97
468.96	8234.00
469.14	8470.40
469.32	8542.96
469.50	8444.65
469.69	8662.32
469.87	8711.47
470.05	8641.26
470.23	8676.37
470.41	8781.69
470.59	8945.53
470.77	8772.33
470.95	8842.54
471.14	8940.85
471.32	8819.14
471.50	8990.00
471.68	9090.64
471.86	9163.20
472.04	9118.73
472.22	9336.40
472.40	9048.51
472.58	8936.17
472.77	9343.42
472.95	9231.07
473.13	9420.66
473.31	9195.96
473.49	9303.63
473.67	9362.14
473.85	9490.87
474.03	9783.44
474.21	9729.61
474.39	9860.68
474.57	9731.95
474.75	9661.73
474.93	9680.46
475.12	9881.74
475.30	9996.43
475.48	9839.61
475.66	10073.67
475.84	9973.02
476.02	10132.18
476.20	10101.75
476.38	10354.53
476.56	10553.48
476.74	10518.37
476.92	10504.32
477.10	10466.88
477.28	10817.96
477.46	10815.62
477.64	10623.69
477.82	10789.87
478.00	11173.72
478.18	11005.20
478.36	11124.57
478.54	11108.18
478.72	11115.20
478.90	11611.40
479.08	11463.94
479.26	11573.95
479.44	11775.24
479.62	11557.57
479.80	11763.53
479.98	11861.84
480.16	12210.57
480.34	11918.01
480.52	12163.76
480.70	12135.68
480.88	12133.34
481.06	12409.52
481.24	12393.14
481.41	12606.13
481.59	12933.80
481.77	12784.01
481.95	12926.78
482.13	12903.37
482.31	13004.02
482.49	13128.06
482.67	13383.18
482.85	13385.52
483.03	13490.85
483.21	13633.62
483.39	13884.06
483.57	13827.88
483.74	13762.35
483.92	14061.94
484.10	14080.66
484.28	14235.14
484.46	14494.94
484.64	14728.99
484.82	14333.44
485.00	14670.48
485.18	14728.99
485.35	14888.15
485.53	14724.31
485.71	15145.61
485.89	15192.42
486.07	15499.03
486.25	15279.02
486.43	15318.81
486.61	15693.29
486.78	15758.83
486.96	15667.55
487.14	15880.53
487.32	16116.93
487.50	16280.77
487.68	16362.69
487.85	16297.15
488.03	16592.06
488.21	16685.68
488.39	16730.15
488.57	17247.41
488.75	17039.10
488.92	17181.87
489.10	17144.42
489.28	17530.61
489.46	17687.43
489.64	17731.90
489.81	17996.38
489.99	18127.45
490.17	18167.24
490.35	18494.91
490.53	18410.65
490.70	18611.94
490.88	18518.32
491.06	18558.11
491.24	19136.22
491.41	19225.16
491.59	19019.19
491.77	18817.91
491.95	19342.19
492.13	19506.02
492.30	19601.99
492.48	19513.05
492.66	19494.32
492.84	19721.35
493.01	20191.80
493.19	19967.11
493.37	20229.25
493.54	20327.55
493.72	20599.05
493.90	20519.48
494.08	20659.91
494.25	20795.66
494.43	20844.81
494.61	21235.68
494.79	21113.97
494.96	21231.00
495.14	21308.24
495.32	21603.14
495.49	21628.89
495.67	21884.01
495.85	21539.95
496.02	22082.95
496.20	22286.58
496.38	22377.86
496.55	22298.28
496.73	23009.81
496.91	22728.94
497.09	22874.06
497.26	22780.43
497.44	22771.07
497.62	23204.07
497.79	22953.63
497.97	23255.56
498.14	23723.67
498.32	23463.87
498.50	23578.56
498.67	24114.54
498.85	23885.17
499.03	23803.25
499.20	23927.30
499.38	24049.00
499.56	24280.72
499.73	24187.10
499.91	24077.09
500.08	24570.94
500.26	24755.85
500.44	24648.18
500.61	24704.35
500.79	24531.15
500.97	24655.20
501.14	25193.53
501.32	24978.20
501.49	25207.57
501.67	25118.63
501.84	25455.67
502.02	25247.36
502.20	25497.80
502.37	25603.12
502.55	25703.76
502.72	25797.38
502.90	25902.71
503.07	25633.55
503.25	25788.02
503.43	25668.66
503.60	26190.59
503.78	26171.87
503.95	26373.16
504.13	26642.32
504.30	26581.46
504.48	26544.02
504.65	26920.84
504.83	26843.60
505.01	27021.48
505.18	26576.78
505.36	27157.24
505.53	27248.52
505.71	27367.88
505.88	27292.99
506.06	27260.22
506.23	27520.02
506.41	27098.72
506.58	27597.26
506.76	27683.86
506.93	27700.24
507.11	27695.56
507.28	27667.47
507.46	27835.99
507.63	28460.91
507.81	28290.06
507.98	28081.75
508.16	28023.23
508.33	28716.03
508.50	28278.35
508.68	28720.71
508.85	29069.45
509.03	28978.17
509.20	28774.55
509.38	29062.43
509.55	29235.63
509.73	29291.80
509.90	29142.01
510.08	29347.98
510.25	29465.00
510.42	30064.18
510.60	29418.19
510.77	29942.47
510.95	29677.99
511.12	29628.84
511.30	29701.40
511.47	29823.11
511.64	29752.89
511.82	30235.04
511.99	30387.18
512.17	30263.13
512.34	30155.46
512.51	30712.51
512.69	30806.13
512.86	30829.54
513.04	30553.35
513.21	31028.48
513.38	31065.93
513.56	30848.26
513.73	30808.47
513.90	30845.92
514.08	31168.91
514.25	31072.95
514.43	31346.79
514.60	31529.36
514.77	31173.60
514.95	31810.22
515.12	31433.39
515.29	31747.03
515.47	31335.09
515.64	31938.95
515.81	31548.08
515.99	31634.68
516.16	32407.06
516.33	32306.41
516.51	31945.97
516.68	32320.46
516.85	32348.54
517.03	32283.01
517.20	32622.39
517.37	32718.35
517.54	32620.05
517.72	32421.10
517.89	32376.63
518.06	32797.93
518.24	32636.43
518.41	32577.92
518.58	33125.60
518.75	32765.16
518.93	33401.79
519.10	32917.29
519.27	33001.55
519.45	33401.79
519.62	33586.69
519.79	33680.31
519.96	33453.28
520.14	33682.65
520.31	33399.44
520.48	33776.27
520.65	33347.95
520.83	34136.71
521.00	34169.48
521.17	34527.58
521.34	34459.71
521.52	34377.79
521.69	34775.68
521.86	34637.59
522.03	34660.99
522.20	34930.16
522.38	34843.56
522.55	35000.37
522.72	34932.50
522.89	34689.08
523.07	35365.49
523.24	34862.28
523.41	35129.10
523.58	34916.11
523.75	35283.58
523.92	35091.65
524.10	35262.51
524.27	35442.73
524.44	35096.33
524.61	35599.55
524.78	35845.30
524.96	35728.28
525.13	35945.95
525.30	36051.27
525.47	36172.98
525.64	35789.13
525.81	35796.15
525.98	36442.14
526.16	36177.66
526.33	36020.84
526.50	36392.99
526.67	36198.73
526.84	36453.84
527.01	36229.15
527.18	36304.05
527.36	36278.30
527.53	36842.37
527.70	37167.71
527.87	36535.76
528.04	37029.62
528.21	36765.14
528.38	37275.37
528.55	37422.83
528.72	36683.22
528.89	37251.97
529.07	37006.21
529.24	37134.94
529.41	37404.10
529.58	37361.97
529.75	37464.96
529.92	36959.40
530.09	37418.14
530.26	37872.21
530.43	37783.27
530.60	36989.83
530.77	37436.87
530.94	37869.87
531.11	37553.90
531.28	37652.20
531.46	37607.73
531.63	37923.70
531.80	37930.72
531.97	37907.32
532.14	37940.08
532.31	38050.09
532.48	38625.86
532.65	38455.00
532.82	37996.26
532.99	38337.98
533.16	38485.43
533.33	38679.69
533.50	38352.02
533.67	38242.01
533.84	38368.40
534.01	38815.44
534.18	38794.38
534.35	39213.34
534.52	38670.33
534.69	39079.92
534.86	39129.08
535.03	38918.43
535.20	39243.76
535.37	39328.02
535.54	39379.51
535.71	39225.04
535.88	39243.76
536.05	39215.68
536.22	39629.95
536.38	39400.58
536.55	39440.37
536.72	39648.68
536.89	39276.53
537.06	39646.33
537.23	39917.84
537.40	39414.62
537.57	39459.09
537.74	39517.60
537.91	39983.37
538.08	39501.22
538.25	39732.93
538.42	39906.13
538.59	40081.67
538.75	39763.36
538.92	40074.65
539.09	40093.38
539.26	40053.59
539.43	40165.93
539.60	40409.35
539.77	40924.27
539.94	40755.75
540.11	40402.33
540.28	40552.12
540.44	40935.97
540.61	40273.60
540.78	40397.65
540.95	40615.32
541.12	40526.38
541.29	40275.94
541.46	40671.49
541.62	40727.66
541.79	41214.49
541.96	40467.86
542.13	40772.13
542.30	40907.88
542.47	41053.00
542.63	41113.85
542.80	41427.48
542.97	41682.60
543.14	41308.11
543.31	41193.43
543.48	41462.59
543.64	42047.72
543.81	41546.85
543.98	41874.52
544.15	41736.43
544.32	41865.16
544.48	42518.17
544.65	41539.83
544.82	42232.63
544.99	41640.47
545.16	42401.14
545.32	42288.80
545.49	42192.84
545.66	42525.19
545.83	42143.69
546.00	42384.76
546.16	42429.23
546.33	42087.51
546.50	42211.56
546.67	42464.34
546.83	42000.91
547.00	42309.86
547.17	42359.02
547.34	42351.99
547.50	43061.18
547.67	42845.85
547.84	42773.29
548.00	42724.14
548.17	43222.67
548.34	42761.59
548.51	42965.21
548.67	42806.06
548.84	43246.08
549.01	42728.82
549.18	42981.60
549.34	43363.11
549.51	43386.51
549.68	43229.69
549.84	42621.16
550.01	43335.02
550.18	42944.15
550.34	43136.07
550.51	43543.33
550.68	43306.93
550.84	43414.60
551.01	43470.77
551.18	43208.63
551.34	43445.02
551.51	43480.13
551.68	43576.09
551.84	43288.21
552.01	43309.27
552.18	44006.75
552.34	43185.22
552.51	43732.91
552.68	43962.28
552.84	43842.92
553.01	43917.81
553.18	43676.74
553.34	44406.98
553.51	43711.84
553.67	44414.01
553.84	43831.21
554.01	44135.48
554.17	43856.96
554.34	44477.20
554.51	43627.59
554.67	44582.52
554.84	44397.62
555.00	44334.43
555.17	44662.10
555.33	44704.23
555.50	44509.97
555.67	44257.19
555.83	44507.63
556.00	44706.57
556.16	44718.28
556.33	44467.84
556.50	44788.49
556.66	44280.60
556.83	44219.74
556.99	44875.09
557.16	44748.70
557.32	44842.32
557.49	44828.28
557.65	44917.22
557.82	44652.74
557.98	44971.05
558.15	44842.32
558.32	44729.98
558.48	44973.39
558.65	44938.29
558.81	44793.17
558.98	44732.32
559.14	44535.71
559.31	45031.91
559.47	44708.91
559.64	45134.89
559.80	45172.34
559.97	45324.47
560.13	45294.05
560.30	45200.43
560.46	45324.47
560.63	45111.49
560.79	45560.87
560.96	45516.40
561.12	45729.39
561.29	45539.80
561.45	45666.19
561.61	45525.76
561.78	45422.78
561.94	45397.03
562.11	45202.77
562.27	45450.86
562.44	45507.04
562.60	45944.72
562.77	45649.81
562.93	45301.07
563.10	45633.42
563.26	45382.99
563.42	46206.86
563.59	45783.22
563.75	45617.04
563.92	45542.14
564.08	45663.85
564.24	45743.43
564.41	45343.20
564.57	45900.25
564.74	45968.12
564.90	45408.73
565.07	45553.85
565.23	45911.95
565.39	45914.29
565.56	45574.91
565.72	45979.82
565.88	45837.05
566.05	46129.62
566.21	45869.82
566.38	46078.13
566.54	46101.53
566.70	46178.77
566.87	45827.69
567.03	46003.23
567.19	46096.85
567.36	45670.87
567.52	46265.37
567.68	46223.24
567.85	45979.82
568.01	46494.74
568.17	45584.27
568.34	46209.20
568.50	46295.80
568.66	45918.97
568.83	46321.54
568.99	46321.54
569.15	45963.44
569.32	46712.41
569.48	46162.39
569.64	46267.71
569.81	46494.74
569.97	46569.64
570.13	46447.93
570.30	46239.62
570.46	46337.93
570.62	46642.20
570.78	46464.32
570.95	46195.15
571.11	46525.17
571.27	46071.10
571.43	45949.40
571.60	46700.71
571.76	46234.94
571.92	46813.05
572.09	46429.21
572.25	46412.82
572.41	46178.77
572.57	46438.57
572.74	46976.89
572.90	46358.99
573.06	46501.76
573.22	46433.89
573.38	46485.38
573.55	46700.71
573.71	47187.54
573.87	46621.13
574.03	46726.46
574.20	46890.29
574.36	46480.70
574.52	46696.03
574.68	46534.53
574.84	46440.91
575.01	47023.70
575.17	47026.04
575.33	46939.44
575.49	46431.55
575.65	46504.10
575.82	46890.29
575.98	46822.42
576.14	47480.11
576.30	46939.44
576.46	46611.77
576.62	46822.42
576.79	46511.13
576.95	46291.12
577.11	46642.20
577.27	46801.35
577.43	46518.15
577.59	46454.95
577.75	47089.24
577.92	46293.46
578.08	46986.25
578.24	46953.49
578.40	46841.14
578.56	46941.78
578.72	46930.08
578.88	47093.92
579.04	46408.14
579.21	47147.75
579.37	47019.02
579.53	46983.91
579.69	47012.00
579.85	46824.76
580.01	46890.29
580.17	46550.91
580.33	47129.03
580.49	47012.00
580.65	46628.15
580.82	47075.19
580.98	46829.44
581.14	46897.31
581.30	47164.14
581.46	46864.55
581.62	46607.09
581.78	46527.51
581.94	47072.85
582.10	46543.89
582.26	47241.37
582.42	46658.58
582.58	46976.89
582.74	47093.92
582.90	46958.17
583.06	47239.03
583.22	47086.90
583.38	46595.38
583.54	47150.09
583.70	47208.61
583.86	46948.81
584.02	46824.76
584.18	47306.91
584.34	47470.75
584.50	47442.66
584.66	47318.61
584.82	47154.77
584.98	47576.07
585.14	47332.65
585.30	46726.46
585.46	47379.46
585.62	46852.84
585.78	47358.40
585.94	46691.35
586.10	46754.54
586.26	46485.38
586.42	47372.44
586.58	47449.68
586.74	47201.58
586.90	47262.44
587.06	47026.04
587.22	47526.92
587.38	46927.74
587.54	47302.23
587.70	47388.83
587.86	47098.60
588.02	46618.79
588.18	47012.00
588.34	47002.64
588.49	47337.33
588.65	47072.85
588.81	47276.48
588.97	47077.54
589.13	47367.76
589.29	47295.21
589.45	47309.25
589.61	47398.19
589.77	47487.13
589.93	47283.50
590.08	47576.07
