SpectraSuite Data File
++++++++++++++++++++++++++++++++++++
Date: Fri Oct 25 11:22:50 EDT 2013
User: price-jones
Dark Spectrum Present: No
Reference Spectrum Present: No
Number of Sampled Component Spectra: 1
Spectrometers: USB2+H05261
Integration Time (usec): 100000 (USB2+H05261)
Spectra Averaged: 1 (USB2+H05261)
Boxcar Smoothing: 0 (USB2+H05261)
Correct for Electrical Dark: No (USB2+H05261)
Strobe/Lamp Enabled: No (USB2+H05261)
Correct for Detector Non-linearity: No (USB2+H05261)
Correct for Stray Light: No (USB2+H05261)
Number of Pixels in Processed Spectrum: 2048
>>>>>Begin Processed Spectral Data<<<<<
365.73	287.89
365.92	287.89
366.12	287.89
366.32	170.86
366.52	126.39
366.72	182.56
366.91	74.90
367.11	100.64
367.31	65.54
367.51	102.98
367.70	63.19
367.90	147.45
368.10	77.24
368.30	187.24
368.49	49.15
368.69	112.35
368.89	142.77
369.09	184.90
369.28	152.13
369.48	124.05
369.68	135.75
369.87	194.26
370.07	212.99
370.27	264.48
370.47	248.10
370.66	566.41
370.86	671.73
371.06	681.10
371.25	664.71
371.45	613.22
371.65	692.80
371.84	655.35
372.04	657.69
372.24	746.63
372.44	643.65
372.63	739.61
372.83	690.46
373.03	781.74
373.22	746.63
373.42	683.44
373.62	798.12
373.81	753.65
374.01	784.08
374.21	814.51
374.40	760.67
374.60	861.32
374.79	777.06
374.99	805.14
375.19	812.17
375.38	858.98
375.58	816.85
375.78	849.61
375.97	884.72
376.17	961.96
376.37	882.38
376.56	821.53
376.76	866.00
376.95	882.38
377.15	889.40
377.35	922.17
377.54	940.90
377.74	854.30
377.93	903.45
378.13	971.32
378.33	938.55
378.52	940.90
378.72	968.98
378.91	950.26
379.11	889.40
379.31	943.24
379.50	933.87
379.70	1027.50
379.89	992.39
380.09	976.00
380.28	884.72
380.48	894.08
380.68	980.68
380.87	952.60
381.07	1057.92
381.26	1086.01
381.46	1032.18
381.65	1022.81
381.85	1001.75
382.04	1048.56
382.24	1128.14
382.43	1053.24
382.63	1111.75
382.83	1032.18
383.02	1086.01
383.22	1102.39
383.41	1137.50
383.61	1088.35
383.80	1135.16
384.00	1160.91
384.19	1100.05
384.39	1132.82
384.58	1071.97
384.78	1174.95
384.97	1263.89
385.17	1165.59
385.36	1224.10
385.56	1207.72
385.75	1142.18
385.95	1181.97
386.14	1188.99
386.34	1118.78
386.53	1135.16
386.72	1139.84
386.92	1221.76
387.11	1245.16
387.31	1263.89
387.50	1219.42
387.70	1214.74
387.89	1287.29
388.09	1249.85
388.28	1315.38
388.48	1336.45
388.67	1409.00
388.86	1254.53
389.06	1287.29
389.25	1357.51
389.45	1345.81
389.64	1425.39
389.84	1301.34
390.03	1441.77
390.22	1439.43
390.42	1315.38
390.61	1352.83
390.81	1399.64
391.00	1390.28
391.19	1383.26
391.39	1385.60
391.58	1404.32
391.78	1509.65
391.97	1481.56
392.16	1481.56
392.36	1472.20
392.55	1472.20
392.75	1577.52
392.94	1481.56
393.13	1467.52
393.33	1423.05
393.52	1530.71
393.71	1589.22
393.91	1682.85
394.10	1640.72
394.29	1612.63
394.49	1572.84
394.68	1549.43
394.88	1596.25
395.07	1579.86
395.26	1706.25
395.46	1624.33
395.65	1647.74
395.84	1764.76
396.04	1839.66
396.23	1732.00
396.42	1734.34
396.62	1837.32
396.81	1811.57
397.00	1717.95
397.19	1856.04
397.39	1881.79
397.58	1944.99
397.77	1860.73
397.97	1788.17
398.16	1797.53
398.35	1849.02
398.55	1748.38
398.74	1989.46
398.93	2033.93
399.12	1956.69
399.32	1902.86
399.51	2001.16
399.70	1996.48
399.90	1977.75
400.09	1956.69
400.28	2059.67
400.47	2083.08
400.67	2108.82
400.86	2008.18
401.05	2111.16
401.24	2141.59
401.44	2120.53
401.63	2197.76
401.82	2146.27
402.01	2120.53
402.21	2253.94
402.40	2293.72
402.59	2141.59
402.78	2347.56
402.97	2300.75
403.17	2211.81
403.36	2373.30
403.55	2300.75
403.74	2310.11
403.93	2289.04
404.13	2382.67
404.32	2504.37
404.51	2495.01
404.70	2382.67
404.89	2443.52
405.09	2588.63
405.28	2422.45
405.47	2523.10
405.66	2483.31
405.85	2492.67
406.05	2487.99
406.24	2506.71
406.43	2607.36
406.62	2633.10
406.81	2633.10
407.00	2534.80
407.20	2588.63
407.39	2595.65
407.58	2754.81
407.77	2691.62
407.96	2729.06
408.15	2792.26
408.34	2708.00
408.54	2867.16
408.73	2733.75
408.92	2888.22
409.11	2993.55
409.30	3005.25
409.49	2967.80
409.68	2979.50
409.87	3042.70
410.07	2960.78
410.26	3075.46
410.45	3150.36
410.64	3098.87
410.83	3169.09
411.02	3112.91
411.21	3267.39
411.40	3178.45
411.59	3159.72
411.78	3185.47
411.98	3255.69
412.17	3150.36
412.36	3417.18
412.55	3283.77
412.74	3421.86
412.93	3375.05
413.12	3412.50
413.31	3459.31
413.50	3534.21
413.69	3480.38
413.88	3695.71
414.07	3611.45
414.26	3751.88
414.45	3758.90
414.64	3646.55
414.83	3878.27
415.02	3791.67
415.22	3896.99
415.41	3918.06
415.60	3971.89
415.79	4016.36
415.98	3985.93
416.17	3934.44
416.36	4007.00
416.55	3948.48
416.74	3990.61
416.93	4084.23
417.12	4109.98
417.31	4093.60
417.50	4245.73
417.69	4454.04
417.88	4381.48
418.07	4276.16
418.26	4318.29
418.45	4297.22
418.64	4596.81
418.83	4470.42
419.02	4416.59
419.21	4510.21
419.39	4638.94
419.58	4510.21
419.77	4500.85
419.96	4655.33
420.15	4631.92
420.34	4514.89
420.53	4589.79
420.72	4725.54
420.91	4667.03
421.10	4744.27
421.29	4793.42
421.48	4720.86
421.67	4856.61
421.86	4882.36
422.05	4837.89
422.24	4861.29
422.43	4894.06
422.61	4938.53
422.80	5022.79
422.99	4992.36
423.18	5109.39
423.37	5188.97
423.56	5018.11
423.75	4877.68
423.94	4891.72
424.13	4767.67
424.32	4664.69
424.50	4957.25
424.69	5088.32
424.88	4983.00
425.07	5043.85
425.26	4844.91
425.45	4898.74
425.64	5057.90
425.83	4980.66
426.01	4922.15
426.20	4980.66
426.39	5027.47
426.58	5015.77
426.77	5130.45
426.96	5212.37
427.15	5057.90
427.33	5305.99
427.52	4943.21
427.71	5261.52
427.90	5160.88
428.09	5369.19
428.28	5277.91
428.46	5315.36
428.65	5341.10
428.84	5483.88
429.03	5355.15
429.22	5357.49
429.40	5373.87
429.59	5313.02
429.78	5413.66
429.97	5336.42
430.16	5460.47
430.34	5540.05
430.53	5701.54
430.72	5575.16
430.91	5626.65
431.10	5631.33
431.28	5788.14
431.47	5858.36
431.66	5827.93
431.85	5921.56
432.03	5947.30
432.22	5830.27
432.41	5912.19
432.60	6078.37
432.79	6078.37
432.97	6139.23
433.16	5991.77
433.35	5949.64
433.54	6174.33
433.72	5994.11
433.91	6134.54
434.10	6394.34
434.28	6076.03
434.47	6370.94
434.66	6279.66
434.85	6324.13
435.03	6420.09
435.22	6256.25
435.41	6317.11
435.59	6424.77
435.78	6553.50
435.97	6448.18
436.16	6373.28
436.34	6602.65
436.53	6696.27
436.72	6740.74
436.90	6352.21
437.09	6703.29
437.28	6583.93
437.46	6712.66
437.65	6649.46
437.84	6925.65
438.02	6888.20
438.21	6715.00
438.40	6609.67
438.58	6986.50
438.77	6967.77
438.96	6981.82
439.14	7112.89
439.33	7101.19
439.52	7199.49
439.70	7407.80
439.89	7283.75
440.08	7379.71
440.26	7386.73
440.45	7323.54
440.63	7662.91
440.82	7658.23
441.01	7550.57
441.19	7454.61
441.38	7770.58
441.57	7679.30
441.75	7702.70
441.94	8081.87
442.12	8011.65
442.31	8133.36
442.50	7988.25
442.68	7709.72
442.87	7936.76
443.05	8278.47
443.24	8119.32
443.43	8145.06
443.61	8280.82
443.80	8512.53
443.98	8131.02
444.17	8053.78
444.35	8365.07
444.54	8535.93
444.73	8306.56
444.91	8374.44
445.10	8542.96
445.28	8351.03
445.47	8404.86
445.65	8259.75
445.84	8491.46
446.02	8638.92
446.21	8571.04
446.39	8395.50
446.58	8500.83
446.77	8538.27
446.95	8283.16
447.14	8521.89
447.32	8489.12
447.51	8482.10
447.69	8716.16
447.88	8819.14
448.06	8634.24
448.25	8674.03
448.43	8734.88
448.62	8709.13
448.80	8482.10
448.99	9062.55
449.17	8894.04
449.36	8730.20
449.54	8952.55
449.73	9074.26
449.91	9224.05
450.10	9158.52
450.28	9224.05
450.46	8994.68
450.65	9217.03
450.83	9170.22
451.02	9121.07
451.20	9167.88
451.39	9081.28
451.57	9289.59
451.76	9266.18
451.94	9270.86
452.13	9460.45
452.31	9383.21
452.49	9275.54
452.68	9467.47
452.86	9341.08
453.05	9570.45
453.23	9486.19
453.42	9355.12
453.60	9549.39
453.78	9689.82
453.97	9500.23
454.15	9549.39
454.34	9500.23
454.52	9556.41
454.70	9797.48
454.89	9708.54
455.07	9757.69
455.26	9912.17
455.44	9951.96
455.62	10033.88
455.81	9872.38
455.99	10036.22
456.17	10333.47
456.36	10111.11
456.54	10321.76
456.73	10127.50
456.91	10651.78
457.09	10354.53
457.28	10513.69
457.46	10188.35
457.64	10677.52
457.83	10539.43
458.01	10642.42
458.19	10619.01
458.38	10530.07
458.56	11000.52
458.74	10862.43
458.93	10824.98
459.11	10822.64
459.29	10656.46
459.48	10911.58
459.66	10977.11
459.84	11143.29
460.03	11199.46
460.21	10869.45
460.39	11115.20
460.57	11206.48
460.76	11440.54
460.94	11075.42
461.12	11363.30
461.31	11112.86
461.49	11173.72
461.67	11232.23
461.85	11569.27
462.04	11190.10
462.22	11793.96
462.40	11728.42
462.59	11419.47
462.77	11555.22
462.95	11669.91
463.13	11648.85
463.32	11688.64
463.50	11808.00
463.68	11793.96
463.86	11808.00
464.05	11932.05
464.23	11793.96
464.41	12084.19
464.59	11971.84
464.78	12348.67
464.96	12250.36
465.14	12013.97
465.32	11810.34
465.50	12175.47
465.69	12329.94
465.87	12463.35
466.05	12285.47
466.23	12397.82
466.41	12383.77
466.60	12355.69
466.78	12219.94
466.96	12203.55
467.14	12542.93
467.32	12542.93
467.51	12430.59
467.69	12468.03
467.87	12461.01
468.05	12592.08
468.23	12748.90
468.41	12559.31
468.60	12692.73
468.78	13053.17
468.96	12786.35
469.14	12683.36
469.32	13006.36
469.50	12556.97
469.69	13348.08
469.87	13327.01
470.05	13200.62
470.23	13214.66
470.41	13254.45
470.59	13406.59
470.77	13310.63
470.95	13319.99
471.14	13511.91
471.32	13334.03
471.50	13474.46
471.68	13614.90
471.86	13654.69
472.04	13781.07
472.22	14202.37
472.40	14040.87
472.58	13818.52
472.77	13991.72
472.95	14384.93
473.13	14518.34
473.31	14120.45
473.49	13970.66
473.67	14200.03
473.85	14352.16
474.03	14721.97
474.21	14602.60
474.39	14663.46
474.57	14960.70
474.75	14899.85
474.93	15311.78
475.12	15033.26
475.30	15398.38
475.48	15056.67
475.66	15171.35
475.84	15370.30
476.02	15735.42
476.20	15300.08
476.38	15777.55
476.56	16088.84
476.74	16025.65
476.92	15833.72
477.10	15941.39
477.28	16374.39
477.46	16079.48
477.64	16402.47
477.82	16713.77
478.00	17158.47
478.18	16926.75
478.36	16943.14
478.54	17137.40
478.72	17142.08
478.90	17406.56
479.08	17727.22
479.26	17954.25
479.44	17877.01
479.62	18036.17
479.80	18239.79
479.98	18637.69
480.16	18796.84
480.34	18530.02
480.52	18764.07
480.70	18700.88
480.88	18401.29
481.06	18920.89
481.24	19073.03
481.41	19150.26
481.59	19536.45
481.77	19840.72
481.95	19728.38
482.13	19789.23
482.31	19814.98
482.49	20463.30
482.67	20325.21
482.85	20594.37
483.03	20900.98
483.21	20538.20
483.39	21366.75
483.57	20856.51
483.74	21252.06
483.92	21565.70
484.10	21336.32
484.28	21806.77
484.46	22525.32
484.64	22434.03
484.82	22326.37
485.00	22508.93
485.18	22792.14
485.35	22993.42
485.53	22974.70
485.71	23374.93
485.89	23758.78
486.07	23653.45
486.25	23506.00
486.43	23723.67
486.61	24051.34
486.78	24383.70
486.96	24489.03
487.14	24627.12
487.32	24819.04
487.50	25170.12
487.68	25137.35
487.85	25546.95
488.03	25902.71
488.21	26356.77
488.39	26094.63
488.57	26080.59
488.75	26562.74
488.92	26359.11
489.10	27232.13
489.28	27206.39
489.46	27468.53
489.64	27337.46
489.81	27711.94
489.99	27978.76
490.17	27929.61
490.35	28257.29
490.53	28584.96
490.70	28877.53
490.88	28381.34
491.06	29120.95
491.24	28772.21
491.41	29425.22
491.59	29673.31
491.77	29823.11
491.95	29809.06
492.13	30457.39
492.30	30368.45
492.48	30401.22
492.66	30558.03
492.84	30185.89
493.01	30918.48
493.19	30824.86
493.37	31089.34
493.54	31417.01
493.72	31627.66
493.90	31641.70
494.08	32299.39
494.25	32224.50
494.43	32182.37
494.61	32524.08
494.79	32741.75
494.96	33078.79
495.14	33069.43
495.32	33661.58
495.49	33443.91
495.67	33724.78
495.85	33979.90
496.02	34192.89
496.20	34209.27
496.38	34352.04
496.55	34476.09
496.73	35108.04
496.91	34785.04
497.09	35108.04
497.26	35016.75
497.44	35185.27
497.62	35475.50
497.79	36320.43
497.97	35824.24
498.14	36240.86
498.32	36278.30
498.50	36395.33
498.67	36861.10
498.85	36957.06
499.03	36821.31
499.20	36783.86
499.38	37109.19
499.56	37476.66
499.73	37518.79
499.91	37804.33
500.08	37848.80
500.26	37691.99
500.44	38080.52
500.61	38059.45
500.79	38330.95
500.97	38490.11
501.14	38972.26
501.32	38899.70
501.49	38696.08
501.67	38990.98
501.84	39105.67
502.02	38813.10
502.20	39311.64
502.37	39487.18
502.55	39056.52
502.72	40051.25
502.90	39997.41
503.07	39587.82
503.25	40107.42
503.43	40144.87
503.60	40292.32
503.78	40517.01
503.95	40299.34
504.13	40940.65
504.30	41095.13
504.48	40938.31
504.65	41022.57
504.83	41205.13
505.01	41560.89
505.18	41734.09
505.36	41949.42
505.53	41670.90
505.71	41626.43
505.88	42141.35
506.06	41647.49
506.23	42309.86
506.41	42335.61
506.58	42272.42
506.76	42670.31
506.93	43126.71
507.11	42712.44
507.28	43112.67
507.46	43175.86
507.63	42976.92
507.81	43636.95
507.98	43278.85
508.16	43342.04
508.33	43943.56
508.50	43510.56
508.68	43772.70
508.85	44142.50
509.03	44332.09
509.20	44135.48
509.38	44509.97
509.55	44268.89
509.73	45214.47
509.90	44924.24
510.08	44980.42
510.25	45050.63
510.42	44891.48
510.60	45390.01
510.77	45439.16
510.95	45888.54
511.12	45626.40
511.30	45322.13
511.47	45907.27
511.64	45546.82
511.82	46094.51
511.99	46028.98
512.17	46389.42
512.34	46328.56
512.51	46897.31
512.69	47138.39
512.86	46415.16
513.04	46602.41
513.21	46902.00
513.38	47346.70
513.56	47463.72
513.73	47168.82
513.90	47416.91
514.08	47035.41
514.25	47426.28
514.43	47941.19
514.60	47704.80
514.77	47915.45
514.95	47847.57
515.12	47433.30
515.29	48147.16
515.47	48259.51
515.64	48748.68
515.81	47859.27
515.99	48753.36
516.16	49008.48
516.33	48830.60
516.51	49008.48
516.68	48718.25
516.85	48921.88
517.03	49448.50
517.20	49034.22
517.37	49102.10
517.54	48861.02
517.72	49322.11
517.89	49647.44
518.06	49326.79
518.24	49488.29
518.41	49418.07
518.58	49804.26
518.75	49509.35
518.93	50068.74
519.10	50153.00
519.27	50042.99
519.45	50171.72
519.62	50487.70
519.79	50422.16
519.96	49902.56
520.14	50829.41
520.31	50370.67
520.48	50380.03
520.65	50745.15
520.83	50885.59
521.00	51105.60
521.17	51152.41
521.34	50913.67
521.52	51096.24
521.69	50808.35
521.86	51339.65
522.03	51536.26
522.20	51531.57
522.38	51716.48
522.55	51707.12
522.72	51618.17
522.89	51456.68
523.07	51819.46
523.24	51693.07
523.41	51969.26
523.58	51503.49
523.75	52257.14
523.92	51861.59
524.10	52313.31
524.27	52310.97
524.44	52355.44
524.61	52519.28
524.78	52280.55
524.96	52575.45
525.13	52715.89
525.30	53010.79
525.47	52715.89
525.64	53081.01
525.81	52772.06
525.98	52837.59
526.16	52978.03
526.33	53031.86
526.50	53317.40
526.67	53010.79
526.84	53258.89
527.01	53221.44
527.18	53085.69
527.36	53268.25
527.53	53310.38
527.70	53668.48
527.87	53539.75
528.04	53422.73
528.21	53750.40
528.38	53588.91
528.55	53778.49
528.72	53645.08
528.89	53755.08
529.07	53427.41
529.24	53881.47
529.41	54150.63
529.58	53935.30
529.75	53696.57
529.92	54059.35
530.09	54251.28
530.26	54066.38
530.43	54120.21
530.60	54162.34
530.77	53942.33
530.94	54391.71
531.11	54197.44
531.28	54747.47
531.46	54480.65
531.63	54667.89
531.80	54712.36
531.97	54553.21
532.14	54932.37
532.31	54937.05
532.48	54775.56
532.65	54941.74
532.82	54635.13
532.99	54665.55
533.16	54866.84
533.33	55175.79
533.50	55152.38
533.67	55047.06
533.84	54656.19
534.01	55234.30
534.18	55002.59
534.35	55664.96
534.52	55428.57
534.69	55622.83
534.86	55482.40
535.03	55220.26
535.20	55592.40
535.37	55580.70
535.54	55461.33
535.71	55643.90
535.88	55793.69
536.05	55398.14
536.22	55866.25
536.38	55660.28
536.55	55613.47
536.72	55789.01
536.89	55798.37
537.06	55770.28
537.23	56147.11
537.40	55735.18
537.57	55994.98
537.74	56074.55
537.91	56200.94
538.08	56179.88
538.25	56100.30
538.42	56020.72
538.59	56222.01
538.75	56367.12
538.92	56329.67
539.09	56339.04
539.26	56296.91
539.43	56224.35
539.60	56442.02
539.77	56465.42
539.94	56633.94
540.11	56666.71
540.28	56608.20
540.44	56584.79
540.61	56566.07
540.78	56704.16
540.95	56491.17
541.12	56570.75
541.29	56750.97
541.46	56582.45
541.62	57013.11
541.79	57144.18
541.96	56390.53
542.13	56807.14
542.30	57200.35
542.47	57301.00
542.63	57139.50
542.80	57092.69
542.97	57293.97
543.14	57324.40
543.31	57485.90
543.48	57551.43
543.64	57670.80
543.81	57698.89
543.98	57609.95
544.15	57476.54
544.32	57743.36
544.48	57900.17
544.65	57567.82
544.82	57584.20
544.99	57429.72
545.16	57832.30
545.32	57556.11
545.49	57958.69
545.66	57904.85
545.83	57783.15
546.00	57771.44
546.16	57832.30
546.33	57558.45
546.50	57832.30
546.67	57762.08
546.83	57813.57
547.00	57963.37
547.17	57979.75
547.34	58035.92
547.50	58082.73
547.67	58436.16
547.84	58206.78
548.00	58443.18
548.17	58700.64
548.34	58361.26
548.51	58419.77
548.67	58391.68
548.84	58478.28
549.01	58293.38
549.18	58190.40
549.34	58370.62
549.51	58426.79
549.68	58562.54
549.84	58571.91
550.01	58478.28
550.18	58408.07
550.34	58794.26
550.51	58532.12
550.68	58791.92
550.84	58571.91
551.01	58871.49
551.18	58674.89
551.34	58501.69
551.51	58988.52
551.68	59018.95
551.84	58768.51
552.01	58642.12
552.18	58908.94
552.34	59002.56
552.51	59044.69
552.68	58979.16
552.84	58932.35
553.01	59135.98
553.18	58976.82
553.34	59072.78
553.51	58908.94
553.67	59009.59
553.84	59131.29
554.01	59185.13
554.17	59299.81
554.34	59330.24
554.51	59175.76
554.67	59302.15
554.84	58993.20
555.00	59325.56
555.17	59175.76
555.33	59227.26
555.50	59152.36
555.67	59171.08
555.83	59021.29
556.00	59274.07
556.16	59552.59
556.33	59564.29
556.50	59313.86
556.66	59693.02
556.83	59292.79
556.99	59512.80
557.16	59669.62
557.32	59751.54
557.49	59913.03
557.65	59465.99
557.82	59585.36
557.98	59597.06
558.15	59653.23
558.32	59643.87
558.48	59470.67
558.65	59657.91
558.81	59714.09
558.98	59758.56
559.14	59702.38
559.31	59786.64
559.47	60025.38
559.64	59910.69
559.80	59758.56
559.97	59966.87
560.13	59908.35
560.30	59831.11
560.46	60032.40
560.63	59880.27
560.79	60072.19
560.96	60149.43
561.12	60111.98
561.29	60009.00
561.45	60053.47
561.61	60102.62
561.78	60018.36
561.94	60135.38
562.11	59952.82
562.27	60018.36
562.44	60224.32
562.60	60200.92
562.77	60226.66
562.93	60013.68
563.10	60282.84
563.26	60090.91
563.42	60257.09
563.59	60083.89
563.75	60133.04
563.92	60301.56
564.08	60207.94
564.24	60376.46
564.41	60198.58
564.57	60275.82
564.74	60247.73
564.90	60383.48
565.07	60200.92
565.23	60364.76
565.39	60257.09
565.56	60168.15
565.72	60392.84
565.88	60495.83
566.05	60385.82
566.21	60327.31
566.38	60507.53
566.54	60465.40
566.70	60659.66
566.87	60582.43
567.03	60254.75
567.19	60636.26
567.36	60598.81
567.52	60425.61
567.68	60711.16
567.85	60718.18
568.01	60500.51
568.17	60390.50
568.34	60446.68
568.50	60533.28
568.66	60498.17
568.83	60612.85
568.99	60542.64
569.15	60566.04
569.32	60603.49
569.48	60711.16
569.64	60725.20
569.81	60748.60
569.97	60626.90
570.13	60594.13
570.30	60573.06
570.46	60636.26
570.62	60837.54
570.78	60795.42
570.95	60706.47
571.11	60973.30
571.27	60640.94
571.43	60654.98
571.60	60839.89
571.76	60809.46
571.92	60755.63
572.09	60772.01
572.25	60704.13
572.41	60704.13
572.57	60907.76
572.74	61160.54
572.90	60755.63
573.06	60767.33
573.22	60748.60
573.38	60811.80
573.55	60802.44
573.71	61144.16
573.87	61048.19
574.03	60685.41
574.20	60828.18
574.36	60734.56
574.52	60842.23
574.68	60963.93
574.84	61275.22
575.01	61059.90
575.17	61050.53
575.33	60870.31
575.49	60807.12
575.65	60800.10
575.82	60952.23
575.98	60907.76
576.14	61003.72
576.30	60987.34
576.46	61155.86
576.62	60867.97
576.79	61027.13
576.95	60970.96
577.11	61059.90
577.27	61151.18
577.43	61041.17
577.59	60931.17
577.75	61064.58
577.92	60788.39
578.08	60970.96
578.24	61102.03
578.40	61076.28
578.56	61087.98
578.72	61097.34
578.88	61095.00
579.04	61378.21
579.21	61188.63
579.37	61104.37
579.53	61165.22
579.69	61073.94
579.85	61113.73
580.01	61144.16
580.17	60975.64
580.33	61097.34
580.49	60935.85
580.65	61041.17
580.82	61066.92
580.98	61022.45
581.14	60891.38
581.30	61062.24
581.46	61298.63
581.62	61216.71
581.78	61106.71
581.94	61230.75
582.10	61013.08
582.26	61132.45
582.42	61123.09
582.58	61399.27
582.74	61139.47
582.90	61160.54
583.06	60898.40
583.22	60849.25
583.38	61317.35
583.54	61151.18
583.70	61265.86
583.86	61214.37
584.02	61052.87
584.18	61315.01
584.34	61291.61
584.50	61228.41
584.66	61073.94
584.82	60973.30
584.98	61254.16
585.14	61050.53
585.30	61249.48
585.46	61380.55
585.62	61258.84
585.78	61359.48
585.94	61193.31
586.10	61343.10
586.26	61268.20
586.42	61443.74
586.58	61359.48
586.74	61279.91
586.90	61261.18
587.06	61392.25
587.22	61455.45
587.38	61221.39
587.54	61581.84
587.70	61413.32
587.86	61111.39
588.02	61221.39
588.18	61399.27
588.34	61401.61
588.49	61427.36
