SpectraSuite Data File
++++++++++++++++++++++++++++++++++++
Date: Fri Oct 25 10:48:21 EDT 2013
User: price-jones
Dark Spectrum Present: No
Reference Spectrum Present: No
Number of Sampled Component Spectra: 1
Spectrometers: USB2+H05261
Integration Time (usec): 100000 (USB2+H05261)
Spectra Averaged: 1 (USB2+H05261)
Boxcar Smoothing: 0 (USB2+H05261)
Correct for Electrical Dark: No (USB2+H05261)
Strobe/Lamp Enabled: No (USB2+H05261)
Correct for Detector Non-linearity: No (USB2+H05261)
Correct for Stray Light: No (USB2+H05261)
Number of Pixels in Processed Spectrum: 2048
>>>>>Begin Processed Spectral Data<<<<<
365.73	114.69
365.92	114.69
366.12	114.69
366.32	14.04
366.52	0.00
366.72	60.85
366.91	58.51
367.11	72.56
367.31	25.75
367.51	91.28
367.70	2.34
367.90	7.02
368.10	25.75
368.30	65.54
368.49	0.00
368.69	46.81
368.89	79.58
369.09	77.24
369.28	93.62
369.48	88.94
369.68	86.60
369.87	93.62
370.07	135.75
370.27	147.45
370.47	191.92
370.66	402.57
370.86	491.51
371.06	545.34
371.25	456.40
371.45	383.85
371.65	585.13
371.84	435.34
372.04	545.34
372.24	519.60
372.44	550.03
372.63	582.79
372.83	550.03
373.03	561.73
373.22	512.58
373.42	622.58
373.62	559.39
373.81	552.37
374.01	627.26
374.21	657.69
374.40	603.86
374.60	550.03
374.79	699.82
374.99	573.43
375.19	582.79
375.38	615.56
375.58	580.45
375.78	571.09
375.97	641.31
376.17	613.22
376.37	667.05
376.56	631.94
376.76	622.58
376.95	631.94
377.15	690.46
377.35	645.99
377.54	631.94
377.74	669.39
377.93	622.58
378.13	678.76
378.33	753.65
378.52	744.29
378.72	784.08
378.91	685.78
379.11	695.14
379.31	716.20
379.50	657.69
379.70	772.38
379.89	753.65
380.09	697.48
380.28	648.33
380.48	624.92
380.68	683.44
380.87	758.33
381.07	716.20
381.26	800.46
381.46	678.76
381.65	723.23
381.85	795.78
382.04	744.29
382.24	800.46
382.43	697.48
382.63	765.36
382.83	720.88
383.02	748.97
383.22	770.04
383.41	748.97
383.61	774.72
383.80	802.80
384.00	880.04
384.19	798.12
384.39	849.61
384.58	814.51
384.78	866.00
384.97	898.77
385.17	849.61
385.36	870.68
385.56	823.87
385.75	774.72
385.95	880.04
386.14	875.36
386.34	922.17
386.53	938.55
386.72	779.40
386.92	847.27
387.11	887.06
387.31	882.38
387.50	833.23
387.70	922.17
387.89	957.28
388.09	978.34
388.28	931.53
388.48	922.17
388.67	971.32
388.86	976.00
389.06	973.66
389.25	968.98
389.45	1011.11
389.64	1090.69
389.84	985.37
390.03	1053.24
390.22	1043.88
390.42	1008.77
390.61	1081.33
390.81	1128.14
391.00	1116.44
391.19	1062.60
391.39	1111.75
391.58	1132.82
391.78	1097.71
391.97	1118.78
392.16	1104.73
392.36	1043.88
392.55	1107.07
392.75	1034.52
392.94	966.64
393.13	1032.18
393.33	1057.92
393.52	1086.01
393.71	1081.33
393.91	1186.65
394.10	1132.82
394.29	1242.82
394.49	1200.69
394.68	1254.53
394.88	1179.63
395.07	1221.76
395.26	1355.17
395.46	1245.16
395.65	1317.72
395.84	1324.74
396.04	1275.59
396.23	1242.82
396.42	1308.36
396.62	1224.10
396.81	1177.29
397.00	1270.91
397.19	1371.55
397.39	1430.07
397.58	1465.18
397.77	1350.49
397.97	1533.05
398.16	1446.45
398.35	1561.14
398.55	1486.24
398.74	1600.93
398.93	1458.15
399.12	1521.35
399.32	1568.16
399.51	1521.35
399.70	1621.99
399.90	1657.10
400.09	1631.35
400.28	1596.25
400.47	1626.67
400.67	1664.12
400.86	1760.08
401.05	1624.33
401.24	1699.23
401.44	1743.70
401.63	1820.94
401.82	1767.10
402.01	1708.59
402.21	1806.89
402.40	1755.40
402.59	1823.28
402.78	1802.21
402.97	1792.85
403.17	1760.08
403.36	1851.36
403.55	1940.30
403.74	1970.73
403.93	1877.11
404.13	1898.17
404.32	1959.03
404.51	1961.37
404.70	1909.88
404.89	1982.43
405.09	1935.62
405.28	1909.88
405.47	2026.90
405.66	2120.53
405.85	2132.23
406.05	1991.80
406.24	2085.42
406.43	2085.42
406.62	2160.31
406.81	2169.68
407.00	2207.13
407.20	1947.33
407.39	2122.87
407.58	2167.34
407.77	2392.03
407.96	2408.41
408.15	2324.15
408.34	2303.09
408.54	2356.92
408.73	2406.07
408.92	2377.98
409.11	2356.92
409.30	2420.11
409.49	2382.67
409.68	2445.86
409.87	2258.62
410.07	2417.77
410.26	2516.08
410.45	2518.42
410.64	2392.03
410.83	2565.23
411.02	2703.32
411.21	2726.72
411.40	2719.70
411.59	2712.68
411.78	2626.08
411.98	2677.57
412.17	2761.83
412.36	2726.72
412.55	2806.30
412.74	2787.58
412.93	2808.64
413.12	2853.11
413.31	3019.29
413.50	2871.84
413.69	3005.25
413.88	3009.93
414.07	2928.01
414.26	2991.20
414.45	3124.62
414.64	2963.12
414.83	3112.91
415.02	3281.43
415.22	3194.83
415.41	3243.98
415.60	3155.04
415.79	3295.47
415.98	3517.83
416.17	3487.40
416.36	3295.47
416.55	3391.44
416.74	3501.44
416.93	3456.97
417.12	3513.14
417.31	3403.14
417.50	3396.12
417.69	3721.45
417.88	3538.89
418.07	3503.78
418.26	3555.27
418.45	3578.68
418.64	3714.43
418.83	3749.54
419.02	3634.85
419.21	3592.72
419.39	3789.33
419.58	3620.81
419.77	3578.68
419.96	3679.32
420.15	3782.31
420.34	3733.15
420.53	3824.44
420.72	4016.36
420.91	3936.78
421.10	3868.91
421.29	3992.95
421.48	3845.50
421.67	3950.82
421.86	3899.33
422.05	4056.15
422.24	4037.42
422.43	3913.38
422.61	4077.21
422.80	4023.38
422.99	4037.42
423.18	4039.76
423.37	4133.39
423.56	4142.75
423.75	3939.12
423.94	4028.06
424.13	3859.54
424.32	4039.76
424.50	4138.07
424.69	4011.68
424.88	4025.72
425.07	4079.55
425.26	4119.34
425.45	4107.64
425.64	4098.28
425.83	4081.89
426.01	4074.87
426.20	4149.77
426.39	4212.96
426.58	4086.58
426.77	4030.40
426.96	4290.20
427.15	4147.43
427.33	4180.20
427.52	4203.60
427.71	4299.56
427.90	4243.39
428.09	4294.88
428.28	4248.07
428.46	4283.18
428.65	4278.50
428.84	4444.68
429.03	4402.55
429.22	4381.48
429.40	4271.48
429.59	4390.84
429.78	4079.55
429.97	3988.27
430.16	4236.37
430.34	4266.80
430.53	4259.78
430.72	4376.80
430.91	4400.21
431.10	4498.51
431.28	4657.67
431.47	4711.50
431.66	4863.63
431.85	4678.73
432.03	4786.40
432.22	4709.16
432.41	4676.39
432.60	4807.46
432.79	4940.87
432.97	4854.27
433.16	4884.70
433.35	4727.88
433.54	4762.99
433.72	4865.97
433.91	4795.76
434.10	4856.61
434.28	5053.22
434.47	4971.30
434.66	5184.29
434.85	5078.96
435.03	5170.24
435.22	5097.69
435.41	5186.63
435.59	5214.71
435.78	5336.42
435.97	5275.57
436.16	5362.17
436.34	5404.30
436.53	5238.12
436.72	5455.79
436.90	5228.76
437.09	5493.24
437.28	5289.61
437.46	5493.24
437.65	5315.36
437.84	5404.30
438.02	5322.38
438.21	5380.89
438.40	5416.00
438.58	5570.48
438.77	5692.18
438.96	5565.79
439.14	5706.23
439.33	5811.55
439.52	5823.25
439.70	5788.14
439.89	5809.21
440.08	5806.87
440.26	6001.13
440.45	5898.15
440.63	6073.69
440.82	6256.25
441.01	6036.24
441.19	6052.63
441.38	6211.78
441.57	6202.42
441.75	6382.64
441.94	6464.56
442.12	6607.33
442.31	6499.67
442.50	6675.21
442.68	6602.65
442.87	6707.98
443.05	6595.63
443.24	6717.34
443.43	6574.56
443.61	6703.29
443.80	6799.26
443.98	6532.44
444.17	6396.68
444.35	6817.98
444.54	6855.43
444.73	6848.41
444.91	6663.51
445.10	6642.44
445.28	6726.70
445.47	6565.20
445.65	6693.93
445.84	6672.87
446.02	6761.81
446.21	6590.95
446.39	6832.02
446.58	6942.03
446.77	6862.45
446.95	6883.52
447.14	7002.88
447.32	7140.97
447.51	6970.12
447.69	6778.19
447.88	6972.46
448.06	6963.09
448.25	7047.35
448.43	7084.80
448.62	6869.47
448.80	6958.41
448.99	7178.42
449.17	7033.31
449.36	7016.93
449.54	7166.72
449.73	7339.92
449.91	7431.20
450.10	7290.77
450.28	7417.16
450.46	7534.18
450.65	7442.90
450.83	7513.12
451.02	7576.31
451.20	7447.58
451.39	7391.41
451.57	7276.73
451.76	7365.67
451.94	7513.12
452.13	7686.32
452.31	7559.93
452.49	7442.90
452.68	7433.54
452.86	7520.14
453.05	7576.31
453.23	7770.58
453.42	7412.48
453.60	7517.80
453.78	7613.76
453.97	7754.19
454.15	7728.45
454.34	7590.36
454.52	7826.75
454.70	7779.94
454.89	7925.05
455.07	7585.68
455.26	7819.73
455.44	7906.33
455.62	8058.46
455.81	7887.61
455.99	7969.52
456.17	8234.00
456.36	8184.85
456.54	8091.23
456.73	8306.56
456.91	8339.33
457.09	8475.08
457.28	8643.60
457.46	8425.93
457.64	8430.61
457.83	8332.31
458.01	8430.61
458.19	8489.12
458.38	8596.79
458.56	8528.91
458.74	8580.40
458.93	8561.68
459.11	8613.17
459.29	8608.49
459.48	8507.85
459.66	8554.66
459.84	8760.63
460.03	8840.20
460.21	8699.77
460.39	8868.29
460.57	8793.39
460.76	8849.57
460.94	8795.73
461.12	8891.70
461.31	8952.55
461.49	8877.65
461.67	8765.31
461.85	9130.43
462.04	8915.10
462.22	9596.20
462.40	9137.45
462.59	9076.60
462.77	9025.11
462.95	9315.33
463.13	9160.86
463.32	9231.07
463.50	9146.81
463.68	9430.02
463.86	9378.53
464.05	9320.01
464.23	9415.98
464.41	9362.14
464.59	9013.40
464.78	9486.19
464.96	9687.48
465.14	9376.19
465.32	9224.05
465.50	9497.89
465.69	9472.15
465.87	9458.10
466.05	9444.06
466.23	9738.97
466.41	9462.79
466.60	9561.09
466.78	9654.71
466.96	9535.34
467.14	9710.88
467.32	9600.88
467.51	9846.63
467.69	9544.70
467.87	9640.67
468.05	9685.14
468.23	9734.29
468.41	9785.78
468.60	9909.83
468.78	9977.70
468.96	9743.65
469.14	10026.86
469.32	10134.52
469.50	9827.91
469.69	9916.85
469.87	9905.15
470.05	10078.35
470.23	10307.72
470.41	9949.62
470.59	10115.80
470.77	10178.99
470.95	10483.26
471.14	10637.73
471.32	10111.11
471.50	10661.14
471.68	10597.95
471.86	10565.18
472.04	10745.40
472.22	10906.90
472.40	10516.03
472.58	10541.77
472.77	10782.85
472.95	10857.75
473.13	11138.61
473.31	10932.64
473.49	10649.44
473.67	10913.92
473.85	10892.85
474.03	11386.71
474.21	11276.70
474.39	11344.58
474.57	11339.90
474.75	11538.84
474.93	11597.35
475.12	11375.00
475.30	11831.41
475.48	11620.76
475.66	11768.21
475.84	11599.70
476.02	11866.52
476.20	11789.28
476.38	12159.08
476.56	12393.14
476.74	12287.81
476.92	12145.04
477.10	12252.70
477.28	12184.83
477.46	12287.81
477.64	12538.25
477.82	12814.43
478.00	12872.95
478.18	13015.72
478.36	12919.76
478.54	12999.34
478.72	13263.82
478.90	13572.77
479.08	13310.63
479.26	13490.85
479.44	13734.26
479.62	13624.26
479.80	13699.16
479.98	13631.28
480.16	14195.35
480.34	13764.69
480.52	14218.75
480.70	14291.31
480.88	14073.64
481.06	14438.76
481.24	14569.83
481.41	14675.16
481.59	15042.62
481.77	14881.13
481.95	14848.36
482.13	14967.73
482.31	14967.73
482.49	15239.23
482.67	15417.11
482.85	15412.43
483.03	15719.04
483.21	15899.26
483.39	15936.71
483.57	15735.42
483.74	16009.26
483.92	16161.40
484.10	16145.02
484.28	16212.89
484.46	16528.86
484.64	16922.07
484.82	16437.58
485.00	16592.06
485.18	16774.62
485.35	17128.04
485.53	16524.18
485.71	16610.78
485.89	16966.54
486.07	17020.38
486.25	17249.75
486.43	17268.47
486.61	17628.92
486.78	17610.19
486.96	18017.44
487.14	18527.68
487.32	18160.22
487.50	18686.84
487.68	18647.05
487.85	19014.51
488.03	18932.59
488.21	19044.94
488.39	19278.99
488.57	19264.95
488.75	19082.39
488.92	19503.68
489.10	19901.58
489.28	20039.67
489.46	20079.46
489.64	19847.74
489.81	20683.31
489.99	20673.95
490.17	20856.51
490.35	21001.63
490.53	20723.10
490.70	21006.31
490.88	21167.80
491.06	21511.86
491.24	21060.14
491.41	21671.02
491.59	21231.00
491.77	21350.37
491.95	21521.23
492.13	21638.25
492.30	22036.14
492.48	22466.80
492.66	22537.02
492.84	22492.55
493.01	22700.86
493.19	22452.76
493.37	22761.71
493.54	23082.36
493.72	23449.83
493.90	23351.52
494.08	23840.70
494.25	23784.52
494.43	23948.36
494.61	23885.17
494.79	23997.51
494.96	23847.72
495.14	24088.79
495.32	24350.93
495.49	24521.79
495.67	24687.97
495.85	24690.31
496.02	24947.77
496.20	25125.65
496.38	25132.67
496.55	25544.61
496.73	25809.09
496.91	25731.85
497.09	25511.84
497.26	25682.70
497.44	25795.04
497.62	25701.42
497.79	26424.65
497.97	25804.41
498.14	26272.51
498.32	26497.20
498.50	26513.59
498.67	26859.99
498.85	26834.24
499.03	27117.45
499.20	27157.24
499.38	26787.43
499.56	26852.97
499.73	27110.43
499.91	27431.08
500.08	27311.71
500.26	27335.12
500.44	27487.25
500.61	27601.94
500.79	27431.08
500.97	27803.22
501.14	28191.75
501.32	28048.98
501.49	28130.90
501.67	28011.53
501.84	28149.62
502.02	28252.61
502.20	28507.72
502.37	28884.55
502.55	28606.03
502.72	28713.69
502.90	28837.74
503.07	29010.94
503.25	29113.92
503.43	28535.81
503.60	28985.19
503.78	28814.34
503.95	29502.45
504.13	28989.88
504.30	29558.63
504.48	29422.87
504.65	29839.49
504.83	29996.31
505.01	29745.87
505.18	30015.03
505.36	30389.52
505.53	30015.03
505.71	30909.11
505.88	30623.57
506.06	30178.87
506.23	30274.83
506.41	30588.46
506.58	30466.75
506.76	31068.27
506.93	30965.29
507.11	30778.04
507.28	30925.50
507.46	31070.61
507.63	31047.21
507.81	31051.89
507.98	31094.02
508.16	31508.29
508.33	31737.66
508.50	31243.81
508.68	31744.69
508.85	31850.01
509.03	31913.20
509.20	31962.36
509.38	32156.62
509.55	32479.61
509.73	32385.99
509.90	32301.73
510.08	32215.13
510.25	32442.17
510.42	32411.74
510.60	32882.19
510.77	32238.54
510.95	32708.99
511.12	32837.72
511.30	33144.33
511.47	33408.81
511.64	33413.49
511.82	33212.20
511.99	33031.98
512.17	33289.44
512.34	33151.35
512.51	33635.84
512.69	33560.94
512.86	33607.75
513.04	34164.80
513.21	33713.08
513.38	33436.89
513.56	33804.36
513.73	33500.09
513.90	33919.04
514.08	34003.30
514.25	34146.08
514.43	34314.59
514.60	34190.55
514.77	34094.58
514.95	34246.72
515.12	34373.11
515.29	34693.76
515.47	35189.95
515.64	35218.04
515.81	34806.11
515.99	35131.44
516.16	34574.39
516.33	34295.87
516.51	34864.62
516.68	34099.26
516.85	34452.69
517.03	34501.84
517.20	35115.06
517.37	35304.64
517.54	35297.62
517.72	35225.06
517.89	34754.61
518.06	35108.04
518.24	35377.20
518.41	35246.13
518.58	35260.17
518.75	35550.40
518.93	35545.72
519.10	35796.15
519.27	36018.50
519.45	36205.75
519.62	36058.29
519.79	36308.73
519.96	36638.75
520.14	36428.10
520.31	36552.15
520.48	36341.50
520.65	36416.40
520.83	36570.87
521.00	36891.52
521.17	36400.01
521.34	37219.20
521.52	36779.18
521.69	37820.72
521.86	37216.86
522.03	37439.21
522.20	37415.80
522.38	37046.00
522.55	37535.17
522.72	37191.11
522.89	37244.94
523.07	37764.54
523.24	37331.54
523.41	37738.80
523.58	37935.40
523.75	38057.11
523.92	38539.26
524.10	37883.91
524.27	38562.67
524.44	38431.60
524.61	38352.02
524.78	38356.70
524.96	38176.48
525.13	38639.90
525.30	38813.10
525.47	38703.10
525.64	38651.61
525.81	38340.32
525.98	38611.82
526.16	38352.02
526.33	38525.22
526.50	38408.19
526.67	38143.71
526.84	38827.15
527.01	38719.48
527.18	39009.71
527.36	39147.80
527.53	39335.04
527.70	39215.68
527.87	39503.56
528.04	39140.78
528.21	39700.17
528.38	39241.42
528.55	39765.70
528.72	39793.79
528.89	39962.31
529.07	39805.49
529.24	39676.76
529.41	39697.83
529.58	39882.73
529.75	39988.05
529.92	40011.46
530.09	39826.56
530.26	40421.05
530.43	40289.98
530.60	40540.42
530.77	40722.98
530.94	40603.61
531.11	40301.68
531.28	40479.57
531.46	40762.77
531.63	40685.53
531.80	40509.99
531.97	40542.76
532.14	40582.55
532.31	40137.85
532.48	40203.38
532.65	40566.16
532.82	40425.73
532.99	41106.83
533.16	40849.37
533.33	40994.48
533.50	41081.08
533.67	41378.33
533.84	40666.81
534.01	41507.06
534.18	41511.74
534.35	41462.59
534.52	41280.03
534.69	41427.48
534.86	41766.86
535.03	41551.53
535.20	41673.24
535.37	42183.48
535.54	42117.94
535.71	41825.37
535.88	41811.33
536.05	42052.41
536.22	41869.84
536.38	41820.69
536.55	42007.94
536.72	41551.53
536.89	41759.84
537.06	42106.24
537.23	42075.81
537.40	42326.25
537.57	42295.82
537.74	42185.82
537.91	42726.48
538.08	42206.88
538.25	42319.23
538.42	42223.26
538.59	42597.75
538.75	42085.17
538.92	42623.50
539.09	42841.17
539.26	42618.81
539.43	42660.94
539.60	42160.07
539.77	42691.37
539.94	42347.31
540.11	41893.25
540.28	42607.11
540.44	42370.72
540.61	42405.83
540.78	42150.71
540.95	42754.57
541.12	43122.03
541.29	43033.09
541.46	42979.26
541.62	43084.58
541.79	43199.27
541.96	42855.21
542.13	43213.31
542.30	43229.69
542.47	43435.66
542.63	43407.58
542.80	43356.08
542.97	43370.13
543.14	44013.77
543.31	43391.19
543.48	43761.00
543.64	44397.62
543.81	44161.23
543.98	44088.67
544.15	43828.87
544.32	43810.15
544.48	44304.00
544.65	43929.51
544.82	43952.92
544.99	43594.82
545.16	44102.71
545.32	43812.49
545.49	44091.01
545.66	44528.69
545.83	44381.24
546.00	44397.62
546.16	44306.34
546.33	44437.41
546.50	44254.85
546.67	44619.97
546.83	44105.06
547.00	44156.55
547.17	44451.45
547.34	44247.83
547.50	44280.60
547.67	44641.04
547.84	44526.35
548.00	44664.44
548.17	44694.87
548.34	44636.36
548.51	44800.19
548.67	44832.96
548.84	45240.21
549.01	44863.39
549.18	44961.69
549.34	45095.10
549.51	45186.38
549.68	45455.54
549.84	44687.85
550.01	45118.51
550.18	45008.50
550.34	45322.13
550.51	44872.75
550.68	44582.52
550.84	44938.29
551.01	45202.77
551.18	45038.93
551.34	45099.78
551.51	45242.56
551.68	45478.95
551.84	45654.49
552.01	45193.40
552.18	45027.23
552.34	45071.70
552.51	45233.19
552.68	45507.04
552.84	45792.58
553.01	46096.85
553.18	45462.57
553.34	45591.30
553.51	45350.22
553.67	46157.70
553.84	45844.07
554.01	45769.18
554.17	46309.84
554.34	46129.62
554.51	45813.65
554.67	45982.16
554.84	45764.49
555.00	45855.78
555.17	45844.07
555.33	46120.26
555.50	45780.88
555.67	46281.75
555.83	45642.79
556.00	46033.66
556.16	46146.00
556.33	46192.81
556.50	46241.96
556.66	45830.03
556.83	45645.13
556.99	46213.88
557.16	46614.11
557.32	45984.51
557.49	45968.12
557.65	45741.09
557.82	46078.13
557.98	46373.03
558.15	46160.05
558.32	46092.17
558.48	45729.39
558.65	45925.99
558.81	46394.10
558.98	46368.35
559.14	46361.33
559.31	46138.98
559.47	46408.14
559.64	46684.33
559.80	46452.61
559.97	46333.24
560.13	45965.78
560.30	46300.48
560.46	46562.62
560.63	46583.68
560.79	46520.49
560.96	46960.51
561.12	46742.84
561.29	46653.90
561.45	46541.55
561.61	46600.07
561.78	46630.49
561.94	46326.22
562.11	46452.61
562.27	46506.44
562.44	46700.71
562.60	46820.08
562.77	47215.63
562.93	46754.54
563.10	46642.20
563.26	46260.69
563.42	46997.96
563.59	46925.40
563.75	46937.10
563.92	46925.40
564.08	46834.12
564.24	47239.03
564.41	46913.70
564.57	46728.80
564.74	46841.14
564.90	47147.75
565.07	46639.86
565.23	46955.83
565.39	46927.74
565.56	46887.95
565.72	46953.49
565.88	47091.58
566.05	46777.95
566.21	47021.36
566.38	46756.88
566.54	46883.27
566.70	47096.26
566.87	47089.24
567.03	46775.61
567.19	46948.81
567.36	46967.53
567.52	47236.69
567.68	47292.86
567.85	46742.84
568.01	46981.57
568.17	47173.50
568.34	47185.20
568.50	47164.14
568.66	47014.34
568.83	47035.41
568.99	46536.87
569.15	46564.96
569.32	46993.28
569.48	46993.28
569.64	47206.26
569.81	47414.57
569.97	46948.81
570.13	47168.82
570.30	46909.02
570.46	46670.28
570.62	46707.73
570.78	46738.16
570.95	46958.17
571.11	47278.82
571.27	47026.04
571.43	47082.22
571.60	47246.05
571.76	47276.48
571.92	47126.69
572.09	46993.28
572.25	47152.43
572.41	46820.08
572.57	47147.75
572.74	47419.25
572.90	47313.93
573.06	46873.91
573.22	47316.27
573.38	47332.65
573.55	47302.23
573.71	47363.08
573.87	47185.20
574.03	46897.31
574.20	47332.65
574.36	47311.59
574.52	46946.47
574.68	47281.16
574.84	47276.48
575.01	47388.83
575.17	47491.81
575.33	46780.29
575.49	47091.58
575.65	46916.04
575.82	47297.55
575.98	47192.22
576.14	47910.77
576.30	47063.49
576.46	47323.29
576.62	46873.91
576.79	47297.55
576.95	46670.28
577.11	46817.74
577.27	47267.12
577.43	47426.28
577.59	47138.39
577.75	46944.12
577.92	47023.70
578.08	46824.76
578.24	46773.27
578.40	46948.81
578.56	47103.28
578.72	46960.51
578.88	47140.73
579.04	47466.06
579.21	47227.33
579.37	46885.61
579.53	47302.23
579.69	47107.96
579.85	46997.96
580.01	47426.28
580.17	47295.21
580.33	47241.37
580.49	47058.81
580.65	47758.63
580.82	47199.24
580.98	47000.30
581.14	46937.10
581.30	47629.90
581.46	47374.78
581.62	47426.28
581.78	47372.44
581.94	47414.57
582.10	47016.68
582.26	47625.22
582.42	47339.68
582.58	47604.16
582.74	47330.31
582.90	47473.09
583.06	47672.03
583.22	47573.73
583.38	47805.44
583.54	47381.80
583.70	47372.44
583.86	47199.24
584.02	46890.29
584.18	47414.57
584.34	47732.89
584.50	47339.68
584.66	47384.15
584.82	46927.74
584.98	47388.83
585.14	47377.12
585.30	47089.24
585.46	47320.95
585.62	47407.55
585.78	47021.36
585.94	47239.03
586.10	47505.85
586.26	46934.76
586.42	47512.88
586.58	47426.28
586.74	47152.43
586.90	47302.23
587.06	47199.24
587.22	47332.65
587.38	47398.19
587.54	47524.58
587.70	47646.29
587.86	47131.37
588.02	47613.52
588.18	47299.89
588.34	47585.43
588.49	46962.85
588.65	46880.93
588.81	46721.77
588.97	46937.10
589.13	46780.29
589.29	46759.22
589.45	47040.09
589.61	47351.38
589.77	47559.69
589.93	47182.86
