SpectraSuite Data File
++++++++++++++++++++++++++++++++++++
Date: Fri Oct 25 10:48:18 EDT 2013
User: price-jones
Dark Spectrum Present: No
Reference Spectrum Present: No
Number of Sampled Component Spectra: 1
Spectrometers: USB2+H05261
Integration Time (usec): 100000 (USB2+H05261)
Spectra Averaged: 1 (USB2+H05261)
Boxcar Smoothing: 0 (USB2+H05261)
Correct for Electrical Dark: No (USB2+H05261)
Strobe/Lamp Enabled: No (USB2+H05261)
Correct for Detector Non-linearity: No (USB2+H05261)
Correct for Stray Light: No (USB2+H05261)
Number of Pixels in Processed Spectrum: 2048
>>>>>Begin Processed Spectral Data<<<<<
365.73	156.82
365.92	156.82
366.12	156.82
366.32	28.09
366.52	30.43
366.72	112.35
366.91	0.00
367.11	16.38
367.31	65.54
367.51	42.13
367.70	42.13
367.90	86.60
368.10	65.54
368.30	25.75
368.49	84.26
368.69	84.26
368.89	72.56
369.09	46.81
369.28	63.19
369.48	35.11
369.68	74.90
369.87	117.03
370.07	114.69
370.27	49.15
370.47	210.65
370.66	404.91
370.86	397.89
371.06	470.45
371.25	498.53
371.45	498.53
371.65	484.49
371.84	514.92
372.04	496.19
372.24	482.15
372.44	461.09
372.63	498.53
372.83	463.43
373.03	500.87
373.22	421.30
373.42	608.54
373.62	564.07
373.81	571.09
374.01	543.00
374.21	526.62
374.40	521.94
374.60	603.86
374.79	638.97
374.99	620.24
375.19	557.05
375.38	582.79
375.58	622.58
375.78	697.48
375.97	681.10
376.17	653.01
376.37	653.01
376.56	601.52
376.76	634.29
376.95	667.05
377.15	643.65
377.35	648.33
377.54	638.97
377.74	676.41
377.93	657.69
378.13	657.69
378.33	645.99
378.52	676.41
378.72	667.05
378.91	716.20
379.11	671.73
379.31	685.78
379.50	697.48
379.70	718.54
379.89	723.23
380.09	660.03
380.28	744.29
380.48	765.36
380.68	781.74
380.87	751.31
381.07	805.14
381.26	767.70
381.46	706.84
381.65	753.65
381.85	678.76
382.04	706.84
382.24	716.20
382.43	660.03
382.63	711.52
382.83	788.76
383.02	823.87
383.22	856.64
383.41	758.33
383.61	716.20
383.80	966.64
384.00	835.57
384.19	884.72
384.39	884.72
384.58	779.40
384.78	816.85
384.97	894.08
385.17	802.80
385.36	880.04
385.56	823.87
385.75	770.04
385.95	828.55
386.14	917.49
386.34	770.04
386.53	950.26
386.72	856.64
386.92	889.40
387.11	842.59
387.31	863.66
387.50	877.70
387.70	966.64
387.89	968.98
388.09	926.85
388.28	961.96
388.48	894.08
388.67	1032.18
388.86	922.17
389.06	917.49
389.25	1018.13
389.45	1036.86
389.64	1053.24
389.84	952.60
390.03	1055.58
390.22	1104.73
390.42	1032.18
390.61	1128.14
390.81	1004.09
391.00	1102.39
391.19	1078.99
391.39	1114.10
391.58	1048.56
391.78	1114.10
391.97	1062.60
392.16	990.05
392.36	1036.86
392.55	1032.18
392.75	968.98
392.94	1004.09
393.13	961.96
393.33	940.90
393.52	1121.12
393.71	1071.97
393.91	1097.71
394.10	1081.33
394.29	1205.38
394.49	1160.91
394.68	1226.44
394.88	1226.44
395.07	1263.89
395.26	1228.78
395.46	1259.21
395.65	1303.68
395.84	1378.58
396.04	1331.76
396.23	1219.42
396.42	1205.38
396.62	1310.70
396.81	1217.08
397.00	1287.29
397.19	1303.68
397.39	1343.47
397.58	1462.83
397.77	1455.81
397.97	1430.07
398.16	1462.83
398.35	1437.09
398.55	1493.26
398.74	1474.54
398.93	1533.05
399.12	1521.35
399.32	1565.82
399.51	1511.99
399.70	1636.03
399.90	1621.99
400.09	1640.72
400.28	1673.48
400.47	1643.06
400.67	1617.31
400.86	1685.19
401.05	1729.66
401.24	1675.82
401.44	1722.63
401.63	1776.47
401.82	1802.21
402.01	1746.04
402.21	1783.49
402.40	1851.36
402.59	1771.79
402.78	1870.09
402.97	1909.88
403.17	1827.96
403.36	1849.02
403.55	1898.17
403.74	1949.67
403.93	1954.35
404.13	1919.24
404.32	1888.81
404.51	1895.83
404.70	1987.11
404.89	1966.05
405.09	2059.67
405.28	1942.64
405.47	1959.03
405.66	2090.10
405.85	2005.84
406.05	1975.41
406.24	1959.03
406.43	2134.57
406.62	2101.80
406.81	2218.83
407.00	2153.29
407.20	2073.71
407.39	2106.48
407.58	2265.64
407.77	2284.36
407.96	2244.57
408.15	2363.94
408.34	2270.32
408.54	2319.47
408.73	2427.14
408.92	2361.60
409.11	2394.37
409.30	2527.78
409.49	2417.77
409.68	2314.79
409.87	2253.94
410.07	2359.26
410.26	2403.73
410.45	2445.86
410.64	2487.99
410.83	2663.53
411.02	2562.89
411.21	2743.11
411.40	2691.62
411.59	2700.98
411.78	2682.25
411.98	2757.15
412.17	2675.23
412.36	2722.04
412.55	2722.04
412.74	2869.50
412.93	2768.85
413.12	2722.04
413.31	2951.42
413.50	2904.60
413.69	2918.65
413.88	3019.29
414.07	2928.01
414.26	2965.46
414.45	2981.84
414.64	3049.72
414.83	3066.10
415.02	3119.93
415.22	3145.68
415.41	3143.34
415.60	3262.71
415.79	3290.79
415.98	3194.83
416.17	3251.00
416.36	3344.63
416.55	3389.10
416.74	3300.16
416.93	3309.52
417.12	3316.54
417.31	3351.65
417.50	3353.99
417.69	3492.08
417.88	3529.53
418.07	3508.46
418.26	3630.17
418.45	3597.40
418.64	3768.26
418.83	3655.92
419.02	3651.24
419.21	3648.90
419.39	3644.21
419.58	3686.34
419.77	3625.49
419.96	3709.75
420.15	3768.26
420.34	3782.31
420.53	3983.59
420.72	3925.08
420.91	3831.46
421.10	3934.44
421.29	3948.48
421.48	3803.37
421.67	3918.06
421.86	3922.74
422.05	3784.65
422.24	3889.97
422.43	3974.23
422.61	3990.61
422.80	3922.74
422.99	4049.13
423.18	4121.68
423.37	4100.62
423.56	4168.49
423.75	3882.95
423.94	3920.40
424.13	3761.24
424.32	3779.97
424.50	4166.15
424.69	4163.81
424.88	4016.36
425.07	4100.62
425.26	4049.13
425.45	4037.42
425.64	4063.17
425.83	3981.25
426.01	4093.60
426.20	4032.74
426.39	4152.11
426.58	4156.79
426.77	3868.91
426.96	4053.81
427.15	4128.70
427.33	4114.66
427.52	4149.77
427.71	4152.11
427.90	4189.56
428.09	4259.78
428.28	4259.78
428.46	4381.48
428.65	4259.78
428.84	4306.59
429.03	4250.41
429.22	4224.67
429.40	4152.11
429.59	4292.54
429.78	3953.16
429.97	3997.64
430.16	4074.87
430.34	4182.54
430.53	4276.16
430.72	4297.22
430.91	4217.65
431.10	4578.09
431.28	4587.45
431.47	4770.01
431.66	4664.69
431.85	4592.13
432.03	4699.80
432.22	4791.08
432.41	4807.46
432.60	4641.28
432.79	4758.31
432.97	4891.72
433.16	4652.98
433.35	4795.76
433.54	4755.97
433.72	4901.08
433.91	4772.35
434.10	5022.79
434.28	4877.68
434.47	4835.55
434.66	5081.30
434.85	5046.20
435.03	5160.88
435.22	5022.79
435.41	5315.36
435.59	5137.48
435.78	5238.12
435.97	5266.21
436.16	5186.63
436.34	5160.88
436.53	5317.70
436.72	5181.95
436.90	5334.08
437.09	5195.99
437.28	5203.01
437.46	5275.57
437.65	5355.15
437.84	5263.86
438.02	5249.82
438.21	5188.97
438.40	5298.97
438.58	5439.40
438.77	5497.92
438.96	5483.88
439.14	5682.82
439.33	5699.20
439.52	5596.22
439.70	5804.53
439.89	5799.85
440.08	5900.49
440.26	5823.25
440.45	5963.68
440.63	5923.90
440.82	6333.49
441.01	6017.52
441.19	6193.06
441.38	6153.27
441.57	6333.49
441.75	6356.90
441.94	6413.07
442.12	6441.15
442.31	6511.37
442.50	6597.97
442.68	6663.51
442.87	6534.78
443.05	6441.15
443.24	6408.39
443.43	6558.18
443.61	6633.08
443.80	6736.06
443.98	6520.73
444.17	6590.95
444.35	6698.61
444.54	6895.22
444.73	6600.31
444.91	6548.82
445.10	6551.16
445.28	6663.51
445.47	6457.54
445.65	6565.20
445.84	6642.44
446.02	6656.48
446.21	6764.15
446.39	6649.46
446.58	6806.28
446.77	6789.89
446.95	6724.36
447.14	6832.02
447.32	7063.74
447.51	6885.86
447.69	6808.62
447.88	6759.47
448.06	6647.12
448.25	6885.86
448.43	6876.49
448.62	6916.28
448.80	6551.16
448.99	7066.08
449.17	7037.99
449.36	6750.10
449.54	7087.14
449.73	7318.86
449.91	7197.15
450.10	7225.23
450.28	7396.09
450.46	7461.63
450.65	7417.16
450.83	7365.67
451.02	7328.22
451.20	7510.78
451.39	7382.05
451.57	7389.07
451.76	7218.21
451.94	7297.79
452.13	7339.92
452.31	7353.96
452.49	7269.70
452.68	7255.66
452.86	7431.20
453.05	7358.64
453.23	7442.90
453.42	7323.54
453.60	7447.58
453.78	7609.08
453.97	7506.10
454.15	7651.21
454.34	7478.01
454.52	7662.91
454.70	7721.43
454.89	7744.83
455.07	7592.70
455.26	7847.82
455.44	7850.16
455.62	7782.28
455.81	7866.54
455.99	8063.15
456.17	7934.42
456.36	7967.18
456.54	8128.68
456.73	7978.89
456.91	8561.68
457.09	8264.43
457.28	8519.55
457.46	8170.81
457.64	8376.78
457.83	8432.95
458.01	8252.73
458.19	8381.46
458.38	8201.24
458.56	8430.61
458.74	8538.27
458.93	8439.97
459.11	8306.56
459.29	8390.82
459.48	8545.30
459.66	8369.76
459.84	8411.89
460.03	8741.90
460.21	8748.92
460.39	8781.69
460.57	8617.85
460.76	8784.03
460.94	8835.52
461.12	8889.35
461.31	8669.34
461.49	8975.95
461.67	9015.74
461.85	9034.47
462.04	8968.93
462.22	9521.30
462.40	9151.49
462.59	9139.79
462.77	8961.91
462.95	9102.34
463.13	9092.98
463.32	9156.18
463.50	9039.15
463.68	9282.56
463.86	9224.05
464.05	9090.64
464.23	9118.73
464.41	9310.65
464.59	9165.54
464.78	9408.95
464.96	9322.35
465.14	9116.39
465.32	9502.58
465.50	9287.25
465.69	9497.89
465.87	9355.12
466.05	9287.25
466.23	9181.92
466.41	9504.92
466.60	9757.69
466.78	9369.16
466.96	9392.57
467.14	9277.88
467.32	9614.92
467.51	9633.64
467.69	9231.07
467.87	9713.22
468.05	9671.09
468.23	9540.02
468.41	9858.34
468.60	9776.42
468.78	9731.95
468.96	9525.98
469.14	9834.93
469.32	10057.28
469.50	9696.84
469.69	10118.14
469.87	10036.22
470.05	10066.64
470.23	10052.60
470.41	9900.47
470.59	10080.69
470.77	10026.86
470.95	10076.01
471.14	10286.65
471.32	10061.96
471.50	10427.09
471.68	10368.57
471.86	10614.33
472.04	10721.99
472.22	10862.43
472.40	10541.77
472.58	10595.61
472.77	10607.31
472.95	10686.89
473.13	10998.18
473.31	10848.38
473.49	10977.11
473.67	10700.93
473.85	10855.40
474.03	11243.93
474.21	11150.31
474.39	11393.73
474.57	11089.46
474.75	11220.53
474.93	11595.01
475.12	11302.45
475.30	11466.28
475.48	11321.17
475.66	11644.17
475.84	11562.25
476.02	11634.80
476.20	11494.37
476.38	11985.88
476.56	12049.08
476.74	11817.36
476.92	11910.99
477.10	12248.02
477.28	12250.36
477.46	12374.41
477.64	12430.59
477.82	12519.53
478.00	12954.87
478.18	12823.80
478.36	12762.94
478.54	13099.98
478.72	13055.51
478.90	13135.09
479.08	13540.00
479.26	13385.52
479.44	13474.46
479.62	13579.79
479.80	13593.83
479.98	13928.53
480.16	13738.94
480.34	13893.42
480.52	13888.74
480.70	14059.60
480.88	13865.33
481.06	14148.54
481.24	14305.35
481.41	14562.81
481.59	14738.35
481.77	14733.67
481.95	14934.96
482.13	14810.91
482.31	14696.22
482.49	15133.90
482.67	15435.83
482.85	15180.71
483.03	15557.54
483.21	15552.86
483.39	15653.50
483.57	15660.52
483.74	15969.48
483.92	15913.30
484.10	15784.57
484.28	16053.73
484.46	16353.32
484.64	16704.40
484.82	16737.17
485.00	16315.87
485.18	16624.83
485.35	16861.22
485.53	16444.60
485.71	16575.67
485.89	16769.94
486.07	17106.98
486.25	16821.43
486.43	17310.60
486.61	17202.94
486.78	17652.32
486.96	17701.47
487.14	18064.25
487.32	18157.88
487.50	18349.80
487.68	18719.60
487.85	18705.56
488.03	18953.66
488.21	18958.34
488.39	19241.54
488.57	19103.45
488.75	19344.53
488.92	19384.32
489.10	19566.88
489.28	19700.29
489.46	19983.49
489.64	19796.25
489.81	20746.51
489.99	20339.26
490.17	20788.64
490.35	20994.61
490.53	20376.70
490.70	20844.81
490.88	20978.22
491.06	21460.37
491.24	21364.41
491.41	21284.83
491.59	21153.76
491.77	21261.43
491.95	21640.59
492.13	21935.50
492.30	21923.80
492.48	21968.27
492.66	22263.18
492.84	22104.02
493.01	22581.49
493.19	22520.63
493.37	22714.90
493.54	22752.35
493.72	22815.54
493.90	23335.14
494.08	23285.99
494.25	23608.98
494.43	24051.34
494.61	23833.68
494.79	23810.27
494.96	23971.77
495.14	24191.78
495.32	24577.97
495.49	24278.38
495.67	24299.44
495.85	24779.25
496.02	24875.21
496.20	24952.45
496.38	24758.19
496.55	24877.55
496.73	25734.19
496.91	25371.41
497.09	25624.18
497.26	25469.71
497.44	25219.27
497.62	25481.41
497.79	25727.17
497.97	25495.46
498.14	25942.50
498.32	26185.91
498.50	26403.58
498.67	26415.29
498.85	26214.00
499.03	26909.14
499.20	26881.05
499.38	26951.27
499.56	26937.23
499.73	26808.50
499.91	26998.08
500.08	26888.07
500.26	26831.90
500.44	27117.45
500.61	27262.56
500.79	26892.76
500.97	27651.09
501.14	27826.63
501.32	27536.40
501.49	27653.43
501.67	27615.98
501.84	27648.75
502.02	28046.64
502.20	28219.84
502.37	28369.63
502.55	28507.72
502.72	28973.49
502.90	28463.25
503.07	28620.07
503.25	28797.95
503.43	28505.38
503.60	28786.25
503.78	28968.81
503.95	28858.81
504.13	29142.01
504.30	29158.39
504.48	29357.34
504.65	29146.69
504.83	29771.61
505.01	29881.62
505.18	29392.45
505.36	30192.91
505.53	30466.75
505.71	30221.00
505.88	30497.18
506.06	30174.19
506.23	30188.23
506.41	29886.30
506.58	30281.85
506.76	30471.43
506.93	30349.73
507.11	30396.54
507.28	30934.86
507.46	30579.10
507.63	30401.22
507.81	31178.28
507.98	30815.49
508.16	30965.29
508.33	31171.25
508.50	31197.00
508.68	31634.68
508.85	31534.04
509.03	31426.37
509.20	31847.67
509.38	31985.76
509.55	31688.51
509.73	31875.76
509.90	32137.90
510.08	32088.74
510.25	32219.81
510.42	32217.47
510.60	32175.34
510.77	32606.00
510.95	32687.92
511.12	32355.57
511.30	32884.53
511.47	32938.36
511.64	32929.00
511.82	32753.46
511.99	33221.56
512.17	33099.86
512.34	33057.73
512.51	33326.89
512.69	33584.35
512.86	33237.95
513.04	33900.32
513.21	33474.34
513.38	33230.93
513.56	33577.33
513.73	33518.81
513.90	33488.38
514.08	33436.89
514.25	33895.64
514.43	33858.19
514.60	34029.05
514.77	34398.85
514.95	34253.74
515.12	34651.63
515.29	34747.59
515.47	34569.71
515.64	34904.41
515.81	34590.78
515.99	34412.90
516.16	34558.01
516.33	34340.34
516.51	34440.98
516.68	33682.65
516.85	33689.67
517.03	34569.71
517.20	34546.31
517.37	34665.67
517.54	34836.53
517.72	34932.50
517.89	34541.63
518.06	34583.76
518.24	34815.47
518.41	34726.53
518.58	35372.52
518.75	35065.91
518.93	35459.12
519.10	35749.34
519.27	35424.01
519.45	36084.04
519.62	35646.36
519.79	36027.87
519.96	36219.79
520.14	36107.44
520.31	36084.04
520.48	36580.23
520.65	36364.90
520.83	36793.22
521.00	36470.23
521.17	36437.46
521.34	36449.16
521.52	36774.50
521.69	36755.77
521.86	37031.96
522.03	37158.34
522.20	36959.40
522.38	37179.41
522.55	37139.62
522.72	37046.00
522.89	37067.06
523.07	37436.87
523.24	37380.70
523.41	37661.56
523.58	37280.05
523.75	38059.45
523.92	38029.02
524.10	37972.85
524.27	37986.89
524.44	38019.66
524.61	37968.17
524.78	37909.66
524.96	38171.80
525.13	37801.99
525.30	38756.93
525.47	38642.24
525.64	38174.14
525.81	38536.92
525.98	38185.84
526.16	38045.41
526.33	37848.80
526.50	38213.93
526.67	38281.80
526.84	38384.79
527.01	38295.85
527.18	38527.56
527.36	38693.74
527.53	38803.74
527.70	39342.06
527.87	39065.88
528.04	39035.45
528.21	39292.91
528.38	38983.96
528.55	39562.08
528.72	39386.54
528.89	39721.23
529.07	39253.12
529.24	39838.26
529.41	39466.11
529.58	39339.72
529.75	39562.08
529.92	39360.79
530.09	40027.84
530.26	40128.48
530.43	40168.27
530.60	39522.29
530.77	40100.40
530.94	39810.17
531.11	40053.59
531.28	40053.59
531.46	40355.52
531.63	40287.64
531.80	40208.06
531.97	40184.66
532.14	40268.92
532.31	39903.79
532.48	40245.51
532.65	40034.86
532.82	40203.38
532.99	40980.44
533.16	40566.16
533.33	41050.66
533.50	40851.71
533.67	40669.15
533.84	40334.45
534.01	40837.67
534.18	40935.97
534.35	41581.96
534.52	40961.72
534.69	41301.09
534.86	41083.42
535.03	40671.49
535.20	41734.09
535.37	41710.69
535.54	41457.91
535.71	41591.32
535.88	41584.30
536.05	41055.34
536.22	41249.60
536.38	42075.81
536.55	41310.46
536.72	41656.85
536.89	41528.13
537.06	41212.15
537.23	41738.77
537.40	41902.61
537.57	41851.12
537.74	41947.08
537.91	42305.18
538.08	42153.05
538.25	41523.44
538.42	42054.75
538.59	42459.66
538.75	41404.08
538.92	42031.34
539.09	42064.11
539.26	41673.24
539.43	42405.83
539.60	42246.67
539.77	42478.38
539.94	42286.46
540.11	41993.89
540.28	42340.29
540.44	42047.72
540.61	42160.07
540.78	42471.36
540.95	42314.55
541.12	42288.80
541.29	42590.73
541.46	42555.62
541.62	42974.58
541.79	43047.13
541.96	42632.86
542.13	42691.37
542.30	43105.65
542.47	42740.52
542.63	42698.39
542.80	42770.95
542.97	43203.95
543.14	43847.60
543.31	43248.42
543.48	43440.34
543.64	43739.93
543.81	43971.64
543.98	43442.68
544.15	43510.56
544.32	43838.23
544.48	43646.31
544.65	44006.75
544.82	43562.05
544.99	43777.38
545.16	43955.26
545.32	43665.03
545.49	44254.85
545.66	44261.87
545.83	43978.67
546.00	43868.66
546.16	43983.35
546.33	44275.91
546.50	43569.07
546.67	44451.45
546.83	43742.27
547.00	43924.83
547.17	44119.10
547.34	44245.49
547.50	44034.84
547.67	44460.82
547.84	44044.20
548.00	44556.78
548.17	44552.10
548.34	44540.39
548.51	44781.47
548.67	44971.05
548.84	44683.17
549.01	44531.03
549.18	44311.02
549.34	44612.95
549.51	44657.42
549.68	44652.74
549.84	45125.53
550.01	45228.51
550.18	44479.54
550.34	44828.28
550.51	45111.49
550.68	44849.35
550.84	44465.50
551.01	45146.59
551.18	45034.25
551.34	44793.17
551.51	45305.75
551.68	45144.25
551.84	45118.51
552.01	44636.36
552.18	44683.17
552.34	44912.54
552.51	45502.35
552.68	45174.68
552.84	45584.27
553.01	45595.98
553.18	45338.52
553.34	45230.85
553.51	44896.16
553.67	45654.49
553.84	45717.68
554.01	45394.69
554.17	45326.81
554.34	45647.47
554.51	45830.03
554.67	45769.18
554.84	45289.37
555.00	45530.44
555.17	45256.60
555.33	45834.71
555.50	45481.29
555.67	45574.91
555.83	45635.77
556.00	45340.86
556.16	46103.87
556.33	45652.15
556.50	45902.59
556.66	45532.78
556.83	45626.40
556.99	45734.07
557.16	46211.54
557.32	45593.64
557.49	45488.31
557.65	45808.96
557.82	45640.45
557.98	45645.13
558.15	45415.76
558.32	45965.78
558.48	45610.02
558.65	46155.36
558.81	45691.94
558.98	45858.12
559.14	46169.41
559.31	45705.98
559.47	45794.92
559.64	46337.93
559.80	45858.12
559.97	45780.88
560.13	46178.77
560.30	46080.47
560.46	46384.74
560.63	46534.53
560.79	46457.29
560.96	46263.03
561.12	46347.29
561.29	46026.63
561.45	45968.12
561.61	46075.79
561.78	46363.67
561.94	46134.30
562.11	46616.45
562.27	46218.56
562.44	46265.37
562.60	46382.40
562.77	46696.03
562.93	45848.75
563.10	46487.72
563.26	46508.79
563.42	46389.42
563.59	46464.32
563.75	46260.69
563.92	46555.60
564.08	46824.76
564.24	47033.07
564.41	46815.40
564.57	46426.87
564.74	46389.42
564.90	46728.80
565.07	46597.73
565.23	46466.66
565.39	46284.09
565.56	46618.79
565.72	46115.58
565.88	46714.75
566.05	46433.89
566.21	46602.41
566.38	46260.69
566.54	46337.93
566.70	46873.91
566.87	47145.41
567.03	46562.62
567.19	47131.37
567.36	47164.14
567.52	46670.28
567.68	47030.72
567.85	46382.40
568.01	46555.60
568.17	46651.56
568.34	46677.30
568.50	46871.57
568.66	47026.04
568.83	46869.23
568.99	46389.42
569.15	46272.39
569.32	46412.82
569.48	46422.19
569.64	47084.56
569.81	46894.97
569.97	46747.52
570.13	46820.08
570.30	46300.48
570.46	46625.81
570.62	46000.89
570.78	46487.72
570.95	46248.99
571.11	46925.40
571.27	46473.68
571.43	46546.23
571.60	46534.53
571.76	46429.21
571.92	46492.40
572.09	47054.13
572.25	46569.64
572.41	47234.35
572.57	46913.70
572.74	47391.17
572.90	47037.75
573.06	46780.29
573.22	46958.17
573.38	46958.17
573.55	47107.96
573.71	47185.20
573.87	46576.66
574.03	46810.71
574.20	46604.75
574.36	46831.78
574.52	46885.61
574.68	46920.72
574.84	46806.03
575.01	47253.08
575.17	47157.11
575.33	46808.37
575.49	46499.42
575.65	46754.54
575.82	47033.07
575.98	46754.54
576.14	47028.38
576.30	47065.83
576.46	46705.39
576.62	46681.98
576.79	46461.97
576.95	46569.64
577.11	46607.09
577.27	46913.70
577.43	47016.68
577.59	46909.02
577.75	46625.81
577.92	46857.52
578.08	46436.23
578.24	46464.32
578.40	47077.54
578.56	46944.12
578.72	46796.67
578.88	47519.90
579.04	47185.20
579.21	46630.49
579.37	47054.13
579.53	46719.43
579.69	47147.75
579.85	47016.68
580.01	47000.30
580.17	47110.30
580.33	47026.04
580.49	46960.51
580.65	47498.83
580.82	47124.35
580.98	46920.72
581.14	46525.17
581.30	47136.05
581.46	46920.72
581.62	46930.08
581.78	47117.32
581.94	47239.03
582.10	47454.36
582.26	47440.32
582.42	47318.61
582.58	46939.44
582.74	46955.83
582.90	46988.60
583.06	46972.21
583.22	47150.09
583.38	47274.14
583.54	47007.32
583.70	47206.26
583.86	46646.88
584.02	46742.84
584.18	47274.14
584.34	47346.70
584.50	47342.02
584.66	46859.87
584.82	47037.75
584.98	47224.99
585.14	47154.77
585.30	47068.17
585.46	47433.30
585.62	46972.21
585.78	47136.05
585.94	46539.21
586.10	46925.40
586.26	46305.16
586.42	47185.20
586.58	47358.40
586.74	47306.91
586.90	46843.48
587.06	47033.07
587.22	47281.16
587.38	47344.36
587.54	46649.22
587.70	47320.95
587.86	47016.68
588.02	46918.38
588.18	47356.06
588.34	46850.50
588.49	46810.71
588.65	46307.50
588.81	46653.90
588.97	46848.16
589.13	46412.82
589.29	46726.46
589.45	46972.21
589.61	46649.22
589.77	46930.08
