SpectraSuite Data File
++++++++++++++++++++++++++++++++++++
Date: Fri Oct 25 10:43:20 EDT 2013
User: price-jones
Dark Spectrum Present: No
Reference Spectrum Present: No
Number of Sampled Component Spectra: 1
Spectrometers: USB2+H05261
Integration Time (usec): 100000 (USB2+H05261)
Spectra Averaged: 1 (USB2+H05261)
Boxcar Smoothing: 0 (USB2+H05261)
Correct for Electrical Dark: No (USB2+H05261)
Strobe/Lamp Enabled: No (USB2+H05261)
Correct for Detector Non-linearity: No (USB2+H05261)
Correct for Stray Light: No (USB2+H05261)
Number of Pixels in Processed Spectrum: 2048
>>>>>Begin Processed Spectral Data<<<<<
365.73	93.62
365.92	93.62
366.12	93.62
366.32	0.00
366.52	0.00
366.72	30.43
366.91	0.00
367.11	39.79
367.31	0.00
367.51	74.90
367.70	0.00
367.90	100.64
368.10	18.72
368.30	39.79
368.49	98.30
368.69	114.69
368.89	60.85
369.09	63.19
369.28	65.54
369.48	18.72
369.68	140.43
369.87	88.94
370.07	9.36
370.27	161.50
370.47	191.92
370.66	358.10
370.86	470.45
371.06	472.79
371.25	482.15
371.45	411.93
371.65	521.94
371.84	477.47
372.04	411.93
372.24	449.38
372.44	491.51
372.63	477.47
372.83	482.15
373.03	585.13
373.22	500.87
373.42	543.00
373.62	538.32
373.81	566.41
374.01	543.00
374.21	540.66
374.40	559.39
374.60	552.37
374.79	582.79
374.99	653.01
375.19	533.64
375.38	596.84
375.58	596.84
375.78	690.46
375.97	582.79
376.17	634.29
376.37	564.07
376.56	554.71
376.76	608.54
376.95	575.77
377.15	557.05
377.35	730.25
377.54	674.07
377.74	629.60
377.93	702.16
378.13	653.01
378.33	690.46
378.52	634.29
378.72	660.03
378.91	627.26
379.11	655.35
379.31	657.69
379.50	671.73
379.70	629.60
379.89	751.31
380.09	599.18
380.28	692.80
380.48	676.41
380.68	702.16
380.87	641.31
381.07	697.48
381.26	744.29
381.46	634.29
381.65	655.35
381.85	748.97
382.04	631.94
382.24	638.97
382.43	690.46
382.63	685.78
382.83	660.03
383.02	718.54
383.22	720.88
383.41	767.70
383.61	748.97
383.80	828.55
384.00	744.29
384.19	793.44
384.39	741.95
384.58	755.99
384.78	713.86
384.97	802.80
385.17	723.23
385.36	791.10
385.56	779.40
385.75	823.87
385.95	835.57
386.14	912.81
386.34	793.44
386.53	851.96
386.72	877.70
386.92	877.70
387.11	882.38
387.31	910.47
387.50	884.72
387.70	844.93
387.89	763.01
388.09	809.83
388.28	931.53
388.48	976.00
388.67	898.77
388.86	929.19
389.06	994.73
389.25	973.66
389.45	1020.47
389.64	924.51
389.84	978.34
390.03	903.45
390.22	945.58
390.42	964.30
390.61	976.00
390.81	1004.09
391.00	1006.43
391.19	1064.94
391.39	971.32
391.58	1083.67
391.78	1048.56
391.97	1090.69
392.16	1025.15
392.36	1107.07
392.55	1196.01
392.75	973.66
392.94	1020.47
393.13	1071.97
393.33	987.71
393.52	1060.26
393.71	1032.18
393.91	1139.84
394.10	1055.58
394.29	1177.29
394.49	1158.57
394.68	1151.54
394.88	1198.35
395.07	1275.59
395.26	1273.25
395.46	1266.23
395.65	1228.78
395.84	1233.46
396.04	1191.33
396.23	1259.21
396.42	1165.59
396.62	1172.61
396.81	1238.14
397.00	1268.57
397.19	1181.97
397.39	1249.85
397.58	1409.00
397.77	1303.68
397.97	1483.90
398.16	1411.34
398.35	1394.96
398.55	1385.60
398.74	1467.52
398.93	1577.52
399.12	1523.69
399.32	1441.77
399.51	1514.33
399.70	1654.76
399.90	1582.20
400.09	1544.75
400.28	1643.06
400.47	1596.25
400.67	1743.70
400.86	1666.46
401.05	1596.25
401.24	1598.59
401.44	1680.50
401.63	1750.72
401.82	1710.93
402.01	1591.56
402.21	1680.50
402.40	1818.60
402.59	1774.13
402.78	1827.96
402.97	1720.29
403.17	1696.89
403.36	1722.63
403.55	1804.55
403.74	1804.55
403.93	1778.81
404.13	1820.94
404.32	1820.94
404.51	1832.64
404.70	1989.46
404.89	1919.24
405.09	1991.80
405.28	1865.41
405.47	1825.62
405.66	1923.92
405.85	2017.54
406.05	1912.22
406.24	1944.99
406.43	1902.86
406.62	2050.31
406.81	2083.08
407.00	2062.01
407.20	1984.77
407.39	2087.76
407.58	2176.70
407.77	2211.81
407.96	2193.08
408.15	2253.94
408.34	2181.38
408.54	2380.32
408.73	2260.96
408.92	2265.64
409.11	2314.79
409.30	2249.25
409.49	2303.09
409.68	2345.22
409.87	2314.79
410.07	2230.53
410.26	2333.51
410.45	2382.67
410.64	2368.62
410.83	2485.65
411.02	2483.31
411.21	2567.57
411.40	2586.29
411.59	2588.63
411.78	2586.29
411.98	2588.63
412.17	2628.42
412.36	2745.45
412.55	2642.46
412.74	2743.11
412.93	2754.81
413.12	2757.15
413.31	2857.79
413.50	2864.82
413.69	2834.39
413.88	2920.99
414.07	2942.05
414.26	2960.78
414.45	2986.52
414.64	2881.20
414.83	3094.19
415.02	3098.87
415.22	3133.98
415.41	3049.72
415.60	3145.68
415.79	3166.74
415.98	3243.98
416.17	3260.37
416.36	3208.87
416.55	3180.79
416.74	3307.18
416.93	3192.49
417.12	3283.77
417.31	3332.92
417.50	3187.81
417.69	3400.80
417.88	3419.52
418.07	3541.23
418.26	3515.48
418.45	3513.14
418.64	3506.12
418.83	3588.04
419.02	3492.08
419.21	3674.64
419.39	3564.64
419.58	3510.80
419.77	3499.10
419.96	3517.83
420.15	3672.30
420.34	3754.22
420.53	3819.75
420.72	3864.22
420.91	3735.50
421.10	3845.50
421.29	3798.69
421.48	3791.67
421.67	3824.44
421.86	3772.94
422.05	3901.67
422.24	3749.54
422.43	3882.95
422.61	3850.18
422.80	3882.95
422.99	3864.22
423.18	3756.56
423.37	3880.61
423.56	3873.59
423.75	3880.61
423.94	3822.09
424.13	3646.55
424.32	3808.05
424.50	3796.35
424.69	3906.35
424.88	4021.04
425.07	3969.55
425.26	3831.46
425.45	3808.05
425.64	3768.26
425.83	3889.97
426.01	4044.45
426.20	3967.21
426.39	4042.11
426.58	3981.25
426.77	3843.16
426.96	3925.08
427.15	3896.99
427.33	4042.11
427.52	4114.66
427.71	4091.26
427.90	4105.30
428.09	4198.92
428.28	4215.30
428.46	4189.56
428.65	4149.77
428.84	4241.05
429.03	4334.67
429.22	4145.09
429.40	4159.13
429.59	4063.17
429.78	3913.38
429.97	3974.23
430.16	3983.59
430.34	4081.89
430.53	4201.26
430.72	4142.75
430.91	4131.05
431.10	4264.46
431.28	4517.23
431.47	4648.30
431.66	4667.03
431.85	4554.68
432.03	4753.63
432.22	4655.33
432.41	4491.49
432.60	4709.16
432.79	4734.90
432.97	4732.56
433.16	4566.39
433.35	4655.33
433.54	4758.31
433.72	4671.71
433.91	4545.32
434.10	4758.31
434.28	4767.67
434.47	4999.38
434.66	4887.04
434.85	4959.60
435.03	4961.94
435.22	4910.44
435.41	5029.81
435.59	5095.35
435.78	4851.93
435.97	5179.61
436.16	5137.48
436.34	5046.20
436.53	5013.43
436.72	5235.78
436.90	5043.85
437.09	5341.10
437.28	5149.18
437.46	5123.43
437.65	5132.79
437.84	5165.56
438.02	5008.75
438.21	5048.54
438.40	5146.84
438.58	5439.40
438.77	5291.95
438.96	5397.28
439.14	5542.39
439.33	5537.71
439.52	5617.29
439.70	5678.14
439.89	5682.82
440.08	5469.83
440.26	5628.99
440.45	5664.10
440.63	5870.06
440.82	5748.36
441.01	5893.47
441.19	5912.19
441.38	6237.53
441.57	5933.26
441.75	6195.40
441.94	6300.72
442.12	6246.89
442.31	6338.17
442.50	6242.21
442.68	6314.77
442.87	6286.68
443.05	6314.77
443.24	6567.54
443.43	6310.08
443.61	6471.58
443.80	6356.90
443.98	6342.85
444.17	6277.32
444.35	6560.52
444.54	6551.16
444.73	6534.78
444.91	6597.97
445.10	6377.96
445.28	6415.41
445.47	6342.85
445.65	6464.56
445.84	6586.27
446.02	6471.58
446.21	6361.58
446.39	6654.14
446.58	6637.76
446.77	6621.38
446.95	6413.07
447.14	6698.61
447.32	6429.45
447.51	6504.35
447.69	6600.31
447.88	6562.86
448.06	6703.29
448.25	6677.55
448.43	6773.51
448.62	6726.70
448.80	6684.57
448.99	6637.76
449.17	6834.36
449.36	6825.00
449.54	6932.67
449.73	7112.89
449.91	7101.19
450.10	6970.12
450.28	7279.07
450.46	7346.94
450.65	7206.51
450.83	7089.48
451.02	7124.59
451.20	7335.24
451.39	7133.95
451.57	7311.83
451.76	7396.09
451.94	7162.04
452.13	7311.83
452.31	7101.19
452.49	6953.73
452.68	7094.16
452.86	7138.63
453.05	7229.91
453.23	7372.69
453.42	7042.67
453.60	7293.11
453.78	7623.12
453.97	7403.11
454.15	7555.25
454.34	7344.60
454.52	7595.04
454.70	7459.29
454.89	7447.58
455.07	7466.31
455.26	7634.83
455.44	7744.83
455.62	7707.38
455.81	7709.72
455.99	7634.83
456.17	7885.26
456.36	7789.30
456.54	7868.88
456.73	7861.86
456.91	8145.06
457.09	8119.32
457.28	8304.22
457.46	7925.05
457.64	8032.72
457.83	8140.38
458.01	7985.91
458.19	8306.56
458.38	8168.47
458.56	8320.60
458.74	8028.04
458.93	8086.55
459.11	8273.79
459.29	8184.85
459.48	8355.71
459.66	8299.54
459.84	8325.29
460.03	8505.51
460.21	8573.38
460.39	8407.20
460.57	8528.91
460.76	8713.81
460.94	8542.96
461.12	8503.17
461.31	8514.87
461.49	8678.71
461.67	8575.72
461.85	8863.61
462.04	8645.94
462.22	9085.96
462.40	8854.25
462.59	8674.03
462.77	8844.88
462.95	8842.54
463.13	8872.97
463.32	8751.26
463.50	9067.24
463.68	9071.92
463.86	8952.55
464.05	8758.28
464.23	8788.71
464.41	9064.89
464.59	8767.65
464.78	9083.62
464.96	9184.26
465.14	9067.24
465.32	9254.48
465.50	9273.20
465.69	9207.67
465.87	9214.69
466.05	9011.06
466.23	8987.66
466.41	9097.66
466.60	9322.35
466.78	9071.92
466.96	9142.13
467.14	9338.74
467.32	9277.88
467.51	9521.30
467.69	9050.85
467.87	9336.40
468.05	9664.07
468.23	9287.25
468.41	9390.23
468.60	9301.29
468.78	9631.30
468.96	9453.42
469.14	9832.59
469.32	9577.47
469.50	9444.06
469.69	9640.67
469.87	9848.97
470.05	9802.16
470.23	9825.57
470.41	9940.26
470.59	9916.85
470.77	9923.87
470.95	9898.13
471.14	10113.45
471.32	10036.22
471.50	10193.03
471.68	10258.57
471.86	10331.12
472.04	10232.82
472.22	10619.01
472.40	10382.62
472.58	10296.02
472.77	10338.15
472.95	10544.11
473.13	10885.83
473.31	10464.54
473.49	10204.74
473.67	10595.61
473.85	10693.91
474.03	10752.42
474.21	10808.59
474.39	11211.17
474.57	10934.98
474.75	11194.78
474.93	11066.05
475.12	11222.87
475.30	11176.06
475.48	11098.82
475.66	11332.87
475.84	11136.27
476.02	11346.92
476.20	11239.25
476.38	11590.33
476.56	11580.97
476.74	11676.93
476.92	11693.32
477.10	11587.99
477.28	11997.59
477.46	11873.54
477.64	12231.64
477.82	12229.30
478.00	12526.55
478.18	12299.52
478.36	12437.61
478.54	12781.67
478.72	12575.70
478.90	12601.44
479.08	13001.68
479.26	13111.68
479.44	12938.48
479.62	13188.92
479.80	13355.10
479.98	13289.56
480.16	13689.79
480.34	13521.27
480.52	13729.58
480.70	13715.54
480.88	13752.99
481.06	13867.67
481.24	13980.02
481.41	14478.55
481.59	14490.26
481.77	14630.69
481.95	14300.67
482.13	14670.48
482.31	14356.85
482.49	15051.99
482.67	14661.12
482.85	14801.55
483.03	15016.88
483.21	15026.24
483.39	15391.36
483.57	15150.29
483.74	15393.70
483.92	15843.09
484.10	15529.45
484.28	15765.85
484.46	16245.66
484.64	16170.76
484.82	15899.26
485.00	15953.09
485.18	16149.70
485.35	16500.78
485.53	16065.44
485.71	15903.94
485.89	16475.03
486.07	16451.63
486.25	16575.67
486.43	16870.58
486.61	16608.44
486.78	17317.62
486.96	17427.63
487.14	17341.03
487.32	17614.87
487.50	17853.61
487.68	18340.44
487.85	18333.42
488.03	18415.34
488.21	18576.83
488.39	18345.12
488.57	18202.35
488.75	18576.83
488.92	18927.91
489.10	19358.57
489.28	19520.07
489.46	19550.49
489.64	19323.46
489.81	20222.23
489.99	19969.45
490.17	20163.72
490.35	20126.27
490.53	20051.37
490.70	20486.71
490.88	20437.56
491.06	20950.14
491.24	20507.77
491.41	20662.25
491.59	20987.58
491.77	20517.14
491.95	21378.45
492.13	21247.38
492.30	21252.06
492.48	21806.77
492.66	21731.87
492.84	21514.20
493.01	21720.17
493.19	21724.85
493.37	22352.12
493.54	22167.21
493.72	22417.65
493.90	22073.59
494.08	22834.27
494.25	23129.17
494.43	22939.59
494.61	23126.83
494.79	23175.98
494.96	23276.63
495.14	23232.16
495.32	23463.87
495.49	23632.39
495.67	23414.72
495.85	24290.08
496.02	23985.81
496.20	24112.20
496.38	24439.87
496.55	24453.92
496.73	24802.66
496.91	24854.15
497.09	24954.79
497.26	24734.78
497.44	24858.83
497.62	24842.45
497.79	25125.65
497.97	25472.05
498.14	25825.47
498.32	25228.63
498.50	25324.60
498.67	25741.21
498.85	26267.83
499.03	26190.59
499.20	25977.61
499.38	26305.28
499.56	26309.96
499.73	26717.22
499.91	26228.04
500.08	26441.03
500.26	26017.40
500.44	26398.90
500.61	26665.72
500.79	26361.45
500.97	26426.99
501.14	26979.36
501.32	26836.58
501.49	26827.22
501.67	27030.85
501.84	27314.05
502.02	27630.02
502.20	27988.13
502.37	27742.37
502.55	27758.75
502.72	27489.59
502.90	28011.53
503.07	27538.74
503.25	28158.99
503.43	28102.81
503.60	28353.25
503.78	27887.48
503.95	27718.96
504.13	28236.22
504.30	28692.63
504.48	28460.91
504.65	28896.25
504.83	28730.08
505.01	29242.65
505.18	28952.43
505.36	29600.76
505.53	29612.46
505.71	29895.66
505.88	29750.55
506.06	29355.00
506.23	29640.54
506.41	29509.47
506.58	29607.78
506.76	29989.28
506.93	29846.51
507.11	29762.25
507.28	29975.24
507.46	29577.35
507.63	29982.26
507.81	30106.31
507.98	30132.06
508.16	30382.49
508.33	30749.96
508.50	30679.74
508.68	30794.43
508.85	31054.23
509.03	30506.54
509.20	30749.96
509.38	31026.14
509.55	31456.80
509.73	31009.76
509.90	31283.60
510.08	31505.95
510.25	31346.79
510.42	31075.29
510.60	31325.73
510.77	31304.67
510.95	31903.84
511.12	31662.77
511.30	31955.33
511.47	32180.03
511.64	32180.03
511.82	32690.26
511.99	32191.73
512.17	32568.55
512.34	31875.76
512.51	32472.59
512.69	32575.58
512.86	32191.73
513.04	32481.95
513.21	32582.60
513.38	32746.44
513.56	32861.12
513.73	32580.26
513.90	32900.91
514.08	32725.37
514.25	32959.42
514.43	33074.11
514.60	33373.70
514.77	32959.42
514.95	33441.57
515.12	33165.39
515.29	33015.60
515.47	33844.15
515.64	34087.56
515.81	33670.95
515.99	33652.22
516.16	33383.06
516.33	33331.57
516.51	33626.48
516.68	33137.30
516.85	32818.99
517.03	33132.62
517.20	34155.44
517.37	34382.47
517.54	34429.28
517.72	34363.75
517.89	33846.49
518.06	33687.33
518.24	33804.36
518.41	34087.56
518.58	34567.37
518.75	34675.04
518.93	34415.24
519.10	34300.55
519.27	34593.12
519.45	34890.37
519.62	34801.43
519.79	35449.75
519.96	35150.17
520.14	35332.73
520.31	34998.03
520.48	35590.19
520.65	35328.05
520.83	35859.35
521.00	35566.78
521.17	35576.14
521.34	35651.04
521.52	35892.12
521.69	36137.87
521.86	36163.62
522.03	36240.86
522.20	35990.42
522.38	35754.02
522.55	36304.05
522.72	36126.17
522.89	36123.83
523.07	36423.42
523.24	36282.98
523.41	36638.75
523.58	36783.86
523.75	37017.91
523.92	36596.62
524.10	36926.63
524.27	37034.30
524.44	37057.70
524.61	36933.65
524.78	37556.24
524.96	37425.17
525.13	37198.13
525.30	37736.46
525.47	37280.05
525.64	37148.98
525.81	37347.93
525.98	37460.27
526.16	36987.49
526.33	36804.92
526.50	37518.79
526.67	37207.50
526.84	36861.10
527.01	37092.81
527.18	37542.19
527.36	37694.33
527.53	38363.72
527.70	38508.83
527.87	38043.07
528.04	38012.64
528.21	38565.01
528.38	38333.29
528.55	38696.08
528.72	38658.63
528.89	39009.71
529.07	38429.26
529.24	38532.24
529.41	38335.63
529.58	38553.30
529.75	38330.95
529.92	38651.61
530.09	38831.83
530.26	38733.53
530.43	38843.53
530.60	38541.60
530.77	38749.91
530.94	39185.25
531.11	38948.85
531.28	39241.42
531.46	39192.27
531.63	39374.83
531.80	39117.37
531.97	39143.12
532.14	38873.96
532.31	38522.88
532.48	39152.48
532.65	39393.56
532.82	39480.16
532.99	39868.69
533.16	39180.57
533.33	39763.36
533.50	39597.18
533.67	39580.80
533.84	39452.07
534.01	40004.44
534.18	39875.71
534.35	40465.52
534.52	39548.03
534.69	40076.99
534.86	40086.36
535.03	39833.58
535.20	40484.25
535.37	40959.38
535.54	40678.51
535.71	40542.76
535.88	40123.80
536.05	40458.50
536.22	40793.20
536.38	40533.40
536.55	40582.55
536.72	40488.93
536.89	40301.68
537.06	40739.36
537.23	40776.81
537.40	40432.75
537.57	40460.84
537.74	41397.06
537.91	41411.10
538.08	40821.28
538.25	41076.40
538.42	40697.24
538.59	41790.27
538.75	41057.68
538.92	40861.07
539.09	40797.88
539.26	41436.84
539.43	41247.26
539.60	41361.95
539.77	41097.47
539.94	41125.55
540.11	40928.95
540.28	41223.86
540.44	41500.04
540.61	41518.76
540.78	41230.88
540.95	41003.85
541.12	41621.75
541.29	41741.11
541.46	41755.16
541.62	41591.32
541.79	41478.97
541.96	41242.58
542.13	41909.63
542.30	42117.94
542.47	41914.31
542.63	42029.00
542.80	42623.50
542.97	42155.39
543.14	42260.71
543.31	42351.99
543.48	42553.28
543.64	42263.05
543.81	42815.42
543.98	42185.82
544.15	42550.94
544.32	42628.18
544.48	43208.63
544.65	42763.93
544.82	42817.76
544.99	42375.40
545.16	42466.68
545.32	42396.46
545.49	43316.29
545.66	42990.96
545.83	42862.23
546.00	43040.11
546.16	42981.60
546.33	42614.13
546.50	42539.24
546.67	43196.93
546.83	43019.05
547.00	43124.37
547.17	43112.67
547.34	42742.86
547.50	43253.10
547.67	43288.21
547.84	43297.57
548.00	43529.28
548.17	43681.42
548.34	43075.22
548.51	43608.86
548.67	43627.59
548.84	43702.48
549.01	43538.65
549.18	43414.60
549.34	43812.49
549.51	43515.24
549.68	43526.94
549.84	43768.02
550.01	43688.44
550.18	43604.18
550.34	43693.12
550.51	43826.53
550.68	43564.39
550.84	43103.31
551.01	43800.79
551.18	43487.15
551.34	43665.03
551.51	43665.03
551.68	43920.15
551.84	43746.95
552.01	43997.39
552.18	43826.53
552.34	43812.49
552.51	43934.20
552.68	44119.10
552.84	44360.17
553.01	43913.13
553.18	44406.98
553.34	44383.58
553.51	44257.19
553.67	44137.82
553.84	44861.05
554.01	44669.12
554.17	44399.96
554.34	44755.72
554.51	44645.72
554.67	44701.89
554.84	44411.67
555.00	44500.61
555.17	44191.65
555.33	44538.05
555.50	45041.27
555.67	44432.73
555.83	44790.83
556.00	44631.68
556.16	44896.16
556.33	44795.51
556.50	44924.24
556.66	44690.19
556.83	44416.35
556.99	44531.03
557.16	44713.59
557.32	44938.29
557.49	44818.92
557.65	44631.68
557.82	44755.72
557.98	44626.99
558.15	44935.95
558.32	44947.65
558.48	44451.45
558.65	44442.09
558.81	44767.43
558.98	44325.07
559.14	44919.56
559.31	44645.72
559.47	44903.18
559.64	45113.83
559.80	44938.29
559.97	45272.98
560.13	45031.91
560.30	45113.83
560.46	44884.45
560.63	45130.21
560.79	45228.51
560.96	45216.81
561.12	44996.80
561.29	44542.74
561.45	45148.93
561.61	45174.68
561.78	44928.92
561.94	45167.66
562.11	44856.37
562.27	45268.30
562.44	45659.17
562.60	45359.58
562.77	45233.19
562.93	45371.28
563.10	45525.76
563.26	45397.03
563.42	45502.35
563.59	45195.74
563.75	45392.35
563.92	45530.44
564.08	45558.53
564.24	45371.28
564.41	45584.27
564.57	45441.50
564.74	45209.79
564.90	45179.36
565.07	45230.85
565.23	45476.61
565.39	45298.73
565.56	45270.64
565.72	45017.86
565.88	45303.41
566.05	45427.46
566.21	45078.72
566.38	45172.34
566.54	45659.17
566.70	45546.82
566.87	46160.05
567.03	45364.26
567.19	46078.13
567.36	45745.77
567.52	46127.28
567.68	45612.36
567.85	45556.19
568.01	45944.72
568.17	45553.85
568.34	45565.55
568.50	45434.48
568.66	45705.98
568.83	45661.51
568.99	45397.03
569.15	44994.46
569.32	45303.41
569.48	45478.95
569.64	46028.98
569.81	45652.15
569.97	46059.40
570.13	45979.82
570.30	45041.27
570.46	45455.54
570.62	44912.54
570.78	44947.65
570.95	45270.64
571.11	45385.33
571.27	45209.79
571.43	45663.85
571.60	45738.75
571.76	45312.77
571.92	45799.60
572.09	45900.25
572.25	46190.47
572.41	45628.74
572.57	45610.02
572.74	46148.34
572.90	45415.76
573.06	45801.94
573.22	45661.51
573.38	45717.68
573.55	45170.00
573.71	46040.68
573.87	45640.45
574.03	45551.51
574.20	45755.13
574.36	45748.11
574.52	46031.32
574.68	45759.81
574.84	45432.14
575.01	45584.27
575.17	46005.57
575.33	45654.49
575.49	45738.75
575.65	45979.82
575.82	45624.06
575.98	45771.52
576.14	46391.76
576.30	45717.68
576.46	45528.10
576.62	45722.37
576.79	46064.08
576.95	45057.65
577.11	46096.85
577.27	45914.29
577.43	45818.33
577.59	45607.68
577.75	45745.77
577.92	45336.18
578.08	45752.79
578.24	45797.26
578.40	45652.15
578.56	45546.82
578.72	46117.92
578.88	46223.24
579.04	45904.93
579.21	45212.13
579.37	45441.50
579.53	45975.14
579.69	45308.09
579.85	45626.40
580.01	45947.06
580.17	45904.93
580.33	45942.38
580.49	45720.02
580.65	46014.93
580.82	45808.96
580.98	45380.65
581.14	45141.91
581.30	45787.90
581.46	45507.04
581.62	46143.66
581.78	45507.04
581.94	46401.12
582.10	46064.08
582.26	46134.30
582.42	46146.00
582.58	45310.43
582.74	46309.84
582.90	46024.29
583.06	45907.27
583.22	46248.99
583.38	46417.50
583.54	45815.99
583.70	46082.81
583.86	45921.31
584.02	45762.15
584.18	45998.55
584.34	45989.19
584.50	45963.44
584.66	45888.54
584.82	45827.69
584.98	45923.65
585.14	45848.75
585.30	45666.19
585.46	45588.95
585.62	45233.19
585.78	45914.29
585.94	45528.10
586.10	45593.64
586.26	45916.63
586.42	46031.32
586.58	45944.72
586.74	46265.37
586.90	45979.82
587.06	46103.87
587.22	46005.57
587.38	46028.98
587.54	46293.46
587.70	46223.24
587.86	45811.31
588.02	45757.47
588.18	46036.00
588.34	45654.49
588.49	45099.78
588.65	45191.06
588.81	45418.10
588.97	45666.19
589.13	45270.64
589.29	45326.81
589.45	45900.25
589.61	46124.94
589.77	46113.23
589.93	45778.54
590.08	46232.60
