SpectraSuite Data File
++++++++++++++++++++++++++++++++++++
Date: Fri Oct 25 11:23:55 EDT 2013
User: price-jones
Dark Spectrum Present: No
Reference Spectrum Present: No
Number of Sampled Component Spectra: 1
Spectrometers: USB2+H05261
Integration Time (usec): 100000 (USB2+H05261)
Spectra Averaged: 1 (USB2+H05261)
Boxcar Smoothing: 0 (USB2+H05261)
Correct for Electrical Dark: No (USB2+H05261)
Strobe/Lamp Enabled: No (USB2+H05261)
Correct for Detector Non-linearity: No (USB2+H05261)
Correct for Stray Light: No (USB2+H05261)
Number of Pixels in Processed Spectrum: 2048
>>>>>Begin Processed Spectral Data<<<<<
365.73	212.99
365.92	212.99
366.12	212.99
366.32	159.16
366.52	149.79
366.72	142.77
366.91	119.37
367.11	131.07
367.31	128.73
367.51	124.05
367.70	95.96
367.90	140.43
368.10	156.82
368.30	86.60
368.49	117.03
368.69	91.28
368.89	191.92
369.09	121.71
369.28	142.77
369.48	128.73
369.68	201.29
369.87	189.58
370.07	196.60
370.27	210.65
370.47	362.78
370.66	554.71
370.86	606.20
371.06	645.99
371.25	603.86
371.45	641.31
371.65	744.29
371.84	674.07
372.04	713.86
372.24	697.48
372.44	751.31
372.63	702.16
372.83	660.03
373.03	760.67
373.22	741.95
373.42	798.12
373.62	784.08
373.81	868.34
374.01	851.96
374.21	795.78
374.40	737.27
374.60	915.15
374.79	814.51
374.99	835.57
375.19	875.36
375.38	842.59
375.58	842.59
375.78	901.11
375.97	828.55
376.17	945.58
376.37	870.68
376.56	854.30
376.76	858.98
376.95	835.57
377.15	917.49
377.35	835.57
377.54	894.08
377.74	891.74
377.93	891.74
378.13	840.25
378.33	884.72
378.52	898.77
378.72	919.83
378.91	922.17
379.11	894.08
379.31	1039.20
379.50	950.26
379.70	983.02
379.89	964.30
380.09	1029.84
380.28	966.64
380.48	954.94
380.68	940.90
380.87	966.64
381.07	978.34
381.26	959.62
381.46	1013.45
381.65	992.39
381.85	1032.18
382.04	1057.92
382.24	1057.92
382.43	1076.65
382.63	992.39
382.83	1062.60
383.02	1137.50
383.22	1015.79
383.41	1151.54
383.61	1025.15
383.80	1055.58
384.00	1041.54
384.19	1137.50
384.39	1153.88
384.58	1125.80
384.78	1153.88
384.97	1203.04
385.17	1078.99
385.36	1081.33
385.56	1170.27
385.75	1165.59
385.95	1125.80
386.14	1219.42
386.34	1069.62
386.53	1210.06
386.72	1214.74
386.92	1254.53
387.11	1249.85
387.31	1203.04
387.50	1179.63
387.70	1235.80
387.89	1306.02
388.09	1329.42
388.28	1315.38
388.48	1275.59
388.67	1303.68
388.86	1299.00
389.06	1322.40
389.25	1350.49
389.45	1397.30
389.64	1362.19
389.84	1364.53
390.03	1369.21
390.22	1399.64
390.42	1329.42
390.61	1324.74
390.81	1390.28
391.00	1420.71
391.19	1444.11
391.39	1483.90
391.58	1437.09
391.78	1420.71
391.97	1572.84
392.16	1507.30
392.36	1575.18
392.55	1551.78
392.75	1451.13
392.94	1519.01
393.13	1572.84
393.33	1465.18
393.52	1582.20
393.71	1514.33
393.91	1504.96
394.10	1647.74
394.29	1556.46
394.49	1572.84
394.68	1680.50
394.88	1624.33
395.07	1689.87
395.26	1666.46
395.46	1624.33
395.65	1657.10
395.84	1675.82
396.04	1767.10
396.23	1736.68
396.42	1657.10
396.62	1755.40
396.81	1825.62
397.00	1739.02
397.19	1804.55
397.39	1760.08
397.58	1853.70
397.77	1769.44
397.97	1837.32
398.16	1856.04
398.35	1884.13
398.55	1839.66
398.74	1881.79
398.93	1874.77
399.12	1860.73
399.32	1966.05
399.51	1877.11
399.70	1977.75
399.90	1919.24
400.09	2059.67
400.28	2015.20
400.47	2062.01
400.67	2012.86
400.86	1928.60
401.05	2125.21
401.24	2080.74
401.44	2073.71
401.63	2120.53
401.82	2106.48
402.01	2202.44
402.21	2174.36
402.40	2221.17
402.59	2181.38
402.78	2064.35
402.97	2277.34
403.17	2326.49
403.36	2366.28
403.55	2333.51
403.74	2417.77
403.93	2291.38
404.13	2377.98
404.32	2326.49
404.51	2312.45
404.70	2396.71
404.89	2340.54
405.09	2396.71
405.28	2427.14
405.47	2476.29
405.66	2438.84
405.85	2469.27
406.05	2555.86
406.24	2478.63
406.43	2581.61
406.62	2626.08
406.81	2700.98
407.00	2633.10
407.20	2572.25
407.39	2733.75
407.58	2848.43
407.77	2733.75
407.96	2787.58
408.15	2902.26
408.34	2815.66
408.54	2918.65
408.73	2862.48
408.92	2862.48
409.11	2920.99
409.30	2846.09
409.49	2841.41
409.68	2806.30
409.87	2988.86
410.07	2967.80
410.26	2946.73
410.45	2920.99
410.64	3005.25
410.83	3108.23
411.02	3178.45
411.21	3155.04
411.40	3159.72
411.59	3197.17
411.78	3248.66
411.98	3241.64
412.17	3211.22
412.36	3428.88
412.55	3361.01
412.74	3459.31
412.93	3379.73
413.12	3494.42
413.31	3471.01
413.50	3487.40
413.69	3403.14
413.88	3616.13
414.07	3550.59
414.26	3737.84
414.45	3662.94
414.64	3576.34
414.83	3889.97
415.02	3786.99
415.22	3815.07
415.41	3805.71
415.60	3801.03
415.79	3948.48
415.98	3939.12
416.17	4032.74
416.36	3894.65
416.55	4002.32
416.74	4152.11
416.93	4023.38
417.12	4133.39
417.31	4266.80
417.50	4093.60
417.69	4397.87
417.88	4280.84
418.07	4241.05
418.26	4222.33
418.45	4304.25
418.64	4285.52
418.83	4365.10
419.02	4465.74
419.21	4596.81
419.39	4447.02
419.58	4421.27
419.77	4491.49
419.96	4578.09
420.15	4531.28
420.34	4479.79
420.53	4603.83
420.72	4610.86
420.91	4685.75
421.10	4896.40
421.29	4746.61
421.48	4601.49
421.67	4858.95
421.86	4779.37
422.05	5006.41
422.24	4858.95
422.43	4880.02
422.61	4877.68
422.80	4980.66
422.99	4975.98
423.18	4931.51
423.37	4940.87
423.56	4891.72
423.75	4936.19
423.94	4863.63
424.13	4624.90
424.32	4795.76
424.50	4983.00
424.69	5093.01
424.88	5088.32
425.07	4959.60
425.26	4924.49
425.45	4992.36
425.64	4943.21
425.83	4887.04
426.01	5062.58
426.20	5076.62
426.39	5046.20
426.58	5163.22
426.77	5104.71
426.96	5064.92
427.15	5109.39
427.33	5163.22
427.52	5179.61
427.71	5284.93
427.90	5277.91
428.09	5294.29
428.28	5366.85
428.46	5392.59
428.65	5399.62
428.84	5558.77
429.03	5416.00
429.22	5371.53
429.40	5451.11
429.59	5516.64
429.78	5303.65
429.97	5394.93
430.16	5476.85
430.34	5547.07
430.53	5767.08
430.72	5563.45
430.91	5720.27
431.10	5727.29
431.28	5762.40
431.47	5701.54
431.66	5790.49
431.85	5661.76
432.03	5898.15
432.22	6101.78
432.41	6005.81
432.60	5994.11
432.79	6125.18
432.97	5944.96
433.16	5891.13
433.35	5891.13
433.54	6132.20
433.72	6080.71
433.91	6024.54
434.10	6333.49
434.28	6061.99
434.47	6167.31
434.66	6244.55
434.85	6326.47
435.03	6253.91
435.22	6249.23
435.41	6490.31
435.59	6408.39
435.78	6689.25
435.97	6448.18
436.16	6473.92
436.34	6450.52
436.53	6476.26
436.72	6649.46
436.90	6494.99
437.09	6576.91
437.28	6513.71
437.46	6574.56
437.65	6628.40
437.84	6881.18
438.02	6670.53
438.21	6834.36
438.40	6696.27
438.58	7091.82
438.77	6998.20
438.96	6970.12
439.14	6970.12
439.33	7218.21
439.52	7222.89
439.70	7173.74
439.89	7150.34
440.08	7309.49
440.26	7475.67
440.45	7258.00
440.63	7648.87
440.82	7604.40
441.01	7536.52
441.19	7566.95
441.38	7716.75
441.57	7712.07
441.75	7674.62
441.94	7943.78
442.12	8006.97
442.31	8102.93
442.50	7911.01
442.68	7873.56
442.87	8145.06
443.05	8154.43
443.24	8325.29
443.43	8341.67
443.61	8159.11
443.80	8587.43
443.98	8124.00
444.17	7751.85
444.35	8184.85
444.54	8229.32
444.73	8280.82
444.91	8262.09
445.10	8442.31
445.28	8341.67
445.47	8280.82
445.65	8234.00
445.84	8325.29
446.02	8491.46
446.21	8486.78
446.39	8292.52
446.58	8400.18
446.77	8491.46
446.95	8205.92
447.14	8456.36
447.32	8423.59
447.51	8435.29
447.69	8250.39
447.88	8379.12
448.06	8638.92
448.25	8437.63
448.43	8596.79
448.62	8685.73
448.80	8613.17
448.99	8692.75
449.17	8898.72
449.36	8571.04
449.54	8793.39
449.73	8915.10
449.91	9067.24
450.10	8879.99
450.28	8945.53
450.46	8961.91
450.65	8919.78
450.83	8884.67
451.02	9219.37
451.20	9158.52
451.39	9095.32
451.57	9334.06
451.76	9090.64
451.94	9217.03
452.13	9533.00
452.31	9195.96
452.49	9324.69
452.68	9252.14
452.86	9345.76
453.05	9277.88
453.23	9497.89
453.42	9385.55
453.60	9324.69
453.78	9547.05
453.97	9263.84
454.15	9661.73
454.34	9680.46
454.52	9652.37
454.70	9542.36
454.89	9813.87
455.07	9706.20
455.26	9841.95
455.44	9870.04
455.62	9919.19
455.81	9900.47
455.99	10078.35
456.17	10204.74
456.36	10090.05
456.54	10115.80
456.73	10230.48
456.91	10628.37
457.09	10265.59
457.28	10511.35
457.46	10436.45
457.64	10752.42
457.83	10649.44
458.01	10534.75
458.19	10537.09
458.38	10583.90
458.56	10885.83
458.74	10534.75
458.93	10775.83
459.11	10724.33
459.29	10609.65
459.48	10684.55
459.66	10832.00
459.84	10984.13
460.03	11040.31
460.21	11091.80
460.39	11162.01
460.57	10956.05
460.76	11138.61
460.94	11110.52
461.12	11119.89
461.31	11227.55
461.49	11159.67
461.67	11297.77
461.85	11573.95
462.04	11342.24
462.22	11513.10
462.40	11646.51
462.59	11375.00
462.77	11604.38
462.95	11506.07
463.13	11742.47
463.32	11506.07
463.50	11812.68
463.68	11623.10
463.86	11808.00
464.05	11538.84
464.23	11651.19
464.41	11957.80
464.59	11583.31
464.78	12212.92
464.96	12241.00
465.14	11967.16
465.32	11936.73
465.50	12219.94
465.69	11981.20
465.87	12437.61
466.05	12093.55
466.23	12140.36
466.41	12135.68
466.60	12582.72
466.78	12257.39
466.96	12006.95
467.14	12339.30
467.32	12585.06
467.51	12507.82
467.69	12121.63
467.87	12671.66
468.05	12678.68
468.23	12245.68
468.41	12573.36
468.60	12645.91
468.78	12894.01
468.96	12720.81
469.14	12758.26
469.32	12943.16
469.50	12821.45
469.69	13179.56
469.87	13097.64
470.05	13078.91
470.23	13221.69
470.41	13422.97
470.59	13266.16
470.77	13233.39
470.95	13200.62
471.14	13366.80
471.32	13144.45
471.50	13364.46
471.68	13682.77
471.86	13680.43
472.04	13664.05
472.22	14001.08
472.40	13862.99
472.58	13776.39
472.77	14075.98
472.95	14207.05
473.13	14483.24
473.31	14155.56
473.49	14043.21
473.67	14022.15
473.85	14176.62
474.03	14581.54
474.21	14595.58
474.39	14682.18
474.57	14682.18
474.75	14731.33
474.93	14848.36
475.12	15059.01
475.30	15026.24
475.48	15124.54
475.66	15201.78
475.84	15190.08
476.02	15246.25
476.20	15571.58
476.38	15459.24
476.56	15922.66
476.74	15936.71
476.92	15803.30
477.10	15840.75
477.28	16116.93
477.46	16063.10
477.64	16294.81
477.82	16638.87
478.00	16791.00
478.18	16826.11
478.36	16879.94
478.54	17071.87
478.72	17357.41
478.90	17406.56
479.08	17462.74
479.26	17792.75
479.44	17547.00
479.62	17905.10
479.80	18080.64
479.98	18235.11
480.16	18647.05
480.34	18263.20
480.52	18963.02
480.70	18728.97
480.88	18525.34
481.06	18941.96
481.24	19002.81
481.41	19040.26
481.59	19232.18
481.77	19590.28
481.95	19594.96
482.13	19644.12
482.31	19573.90
482.49	20109.88
482.67	20182.44
482.85	20524.16
483.03	20769.91
483.21	20622.46
483.39	21010.99
483.57	21132.70
483.74	21135.04
483.92	21125.68
484.10	21273.13
484.28	21495.48
484.46	21998.70
484.64	22508.93
484.82	22080.61
485.00	22551.06
485.18	22792.14
485.35	22977.04
485.53	22904.48
485.71	22897.46
485.89	23571.54
486.07	23295.35
486.25	23349.18
486.43	23564.51
486.61	23866.44
486.78	24423.49
486.96	24142.63
487.14	24549.88
487.32	24636.48
487.50	24826.06
487.68	25067.14
487.85	24755.85
488.03	25296.51
488.21	25687.38
488.39	25687.38
488.57	26139.10
488.75	26115.70
488.92	26665.72
489.10	26752.32
489.28	26913.82
489.46	27267.24
489.64	27115.11
489.81	27740.03
489.99	27733.01
490.17	27585.55
490.35	28173.03
490.53	27861.74
490.70	28437.51
490.88	28191.75
491.06	28804.97
491.24	28790.93
491.41	28929.02
491.59	29186.48
491.77	29230.95
491.95	29682.67
492.13	29689.70
492.30	29900.34
492.48	29888.64
492.66	30031.41
492.84	30167.16
493.01	30735.92
493.19	30401.22
493.37	31211.04
493.54	31178.28
493.72	31337.43
493.90	31634.68
494.08	32095.77
494.25	31857.03
494.43	31927.25
494.61	32275.99
494.79	32467.91
494.96	32842.40
495.14	32613.02
495.32	33340.93
495.49	33039.00
495.67	33165.39
495.85	33748.18
496.02	33853.51
496.20	34136.71
496.38	34094.58
496.55	34382.47
496.73	34962.92
496.91	34548.65
497.09	34754.61
497.26	34677.38
497.44	34782.70
497.62	35304.64
497.79	36032.55
497.97	35367.84
498.14	35814.88
498.32	36091.06
498.50	36484.27
498.67	36727.69
498.85	36341.50
499.03	36830.67
499.20	36952.38
499.38	36854.08
499.56	37411.12
499.73	36959.40
499.91	37420.48
500.08	37509.43
500.26	37460.27
500.44	37715.39
500.61	37986.89
500.79	37544.53
500.97	38330.95
501.14	38799.06
501.32	38352.02
501.49	38653.95
501.67	38888.00
501.84	39033.11
502.02	38658.63
502.20	38930.13
502.37	39395.90
502.55	39061.20
502.72	39690.80
502.90	39643.99
503.07	39494.20
503.25	39489.52
503.43	39711.87
503.60	40194.02
503.78	40556.80
503.95	40259.55
504.13	40673.83
504.30	40935.97
504.48	40739.36
504.65	40617.66
504.83	41287.05
505.01	41364.29
505.18	41216.83
505.36	41556.21
505.53	41251.94
505.71	41745.80
505.88	41659.20
506.06	41635.79
506.23	41907.29
506.41	42124.96
506.58	42263.05
506.76	42349.65
506.93	42326.25
507.11	42281.78
507.28	42656.26
507.46	42637.54
507.63	42550.94
507.81	43442.68
507.98	43346.72
508.16	43035.43
508.33	43164.16
508.50	43232.04
508.68	43796.10
508.85	44027.82
509.03	43725.89
509.20	44243.15
509.38	44266.55
509.55	44470.18
509.73	44566.14
509.90	44519.33
510.08	44575.50
510.25	44673.81
510.42	44725.30
510.60	44844.66
510.77	45319.79
510.95	45221.49
511.12	45202.77
511.30	45205.11
511.47	45492.99
511.64	45734.07
511.82	45830.03
511.99	45621.72
512.17	46050.04
512.34	46171.75
512.51	46316.86
512.69	46349.63
512.86	46600.07
513.04	46340.27
513.21	46752.20
513.38	47014.34
513.56	46740.50
513.73	47009.66
513.90	47255.42
514.08	47351.38
514.25	47150.09
514.43	47182.86
514.60	47634.58
514.77	47412.23
514.95	48013.75
515.12	47311.59
515.29	47639.26
515.47	48294.61
515.64	47908.43
515.81	48044.18
515.99	48147.16
516.16	48158.86
516.33	48100.35
516.51	48605.91
516.68	48079.28
516.85	48744.00
517.03	48952.30
517.20	49202.74
517.37	49144.23
517.54	49055.29
517.72	48774.42
517.89	49242.53
518.06	49389.98
518.24	49127.84
518.41	49104.44
518.58	49514.03
518.75	49296.36
518.93	49701.28
519.10	49235.51
519.27	49806.60
519.45	49804.26
519.62	50045.33
519.79	49743.41
519.96	50101.51
520.14	49979.80
520.31	49942.35
520.48	50122.57
520.65	50375.35
520.83	50972.19
521.00	50607.06
521.17	50548.55
521.34	50660.90
521.52	50820.05
521.69	51325.61
521.86	50990.91
522.03	51239.01
522.20	51239.01
522.38	51566.68
522.55	51409.87
522.72	51185.18
522.89	51274.12
523.07	51688.39
523.24	51379.44
523.41	51885.00
523.58	51224.96
523.75	51964.57
523.92	51805.42
524.10	51910.74
524.27	52203.31
524.44	52322.68
524.61	52149.48
524.78	52470.13
524.96	52250.12
525.13	52065.22
525.30	52381.19
525.47	52289.91
525.64	52374.17
525.81	52758.02
525.98	53022.50
526.16	52357.78
526.33	52685.46
526.50	52978.03
526.67	52732.27
526.84	52367.15
527.01	52718.23
527.18	52882.06
527.36	52956.96
527.53	52910.15
527.70	53235.48
527.87	53560.82
528.04	53162.93
528.21	53591.25
528.38	53265.91
528.55	53705.93
528.72	53261.23
528.89	53525.71
529.07	53647.42
529.24	53696.57
529.41	53844.02
529.58	53443.79
529.75	53506.99
529.92	53701.25
530.09	54066.38
530.26	53951.69
530.43	54148.29
530.60	53628.69
530.77	53731.68
530.94	54178.72
531.11	54167.02
531.28	54358.94
531.46	54218.51
531.63	54384.69
531.80	54108.50
531.97	54394.05
532.14	54384.69
532.31	54347.24
532.48	54520.44
532.65	54494.69
532.82	54695.98
532.99	54883.22
533.16	54782.58
533.33	54475.97
533.50	55040.04
533.67	54490.01
533.84	54871.52
534.01	54616.40
534.18	54784.92
534.35	55360.69
534.52	55016.63
534.69	55260.05
534.86	55377.08
535.03	54864.50
535.20	55044.72
535.37	55304.52
535.54	55468.36
535.71	55093.87
535.88	55257.71
536.05	55531.55
536.22	55758.58
536.38	55515.17
536.55	55561.98
536.72	55639.22
536.89	55566.66
537.06	55779.65
537.23	55913.06
537.40	55569.00
537.57	55786.67
537.74	55973.91
537.91	55770.28
538.08	55709.43
538.25	55943.48
538.42	55835.82
538.59	56126.05
538.75	55906.04
538.92	55948.17
539.09	56259.46
539.26	55917.74
539.43	56486.49
539.60	56184.56
539.77	56329.67
539.94	56257.12
540.11	56425.64
540.28	56509.89
540.44	56554.36
540.61	56329.67
540.78	56442.02
540.95	56392.87
541.12	56268.82
541.29	56442.02
541.46	56467.76
541.62	56666.71
541.79	56788.42
541.96	56460.74
542.13	56655.01
542.30	56769.69
542.47	56917.15
542.63	56748.63
542.80	56807.14
542.97	57235.46
543.14	57441.43
543.31	57268.23
543.48	57228.44
543.64	57476.54
543.81	57497.60
543.98	57303.34
544.15	57301.00
544.32	57488.24
544.48	57399.30
544.65	57357.17
544.82	57535.05
544.99	57141.84
545.16	57565.48
545.32	57401.64
545.49	57689.52
545.66	57628.67
545.83	57748.04
546.00	57776.12
546.16	57731.65
546.33	57289.29
546.50	57422.70
546.67	57748.04
546.83	57598.24
547.00	57764.42
547.17	57916.56
547.34	57703.57
547.50	58031.24
547.67	58094.44
547.84	57970.39
548.00	58148.27
548.17	58412.75
548.34	58064.01
548.51	58239.55
548.67	58319.13
548.84	58183.38
549.01	58103.80
549.18	58216.14
549.34	58314.45
549.51	58438.50
549.68	58391.68
549.84	58450.20
550.01	58583.61
550.18	58286.36
550.34	58532.12
550.51	58443.18
550.68	58431.47
550.84	58361.26
551.01	58658.51
551.18	58377.64
551.34	58759.15
551.51	58597.65
551.68	58820.00
551.84	58632.76
552.01	58562.54
552.18	58829.37
552.34	58396.37
552.51	58941.71
552.68	58501.69
552.84	58497.01
553.01	58805.96
553.18	58843.41
553.34	59037.67
553.51	58707.66
553.67	58988.52
553.84	59128.95
554.01	59035.33
554.17	59175.76
554.34	58958.09
554.51	58965.12
554.67	59035.33
554.84	58962.78
555.00	58986.18
555.17	58976.82
555.33	59096.19
555.50	58967.46
555.67	59014.27
555.83	59035.33
556.00	59061.08
556.16	59494.08
556.33	59262.36
556.50	59253.00
556.66	59260.02
556.83	59021.29
556.99	59402.80
557.16	59643.87
557.32	59388.75
557.49	59693.02
557.65	59236.62
557.82	59494.08
557.98	59437.90
558.15	59568.97
558.32	59405.14
558.48	59353.65
558.65	59494.08
558.81	59503.44
558.98	59496.42
559.14	59515.14
559.31	59774.94
559.47	59693.02
559.64	59695.36
559.80	59714.09
559.97	59749.20
560.13	59578.34
560.30	59807.71
560.46	59803.03
560.63	59760.90
560.79	59831.11
560.96	59955.16
561.12	59810.05
561.29	59910.69
561.45	59772.60
561.61	59814.73
561.78	59671.96
561.94	59966.87
562.11	59880.27
562.27	59934.10
562.44	60088.57
562.60	60086.23
562.77	60037.08
562.93	59929.42
563.10	60259.43
563.26	59798.35
563.42	60306.24
563.59	60032.40
563.75	60004.31
563.92	59889.63
564.08	60156.45
564.24	60289.86
564.41	60116.66
564.57	60062.83
564.74	60182.19
564.90	59945.80
565.07	60016.02
565.23	60200.92
565.39	60285.18
565.56	60175.17
565.72	60154.11
565.88	60273.48
566.05	60163.47
566.21	60210.28
566.38	60271.14
566.54	60149.43
566.70	60446.68
566.87	60404.55
567.03	60226.66
567.19	60505.19
567.36	60280.50
567.52	60317.95
567.68	60488.80
567.85	60334.33
568.01	60329.65
568.17	60268.79
568.34	60266.45
568.50	60236.03
568.66	60449.02
568.83	60367.10
568.99	60226.66
569.15	60425.61
569.32	60456.04
569.48	60287.52
569.64	60416.25
569.81	60327.31
569.97	60406.89
570.13	60411.57
570.30	60205.60
570.46	60416.25
570.62	60402.21
570.78	60362.42
570.95	60444.33
571.11	60570.72
571.27	60596.47
571.43	60367.10
571.60	60697.11
571.76	60552.00
571.92	60755.63
572.09	60547.32
572.25	60477.10
572.41	60498.17
572.57	60598.81
572.74	60903.08
572.90	60549.66
573.06	60666.69
573.22	60715.84
573.38	60718.18
573.55	60636.26
573.71	60568.38
573.87	60699.45
574.03	60444.33
574.20	60739.24
574.36	60533.28
574.52	60856.27
574.68	60872.65
574.84	61001.38
575.01	60865.63
575.17	60863.29
575.33	60889.04
575.49	60814.14
575.65	60743.92
575.82	60811.80
575.98	60729.88
576.14	60858.61
576.30	60832.86
576.46	60804.78
576.62	60631.58
576.79	60795.42
576.95	60662.00
577.11	60872.65
577.27	60907.76
577.43	60949.89
577.59	60825.84
577.75	60690.09
577.92	60832.86
578.08	60704.13
578.24	60832.86
578.40	60959.25
578.56	60910.10
578.72	60844.57
578.88	60907.76
579.04	60933.51
579.21	60917.12
579.37	61029.47
579.53	61099.68
579.69	60774.35
579.85	60678.39
580.01	60776.69
580.17	60715.84
580.33	60865.63
580.49	60968.61
580.65	61001.38
580.82	60809.46
580.98	60825.84
581.14	60882.02
581.30	60940.53
581.46	60940.53
581.62	60926.49
581.78	60779.03
581.94	60996.70
582.10	60867.97
582.26	60977.98
582.42	60945.21
582.58	60926.49
582.74	60769.67
582.90	61132.45
583.06	60961.59
583.22	60860.95
583.38	61001.38
583.54	60959.25
583.70	60961.59
583.86	60863.29
584.02	61020.11
584.18	61085.64
584.34	60973.30
584.50	60924.14
584.66	60762.65
584.82	60821.16
584.98	61106.71
585.14	61066.92
585.30	60910.10
585.46	61080.96
585.62	60952.23
585.78	61169.90
585.94	60928.83
586.10	60949.89
586.26	61031.81
586.42	61216.71
586.58	61087.98
586.74	61064.58
586.90	60959.25
587.06	61031.81
587.22	61095.00
587.38	60863.29
587.54	61205.01
587.70	61223.73
587.86	61113.73
588.02	61120.75
588.18	61165.22
588.34	61230.75
588.49	61071.60
