SpectraSuite Data File
++++++++++++++++++++++++++++++++++++
Date: Fri Oct 25 11:25:13 EDT 2013
User: price-jones
Dark Spectrum Present: No
Reference Spectrum Present: No
Number of Sampled Component Spectra: 1
Spectrometers: USB2+H05261
Integration Time (usec): 100000 (USB2+H05261)
Spectra Averaged: 1 (USB2+H05261)
Boxcar Smoothing: 0 (USB2+H05261)
Correct for Electrical Dark: No (USB2+H05261)
Strobe/Lamp Enabled: No (USB2+H05261)
Correct for Detector Non-linearity: No (USB2+H05261)
Correct for Stray Light: No (USB2+H05261)
Number of Pixels in Processed Spectrum: 2048
>>>>>Begin Processed Spectral Data<<<<<
365.73	180.22
365.92	180.22
366.12	180.22
366.32	191.92
366.52	121.71
366.72	81.92
366.91	154.48
367.11	154.48
367.31	126.39
367.51	154.48
367.70	126.39
367.90	170.86
368.10	114.69
368.30	191.92
368.49	105.32
368.69	205.97
368.89	159.16
369.09	161.50
369.28	187.24
369.48	173.20
369.68	142.77
369.87	224.69
370.07	245.76
370.27	222.35
370.47	304.27
370.66	543.00
370.86	599.18
371.06	671.73
371.25	674.07
371.45	660.03
371.65	660.03
371.84	681.10
372.04	681.10
372.24	739.61
372.44	734.93
372.63	681.10
372.83	706.84
373.03	758.33
373.22	751.31
373.42	779.40
373.62	741.95
373.81	767.70
374.01	741.95
374.21	772.38
374.40	786.42
374.60	795.78
374.79	699.82
374.99	819.19
375.19	887.06
375.38	849.61
375.58	837.91
375.78	814.51
375.97	798.12
376.17	861.32
376.37	819.19
376.56	842.59
376.76	847.27
376.95	816.85
377.15	912.81
377.35	870.68
377.54	882.38
377.74	915.15
377.93	903.45
378.13	873.02
378.33	882.38
378.52	933.87
378.72	940.90
378.91	983.02
379.11	952.60
379.31	898.77
379.50	901.11
379.70	936.21
379.89	987.71
380.09	915.15
380.28	926.85
380.48	978.34
380.68	943.24
380.87	940.90
381.07	1027.50
381.26	1034.52
381.46	1022.81
381.65	980.68
381.85	1048.56
382.04	1060.26
382.24	1062.60
382.43	1100.05
382.63	1128.14
382.83	1050.90
383.02	1172.61
383.22	1090.69
383.41	1008.77
383.61	1050.90
383.80	1034.52
384.00	1069.62
384.19	1097.71
384.39	1067.28
384.58	1090.69
384.78	1132.82
384.97	1132.82
385.17	1081.33
385.36	1118.78
385.56	1214.74
385.75	1088.35
385.95	1100.05
386.14	1167.93
386.34	1088.35
386.53	1153.88
386.72	1254.53
386.92	1259.21
387.11	1128.14
387.31	1231.12
387.50	1224.10
387.70	1329.42
387.89	1181.97
388.09	1196.01
388.28	1160.91
388.48	1299.00
388.67	1228.78
388.86	1179.63
389.06	1310.70
389.25	1399.64
389.45	1378.58
389.64	1362.19
389.84	1401.98
390.03	1394.96
390.22	1448.79
390.42	1366.87
390.61	1259.21
390.81	1373.89
391.00	1423.05
391.19	1469.86
391.39	1439.43
391.58	1448.79
391.78	1394.96
391.97	1465.18
392.16	1345.81
392.36	1490.92
392.55	1493.26
392.75	1437.09
392.94	1575.18
393.13	1476.88
393.33	1493.26
393.52	1584.54
393.71	1540.07
393.91	1596.25
394.10	1547.09
394.29	1561.14
394.49	1605.61
394.68	1650.08
394.88	1657.10
395.07	1671.14
395.26	1624.33
395.46	1638.38
395.65	1687.53
395.84	1708.59
396.04	1741.36
396.23	1746.04
396.42	1818.60
396.62	1790.51
396.81	1781.15
397.00	1724.97
397.19	1809.23
397.39	1720.29
397.58	1809.23
397.77	1767.10
397.97	1856.04
398.16	1790.51
398.35	1816.26
398.55	1940.30
398.74	1860.73
398.93	1902.86
399.12	1961.37
399.32	1942.64
399.51	1891.15
399.70	1970.73
399.90	1935.62
400.09	2001.16
400.28	2094.78
400.47	2076.06
400.67	2073.71
400.86	1963.71
401.05	2052.65
401.24	2071.37
401.44	2080.74
401.63	2090.10
401.82	2181.38
402.01	2087.76
402.21	2146.27
402.40	2225.85
402.59	2113.50
402.78	2172.02
402.97	2202.44
403.17	2321.81
403.36	2300.75
403.55	2239.89
403.74	2256.28
403.93	2340.54
404.13	2387.35
404.32	2403.73
404.51	2410.75
404.70	2502.03
404.89	2293.72
405.09	2401.39
405.28	2558.21
405.47	2443.52
405.66	2476.29
405.85	2469.27
406.05	2574.59
406.24	2581.61
406.43	2443.52
406.62	2612.04
406.81	2656.51
407.00	2520.76
407.20	2644.81
407.39	2576.93
407.58	2672.89
407.77	2665.87
407.96	2724.38
408.15	2689.28
408.34	2764.17
408.54	2768.85
408.73	2754.81
408.92	2778.22
409.11	2920.99
409.30	2846.09
409.49	2813.32
409.68	2920.99
409.87	3000.57
410.07	3021.63
410.26	2991.20
410.45	3023.97
410.64	3012.27
410.83	2995.89
411.02	3089.51
411.21	3213.56
411.40	3129.30
411.59	3215.90
411.78	3248.66
411.98	3068.44
412.17	3204.19
412.36	3262.71
412.55	3293.13
412.74	3358.67
412.93	3529.53
413.12	3389.10
413.31	3396.12
413.50	3459.31
413.69	3445.27
413.88	3609.11
414.07	3574.00
414.26	3562.30
414.45	3503.78
414.64	3559.95
414.83	3597.40
415.02	3791.67
415.22	3653.58
415.41	3801.03
415.60	3843.16
415.79	3873.59
415.98	4002.32
416.17	3957.85
416.36	3847.84
416.55	3939.12
416.74	4004.66
416.93	3955.51
417.12	4058.49
417.31	4046.79
417.50	4170.83
417.69	4332.33
417.88	4236.37
418.07	4311.27
418.26	4304.25
418.45	4231.69
418.64	4451.70
418.83	4248.07
419.02	4458.72
419.21	4486.81
419.39	4550.00
419.58	4287.86
419.77	4615.54
419.96	4531.28
420.15	4573.41
420.34	4428.29
420.53	4512.55
420.72	4578.09
420.91	4528.94
421.10	4589.79
421.29	4678.73
421.48	4517.23
421.67	4821.50
421.86	4709.16
422.05	4835.55
422.24	4821.50
422.43	4809.80
422.61	4781.71
422.80	4854.27
422.99	4887.04
423.18	4908.10
423.37	5025.13
423.56	4861.29
423.75	4863.63
423.94	4819.16
424.13	4636.60
424.32	4688.09
424.50	4847.25
424.69	5064.92
424.88	5083.64
425.07	5025.13
425.26	4896.40
425.45	4798.10
425.64	4968.96
425.83	4835.55
426.01	4851.93
426.20	5004.07
426.39	5114.07
426.58	4943.21
426.77	5008.75
426.96	5074.28
427.15	4964.28
427.33	5179.61
427.52	5043.85
427.71	5210.03
427.90	5205.35
428.09	5263.86
428.28	5228.76
428.46	5425.36
428.65	5170.24
428.84	5408.98
429.03	5420.68
429.22	5121.09
429.40	5530.69
429.59	5514.30
429.78	5186.63
429.97	5369.19
430.16	5507.28
430.34	5521.32
430.53	5696.86
430.72	5582.18
430.91	5605.58
431.10	5540.05
431.28	5731.97
431.47	5692.18
431.66	5659.42
431.85	5738.99
432.03	6090.07
432.22	5987.09
432.41	5753.04
432.60	5872.40
432.79	5785.80
432.97	5837.30
433.16	5865.38
433.35	5891.13
433.54	6099.44
433.72	6066.67
433.91	6050.28
434.10	5975.39
434.28	6038.58
434.47	6090.07
434.66	6291.36
434.85	6345.19
435.03	6279.66
435.22	6193.06
435.41	6352.21
435.59	6392.00
435.78	6349.87
435.97	6338.17
436.16	6401.37
436.34	6452.86
436.53	6410.73
436.72	6473.92
436.90	6389.66
437.09	6593.29
437.28	6494.99
437.46	6473.92
437.65	6546.48
437.84	6743.08
438.02	6686.91
438.21	6799.26
438.40	6752.45
438.58	6906.92
438.77	7012.24
438.96	6883.52
439.14	7049.69
439.33	7063.74
439.52	7356.30
439.70	6942.03
439.89	7351.62
440.08	7349.28
440.26	7300.13
440.45	7316.51
440.63	7456.95
440.82	7517.80
441.01	7442.90
441.19	7513.12
441.38	7599.72
441.57	7777.60
441.75	7669.94
441.94	7997.61
442.12	7896.97
442.31	7772.92
442.50	8056.12
442.68	7789.30
442.87	7908.67
443.05	7953.14
443.24	8037.40
443.43	8046.76
443.61	7983.57
443.80	8243.37
443.98	8037.40
444.17	7796.32
444.35	8049.10
444.54	8325.29
444.73	8189.53
444.91	8140.38
445.10	8135.70
445.28	8243.37
445.47	8205.92
445.65	8327.63
445.84	8222.30
446.02	8334.65
446.21	8348.69
446.39	8318.26
446.58	8404.86
446.77	8470.40
446.95	8177.83
447.14	8131.02
447.32	8493.80
447.51	8468.06
447.69	8189.53
447.88	8493.80
448.06	8259.75
448.25	8360.39
448.43	8409.54
448.62	8468.06
448.80	8531.25
448.99	8465.72
449.17	8777.01
449.36	8697.43
449.54	8669.34
449.73	8990.00
449.91	8954.89
450.10	8868.29
450.28	9170.22
450.46	8950.21
450.65	8896.38
450.83	8905.74
451.02	8980.64
451.20	9097.66
451.39	8978.30
451.57	9036.81
451.76	8858.93
451.94	9195.96
452.13	9217.03
452.31	9074.26
452.49	9160.86
452.68	9420.66
452.86	9247.46
453.05	9465.13
453.23	9338.74
453.42	9357.46
453.60	9308.31
453.78	9481.51
453.97	9280.22
454.15	9565.77
454.34	9320.01
454.52	9490.87
454.70	9717.90
454.89	9603.22
455.07	9584.49
455.26	9966.00
455.44	10015.15
455.62	9874.72
455.81	9951.96
455.99	9853.66
456.17	9958.98
456.36	10045.58
456.54	10134.52
456.73	10260.91
456.91	10331.12
457.09	10340.49
457.28	10218.78
457.46	10235.16
457.64	10448.15
457.83	10361.55
458.01	10415.38
458.19	10431.77
458.38	10375.59
458.56	10569.86
458.74	10406.02
458.93	10501.98
459.11	10771.15
459.29	10796.89
459.48	10881.15
459.66	10623.69
459.84	10714.97
460.03	11028.60
460.21	10949.03
460.39	10670.50
460.57	10860.09
460.76	11016.90
460.94	11220.53
461.12	11124.57
461.31	10953.71
461.49	11241.59
461.67	11089.46
461.85	11213.51
462.04	11112.86
462.22	11740.13
462.40	11449.90
462.59	11370.32
462.77	11192.44
462.95	11449.90
463.13	11723.74
463.32	11585.65
463.50	11592.67
463.68	11721.40
463.86	11634.80
464.05	11337.56
464.23	11669.91
464.41	11669.91
464.59	11777.58
464.78	11962.48
464.96	11845.45
465.14	11885.24
465.32	11957.80
465.50	11690.98
465.69	11913.33
465.87	11854.81
466.05	12002.27
466.23	12035.03
466.41	12210.57
466.60	12224.62
466.78	12212.92
466.96	12112.27
467.14	12088.87
467.32	12175.47
467.51	12451.65
467.69	12229.30
467.87	12348.67
468.05	12376.75
468.23	12341.64
468.41	12390.80
468.60	12437.61
468.78	12807.41
468.96	12599.10
469.14	12589.74
469.32	12901.03
469.50	12468.03
469.69	12828.48
469.87	13060.19
470.05	12814.43
470.23	13008.70
470.41	12851.88
470.59	13263.82
470.77	13233.39
470.95	13233.39
471.14	13357.44
471.32	13043.81
471.50	13532.98
471.68	13444.04
471.86	13380.84
472.04	13472.12
472.22	13958.96
472.40	13380.84
472.58	13731.92
472.77	13977.68
472.95	14258.54
473.13	14214.07
473.31	14054.92
473.49	14185.99
473.67	14068.96
473.85	14429.40
474.03	14565.15
474.21	14427.06
474.39	14609.62
474.57	14501.96
474.75	14836.66
474.93	14941.98
475.12	14747.72
475.30	14979.43
475.48	15035.60
475.66	15000.49
475.84	15236.89
476.02	15243.91
476.20	15309.44
476.38	15592.65
476.56	15807.98
476.74	15751.81
476.92	15892.24
477.10	15899.26
477.28	16004.58
477.46	15955.43
477.64	15950.75
477.82	16224.59
478.00	16788.66
478.18	16837.81
478.36	16566.31
478.54	16746.53
478.72	17289.54
478.90	17142.08
479.08	17514.23
479.26	17572.74
479.44	17458.06
479.62	17788.07
479.80	17874.67
479.98	18036.17
480.16	18616.62
480.34	18284.26
480.52	18293.63
480.70	18670.45
480.88	18171.92
481.06	18480.87
481.24	18803.86
481.41	18831.95
481.59	19180.69
481.77	19290.70
481.95	19461.55
482.13	19447.51
482.31	19211.12
482.49	20023.28
482.67	20140.31
482.85	20161.37
483.03	20353.30
483.21	20507.77
483.39	20758.21
483.57	20582.67
483.74	20851.83
483.92	21467.39
484.10	21013.33
484.28	21645.27
484.46	21961.25
484.64	21907.41
484.82	21928.48
485.00	22066.57
485.18	22380.20
485.35	22621.28
485.53	22897.46
485.71	22658.73
485.89	23248.54
486.07	22778.09
486.25	22986.40
486.43	23641.75
486.61	23424.08
486.78	23917.93
486.96	23988.15
487.14	24313.48
487.32	24313.48
487.50	24830.74
487.68	24606.05
487.85	24687.97
488.03	25123.31
488.21	25455.67
488.39	25696.74
488.57	25682.70
488.75	25947.18
488.92	26511.25
489.10	26298.26
489.28	26483.16
489.46	26616.57
489.64	26913.82
489.81	26932.54
489.99	27831.31
490.17	27297.67
490.35	27742.37
490.53	27761.09
490.70	28203.46
490.88	28086.43
491.06	28350.91
491.24	28044.30
491.41	28929.02
491.59	28959.45
491.77	29076.48
491.95	29411.17
492.13	29188.82
492.30	29888.64
492.48	29949.50
492.66	30054.82
492.84	30122.69
493.01	30232.70
493.19	30572.08
493.37	30738.26
493.54	30850.60
493.72	31431.05
493.90	31220.41
494.08	31470.84
494.25	31641.70
494.43	31489.57
494.61	31894.48
494.79	31945.97
494.96	32081.72
495.14	32577.92
495.32	32877.51
495.49	32547.49
495.67	32692.60
495.85	33343.27
496.02	33294.12
496.20	33408.81
496.38	33902.66
496.55	34125.01
496.73	34754.61
496.91	34363.75
497.09	34595.46
497.26	34581.42
497.44	34347.36
497.62	35021.44
497.79	35456.78
497.97	35072.93
498.14	35915.52
498.32	35658.06
498.50	35700.19
498.67	36404.69
498.85	36215.11
499.03	35964.67
499.20	36350.86
499.38	36332.14
499.56	36493.63
499.73	37266.01
499.91	36741.73
500.08	37343.25
500.26	37097.49
500.44	37111.53
500.61	37326.86
500.79	37748.16
500.97	37792.63
501.14	38330.95
501.32	38003.28
501.49	38515.86
501.67	38265.42
501.84	38752.25
502.02	38511.17
502.20	38731.18
502.37	38726.50
502.55	38941.83
502.72	39040.14
502.90	39487.18
503.07	39019.07
503.25	39627.61
503.43	39601.86
503.60	39833.58
503.78	39606.55
503.95	39995.07
504.13	40444.46
504.30	40350.84
504.48	40502.97
504.65	40055.93
504.83	40645.74
505.01	41251.94
505.18	40765.11
505.36	41312.80
505.53	40811.92
505.71	41406.42
505.88	41722.39
506.06	40950.01
506.23	41579.62
506.41	41165.34
506.58	42007.94
506.76	41689.62
506.93	42412.85
507.11	41820.69
507.28	42110.92
507.46	42227.95
507.63	42560.30
507.81	42829.46
507.98	42422.21
508.16	42958.19
508.33	42997.98
508.50	43569.07
508.68	42965.21
508.85	43728.23
509.03	43641.63
509.20	43716.53
509.38	43828.87
509.55	44282.94
509.73	43955.26
509.90	44378.90
510.08	44278.25
510.25	44301.66
510.42	44804.88
510.60	44697.21
510.77	44989.78
510.95	45055.31
511.12	45090.42
511.30	45017.86
511.47	45202.77
511.64	45507.04
511.82	45741.09
511.99	45485.97
512.17	45691.94
512.34	45441.50
512.51	45979.82
512.69	45869.82
512.86	46103.87
513.04	46253.67
513.21	46347.29
513.38	46309.84
513.56	46452.61
513.73	46604.75
513.90	46487.72
514.08	46417.50
514.25	47054.13
514.43	46953.49
514.60	46883.27
514.77	47283.50
514.95	47262.44
515.12	47047.11
515.29	47540.96
515.47	47337.33
515.64	47842.89
515.81	47430.96
515.99	47973.96
516.16	48311.00
516.33	47978.64
516.51	48002.05
516.68	48193.97
516.85	48060.56
517.03	48638.67
517.20	48692.50
517.37	48381.21
517.54	48437.39
517.72	48891.45
517.89	48631.65
518.06	49462.54
518.24	48844.64
518.41	49038.90
518.58	48945.28
518.75	48786.13
518.93	49261.26
519.10	48893.79
519.27	49319.77
519.45	49581.91
519.62	49453.18
519.79	49808.94
519.96	49818.30
520.14	49970.44
520.31	49841.71
520.48	50143.64
520.65	50117.89
520.83	50473.65
521.00	50066.40
521.17	50375.35
521.34	50415.14
521.52	50398.76
521.69	50733.45
521.86	50740.47
522.03	50967.51
522.20	51047.08
522.38	51019.00
522.55	51119.64
522.72	51344.33
522.89	51213.26
523.07	51253.05
523.24	51023.68
523.41	51391.14
523.58	50960.48
523.75	51718.82
523.92	51833.50
524.10	51716.48
524.27	51547.96
524.44	51828.82
524.61	51845.21
524.78	51990.32
524.96	51990.32
525.13	52023.09
525.30	52196.29
525.47	52425.66
525.64	52037.13
525.81	52355.44
525.98	52252.46
526.16	52233.74
526.33	52327.36
526.50	52814.19
526.67	52598.86
526.84	52514.60
527.01	52697.16
527.18	52631.63
527.36	52505.24
527.53	52917.17
527.70	53322.08
527.87	53015.47
528.04	53186.33
528.21	52861.00
528.38	53139.52
528.55	53172.29
528.72	52905.47
528.89	53085.69
529.07	53132.50
529.24	53078.67
529.41	53609.97
529.58	53378.26
529.75	53544.44
529.92	53525.71
530.09	53635.72
530.26	53883.81
530.43	53659.12
530.60	53432.09
530.77	53539.75
530.94	53956.37
531.11	53551.46
531.28	53881.47
531.46	54382.35
531.63	54057.01
531.80	53825.30
531.97	53907.22
532.14	54021.90
532.31	54014.88
532.48	54410.43
532.65	54492.35
532.82	54384.69
532.99	54602.36
533.16	54408.09
533.33	54543.84
533.50	54770.88
533.67	54550.87
533.84	54518.10
534.01	54698.32
534.18	54859.82
534.35	54948.76
534.52	54616.40
534.69	55121.96
534.86	55171.11
535.03	54796.62
535.20	55180.47
535.37	55040.04
535.54	55051.74
535.71	54864.50
535.88	55215.58
536.05	55283.45
536.22	55405.16
536.38	55461.33
536.55	55414.52
536.72	55351.33
536.89	55199.19
537.06	55318.56
537.23	55650.92
537.40	55234.30
537.57	55505.80
537.74	55702.41
537.91	55866.25
538.08	55824.12
538.25	55475.38
538.42	55744.54
538.59	55891.99
538.75	55592.40
538.92	55908.38
539.09	55861.57
539.26	56039.45
539.43	55992.64
539.60	56107.32
539.77	56240.73
539.94	56233.71
540.11	56147.11
540.28	56301.59
540.44	56058.17
540.61	56322.65
540.78	55929.44
540.95	56048.81
541.12	56299.25
541.29	56156.47
541.46	56341.38
541.62	56472.45
541.79	56554.36
541.96	56102.64
542.13	56547.34
542.30	56367.12
542.47	56821.19
542.63	56587.13
542.80	56575.43
542.97	56947.57
543.14	57017.79
543.31	56811.82
543.48	57120.77
543.64	57013.11
543.81	57073.96
543.98	57263.55
544.15	57146.52
544.32	57258.87
544.48	57471.85
544.65	57099.71
544.82	57275.25
544.99	57181.63
545.16	57286.95
545.32	57296.31
545.49	57565.48
545.66	57478.88
545.83	57411.00
546.00	57684.84
546.16	57371.21
546.33	57134.82
546.50	57331.42
546.67	57661.44
546.83	57350.15
547.00	57523.35
547.17	57506.96
547.34	57551.43
547.50	57698.89
547.67	57853.36
547.84	57954.00
548.00	57890.81
548.17	57965.71
548.34	58038.26
548.51	57846.34
548.67	57972.73
548.84	58047.63
549.01	57794.85
549.18	58136.57
549.34	58103.80
549.51	58089.76
549.68	58279.34
549.84	58075.71
550.01	58061.67
550.18	58145.93
550.34	58328.49
550.51	58192.74
550.68	58085.07
550.84	58085.07
551.01	58387.00
551.18	58281.68
551.34	58410.41
551.51	58408.07
551.68	58525.10
551.84	58319.13
552.01	58267.64
552.18	58513.39
552.34	58265.30
552.51	58431.47
552.68	58398.71
552.84	58506.37
553.01	58527.44
553.18	58520.41
553.34	58775.53
553.51	58529.78
553.67	58609.35
553.84	58726.38
554.01	58672.55
554.17	58794.26
554.34	58731.06
554.51	58693.61
554.67	58908.94
554.84	58775.53
555.00	58904.26
555.17	58628.08
555.33	58944.05
555.50	58777.87
555.67	58859.79
555.83	58812.98
556.00	58719.36
556.16	59283.43
556.33	59145.34
556.50	58995.54
556.66	59311.52
556.83	59028.31
556.99	59199.17
557.16	59407.48
557.32	59206.19
557.49	59587.70
557.65	59243.64
557.82	59334.92
557.98	59231.94
558.15	59103.21
558.32	59428.54
558.48	59283.43
558.65	59229.60
558.81	59365.35
558.98	59334.92
559.14	59475.35
559.31	59292.79
559.47	59461.31
559.64	59477.69
559.80	59465.99
559.97	59597.06
560.13	59285.77
560.30	59440.24
560.46	59601.74
560.63	59398.12
560.79	59536.21
560.96	59648.55
561.12	59632.17
561.29	59489.40
561.45	59550.25
561.61	59576.00
561.78	59604.08
561.94	59451.95
562.11	59725.79
562.27	59641.53
562.44	59714.09
562.60	60034.74
562.77	59819.41
562.93	59639.19
563.10	59770.26
563.26	59868.56
563.42	60001.97
563.59	59898.99
563.75	59653.23
563.92	59781.96
564.08	59838.14
564.24	59772.60
564.41	59980.91
564.57	60023.04
564.74	59950.48
564.90	59866.22
565.07	60020.70
565.23	60088.57
565.39	59910.69
565.56	60172.83
565.72	60065.17
565.88	59992.61
566.05	59920.05
566.21	59906.01
566.38	60018.36
566.54	59985.59
566.70	60184.54
566.87	60327.31
567.03	59800.69
567.19	60212.62
567.36	60102.62
567.52	60355.39
567.68	60367.10
567.85	60324.97
568.01	60268.79
568.17	60165.81
568.34	60280.50
568.50	60137.72
568.66	60392.84
568.83	60203.26
568.99	60154.11
569.15	60156.45
569.32	60296.88
569.48	60149.43
569.64	60470.08
569.81	60346.03
569.97	60200.92
570.13	60409.23
570.30	60207.94
570.46	60310.92
570.62	60322.63
570.78	60369.44
570.95	60301.56
571.11	60292.20
571.27	60229.01
571.43	60449.02
571.60	60324.97
571.76	60399.86
571.92	60331.99
572.09	60289.86
572.25	60299.22
572.41	60182.19
572.57	60378.80
572.74	60544.98
572.90	60322.63
573.06	60402.21
573.22	60474.76
573.38	60547.32
573.55	60502.85
573.71	60420.93
573.87	60589.45
574.03	60343.69
574.20	60451.36
574.36	60575.40
574.52	60523.91
574.68	60544.98
574.84	60713.50
575.01	60711.16
575.17	60514.55
575.33	60484.12
575.49	60404.55
575.65	60479.44
575.82	60533.28
575.98	60662.00
576.14	60856.27
576.30	60512.21
576.46	60477.10
576.62	60664.35
576.79	60603.49
576.95	60413.91
577.11	60552.00
577.27	60470.08
577.43	60638.60
577.59	60584.77
577.75	60626.90
577.92	60399.86
578.08	60669.03
578.24	60591.79
578.40	60610.51
578.56	60795.42
578.72	60837.54
578.88	60739.24
579.04	60739.24
579.21	60781.37
579.37	60853.93
579.53	60772.01
579.69	60570.72
579.85	60673.71
580.01	60619.88
580.17	60498.17
580.33	60940.53
580.49	60629.24
580.65	60874.99
580.82	60666.69
580.98	60690.09
581.14	60495.83
581.30	60823.50
581.46	60727.54
581.62	60816.48
581.78	60767.33
581.94	60977.98
582.10	60790.73
582.26	60566.04
582.42	60727.54
582.58	60638.60
582.74	60715.84
582.90	60725.20
583.06	60818.82
583.22	60516.89
583.38	60764.99
583.54	60561.36
583.70	60795.42
583.86	60788.39
584.02	60676.05
584.18	60741.58
584.34	60767.33
584.50	60575.40
584.66	60659.66
584.82	60458.38
584.98	60992.02
585.14	60786.05
585.30	60685.41
585.46	60886.70
585.62	60753.29
585.78	61073.94
585.94	60664.35
586.10	60977.98
586.26	60793.07
586.42	60926.49
586.58	60910.10
586.74	61141.81
586.90	60680.73
587.06	60828.18
587.22	60931.17
587.38	61001.38
587.54	60968.61
587.70	61087.98
587.86	60851.59
588.02	60907.76
588.18	60842.23
588.34	60830.52
588.49	61022.45
