SpectraSuite Data File
++++++++++++++++++++++++++++++++++++
Date: Fri Oct 25 11:25:06 EDT 2013
User: price-jones
Dark Spectrum Present: No
Reference Spectrum Present: No
Number of Sampled Component Spectra: 1
Spectrometers: USB2+H05261
Integration Time (usec): 100000 (USB2+H05261)
Spectra Averaged: 1 (USB2+H05261)
Boxcar Smoothing: 0 (USB2+H05261)
Correct for Electrical Dark: No (USB2+H05261)
Strobe/Lamp Enabled: No (USB2+H05261)
Correct for Detector Non-linearity: No (USB2+H05261)
Correct for Stray Light: No (USB2+H05261)
Number of Pixels in Processed Spectrum: 2048
>>>>>Begin Processed Spectral Data<<<<<
365.73	231.71
365.92	231.71
366.12	231.71
366.32	152.13
366.52	142.77
366.72	173.20
366.91	154.48
367.11	112.35
367.31	67.88
367.51	124.05
367.70	147.45
367.90	117.03
368.10	168.52
368.30	159.16
368.49	149.79
368.69	187.24
368.89	224.69
369.09	203.63
369.28	182.56
369.48	180.22
369.68	294.91
369.87	154.48
370.07	187.24
370.27	205.97
370.47	353.42
370.66	550.03
370.86	566.41
371.06	617.90
371.25	645.99
371.45	662.37
371.65	671.73
371.84	592.16
372.04	578.11
372.24	669.39
372.44	702.16
372.63	716.20
372.83	772.38
373.03	788.76
373.22	734.93
373.42	896.43
373.62	819.19
373.81	847.27
374.01	770.04
374.21	739.61
374.40	746.63
374.60	800.46
374.79	812.17
374.99	777.06
375.19	863.66
375.38	819.19
375.58	786.42
375.78	915.15
375.97	837.91
376.17	1013.45
376.37	814.51
376.56	884.72
376.76	968.98
376.95	1008.77
377.15	842.59
377.35	847.27
377.54	976.00
377.74	819.19
377.93	891.74
378.13	898.77
378.33	1001.75
378.52	854.30
378.72	987.71
378.91	952.60
379.11	961.96
379.31	961.96
379.50	910.47
379.70	954.94
379.89	1057.92
380.09	1025.15
380.28	936.21
380.48	980.68
380.68	1039.20
380.87	954.94
381.07	999.41
381.26	1067.28
381.46	1001.75
381.65	912.81
381.85	983.02
382.04	1046.22
382.24	1104.73
382.43	1064.94
382.63	1071.97
382.83	1043.88
383.02	1095.37
383.22	1036.86
383.41	1109.41
383.61	1137.50
383.80	1200.69
384.00	1090.69
384.19	1116.44
384.39	1174.95
384.58	1086.01
384.78	1193.67
384.97	1090.69
385.17	1137.50
385.36	1137.50
385.56	1132.82
385.75	1174.95
385.95	1114.10
386.14	1245.16
386.34	1125.80
386.53	1177.29
386.72	1196.01
386.92	1235.80
387.11	1291.98
387.31	1324.74
387.50	1275.59
387.70	1226.44
387.89	1310.70
388.09	1310.70
388.28	1252.19
388.48	1261.55
388.67	1263.89
388.86	1294.32
389.06	1324.74
389.25	1345.81
389.45	1390.28
389.64	1226.44
389.84	1406.66
390.03	1378.58
390.22	1376.24
390.42	1420.71
390.61	1416.02
390.81	1385.60
391.00	1430.07
391.19	1341.13
391.39	1437.09
391.58	1434.75
391.78	1444.11
391.97	1462.83
392.16	1446.45
392.36	1500.28
392.55	1495.60
392.75	1591.56
392.94	1523.69
393.13	1577.52
393.33	1568.16
393.52	1586.88
393.71	1502.62
393.91	1582.20
394.10	1626.67
394.29	1549.43
394.49	1516.67
394.68	1598.59
394.88	1668.80
395.07	1568.16
395.26	1675.82
395.46	1692.21
395.65	1795.19
395.84	1757.74
396.04	1846.68
396.23	1825.62
396.42	1708.59
396.62	1804.55
396.81	1792.85
397.00	1788.17
397.19	1804.55
397.39	1792.85
397.58	1764.76
397.77	1753.06
397.97	1933.28
398.16	1900.52
398.35	1935.62
398.55	1919.24
398.74	1811.57
398.93	1902.86
399.12	1937.96
399.32	1916.90
399.51	1982.43
399.70	1975.41
399.90	2080.74
400.09	2003.50
400.28	2022.22
400.47	1956.69
400.67	2008.18
400.86	2104.14
401.05	2073.71
401.24	2120.53
401.44	2143.93
401.63	2179.04
401.82	2062.01
402.01	2083.08
402.21	2186.06
402.40	2190.74
402.59	2242.23
402.78	2209.47
402.97	2282.02
403.17	2314.79
403.36	2193.08
403.55	2223.51
403.74	2312.45
403.93	2352.24
404.13	2436.50
404.32	2282.02
404.51	2392.03
404.70	2359.26
404.89	2314.79
405.09	2478.63
405.28	2525.44
405.47	2567.57
405.66	2406.07
405.85	2457.56
406.05	2499.69
406.24	2511.39
406.43	2619.06
406.62	2565.23
406.81	2745.45
407.00	2574.59
407.20	2562.89
407.39	2555.86
407.58	2738.43
407.77	2710.34
407.96	2722.04
408.15	2712.68
408.34	2670.55
408.54	2747.79
408.73	2743.11
408.92	2813.32
409.11	2834.39
409.30	2913.97
409.49	2839.07
409.68	2888.22
409.87	2846.09
410.07	3019.29
410.26	3026.31
410.45	3030.99
410.64	3047.38
410.83	3016.95
411.02	3131.64
411.21	3038.02
411.40	3089.51
411.59	3211.22
411.78	3150.36
411.98	3101.21
412.17	3173.77
412.36	3274.41
412.55	3269.73
412.74	3452.29
412.93	3262.71
413.12	3466.33
413.31	3566.98
413.50	3487.40
413.69	3311.86
413.88	3595.06
414.07	3529.53
414.26	3581.02
414.45	3679.32
414.64	3700.39
414.83	3754.22
415.02	3824.44
415.22	3742.52
415.41	3948.48
415.60	3819.75
415.79	3784.65
415.98	3887.63
416.17	3962.53
416.36	3992.95
416.55	3920.40
416.74	3906.35
416.93	4021.04
417.12	4060.83
417.31	4032.74
417.50	4037.42
417.69	4259.78
417.88	4299.56
418.07	4248.07
418.26	4407.23
418.45	4421.27
418.64	4372.12
418.83	4400.21
419.02	4608.51
419.21	4432.97
419.39	4528.94
419.58	4432.97
419.77	4601.49
419.96	4475.10
420.15	4613.20
420.34	4561.70
420.53	4554.68
420.72	4535.96
420.91	4720.86
421.10	4767.67
421.29	4688.09
421.48	4643.62
421.67	4807.46
421.86	4727.88
422.05	4936.19
422.24	4903.42
422.43	4765.33
422.61	4854.27
422.80	4880.02
422.99	4840.23
423.18	4887.04
423.37	4875.34
423.56	4966.62
423.75	4812.14
423.94	4851.93
424.13	4667.03
424.32	4800.44
424.50	4994.70
424.69	5095.35
424.88	4978.32
425.07	4985.34
425.26	4774.69
425.45	4891.72
425.64	4851.93
425.83	4943.21
426.01	5027.47
426.20	5046.20
426.39	4994.70
426.58	4966.62
426.77	5156.20
426.96	5018.11
427.15	5107.05
427.33	5186.63
427.52	5097.69
427.71	5467.49
427.90	5186.63
428.09	5224.08
428.28	5338.76
428.46	5270.89
428.65	5345.78
428.84	5411.32
429.03	5474.51
429.22	5266.21
429.40	5401.96
429.59	5362.17
429.78	5296.63
429.97	5006.41
430.16	5462.81
430.34	5600.90
430.53	5652.39
430.72	5643.03
430.91	5675.80
431.10	5607.92
431.28	5764.74
431.47	5813.89
431.66	5806.87
431.85	5605.58
432.03	5973.05
432.22	6033.90
432.41	5841.98
432.60	5781.12
432.79	5715.59
432.97	6029.22
433.16	6015.18
433.35	5760.06
433.54	5963.68
433.72	5970.71
433.91	6047.94
434.10	6104.12
434.28	6057.31
434.47	6342.85
434.66	6047.94
434.85	6122.84
435.03	6249.23
435.22	6399.02
435.41	6574.56
435.59	6448.18
435.78	6431.79
435.97	6583.93
436.16	6438.81
436.34	6389.66
436.53	6396.68
436.72	6616.69
436.90	6406.05
437.09	6579.25
437.28	6443.49
437.46	6431.79
437.65	6574.56
437.84	6698.61
438.02	6698.61
438.21	6773.51
438.40	6689.25
438.58	6918.62
438.77	7002.88
438.96	6902.24
439.14	7094.16
439.33	7070.76
439.52	7162.04
439.70	7286.09
439.89	7351.62
440.08	7419.50
440.26	7290.77
440.45	7344.60
440.63	7323.54
440.82	7679.30
441.01	7433.54
441.19	7569.29
441.38	7709.72
441.57	7651.21
441.75	7880.58
441.94	8030.38
442.12	7793.98
442.31	7943.78
442.50	8023.36
442.68	7896.97
442.87	8032.72
443.05	8016.33
443.24	8203.58
443.43	8116.98
443.61	8154.43
443.80	8208.26
443.98	8086.55
444.17	7791.64
444.35	8135.70
444.54	8290.18
444.73	8486.78
444.91	8339.33
445.10	8407.20
445.28	8423.59
445.47	8194.22
445.65	8231.66
445.84	8395.50
446.02	8428.27
446.21	8367.42
446.39	8297.20
446.58	8351.03
446.77	8444.65
446.95	8152.09
447.14	8423.59
447.32	8432.95
447.51	8454.02
447.69	8454.02
447.88	8777.01
448.06	8512.53
448.25	8461.04
448.43	8559.34
448.62	8442.31
448.80	8585.08
448.99	8688.07
449.17	8652.96
449.36	8594.45
449.54	8657.64
449.73	8830.84
449.91	9043.83
450.10	8954.89
450.28	9116.39
450.46	9062.55
450.65	9011.06
450.83	9085.96
451.02	9121.07
451.20	9053.19
451.39	8931.48
451.57	9097.66
451.76	8966.59
451.94	9245.12
452.13	9425.34
452.31	9350.44
452.49	9067.24
452.68	9287.25
452.86	9160.86
453.05	9364.48
453.23	9483.85
453.42	9537.68
453.60	9118.73
453.78	9509.60
453.97	9413.63
454.15	9483.85
454.34	9362.14
454.52	9757.69
454.70	9652.37
454.89	10073.67
455.07	9886.42
455.26	9851.31
455.44	9856.00
455.62	9949.62
455.81	9767.06
455.99	9809.19
456.17	9937.91
456.36	9984.73
456.54	10094.73
456.73	10207.08
456.91	10438.79
457.09	10356.87
457.28	10635.39
457.46	10040.90
457.64	10501.98
457.83	10616.67
458.01	10314.74
458.19	10501.98
458.38	10523.05
458.56	10532.41
458.74	10614.33
458.93	10626.03
459.11	10525.39
459.29	10530.07
459.48	10689.23
459.66	10846.04
459.84	10902.22
460.03	11126.91
460.21	10918.60
460.39	11087.12
460.57	11082.44
460.76	11246.27
460.94	10949.03
461.12	11279.04
461.31	11267.34
461.49	11028.60
461.67	11239.25
461.85	11398.41
462.04	11274.36
462.22	11712.04
462.40	11353.94
462.59	11391.39
462.77	11342.24
462.95	11571.61
463.13	11517.78
463.32	11634.80
463.50	11803.32
463.68	11676.93
463.86	11665.23
464.05	11627.78
464.23	11604.38
464.41	11735.45
464.59	11683.95
464.78	12241.00
464.96	11892.26
465.14	11882.90
465.32	12212.92
465.50	11894.60
465.69	11873.54
465.87	11999.93
466.05	12028.01
466.23	12028.01
466.41	12020.99
466.60	12430.59
466.78	11908.65
466.96	12250.36
467.14	12219.94
467.32	12425.90
467.51	12503.14
467.69	12105.25
467.87	12393.14
468.05	12336.96
468.23	12112.27
468.41	12390.80
468.60	12451.65
468.78	12596.76
468.96	12601.44
469.14	12664.64
469.32	12802.73
469.50	12760.60
469.69	12659.96
469.87	13088.28
470.05	12929.12
470.23	13053.17
470.41	12908.05
470.59	13364.46
470.77	13046.15
470.95	13104.66
471.14	13582.13
471.32	13184.24
471.50	13518.93
471.68	13511.91
471.86	13633.62
472.04	13481.49
472.22	13867.67
472.40	13633.62
472.58	13642.98
472.77	13879.38
472.95	14104.07
473.13	14270.25
473.31	13818.52
473.49	14256.20
473.67	14012.79
473.85	14099.39
474.03	14731.33
474.21	14750.06
474.39	14588.56
474.57	14609.62
474.75	14860.06
474.93	14904.53
475.12	14813.25
475.30	15000.49
475.48	14857.72
475.66	15094.11
475.84	15192.42
476.02	15351.57
476.20	15147.95
476.38	15723.72
476.56	15857.13
476.74	15943.73
476.92	16044.37
477.10	15798.62
477.28	16016.29
477.46	16039.69
477.64	16311.19
477.82	16381.41
478.00	16748.87
478.18	16664.61
478.36	16828.45
478.54	17071.87
478.72	17123.36
478.90	17334.01
479.08	17483.80
479.26	17549.34
479.44	17696.79
479.62	17881.69
479.80	18017.44
479.98	18176.60
480.16	18375.55
480.34	18073.62
480.52	18466.83
480.70	18661.09
480.88	18335.76
481.06	18412.99
481.24	18635.35
481.41	19257.93
481.59	19063.66
481.77	19318.78
481.95	19454.53
482.13	19393.68
482.31	19410.06
482.49	20563.95
482.67	19892.21
482.85	20170.74
483.03	20446.92
483.21	20830.77
483.39	20723.10
483.57	20790.98
483.74	21144.40
483.92	21336.32
484.10	21062.48
484.28	21422.92
484.46	21968.27
484.64	22214.02
484.82	21818.47
485.00	22279.56
485.18	22731.28
485.35	23016.83
485.53	22824.90
485.71	22934.91
485.89	23426.42
486.07	23356.21
486.25	23353.87
486.43	23461.53
486.61	23740.05
486.78	24039.64
486.96	24039.64
487.14	24521.79
487.32	24205.82
487.50	24842.45
487.68	24915.00
487.85	25104.59
488.03	25163.10
488.21	25465.03
488.39	25628.87
488.57	25759.94
488.75	25736.53
488.92	26321.66
489.10	26754.66
489.28	26595.51
489.46	27049.57
489.64	26911.48
489.81	27452.14
489.99	27356.18
490.17	27728.33
490.35	27988.13
490.53	28175.37
490.70	28238.56
490.88	28201.11
491.06	28683.27
491.24	28308.78
491.41	28833.06
491.59	29090.52
491.77	28957.11
491.95	29645.23
492.13	29546.92
492.30	29689.70
492.48	30113.33
492.66	29872.26
492.84	29921.41
493.01	30471.43
493.19	30333.34
493.37	30932.52
493.54	30976.99
493.72	31543.40
493.90	31147.85
494.08	31765.75
494.25	32149.60
494.43	31728.30
494.61	32299.39
494.79	32463.23
494.96	32299.39
495.14	32631.75
495.32	33095.18
495.49	33151.35
495.67	32882.19
495.85	33259.01
496.02	33560.94
496.20	33991.60
496.38	34047.77
496.55	34148.42
496.73	34859.94
496.91	34745.25
497.09	34562.69
497.26	34717.17
497.44	34700.78
497.62	35225.06
497.79	35688.49
497.97	35302.30
498.14	35997.44
498.32	36018.50
498.50	36236.17
498.67	36360.22
498.85	36165.96
499.03	36563.85
499.20	36519.38
499.38	36620.02
499.56	36882.16
499.73	36793.22
499.91	37038.98
500.08	37401.76
500.26	37092.81
500.44	37308.14
500.61	37600.71
500.79	37158.34
500.97	37514.11
501.14	38527.56
501.32	38637.56
501.49	38281.80
501.67	38157.75
501.84	38911.41
502.02	38724.16
502.20	38850.55
502.37	38993.32
502.55	38911.41
502.72	39269.51
502.90	39321.00
503.07	39416.96
503.25	39721.23
503.43	39988.05
503.60	39964.65
503.78	40044.23
503.95	40058.27
504.13	40423.39
504.30	40732.34
504.48	40367.22
504.65	40856.39
504.83	40907.88
505.01	40847.03
505.18	40748.73
505.36	41378.33
505.53	41237.90
505.71	41450.89
505.88	41661.54
506.06	41401.74
506.23	41544.51
506.41	41757.50
506.58	42005.59
506.76	42010.28
506.93	42546.26
507.11	42492.43
507.28	42403.49
507.46	42344.97
507.63	42447.96
507.81	42710.10
507.98	42494.77
508.16	43037.77
508.33	43042.45
508.50	43510.56
508.68	43271.82
508.85	44060.58
509.03	43601.84
509.20	43758.66
509.38	44147.18
509.55	44210.38
509.73	43924.83
509.90	44280.60
510.08	44034.84
510.25	44362.51
510.42	44423.37
510.60	44847.00
510.77	45125.53
510.95	45090.42
511.12	44926.58
511.30	45036.59
511.47	45579.59
511.64	45244.90
511.82	45476.61
511.99	45804.28
512.17	45841.73
512.34	45851.09
512.51	45947.06
512.69	46277.07
512.86	45989.19
513.04	46541.55
513.21	46473.68
513.38	46483.04
513.56	46747.52
513.73	46398.78
513.90	46880.93
514.08	46658.58
514.25	46958.17
514.43	47440.32
514.60	47718.84
514.77	47222.65
514.95	47662.67
515.12	47114.98
515.29	47643.94
515.47	47770.33
515.64	47906.08
515.81	47969.28
515.99	48308.66
516.16	48205.67
516.33	47896.72
516.51	48729.95
516.68	48224.40
516.85	48140.14
517.03	48692.50
517.20	48718.25
517.37	48615.27
517.54	48626.97
517.72	48659.74
517.89	48910.17
518.06	49092.74
518.24	49181.68
518.41	49205.08
518.58	49148.91
518.75	48905.49
518.93	49502.33
519.10	49570.21
519.27	49457.86
519.45	49736.38
519.62	49645.10
519.79	49879.16
519.96	49834.69
520.14	50031.29
520.31	49879.16
520.48	50305.13
520.65	50255.98
520.83	50344.92
521.00	50234.92
521.17	50153.00
521.34	50464.29
521.52	50880.91
521.69	50475.99
521.86	50927.72
522.03	51143.05
522.20	51016.66
522.38	51475.40
522.55	51231.99
522.72	51152.41
522.89	51222.62
523.07	51161.77
523.24	51227.31
523.41	51365.40
523.58	51597.11
523.75	51136.02
523.92	51723.50
524.10	51789.03
524.27	52097.98
524.44	51812.44
524.61	51803.08
524.78	52090.96
524.96	51908.40
525.13	52065.22
525.30	52109.69
525.47	52266.50
525.64	52062.88
525.81	52423.32
525.98	52444.38
526.16	52374.17
526.33	52420.98
526.50	52622.26
526.67	52680.78
526.84	52814.19
527.01	52507.58
527.18	52650.35
527.36	52940.58
527.53	52903.13
527.70	53308.04
527.87	53111.44
528.04	52903.13
528.21	53179.31
528.38	53268.25
528.55	53462.52
528.72	53256.55
528.89	53439.11
529.07	53282.30
529.24	53347.83
529.41	53504.65
529.58	53834.66
529.75	53661.46
529.92	53485.92
530.09	53780.83
530.26	53684.87
530.43	53865.09
530.60	53900.20
530.77	53619.33
530.94	53904.88
531.11	54057.01
531.28	53961.05
531.46	53963.39
531.63	54181.06
531.80	53939.99
531.97	54384.69
532.14	54267.66
532.31	54124.89
532.48	54415.11
532.65	54569.59
532.82	54232.55
532.99	54628.10
533.16	54553.21
533.33	54497.03
533.50	55000.25
533.67	54583.63
533.84	54459.58
534.01	54866.84
534.18	54602.36
534.35	55243.66
534.52	54988.55
534.69	54990.89
534.86	55196.85
535.03	54726.41
535.20	55196.85
535.37	55084.51
535.54	55175.79
535.71	55098.55
535.88	55260.05
536.05	55238.98
536.22	55313.88
536.38	55501.12
536.55	55496.44
536.72	55423.89
536.89	55444.95
537.06	55447.29
537.23	55676.66
537.40	55346.65
537.57	55765.60
537.74	55700.07
537.91	55924.76
538.08	55669.64
538.25	55653.26
538.42	55723.47
538.59	56119.02
538.75	55789.01
538.92	56128.39
539.09	56151.79
539.26	55791.35
539.43	55938.80
539.60	55798.37
539.77	55957.53
539.94	56189.24
540.11	56268.82
540.28	56402.23
540.44	56273.50
540.61	56184.56
540.78	56285.20
540.95	56362.44
541.12	56336.69
541.29	56369.46
541.46	56402.23
541.62	56626.92
541.79	56673.73
541.96	56413.93
542.13	56324.99
542.30	56580.11
542.47	56610.54
542.63	56905.44
542.80	56921.83
542.97	57050.56
543.14	56949.92
543.31	57017.79
543.48	57127.80
543.64	57279.93
543.81	57160.56
543.98	57310.36
544.15	57008.43
544.32	57389.94
544.48	57394.62
544.65	56933.53
544.82	57434.41
544.99	57057.58
545.16	57474.20
545.32	57425.04
545.49	57677.82
545.66	57600.58
545.83	57315.04
546.00	57787.83
546.16	57366.53
546.33	57322.06
546.50	57616.97
546.67	57584.20
546.83	57277.59
547.00	57645.05
547.17	57513.98
547.34	57757.40
547.50	57668.46
547.67	57923.58
547.84	57701.23
548.00	57965.71
548.17	58045.29
548.34	57916.56
548.51	58176.36
548.67	58110.82
548.84	58087.42
549.01	57876.77
549.18	58246.57
549.34	58113.16
549.51	58094.44
549.68	58202.10
549.84	58159.97
550.01	58059.33
550.18	58096.78
550.34	58255.93
550.51	58454.88
550.68	58216.14
550.84	58148.27
551.01	58192.74
551.18	58473.60
551.34	58333.17
551.51	58527.44
551.68	58433.81
551.84	58417.43
552.01	58291.04
552.18	58602.33
552.34	58157.63
552.51	58557.86
552.68	58415.09
552.84	58574.25
553.01	58850.43
553.18	58679.57
553.34	58904.26
553.51	58609.35
553.67	58915.96
553.84	58866.81
554.01	58960.44
554.17	59063.42
554.34	58960.44
554.51	58728.72
554.67	58862.13
554.84	58993.20
555.00	58962.78
555.17	58803.62
555.33	58834.05
555.50	58852.77
555.67	58827.02
555.83	58820.00
556.00	59044.69
556.16	59245.98
556.33	59131.29
556.50	59016.61
556.66	59185.13
556.83	59128.95
556.99	59292.79
557.16	59344.28
557.32	59306.83
557.49	59566.63
557.65	59175.76
557.82	59281.09
557.98	59374.71
558.15	59351.30
558.32	59365.35
558.48	59070.44
558.65	59529.19
558.81	59491.74
558.98	59302.15
559.14	59545.57
559.31	59465.99
559.47	59517.48
559.64	59693.02
559.80	59648.55
559.97	59749.20
560.13	59559.61
560.30	59777.28
560.46	59597.06
560.63	59796.01
560.79	59545.57
560.96	59657.91
561.12	59657.91
561.29	59767.92
561.45	59994.95
561.61	59723.45
561.78	59819.41
561.94	59473.01
562.11	59583.02
562.27	59821.75
562.44	59877.93
562.60	59990.27
562.77	59889.63
562.93	59849.84
563.10	60236.03
563.26	59718.77
563.42	59966.87
563.59	59798.35
563.75	59838.14
563.92	59859.20
564.08	59948.14
564.24	60081.55
564.41	60104.96
564.57	59966.87
564.74	59959.84
564.90	60149.43
565.07	59962.18
565.23	60006.65
565.39	59999.63
565.56	59964.52
565.72	59906.01
565.88	60023.04
566.05	60095.60
566.21	60238.37
566.38	60238.37
566.54	60009.00
566.70	60111.98
566.87	60280.50
567.03	60299.22
567.19	60210.28
567.36	60252.41
567.52	60172.83
567.68	60280.50
567.85	60292.20
568.01	60425.61
568.17	60224.32
568.34	60266.45
568.50	60299.22
568.66	60474.76
568.83	60430.29
568.99	60381.14
569.15	60177.51
569.32	60460.72
569.48	60360.08
569.64	60177.51
569.81	60425.61
569.97	60119.00
570.13	60266.45
570.30	60135.38
570.46	60355.39
570.62	60470.08
570.78	60523.91
570.95	60346.03
571.11	60397.52
571.27	60376.46
571.43	60423.27
571.60	60437.31
571.76	60296.88
571.92	60568.38
572.09	60437.31
572.25	60434.97
572.41	60542.64
572.57	60552.00
572.74	60800.10
572.90	60624.56
573.06	60477.10
573.22	60519.23
573.38	60575.40
573.55	60516.89
573.71	60664.35
573.87	60589.45
574.03	60427.95
574.20	60605.83
574.36	60563.70
574.52	60521.57
574.68	60577.75
574.84	60711.16
575.01	60769.67
575.17	60626.90
575.33	60491.15
575.49	60544.98
575.65	60563.70
575.82	60739.24
575.98	60800.10
576.14	60842.23
576.30	60977.98
576.46	60767.33
576.62	60676.05
576.79	60563.70
576.95	60554.34
577.11	60807.12
577.27	60755.63
577.43	60781.37
577.59	60767.33
577.75	60498.17
577.92	60413.91
578.08	60797.76
578.24	60743.92
578.40	61020.11
578.56	60853.93
578.72	60596.47
578.88	60846.91
579.04	60921.80
579.21	60900.74
579.37	60954.57
579.53	60839.89
579.69	60781.37
579.85	60619.88
580.01	60828.18
580.17	60561.36
580.33	60935.85
580.49	60956.91
580.65	60781.37
580.82	60596.47
580.98	60598.81
581.14	60741.58
581.30	60977.98
581.46	60917.12
581.62	60917.12
581.78	60605.83
581.94	60828.18
582.10	60783.71
582.26	60830.52
582.42	60669.03
582.58	60992.02
582.74	60779.03
582.90	60896.06
583.06	60952.23
583.22	60633.92
583.38	60725.20
583.54	60926.49
583.70	60903.08
583.86	60783.71
584.02	60753.29
584.18	60846.91
584.34	61008.40
584.50	60795.42
584.66	60872.65
584.82	60750.94
584.98	61052.87
585.14	61102.03
585.30	60757.97
585.46	60725.20
585.62	60872.65
585.78	60779.03
585.94	60910.10
586.10	60898.40
586.26	60802.44
586.42	60966.27
586.58	61052.87
586.74	60949.89
586.90	60830.52
587.06	60914.78
587.22	60959.25
587.38	60945.21
587.54	61132.45
587.70	60961.59
587.86	60910.10
588.02	61031.81
588.18	61331.40
588.34	60959.25
588.49	60940.53
