SpectraSuite Data File
++++++++++++++++++++++++++++++++++++
Date: Fri Oct 25 10:43:53 EDT 2013
User: price-jones
Dark Spectrum Present: No
Reference Spectrum Present: No
Number of Sampled Component Spectra: 1
Spectrometers: USB2+H05261
Integration Time (usec): 100000 (USB2+H05261)
Spectra Averaged: 1 (USB2+H05261)
Boxcar Smoothing: 0 (USB2+H05261)
Correct for Electrical Dark: No (USB2+H05261)
Strobe/Lamp Enabled: No (USB2+H05261)
Correct for Detector Non-linearity: No (USB2+H05261)
Correct for Stray Light: No (USB2+H05261)
Number of Pixels in Processed Spectrum: 2048
>>>>>Begin Processed Spectral Data<<<<<
365.73	196.60
365.92	196.60
366.12	196.60
366.32	77.24
366.52	25.75
366.72	42.13
366.91	21.06
367.11	30.43
367.31	7.02
367.51	0.00
367.70	32.77
367.90	28.09
368.10	28.09
368.30	4.68
368.49	0.00
368.69	0.00
368.89	35.11
369.09	35.11
369.28	81.92
369.48	21.06
369.68	30.43
369.87	112.35
370.07	121.71
370.27	95.96
370.47	215.33
370.66	388.53
370.86	423.64
371.06	470.45
371.25	477.47
371.45	425.98
371.65	491.51
371.84	470.45
372.04	484.49
372.24	486.83
372.44	496.19
372.63	500.87
372.83	482.15
373.03	533.64
373.22	603.86
373.42	512.58
373.62	486.83
373.81	510.24
374.01	578.11
374.21	587.47
374.40	528.96
374.60	592.16
374.79	620.24
374.99	629.60
375.19	559.39
375.38	617.90
375.58	535.98
375.78	629.60
375.97	608.54
376.17	645.99
376.37	615.56
376.56	589.82
376.76	664.71
376.95	592.16
377.15	601.52
377.35	622.58
377.54	629.60
377.74	660.03
377.93	662.37
378.13	732.59
378.33	667.05
378.52	585.13
378.72	730.25
378.91	706.84
379.11	585.13
379.31	610.88
379.50	727.91
379.70	800.46
379.89	791.10
380.09	678.76
380.28	636.63
380.48	741.95
380.68	723.23
380.87	737.27
381.07	683.44
381.26	748.97
381.46	737.27
381.65	784.08
381.85	737.27
382.04	643.65
382.24	753.65
382.43	709.18
382.63	713.86
382.83	758.33
383.02	856.64
383.22	784.08
383.41	688.12
383.61	711.52
383.80	915.15
384.00	800.46
384.19	795.78
384.39	791.10
384.58	856.64
384.78	777.06
384.97	826.21
385.17	858.98
385.36	823.87
385.56	812.17
385.75	765.36
385.95	788.76
386.14	856.64
386.34	793.44
386.53	894.08
386.72	833.23
386.92	912.81
387.11	884.72
387.31	844.93
387.50	816.85
387.70	819.19
387.89	882.38
388.09	901.11
388.28	908.13
388.48	891.74
388.67	978.34
388.86	936.21
389.06	959.62
389.25	978.34
389.45	976.00
389.64	1036.86
389.84	1109.41
390.03	1027.50
390.22	971.32
390.42	985.37
390.61	1071.97
390.81	997.07
391.00	1114.10
391.19	1128.14
391.39	1074.31
391.58	1053.24
391.78	1132.82
391.97	1078.99
392.16	1064.94
392.36	1088.35
392.55	1048.56
392.75	1034.52
392.94	1004.09
393.13	1053.24
393.33	987.71
393.52	1020.47
393.71	1088.35
393.91	1132.82
394.10	1149.20
394.29	1114.10
394.49	1151.54
394.68	1153.88
394.88	1249.85
395.07	1198.35
395.26	1378.58
395.46	1327.08
395.65	1224.10
395.84	1261.55
396.04	1247.51
396.23	1280.27
396.42	1254.53
396.62	1184.31
396.81	1203.04
397.00	1324.74
397.19	1263.89
397.39	1444.11
397.58	1467.52
397.77	1451.13
397.97	1453.47
398.16	1476.88
398.35	1497.94
398.55	1472.20
398.74	1516.67
398.93	1614.97
399.12	1647.74
399.32	1591.56
399.51	1675.82
399.70	1593.90
399.90	1591.56
400.09	1561.14
400.28	1666.46
400.47	1654.76
400.67	1739.02
400.86	1717.95
401.05	1680.50
401.24	1729.66
401.44	1717.95
401.63	1713.27
401.82	1781.15
402.01	1764.76
402.21	1680.50
402.40	1741.36
402.59	1720.29
402.78	1949.67
402.97	1900.52
403.17	1870.09
403.36	1703.91
403.55	1823.28
403.74	1952.01
403.93	1912.22
404.13	1872.43
404.32	1844.34
404.51	1919.24
404.70	1944.99
404.89	1991.80
405.09	2001.16
405.28	2062.01
405.47	1959.03
405.66	2031.58
405.85	2078.40
406.05	2047.97
406.24	1989.46
406.43	2026.90
406.62	2260.96
406.81	2249.25
407.00	2092.44
407.20	2134.57
407.39	2186.06
407.58	2237.55
407.77	2314.79
407.96	2235.21
408.15	2277.34
408.34	2176.70
408.54	2413.09
408.73	2487.99
408.92	2324.15
409.11	2385.01
409.30	2385.01
409.49	2385.01
409.68	2335.85
409.87	2265.64
410.07	2289.04
410.26	2441.18
410.45	2530.12
410.64	2485.65
410.83	2499.69
411.02	2560.55
411.21	2602.68
411.40	2602.68
411.59	2628.42
411.78	2700.98
411.98	2693.96
412.17	2684.59
412.36	2782.90
412.55	2801.62
412.74	2810.98
412.93	2818.00
413.12	2764.17
413.31	2942.05
413.50	2775.88
413.69	2909.29
413.88	3033.33
414.07	2902.26
414.26	2935.03
414.45	3075.46
414.64	3066.10
414.83	3166.74
415.02	3150.36
415.22	3190.15
415.41	3213.56
415.60	3325.90
415.79	3222.92
415.98	3351.65
416.17	3279.09
416.36	3459.31
416.55	3243.98
416.74	3337.60
416.93	3363.35
417.12	3496.76
417.31	3440.59
417.50	3452.29
417.69	3637.19
417.88	3665.28
418.07	3496.76
418.26	3578.68
418.45	3566.98
418.64	3744.86
418.83	3742.52
419.02	3742.52
419.21	3744.86
419.39	3749.54
419.58	3639.53
419.77	3756.56
419.96	3754.22
420.15	3852.52
420.34	3775.28
420.53	3925.08
420.72	3932.10
420.91	3995.29
421.10	4084.23
421.29	3852.52
421.48	4039.76
421.67	4018.70
421.86	3831.46
422.05	3871.25
422.24	3854.86
422.43	3850.18
422.61	3908.69
422.80	4037.42
422.99	3906.35
423.18	4119.34
423.37	4056.15
423.56	4070.19
423.75	4079.55
423.94	3999.98
424.13	3836.14
424.32	3857.20
424.50	4119.34
424.69	3995.29
424.88	4175.52
425.07	3985.93
425.26	3904.01
425.45	4184.88
425.64	4198.92
425.83	4107.64
426.01	4170.83
426.20	4109.98
426.39	4093.60
426.58	4102.96
426.77	4072.53
426.96	4039.76
427.15	4142.75
427.33	4290.20
427.52	4266.80
427.71	4194.24
427.90	4390.84
428.09	4280.84
428.28	4189.56
428.46	4304.25
428.65	4430.63
428.84	4458.72
429.03	4456.38
429.22	4194.24
429.40	4276.16
429.59	4227.01
429.78	4100.62
429.97	3871.25
430.16	4070.19
430.34	4231.69
430.53	4241.05
430.72	4325.31
430.91	4381.48
431.10	4428.29
431.28	4550.00
431.47	4805.12
431.66	4676.39
431.85	4812.14
432.03	4884.70
432.22	4840.23
432.41	4784.06
432.60	5011.09
432.79	4917.47
432.97	4884.70
433.16	4770.01
433.35	4858.95
433.54	4720.86
433.72	4812.14
433.91	4711.50
434.10	4835.55
434.28	4882.36
434.47	4968.96
434.66	4901.08
434.85	5146.84
435.03	5046.20
435.22	5172.58
435.41	5322.38
435.59	5282.59
435.78	5289.61
435.97	5195.99
436.16	5179.61
436.34	5397.28
436.53	5385.57
436.72	5343.44
436.90	5308.34
437.09	5401.96
437.28	5369.19
437.46	5280.25
437.65	5418.34
437.84	5364.51
438.02	5380.89
438.21	5371.53
438.40	5369.19
438.58	5439.40
438.77	5446.43
438.96	5582.18
439.14	5736.65
439.33	5626.65
439.52	5858.36
439.70	5727.29
439.89	5975.39
440.08	5715.59
440.26	5933.26
440.45	5895.81
440.63	5991.77
440.82	6195.40
441.01	6153.27
441.19	6300.72
441.38	6249.23
441.57	6279.66
441.75	6150.93
441.94	6408.39
442.12	6160.29
442.31	6576.91
442.50	6497.33
442.68	6586.27
442.87	6399.02
443.05	6415.41
443.24	6729.04
443.43	6569.88
443.61	6534.78
443.80	6789.89
443.98	6616.69
444.17	6366.26
444.35	6719.68
444.54	6803.94
444.73	6789.89
444.91	6700.95
445.10	6693.93
445.28	6661.16
445.47	6766.49
445.65	6504.35
445.84	6841.39
446.02	6796.92
446.21	6909.26
446.39	6913.94
446.58	6766.49
446.77	6869.47
446.95	6717.34
447.14	6878.83
447.32	7007.56
447.51	6736.06
447.69	6829.68
447.88	6967.77
448.06	6972.46
448.25	6799.26
448.43	6899.90
448.62	6970.12
448.80	6836.70
448.99	7180.76
449.17	7063.74
449.36	6906.92
449.54	7164.38
449.73	7265.02
449.91	7543.55
450.10	7288.43
450.28	7466.31
450.46	7527.16
450.65	7456.95
450.83	7489.71
451.02	7117.57
451.20	7445.24
451.39	7576.31
451.57	7300.13
451.76	7349.28
451.94	7466.31
452.13	7639.51
452.31	7489.71
452.49	7349.28
452.68	7449.93
452.86	7368.01
453.05	7466.31
453.23	7588.02
453.42	7524.82
453.60	7595.04
453.78	7772.92
453.97	7665.25
454.15	7695.68
454.34	7534.18
454.52	7564.61
454.70	7763.56
454.89	7801.01
455.07	7588.02
455.26	7913.35
455.44	8070.17
455.62	7836.11
455.81	7906.33
455.99	8126.34
456.17	8088.89
456.36	7999.95
456.54	8098.25
456.73	8238.69
456.91	8514.87
457.09	8327.63
457.28	8582.74
457.46	8245.71
457.64	8245.71
457.83	8336.99
458.01	8407.20
458.19	8533.59
458.38	8339.33
458.56	8367.42
458.74	8442.31
458.93	8397.84
459.11	8578.06
459.29	8393.16
459.48	8444.65
459.66	8573.38
459.84	8638.92
460.03	8753.60
460.21	8727.86
460.39	8809.78
460.57	8905.74
460.76	9078.94
460.94	9118.73
461.12	8868.29
461.31	9020.42
461.49	8943.19
461.67	8802.75
461.85	9149.15
462.04	9088.30
462.22	9085.96
462.40	9104.68
462.59	9315.33
462.77	9235.75
462.95	9011.06
463.13	9245.12
463.32	9238.09
463.50	9228.73
463.68	9247.46
463.86	9095.32
464.05	9191.28
464.23	9331.72
464.41	9383.21
464.59	9135.11
464.78	9420.66
464.96	9507.26
465.14	9500.23
465.32	9577.47
465.50	9682.80
465.69	9790.46
465.87	9570.45
466.05	9425.34
466.23	9495.55
466.41	9547.05
466.60	9783.44
466.78	9495.55
466.96	9511.94
467.14	9500.23
467.32	9525.98
467.51	9654.71
467.69	9617.26
467.87	9554.07
468.05	9708.54
468.23	9645.35
468.41	9659.39
468.60	9884.08
468.78	9973.02
468.96	9916.85
469.14	9818.55
469.32	9984.73
469.50	9675.77
469.69	10101.75
469.87	10083.03
470.05	9944.94
470.23	10043.24
470.41	9877.06
470.59	10120.48
470.77	10064.30
470.95	10375.59
471.14	10366.23
471.32	10164.95
471.50	10796.89
471.68	10567.52
471.86	10480.92
472.04	10843.70
472.22	10764.12
472.40	10602.63
472.58	10738.38
472.77	10923.28
472.95	11157.33
473.13	11218.19
473.31	11021.58
473.49	10918.60
473.67	11002.86
473.85	10869.45
474.03	11185.42
474.21	11183.08
474.39	11585.65
474.57	11449.90
474.75	11485.01
474.93	11580.97
475.12	11204.14
475.30	11623.10
475.48	11620.76
475.66	11693.32
475.84	11414.79
476.02	11847.79
476.20	11779.92
476.38	11946.09
476.56	12173.13
476.74	11997.59
476.92	12142.70
477.10	11995.25
477.28	12411.86
477.46	12362.71
477.64	12409.52
477.82	12772.30
478.00	12884.65
478.18	12940.82
478.36	12844.86
478.54	12875.29
478.72	13174.88
478.90	13156.15
479.08	13352.76
479.26	13710.86
479.44	13408.93
479.62	13554.04
479.80	13680.43
479.98	13982.36
480.16	14127.47
480.34	14162.58
480.52	14188.33
480.70	14253.86
480.88	14148.54
481.06	14207.05
481.24	14403.66
481.41	14614.30
481.59	14799.21
481.77	14918.57
481.95	14595.58
482.13	15234.55
482.31	14965.39
482.49	15157.31
482.67	15143.27
482.85	15470.94
483.03	15613.71
483.21	15815.00
483.39	15978.84
483.57	15782.23
483.74	16079.48
483.92	16025.65
484.10	16035.01
484.28	16582.70
484.46	16549.93
484.64	16877.60
484.82	16435.24
485.00	16699.72
485.18	16695.04
485.35	16861.22
485.53	16540.57
485.71	16444.60
485.89	16524.18
486.07	16826.11
486.25	16985.27
486.43	17296.56
486.61	17476.78
486.78	17657.00
486.96	17888.71
487.14	17905.10
487.32	18214.05
487.50	18101.70
487.68	18757.05
487.85	18618.96
488.03	18801.52
488.21	18956.00
488.39	19302.40
488.57	19077.71
488.75	19325.80
488.92	19403.04
489.10	19831.36
489.28	19871.15
489.46	19901.58
489.64	20276.06
489.81	20460.96
489.99	20624.80
490.17	20760.55
490.35	21029.71
490.53	21111.63
490.70	20844.81
490.88	20912.69
491.06	21219.30
491.24	21193.55
491.41	21219.30
491.59	21406.54
491.77	21083.55
491.95	21467.39
492.13	21785.71
492.30	21898.05
492.48	22429.35
492.66	22188.28
492.84	22291.26
493.01	22721.92
493.19	22593.19
493.37	22977.04
493.54	22719.58
493.72	23206.41
493.90	23271.95
494.08	23548.13
494.25	23381.95
494.43	24004.53
494.61	24056.03
494.79	24397.74
494.96	24212.84
495.14	24121.56
495.32	24428.17
495.49	24332.21
495.67	24458.60
495.85	24730.10
496.02	24631.80
496.20	24917.34
496.38	25165.44
496.55	25043.73
496.73	25516.52
496.91	25266.08
497.09	25771.64
497.26	25919.09
497.44	25661.63
497.62	25809.09
497.79	26103.99
497.97	25935.48
498.14	25872.28
498.32	25972.92
498.50	25979.95
498.67	26471.46
498.85	26841.26
499.03	26799.13
499.20	26806.16
499.38	27051.91
499.56	26986.38
499.73	27051.91
499.91	27346.82
500.08	27232.13
500.26	26775.73
500.44	27716.62
500.61	27679.18
500.79	27438.10
500.97	27323.41
501.14	27810.25
501.32	27435.76
501.49	27414.69
501.67	27892.16
501.84	27992.81
502.02	27964.72
502.20	28491.34
502.37	28371.97
502.55	28425.81
502.72	28631.77
502.90	28547.51
503.07	28765.18
503.25	28800.29
503.43	28865.83
503.60	28622.41
503.78	28601.35
503.95	28421.13
504.13	29226.27
504.30	29233.29
504.48	29244.99
504.65	29677.99
504.83	29713.10
505.01	30010.35
505.18	29659.27
505.36	29706.08
505.53	29827.79
505.71	30532.29
505.88	30239.72
506.06	30309.94
506.23	30075.88
506.41	30251.42
506.58	30630.59
506.76	30431.65
506.93	30878.69
507.11	30675.06
507.28	30888.05
507.46	30656.34
507.63	30892.73
507.81	30864.64
507.98	30747.62
508.16	31344.45
508.33	31456.80
508.50	31328.07
508.68	31379.56
508.85	31709.58
509.03	31704.90
509.20	31763.41
509.38	32002.14
509.55	31583.19
509.73	32137.90
509.90	32037.25
510.08	32210.45
510.25	32477.27
510.42	32271.31
510.60	32163.64
510.77	32428.12
510.95	32699.62
511.12	32641.11
511.30	32837.72
511.47	33282.42
511.64	33078.79
511.82	33097.52
511.99	33017.94
512.17	33186.46
512.34	33333.91
512.51	33010.92
512.69	33427.53
512.86	33439.23
513.04	33628.82
513.21	33357.32
513.38	33631.16
513.56	33614.77
513.73	33486.04
513.90	33909.68
514.08	33626.48
514.25	33844.15
514.43	34010.32
514.60	34178.84
514.77	34117.99
514.95	34546.31
515.12	34302.89
515.29	34469.07
515.47	34560.35
515.64	35154.85
515.81	34195.23
515.99	34558.01
516.16	34565.03
516.33	34279.49
516.51	34082.88
516.68	34059.48
516.85	33799.68
517.03	34181.18
517.20	34857.60
517.37	35353.79
517.54	35248.47
517.72	34920.79
517.89	34614.18
518.06	34871.64
518.24	34668.02
518.41	35161.87
518.58	35466.14
518.75	35491.88
518.93	35501.25
519.10	35414.65
519.27	35534.01
519.45	35381.88
519.62	36084.04
519.79	36226.81
519.96	35887.43
520.14	36767.48
520.31	36182.34
520.48	36051.27
520.65	36257.24
520.83	36781.52
521.00	36563.85
521.17	36765.14
521.34	36699.60
521.52	37006.21
521.69	36889.18
521.86	36891.52
522.03	37099.83
522.20	37137.28
522.38	36751.09
522.55	37191.11
522.72	37041.32
522.89	37249.63
523.07	37352.61
523.24	37673.26
523.41	37357.29
523.58	37675.60
523.75	37970.51
523.92	38127.33
524.10	37689.65
524.27	37598.37
524.44	38209.25
524.61	38366.06
524.78	37991.58
524.96	38190.52
525.13	38169.46
525.30	38902.04
525.47	38234.99
525.64	38370.74
525.81	38134.35
525.98	38213.93
526.16	37979.87
526.33	38115.62
526.50	38190.52
526.67	37958.81
526.84	37937.74
527.01	38022.00
527.18	38455.00
527.36	38646.93
527.53	39124.40
527.70	38969.92
527.87	38941.83
528.04	39138.44
528.21	39187.59
528.38	39117.37
528.55	39393.56
528.72	39786.77
528.89	39868.69
529.07	39849.96
529.24	39246.10
529.41	39508.24
529.58	39440.37
529.75	39665.06
529.92	40009.12
530.09	39728.25
530.26	39791.45
530.43	40084.01
530.60	40404.67
530.77	39765.70
530.94	40271.26
531.11	40027.84
531.28	40360.20
531.46	40091.04
531.63	40442.12
531.80	40554.46
531.97	40095.72
532.14	40360.20
532.31	39751.66
532.48	40126.14
532.65	40421.05
532.82	40521.69
532.99	40713.62
533.16	40563.82
533.33	40788.52
533.50	40959.38
533.67	40844.69
533.84	40720.64
534.01	41003.85
534.18	40779.15
534.35	41106.83
534.52	40840.01
534.69	41174.70
534.86	41439.18
535.03	41055.34
535.20	41591.32
535.37	41612.38
535.54	41823.03
535.71	41490.68
535.88	41745.80
536.05	41155.98
536.22	41890.91
536.38	41530.47
536.55	41687.28
536.72	41588.98
536.89	41296.41
537.06	41621.75
537.23	41717.71
537.40	42040.70
537.57	41759.84
537.74	42134.32
537.91	42281.78
538.08	41991.55
538.25	41516.42
538.42	41607.70
538.59	42103.90
538.75	41956.44
538.92	42314.55
539.09	41942.40
539.26	42071.13
539.43	42403.49
539.60	42218.58
539.77	42101.56
539.94	42431.57
540.11	41790.27
540.28	42110.92
540.44	42532.22
540.61	42307.52
540.78	42237.31
540.95	42534.56
541.12	42066.45
541.29	42656.26
541.46	42473.70
541.62	43009.68
541.79	42986.28
541.96	42794.36
542.13	42656.26
542.30	42703.07
542.47	42831.80
542.63	43049.47
542.80	42808.40
542.97	43248.42
543.14	43337.36
543.31	43430.98
543.48	43665.03
543.64	43929.51
543.81	43784.40
543.98	43604.18
544.15	43643.97
544.32	43882.70
544.48	44114.42
544.65	43688.44
544.82	43768.02
544.99	43620.56
545.16	43578.43
545.32	43721.21
545.49	43971.64
545.66	44322.72
545.83	44133.14
546.00	44278.25
546.16	44376.56
546.33	43526.94
546.50	43962.28
546.67	44175.27
546.83	43571.41
547.00	43971.64
547.17	43672.06
547.34	43405.23
547.50	43917.81
547.67	44311.02
547.84	44083.99
548.00	44322.72
548.17	44540.39
548.34	44662.10
548.51	44484.22
548.67	44498.26
548.84	44318.04
549.01	44439.75
549.18	44025.48
549.34	44495.92
549.51	44889.13
549.68	44945.31
549.84	44816.58
550.01	44921.90
550.18	44507.63
550.34	44774.45
550.51	44505.29
550.68	44392.94
550.84	44676.15
551.01	44575.50
551.18	44598.91
551.34	44746.36
551.51	45137.23
551.68	44856.37
551.84	45050.63
552.01	44732.32
552.18	45212.13
552.34	44692.53
552.51	44699.55
552.68	44907.86
552.84	45263.62
553.01	45003.82
553.18	44500.61
553.34	45326.81
553.51	44706.57
553.67	45144.25
553.84	45804.28
554.01	45425.12
554.17	46038.34
554.34	45677.90
554.51	45380.65
554.67	45429.80
554.84	45633.42
555.00	45247.24
555.17	45193.40
555.33	45235.53
555.50	45603.00
555.67	45687.26
555.83	45329.16
556.00	45497.67
556.16	45893.22
556.33	45476.61
556.50	45202.77
556.66	45804.28
556.83	45209.79
556.99	46061.74
557.16	45450.86
557.32	45858.12
557.49	45741.09
557.65	45305.75
557.82	45951.74
557.98	45614.70
558.15	45911.95
558.32	46050.04
558.48	45815.99
558.65	45745.77
558.81	45715.34
558.98	45762.15
559.14	45867.48
559.31	45918.97
559.47	45902.59
559.64	46024.29
559.80	45593.64
559.97	45874.50
560.13	46263.03
560.30	46239.62
560.46	45942.38
560.63	46054.72
560.79	46082.81
560.96	46459.63
561.12	46068.76
561.29	46157.70
561.45	46113.23
561.61	46021.95
561.78	46284.09
561.94	45933.01
562.11	45862.80
562.27	45841.73
562.44	46391.76
562.60	46148.34
562.77	46171.75
562.93	45954.08
563.10	46550.91
563.26	45727.05
563.42	46204.52
563.59	45869.82
563.75	46246.65
563.92	46433.89
564.08	46621.13
564.24	46501.76
564.41	46043.02
564.57	46316.86
564.74	46199.83
564.90	46213.88
565.07	46146.00
565.23	46534.53
565.39	46436.23
565.56	46291.12
565.72	45933.01
565.88	46539.21
566.05	46092.17
566.21	46586.02
566.38	46223.24
566.54	46422.19
566.70	46569.64
566.87	46691.35
567.03	46747.52
567.19	47075.19
567.36	46894.97
567.52	46651.56
567.68	46686.67
567.85	46291.12
568.01	46595.38
568.17	46583.68
568.34	46525.17
568.50	46398.78
568.66	46728.80
568.83	46131.96
568.99	46108.55
569.15	46333.24
569.32	46674.96
569.48	46197.49
569.64	46614.11
569.81	46377.72
569.97	46263.03
570.13	46319.20
570.30	46148.34
570.46	45918.97
570.62	46150.68
570.78	46211.54
570.95	46464.32
571.11	46078.13
571.27	46588.36
571.43	46354.31
571.60	46808.37
571.76	46625.81
571.92	46380.06
572.09	46623.47
572.25	46403.46
572.41	46513.47
572.57	46564.96
572.74	46644.54
572.90	46787.31
573.06	46658.58
573.22	46710.07
573.38	46354.31
573.55	46333.24
573.71	46794.33
573.87	46813.05
574.03	46454.95
574.20	47009.66
574.36	46574.32
574.52	46518.15
574.68	46712.41
574.84	46604.75
575.01	46705.39
575.17	46899.65
575.33	46106.21
575.49	46426.87
575.65	46653.90
575.82	46588.36
575.98	46684.33
576.14	46979.23
576.30	47042.43
576.46	46616.45
576.62	46178.77
576.79	46902.00
576.95	46546.23
577.11	46806.03
577.27	46373.03
577.43	46391.76
577.59	46829.44
577.75	46169.41
577.92	46263.03
578.08	46349.63
578.24	46518.15
578.40	46728.80
578.56	46897.31
578.72	46356.65
578.88	46904.34
579.04	47140.73
579.21	46836.46
579.37	46866.89
579.53	46827.10
579.69	46454.95
579.85	46202.18
580.01	46717.09
580.17	46871.57
580.33	46972.21
580.49	47201.58
580.65	46642.20
580.82	46604.75
580.98	47049.45
581.14	46590.70
581.30	47182.86
581.46	46813.05
581.62	46848.16
581.78	46759.22
581.94	47119.66
582.10	47037.75
582.26	46707.73
582.42	46831.78
582.58	46834.12
582.74	46548.57
582.90	46944.12
583.06	46925.40
583.22	47037.75
583.38	46808.37
583.54	47313.93
583.70	46707.73
583.86	46817.74
584.02	46766.24
584.18	46564.96
584.34	46920.72
584.50	46646.88
584.66	46581.34
584.82	46567.30
584.98	46721.77
585.14	46902.00
585.30	46312.18
585.46	46586.02
585.62	46319.20
585.78	46199.83
585.94	46267.71
586.10	46672.62
586.26	46539.21
586.42	47030.72
586.58	46567.30
586.74	46892.63
586.90	46759.22
587.06	46632.83
587.22	47236.69
587.38	46663.26
587.54	46705.39
587.70	47269.46
587.86	46766.24
588.02	47086.90
588.18	46976.89
588.34	46506.44
588.49	46248.99
588.65	46309.84
588.81	46171.75
588.97	46405.80
589.13	46417.50
589.29	46639.86
589.45	46176.43
589.61	46700.71
589.77	47014.34
589.93	46728.80
