SpectraSuite Data File
++++++++++++++++++++++++++++++++++++
Date: Fri Oct 25 11:23:42 EDT 2013
User: price-jones
Dark Spectrum Present: No
Reference Spectrum Present: No
Number of Sampled Component Spectra: 1
Spectrometers: USB2+H05261
Integration Time (usec): 100000 (USB2+H05261)
Spectra Averaged: 1 (USB2+H05261)
Boxcar Smoothing: 0 (USB2+H05261)
Correct for Electrical Dark: No (USB2+H05261)
Strobe/Lamp Enabled: No (USB2+H05261)
Correct for Detector Non-linearity: No (USB2+H05261)
Correct for Stray Light: No (USB2+H05261)
Number of Pixels in Processed Spectrum: 2048
>>>>>Begin Processed Spectral Data<<<<<
365.73	180.22
365.92	180.22
366.12	180.22
366.32	102.98
366.52	156.82
366.72	147.45
366.91	107.66
367.11	72.56
367.31	102.98
367.51	154.48
367.70	39.79
367.90	107.66
368.10	91.28
368.30	126.39
368.49	117.03
368.69	184.90
368.89	133.41
369.09	145.11
369.28	152.13
369.48	194.26
369.68	140.43
369.87	140.43
370.07	152.13
370.27	163.84
370.47	304.27
370.66	561.73
370.86	620.24
371.06	587.47
371.25	681.10
371.45	671.73
371.65	662.37
371.84	631.94
372.04	704.50
372.24	688.12
372.44	690.46
372.63	765.36
372.83	774.72
373.03	730.25
373.22	732.59
373.42	798.12
373.62	763.01
373.81	734.93
374.01	725.57
374.21	798.12
374.40	795.78
374.60	791.10
374.79	748.97
374.99	866.00
375.19	788.76
375.38	858.98
375.58	814.51
375.78	793.44
375.97	830.89
376.17	903.45
376.37	828.55
376.56	901.11
376.76	882.38
376.95	805.14
377.15	896.43
377.35	919.83
377.54	910.47
377.74	954.94
377.93	952.60
378.13	894.08
378.33	917.49
378.52	959.62
378.72	940.90
378.91	926.85
379.11	891.74
379.31	957.28
379.50	929.19
379.70	868.34
379.89	964.30
380.09	901.11
380.28	947.92
380.48	980.68
380.68	968.98
380.87	1034.52
381.07	1022.81
381.26	1015.79
381.46	1029.84
381.65	943.24
381.85	1004.09
382.04	1078.99
382.24	1081.33
382.43	1013.45
382.63	1064.94
382.83	1034.52
383.02	1032.18
383.22	1174.95
383.41	1022.81
383.61	1100.05
383.80	1160.91
384.00	1095.37
384.19	1142.18
384.39	1149.20
384.58	1104.73
384.78	1100.05
384.97	1174.95
385.17	1217.08
385.36	1231.12
385.56	1198.35
385.75	1062.60
385.95	1163.25
386.14	1121.12
386.34	1121.12
386.53	1284.95
386.72	1137.50
386.92	1280.27
387.11	1172.61
387.31	1259.21
387.50	1235.80
387.70	1238.14
387.89	1341.13
388.09	1238.14
388.28	1210.06
388.48	1231.12
388.67	1282.61
388.86	1364.53
389.06	1270.91
389.25	1427.73
389.45	1350.49
389.64	1392.62
389.84	1411.34
390.03	1376.24
390.22	1385.60
390.42	1378.58
390.61	1315.38
390.81	1397.30
391.00	1437.09
391.19	1411.34
391.39	1385.60
391.58	1488.58
391.78	1425.39
391.97	1432.41
392.16	1561.14
392.36	1589.22
392.55	1610.29
392.75	1593.90
392.94	1526.03
393.13	1462.83
393.33	1533.05
393.52	1661.78
393.71	1575.18
393.91	1661.78
394.10	1659.44
394.29	1568.16
394.49	1668.80
394.68	1617.31
394.88	1706.25
395.07	1696.89
395.26	1645.40
395.46	1603.27
395.65	1680.50
395.84	1811.57
396.04	1764.76
396.23	1802.21
396.42	1771.79
396.62	1788.17
396.81	1818.60
397.00	1844.34
397.19	1792.85
397.39	1785.83
397.58	1874.77
397.77	1844.34
397.97	1863.07
398.16	1860.73
398.35	1994.14
398.55	1846.68
398.74	1940.30
398.93	1970.73
399.12	1846.68
399.32	1921.58
399.51	1881.79
399.70	1891.15
399.90	1907.54
400.09	1905.20
400.28	2029.24
400.47	1968.39
400.67	2106.48
400.86	2101.80
401.05	2146.27
401.24	2169.68
401.44	2197.76
401.63	2108.82
401.82	2155.63
402.01	2085.42
402.21	2251.60
402.40	2263.30
402.59	2291.38
402.78	2239.89
402.97	2209.47
403.17	2345.22
403.36	2352.24
403.55	2305.43
403.74	2242.23
403.93	2253.94
404.13	2382.67
404.32	2368.62
404.51	2253.94
404.70	2368.62
404.89	2502.03
405.09	2490.33
405.28	2509.05
405.47	2483.31
405.66	2619.06
405.85	2590.97
406.05	2579.27
406.24	2546.50
406.43	2609.70
406.62	2623.74
406.81	2630.76
407.00	2609.70
407.20	2497.35
407.39	2621.40
407.58	2731.41
407.77	2745.45
407.96	2775.88
408.15	2801.62
408.34	2722.04
408.54	2813.32
408.73	2799.28
408.92	2806.30
409.11	2860.13
409.30	2862.48
409.49	2963.12
409.68	2899.92
409.87	2897.58
410.07	2977.16
410.26	3049.72
410.45	2848.43
410.64	3016.95
410.83	3103.55
411.02	3098.87
411.21	3176.11
411.40	3117.59
411.59	3248.66
411.78	3248.66
411.98	3126.96
412.17	3229.94
412.36	3311.86
412.55	3265.05
412.74	3452.29
412.93	3410.16
413.12	3496.76
413.31	3508.46
413.50	3478.04
413.69	3438.25
413.88	3501.44
414.07	3576.34
414.26	3627.83
414.45	3705.07
414.64	3726.13
414.83	3684.00
415.02	3801.03
415.22	3805.71
415.41	4032.74
415.60	3894.65
415.79	3885.29
415.98	4063.17
416.17	3981.25
416.36	3925.08
416.55	4081.89
416.74	4154.45
416.93	3988.27
417.12	4173.18
417.31	4124.02
417.50	4304.25
417.69	4400.21
417.88	4248.07
418.07	4402.55
418.26	4245.73
418.45	4533.62
418.64	4505.53
418.83	4500.85
419.02	4430.63
419.21	4547.66
419.39	4479.79
419.58	4409.57
419.77	4402.55
419.96	4613.20
420.15	4596.81
420.34	4627.24
420.53	4697.46
420.72	4784.06
420.91	4545.32
421.10	4751.29
421.29	4718.52
421.48	4638.94
421.67	4744.27
421.86	4636.60
422.05	4971.30
422.24	4915.12
422.43	4847.25
422.61	4980.66
422.80	4877.68
422.99	4999.38
423.18	4917.47
423.37	4919.81
423.56	4894.06
423.75	5018.11
423.94	4861.29
424.13	4812.14
424.32	4809.80
424.50	4809.80
424.69	5057.90
424.88	5018.11
425.07	4786.40
425.26	4947.89
425.45	5034.49
425.64	4980.66
425.83	4978.32
426.01	5125.77
426.20	5034.49
426.39	5074.28
426.58	5280.25
426.77	5074.28
426.96	5102.37
427.15	5142.16
427.33	5420.68
427.52	5071.94
427.71	5235.78
427.90	5247.48
428.09	5195.99
428.28	5416.00
428.46	5420.68
428.65	5294.29
428.84	5507.28
429.03	5542.39
429.22	5205.35
429.40	5327.06
429.59	5504.94
429.78	5301.31
429.97	5224.08
430.16	5497.92
430.34	5661.76
430.53	5603.24
430.72	5603.24
430.91	5493.24
431.10	5631.33
431.28	5865.38
431.47	5837.30
431.66	5874.74
431.85	5795.17
432.03	5832.62
432.22	5975.39
432.41	5949.64
432.60	5919.21
432.79	6008.16
432.97	5977.73
433.16	6211.78
433.35	6047.94
433.54	6169.65
433.72	6214.12
433.91	6118.16
434.10	6059.65
434.28	6146.25
434.47	6305.40
434.66	6239.87
434.85	6401.37
435.03	6340.51
435.22	6235.19
435.41	6389.66
435.59	6429.45
435.78	6576.91
435.97	6569.88
436.16	6499.67
436.34	6303.06
436.53	6480.94
436.72	6745.42
436.90	6471.58
437.09	6541.80
437.28	6616.69
437.46	6555.84
437.65	6766.49
437.84	6724.36
438.02	6796.92
438.21	6766.49
438.40	6684.57
438.58	7145.66
438.77	7030.97
438.96	7002.88
439.14	7250.98
439.33	7225.23
439.52	7194.81
439.70	7375.03
439.89	7150.34
440.08	7391.41
440.26	7222.89
440.45	7421.84
440.63	7581.00
440.82	7562.27
441.01	7613.76
441.19	7573.97
441.38	7803.35
441.57	7742.49
441.75	7838.45
441.94	8088.89
442.12	8077.19
442.31	7967.18
442.50	8222.30
442.68	8056.12
442.87	8028.04
443.05	8194.22
443.24	8273.79
443.43	8203.58
443.61	8105.28
443.80	8351.03
443.98	8149.75
444.17	7955.48
444.35	8107.62
444.54	8159.11
444.73	8290.18
444.91	8404.86
445.10	8397.84
445.28	8229.32
445.47	8241.03
445.65	8299.54
445.84	8528.91
446.02	8313.58
446.21	8627.21
446.39	8559.34
446.58	8552.32
446.77	8596.79
446.95	8388.48
447.14	8458.70
447.32	8652.96
447.51	8510.19
447.69	8475.08
447.88	8442.31
448.06	8521.89
448.25	8557.00
448.43	8446.99
448.62	8587.43
448.80	8678.71
448.99	8652.96
449.17	8823.82
449.36	8610.83
449.54	8837.86
449.73	8971.27
449.91	9109.36
450.10	8980.64
450.28	9142.13
450.46	9207.67
450.65	9062.55
450.83	9076.60
451.02	9088.30
451.20	9357.46
451.39	9163.20
451.57	9397.25
451.76	8964.25
451.94	9032.13
452.13	9507.26
452.31	9312.99
452.49	9146.81
452.68	9369.16
452.86	9362.14
453.05	9437.04
453.23	9617.26
453.42	9224.05
453.60	9341.08
453.78	9727.27
453.97	9514.28
454.15	9266.18
454.34	9467.47
454.52	9710.88
454.70	9544.70
454.89	9792.80
455.07	10008.13
455.26	9928.55
455.44	10078.35
455.62	9933.23
455.81	9907.49
455.99	10200.05
456.17	10017.49
456.36	10157.92
456.54	10291.34
456.73	10539.43
456.91	10340.49
457.09	10445.81
457.28	10576.88
457.46	10593.26
457.64	10670.50
457.83	10541.77
458.01	10588.58
458.19	10682.20
458.38	10773.49
458.56	10745.40
458.74	10509.01
458.93	10525.39
459.11	10714.97
459.29	10611.99
459.48	10942.00
459.66	10995.84
459.84	10897.53
460.03	11173.72
460.21	11192.44
460.39	10977.11
460.57	10998.18
460.76	11082.44
460.94	11318.83
461.12	11227.55
461.31	11204.14
461.49	11164.36
461.67	11176.06
461.85	11389.05
462.04	11293.08
462.22	11559.91
462.40	11735.45
462.59	11576.29
462.77	11466.28
462.95	11733.11
463.13	11758.85
463.32	11791.62
463.50	12037.38
463.68	11854.81
463.86	11908.65
464.05	11679.27
464.23	11800.98
464.41	12123.98
464.59	11976.52
464.78	12025.67
464.96	12035.03
465.14	11948.43
465.32	12123.98
465.50	12145.04
465.69	12248.02
465.87	12051.42
466.05	12109.93
466.23	12219.94
466.41	12695.07
466.60	12592.08
466.78	12142.70
466.96	12123.98
467.14	12596.76
467.32	12493.78
467.51	12891.67
467.69	12353.35
467.87	12411.86
468.05	12690.38
468.23	12678.68
468.41	12631.87
468.60	12456.33
468.78	12844.86
468.96	12636.55
469.14	12802.73
469.32	12996.99
469.50	12695.07
469.69	13062.53
469.87	12985.29
470.05	13043.81
470.23	13149.13
470.41	13247.43
470.59	13284.88
470.77	13179.56
470.95	13294.24
471.14	13551.70
471.32	13074.23
471.50	13525.96
471.68	13851.29
471.86	13488.51
472.04	13748.31
472.22	13811.50
472.40	13851.29
472.58	13820.86
472.77	14075.98
472.95	14244.50
473.13	14675.16
473.31	14286.63
473.49	14235.14
473.67	14333.44
473.85	14576.86
474.03	14672.82
474.21	14635.37
474.39	14864.74
474.57	14726.65
474.75	15033.26
474.93	14979.43
475.12	14806.23
475.30	15243.91
475.48	15063.69
475.66	15459.24
475.84	15154.97
476.02	15426.47
476.20	15728.40
476.38	15625.42
476.56	16159.06
476.74	16091.18
476.92	16212.89
477.10	16079.48
477.28	16208.21
477.46	16329.92
477.64	16358.00
477.82	16851.86
478.00	17057.82
478.18	16819.09
478.36	16973.56
478.54	17186.55
478.72	17263.79
478.90	17675.73
479.08	17570.40
479.26	17444.01
479.44	17820.84
479.62	17717.86
479.80	18160.22
479.98	18555.77
480.16	18581.51
480.34	18387.25
480.52	18525.34
480.70	18579.17
480.88	18523.00
481.06	18878.76
481.24	18930.25
481.41	18923.23
481.59	19323.46
481.77	19513.05
481.95	19609.01
482.13	19857.10
482.31	19838.38
482.49	20692.68
482.67	20297.13
482.85	20493.73
483.03	20947.79
483.21	20790.98
483.39	21081.21
483.57	20769.91
483.74	21104.61
483.92	21568.04
484.10	21631.23
484.28	22026.78
484.46	22092.32
484.64	22284.24
484.82	22253.81
485.00	22703.20
485.18	22836.61
485.35	23276.63
485.53	22796.82
485.71	23089.38
485.89	23508.34
486.07	23559.83
486.25	23381.95
486.43	23969.43
486.61	24093.47
486.78	24189.44
486.96	24350.93
487.14	24533.50
487.32	25043.73
487.50	25095.22
487.68	25010.96
487.85	25249.70
488.03	25476.73
488.21	26054.84
488.39	25916.75
488.57	26469.12
488.75	26485.50
488.92	26967.65
489.10	27016.80
489.28	26829.56
489.46	27232.13
489.64	27185.32
489.81	27690.88
489.99	27583.21
490.17	27910.89
490.35	28411.76
490.53	28762.84
490.70	28524.11
490.88	28369.63
491.06	29186.48
491.24	29390.11
491.41	29242.65
491.59	29275.42
491.77	29443.94
491.95	29771.61
492.13	30026.73
492.30	30136.74
492.48	30359.09
492.66	30391.86
492.84	30876.35
493.01	30731.23
493.19	30457.39
493.37	31475.52
493.54	31016.78
493.72	31758.73
493.90	31168.91
494.08	31873.42
494.25	32290.03
494.43	31967.04
494.61	32556.85
494.79	32582.60
494.96	32868.14
495.14	33001.55
495.32	33345.61
495.49	33085.81
495.67	34057.14
495.85	33537.54
496.02	33795.00
496.20	34483.11
496.38	34366.09
496.55	34359.06
496.73	35257.83
496.91	34733.55
497.09	34471.41
497.26	35276.55
497.44	35208.68
497.62	35435.71
497.79	36018.50
497.97	35576.14
498.14	36163.62
498.32	36451.50
498.50	36126.17
498.67	36945.36
498.85	36697.26
499.03	36730.03
499.20	36697.26
499.38	37097.49
499.56	37350.27
499.73	37497.72
499.91	37820.72
500.08	37731.78
500.26	37605.39
500.44	37846.46
500.61	37780.93
500.79	37785.61
500.97	38731.18
501.14	39042.48
501.32	39082.27
501.49	38941.83
501.67	39150.14
501.84	39180.57
502.02	38838.85
502.20	39157.16
502.37	39103.33
502.55	39690.80
502.72	39730.59
502.90	39885.07
503.07	40053.59
503.25	39924.86
503.43	39899.11
503.60	40069.97
503.78	40514.67
503.95	40322.75
504.13	40512.33
504.30	40861.07
504.48	40554.46
504.65	40830.65
504.83	41034.27
505.01	41303.43
505.18	41202.79
505.36	41591.32
505.53	41486.00
505.71	41621.75
505.88	41614.72
506.06	41586.64
506.23	42387.10
506.41	41834.74
506.58	42272.42
506.76	42525.19
506.93	42412.85
507.11	42377.74
507.28	42892.66
507.46	42707.76
507.63	43428.64
507.81	43606.52
507.98	43068.20
508.16	43398.21
508.33	43594.82
508.50	43358.42
508.68	43878.02
508.85	43831.21
509.03	43786.74
509.20	44203.36
509.38	44453.79
509.55	44348.47
509.73	44570.82
509.90	44762.75
510.08	44121.44
510.25	44816.58
510.42	44975.73
510.60	45191.06
510.77	45081.06
510.95	45904.93
511.12	45478.95
511.30	44978.07
511.47	45525.76
511.64	45811.31
511.82	45965.78
511.99	45509.38
512.17	46117.92
512.34	45958.76
512.51	46857.52
512.69	46724.11
512.86	46625.81
513.04	46658.58
513.21	47077.54
513.38	46829.44
513.56	47372.44
513.73	47124.35
513.90	46806.03
514.08	46983.91
514.25	47585.43
514.43	47400.53
514.60	47388.83
514.77	47522.24
514.95	47870.98
515.12	47728.20
515.29	48088.65
515.47	48516.96
515.64	48325.04
515.81	47959.92
515.99	48715.91
516.16	48348.45
516.33	48165.88
516.51	48877.41
516.68	48877.41
516.85	48523.99
517.03	48959.33
517.20	48903.15
517.37	49095.08
517.54	49324.45
517.72	49113.80
517.89	49277.64
518.06	49354.88
518.24	49158.27
518.41	49748.09
518.58	49989.16
518.75	49331.47
518.93	49914.26
519.10	49649.78
519.27	49680.21
519.45	49914.26
519.62	50138.96
519.79	50110.87
519.96	50106.19
520.14	50426.84
520.31	50452.59
520.48	50312.16
520.65	50389.39
520.83	50625.79
521.00	51271.78
521.17	50850.48
521.34	50663.24
521.52	50885.59
521.69	51124.32
521.86	51131.34
522.03	51112.62
522.20	51320.93
522.38	51625.20
522.55	51316.25
522.72	51121.98
522.89	51278.80
523.07	52002.02
523.24	51805.42
523.41	51660.30
523.58	51529.23
523.75	52252.46
523.92	52123.73
524.10	52114.37
524.27	52500.56
524.44	51927.13
524.61	52226.71
524.78	52252.46
524.96	52404.59
525.13	52250.12
525.30	52662.05
525.47	52720.57
525.64	52493.54
525.81	52879.72
525.98	52842.27
526.16	52444.38
526.33	52783.76
526.50	53151.23
526.67	52856.32
526.84	53071.65
527.01	52893.77
527.18	53111.44
527.36	53073.99
527.53	52989.73
527.70	53624.01
527.87	53535.07
528.04	53315.06
528.21	53675.51
528.38	53764.45
528.55	53827.64
528.72	53626.35
528.89	53521.03
529.07	53708.27
529.24	53354.85
529.41	53794.87
529.58	53954.03
529.75	53874.45
529.92	53586.57
530.09	53886.15
530.26	54206.81
530.43	54293.41
530.60	53808.92
530.77	54085.10
530.94	54103.82
531.11	54068.72
531.28	54309.79
531.46	54405.75
531.63	54387.03
531.80	54300.43
531.97	54721.72
532.14	54660.87
532.31	54632.78
532.48	54616.40
532.65	55110.25
532.82	54578.95
532.99	54733.43
533.16	54791.94
533.33	54939.39
533.50	55028.34
533.67	54770.88
533.84	54705.34
534.01	54941.74
534.18	55161.75
534.35	55533.89
534.52	55416.86
534.69	55400.48
534.86	55501.12
535.03	55224.94
535.20	55341.97
535.37	55360.69
535.54	55498.78
535.71	55379.42
535.88	55632.19
536.05	55559.64
536.22	55718.79
536.38	55522.19
536.55	55473.04
536.72	55861.57
536.89	55477.72
537.06	55671.98
537.23	55934.12
537.40	55704.75
537.57	55718.79
537.74	56058.17
537.91	55952.85
538.08	56126.05
538.25	55807.73
538.42	56165.84
538.59	56463.08
538.75	56140.09
538.92	56189.24
539.09	56357.76
539.26	56343.72
539.43	56285.20
539.60	56280.52
539.77	56226.69
539.94	56505.21
540.11	56638.62
540.28	56498.19
540.44	56507.55
540.61	56535.64
540.78	56397.55
540.95	56612.88
541.12	56493.51
541.29	56360.10
541.46	56736.93
541.62	56926.51
541.79	56924.17
541.96	56671.39
542.13	56772.03
542.30	56839.91
542.47	56811.82
542.63	56727.56
542.80	57167.58
542.97	57158.22
543.14	57446.11
543.31	57212.06
543.48	57324.40
543.64	57389.94
543.81	57361.85
543.98	57446.11
544.15	57640.37
544.32	57591.22
544.48	57717.61
544.65	57441.43
544.82	57439.09
544.99	57413.34
545.16	57717.61
545.32	57595.90
545.49	57904.85
545.66	57846.34
545.83	57621.65
546.00	57829.96
546.16	57647.39
546.33	57551.43
546.50	57591.22
546.67	57874.43
546.83	57640.37
547.00	57851.02
547.17	57827.62
547.34	57773.78
547.50	58026.56
547.67	58129.54
547.84	57977.41
548.00	58192.74
548.17	58314.45
548.34	58291.04
548.51	58642.12
548.67	58422.11
548.84	58211.46
549.01	58405.73
549.18	58136.57
549.34	58258.27
549.51	58300.40
549.68	58394.03
549.84	58712.34
550.01	58707.66
550.18	58361.26
550.34	58555.52
550.51	58604.67
550.68	58557.86
550.84	58314.45
551.01	58803.62
551.18	58515.73
551.34	58534.46
551.51	58787.24
551.68	58742.77
551.84	58768.51
552.01	58508.71
552.18	58700.64
552.34	58660.85
552.51	58782.55
552.68	58672.55
552.84	58810.64
553.01	59016.61
553.18	58930.01
553.34	58962.78
553.51	58899.58
553.67	58925.33
553.84	58972.14
554.01	59133.63
554.17	59152.36
554.34	59107.89
554.51	59032.99
554.67	59152.36
554.84	59128.95
555.00	59058.74
555.17	59138.32
555.33	59236.62
555.50	59021.29
555.67	59344.28
555.83	59248.32
556.00	59220.23
556.16	59381.73
556.33	59559.61
556.50	59358.33
556.66	59512.80
556.83	59400.46
556.99	59517.48
557.16	59629.83
557.32	59636.85
557.49	59786.64
557.65	59477.69
557.82	59409.82
557.98	59498.76
558.15	59604.08
558.32	59723.45
558.48	59407.48
558.65	59695.36
558.81	59501.10
558.98	59796.01
559.14	59779.62
559.31	59671.96
559.47	59868.56
559.64	59625.15
559.80	59852.18
559.97	60030.06
560.13	59798.35
560.30	59838.14
560.46	59856.86
560.63	59877.93
560.79	59934.10
560.96	60013.68
561.12	59784.30
561.29	59990.27
561.45	59908.35
561.61	59788.98
561.78	59894.31
561.94	60069.85
562.11	59779.62
562.27	60090.91
562.44	60001.97
562.60	59936.44
562.77	60016.02
562.93	59730.47
563.10	60219.64
563.26	59957.50
563.42	60413.91
563.59	59934.10
563.75	60189.22
563.92	60069.85
564.08	60060.49
564.24	60329.65
564.41	60399.86
564.57	60327.31
564.74	60231.35
564.90	60177.51
565.07	60296.88
565.23	60324.97
565.39	60252.41
565.56	60537.96
565.72	60392.84
565.88	60357.74
566.05	60310.92
566.21	60315.61
566.38	60299.22
566.54	60065.17
566.70	60507.53
566.87	60409.23
567.03	60430.29
567.19	60563.70
567.36	60615.19
567.52	60378.80
567.68	60687.75
567.85	60350.71
568.01	60474.76
568.17	60474.76
568.34	60697.11
568.50	60664.35
568.66	60477.10
568.83	60652.64
568.99	60395.18
569.15	60437.31
569.32	60636.26
569.48	60456.04
569.64	60577.75
569.81	60643.28
569.97	60542.64
570.13	60650.30
570.30	60474.76
570.46	60561.36
570.62	60673.71
570.78	60542.64
570.95	60598.81
571.11	60807.12
571.27	60633.92
571.43	60795.42
571.60	60708.82
571.76	60554.34
571.92	60643.28
572.09	60720.52
572.25	60779.03
572.41	60608.17
572.57	60516.89
572.74	60776.69
572.90	60678.39
573.06	60825.84
573.22	60530.93
573.38	60729.88
573.55	60701.79
573.71	60914.78
573.87	60718.18
574.03	60678.39
574.20	60729.88
574.36	60884.36
574.52	60903.08
574.68	61036.49
574.84	60926.49
575.01	60928.83
575.17	60814.14
575.33	60690.09
575.49	60893.72
575.65	61010.74
575.82	60933.51
575.98	60823.50
576.14	60956.91
576.30	60919.46
576.46	60746.26
576.62	60870.31
576.79	61078.62
576.95	60760.31
577.11	61109.05
577.27	60954.57
577.43	60882.02
577.59	60636.26
577.75	61055.21
577.92	60882.02
578.08	60788.39
578.24	60879.67
578.40	61226.07
578.56	60989.68
578.72	60975.64
578.88	61085.64
579.04	61078.62
579.21	61008.40
579.37	61172.24
579.53	61125.43
579.69	60846.91
579.85	60933.51
580.01	60996.70
580.17	61008.40
580.33	61095.00
580.49	61172.24
580.65	60914.78
580.82	61013.08
580.98	61048.19
581.14	60811.80
581.30	61038.83
581.46	60987.34
581.62	61090.32
581.78	60961.59
581.94	61125.43
582.10	61062.24
582.26	60898.40
582.42	60942.87
582.58	60844.57
582.74	60865.63
582.90	61020.11
583.06	60956.91
583.22	60910.10
583.38	61048.19
583.54	61029.47
583.70	61197.99
583.86	61144.16
584.02	61153.52
584.18	61254.16
584.34	61043.51
584.50	61169.90
584.66	60931.17
584.82	60886.70
584.98	61244.80
585.14	61155.86
585.30	60842.23
585.46	61151.18
585.62	60989.68
585.78	61319.70
585.94	60994.36
586.10	61127.77
586.26	61207.35
586.42	61078.62
586.58	61286.93
586.74	61029.47
586.90	61043.51
587.06	61242.46
587.22	61233.10
587.38	61099.68
587.54	61207.35
587.70	60975.64
587.86	61141.81
588.02	61027.13
588.18	61223.73
588.34	61087.98
588.49	61307.99
