SpectraSuite Data File
++++++++++++++++++++++++++++++++++++
Date: Fri Oct 25 10:48:08 EDT 2013
User: price-jones
Dark Spectrum Present: No
Reference Spectrum Present: No
Number of Sampled Component Spectra: 1
Spectrometers: USB2+H05261
Integration Time (usec): 100000 (USB2+H05261)
Spectra Averaged: 1 (USB2+H05261)
Boxcar Smoothing: 0 (USB2+H05261)
Correct for Electrical Dark: No (USB2+H05261)
Strobe/Lamp Enabled: No (USB2+H05261)
Correct for Detector Non-linearity: No (USB2+H05261)
Correct for Stray Light: No (USB2+H05261)
Number of Pixels in Processed Spectrum: 2048
>>>>>Begin Processed Spectral Data<<<<<
365.73	166.18
365.92	166.18
366.12	166.18
366.32	58.51
366.52	51.49
366.72	30.43
366.91	0.00
367.11	79.58
367.31	21.06
367.51	56.17
367.70	49.15
367.90	77.24
368.10	46.81
368.30	0.00
368.49	53.83
368.69	51.49
368.89	7.02
369.09	0.00
369.28	168.52
369.48	86.60
369.68	110.01
369.87	72.56
370.07	51.49
370.27	131.07
370.47	131.07
370.66	290.23
370.86	360.44
371.06	407.25
371.25	517.26
371.45	491.51
371.65	491.51
371.84	442.36
372.04	362.78
372.24	484.49
372.44	486.83
372.63	500.87
372.83	449.38
373.03	477.47
373.22	571.09
373.42	486.83
373.62	442.36
373.81	517.26
374.01	566.41
374.21	573.43
374.40	461.09
374.60	603.86
374.79	526.62
374.99	547.69
375.19	496.19
375.38	573.43
375.58	601.52
375.78	545.34
375.97	606.20
376.17	599.18
376.37	540.66
376.56	580.45
376.76	547.69
376.95	580.45
377.15	596.84
377.35	645.99
377.54	627.26
377.74	664.71
377.93	557.05
378.13	582.79
378.33	674.07
378.52	587.47
378.72	634.29
378.91	690.46
379.11	589.82
379.31	653.01
379.50	648.33
379.70	627.26
379.89	580.45
380.09	610.88
380.28	702.16
380.48	699.82
380.68	713.86
380.87	737.27
381.07	669.39
381.26	667.05
381.46	585.13
381.65	653.01
381.85	657.69
382.04	697.48
382.24	624.92
382.43	683.44
382.63	617.90
382.83	702.16
383.02	723.23
383.22	767.70
383.41	753.65
383.61	690.46
383.80	697.48
384.00	690.46
384.19	660.03
384.39	704.50
384.58	695.14
384.78	723.23
384.97	667.05
385.17	709.18
385.36	751.31
385.56	697.48
385.75	744.29
385.95	842.59
386.14	788.76
386.34	807.48
386.53	830.89
386.72	781.74
386.92	889.40
387.11	812.17
387.31	856.64
387.50	868.34
387.70	781.74
387.89	779.40
388.09	830.89
388.28	748.97
388.48	844.93
388.67	812.17
388.86	849.61
389.06	844.93
389.25	828.55
389.45	882.38
389.64	763.01
389.84	947.92
390.03	903.45
390.22	844.93
390.42	910.47
390.61	896.43
390.81	908.13
391.00	959.62
391.19	917.49
391.39	936.21
391.58	964.30
391.78	1018.13
391.97	884.72
392.16	1039.20
392.36	990.05
392.55	990.05
392.75	990.05
392.94	861.32
393.13	940.90
393.33	915.15
393.52	903.45
393.71	1069.62
393.91	1015.79
394.10	952.60
394.29	1039.20
394.49	973.66
394.68	1001.75
394.88	1102.39
395.07	1144.52
395.26	1081.33
395.46	1151.54
395.65	1217.08
395.84	1107.07
396.04	1158.57
396.23	1181.97
396.42	1130.48
396.62	1179.63
396.81	1097.71
397.00	1062.60
397.19	1172.61
397.39	1163.25
397.58	1238.14
397.77	1146.86
397.97	1174.95
398.16	1282.61
398.35	1315.38
398.55	1252.19
398.74	1331.76
398.93	1322.40
399.12	1280.27
399.32	1294.32
399.51	1299.00
399.70	1249.85
399.90	1439.43
400.09	1420.71
400.28	1425.39
400.47	1427.73
400.67	1420.71
400.86	1380.92
401.05	1352.83
401.24	1416.02
401.44	1507.30
401.63	1446.45
401.82	1394.96
402.01	1423.05
402.21	1462.83
402.40	1519.01
402.59	1514.33
402.78	1495.60
402.97	1469.86
403.17	1586.88
403.36	1488.58
403.55	1465.18
403.74	1516.67
403.93	1650.08
404.13	1563.48
404.32	1614.97
404.51	1556.46
404.70	1638.38
404.89	1645.40
405.09	1760.08
405.28	1699.23
405.47	1692.21
405.66	1743.70
405.85	1802.21
406.05	1713.27
406.24	1741.36
406.43	1792.85
406.62	1830.30
406.81	1832.64
407.00	1825.62
407.20	1809.23
407.39	1795.19
407.58	1839.66
407.77	1942.64
407.96	1982.43
408.15	1959.03
408.34	1865.41
408.54	1928.60
408.73	1944.99
408.92	1984.77
409.11	2003.50
409.30	1980.09
409.49	1989.46
409.68	1961.37
409.87	1987.11
410.07	2066.69
410.26	2106.48
410.45	2106.48
410.64	2069.03
410.83	2183.72
411.02	2202.44
411.21	2359.26
411.40	2207.13
411.59	2232.87
411.78	2209.47
411.98	2352.24
412.17	2342.88
412.36	2214.15
412.55	2410.75
412.74	2403.73
412.93	2415.43
413.12	2352.24
413.31	2452.88
413.50	2504.37
413.69	2286.70
413.88	2443.52
414.07	2441.18
414.26	2637.78
414.45	2502.03
414.64	2679.91
414.83	2766.51
415.02	2780.56
415.22	2717.36
415.41	2679.91
415.60	2628.42
415.79	2759.49
415.98	2792.26
416.17	2773.53
416.36	2722.04
416.55	2897.58
416.74	2764.17
416.93	2906.95
417.12	2935.03
417.31	2803.96
417.50	2803.96
417.69	3047.38
417.88	3070.78
418.07	3033.33
418.26	3000.57
418.45	3089.51
418.64	3171.43
418.83	3082.49
419.02	3112.91
419.21	3129.30
419.39	3112.91
419.58	3138.66
419.77	2981.84
419.96	3192.49
420.15	3243.98
420.34	3255.69
420.53	3328.24
420.72	3222.92
420.91	3396.12
421.10	3253.34
421.29	3419.52
421.48	3330.58
421.67	3440.59
421.86	3442.93
422.05	3461.65
422.24	3400.80
422.43	3297.81
422.61	3281.43
422.80	3578.68
422.99	3508.46
423.18	3522.51
423.37	3541.23
423.56	3496.76
423.75	3449.95
423.94	3351.65
424.13	3251.00
424.32	3428.88
424.50	3517.83
424.69	3562.30
424.88	3576.34
425.07	3592.72
425.26	3506.12
425.45	3445.27
425.64	3503.78
425.83	3581.02
426.01	3552.93
426.20	3566.98
426.39	3627.83
426.58	3543.57
426.77	3637.19
426.96	3602.08
427.15	3571.66
427.33	3592.72
427.52	3463.99
427.71	3595.06
427.90	3611.45
428.09	3756.56
428.28	3709.75
428.46	3712.09
428.65	3644.21
428.84	3866.56
429.03	3761.24
429.22	3653.58
429.40	3775.28
429.59	3772.94
429.78	3564.64
429.97	3613.79
430.16	3616.13
430.34	3887.63
430.53	3936.78
430.72	4014.02
430.91	3744.86
431.10	3782.31
431.28	4030.40
431.47	4086.58
431.66	4053.81
431.85	3981.25
432.03	4044.45
432.22	4133.39
432.41	4241.05
432.60	4145.09
432.79	4191.90
432.97	4194.24
433.16	4149.77
433.35	4278.50
433.54	4189.56
433.72	4168.49
433.91	4252.75
434.10	4215.30
434.28	4355.74
434.47	4191.90
434.66	4348.72
434.85	4320.63
435.03	4320.63
435.22	4458.72
435.41	4540.64
435.59	4535.96
435.78	4376.80
435.97	4355.74
436.16	4578.09
436.34	4547.66
436.53	4489.15
436.72	4568.73
436.90	4379.14
437.09	4545.32
437.28	4435.32
437.46	4648.30
437.65	4484.47
437.84	4671.71
438.02	4575.75
438.21	4685.75
438.40	4531.28
438.58	4816.82
438.77	4772.35
438.96	4723.20
439.14	4887.04
439.33	4898.74
439.52	4795.76
439.70	5191.31
439.89	5064.92
440.08	5125.77
440.26	5231.10
440.45	5125.77
440.63	5118.75
440.82	5195.99
441.01	5195.99
441.19	5294.29
441.38	5369.19
441.57	5373.87
441.75	5486.22
441.94	5502.60
442.12	5350.46
442.31	5593.88
442.50	5614.95
442.68	5486.22
442.87	5657.07
443.05	5516.64
443.24	5607.92
443.43	5540.05
443.61	5671.12
443.80	5811.55
443.98	5612.60
444.17	5561.11
444.35	5734.31
444.54	5916.87
444.73	5799.85
444.91	5790.49
445.10	5734.31
445.28	5558.77
445.47	5612.60
445.65	5680.48
445.84	5809.21
446.02	5706.23
446.21	5797.51
446.39	5891.13
446.58	5846.66
446.77	5750.70
446.95	5860.70
447.14	5832.62
447.32	6003.47
447.51	5949.64
447.69	5980.07
447.88	5970.71
448.06	6012.84
448.25	5872.40
448.43	5844.32
448.62	5956.66
448.80	5980.07
448.99	5926.24
449.17	5991.77
449.36	5905.17
449.54	6071.35
449.73	6010.50
449.91	6141.57
450.10	6399.02
450.28	6352.21
450.46	6333.49
450.65	6305.40
450.83	6300.72
451.02	6279.66
451.20	6363.92
451.39	6406.05
451.57	6300.72
451.76	6452.86
451.94	6361.58
452.13	6443.49
452.31	6361.58
452.49	6155.61
452.68	6480.94
452.86	6413.07
453.05	6289.02
453.23	6516.05
453.42	6377.96
453.60	6445.84
453.78	6588.61
453.97	6490.31
454.15	6480.94
454.34	6551.16
454.52	6691.59
454.70	6607.33
454.89	6778.19
455.07	6647.12
455.26	6715.00
455.44	6710.32
455.62	6778.19
455.81	6729.04
455.99	6958.41
456.17	6939.69
456.36	6848.41
456.54	7054.37
456.73	6988.84
456.91	7206.51
457.09	7176.08
457.28	7384.39
457.46	7185.44
457.64	7075.44
457.83	7094.16
458.01	7016.93
458.19	7332.90
458.38	7246.30
458.56	7265.02
458.74	7346.94
458.93	7262.68
459.11	7368.01
459.29	7428.86
459.48	7311.83
459.66	7234.60
459.84	7424.18
460.03	7417.16
460.21	7564.61
460.39	7489.71
460.57	7442.90
460.76	7623.12
460.94	7475.67
461.12	7513.12
461.31	7623.12
461.49	7531.84
461.67	7625.47
461.85	7784.62
462.04	7758.88
462.22	8067.83
462.40	7662.91
462.59	7793.98
462.77	7817.39
462.95	8037.40
463.13	7847.82
463.32	7836.11
463.50	7999.95
463.68	8093.57
463.86	8131.02
464.05	7896.97
464.23	7936.76
464.41	8060.80
464.59	7939.10
464.78	8147.40
464.96	8142.72
465.14	8004.63
465.32	8306.56
465.50	8203.58
465.69	8149.75
465.87	8128.68
466.05	8205.92
466.23	8203.58
466.41	8142.72
466.60	8369.76
466.78	8236.35
466.96	8093.57
467.14	8428.27
467.32	8409.54
467.51	8461.04
467.69	8112.30
467.87	8271.45
468.05	8587.43
468.23	8641.26
468.41	8446.99
468.60	8353.37
468.78	8531.25
468.96	8575.72
469.14	8606.15
469.32	8753.60
469.50	8482.10
469.69	8711.47
469.87	8753.60
470.05	8777.01
470.23	8601.47
470.41	8690.41
470.59	9144.47
470.77	8751.26
470.95	9013.40
471.14	8945.53
471.32	8926.80
471.50	9310.65
471.68	8964.25
471.86	9111.71
472.04	9242.78
472.22	9586.83
472.40	9085.96
472.58	9231.07
472.77	9338.74
472.95	9589.17
473.13	9666.41
473.31	9284.91
473.49	9458.10
473.67	9423.00
473.85	9628.96
474.03	9699.18
474.21	9818.55
474.39	9521.30
474.57	9788.12
474.75	9987.07
474.93	10059.62
475.12	10090.05
475.30	10174.31
475.48	9982.38
475.66	10310.06
475.84	10099.41
476.02	10370.91
476.20	10188.35
476.38	10427.09
476.56	10623.69
476.74	10705.61
476.92	10565.18
477.10	10693.91
477.28	10885.83
477.46	10780.51
477.64	11019.24
477.82	11019.24
478.00	11187.76
478.18	11234.57
478.36	11154.99
478.54	11363.30
478.72	11440.54
478.90	11655.87
479.08	11866.52
479.26	11721.40
479.44	11871.20
479.62	11777.58
479.80	11768.21
479.98	12112.27
480.16	12229.30
480.34	11871.20
480.52	12273.77
480.70	12276.11
480.88	12170.79
481.06	12173.13
481.24	12191.85
481.41	12582.72
481.59	12769.96
481.77	12755.92
481.95	13027.42
482.13	12882.31
482.31	13128.06
482.49	13284.88
482.67	13132.75
482.85	13226.37
483.03	13535.32
483.21	13659.37
483.39	13844.27
483.57	13947.25
483.74	13816.18
483.92	14188.33
484.10	14015.13
484.28	14141.52
484.46	14473.87
484.64	14518.34
484.82	14366.21
485.00	14508.98
485.18	14707.93
485.35	15016.88
485.53	14803.89
485.71	14778.14
485.89	15197.10
486.07	15295.40
486.25	15302.42
486.43	15234.55
486.61	15545.84
486.78	15810.32
486.96	15798.62
487.14	15955.43
487.32	16339.28
487.50	16079.48
487.68	16402.47
487.85	16561.63
488.03	16786.32
488.21	16755.90
488.39	16933.78
488.57	16945.48
488.75	16779.30
488.92	17139.74
489.10	17153.79
489.28	17305.92
489.46	17729.56
489.64	17788.07
489.81	17891.06
489.99	18237.45
490.17	18307.67
490.35	18455.12
490.53	18366.18
490.70	18478.53
490.88	18459.81
491.06	18991.11
491.24	18590.88
491.41	18871.74
491.59	19033.24
491.77	19063.66
491.95	19412.40
492.13	19157.28
492.30	19594.96
492.48	19510.71
492.66	19810.29
492.84	19686.25
493.01	20032.65
493.19	20002.22
493.37	20231.59
493.54	20203.50
493.72	20755.87
493.90	20250.32
494.08	20613.10
494.25	21027.37
494.43	20861.19
494.61	21390.16
494.79	21184.19
494.96	21280.15
495.14	21156.10
495.32	21647.61
495.49	21661.66
495.67	21811.45
495.85	21448.67
496.02	21898.05
496.20	21806.77
496.38	22111.04
496.55	22087.64
496.73	22548.72
496.91	22286.58
497.09	22501.91
497.26	22836.61
497.44	22597.87
497.62	22944.27
497.79	23190.03
497.97	22890.44
498.14	23119.81
498.32	23491.96
498.50	23246.20
498.67	23496.64
498.85	24077.09
499.03	24020.92
499.20	23770.48
499.38	23969.43
499.56	24173.05
499.73	24437.53
499.91	24446.90
500.08	24369.66
500.26	24119.22
500.44	24554.56
500.61	24435.19
500.79	24493.71
500.97	24659.88
501.14	24779.25
501.32	24980.54
501.49	24954.79
501.67	25233.32
501.84	25259.06
502.02	25385.45
502.20	25731.85
502.37	25523.54
502.55	25694.40
502.72	25523.54
502.90	25549.29
503.07	25483.75
503.25	25582.06
503.43	25469.71
503.60	26101.65
503.78	26064.21
503.95	26068.89
504.13	26001.01
504.30	26190.59
504.48	26139.10
504.65	26279.54
504.83	26518.27
505.01	26782.75
505.18	26682.11
505.36	27335.12
505.53	27005.10
505.71	27035.53
505.88	27154.90
506.06	26869.35
506.23	26939.57
506.41	27058.93
506.58	27094.04
506.76	27704.92
506.93	27545.76
507.11	27501.29
507.28	27545.76
507.46	27749.39
507.63	27618.32
507.81	27960.04
507.98	27835.99
508.16	27765.78
508.33	28009.19
508.50	28322.82
508.68	28149.62
508.85	28678.58
509.03	28477.30
509.20	28453.89
509.38	28442.19
509.55	29193.50
509.73	29134.99
509.90	28807.31
510.08	28650.50
510.25	28929.02
510.42	29174.78
510.60	29273.08
510.77	29287.12
510.95	29460.32
511.12	29701.40
511.30	29418.19
511.47	29806.72
511.64	29507.13
511.82	29598.41
511.99	29596.07
512.17	29909.71
512.34	29701.40
512.51	30302.92
512.69	30419.94
512.86	29830.13
513.04	30558.03
513.21	30426.96
513.38	30405.90
513.56	30466.75
513.73	30218.66
513.90	30682.08
514.08	30508.88
514.25	30539.31
514.43	30548.67
514.60	31023.80
514.77	30979.33
514.95	31154.87
515.12	31063.59
515.29	31077.63
515.47	31250.83
515.64	31194.66
515.81	31133.81
515.99	31419.35
516.16	31321.05
516.33	31346.79
516.51	31627.66
516.68	31285.94
516.85	31297.64
517.03	31611.28
517.20	31686.17
517.37	31482.55
517.54	32261.94
517.72	31637.02
517.89	31985.76
518.06	31833.63
518.24	32098.11
518.41	31885.12
518.58	32018.53
518.75	32044.27
518.93	32545.15
519.10	32301.73
519.27	32474.93
519.45	32577.92
519.62	32851.76
519.79	32662.18
519.96	32999.21
520.14	33467.32
520.31	32788.56
520.48	33326.89
520.65	33167.73
520.83	33523.49
521.00	33390.08
521.17	33193.48
521.34	33186.46
521.52	33603.07
521.69	33457.96
521.86	34012.66
522.03	33874.57
522.20	33717.76
522.38	33839.47
522.55	33912.02
522.72	34022.03
522.89	33790.31
523.07	34087.56
523.24	33495.41
523.41	34415.24
523.58	33773.93
523.75	34410.56
523.92	34515.88
524.10	34780.36
524.27	34572.05
524.44	34691.42
524.61	34569.71
524.78	34763.98
524.96	34834.19
525.13	34829.51
525.30	34937.18
525.47	35079.95
525.64	35227.40
525.81	35421.67
525.98	35278.89
526.16	34998.03
526.33	35150.17
526.50	35433.37
526.67	35211.02
526.84	35538.69
527.01	35157.19
527.18	35519.97
527.36	35505.93
527.53	35608.91
527.70	35756.36
527.87	36018.50
528.04	35456.78
528.21	35779.77
528.38	35892.12
528.55	35950.63
528.72	36126.17
528.89	36294.69
529.07	36011.48
529.24	36217.45
529.41	36275.96
529.58	35901.48
529.75	36037.23
529.92	36453.84
530.09	36734.71
530.26	36568.53
530.43	36875.14
530.60	36470.23
530.77	36371.92
530.94	36683.22
531.11	36678.54
531.28	36987.49
531.46	37177.07
531.63	37003.87
531.80	37373.67
531.97	37060.04
532.14	36624.70
532.31	36638.75
532.48	37251.97
532.65	37380.70
532.82	37399.42
532.99	37340.91
533.16	36821.31
533.33	37546.87
533.50	37399.42
533.67	37394.74
533.84	37394.74
534.01	37755.18
534.18	37296.44
534.35	37806.67
534.52	37958.81
534.69	37858.17
534.86	37675.60
535.03	37448.57
535.20	38139.03
535.37	38050.09
535.54	38267.76
535.71	37675.60
535.88	38045.41
536.05	38335.63
536.22	38089.88
536.38	38295.85
536.55	38267.76
536.72	38354.36
536.89	38150.73
537.06	38550.96
537.23	38499.47
537.40	38714.80
537.57	38387.13
537.74	38843.53
537.91	38864.60
538.08	38656.29
538.25	38361.38
538.42	38876.30
538.59	39023.75
538.75	38532.24
538.92	38698.42
539.09	39122.05
539.26	38944.17
539.43	38878.64
539.60	38897.36
539.77	39019.07
539.94	38761.61
540.11	38878.64
540.28	39126.74
540.44	38895.02
540.61	38902.04
540.78	39091.63
540.95	39185.25
541.12	39159.50
541.29	39374.83
541.46	39276.53
541.62	39505.90
541.79	39463.77
541.96	39309.30
542.13	39690.80
542.30	39585.48
542.47	39655.70
542.63	40065.29
542.80	40091.04
542.97	40512.33
543.14	40250.19
543.31	40428.07
543.48	40407.01
543.64	40893.84
543.81	40133.17
543.98	40404.67
544.15	39866.34
544.32	40453.82
544.48	40968.74
544.65	40940.65
544.82	40617.66
544.99	40360.20
545.16	40507.65
545.32	40514.67
545.49	40851.71
545.66	40699.58
545.83	40629.36
546.00	40807.24
546.16	40781.49
546.33	40657.45
546.50	40327.43
546.67	40858.73
546.83	40542.76
547.00	41148.96
547.17	41268.33
547.34	41230.88
547.50	41071.72
547.67	41432.16
547.84	41289.39
548.00	41137.26
548.17	41165.34
548.34	41221.52
548.51	41514.08
548.67	41343.22
548.84	41521.10
549.01	40854.05
549.18	41647.49
549.34	41827.71
549.51	41432.16
549.68	41663.88
549.84	41778.56
550.01	41869.84
550.18	41579.62
550.34	41549.19
550.51	41226.20
550.68	41764.52
550.84	41443.87
551.01	42155.39
551.18	41872.18
551.34	41848.78
551.51	41565.57
551.68	41893.25
551.84	41771.54
552.01	41921.34
552.18	41918.99
552.34	41652.17
552.51	42356.67
552.68	42026.66
552.84	42319.23
553.01	42405.83
553.18	42188.16
553.34	42167.09
553.51	42000.91
553.67	42178.79
553.84	42766.27
554.01	42602.43
554.17	42682.01
554.34	42698.39
554.51	42417.53
554.67	42628.18
554.84	42476.04
555.00	41923.68
555.17	42124.96
555.33	42440.93
555.50	42497.11
555.67	42508.81
555.83	42721.80
556.00	42543.92
556.16	42899.68
556.33	42988.62
556.50	42731.16
556.66	42852.87
556.83	42817.76
556.99	43168.84
557.16	42876.27
557.32	42934.79
557.49	42815.42
557.65	42770.95
557.82	42813.08
557.98	42815.42
558.15	42920.74
558.32	43213.31
558.48	42972.24
558.65	43304.59
558.81	43365.45
558.98	43040.11
559.14	43320.98
559.31	42995.64
559.47	42883.30
559.64	43540.99
559.80	43112.67
559.97	43395.87
560.13	43136.07
560.30	43487.15
560.46	43594.82
560.63	43232.04
560.79	43014.37
560.96	43646.31
561.12	43232.04
561.29	43433.32
561.45	43428.64
561.61	43115.01
561.78	42864.57
561.94	43040.11
562.11	43632.27
562.27	43051.81
562.44	43271.82
562.60	44060.58
562.77	43569.07
562.93	43297.57
563.10	43648.65
563.26	43388.85
563.42	43695.46
563.59	43723.55
563.75	43697.80
563.92	43641.63
564.08	43746.95
564.24	43391.19
564.41	43491.83
564.57	43714.19
564.74	43999.73
564.90	43800.79
565.07	43899.09
565.23	43629.93
565.39	44009.09
565.56	44034.84
565.72	43868.66
565.88	43559.71
566.05	43945.90
566.21	43892.07
566.38	43531.62
566.54	44222.08
566.70	44151.87
566.87	44414.01
567.03	43966.96
567.19	44215.06
567.36	44226.76
567.52	43922.49
567.68	44144.84
567.85	44065.27
568.01	44385.92
568.17	44011.43
568.34	43969.30
568.50	44048.88
568.66	43812.49
568.83	44116.76
568.99	44013.77
569.15	43861.64
569.32	43892.07
569.48	43746.95
569.64	44147.18
569.81	44217.40
569.97	43812.49
570.13	44041.86
570.30	43739.93
570.46	44079.31
570.62	43838.23
570.78	43990.37
570.95	44004.41
571.11	44645.72
571.27	43938.88
571.43	44133.14
571.60	44765.09
571.76	44095.69
571.92	43938.88
572.09	44025.48
572.25	44069.95
572.41	43587.80
572.57	44074.63
572.74	44832.96
572.90	44147.18
573.06	43995.05
573.22	44460.82
573.38	44212.72
573.55	44196.34
573.71	44509.97
573.87	44011.43
574.03	44105.06
574.20	44287.62
574.36	44273.57
574.52	44346.13
574.68	44353.15
574.84	44472.52
575.01	44388.26
575.17	44732.32
575.33	44247.83
575.49	44093.35
575.65	44631.68
575.82	44587.21
575.98	44325.07
576.14	44500.61
576.30	44154.21
576.46	44231.44
576.62	44414.01
576.79	44027.82
576.95	43934.20
577.11	44091.01
577.27	44137.82
577.43	44547.42
577.59	44325.07
577.75	44114.42
577.92	44109.74
578.08	44121.44
578.24	44182.29
578.40	44329.75
578.56	43892.07
578.72	44123.78
578.88	44685.51
579.04	44729.98
579.21	44140.16
579.37	44521.67
579.53	44282.94
579.69	44013.77
579.85	44641.04
580.01	44512.31
580.17	44741.68
580.33	44760.40
580.49	44596.57
580.65	44868.07
580.82	44823.60
580.98	44685.51
581.14	44123.78
581.30	44559.12
581.46	44516.99
581.62	44437.41
581.78	44692.53
581.94	44439.75
582.10	44098.03
582.26	44587.21
582.42	44339.11
582.58	44591.89
582.74	44282.94
582.90	44378.90
583.06	44690.19
583.22	44687.85
583.38	44711.25
583.54	44390.60
583.70	44715.93
583.86	44292.30
584.02	44612.95
584.18	44622.31
584.34	44091.01
584.50	44540.39
584.66	44442.09
584.82	44264.21
584.98	44662.10
585.14	44828.28
585.30	44222.08
585.46	44868.07
585.62	44406.98
585.78	44299.32
585.94	44144.84
586.10	44472.52
586.26	44116.76
586.42	44772.11
586.58	44994.46
586.74	44896.16
586.90	44247.83
587.06	44423.37
587.22	44786.15
587.38	44367.20
587.54	45027.23
587.70	44540.39
587.86	44428.05
588.02	44240.81
588.18	44566.14
588.34	44531.03
588.49	44364.85
588.65	44275.91
588.81	44737.00
588.97	44367.20
589.13	44491.24
589.29	44453.79
589.45	44540.39
589.61	44676.15
589.77	45076.38
589.93	45244.90
590.08	44896.16
590.24	44765.09
590.40	44884.45
