SpectraSuite Data File
++++++++++++++++++++++++++++++++++++
Date: Fri Oct 25 11:23:17 EDT 2013
User: price-jones
Dark Spectrum Present: No
Reference Spectrum Present: No
Number of Sampled Component Spectra: 1
Spectrometers: USB2+H05261
Integration Time (usec): 100000 (USB2+H05261)
Spectra Averaged: 1 (USB2+H05261)
Boxcar Smoothing: 0 (USB2+H05261)
Correct for Electrical Dark: No (USB2+H05261)
Strobe/Lamp Enabled: No (USB2+H05261)
Correct for Detector Non-linearity: No (USB2+H05261)
Correct for Stray Light: No (USB2+H05261)
Number of Pixels in Processed Spectrum: 2048
>>>>>Begin Processed Spectral Data<<<<<
365.73	184.90
365.92	184.90
366.12	184.90
366.32	100.64
366.52	135.75
366.72	142.77
366.91	131.07
367.11	145.11
367.31	35.11
367.51	168.52
367.70	131.07
367.90	182.56
368.10	110.01
368.30	182.56
368.49	126.39
368.69	154.48
368.89	161.50
369.09	159.16
369.28	117.03
369.48	138.09
369.68	140.43
369.87	236.39
370.07	168.52
370.27	194.26
370.47	348.74
370.66	514.92
370.86	660.03
371.06	643.65
371.25	662.37
371.45	678.76
371.65	748.97
371.84	648.33
372.04	695.14
372.24	739.61
372.44	713.86
372.63	758.33
372.83	734.93
373.03	739.61
373.22	755.99
373.42	793.44
373.62	819.19
373.81	713.86
374.01	786.42
374.21	798.12
374.40	788.76
374.60	802.80
374.79	842.59
374.99	798.12
375.19	882.38
375.38	816.85
375.58	741.95
375.78	805.14
375.97	823.87
376.17	910.47
376.37	753.65
376.56	833.23
376.76	821.53
376.95	896.43
377.15	966.64
377.35	940.90
377.54	964.30
377.74	905.79
377.93	816.85
378.13	950.26
378.33	983.02
378.52	889.40
378.72	868.34
378.91	866.00
379.11	915.15
379.31	924.51
379.50	980.68
379.70	1020.47
379.89	997.07
380.09	1001.75
380.28	938.55
380.48	992.39
380.68	933.87
380.87	931.53
381.07	990.05
381.26	1015.79
381.46	997.07
381.65	950.26
381.85	1132.82
382.04	940.90
382.24	994.73
382.43	1015.79
382.63	1121.12
382.83	1071.97
383.02	1095.37
383.22	1210.06
383.41	1160.91
383.61	1074.31
383.80	1088.35
384.00	1123.46
384.19	1184.31
384.39	1114.10
384.58	1057.92
384.78	1139.84
384.97	1130.48
385.17	1102.39
385.36	1179.63
385.56	1247.51
385.75	1219.42
385.95	1203.04
386.14	1132.82
386.34	1149.20
386.53	1275.59
386.72	1160.91
386.92	1252.19
387.11	1310.70
387.31	1256.87
387.50	1205.38
387.70	1135.16
387.89	1263.89
388.09	1289.64
388.28	1254.53
388.48	1301.34
388.67	1366.87
388.86	1303.68
389.06	1331.76
389.25	1296.66
389.45	1275.59
389.64	1371.55
389.84	1373.89
390.03	1348.15
390.22	1397.30
390.42	1401.98
390.61	1411.34
390.81	1404.32
391.00	1500.28
391.19	1366.87
391.39	1448.79
391.58	1476.88
391.78	1530.71
391.97	1418.36
392.16	1441.77
392.36	1465.18
392.55	1598.59
392.75	1614.97
392.94	1547.09
393.13	1528.37
393.33	1636.03
393.52	1526.03
393.71	1603.27
393.91	1593.90
394.10	1549.43
394.29	1614.97
394.49	1551.78
394.68	1572.84
394.88	1626.67
395.07	1729.66
395.26	1771.79
395.46	1710.93
395.65	1785.83
395.84	1689.87
396.04	1753.06
396.23	1844.34
396.42	1802.21
396.62	1710.93
396.81	1816.26
397.00	1743.70
397.19	1811.57
397.39	1849.02
397.58	1699.23
397.77	1778.81
397.97	1820.94
398.16	1755.40
398.35	1907.54
398.55	1956.69
398.74	1940.30
398.93	2033.93
399.12	1888.81
399.32	1853.70
399.51	1928.60
399.70	2052.65
399.90	2017.54
400.09	2036.27
400.28	2071.37
400.47	2019.88
400.67	2101.80
400.86	2162.66
401.05	2099.46
401.24	2129.89
401.44	2078.40
401.63	2179.04
401.82	2129.89
402.01	2031.58
402.21	2186.06
402.40	2134.57
402.59	2258.62
402.78	2267.98
402.97	2141.59
403.17	2265.64
403.36	2307.77
403.55	2347.56
403.74	2377.98
403.93	2303.09
404.13	2443.52
404.32	2445.86
404.51	2462.24
404.70	2326.49
404.89	2441.18
405.09	2520.76
405.28	2448.20
405.47	2487.99
405.66	2511.39
405.85	2502.03
406.05	2553.52
406.24	2581.61
406.43	2513.74
406.62	2590.97
406.81	2633.10
407.00	2509.05
407.20	2705.66
407.39	2647.15
407.58	2754.81
407.77	2719.70
407.96	2740.77
408.15	2904.60
408.34	2729.06
408.54	2822.69
408.73	2761.83
408.92	2820.35
409.11	2768.85
409.30	2862.48
409.49	2991.20
409.68	2949.08
409.87	2904.60
410.07	2909.29
410.26	3014.61
410.45	3056.74
410.64	3119.93
410.83	3232.28
411.02	3129.30
411.21	3155.04
411.40	3108.23
411.59	3300.16
411.78	3353.99
411.98	3258.03
412.17	3463.99
412.36	3361.01
412.55	3344.63
412.74	3440.59
412.93	3520.17
413.12	3346.97
413.31	3559.95
413.50	3536.55
413.69	3597.40
413.88	3641.87
414.07	3791.67
414.26	3693.37
414.45	3681.66
414.64	3688.68
414.83	3810.39
415.02	3810.39
415.22	3782.31
415.41	3948.48
415.60	3838.48
415.79	3925.08
415.98	4056.15
416.17	4009.34
416.36	3948.48
416.55	3906.35
416.74	4058.49
416.93	4046.79
417.12	4285.52
417.31	4273.82
417.50	4205.94
417.69	4264.46
417.88	4297.22
418.07	4142.75
418.26	4334.67
418.45	4470.42
418.64	4538.30
418.83	4580.43
419.02	4528.94
419.21	4475.10
419.39	4545.32
419.58	4629.58
419.77	4411.91
419.96	4493.83
420.15	4564.04
420.34	4615.54
420.53	4622.56
420.72	4809.80
420.91	4788.74
421.10	4779.37
421.29	4854.27
421.48	4777.03
421.67	4758.31
421.86	4877.68
422.05	4863.63
422.24	4741.93
422.43	4889.38
422.61	4936.19
422.80	5018.11
422.99	4950.23
423.18	4940.87
423.37	5053.22
423.56	5053.22
423.75	4959.60
423.94	4882.36
424.13	4791.08
424.32	4870.65
424.50	5203.01
424.69	5081.30
424.88	5053.22
425.07	4994.70
425.26	5057.90
425.45	5088.32
425.64	4966.62
425.83	5130.45
426.01	5203.01
426.20	5097.69
426.39	5149.18
426.58	5029.81
426.77	4952.57
426.96	5186.63
427.15	5207.69
427.33	5188.97
427.52	5268.55
427.71	5219.39
427.90	5301.31
428.09	5303.65
428.28	5411.32
428.46	5486.22
428.65	5493.24
428.84	5603.24
429.03	5568.13
429.22	5310.68
429.40	5507.28
429.59	5598.56
429.78	5336.42
429.97	5240.46
430.16	5476.85
430.34	5671.12
430.53	5731.97
430.72	5881.77
430.91	5741.33
431.10	5713.25
431.28	5729.63
431.47	5769.42
431.66	5769.42
431.85	5846.66
432.03	5926.24
432.22	6118.16
432.41	5879.43
432.60	5975.39
432.79	6092.41
432.97	6057.31
433.16	6071.35
433.35	6078.37
433.54	6202.42
433.72	6258.59
433.91	6204.76
434.10	6129.86
434.28	6167.31
434.47	6389.66
434.66	6267.95
434.85	6471.58
435.03	6450.52
435.22	6183.70
435.41	6555.84
435.59	6520.73
435.78	6511.37
435.97	6504.35
436.16	6373.28
436.34	6340.51
436.53	6314.77
436.72	6836.70
436.90	6494.99
437.09	6775.85
437.28	6558.18
437.46	6633.08
437.65	6738.40
437.84	6862.45
438.02	6909.26
438.21	6649.46
438.40	6839.05
438.58	7059.06
438.77	7138.63
438.96	7026.29
439.14	7124.59
439.33	7199.49
439.52	7335.24
439.70	7360.98
439.89	7368.01
440.08	7421.84
440.26	7419.50
440.45	7536.52
440.63	7681.64
440.82	7520.14
441.01	7578.65
441.19	7730.79
441.38	7698.02
441.57	7789.30
441.75	7990.59
441.94	8070.17
442.12	7936.76
442.31	8072.51
442.50	8086.55
442.68	8112.30
442.87	8135.70
443.05	8229.32
443.24	8219.96
443.43	8238.69
443.61	8262.09
443.80	8348.69
443.98	8177.83
444.17	7857.18
444.35	8264.43
444.54	8423.59
444.73	8315.92
444.91	8456.36
445.10	8524.23
445.28	8407.20
445.47	8355.71
445.65	8362.73
445.84	8624.87
446.02	8564.02
446.21	8573.38
446.39	8557.00
446.58	8500.83
446.77	8603.81
446.95	8411.89
447.14	8414.23
447.32	8683.39
447.51	8613.17
447.69	8507.85
447.88	8585.08
448.06	8620.19
448.25	8713.81
448.43	8547.64
448.62	8748.92
448.80	8636.58
448.99	8734.88
449.17	8872.97
449.36	8849.57
449.54	8894.04
449.73	9071.92
449.91	9039.15
450.10	8926.80
450.28	9142.13
450.46	9235.75
450.65	9001.70
450.83	9179.58
451.02	9132.77
451.20	9366.82
451.39	9387.89
451.57	9174.90
451.76	9296.61
451.94	9404.27
452.13	9338.74
452.31	9444.06
452.49	9366.82
452.68	9570.45
452.86	9465.13
453.05	9486.19
453.23	9724.93
453.42	9373.85
453.60	9329.38
453.78	9607.90
453.97	9415.98
454.15	9565.77
454.34	9589.17
454.52	9792.80
454.70	9729.61
454.89	9727.27
455.07	9886.42
455.26	10068.98
455.44	10052.60
455.62	9905.15
455.81	9888.76
455.99	10183.67
456.17	10125.16
456.36	10087.71
456.54	10452.83
456.73	10249.21
456.91	10494.96
457.09	10558.16
457.28	10546.45
457.46	10347.51
457.64	10520.71
457.83	10703.27
458.01	10487.94
458.19	10927.96
458.38	10946.69
458.56	10850.72
458.74	10834.34
458.93	10686.89
459.11	10574.54
459.29	10754.76
459.48	10862.43
459.66	10899.87
459.84	11054.35
460.03	11199.46
460.21	10981.79
460.39	11236.91
460.57	10906.90
460.76	11234.57
460.94	11272.02
461.12	11337.56
461.31	11136.27
461.49	11332.87
461.67	11417.13
461.85	11653.53
462.04	11384.37
462.22	11566.93
462.40	11630.12
462.59	11590.33
462.77	11389.05
462.95	11754.17
463.13	11786.94
463.32	11779.92
463.50	11864.18
463.68	12032.69
463.86	12032.69
464.05	11925.03
464.23	11815.02
464.41	12079.50
464.59	11836.09
464.78	12203.55
464.96	12262.07
465.14	12060.78
465.32	12212.92
465.50	12208.23
465.69	12107.59
465.87	12367.39
466.05	12580.38
466.23	12372.07
466.41	12512.50
466.60	12716.13
466.78	12250.36
466.96	12367.39
467.14	12524.21
467.32	12498.46
467.51	12854.22
467.69	12231.64
467.87	12655.28
468.05	12727.83
468.23	12514.84
468.41	12638.89
468.60	12706.77
468.78	12706.77
468.96	13104.66
469.14	12987.63
469.32	12968.91
469.50	12699.75
469.69	13053.17
469.87	13156.15
470.05	13579.79
470.23	13268.50
470.41	13561.06
470.59	13493.19
470.77	13188.92
470.95	13444.04
471.14	13879.38
471.32	13359.78
471.50	13710.86
471.68	13991.72
471.86	13811.50
472.04	13881.72
472.22	14391.95
472.40	13860.65
472.58	13958.96
472.77	14064.28
472.95	14473.87
473.13	14754.74
473.31	14239.82
473.49	14288.97
473.67	14209.39
473.85	14525.36
474.03	14661.12
474.21	14618.99
474.39	15122.20
474.57	15040.28
474.75	15021.56
474.93	15112.84
475.12	14925.60
475.30	15234.55
475.48	15019.22
475.66	15569.24
475.84	15454.56
476.02	15405.41
476.20	15644.14
476.38	15758.83
476.56	16198.85
476.74	16065.44
476.92	16159.06
477.10	16060.76
477.28	16299.49
477.46	16353.32
477.64	16542.91
477.82	16666.95
478.00	17345.71
478.18	16704.40
478.36	17029.74
478.54	17301.24
478.72	17415.93
478.90	17729.56
479.08	17612.53
479.26	17872.33
479.44	18057.23
479.62	18127.45
479.80	18490.23
479.98	18420.02
480.16	18841.31
480.34	18480.87
480.52	18904.51
480.70	18735.99
480.88	18820.25
481.06	18766.42
481.24	19049.62
481.41	19253.25
481.59	19620.71
481.77	19644.12
481.95	19393.68
482.13	20093.50
482.31	19768.16
482.49	20631.82
482.67	20592.03
482.85	20774.60
483.03	20709.06
483.21	21015.67
483.39	21401.86
483.57	21228.66
483.74	21525.91
483.92	21530.59
484.10	21795.07
484.28	21991.67
484.46	22118.06
484.64	22532.34
484.82	22097.00
485.00	22551.06
485.18	23140.88
485.35	23281.31
485.53	23030.87
485.71	23447.49
485.89	23351.52
486.07	23531.75
486.25	23679.20
486.43	24049.00
486.61	24287.74
486.78	24318.17
486.96	24755.85
487.14	24980.54
487.32	24809.68
487.50	25017.99
487.68	25326.94
487.85	25326.94
488.03	25809.09
488.21	25912.07
488.39	25823.13
488.57	26171.87
488.75	26782.75
488.92	26717.22
489.10	26991.06
489.28	27075.32
489.46	27468.53
489.64	27222.77
489.81	28219.84
489.99	27861.74
490.17	27964.72
490.35	28264.31
490.53	28683.27
490.70	28690.29
490.88	28360.27
491.06	29081.16
491.24	28929.02
491.41	29460.32
491.59	29837.15
491.77	29661.61
491.95	29865.24
492.13	29869.92
492.30	30155.46
492.48	30876.35
492.66	30782.73
492.84	30555.69
493.01	31145.51
493.19	31262.54
493.37	31234.45
493.54	31658.09
493.72	31850.01
493.90	31976.40
494.08	32357.91
494.25	32432.80
494.43	32217.47
494.61	32744.09
494.79	32720.69
494.96	33158.37
495.14	33137.30
495.32	33605.41
495.49	33170.07
495.67	33523.49
495.85	34043.09
496.02	33935.43
496.20	34623.54
496.38	34630.57
496.55	34497.16
496.73	35716.58
496.91	34733.55
497.09	35402.94
497.26	35779.77
497.44	35821.90
497.62	35606.57
497.79	36137.87
497.97	36142.55
498.14	36587.25
498.32	36416.40
498.50	36507.68
498.67	36842.37
498.85	36739.39
499.03	37413.46
499.20	36912.59
499.38	37258.99
499.56	37256.65
499.73	37933.06
499.91	37755.18
500.08	37951.79
500.26	38094.56
500.44	37794.97
500.61	38206.90
500.79	38204.56
500.97	38623.52
501.14	39126.74
501.32	38953.54
501.49	39302.28
501.67	39122.05
501.84	39356.11
502.02	39402.92
502.20	39580.80
502.37	39269.51
502.55	39751.66
502.72	40032.52
502.90	39899.11
503.07	39880.39
503.25	40149.55
503.43	40575.53
503.60	40847.03
503.78	40753.41
503.95	40694.89
504.13	40912.56
504.30	40933.63
504.48	41085.76
504.65	40924.27
504.83	41696.64
505.01	41750.48
505.18	41734.09
505.36	41993.89
505.53	41780.90
505.71	41823.03
505.88	42038.36
506.06	41816.01
506.23	42375.40
506.41	42197.52
506.58	42749.88
506.76	42291.14
506.93	42457.32
507.11	42937.13
507.28	43157.14
507.46	43180.54
507.63	43328.00
507.81	43845.26
507.98	43196.93
508.16	43576.09
508.33	43894.41
508.50	44006.75
508.68	44409.32
508.85	44341.45
509.03	44123.78
509.20	44472.52
509.38	44802.53
509.55	45050.63
509.73	44935.95
509.90	44971.05
510.08	44683.17
510.25	45291.71
510.42	45340.86
510.60	45301.07
510.77	45710.66
510.95	46164.73
511.12	45647.47
511.30	45691.94
511.47	45642.79
511.64	46066.42
511.82	46333.24
511.99	45904.93
512.17	46157.70
512.34	46295.80
512.51	47117.32
512.69	46906.68
512.86	46436.23
513.04	47065.83
513.21	47143.07
513.38	47281.16
513.56	47400.53
513.73	46969.87
513.90	47494.15
514.08	47187.54
514.25	47473.09
514.43	47789.06
514.60	47784.38
514.77	48226.74
514.95	48135.46
515.12	48027.79
515.29	48137.80
515.47	48385.89
515.64	48566.12
515.81	48259.51
515.99	48512.28
516.16	48900.81
516.33	49083.37
516.51	49221.47
516.68	48940.60
516.85	48692.50
517.03	49233.17
517.20	49151.25
517.37	49118.48
517.54	49326.79
517.72	49202.74
517.89	49153.59
518.06	49755.11
518.24	49722.34
518.41	49757.45
518.58	50026.61
518.75	49944.69
518.93	50007.89
519.10	49907.24
519.27	50211.51
519.45	50370.67
519.62	50255.98
519.79	50106.19
519.96	50190.45
520.14	50562.59
520.31	50602.38
520.48	50698.34
520.65	51002.61
520.83	50965.17
521.00	51281.14
521.17	50831.75
521.34	50906.65
521.52	51206.24
521.69	50925.38
521.86	51627.54
522.03	51611.15
522.20	51737.54
522.38	51592.43
522.55	51625.20
522.72	51505.83
522.89	51751.59
523.07	51695.41
523.24	51870.95
523.41	51798.40
523.58	51707.12
523.75	52170.54
523.92	52245.44
524.10	52498.22
524.27	52067.56
524.44	52168.20
524.61	52360.12
524.78	52626.95
524.96	52769.72
525.13	52736.95
525.30	52680.78
525.47	53024.84
525.64	52816.53
525.81	53081.01
525.98	52987.39
526.16	53141.86
526.33	52790.78
526.50	53345.49
526.67	53336.13
526.84	52994.41
527.01	53333.79
527.18	53230.80
527.36	53406.34
527.53	53532.73
527.70	53609.97
527.87	53722.32
528.04	53492.94
528.21	53897.86
528.38	53764.45
528.55	53724.66
528.72	53619.33
528.89	53982.12
529.07	53439.11
529.24	53829.98
529.41	54160.00
529.58	54057.01
529.75	54028.93
529.92	54141.27
530.09	54202.13
530.26	54363.62
530.43	54316.81
530.60	54370.64
530.77	54363.62
530.94	54527.46
531.11	54658.53
531.28	54494.69
531.46	54405.75
531.63	54679.60
531.80	54742.79
531.97	54782.58
532.14	54361.28
532.31	54588.31
532.48	54981.52
532.65	54834.07
532.82	54674.91
532.99	55037.70
533.16	54904.29
533.33	55161.75
533.50	55229.62
533.67	55309.20
533.84	55065.78
534.01	54990.89
534.18	55449.63
534.35	55334.95
534.52	55299.84
534.69	55650.92
534.86	55533.89
535.03	55430.91
535.20	55489.42
535.37	55454.31
535.54	55833.48
535.71	55435.59
535.88	55725.81
536.05	55538.57
536.22	55987.95
536.38	56013.70
536.55	55906.04
536.72	55955.19
536.89	55908.38
537.06	55716.45
537.23	56032.42
537.40	55693.05
537.57	56041.79
537.74	56030.08
537.91	56390.53
538.08	56243.07
538.25	56191.58
538.42	56219.67
538.59	56425.64
538.75	56018.38
538.92	56376.48
539.09	56587.13
539.26	56357.76
539.43	56566.07
539.60	56453.72
539.77	56467.76
539.94	56706.50
540.11	56727.56
540.28	56793.10
540.44	56720.54
540.61	56917.15
540.78	56762.67
540.95	56704.16
541.12	56837.57
541.29	56750.97
541.46	56846.93
541.62	56877.36
541.79	56919.49
541.96	56512.23
542.13	57017.79
542.30	57212.06
542.47	56921.83
542.63	57228.44
542.80	57190.99
542.97	57492.92
543.14	57506.96
543.31	57560.79
543.48	57450.79
543.64	57471.85
543.81	57609.95
543.98	57506.96
544.15	57780.81
544.32	57829.96
544.48	57645.05
544.65	57701.23
544.82	57593.56
544.99	57546.75
545.16	57715.27
545.32	57638.03
545.49	57954.00
545.66	58239.55
545.83	57911.88
546.00	58075.71
546.16	58021.88
546.33	57799.53
546.50	57942.30
546.67	57907.19
546.83	57879.11
547.00	57986.77
547.17	58136.57
547.34	57923.58
547.50	58227.85
547.67	58408.07
547.84	58127.20
548.00	58541.48
548.17	58504.03
548.34	58511.05
548.51	58766.17
548.67	58457.22
548.84	58513.39
549.01	58494.67
549.18	58279.34
549.34	58394.03
549.51	58607.01
549.68	58714.68
549.84	58618.72
550.01	58836.39
550.18	58789.58
550.34	58663.19
550.51	58679.57
550.68	58941.71
550.84	58457.22
551.01	58960.44
551.18	58780.21
551.34	58852.77
551.51	58873.84
551.68	58759.15
551.84	58852.77
552.01	58752.13
552.18	59103.21
552.34	59002.56
552.51	59154.70
552.68	58688.93
552.84	58899.58
553.01	59210.87
553.18	59047.04
553.34	59028.31
553.51	59119.59
553.67	58981.50
553.84	59189.81
554.01	58988.52
554.17	59159.38
554.34	59185.13
554.51	59311.52
554.67	59274.07
554.84	59210.87
555.00	59093.85
555.17	59339.60
555.33	59292.79
555.50	59114.91
555.67	59269.39
555.83	59245.98
556.00	59442.59
556.16	59498.76
556.33	59522.16
556.50	59353.65
556.66	59599.40
556.83	59468.33
556.99	59688.34
557.16	59688.34
557.32	59714.09
557.49	60018.36
557.65	59358.33
557.82	59611.10
557.98	59405.14
558.15	59770.26
558.32	59833.46
558.48	59700.04
558.65	59508.12
558.81	59650.89
558.98	59861.54
559.14	59791.33
559.31	59985.59
559.47	60133.04
559.64	59891.97
559.80	60037.08
559.97	59980.91
560.13	59793.67
560.30	59821.75
560.46	59875.58
560.63	60097.94
560.79	60058.15
560.96	60261.77
561.12	60261.77
561.29	60226.66
561.45	60214.96
561.61	60060.49
561.78	60221.98
561.94	59966.87
562.11	60065.17
562.27	60224.32
562.44	60140.07
562.60	60252.41
562.77	60437.31
562.93	60102.62
563.10	60280.50
563.26	60247.73
563.42	60388.16
563.59	60058.15
563.75	60329.65
563.92	60163.47
564.08	60334.33
564.24	60381.14
564.41	60406.89
564.57	60282.84
564.74	60383.48
564.90	60348.37
565.07	60453.70
565.23	60357.74
565.39	60364.76
565.56	60481.78
565.72	60369.44
565.88	60589.45
566.05	60425.61
566.21	60495.83
566.38	60376.46
566.54	60580.09
566.70	60566.04
566.87	60591.79
567.03	60395.18
567.19	60713.50
567.36	60619.88
567.52	60654.98
567.68	60748.60
567.85	60556.68
568.01	60676.05
568.17	60544.98
568.34	60694.77
568.50	60439.65
568.66	60764.99
568.83	60645.62
568.99	60437.31
569.15	60594.13
569.32	60734.56
569.48	60521.57
569.64	60832.86
569.81	60671.37
569.97	60601.15
570.13	60680.73
570.30	60774.35
570.46	60802.44
570.62	60886.70
570.78	60823.50
570.95	60671.37
571.11	60797.76
571.27	60795.42
571.43	60959.25
571.60	61024.79
571.76	60933.51
571.92	60772.01
572.09	61024.79
572.25	60800.10
572.41	60706.47
572.57	60940.53
572.74	61106.71
572.90	60720.52
573.06	61057.56
573.22	60992.02
573.38	60860.95
573.55	60928.83
573.71	61172.24
573.87	60830.52
574.03	60797.76
574.20	60846.91
574.36	60793.07
574.52	60882.02
574.68	61083.30
574.84	61066.92
575.01	60910.10
575.17	60959.25
575.33	61050.53
575.49	60959.25
575.65	61062.24
575.82	60966.27
575.98	60963.93
576.14	61300.97
576.30	61162.88
576.46	61162.88
576.62	60877.33
576.79	61116.07
576.95	61073.94
577.11	60882.02
577.27	61078.62
577.43	61130.11
577.59	61048.19
577.75	61190.97
577.92	60968.61
578.08	60910.10
578.24	61195.65
578.40	61085.64
578.56	61087.98
578.72	60935.85
578.88	61350.12
579.04	61448.42
579.21	61228.41
579.37	61254.16
579.53	61195.65
579.69	61113.73
579.85	60956.91
580.01	61151.18
580.17	61188.63
580.33	61165.22
580.49	61106.71
580.65	61092.66
580.82	61144.16
580.98	61071.60
581.14	61010.74
581.30	61010.74
581.46	61109.05
581.62	61205.01
581.78	61251.82
581.94	61291.61
582.10	61169.90
582.26	61169.90
582.42	61193.31
582.58	61069.26
582.74	61212.03
582.90	61200.33
583.06	61226.07
583.22	61066.92
583.38	61240.12
583.54	61155.86
583.70	61066.92
583.86	61226.07
584.02	61132.45
584.18	61282.25
584.34	61268.20
584.50	61235.44
584.66	61029.47
584.82	61024.79
584.98	61352.46
585.14	61179.26
585.30	61066.92
585.46	61090.32
585.62	61401.61
585.78	61410.98
585.94	60884.36
586.10	61359.48
586.26	61261.18
586.42	61303.31
586.58	61347.78
586.74	61235.44
586.90	61144.16
587.06	61141.81
587.22	61544.39
587.38	61319.70
587.54	61530.34
587.70	61366.51
587.86	61441.40
588.02	61338.42
588.18	61490.55
588.34	61289.27
588.49	61385.23
