SpectraSuite Data File
++++++++++++++++++++++++++++++++++++
Date: Fri Oct 25 11:34:32 EDT 2013
User: price-jones
Dark Spectrum Present: No
Reference Spectrum Present: No
Number of Sampled Component Spectra: 1
Spectrometers: USB2+H05261
Integration Time (usec): 100000 (USB2+H05261)
Spectra Averaged: 1 (USB2+H05261)
Boxcar Smoothing: 0 (USB2+H05261)
Correct for Electrical Dark: No (USB2+H05261)
Strobe/Lamp Enabled: No (USB2+H05261)
Correct for Detector Non-linearity: No (USB2+H05261)
Correct for Stray Light: No (USB2+H05261)
Number of Pixels in Processed Spectrum: 2048
>>>>>Begin Processed Spectral Data<<<<<
365.73	276.18
365.92	276.18
366.12	276.18
366.32	154.48
366.52	168.52
366.72	276.18
366.91	175.54
367.11	180.22
367.31	201.29
367.51	180.22
367.70	91.28
367.90	180.22
368.10	210.65
368.30	220.01
368.49	184.90
368.69	215.33
368.89	227.03
369.09	156.82
369.28	194.26
369.48	222.35
369.68	271.50
369.87	229.37
370.07	222.35
370.27	330.02
370.47	315.97
370.66	397.89
370.86	521.94
371.06	531.30
371.25	517.26
371.45	571.09
371.65	575.77
371.84	533.64
372.04	550.03
372.24	580.45
372.44	561.73
372.63	662.37
372.83	624.92
373.03	641.31
373.22	589.82
373.42	641.31
373.62	688.12
373.81	629.60
374.01	702.16
374.21	695.14
374.40	641.31
374.60	704.50
374.79	709.18
374.99	606.20
375.19	606.20
375.38	641.31
375.58	589.82
375.78	662.37
375.97	617.90
376.17	671.73
376.37	681.10
376.56	683.44
376.76	683.44
376.95	695.14
377.15	664.71
377.35	601.52
377.54	674.07
377.74	657.69
377.93	692.80
378.13	713.86
378.33	683.44
378.52	702.16
378.72	727.91
378.91	697.48
379.11	678.76
379.31	674.07
379.50	683.44
379.70	713.86
379.89	746.63
380.09	662.37
380.28	692.80
380.48	737.27
380.68	709.18
380.87	676.41
381.07	704.50
381.26	760.67
381.46	704.50
381.65	779.40
381.85	664.71
382.04	678.76
382.24	741.95
382.43	774.72
382.63	692.80
382.83	784.08
383.02	758.33
383.22	830.89
383.41	758.33
383.61	814.51
383.80	863.66
384.00	856.64
384.19	746.63
384.39	812.17
384.58	741.95
384.78	821.53
384.97	718.54
385.17	830.89
385.36	884.72
385.56	805.14
385.75	720.88
385.95	809.83
386.14	844.93
386.34	821.53
386.53	945.58
386.72	880.04
386.92	875.36
387.11	870.68
387.31	830.89
387.50	884.72
387.70	873.02
387.89	891.74
388.09	910.47
388.28	849.61
388.48	896.43
388.67	973.66
388.86	915.15
389.06	903.45
389.25	903.45
389.45	959.62
389.64	915.15
389.84	961.96
390.03	915.15
390.22	964.30
390.42	973.66
390.61	894.08
390.81	959.62
391.00	1025.15
391.19	950.26
391.39	999.41
391.58	952.60
391.78	959.62
391.97	908.13
392.16	987.71
392.36	1041.54
392.55	1011.11
392.75	1015.79
392.94	964.30
393.13	1071.97
393.33	1055.58
393.52	997.07
393.71	997.07
393.91	1118.78
394.10	1083.67
394.29	1102.39
394.49	1022.81
394.68	1151.54
394.88	1093.03
395.07	1071.97
395.26	1160.91
395.46	1046.22
395.65	1146.86
395.84	1158.57
396.04	1284.95
396.23	1132.82
396.42	1177.29
396.62	1165.59
396.81	1203.04
397.00	1170.27
397.19	1116.44
397.39	1221.76
397.58	1191.33
397.77	1181.97
397.97	1238.14
398.16	1254.53
398.35	1210.06
398.55	1306.02
398.74	1263.89
398.93	1259.21
399.12	1303.68
399.32	1249.85
399.51	1233.46
399.70	1301.34
399.90	1291.98
400.09	1261.55
400.28	1266.23
400.47	1308.36
400.67	1373.89
400.86	1390.28
401.05	1448.79
401.24	1420.71
401.44	1404.32
401.63	1509.65
401.82	1413.68
402.01	1306.02
402.21	1404.32
402.40	1479.22
402.59	1331.76
402.78	1453.47
402.97	1446.45
403.17	1439.43
403.36	1439.43
403.55	1507.30
403.74	1528.37
403.93	1460.49
404.13	1528.37
404.32	1584.54
404.51	1591.56
404.70	1617.31
404.89	1549.43
405.09	1664.12
405.28	1593.90
405.47	1614.97
405.66	1586.88
405.85	1600.93
406.05	1647.74
406.24	1664.12
406.43	1607.95
406.62	1736.68
406.81	1778.81
407.00	1680.50
407.20	1596.25
407.39	1769.44
407.58	1774.13
407.77	1820.94
407.96	1795.19
408.15	1839.66
408.34	1872.43
408.54	1727.32
408.73	1895.83
408.92	1802.21
409.11	1870.09
409.30	1940.30
409.49	1942.64
409.68	1937.96
409.87	1879.45
410.07	2083.08
410.26	1952.01
410.45	1909.88
410.64	1933.28
410.83	1956.69
411.02	1987.11
411.21	2127.55
411.40	2026.90
411.59	2040.95
411.78	2113.50
411.98	2157.97
412.17	2176.70
412.36	2106.48
412.55	2218.83
412.74	2167.34
412.93	2277.34
413.12	2221.17
413.31	2277.34
413.50	2275.00
413.69	2387.35
413.88	2354.58
414.07	2338.20
414.26	2455.22
414.45	2380.32
414.64	2534.80
414.83	2487.99
415.02	2448.20
415.22	2445.86
415.41	2562.89
415.60	2448.20
415.79	2534.80
415.98	2623.74
416.17	2614.38
416.36	2635.44
416.55	2675.23
416.74	2654.17
416.93	2658.85
417.12	2754.81
417.31	2663.53
417.50	2719.70
417.69	2820.35
417.88	2839.07
418.07	2839.07
418.26	2885.88
418.45	2932.69
418.64	3021.63
418.83	2857.79
419.02	2796.94
419.21	2953.76
419.39	2946.73
419.58	2986.52
419.77	2867.16
419.96	3056.74
420.15	3033.33
420.34	3033.33
420.53	3063.76
420.72	3150.36
420.91	3016.95
421.10	3129.30
421.29	3103.55
421.48	3063.76
421.67	3141.00
421.86	3122.27
422.05	3112.91
422.24	3054.40
422.43	3227.60
422.61	3281.43
422.80	3304.84
422.99	3295.47
423.18	3262.71
423.37	3304.84
423.56	3133.98
423.75	3225.26
423.94	3243.98
424.13	2993.55
424.32	3208.87
424.50	3262.71
424.69	3339.94
424.88	3302.50
425.07	3262.71
425.26	3304.84
425.45	3314.20
425.64	3293.13
425.83	3283.77
426.01	3283.77
426.20	3279.09
426.39	3417.18
426.58	3253.34
426.77	3316.54
426.96	3389.10
427.15	3375.05
427.33	3499.10
427.52	3396.12
427.71	3370.37
427.90	3323.56
428.09	3534.21
428.28	3534.21
428.46	3527.19
428.65	3606.77
428.84	3618.47
429.03	3700.39
429.22	3501.44
429.40	3637.19
429.59	3632.51
429.78	3485.06
429.97	3534.21
430.16	3721.45
430.34	3646.55
430.53	3707.41
430.72	3609.11
430.91	3707.41
431.10	3777.62
431.28	3948.48
431.47	3756.56
431.66	3840.82
431.85	3819.75
432.03	3957.85
432.22	4032.74
432.41	3927.42
432.60	3885.29
432.79	3995.29
432.97	4049.13
433.16	3955.51
433.35	3892.31
433.54	3929.76
433.72	4023.38
433.91	3950.82
434.10	4037.42
434.28	3988.27
434.47	3964.87
434.66	4107.64
434.85	4215.30
435.03	4056.15
435.22	4189.56
435.41	4292.54
435.59	4344.03
435.78	4374.46
435.97	4250.41
436.16	4180.20
436.34	4187.22
436.53	4217.65
436.72	4231.69
436.90	4285.52
437.09	4287.86
437.28	4262.12
437.46	4276.16
437.65	4351.06
437.84	4456.38
438.02	4290.20
438.21	4475.10
438.40	4479.79
438.58	4489.15
438.77	4589.79
438.96	4540.64
439.14	4685.75
439.33	4725.54
439.52	4765.33
439.70	4638.94
439.89	4784.06
440.08	4765.33
440.26	4788.74
440.45	4837.89
440.63	4933.85
440.82	4922.15
441.01	4936.19
441.19	4971.30
441.38	4975.98
441.57	4936.19
441.75	5008.75
441.94	5121.09
442.12	5177.26
442.31	5097.69
442.50	5210.03
442.68	5268.55
442.87	5078.96
443.05	5123.43
443.24	5329.40
443.43	5303.65
443.61	5373.87
443.80	5392.59
443.98	5331.74
444.17	5130.45
444.35	5249.82
444.54	5397.28
444.73	5521.32
444.91	5266.21
445.10	5516.64
445.28	5263.86
445.47	5270.89
445.65	5397.28
445.84	5518.98
446.02	5439.40
446.21	5289.61
446.39	5547.07
446.58	5563.45
446.77	5668.78
446.95	5338.76
447.14	5324.72
447.32	5607.92
447.51	5490.90
447.69	5558.77
447.88	5493.24
448.06	5418.34
448.25	5401.96
448.43	5533.03
448.62	5551.75
448.80	5636.01
448.99	5666.44
449.17	5790.49
449.36	5596.22
449.54	5729.63
449.73	5713.25
449.91	5935.60
450.10	5643.03
450.28	5937.94
450.46	5919.21
450.65	5907.51
450.83	5755.38
451.02	5790.49
451.20	6057.31
451.39	5781.12
451.57	5837.30
451.76	5888.79
451.94	5881.77
452.13	6005.81
452.31	6127.52
452.49	6040.92
452.68	6043.26
452.86	5893.47
453.05	6221.14
453.23	6312.42
453.42	6069.01
453.60	6064.33
453.78	6146.25
453.97	6127.52
454.15	6097.10
454.34	5973.05
454.52	6303.06
454.70	6284.34
454.89	6298.38
455.07	6417.75
455.26	6338.17
455.44	6457.54
455.62	6413.07
455.81	6478.60
455.99	6333.49
456.17	6406.05
456.36	6366.26
456.54	6445.84
456.73	6534.78
456.91	6745.42
457.09	6731.38
457.28	6895.22
457.46	6436.47
457.64	6731.38
457.83	6768.83
458.01	6661.16
458.19	7110.55
458.38	6892.88
458.56	6813.30
458.74	6913.94
458.93	6904.58
459.11	6988.84
459.29	6843.73
459.48	7000.54
459.66	6813.30
459.84	6902.24
460.03	7080.12
460.21	7150.34
460.39	6993.52
460.57	7269.70
460.76	7131.61
460.94	7248.64
461.12	7176.08
461.31	7208.85
461.49	7155.02
461.67	7115.23
461.85	7300.13
462.04	7136.29
462.22	7803.35
462.40	7496.74
462.59	7349.28
462.77	7487.37
462.95	7344.60
463.13	7428.86
463.32	7421.84
463.50	7737.81
463.68	7538.87
463.86	7515.46
464.05	7393.75
464.23	7470.99
464.41	7798.66
464.59	7459.29
464.78	7737.81
464.96	7632.49
465.14	7522.48
465.32	7707.38
465.50	7588.02
465.69	7674.62
465.87	7833.77
466.05	7660.57
466.23	7695.68
466.41	7831.43
466.60	7873.56
466.78	7758.88
466.96	7831.43
467.14	7859.52
467.32	7892.29
467.51	8072.51
467.69	7906.33
467.87	8067.83
468.05	8091.23
468.23	8095.91
468.41	7939.10
468.60	8152.09
468.78	8032.72
468.96	8035.06
469.14	8163.79
469.32	8182.51
469.50	7925.05
469.69	8222.30
469.87	8290.18
470.05	8196.56
470.23	8360.39
470.41	8428.27
470.59	8219.96
470.77	8425.93
470.95	8603.81
471.14	8798.07
471.32	8355.71
471.50	8557.00
471.68	8552.32
471.86	8622.53
472.04	8795.73
472.22	9008.72
472.40	8608.49
472.58	8772.33
472.77	8968.93
472.95	8961.91
473.13	9142.13
473.31	8898.72
473.49	8924.46
473.67	9121.07
473.85	8905.74
474.03	9305.97
474.21	9317.67
474.39	9380.87
474.57	9362.14
474.75	9305.97
474.93	9528.32
475.12	9561.09
475.30	9589.17
475.48	9540.02
475.66	9554.07
475.84	9575.13
476.02	9792.80
476.20	9841.95
476.38	10106.43
476.56	10047.92
476.74	10099.41
476.92	9884.08
477.10	9818.55
477.28	10099.41
477.46	10141.54
477.64	10443.47
477.82	10448.15
478.00	10710.29
478.18	10450.49
478.36	10801.57
478.54	10703.27
478.72	10789.87
478.90	10932.64
479.08	11044.99
479.26	11171.38
479.44	11309.47
479.62	11232.23
479.80	11342.24
479.98	11482.67
480.16	11639.48
480.34	11566.93
480.52	11562.25
480.70	11749.49
480.88	11325.85
481.06	11941.41
481.24	11735.45
481.41	12032.69
481.59	12166.10
481.77	12093.55
481.95	12128.66
482.13	12535.91
482.31	12339.30
482.49	12685.70
482.67	12917.42
482.85	12826.14
483.03	12915.08
483.21	13324.67
483.39	13186.58
483.57	13099.98
483.74	13371.48
483.92	13207.64
484.10	13317.65
484.28	13600.85
484.46	13895.76
484.64	14141.52
484.82	13956.61
485.00	14122.79
485.18	14132.15
485.35	14288.97
485.53	14263.22
485.71	14546.43
485.89	14621.33
486.07	14766.44
486.25	14679.84
486.43	14752.40
486.61	14958.36
486.78	15098.80
486.96	15367.96
487.14	15241.57
487.32	15328.17
487.50	15695.63
487.68	15639.46
487.85	15777.55
488.03	16093.52
488.21	16166.08
488.39	16264.38
488.57	16210.55
488.75	16297.15
488.92	16596.74
489.10	16760.58
489.28	16760.58
489.46	17043.78
489.64	16697.38
489.81	17439.33
489.99	17055.48
490.17	17188.89
490.35	17759.98
490.53	17561.04
490.70	17994.04
490.88	17694.45
491.06	18160.22
491.24	18146.17
491.41	17823.18
491.59	18368.52
491.77	18178.94
491.95	18738.33
492.13	18696.20
492.30	18750.03
492.48	18635.35
492.66	18855.36
492.84	18953.66
493.01	19138.56
493.19	18890.46
493.37	19414.74
493.54	19323.46
493.72	19580.92
493.90	19515.39
494.08	19665.18
494.25	19814.98
494.43	19843.06
494.61	19754.12
494.79	20210.53
494.96	20294.79
495.14	19997.54
495.32	20805.02
495.49	20828.43
495.67	20725.44
495.85	20910.35
496.02	21104.61
496.20	21486.12
496.38	21336.32
496.55	21125.68
496.73	21806.77
496.91	21792.73
497.09	21940.18
497.26	21626.55
497.44	21928.48
497.62	21851.24
497.79	22307.65
497.97	22082.95
498.14	22150.83
498.32	22359.14
498.50	22588.51
498.67	22881.08
498.85	22508.93
499.03	22834.27
499.20	22951.29
499.38	23175.98
499.56	22972.36
499.73	23325.78
499.91	23250.88
500.08	23704.95
500.26	23190.03
500.44	23927.30
500.61	23726.01
500.79	23711.97
500.97	23726.01
501.14	24198.80
501.32	24128.58
501.49	23931.98
501.67	24369.66
501.84	24304.12
502.02	24751.17
502.20	24154.33
502.37	24271.36
502.55	24783.93
502.72	24671.59
502.90	24961.81
503.07	24526.47
503.25	24851.81
503.43	24423.49
503.60	25113.95
503.78	25193.53
503.95	25223.95
504.13	25308.21
504.30	25399.49
504.48	25275.45
504.65	25355.02
504.83	25883.98
505.01	25764.62
505.18	25813.77
505.36	26370.82
505.53	25942.50
505.71	25675.68
505.88	26059.52
506.06	25902.71
506.23	26555.72
506.41	26242.09
506.58	26253.79
506.76	26359.11
506.93	26649.34
507.11	26672.74
507.28	26586.15
507.46	27026.17
507.63	27110.43
507.81	26930.20
507.98	27510.66
508.16	26913.82
508.33	27054.25
508.50	27400.65
508.68	27562.15
508.85	27620.66
509.03	27580.87
509.20	27672.15
509.38	28210.48
509.55	28121.54
509.73	27793.86
509.90	27871.10
510.08	27957.70
510.25	27992.81
510.42	28215.16
510.60	28180.05
510.77	28400.06
510.95	28453.89
511.12	28217.50
511.30	28507.72
511.47	28547.51
511.64	28514.75
511.82	29076.48
511.99	29017.96
512.17	29097.54
512.34	29010.94
512.51	28896.25
512.69	29387.77
512.86	29226.27
513.04	29525.86
513.21	29434.58
513.38	29301.17
513.56	29776.30
513.73	29504.79
513.90	29385.43
514.08	29792.68
514.25	29961.20
514.43	30183.55
514.60	30288.87
514.77	29656.93
514.95	30284.19
515.12	30412.92
515.29	30539.31
515.47	30403.56
515.64	30588.46
515.81	30003.33
515.99	30565.06
516.16	30773.36
516.33	30897.41
516.51	30909.11
516.68	30698.47
516.85	30717.19
517.03	30630.59
517.20	31049.55
517.37	31215.72
517.54	31285.94
517.72	31351.48
517.89	31625.32
518.06	31641.70
518.24	31342.11
518.41	31484.89
518.58	31449.78
518.75	31433.39
518.93	31747.03
519.10	31810.22
519.27	31667.45
519.45	31943.63
519.62	32144.92
519.79	32341.52
519.96	31957.67
520.14	32325.14
520.31	32140.24
520.48	31976.40
520.65	32446.85
520.83	33174.75
521.00	33029.64
521.17	32655.15
521.34	32737.07
521.52	33146.67
521.69	32524.08
521.86	32872.82
522.03	33003.89
522.20	32926.66
522.38	33408.81
522.55	33827.76
522.72	33420.51
522.89	33528.17
523.07	33633.50
523.24	33462.64
523.41	33982.24
523.58	33284.76
523.75	33684.99
523.92	33977.56
524.10	33713.08
524.27	34057.14
524.44	33921.38
524.61	33813.72
524.78	34089.90
524.96	34361.40
525.13	34562.69
525.30	34497.16
525.47	34305.23
525.64	34504.18
525.81	34546.31
525.98	34721.85
526.16	34307.57
526.33	34665.67
526.50	34859.94
526.67	34623.54
526.84	34799.08
527.01	34555.67
527.18	34691.42
527.36	34951.22
527.53	34974.63
527.70	35381.88
527.87	35494.22
528.04	35393.58
528.21	35566.78
528.38	35573.80
528.55	35367.84
528.72	35154.85
528.89	35622.95
529.07	35328.05
529.24	35732.96
529.41	35842.96
529.58	35580.82
529.75	35538.69
529.92	35674.45
530.09	35967.01
530.26	35374.86
530.43	35711.89
530.60	35637.00
530.77	36144.89
530.94	36151.91
531.11	36123.83
531.28	36133.19
531.46	36355.54
531.63	36275.96
531.80	36177.66
531.97	36362.56
532.14	36547.47
532.31	36336.82
532.48	36884.50
532.65	37067.06
532.82	36341.50
532.99	37202.82
533.16	36477.25
533.33	36823.65
533.50	37457.93
533.67	36772.16
533.84	36727.69
534.01	36898.55
534.18	37209.84
534.35	37170.05
534.52	37551.56
534.69	37502.40
534.86	37490.70
535.03	37371.33
535.20	37439.21
535.37	37273.03
535.54	37801.99
535.71	37572.62
535.88	37710.71
536.05	37591.34
536.22	37961.15
536.38	38146.05
536.55	37706.03
536.72	37603.05
536.89	37757.52
537.06	37986.89
537.23	38185.84
537.40	37776.25
537.57	38185.84
537.74	37703.69
537.91	38326.27
538.08	38354.36
538.25	37762.20
538.42	38209.25
538.59	38677.35
538.75	38005.62
538.92	38492.45
539.09	38546.28
539.26	38607.14
539.43	38342.66
539.60	39044.82
539.77	38513.52
539.94	38836.51
540.11	38960.56
540.28	38768.63
540.44	38895.02
540.61	38965.24
540.78	38696.08
540.95	39229.72
541.12	39012.05
541.29	39358.45
541.46	38675.01
541.62	39576.12
541.79	39365.47
541.96	39194.61
542.13	39157.16
542.30	39236.74
542.47	39861.66
542.63	39335.04
542.80	39503.56
542.97	39990.39
543.14	39943.58
543.31	39887.41
543.48	39824.22
543.64	40306.37
543.81	40257.21
543.98	40191.68
544.15	40299.34
544.32	39716.55
544.48	40629.36
544.65	40191.68
544.82	40325.09
544.99	40105.08
545.16	40301.68
545.32	40205.72
545.49	40903.20
545.66	40634.04
545.83	40797.88
546.00	40924.27
546.16	40809.58
546.33	40196.36
546.50	40397.65
546.67	40737.02
546.83	40238.49
547.00	40676.17
547.17	40128.48
547.34	40989.80
547.50	40617.66
547.67	40610.64
547.84	40921.93
548.00	41010.87
548.17	41469.61
548.34	41450.89
548.51	41261.30
548.67	41141.94
548.84	41216.83
549.01	41015.55
549.18	41350.24
549.34	41289.39
549.51	41394.71
549.68	41223.86
549.84	41478.97
550.01	41500.04
550.18	41244.92
550.34	41811.33
550.51	41916.65
550.68	41972.83
550.84	41464.93
551.01	41677.92
551.18	41635.79
551.34	41813.67
551.51	42136.66
551.68	41645.15
551.84	41759.84
552.01	41708.35
552.18	42007.94
552.34	41474.29
552.51	41975.17
552.68	41928.36
552.84	42403.49
553.01	41991.55
553.18	42108.58
553.34	42230.29
553.51	42391.78
553.67	42176.45
553.84	42497.11
554.01	42328.59
554.17	41965.81
554.34	42424.55
554.51	42227.95
554.67	42951.17
554.84	42857.55
555.00	42447.96
555.17	42403.49
555.33	42927.77
555.50	42733.50
555.67	42557.96
555.83	42462.00
556.00	42895.00
556.16	42841.17
556.33	42876.27
556.50	42880.95
556.66	42784.99
556.83	42731.16
556.99	43325.66
557.16	43180.54
557.32	42927.77
557.49	42979.26
557.65	42995.64
557.82	42995.64
557.98	43115.01
558.15	42686.69
558.32	43063.52
558.48	43182.88
558.65	43033.09
558.81	42995.64
558.98	43512.90
559.14	42850.53
559.31	43423.96
559.47	43016.71
559.64	43311.61
559.80	43325.66
559.97	43189.91
560.13	43105.65
560.30	43115.01
560.46	43395.87
560.63	43901.43
560.79	43683.76
560.96	43512.90
561.12	44149.53
561.29	43578.43
561.45	43761.00
561.61	43126.71
561.78	43812.49
561.94	43548.01
562.11	43508.22
562.27	43562.05
562.44	43646.31
562.60	43779.72
562.77	43934.20
562.93	43501.20
563.10	43856.96
563.26	43428.64
563.42	43889.73
563.59	43648.65
563.75	43966.96
563.92	43812.49
564.08	44058.24
564.24	44123.78
564.41	43882.70
564.57	44076.97
564.74	44030.16
564.90	44172.93
565.07	44065.27
565.23	44020.80
565.39	44236.12
565.56	44350.81
565.72	43650.99
565.88	44067.61
566.05	44147.18
566.21	44325.07
566.38	44151.87
566.54	43973.98
566.70	44521.67
566.87	44435.07
567.03	44119.10
567.19	44318.04
567.36	44041.86
567.52	44208.04
567.68	44198.68
567.85	44343.79
568.01	44601.25
568.17	43718.87
568.34	44900.84
568.50	44374.22
568.66	43981.01
568.83	44362.51
568.99	44388.26
569.15	44919.56
569.32	44102.71
569.48	44395.28
569.64	44563.80
569.81	44622.31
569.97	44528.69
570.13	44676.15
570.30	44304.00
570.46	44617.63
570.62	44458.48
570.78	44385.92
570.95	44442.09
571.11	44992.12
571.27	44608.27
571.43	44273.57
571.60	44783.81
571.76	44294.64
571.92	44823.60
572.09	44877.43
572.25	44381.24
572.41	44622.31
572.57	44650.40
572.74	44879.77
572.90	44680.83
573.06	44917.22
573.22	44811.90
573.38	44612.95
573.55	44741.68
573.71	45092.76
573.87	44961.69
574.03	44697.21
574.20	45357.24
574.36	44409.32
574.52	45099.78
574.68	45010.84
574.84	44807.22
575.01	44952.33
575.17	45186.38
575.33	45261.28
575.49	44690.19
575.65	44828.28
575.82	45148.93
575.98	45022.54
576.14	45097.44
576.30	45148.93
576.46	44767.43
576.62	44285.28
576.79	44722.96
576.95	44800.19
577.11	44924.24
577.27	45155.96
577.43	45006.16
577.59	45099.78
577.75	44898.50
577.92	44643.38
578.08	44706.57
578.24	44832.96
578.40	44966.37
578.56	45270.64
578.72	45574.91
578.88	45574.91
579.04	45113.83
579.21	45017.86
579.37	45127.87
579.53	44996.80
579.69	45130.21
579.85	45109.14
580.01	45104.46
580.17	44968.71
580.33	45528.10
580.49	45041.27
580.65	45130.21
580.82	45034.25
580.98	45329.16
581.14	44821.26
581.30	44875.09
581.46	44992.12
581.62	45354.90
581.78	45057.65
581.94	45251.92
582.10	45244.90
582.26	45366.60
582.42	44996.80
582.58	45563.21
582.74	45097.44
582.90	45397.03
583.06	45102.12
583.22	45432.14
583.38	45113.83
583.54	45230.85
583.70	45521.08
583.86	45272.98
584.02	45411.07
584.18	45214.47
584.34	45516.40
584.50	45514.06
584.66	45858.12
584.82	45675.55
584.98	45476.61
585.14	45703.64
585.30	45097.44
585.46	45172.34
585.62	45160.64
585.78	45179.36
585.94	44893.82
586.10	45158.30
586.26	45123.19
586.42	45385.33
586.58	45539.80
586.74	45083.40
586.90	45153.62
587.06	45223.83
587.22	45422.78
587.38	45270.64
587.54	45516.40
587.70	45563.21
587.86	45090.42
588.02	45144.25
588.18	45076.38
588.34	45483.63
588.49	45858.12
588.65	45244.90
588.81	45570.23
588.97	45509.38
589.13	45469.59
589.29	45509.38
589.45	45516.40
589.61	45296.39
589.77	45975.14
589.93	45294.05
590.08	45467.25
590.24	46021.95
