SpectraSuite Data File
++++++++++++++++++++++++++++++++++++
Date: Fri Oct 25 11:26:40 EDT 2013
User: price-jones
Dark Spectrum Present: No
Reference Spectrum Present: No
Number of Sampled Component Spectra: 1
Spectrometers: USB2+H05261
Integration Time (usec): 100000 (USB2+H05261)
Spectra Averaged: 1 (USB2+H05261)
Boxcar Smoothing: 0 (USB2+H05261)
Correct for Electrical Dark: No (USB2+H05261)
Strobe/Lamp Enabled: No (USB2+H05261)
Correct for Detector Non-linearity: No (USB2+H05261)
Correct for Stray Light: No (USB2+H05261)
Number of Pixels in Processed Spectrum: 2048
>>>>>Begin Processed Spectral Data<<<<<
365.73	271.50
365.92	271.50
366.12	271.50
366.32	194.26
366.52	121.71
366.72	142.77
366.91	140.43
367.11	84.26
367.31	72.56
367.51	145.11
367.70	182.56
367.90	121.71
368.10	159.16
368.30	152.13
368.49	156.82
368.69	145.11
368.89	170.86
369.09	131.07
369.28	208.31
369.48	147.45
369.68	145.11
369.87	198.95
370.07	196.60
370.27	287.89
370.47	388.53
370.66	589.82
370.86	582.79
371.06	690.46
371.25	683.44
371.45	596.84
371.65	706.84
371.84	702.16
372.04	746.63
372.24	795.78
372.44	763.01
372.63	720.88
372.83	779.40
373.03	739.61
373.22	851.96
373.42	791.10
373.62	678.76
373.81	877.70
374.01	826.21
374.21	774.72
374.40	823.87
374.60	795.78
374.79	786.42
374.99	830.89
375.19	828.55
375.38	873.02
375.58	835.57
375.78	917.49
375.97	880.04
376.17	898.77
376.37	847.27
376.56	866.00
376.76	903.45
376.95	922.17
377.15	868.34
377.35	880.04
377.54	830.89
377.74	854.30
377.93	861.32
378.13	863.66
378.33	1025.15
378.52	938.55
378.72	936.21
378.91	933.87
379.11	985.37
379.31	929.19
379.50	983.02
379.70	985.37
379.89	926.85
380.09	999.41
380.28	849.61
380.48	1064.94
380.68	926.85
380.87	961.96
381.07	1111.75
381.26	1041.54
381.46	1064.94
381.65	1097.71
381.85	1029.84
382.04	987.71
382.24	1121.12
382.43	1116.44
382.63	1001.75
382.83	924.51
383.02	1062.60
383.22	1121.12
383.41	1184.31
383.61	1144.52
383.80	1259.21
384.00	1097.71
384.19	1212.40
384.39	1135.16
384.58	1132.82
384.78	1193.67
384.97	1160.91
385.17	1254.53
385.36	1050.90
385.56	1160.91
385.75	1160.91
385.95	1249.85
386.14	1277.93
386.34	1235.80
386.53	1205.38
386.72	1160.91
386.92	1254.53
387.11	1268.57
387.31	1181.97
387.50	1256.87
387.70	1235.80
387.89	1242.82
388.09	1280.27
388.28	1324.74
388.48	1460.49
388.67	1453.47
388.86	1378.58
389.06	1373.89
389.25	1394.96
389.45	1406.66
389.64	1355.17
389.84	1352.83
390.03	1432.41
390.22	1406.66
390.42	1418.36
390.61	1404.32
390.81	1465.18
391.00	1371.55
391.19	1455.81
391.39	1441.77
391.58	1509.65
391.78	1465.18
391.97	1448.79
392.16	1338.79
392.36	1441.77
392.55	1511.99
392.75	1570.50
392.94	1523.69
393.13	1551.78
393.33	1596.25
393.52	1582.20
393.71	1661.78
393.91	1572.84
394.10	1624.33
394.29	1565.82
394.49	1652.42
394.68	1675.82
394.88	1612.63
395.07	1696.89
395.26	1729.66
395.46	1717.95
395.65	1729.66
395.84	1739.02
396.04	1769.44
396.23	1699.23
396.42	1647.74
396.62	1755.40
396.81	1802.21
397.00	1703.91
397.19	1755.40
397.39	1818.60
397.58	1926.26
397.77	1774.13
397.97	1853.70
398.16	1837.32
398.35	1863.07
398.55	1834.98
398.74	1865.41
398.93	1928.60
399.12	1944.99
399.32	1884.13
399.51	2026.90
399.70	1956.69
399.90	1959.03
400.09	2024.56
400.28	2050.31
400.47	1975.41
400.67	2054.99
400.86	2129.89
401.05	2148.61
401.24	2064.35
401.44	2162.66
401.63	2097.12
401.82	2176.70
402.01	2148.61
402.21	2157.97
402.40	2204.78
402.59	2197.76
402.78	2160.31
402.97	2317.13
403.17	2319.47
403.36	2324.15
403.55	2345.22
403.74	2312.45
403.93	2438.84
404.13	2356.92
404.32	2377.98
404.51	2263.30
404.70	2450.54
404.89	2544.16
405.09	2375.64
405.28	2506.71
405.47	2408.41
405.66	2473.95
405.85	2424.80
406.05	2588.63
406.24	2518.42
406.43	2609.70
406.62	2532.46
406.81	2691.62
407.00	2649.49
407.20	2572.25
407.39	2626.08
407.58	2796.94
407.77	2684.59
407.96	2705.66
408.15	2745.45
408.34	2780.56
408.54	2785.24
408.73	2803.96
408.92	2754.81
409.11	2843.75
409.30	2885.88
409.49	2874.18
409.68	3059.08
409.87	2923.33
410.07	3150.36
410.26	3084.83
410.45	3068.44
410.64	3063.76
410.83	3101.21
411.02	3063.76
411.21	3290.79
411.40	3138.66
411.59	3141.00
411.78	3239.30
411.98	3180.79
412.17	3361.01
412.36	3386.76
412.55	3501.44
412.74	3447.61
412.93	3562.30
413.12	3311.86
413.31	3538.89
413.50	3564.64
413.69	3529.53
413.88	3520.17
414.07	3620.81
414.26	3786.99
414.45	3761.24
414.64	3740.18
414.83	3728.47
415.02	3723.79
415.22	3943.80
415.41	3803.37
415.60	3915.72
415.79	3878.27
415.98	3967.21
416.17	4028.06
416.36	4065.51
416.55	4063.17
416.74	4074.87
416.93	4049.13
417.12	4107.64
417.31	4135.73
417.50	4112.32
417.69	4479.79
417.88	4416.59
418.07	4299.56
418.26	4290.20
418.45	4402.55
418.64	4479.79
418.83	4458.72
419.02	4540.64
419.21	4648.30
419.39	4575.75
419.58	4458.72
419.77	4440.00
419.96	4582.77
420.15	4650.64
420.34	4624.90
420.53	4760.65
420.72	4660.01
420.91	4664.69
421.10	4777.03
421.29	4880.02
421.48	4718.52
421.67	4819.16
421.86	4753.63
422.05	4765.33
422.24	4795.76
422.43	4882.36
422.61	4945.55
422.80	4961.94
422.99	4884.70
423.18	5050.88
423.37	5064.92
423.56	4922.15
423.75	4980.66
423.94	4828.53
424.13	4725.54
424.32	4793.42
424.50	5074.28
424.69	5069.60
424.88	5102.37
425.07	5053.22
425.26	4983.00
425.45	4873.00
425.64	5020.45
425.83	5001.72
426.01	5153.86
426.20	5109.39
426.39	5142.16
426.58	5107.05
426.77	5074.28
426.96	5188.97
427.15	5114.07
427.33	5167.90
427.52	5188.97
427.71	5399.62
427.90	5331.74
428.09	5380.89
428.28	5418.34
428.46	5305.99
428.65	5497.92
428.84	5448.77
429.03	5558.77
429.22	5420.68
429.40	5570.48
429.59	5451.11
429.78	5411.32
429.97	5488.56
430.16	5483.88
430.34	5710.91
430.53	5636.01
430.72	5563.45
430.91	5671.12
431.10	5633.67
431.28	5717.93
431.47	5612.60
431.66	6015.18
431.85	5839.64
432.03	5933.26
432.22	6010.50
432.41	6005.81
432.60	5966.03
432.79	5951.98
432.97	5973.05
433.16	6125.18
433.35	6033.90
433.54	6157.95
433.72	6043.26
433.91	6031.56
434.10	6118.16
434.28	6345.19
434.47	6186.04
434.66	6303.06
434.85	6464.56
435.03	6422.43
435.22	6251.57
435.41	6689.25
435.59	6471.58
435.78	6485.62
435.97	6581.59
436.16	6567.54
436.34	6326.47
436.53	6497.33
436.72	6619.04
436.90	6438.81
437.09	6581.59
437.28	6380.30
437.46	6696.27
437.65	6743.08
437.84	6860.11
438.02	6640.10
438.21	6986.50
438.40	6764.15
438.58	6967.77
438.77	6960.75
438.96	6927.99
439.14	7115.23
439.33	7281.41
439.52	7208.85
439.70	7150.34
439.89	7400.77
440.08	7222.89
440.26	7424.18
440.45	7503.76
440.63	7524.82
440.82	7763.56
441.01	7513.12
441.19	7719.09
441.38	7840.79
441.57	7791.64
441.75	7749.51
441.94	7908.67
442.12	8039.74
442.31	8131.02
442.50	7971.86
442.68	7932.08
442.87	8013.99
443.05	8032.72
443.24	8243.37
443.43	8311.24
443.61	8187.19
443.80	8416.57
443.98	8081.87
444.17	7852.50
444.35	8353.37
444.54	8393.16
444.73	8362.73
444.91	8327.63
445.10	8484.44
445.28	8168.47
445.47	8381.46
445.65	8568.70
445.84	8353.37
446.02	8514.87
446.21	8538.27
446.39	8327.63
446.58	8568.70
446.77	8725.52
446.95	8351.03
447.14	8517.21
447.32	8692.75
447.51	8636.58
447.69	8435.29
447.88	8631.90
448.06	8414.23
448.25	8683.39
448.43	8500.83
448.62	8798.07
448.80	8587.43
448.99	8858.93
449.17	8781.69
449.36	8655.30
449.54	8788.71
449.73	9076.60
449.91	9111.71
450.10	8957.23
450.28	9039.15
450.46	9029.79
450.65	8938.51
450.83	9170.22
451.02	9128.09
451.20	9071.92
451.39	9156.18
451.57	9399.59
451.76	9179.58
451.94	9289.59
452.13	9254.48
452.31	9249.80
452.49	9282.56
452.68	9453.42
452.86	9493.21
453.05	9404.27
453.23	9692.16
453.42	9425.34
453.60	9252.14
453.78	9511.94
453.97	9420.66
454.15	9287.25
454.34	9631.30
454.52	9783.44
454.70	9785.78
454.89	9848.97
455.07	9923.87
455.26	9886.42
455.44	9907.49
455.62	9797.48
455.81	10204.74
455.99	9984.73
456.17	9947.28
456.36	10153.24
456.54	10216.44
456.73	10277.29
456.91	10420.06
457.09	10230.48
457.28	10630.71
457.46	10296.02
457.64	10452.83
457.83	10644.76
458.01	10644.76
458.19	10740.72
458.38	10572.20
458.56	10714.97
458.74	10738.38
458.93	10588.58
459.11	10911.58
459.29	10876.47
459.48	11103.50
459.66	10806.25
459.84	11037.97
460.03	10745.40
460.21	11068.39
460.39	11169.04
460.57	11009.88
460.76	11026.26
460.94	11185.42
461.12	11222.87
461.31	11096.48
461.49	11248.61
461.67	11220.53
461.85	11449.90
462.04	11255.64
462.22	11688.64
462.40	11695.66
462.59	11412.45
462.77	11260.32
462.95	11662.89
463.13	11522.46
463.32	11637.14
463.50	11742.47
463.68	11864.18
463.86	11985.88
464.05	11763.53
464.23	11740.13
464.41	11957.80
464.59	11859.49
464.78	12081.85
464.96	11864.18
465.14	12182.49
465.32	12044.40
465.50	12444.63
465.69	12002.27
465.87	12372.07
466.05	12138.02
466.23	12095.89
466.41	12374.41
466.60	12674.00
466.78	12313.56
466.96	12175.47
467.14	12381.43
467.32	12608.47
467.51	12564.00
467.69	12189.51
467.87	12578.04
468.05	12674.00
468.23	12624.85
468.41	12475.06
468.60	12849.54
468.78	12908.05
468.96	12725.49
469.14	12898.69
469.32	13004.02
469.50	12779.32
469.69	13097.64
469.87	13107.00
470.05	13228.71
470.23	13226.37
470.41	13352.76
470.59	13359.78
470.77	13233.39
470.95	13137.43
471.14	13605.53
471.32	13376.16
471.50	13551.70
471.68	13593.83
471.86	13755.33
472.04	13685.11
472.22	14164.92
472.40	13701.50
472.58	13650.00
472.77	14328.76
472.95	14190.67
473.13	14759.42
473.31	14106.41
473.49	14293.65
473.67	14324.08
473.85	14340.46
474.03	14333.44
474.21	14780.48
474.39	14956.02
474.57	14668.14
474.75	15009.86
474.93	14963.04
475.12	14986.45
475.30	15169.01
475.48	15133.90
475.66	15365.62
475.84	15192.42
476.02	15517.75
476.20	15421.79
476.38	15999.90
476.56	16229.27
476.74	15854.79
476.92	16264.38
477.10	16058.42
477.28	16212.89
477.46	16315.87
477.64	16533.54
477.82	16819.09
478.00	17231.02
478.18	16767.60
478.36	17160.81
478.54	17221.66
478.72	17380.82
478.90	17420.61
479.08	17706.15
479.26	17888.71
479.44	17937.87
479.62	18176.60
479.80	18415.34
479.98	18611.94
480.16	18583.85
480.34	18326.39
480.52	18593.22
480.70	18515.98
480.88	18511.30
481.06	18817.91
481.24	19023.87
481.41	19152.60
481.59	19276.65
481.77	19480.28
481.95	19899.23
482.13	19583.26
482.31	19747.10
482.49	20357.98
482.67	20556.93
482.85	20772.25
483.03	20891.62
483.21	20922.05
483.39	21219.30
483.57	21383.13
483.74	21259.09
483.92	21596.12
484.10	21385.47
484.28	21919.12
484.46	22419.99
484.64	22485.53
484.82	21930.82
485.00	22326.37
485.18	23211.09
485.35	23222.80
485.53	23063.64
485.71	23080.02
485.89	23749.42
486.07	23267.27
486.25	23693.24
486.43	23786.86
486.61	23833.68
486.78	23943.68
486.96	24428.17
487.14	24872.87
487.32	24517.11
487.50	24929.05
487.68	25214.59
487.85	25628.87
488.03	25687.38
488.21	26167.19
488.39	25928.45
488.57	26436.35
488.75	26597.85
488.92	26604.87
489.10	26934.88
489.28	26820.20
489.46	27246.18
489.64	27377.25
489.81	27573.85
489.99	27850.03
490.17	27861.74
490.35	28304.10
490.53	28231.54
490.70	28577.94
490.88	28175.37
491.06	28807.31
491.24	28989.88
491.41	29626.50
491.59	29558.63
491.77	29326.91
491.95	29993.97
492.13	29839.49
492.30	30047.80
492.48	29839.49
492.66	30499.52
492.84	30178.87
493.01	31023.80
493.19	30417.60
493.37	31082.31
493.54	31070.61
493.72	31791.50
493.90	31417.01
494.08	31669.79
494.25	32002.14
494.43	32100.45
494.61	32299.39
494.79	32746.44
494.96	32694.94
495.14	32844.74
495.32	32879.85
495.49	33039.00
495.67	33432.21
495.85	33916.70
496.02	33656.90
496.20	33968.19
496.38	34574.39
496.55	34085.22
496.73	35161.87
496.91	35005.05
497.09	35178.25
497.26	35023.78
497.44	35311.66
497.62	35374.86
497.79	35519.97
497.97	35807.86
498.14	36194.04
498.32	36528.74
498.50	36175.32
498.67	36842.37
498.85	36500.65
499.03	36760.45
499.20	36697.26
499.38	37146.64
499.56	37083.45
499.73	37411.12
499.91	37560.92
500.08	37577.30
500.26	37799.65
500.44	37752.84
500.61	38389.47
500.79	37958.81
500.97	38050.09
501.14	38820.13
501.32	38726.50
501.49	38242.01
501.67	38576.71
501.84	39093.97
502.02	39234.40
502.20	39388.88
502.37	39323.34
502.55	39295.25
502.72	39826.56
502.90	39583.14
503.07	40020.82
503.25	39533.99
503.43	39936.56
503.60	40491.27
503.78	40385.94
503.95	41071.72
504.13	40627.02
504.30	40917.25
504.48	41202.79
504.65	41193.43
504.83	41003.85
505.01	41607.70
505.18	41673.24
505.36	41521.10
505.53	41455.57
505.71	41680.26
505.88	41750.48
506.06	41727.07
506.23	42354.33
506.41	42314.55
506.58	42237.31
506.76	42391.78
506.93	43051.81
507.11	42536.90
507.28	42457.32
507.46	42890.32
507.63	43159.48
507.81	43232.04
507.98	43133.73
508.16	43290.55
508.33	43613.54
508.50	43761.00
508.68	43772.70
508.85	44245.49
509.03	44062.93
509.20	44182.29
509.38	44624.65
509.55	44198.68
509.73	44938.29
509.90	44629.34
510.08	44758.06
510.25	44973.39
510.42	44868.07
510.60	45132.55
510.77	45535.12
510.95	45792.58
511.12	45577.25
511.30	45212.13
511.47	45549.17
511.64	45879.18
511.82	46099.19
511.99	46050.04
512.17	45801.94
512.34	46220.90
512.51	46478.36
512.69	46766.24
512.86	46672.62
513.04	46564.96
513.21	46677.30
513.38	47313.93
513.56	47126.69
513.73	46974.55
513.90	47723.52
514.08	47072.85
514.25	46988.60
514.43	47746.93
514.60	47681.39
514.77	47262.44
514.95	48109.71
515.12	47669.69
515.29	47786.72
515.47	47962.26
515.64	48463.13
515.81	47859.27
515.99	48493.56
516.16	48395.26
516.33	48428.02
516.51	48877.41
516.68	48774.42
516.85	48774.42
517.03	49303.38
517.20	49317.43
517.37	49155.93
517.54	48699.53
517.72	49200.40
517.89	49567.87
518.06	49961.08
518.24	49340.83
518.41	49294.02
518.58	49717.66
518.75	49106.78
518.93	49652.12
519.10	49289.34
519.27	50057.04
519.45	49804.26
519.62	50176.40
519.79	50202.15
519.96	50361.31
520.14	50337.90
520.31	50653.87
520.48	50822.39
520.65	50323.86
520.83	50979.21
521.00	50789.62
521.17	50688.98
521.34	51203.90
521.52	51215.60
521.69	51117.30
521.86	51091.55
522.03	51100.92
522.20	51379.44
522.38	51735.20
522.55	51906.06
522.72	51360.72
522.89	51512.85
523.07	51903.72
523.24	51426.25
523.41	51985.64
523.58	51412.21
523.75	51997.34
523.92	52006.70
524.10	52205.65
524.27	52315.65
524.44	52079.26
524.61	52376.51
524.78	52505.24
524.96	52411.62
525.13	52278.21
525.30	52556.73
525.47	52502.90
525.64	52521.62
525.81	53148.88
525.98	52786.10
526.16	52980.37
526.33	52891.43
526.50	53317.40
526.67	53055.26
526.84	53207.40
527.01	53097.39
527.18	52968.66
527.36	52985.05
527.53	53289.32
527.70	53656.78
527.87	53614.65
528.04	52968.66
528.21	53551.46
528.38	53469.54
528.55	53551.46
528.72	53455.50
528.89	53420.39
529.07	53542.10
529.24	53619.33
529.41	53897.86
529.58	53965.73
529.75	53743.38
529.92	53694.23
530.09	53862.75
530.26	54087.44
530.43	54185.74
530.60	53773.81
530.77	54195.10
530.94	54368.30
531.11	54150.63
531.28	54302.77
531.46	54794.28
531.63	54354.26
531.80	54124.89
531.97	54457.24
532.14	54667.89
532.31	54578.95
532.48	54791.94
532.65	54773.22
532.82	54672.57
532.99	54801.30
533.16	54703.00
533.33	54981.52
533.50	55217.92
533.67	54934.71
533.84	54761.51
534.01	55283.45
534.18	55044.72
534.35	55386.44
534.52	55271.75
534.69	55454.31
534.86	55199.19
535.03	55192.17
535.20	55260.05
535.37	55716.45
535.54	55290.48
535.71	55480.06
535.88	55634.53
536.05	55604.11
536.22	55580.70
536.38	55854.54
536.55	55721.13
536.72	55671.98
536.89	55676.66
537.06	55861.57
537.23	55789.01
537.40	55650.92
537.57	55660.28
537.74	55941.14
537.91	55959.87
538.08	56116.68
538.25	56083.92
538.42	56135.41
538.59	56161.15
538.75	55943.48
538.92	56313.29
539.09	56324.99
539.26	56212.65
539.43	56013.70
539.60	56547.34
539.77	56411.59
539.94	56516.92
540.11	56748.63
540.28	56598.83
540.44	56690.12
540.61	56463.08
540.78	56355.42
540.95	56589.47
541.12	56381.16
541.29	56575.43
541.46	56589.47
541.62	56662.03
541.79	56762.67
541.96	56439.68
542.13	56760.33
542.30	56914.81
542.47	56919.49
542.63	57214.40
542.80	56952.26
542.97	57221.42
543.14	57214.40
543.31	57375.89
543.48	57544.41
543.64	57572.50
543.81	57563.14
543.98	57331.42
544.15	57315.04
544.32	57677.82
544.48	57724.63
544.65	57579.52
544.82	57448.45
544.99	57591.22
545.16	57490.58
545.32	57605.26
545.49	57661.44
545.66	57705.91
545.83	57715.27
546.00	57879.11
546.16	57799.53
546.33	57776.12
546.50	57687.18
546.67	57848.68
546.83	57703.57
547.00	57968.05
547.17	57799.53
547.34	57853.36
547.50	57918.90
547.67	58220.83
547.84	58028.90
548.00	58138.91
548.17	58314.45
548.34	58382.32
548.51	58326.15
548.67	58370.62
548.84	58377.64
549.01	58171.67
549.18	58260.62
549.34	58174.02
549.51	58328.49
549.68	58349.56
549.84	58410.41
550.01	58653.82
550.18	58321.47
550.34	58396.37
550.51	58628.08
550.68	58471.26
550.84	58328.49
551.01	58770.85
551.18	58583.61
551.34	58487.65
551.51	58532.12
551.68	58653.82
551.84	58588.29
552.01	58574.25
552.18	58738.08
552.34	58553.18
552.51	59035.33
552.68	58578.93
552.84	58681.91
553.01	58990.86
553.18	58754.47
553.34	59131.29
553.51	58831.71
553.67	58794.26
553.84	58972.14
554.01	59133.63
554.17	59133.63
554.34	59175.76
554.51	59114.91
554.67	59182.79
554.84	59133.63
555.00	59262.36
555.17	58986.18
555.33	59063.42
555.50	58941.71
555.67	59049.38
555.83	59269.39
556.00	59217.89
556.16	59351.30
556.33	59337.26
556.50	59423.86
556.66	59245.98
556.83	59236.62
556.99	59557.27
557.16	59470.67
557.32	59629.83
557.49	59824.09
557.65	59419.18
557.82	59559.61
557.98	59405.14
558.15	59735.15
558.32	59650.89
558.48	59578.34
558.65	59770.26
558.81	59505.78
558.98	59791.33
559.14	59962.18
559.31	59805.37
559.47	59700.04
559.64	59760.90
559.80	59793.67
559.97	59980.91
560.13	59835.80
560.30	59810.05
560.46	59866.22
560.63	59924.74
560.79	59924.74
560.96	60069.85
561.12	60161.13
561.29	59994.95
561.45	60130.70
561.61	59880.27
561.78	59779.62
561.94	59898.99
562.11	59978.57
562.27	59971.55
562.44	59994.95
562.60	60149.43
562.77	60128.36
562.93	60182.19
563.10	60177.51
563.26	60041.76
563.42	60413.91
563.59	60137.72
563.75	59992.61
563.92	60147.09
564.08	60179.85
564.24	60233.69
564.41	60109.64
564.57	60313.26
564.74	60221.98
564.90	60271.14
565.07	60236.03
565.23	60013.68
565.39	59976.23
565.56	60296.88
565.72	60299.22
565.88	60198.58
566.05	60224.32
566.21	60266.45
566.38	60381.14
566.54	60217.30
566.70	60451.36
566.87	60392.84
567.03	60271.14
567.19	60657.32
567.36	60360.08
567.52	60388.16
567.68	60720.52
567.85	60566.04
568.01	60526.25
568.17	60306.24
568.34	60783.71
568.50	60334.33
568.66	60444.33
568.83	60425.61
568.99	60491.15
569.15	60467.74
569.32	60523.91
569.48	60425.61
569.64	60617.53
569.81	60640.94
569.97	60322.63
570.13	60470.08
570.30	60449.02
570.46	60498.17
570.62	60669.03
570.78	60622.22
570.95	60418.59
571.11	60584.77
571.27	60505.19
571.43	60678.39
571.60	60746.26
571.76	60666.69
571.92	60863.29
572.09	60825.84
572.25	60746.26
572.41	60584.77
572.57	60676.05
572.74	60903.08
572.90	60491.15
573.06	60671.37
573.22	60800.10
573.38	60804.78
573.55	60659.66
573.71	61010.74
573.87	60921.80
574.03	60662.00
574.20	61017.77
574.36	60687.75
574.52	60921.80
574.68	60750.94
574.84	60910.10
575.01	61024.79
575.17	60886.70
575.33	60741.58
575.49	60699.45
575.65	60704.13
575.82	60933.51
575.98	60769.67
576.14	61031.81
576.30	60921.80
576.46	60816.48
576.62	60577.75
576.79	60715.84
576.95	60835.20
577.11	60872.65
577.27	60956.91
577.43	60907.76
577.59	60715.84
577.75	60959.25
577.92	60842.23
578.08	60926.49
578.24	60963.93
578.40	61010.74
578.56	61251.82
578.72	60753.29
578.88	61006.06
579.04	60954.57
579.21	60893.72
579.37	61095.00
579.53	61045.85
579.69	60790.73
579.85	60786.05
580.01	60846.91
580.17	60816.48
580.33	61057.56
580.49	61123.09
580.65	61197.99
580.82	61020.11
580.98	60856.27
581.14	61111.39
581.30	61050.53
581.46	60977.98
581.62	61066.92
581.78	60835.20
581.94	61034.15
582.10	61059.90
582.26	61006.06
582.42	60935.85
582.58	61190.97
582.74	61078.62
582.90	61078.62
583.06	61078.62
583.22	60945.21
583.38	60874.99
583.54	61045.85
583.70	61179.26
583.86	61111.39
584.02	61071.60
584.18	61200.33
584.34	61027.13
584.50	61200.33
584.66	61076.28
584.82	61097.34
584.98	61249.48
585.14	61095.00
585.30	60891.38
585.46	61031.81
585.62	61127.77
585.78	61284.59
585.94	60989.68
586.10	61190.97
586.26	61139.47
586.42	61193.31
586.58	61237.78
586.74	61254.16
586.90	61132.45
587.06	60987.34
587.22	61233.10
587.38	61102.03
587.54	61300.97
587.70	61336.08
587.86	61111.39
588.02	61125.43
588.18	61230.75
588.34	61043.51
588.49	61258.84
