SpectraSuite Data File
++++++++++++++++++++++++++++++++++++
Date: Fri Oct 25 10:44:45 EDT 2013
User: price-jones
Dark Spectrum Present: No
Reference Spectrum Present: No
Number of Sampled Component Spectra: 1
Spectrometers: USB2+H05261
Integration Time (usec): 100000 (USB2+H05261)
Spectra Averaged: 1 (USB2+H05261)
Boxcar Smoothing: 0 (USB2+H05261)
Correct for Electrical Dark: No (USB2+H05261)
Strobe/Lamp Enabled: No (USB2+H05261)
Correct for Detector Non-linearity: No (USB2+H05261)
Correct for Stray Light: No (USB2+H05261)
Number of Pixels in Processed Spectrum: 2048
>>>>>Begin Processed Spectral Data<<<<<
365.73	184.90
365.92	184.90
366.12	184.90
366.32	9.36
366.52	11.70
366.72	30.43
366.91	21.06
367.11	37.45
367.31	35.11
367.51	37.45
367.70	0.00
367.90	35.11
368.10	0.00
368.30	77.24
368.49	35.11
368.69	56.17
368.89	49.15
369.09	14.04
369.28	77.24
369.48	46.81
369.68	77.24
369.87	70.22
370.07	128.73
370.27	60.85
370.47	234.05
370.66	360.44
370.86	367.46
371.06	493.85
371.25	470.45
371.45	358.10
371.65	365.12
371.84	463.43
372.04	423.64
372.24	498.53
372.44	505.56
372.63	514.92
372.83	517.26
373.03	456.40
373.22	449.38
373.42	500.87
373.62	519.60
373.81	550.03
374.01	559.39
374.21	582.79
374.40	573.43
374.60	571.09
374.79	580.45
374.99	517.26
375.19	550.03
375.38	613.22
375.58	636.63
375.78	578.11
375.97	571.09
376.17	660.03
376.37	627.26
376.56	545.34
376.76	573.43
376.95	587.47
377.15	573.43
377.35	566.41
377.54	624.92
377.74	596.84
377.93	601.52
378.13	643.65
378.33	610.88
378.52	631.94
378.72	648.33
378.91	608.54
379.11	678.76
379.31	667.05
379.50	608.54
379.70	655.35
379.89	669.39
380.09	751.31
380.28	613.22
380.48	671.73
380.68	528.96
380.87	596.84
381.07	678.76
381.26	617.90
381.46	636.63
381.65	709.18
381.85	653.01
382.04	660.03
382.24	653.01
382.43	655.35
382.63	671.73
382.83	725.57
383.02	706.84
383.22	664.71
383.41	706.84
383.61	678.76
383.80	807.48
384.00	798.12
384.19	763.01
384.39	748.97
384.58	683.44
384.78	784.08
384.97	772.38
385.17	772.38
385.36	713.86
385.56	791.10
385.75	746.63
385.95	695.14
386.14	739.61
386.34	826.21
386.53	802.80
386.72	770.04
386.92	763.01
387.11	802.80
387.31	760.67
387.50	779.40
387.70	748.97
387.89	777.06
388.09	858.98
388.28	826.21
388.48	809.83
388.67	901.11
388.86	905.79
389.06	896.43
389.25	851.96
389.45	861.32
389.64	945.58
389.84	887.06
390.03	877.70
390.22	959.62
390.42	929.19
390.61	896.43
390.81	891.74
391.00	983.02
391.19	936.21
391.39	959.62
391.58	976.00
391.78	910.47
391.97	947.92
392.16	959.62
392.36	1043.88
392.55	964.30
392.75	987.71
392.94	898.77
393.13	1036.86
393.33	973.66
393.52	1034.52
393.71	1172.61
393.91	1043.88
394.10	1001.75
394.29	1032.18
394.49	1060.26
394.68	1043.88
394.88	1076.65
395.07	1102.39
395.26	1104.73
395.46	1153.88
395.65	1156.22
395.84	1053.24
396.04	1158.57
396.23	1125.80
396.42	1125.80
396.62	1097.71
396.81	1123.46
397.00	1107.07
397.19	1198.35
397.39	1198.35
397.58	1214.74
397.77	1181.97
397.97	1284.95
398.16	1242.82
398.35	1357.51
398.55	1266.23
398.74	1273.25
398.93	1291.98
399.12	1291.98
399.32	1310.70
399.51	1334.11
399.70	1418.36
399.90	1474.54
400.09	1376.24
400.28	1467.52
400.47	1460.49
400.67	1455.81
400.86	1519.01
401.05	1502.62
401.24	1490.92
401.44	1441.77
401.63	1526.03
401.82	1504.96
402.01	1497.94
402.21	1474.54
402.40	1593.90
402.59	1614.97
402.78	1614.97
402.97	1549.43
403.17	1582.20
403.36	1626.67
403.55	1605.61
403.74	1586.88
403.93	1694.55
404.13	1692.21
404.32	1614.97
404.51	1762.42
404.70	1736.68
404.89	1715.61
405.09	1802.21
405.28	1739.02
405.47	1799.87
405.66	1781.15
405.85	1774.13
406.05	1724.97
406.24	1818.60
406.43	1778.81
406.62	1804.55
406.81	1959.03
407.00	1743.70
407.20	1764.76
407.39	1963.71
407.58	1891.15
407.77	2040.95
407.96	1907.54
408.15	2008.18
408.34	2024.56
408.54	1975.41
408.73	2022.22
408.92	2108.82
409.11	2050.31
409.30	2008.18
409.49	2080.74
409.68	2050.31
409.87	1961.37
410.07	2176.70
410.26	2050.31
410.45	2186.06
410.64	2101.80
410.83	2221.17
411.02	2352.24
411.21	2216.49
411.40	2258.62
411.59	2253.94
411.78	2457.56
411.98	2270.32
412.17	2363.94
412.36	2490.33
412.55	2406.07
412.74	2361.60
412.93	2401.39
413.12	2420.11
413.31	2572.25
413.50	2583.95
413.69	2394.37
413.88	2637.78
414.07	2513.74
414.26	2661.19
414.45	2696.30
414.64	2708.00
414.83	2796.94
415.02	2670.55
415.22	2876.52
415.41	2747.79
415.60	2759.49
415.79	2864.82
415.98	2916.31
416.17	2979.50
416.36	2806.30
416.55	2892.90
416.74	2813.32
416.93	2860.13
417.12	2843.75
417.31	3035.67
417.50	3089.51
417.69	3243.98
417.88	3171.43
418.07	3073.12
418.26	3110.57
418.45	3016.95
418.64	3286.11
418.83	3222.92
419.02	3246.32
419.21	3194.83
419.39	3220.58
419.58	3136.32
419.77	3246.32
419.96	3300.16
420.15	3375.05
420.34	3424.20
420.53	3382.07
420.72	3478.04
420.91	3471.01
421.10	3487.40
421.29	3508.46
421.48	3445.27
421.67	3398.46
421.86	3342.28
422.05	3412.50
422.24	3349.31
422.43	3419.52
422.61	3515.48
422.80	3524.85
422.99	3655.92
423.18	3595.06
423.37	3639.53
423.56	3527.19
423.75	3599.74
423.94	3609.11
424.13	3246.32
424.32	3492.08
424.50	3667.62
424.69	3576.34
424.88	3590.38
425.07	3630.17
425.26	3728.47
425.45	3616.13
425.64	3522.51
425.83	3667.62
426.01	3641.87
426.20	3735.50
426.39	3658.26
426.58	3644.21
426.77	3592.72
426.96	3611.45
427.15	3590.38
427.33	3709.75
427.52	3623.15
427.71	3758.90
427.90	3829.12
428.09	3861.88
428.28	3822.09
428.46	3791.67
428.65	3789.33
428.84	3833.80
429.03	3925.08
429.22	3634.85
429.40	3730.81
429.59	3840.82
429.78	3693.37
429.97	3684.00
430.16	3805.71
430.34	3808.05
430.53	3911.04
430.72	3974.23
430.91	3922.74
431.10	4014.02
431.28	4037.42
431.47	4168.49
431.66	4322.97
431.85	4039.76
432.03	4149.77
432.22	4297.22
432.41	4241.05
432.60	4358.08
432.79	4304.25
432.97	4376.80
433.16	4271.48
433.35	4241.05
433.54	4386.16
433.72	4348.72
433.91	4395.53
434.10	4194.24
434.28	4489.15
434.47	4559.36
434.66	4613.20
434.85	4533.62
435.03	4493.83
435.22	4468.08
435.41	4575.75
435.59	4638.94
435.78	4706.82
435.97	4690.43
436.16	4655.33
436.34	4524.26
436.53	4770.01
436.72	4748.95
436.90	4599.15
437.09	4737.24
437.28	4531.28
437.46	4674.05
437.65	4739.58
437.84	4753.63
438.02	4718.52
438.21	4826.18
438.40	4737.24
438.58	4861.29
438.77	4873.00
438.96	4922.15
439.14	4985.34
439.33	5163.22
439.52	5132.79
439.70	5207.69
439.89	5252.16
440.08	5345.78
440.26	5245.14
440.45	5191.31
440.63	5434.72
440.82	5516.64
441.01	5495.58
441.19	5474.51
441.38	5486.22
441.57	5451.11
441.75	5736.65
441.94	5673.46
442.12	5701.54
442.31	5736.65
442.50	5736.65
442.68	5741.33
442.87	5729.63
443.05	5937.94
443.24	6038.58
443.43	5678.14
443.61	5891.13
443.80	5813.89
443.98	5617.29
444.17	5743.67
444.35	5888.79
444.54	6122.84
444.73	5823.25
444.91	5781.12
445.10	5853.68
445.28	5991.77
445.47	5785.80
445.65	5701.54
445.84	5966.03
446.02	6061.99
446.21	6036.24
446.39	6029.22
446.58	5919.21
446.77	6061.99
446.95	5792.83
447.14	6059.65
447.32	6094.76
447.51	6246.89
447.69	6092.41
447.88	6005.81
448.06	6078.37
448.25	6033.90
448.43	6263.27
448.62	5921.56
448.80	6143.91
448.99	5966.03
449.17	6080.71
449.36	6193.06
449.54	6333.49
449.73	6347.53
449.91	6408.39
450.10	6300.72
450.28	6567.54
450.46	6546.48
450.65	6654.14
450.83	6565.20
451.02	6389.66
451.20	6612.01
451.39	6672.87
451.57	6527.75
451.76	6539.46
451.94	6459.88
452.13	6595.63
452.31	6499.67
452.49	6588.61
452.68	6558.18
452.86	6499.67
453.05	6534.78
453.23	6581.59
453.42	6836.70
453.60	6516.05
453.78	6825.00
453.97	6927.99
454.15	6796.92
454.34	6679.89
454.52	6841.39
454.70	6843.73
454.89	6942.03
455.07	6867.13
455.26	7007.56
455.44	6995.86
455.62	6918.62
455.81	7087.14
455.99	6993.52
456.17	7087.14
456.36	7068.42
456.54	7204.17
456.73	7218.21
456.91	7295.45
457.09	7470.99
457.28	7377.37
457.46	7426.52
457.64	7297.79
457.83	7435.88
458.01	7414.82
458.19	7637.17
458.38	7403.11
458.56	7470.99
458.74	7470.99
458.93	7452.27
459.11	7559.93
459.29	7496.74
459.48	7779.94
459.66	7456.95
459.84	7520.14
460.03	7906.33
460.21	7733.13
460.39	7850.16
460.57	7740.15
460.76	7836.11
460.94	7815.05
461.12	7667.60
461.31	7918.03
461.49	7791.64
461.67	7971.86
461.85	7964.84
462.04	8056.12
462.22	8269.11
462.40	8175.49
462.59	8091.23
462.77	8219.96
462.95	8152.09
463.13	8156.77
463.32	8173.15
463.50	8313.58
463.68	8269.11
463.86	8152.09
464.05	8126.34
464.23	8266.77
464.41	8439.97
464.59	8159.11
464.78	8458.70
464.96	8442.31
465.14	8145.06
465.32	8549.98
465.50	8533.59
465.69	8542.96
465.87	8393.16
466.05	8379.12
466.23	8439.97
466.41	8519.55
466.60	8643.60
466.78	8564.02
466.96	8643.60
467.14	8425.93
467.32	8678.71
467.51	8685.73
467.69	8468.06
467.87	8690.41
468.05	8599.13
468.23	8793.39
468.41	8533.59
468.60	8774.67
468.78	8884.67
468.96	9006.38
469.14	8858.93
469.32	8793.39
469.50	8596.79
469.69	8737.22
469.87	9104.68
470.05	8903.40
470.23	9275.54
470.41	8947.87
470.59	9179.58
470.77	9191.28
470.95	9177.24
471.14	9310.65
471.32	9132.77
471.50	9439.38
471.68	9430.02
471.86	9540.02
472.04	9385.55
472.22	9652.37
472.40	9352.78
472.58	9383.21
472.77	9561.09
472.95	9540.02
473.13	9905.15
473.31	9673.43
473.49	9743.65
473.67	9806.84
473.85	9893.44
474.03	10097.07
474.21	10296.02
474.39	10293.68
474.57	10104.09
474.75	10328.78
474.93	10162.61
475.12	10277.29
475.30	10310.06
475.48	10368.57
475.66	10312.40
475.84	10394.32
476.02	10368.57
476.20	10665.82
476.38	10602.63
476.56	11131.59
476.74	11061.37
476.92	10946.69
477.10	10740.72
477.28	11279.04
477.46	11080.10
477.64	11197.12
477.82	11506.07
478.00	11499.05
478.18	11379.68
478.36	11520.12
478.54	11618.42
478.72	11744.81
478.90	11749.49
479.08	11918.01
479.26	12004.61
479.44	12042.06
479.62	12135.68
479.80	12329.94
479.98	12390.80
480.16	12601.44
480.34	12241.00
480.52	12634.21
480.70	12592.08
480.88	12442.29
481.06	12582.72
481.24	12985.29
481.41	12868.27
481.59	13055.51
481.77	13268.50
481.95	13128.06
482.13	13270.84
482.31	13385.52
482.49	13607.87
482.67	13701.50
482.85	13736.60
483.03	13832.57
483.21	13977.68
483.39	14185.99
483.57	14040.87
483.74	14188.33
483.92	14583.88
484.10	14263.22
484.28	14569.83
484.46	14677.50
484.64	15047.30
484.82	14703.25
485.00	14897.51
485.18	15311.78
485.35	15136.24
485.53	14956.02
485.71	15054.33
485.89	15665.21
486.07	15321.15
486.25	15583.29
486.43	15758.83
486.61	15613.71
486.78	16341.62
486.96	16091.18
487.14	16390.77
487.32	16601.42
487.50	16599.08
487.68	17022.72
487.85	17085.91
488.03	17015.69
488.21	17270.81
488.39	17193.58
488.57	17324.65
488.75	17558.70
488.92	17631.26
489.10	18136.81
489.28	18064.25
489.46	18101.70
489.64	18136.81
489.81	18384.91
489.99	18434.06
490.17	18934.93
490.35	19070.68
490.53	18827.27
490.70	18916.21
490.88	18909.19
491.06	19391.34
491.24	19133.88
491.41	19311.76
491.59	19257.93
491.77	19318.78
491.95	19789.23
492.13	19885.19
492.30	19730.72
492.48	20357.98
492.66	20252.66
492.84	20369.68
493.01	20554.58
493.19	20510.11
493.37	20332.23
493.54	20692.68
493.72	21010.99
493.90	20854.17
494.08	21502.50
494.25	21242.70
494.43	21282.49
494.61	21837.20
494.79	21593.78
494.96	21661.66
495.14	21738.90
495.32	22197.64
495.49	21804.43
495.67	22010.40
495.85	22347.44
496.02	22611.92
496.20	22410.63
496.38	22625.96
496.55	22822.56
496.73	23260.24
496.91	23040.23
497.09	23154.92
497.26	23276.63
497.44	23257.90
497.62	23358.55
497.79	23683.88
497.97	23506.00
498.14	23372.59
498.32	23857.08
498.50	23747.08
498.67	24383.70
498.85	24175.39
499.03	24465.62
499.20	24697.33
499.38	24180.07
499.56	24666.91
499.73	24772.23
499.91	24669.25
500.08	25076.50
500.26	24795.64
500.44	25230.98
500.61	24723.08
500.79	24863.51
500.97	25137.35
501.14	25195.87
501.32	25568.01
501.49	25352.68
501.67	25490.77
501.84	25610.14
502.02	25656.95
502.20	25813.77
502.37	26005.69
502.55	25703.76
502.72	25858.24
502.90	26164.85
503.07	25975.27
503.25	26654.02
503.43	26347.41
503.60	26286.56
503.78	26291.24
503.95	26352.09
504.13	26630.62
504.30	26848.29
504.48	26771.05
504.65	27164.26
504.83	27215.75
505.01	26951.27
505.18	26857.65
505.36	27676.83
505.53	27147.87
505.71	27922.59
505.88	27353.84
506.06	27311.71
506.23	27597.26
506.41	27529.38
506.58	27775.14
506.76	27620.66
506.93	28130.90
507.11	27894.50
507.28	28243.24
507.46	28048.98
507.63	28266.65
507.81	28390.70
507.98	28161.33
508.16	28369.63
508.33	28556.88
508.50	28912.64
508.68	28655.18
508.85	29020.30
509.03	29046.05
509.20	28652.84
509.38	29446.28
509.55	29371.38
509.73	29397.13
509.90	29331.59
510.08	29378.40
510.25	29399.47
510.42	29785.66
510.60	29731.83
510.77	30082.91
510.95	30232.70
511.12	29780.98
511.30	29818.42
511.47	30361.43
511.64	30314.62
511.82	30906.77
511.99	30352.07
512.17	30192.91
512.34	30078.22
512.51	30558.03
512.69	30764.00
512.86	30829.54
513.04	30941.88
513.21	30597.82
513.38	30712.51
513.56	30890.39
513.73	30487.82
513.90	31124.44
514.08	31152.53
514.25	31087.00
514.43	31108.06
514.60	31496.59
514.77	31517.65
514.95	31676.81
515.12	31365.52
515.29	31644.04
515.47	31658.09
515.64	31906.18
515.81	31527.02
515.99	31782.13
516.16	32041.93
516.33	31845.33
516.51	31908.52
516.68	31601.91
516.85	31496.59
517.03	31931.93
517.20	32091.09
517.37	32643.45
517.54	32081.72
517.72	32774.52
517.89	32432.80
518.06	32320.46
518.24	32362.59
518.41	32481.95
518.58	32631.75
518.75	33029.64
518.93	33092.83
519.10	32826.01
519.27	33113.90
519.45	33380.72
519.62	32905.59
519.79	32912.61
519.96	33532.86
520.14	33766.91
520.31	33266.03
520.48	33233.27
520.65	33689.67
520.83	34087.56
521.00	34047.77
521.17	34298.21
521.34	34038.41
521.52	33886.28
521.69	34206.93
521.86	34080.54
522.03	34459.71
522.20	33956.49
522.38	34026.71
522.55	34771.00
522.72	34494.82
522.89	34345.02
523.07	34609.50
523.24	34398.85
523.41	34749.93
523.58	34492.47
523.75	35065.91
523.92	35260.17
524.10	35339.75
524.27	35372.52
524.44	35501.25
524.61	35735.30
524.78	35253.15
524.96	35522.31
525.13	35414.65
525.30	35285.92
525.47	35948.29
525.64	35676.79
525.81	35873.39
525.98	35512.95
526.16	35744.66
526.33	35503.59
526.50	35571.46
526.67	35431.03
526.84	35573.80
527.01	35941.27
527.18	36044.25
527.36	35959.99
527.53	36161.28
527.70	36299.37
527.87	36430.44
528.04	36987.49
528.21	36596.62
528.38	36397.67
528.55	36116.81
528.72	36947.70
528.89	36397.67
529.07	36538.10
529.24	36285.33
529.41	36992.17
529.58	36769.82
529.75	36587.25
529.92	36825.99
530.09	36924.29
530.26	37085.79
530.43	37420.48
530.60	36870.46
530.77	37160.69
530.94	37139.62
531.11	37488.36
531.28	36999.19
531.46	37251.97
531.63	37476.66
531.80	37029.62
531.97	37359.63
532.14	37345.59
532.31	37383.04
532.48	37565.60
532.65	37699.01
532.82	37556.24
532.99	37860.51
533.16	37429.85
533.33	37738.80
533.50	38256.06
533.67	38089.88
533.84	37773.91
534.01	37886.25
534.18	38316.91
534.35	38153.07
534.52	38539.26
534.69	38347.34
534.86	38129.67
535.03	38337.98
535.20	38721.82
535.37	38880.98
535.54	38527.56
535.71	38569.69
535.88	38660.97
536.05	38256.06
536.22	38817.78
536.38	38644.59
536.55	38330.95
536.72	38572.03
536.89	38522.88
537.06	38796.72
537.23	39075.24
537.40	38796.72
537.57	39021.41
537.74	39030.77
537.91	38850.55
538.08	39435.69
538.25	39164.18
538.42	38878.64
538.59	39012.05
538.75	39030.77
538.92	38660.97
539.09	39325.68
539.26	39157.16
539.43	39178.23
539.60	39590.16
539.77	39077.58
539.94	39496.54
540.11	39702.51
540.28	39555.05
540.44	39473.13
540.61	39517.60
540.78	39517.60
540.95	39775.06
541.12	39749.32
541.29	39632.29
541.46	39906.13
541.62	39819.53
541.79	39990.39
541.96	39831.24
542.13	40023.16
542.30	40168.27
542.47	40098.06
542.63	39859.32
542.80	40294.66
542.97	40605.95
543.14	40739.36
543.31	40472.54
543.48	40545.10
543.64	40961.72
543.81	41017.89
543.98	40868.09
544.15	40655.11
544.32	41001.50
544.48	41127.89
544.65	41177.04
544.82	40849.37
544.99	40708.94
545.16	41289.39
545.32	40638.72
545.49	41694.30
545.66	41237.90
545.83	41504.72
546.00	41486.00
546.16	41165.34
546.33	40989.80
546.50	41275.35
546.67	41338.54
546.83	40945.33
547.00	41336.20
547.17	41354.93
547.34	41254.28
547.50	41769.20
547.67	41471.95
547.84	41532.81
548.00	41834.74
548.17	42117.94
548.34	42096.88
548.51	41954.10
548.67	41619.41
548.84	42108.58
549.01	41303.43
549.18	41811.33
549.34	42092.19
549.51	41977.51
549.68	41748.14
549.84	41848.78
550.01	42382.42
550.18	42422.21
550.34	41993.89
550.51	42204.54
550.68	41923.68
550.84	42178.79
551.01	42848.19
551.18	42529.87
551.34	41841.76
551.51	42637.54
551.68	42314.55
551.84	42562.64
552.01	42391.78
552.18	42848.19
552.34	41860.48
552.51	42534.56
552.68	42483.06
552.84	42693.71
553.01	42937.13
553.18	42506.47
553.34	42674.99
553.51	42038.36
553.67	42637.54
553.84	43136.07
554.01	43040.11
554.17	43112.67
554.34	43433.32
554.51	43028.41
554.67	43192.25
554.84	42838.83
555.00	43119.69
555.17	42866.91
555.33	42686.69
555.50	42351.99
555.67	43065.86
555.83	42934.79
556.00	43372.47
556.16	43690.78
556.33	43103.31
556.50	43159.48
556.66	43459.07
556.83	42766.27
556.99	42916.06
557.16	43688.44
557.32	43555.03
557.49	43009.68
557.65	42958.19
557.82	42958.19
557.98	43398.21
558.15	43241.40
558.32	43356.08
558.48	43250.76
558.65	43423.96
558.81	43194.59
558.98	43178.20
559.14	43374.81
559.31	43407.58
559.47	43428.64
559.64	43845.26
559.80	43395.87
559.97	43714.19
560.13	43210.97
560.30	43756.32
560.46	43784.40
560.63	43751.63
560.79	43906.11
560.96	44018.46
561.12	43983.35
561.29	43819.51
561.45	43519.92
561.61	43784.40
561.78	43758.66
561.94	43824.19
562.11	43756.32
562.27	43742.27
562.44	43217.99
562.60	43901.43
562.77	43856.96
562.93	43838.23
563.10	44144.84
563.26	43751.63
563.42	43758.66
563.59	43643.97
563.75	43721.21
563.92	43892.07
564.08	43964.62
564.24	44161.23
564.41	43943.56
564.57	43402.89
564.74	44168.25
564.90	43863.98
565.07	44289.96
565.23	44236.12
565.39	44158.89
565.56	44259.53
565.72	43887.39
565.88	43936.54
566.05	43838.23
566.21	43913.13
566.38	44189.31
566.54	43957.60
566.70	44334.43
566.87	44313.36
567.03	43941.22
567.19	44437.41
567.36	44273.57
567.52	43978.67
567.68	44460.82
567.85	44418.69
568.01	44289.96
568.17	44023.14
568.34	43929.51
568.50	44360.17
568.66	44261.87
568.83	44493.58
568.99	44458.48
569.15	43880.36
569.32	43971.64
569.48	43957.60
569.64	44432.73
569.81	44348.47
569.97	44123.78
570.13	44201.02
570.30	43894.41
570.46	44210.38
570.62	43732.91
570.78	44037.18
570.95	44261.87
571.11	44325.07
571.27	43861.64
571.43	44060.58
571.60	44194.00
571.76	44233.78
571.92	44638.70
572.09	43936.54
572.25	44507.63
572.41	44266.55
572.57	44573.16
572.74	44746.36
572.90	44533.37
573.06	44406.98
573.22	44657.42
573.38	44299.32
573.55	44521.67
573.71	44844.66
573.87	44538.05
574.03	44250.17
574.20	44722.96
574.36	44449.11
574.52	44495.92
574.68	44353.15
574.84	44179.95
575.01	44311.02
575.17	44367.20
575.33	44121.44
575.49	44250.17
575.65	44758.06
575.82	44863.39
575.98	44704.23
576.14	44872.75
576.30	44765.09
576.46	44664.44
576.62	44074.63
576.79	44002.07
576.95	44289.96
577.11	44669.12
577.27	44587.21
577.43	44683.17
577.59	44247.83
577.75	44584.86
577.92	44172.93
578.08	44041.86
578.24	44535.71
578.40	44580.18
578.56	44521.67
578.72	44364.85
578.88	44954.67
579.04	44692.53
579.21	44734.66
579.37	44432.73
579.53	44769.77
579.69	44397.62
579.85	44800.19
580.01	44692.53
580.17	44542.74
580.33	44720.62
580.49	44545.08
580.65	44783.81
580.82	44786.15
580.98	44746.36
581.14	44573.16
581.30	44957.01
581.46	45074.04
581.62	45078.72
581.78	44318.04
581.94	44687.85
582.10	44442.09
582.26	44596.57
582.42	44762.75
582.58	44823.60
582.74	44715.93
582.90	45036.59
583.06	44959.35
583.22	44666.78
583.38	44940.63
583.54	44811.90
583.70	44942.97
583.86	44687.85
584.02	44458.48
584.18	44900.84
584.34	44495.92
584.50	44697.21
584.66	44491.24
584.82	44374.22
584.98	44914.88
585.14	44690.19
585.30	44727.64
585.46	44776.79
585.62	44987.44
585.78	44463.16
585.94	44732.32
586.10	44865.73
586.26	44399.96
586.42	44776.79
586.58	44891.48
586.74	44854.03
586.90	44507.63
587.06	44786.15
587.22	44957.01
587.38	44727.64
587.54	44399.96
587.70	44584.86
587.86	44734.66
588.02	44879.77
588.18	44811.90
588.34	44577.84
588.49	44210.38
588.65	44322.72
588.81	44126.12
588.97	44243.15
589.13	44655.08
589.29	44556.78
589.45	45078.72
589.61	44821.26
589.77	44938.29
589.93	44832.96
590.08	44542.74
590.24	45155.96
