SpectraSuite Data File
++++++++++++++++++++++++++++++++++++
Date: Fri Oct 25 11:26:04 EDT 2013
User: price-jones
Dark Spectrum Present: No
Reference Spectrum Present: No
Number of Sampled Component Spectra: 1
Spectrometers: USB2+H05261
Integration Time (usec): 100000 (USB2+H05261)
Spectra Averaged: 1 (USB2+H05261)
Boxcar Smoothing: 0 (USB2+H05261)
Correct for Electrical Dark: No (USB2+H05261)
Strobe/Lamp Enabled: No (USB2+H05261)
Correct for Detector Non-linearity: No (USB2+H05261)
Correct for Stray Light: No (USB2+H05261)
Number of Pixels in Processed Spectrum: 2048
>>>>>Begin Processed Spectral Data<<<<<
365.73	184.90
365.92	184.90
366.12	184.90
366.32	175.54
366.52	72.56
366.72	236.39
366.91	121.71
367.11	126.39
367.31	114.69
367.51	121.71
367.70	229.37
367.90	138.09
368.10	53.83
368.30	173.20
368.49	110.01
368.69	88.94
368.89	166.18
369.09	79.58
369.28	245.76
369.48	119.37
369.68	203.63
369.87	173.20
370.07	215.33
370.27	299.59
370.47	334.70
370.66	578.11
370.86	599.18
371.06	662.37
371.25	737.27
371.45	638.97
371.65	704.50
371.84	688.12
372.04	704.50
372.24	711.52
372.44	737.27
372.63	779.40
372.83	692.80
373.03	800.46
373.22	758.33
373.42	723.23
373.62	763.01
373.81	730.25
374.01	877.70
374.21	863.66
374.40	805.14
374.60	823.87
374.79	866.00
374.99	807.48
375.19	936.21
375.38	814.51
375.58	856.64
375.78	936.21
375.97	835.57
376.17	971.32
376.37	875.36
376.56	866.00
376.76	887.06
376.95	847.27
377.15	830.89
377.35	915.15
377.54	901.11
377.74	905.79
377.93	837.91
378.13	976.00
378.33	1006.43
378.52	968.98
378.72	961.96
378.91	947.92
379.11	912.81
379.31	863.66
379.50	933.87
379.70	1027.50
379.89	976.00
380.09	999.41
380.28	978.34
380.48	1032.18
380.68	912.81
380.87	1039.20
381.07	952.60
381.26	1011.11
381.46	1006.43
381.65	1025.15
381.85	1083.67
382.04	1118.78
382.24	1036.86
382.43	1078.99
382.63	1076.65
382.83	1109.41
383.02	1109.41
383.22	1179.63
383.41	1135.16
383.61	1109.41
383.80	1212.40
384.00	1088.35
384.19	1081.33
384.39	1177.29
384.58	1139.84
384.78	1156.22
384.97	1107.07
385.17	1196.01
385.36	1177.29
385.56	1207.72
385.75	1118.78
385.95	1200.69
386.14	1193.67
386.34	1165.59
386.53	1219.42
386.72	1205.38
386.92	1217.08
387.11	1172.61
387.31	1341.13
387.50	1261.55
387.70	1240.48
387.89	1364.53
388.09	1249.85
388.28	1263.89
388.48	1301.34
388.67	1331.76
388.86	1308.36
389.06	1341.13
389.25	1362.19
389.45	1371.55
389.64	1359.85
389.84	1373.89
390.03	1380.92
390.22	1434.75
390.42	1376.24
390.61	1359.85
390.81	1369.21
391.00	1425.39
391.19	1483.90
391.39	1437.09
391.58	1364.53
391.78	1434.75
391.97	1423.05
392.16	1486.24
392.36	1577.52
392.55	1523.69
392.75	1462.83
392.94	1502.62
393.13	1544.75
393.33	1549.43
393.52	1521.35
393.71	1535.39
393.91	1638.38
394.10	1572.84
394.29	1577.52
394.49	1596.25
394.68	1598.59
394.88	1549.43
395.07	1643.06
395.26	1657.10
395.46	1612.63
395.65	1736.68
395.84	1755.40
396.04	1830.30
396.23	1689.87
396.42	1687.53
396.62	1778.81
396.81	1774.13
397.00	1699.23
397.19	1760.08
397.39	1666.46
397.58	1914.56
397.77	1776.47
397.97	1823.28
398.16	1783.49
398.35	1921.58
398.55	1944.99
398.74	1898.17
398.93	1954.35
399.12	1900.52
399.32	1872.43
399.51	2017.54
399.70	1982.43
399.90	1975.41
400.09	2001.16
400.28	1998.82
400.47	2069.03
400.67	2073.71
400.86	2022.22
401.05	1980.09
401.24	2083.08
401.44	2108.82
401.63	2167.34
401.82	2167.34
402.01	2097.12
402.21	2153.29
402.40	2174.36
402.59	2202.44
402.78	2157.97
402.97	2207.13
403.17	2181.38
403.36	2279.68
403.55	2324.15
403.74	2352.24
403.93	2305.43
404.13	2345.22
404.32	2321.81
404.51	2462.24
404.70	2518.42
404.89	2523.10
405.09	2499.69
405.28	2492.67
405.47	2555.86
405.66	2455.22
405.85	2457.56
406.05	2509.05
406.24	2593.31
406.43	2670.55
406.62	2698.64
406.81	2595.65
407.00	2633.10
407.20	2581.61
407.39	2544.16
407.58	2771.19
407.77	2698.64
407.96	2696.30
408.15	2785.24
408.34	2698.64
408.54	2771.19
408.73	2885.88
408.92	2773.53
409.11	2928.01
409.30	2928.01
409.49	2874.18
409.68	2902.26
409.87	2916.31
410.07	2991.20
410.26	2902.26
410.45	3101.21
410.64	3087.17
410.83	3178.45
411.02	3089.51
411.21	3185.47
411.40	3080.14
411.59	3300.16
411.78	3248.66
411.98	3353.99
412.17	3218.24
412.36	3279.09
412.55	3262.71
412.74	3445.27
412.93	3361.01
413.12	3421.86
413.31	3559.95
413.50	3438.25
413.69	3452.29
413.88	3662.94
414.07	3602.08
414.26	3681.66
414.45	3611.45
414.64	3705.07
414.83	3714.43
415.02	3721.45
415.22	3843.16
415.41	3751.88
415.60	3922.74
415.79	3918.06
415.98	4009.34
416.17	3985.93
416.36	3939.12
416.55	4109.98
416.74	4016.36
416.93	3960.19
417.12	4039.76
417.31	4184.88
417.50	4173.18
417.69	4248.07
417.88	4315.95
418.07	4301.90
418.26	4308.93
418.45	4374.46
418.64	4484.47
418.83	4362.76
419.02	4489.15
419.21	4442.34
419.39	4608.51
419.58	4564.04
419.77	4418.93
419.96	4578.09
420.15	4695.11
420.34	4594.47
420.53	4606.17
420.72	4744.27
420.91	4657.67
421.10	4760.65
421.29	4980.66
421.48	4856.61
421.67	4851.93
421.86	4748.95
422.05	4732.56
422.24	4774.69
422.43	4924.49
422.61	5025.13
422.80	4952.57
422.99	4936.19
423.18	5015.77
423.37	5046.20
423.56	4912.78
423.75	4851.93
423.94	4784.06
424.13	4669.37
424.32	4737.24
424.50	4973.64
424.69	5081.30
424.88	5034.49
425.07	5132.79
425.26	4873.00
425.45	4837.89
425.64	4973.64
425.83	4851.93
426.01	5011.09
426.20	5032.15
426.39	5057.90
426.58	5174.92
426.77	4968.96
426.96	5284.93
427.15	5060.24
427.33	5284.93
427.52	5186.63
427.71	5357.49
427.90	5245.14
428.09	5210.03
428.28	5331.74
428.46	5364.51
428.65	5280.25
428.84	5423.02
429.03	5418.34
429.22	5357.49
429.40	5579.84
429.59	5472.17
429.78	5352.81
429.97	5298.97
430.16	5493.24
430.34	5633.67
430.53	5643.03
430.72	5600.90
430.91	5584.52
431.10	5603.24
431.28	5930.92
431.47	5682.82
431.66	5767.08
431.85	5706.23
432.03	5820.91
432.22	5991.77
432.41	6001.13
432.60	6071.35
432.79	5926.24
432.97	5865.38
433.16	5954.32
433.35	6012.84
433.54	6211.78
433.72	6263.27
433.91	6303.06
434.10	6225.82
434.28	6352.21
434.47	6115.82
434.66	6127.52
434.85	6204.76
435.03	6326.47
435.22	6146.25
435.41	6574.56
435.59	6401.37
435.78	6415.41
435.97	6382.64
436.16	6436.47
436.34	6436.47
436.53	6452.86
436.72	6558.18
436.90	6555.84
437.09	6621.38
437.28	6476.26
437.46	6466.90
437.65	6672.87
437.84	6569.88
438.02	6778.19
438.21	6881.18
438.40	6679.89
438.58	6897.56
438.77	7042.67
438.96	6935.01
439.14	7063.74
439.33	7288.43
439.52	7267.36
439.70	7133.95
439.89	7346.94
440.08	7438.22
440.26	7393.75
440.45	7187.79
440.63	7520.14
440.82	7583.34
441.01	7522.48
441.19	7829.09
441.38	7543.55
441.57	7707.38
441.75	7838.45
441.94	7810.37
442.12	8056.12
442.31	8002.29
442.50	8013.99
442.68	7932.08
442.87	7859.52
443.05	8161.45
443.24	8112.30
443.43	8276.13
443.61	8016.33
443.80	8339.33
443.98	7946.12
444.17	7871.22
444.35	8035.06
444.54	8390.82
444.73	8418.91
444.91	8339.33
445.10	8493.80
445.28	8381.46
445.47	8346.35
445.65	8484.44
445.84	8320.60
446.02	8369.76
446.21	8358.05
446.39	8393.16
446.58	8430.61
446.77	8564.02
446.95	8217.62
447.14	8528.91
447.32	8571.04
447.51	8468.06
447.69	8484.44
447.88	8439.97
448.06	8325.29
448.25	8549.98
448.43	8514.87
448.62	8542.96
448.80	8402.52
448.99	8652.96
449.17	8741.90
449.36	8592.11
449.54	8882.33
449.73	8971.27
449.91	8915.10
450.10	8943.19
450.28	8985.32
450.46	9027.45
450.65	9170.22
450.83	9039.15
451.02	9165.54
451.20	9364.48
451.39	9298.95
451.57	9371.50
451.76	9053.19
451.94	9165.54
452.13	9317.67
452.31	9315.33
452.49	9109.36
452.68	9284.91
452.86	9296.61
453.05	9446.40
453.23	9563.43
453.42	9476.83
453.60	9284.91
453.78	9563.43
453.97	9423.00
454.15	9460.45
454.34	9423.00
454.52	9783.44
454.70	9650.03
454.89	9748.33
455.07	9710.88
455.26	9919.19
455.44	9944.94
455.62	9769.40
455.81	9970.68
455.99	10026.86
456.17	10183.67
456.36	9923.87
456.54	10148.56
456.73	10279.63
456.91	10534.75
457.09	10289.00
457.28	10420.06
457.46	10368.57
457.64	10656.46
457.83	10506.66
458.01	10480.92
458.19	10827.32
458.38	10565.18
458.56	10700.93
458.74	10640.08
458.93	10607.31
459.11	10705.61
459.29	10857.75
459.48	10604.97
459.66	10686.89
459.84	11112.86
460.03	11070.73
460.21	11042.65
460.39	11000.52
460.57	10995.84
460.76	11173.72
460.94	11171.38
461.12	11002.86
461.31	11143.29
461.49	11129.25
461.67	11169.04
461.85	11344.58
462.04	11084.78
462.22	11833.75
462.40	11520.12
462.59	11379.68
462.77	11426.50
462.95	11672.25
463.13	11468.62
463.32	11833.75
463.50	11592.67
463.68	11812.68
463.86	11644.17
464.05	11599.70
464.23	11690.98
464.41	12044.40
464.59	11922.69
464.78	12067.80
464.96	11871.20
465.14	12056.10
465.32	12351.01
465.50	12049.08
465.69	12346.33
465.87	12189.51
466.05	12053.76
466.23	12233.98
466.41	12215.26
466.60	12624.85
466.78	12116.95
466.96	12343.99
467.14	12348.67
467.32	12250.36
467.51	12507.82
467.69	12236.32
467.87	12439.95
468.05	12468.03
468.23	12390.80
468.41	12343.99
468.60	12241.00
468.78	12428.24
468.96	12568.68
469.14	12999.34
469.32	12931.46
469.50	12571.02
469.69	12992.31
469.87	13163.17
470.05	13125.72
470.23	13245.09
470.41	13158.49
470.59	13511.91
470.77	13259.13
470.95	13242.75
471.14	13488.51
471.32	13163.17
471.50	13481.49
471.68	13603.19
471.86	13453.40
472.04	13837.25
472.22	14099.39
472.40	13680.43
472.58	13935.55
472.77	14045.55
472.95	14139.18
473.13	14445.79
473.31	13956.61
473.49	14118.11
473.67	14260.88
473.85	14148.54
474.03	14675.16
474.21	14724.31
474.39	14792.19
474.57	14670.48
474.75	15066.03
474.93	14974.75
475.12	14864.74
475.30	15037.94
475.48	14949.00
475.66	15066.03
475.84	15257.95
476.02	15295.40
476.20	15197.10
476.38	15667.55
476.56	15882.88
476.74	15824.36
476.92	15609.03
477.10	15829.04
477.28	16081.82
477.46	16226.93
477.64	16468.01
477.82	16725.47
478.00	16912.71
478.18	16716.11
478.36	16936.12
478.54	17032.08
478.72	17018.04
478.90	17408.90
479.08	17640.62
479.26	17635.94
479.44	17823.18
479.62	17841.90
479.80	18010.42
479.98	18253.84
480.16	18555.77
480.34	18398.95
480.52	18740.67
480.70	18764.07
480.88	18284.26
481.06	18661.09
481.24	19007.49
481.41	19433.47
481.59	19506.02
481.77	19686.25
481.95	19302.40
482.13	19777.53
482.31	19578.58
482.49	20283.08
482.67	20233.93
482.85	20233.93
483.03	20390.75
483.21	20680.97
483.39	20664.59
483.57	20732.47
483.74	21142.06
483.92	21270.79
484.10	21336.32
484.28	21516.54
484.46	22211.68
484.64	22169.55
484.82	21837.20
485.00	22417.65
485.18	22831.93
485.35	22796.82
485.53	22932.57
485.71	22672.77
485.89	23917.93
486.07	23302.37
486.25	23384.29
486.43	23573.88
486.61	23967.09
486.78	24105.18
486.96	24280.72
487.14	24617.75
487.32	24730.10
487.50	24744.14
487.68	25048.41
487.85	25235.66
488.03	25624.18
488.21	25919.09
488.39	25785.68
488.57	26291.24
488.75	26288.90
488.92	26300.60
489.10	26867.01
489.28	26939.57
489.46	26878.71
489.64	27049.57
489.81	27763.43
489.99	27615.98
490.17	27597.26
490.35	27957.70
490.53	28465.60
490.70	28276.01
490.88	28105.15
491.06	28774.55
491.24	28744.12
491.41	28907.96
491.59	28840.08
491.77	29294.14
491.95	29663.95
492.13	29668.63
492.30	30050.14
492.48	29893.32
492.66	30277.17
492.84	30284.19
493.01	30745.28
493.19	30251.42
493.37	31159.55
493.54	31173.60
493.72	31459.14
493.90	31587.87
494.08	31321.05
494.25	31896.82
494.43	32364.93
494.61	32531.11
494.79	32708.99
494.96	32416.42
495.14	32465.57
495.32	33013.26
495.49	33221.56
495.67	32870.48
495.85	33394.76
496.02	33893.30
496.20	33713.08
496.38	34162.46
496.55	34408.22
496.73	34946.54
496.91	34389.49
497.09	34803.77
497.26	34740.57
497.44	34675.04
497.62	34686.74
497.79	35613.59
497.97	35211.02
498.14	35583.16
498.32	36123.83
498.50	36231.49
498.67	36367.24
498.85	36510.02
499.03	36671.51
499.20	36627.04
499.38	36928.97
499.56	37085.79
499.73	36811.95
499.91	37085.79
500.08	37333.89
500.26	37158.34
500.44	37305.80
500.61	38227.97
500.79	37886.25
500.97	37787.95
501.14	38389.47
501.32	38450.32
501.49	38529.90
501.67	38675.01
501.84	39192.27
502.02	39236.74
502.20	38965.24
502.37	39398.24
502.55	38948.85
502.72	39484.84
502.90	39227.38
503.07	39325.68
503.25	39683.78
503.43	39407.60
503.60	40018.48
503.78	39931.88
503.95	39999.76
504.13	40711.28
504.30	40659.79
504.48	40603.61
504.65	40353.18
504.83	40961.72
505.01	41104.49
505.18	41317.48
505.36	41603.02
505.53	41301.09
505.71	41350.24
505.88	42143.69
506.06	41708.35
506.23	42258.37
506.41	42195.18
506.58	42176.45
506.76	41947.08
506.93	42438.59
507.11	42344.97
507.28	42808.40
507.46	42403.49
507.63	42815.42
507.81	43105.65
507.98	42976.92
508.16	43440.34
508.33	43161.82
508.50	43693.12
508.68	43650.99
508.85	43793.76
509.03	43814.83
509.20	44336.77
509.38	44378.90
509.55	44629.34
509.73	44243.15
509.90	44467.84
510.08	44739.34
510.25	44505.29
510.42	44737.00
510.60	44931.26
510.77	45345.54
510.95	45830.03
511.12	45207.45
511.30	45013.18
511.47	45223.83
511.64	45235.53
511.82	45806.62
511.99	45666.19
512.17	46122.60
512.34	45677.90
512.51	46389.42
512.69	45998.55
512.86	46218.56
513.04	46864.55
513.21	46218.56
513.38	46625.81
513.56	47126.69
513.73	46930.08
513.90	47136.05
514.08	46986.25
514.25	47358.40
514.43	47379.46
514.60	47299.89
514.77	47421.59
514.95	47583.09
515.12	47327.97
515.29	47229.67
515.47	48034.81
515.64	48053.54
515.81	47749.27
515.99	48210.35
516.16	48423.34
516.33	48200.99
516.51	48816.55
516.68	48355.47
516.85	48566.12
517.03	48849.32
517.20	48769.74
517.37	48385.89
517.54	49066.99
517.72	48783.79
517.89	48952.30
518.06	48999.12
518.24	49240.19
518.41	48662.08
518.58	49619.36
518.75	49240.19
518.93	49696.59
519.10	49354.88
519.27	49876.82
519.45	49853.41
519.62	49696.59
519.79	49867.45
519.96	49724.68
520.14	50513.44
520.31	49837.03
520.48	50513.44
520.65	50211.51
520.83	50710.05
521.00	50731.11
521.17	50754.52
521.34	50541.53
521.52	50894.95
521.69	50965.17
521.86	50855.16
522.03	51033.04
522.20	51327.95
522.38	51398.16
522.55	51452.00
522.72	51147.73
522.89	51222.62
523.07	51894.36
523.24	51182.84
523.41	51655.62
523.58	51442.63
523.75	51987.98
523.92	51583.07
524.10	51955.21
524.27	51927.13
524.44	51887.34
524.61	52083.94
524.78	52128.41
524.96	51948.19
525.13	52086.28
525.30	52320.34
525.47	52596.52
525.64	52554.39
525.81	52900.79
525.98	52556.73
526.16	52463.11
526.33	52762.70
526.50	52959.30
526.67	52554.39
526.84	52956.96
527.01	52996.75
527.18	52814.19
527.36	52851.64
527.53	53024.84
527.70	53389.96
527.87	53277.61
528.04	53275.27
528.21	53151.23
528.38	53478.90
528.55	53581.88
528.72	53200.38
528.89	53635.72
529.07	53284.64
529.24	53378.26
529.41	53794.87
529.58	53457.84
529.75	53839.34
529.92	53914.24
530.09	53965.73
530.26	53947.01
530.43	54010.20
530.60	53626.35
530.77	53687.21
530.94	53986.80
531.11	54113.19
531.28	54129.57
531.46	54288.73
531.63	54096.80
531.80	53951.69
531.97	54356.60
532.14	54436.18
532.31	54518.10
532.48	54525.12
532.65	54553.21
532.82	54241.92
532.99	54578.95
533.16	54281.70
533.33	54822.37
533.50	54913.65
533.67	54717.04
533.84	55180.47
534.01	54997.91
534.18	55224.94
534.35	55327.92
534.52	54862.16
534.69	55044.72
534.86	55093.87
535.03	55033.02
535.20	55065.78
535.37	55573.68
535.54	55384.10
535.71	55463.67
535.88	55433.25
536.05	55466.02
536.22	55559.64
536.38	55583.04
536.55	55613.47
536.72	55519.85
536.89	55304.52
537.06	55751.56
537.23	55957.53
537.40	55639.22
537.57	55772.63
537.74	55522.19
537.91	56163.50
538.08	55744.54
538.25	55774.97
538.42	55833.48
538.59	55877.95
538.75	56048.81
538.92	55945.83
539.09	56102.64
539.26	55994.98
539.43	55952.85
539.60	56109.66
539.77	56250.09
539.94	56383.51
540.11	56416.27
540.28	56315.63
540.44	56556.70
540.61	56451.38
540.78	56266.48
540.95	56285.20
541.12	56177.54
541.29	56612.88
541.46	56374.14
541.62	56395.21
541.79	56591.81
541.96	56135.41
542.13	56516.92
542.30	56650.33
542.47	56865.66
542.63	56762.67
542.80	57036.51
542.97	57151.20
543.14	57207.37
543.31	57195.67
543.48	57308.02
543.64	57242.48
543.81	57165.24
543.98	57132.48
544.15	57193.33
544.32	57324.40
544.48	57605.26
544.65	57340.78
544.82	57361.85
544.99	57120.77
545.16	57649.74
545.32	57733.99
545.49	57888.47
545.66	57535.05
545.83	57715.27
546.00	57687.18
546.16	57623.99
546.33	57616.97
546.50	57628.67
546.67	57631.01
546.83	57420.36
547.00	57656.76
547.17	57689.52
547.34	57598.24
547.50	57909.53
547.67	58073.37
547.84	57939.96
548.00	58061.67
548.17	58014.86
548.34	58159.97
548.51	58000.82
548.67	58237.21
548.84	58085.07
549.01	58134.23
549.18	58398.71
549.34	58064.01
549.51	58234.87
549.68	58244.23
549.84	58401.05
550.01	58478.28
550.18	58141.25
550.34	58340.19
550.51	58298.06
550.68	58438.50
550.84	57921.24
551.01	58513.39
551.18	58539.14
551.34	58349.56
551.51	58475.94
551.68	58424.45
551.84	58433.81
552.01	58443.18
552.18	58628.08
552.34	58145.93
552.51	58770.85
552.68	58464.24
552.84	58492.33
553.01	59079.80
553.18	58967.46
553.34	58749.79
553.51	58595.31
553.67	58698.30
553.84	59002.56
554.01	58801.28
554.17	59044.69
554.34	59025.97
554.51	58887.88
554.67	58820.00
554.84	59096.19
555.00	58801.28
555.17	58855.11
555.33	59166.40
555.50	59086.82
555.67	59037.67
555.83	58892.56
556.00	58782.55
556.16	59363.01
556.33	59157.04
556.50	59288.11
556.66	59290.45
556.83	59035.33
556.99	59309.18
557.16	59536.21
557.32	59391.09
557.49	59494.08
557.65	59449.61
557.82	59491.74
557.98	59400.46
558.15	59143.00
558.32	59545.57
558.48	59379.39
558.65	59358.33
558.81	59334.92
558.98	59601.74
559.14	59653.23
559.31	59608.76
559.47	59812.39
559.64	59657.91
559.80	59718.77
559.97	59678.98
560.13	59473.01
560.30	59337.26
560.46	59718.77
560.63	59594.72
560.79	59676.64
560.96	59723.45
561.12	59765.58
561.29	59917.71
561.45	59999.63
561.61	59639.19
561.78	59861.54
561.94	59777.28
562.11	59800.69
562.27	59854.52
562.44	60041.76
562.60	60006.65
562.77	59969.21
562.93	59716.43
563.10	60086.23
563.26	59896.65
563.42	60177.51
563.59	60051.12
563.75	60111.98
563.92	60027.72
564.08	60076.87
564.24	60090.91
564.41	60083.89
564.57	60247.73
564.74	60172.83
564.90	59962.18
565.07	60032.40
565.23	60236.03
565.39	60168.15
565.56	60053.47
565.72	60100.28
565.88	60259.43
566.05	60144.75
566.21	59927.08
566.38	60074.53
566.54	60133.04
566.70	60285.18
566.87	60292.20
567.03	60090.91
567.19	60446.68
567.36	60252.41
567.52	60156.45
567.68	60376.46
567.85	60343.69
568.01	60296.88
568.17	60259.43
568.34	60172.83
568.50	60406.89
568.66	60411.57
568.83	60334.33
568.99	60303.90
569.15	60521.57
569.32	60381.14
569.48	60250.07
569.64	60622.22
569.81	60610.51
569.97	60383.48
570.13	60238.37
570.30	60444.33
570.46	60280.50
570.62	60434.97
570.78	60498.17
570.95	60470.08
571.11	60446.68
571.27	60397.52
571.43	60512.21
571.60	60612.85
571.76	60713.50
571.92	60725.20
572.09	60594.13
572.25	60631.58
572.41	60505.19
572.57	60528.59
572.74	60823.50
572.90	60491.15
573.06	60535.62
573.22	60706.47
573.38	60591.79
573.55	60563.70
573.71	60825.84
573.87	60711.16
574.03	60743.92
574.20	60582.43
574.36	60629.24
574.52	60676.05
574.68	60837.54
574.84	60767.33
575.01	60488.80
575.17	60643.28
575.33	60561.36
575.49	60617.53
575.65	60783.71
575.82	60477.10
575.98	60764.99
576.14	60926.49
576.30	60633.92
576.46	60626.90
576.62	60992.02
576.79	60767.33
576.95	60622.22
577.11	60629.24
577.27	60839.89
577.43	60952.23
577.59	60736.90
577.75	60795.42
577.92	60893.72
578.08	60626.90
578.24	60877.33
578.40	60935.85
578.56	60793.07
578.72	60942.87
578.88	60980.32
579.04	61055.21
579.21	60919.46
579.37	60928.83
579.53	61097.34
579.69	60779.03
579.85	60839.89
580.01	60582.43
580.17	60552.00
580.33	60907.76
580.49	60846.91
580.65	60928.83
580.82	60818.82
580.98	60837.54
581.14	60786.05
581.30	61034.15
581.46	60872.65
581.62	61139.47
581.78	60807.12
581.94	60980.32
582.10	61029.47
582.26	60814.14
582.42	60814.14
582.58	60942.87
582.74	60853.93
582.90	61052.87
583.06	60816.48
583.22	60823.50
583.38	60882.02
583.54	61127.77
583.70	60933.51
583.86	60973.30
584.02	60659.66
584.18	60977.98
584.34	61036.49
584.50	61048.19
584.66	60954.57
584.82	60657.32
584.98	61207.35
585.14	61029.47
585.30	60732.22
585.46	61195.65
585.62	60973.30
585.78	61155.86
585.94	60830.52
586.10	60814.14
586.26	60999.04
586.42	60945.21
586.58	61109.05
586.74	61015.43
586.90	60935.85
587.06	60987.34
587.22	61137.13
587.38	60977.98
587.54	61240.12
587.70	61216.71
587.86	61062.24
588.02	60966.27
588.18	61226.07
588.34	61017.77
588.49	60977.98
