SpectraSuite Data File
++++++++++++++++++++++++++++++++++++
Date: Fri Oct 25 10:48:01 EDT 2013
User: price-jones
Dark Spectrum Present: No
Reference Spectrum Present: No
Number of Sampled Component Spectra: 1
Spectrometers: USB2+H05261
Integration Time (usec): 100000 (USB2+H05261)
Spectra Averaged: 1 (USB2+H05261)
Boxcar Smoothing: 0 (USB2+H05261)
Correct for Electrical Dark: No (USB2+H05261)
Strobe/Lamp Enabled: No (USB2+H05261)
Correct for Detector Non-linearity: No (USB2+H05261)
Correct for Stray Light: No (USB2+H05261)
Number of Pixels in Processed Spectrum: 2048
>>>>>Begin Processed Spectral Data<<<<<
365.73	161.50
365.92	161.50
366.12	161.50
366.32	93.62
366.52	72.56
366.72	37.45
366.91	98.30
367.11	21.06
367.31	0.00
367.51	98.30
367.70	46.81
367.90	49.15
368.10	53.83
368.30	44.47
368.49	23.41
368.69	121.71
368.89	86.60
369.09	95.96
369.28	35.11
369.48	39.79
369.68	23.41
369.87	114.69
370.07	77.24
370.27	105.32
370.47	142.77
370.66	407.25
370.86	435.34
371.06	477.47
371.25	470.45
371.45	463.43
371.65	444.70
371.84	390.87
372.04	489.17
372.24	517.26
372.44	444.70
372.63	449.38
372.83	507.90
373.03	456.40
373.22	472.79
373.42	489.17
373.62	519.60
373.81	435.34
374.01	552.37
374.21	538.32
374.40	627.26
374.60	557.05
374.79	531.30
374.99	585.13
375.19	615.56
375.38	601.52
375.58	629.60
375.78	645.99
375.97	606.20
376.17	732.59
376.37	641.31
376.56	568.75
376.76	491.51
376.95	573.43
377.15	650.67
377.35	519.60
377.54	709.18
377.74	500.87
377.93	587.47
378.13	692.80
378.33	671.73
378.52	634.29
378.72	538.32
378.91	622.58
379.11	601.52
379.31	657.69
379.50	620.24
379.70	643.65
379.89	685.78
380.09	624.92
380.28	552.37
380.48	592.16
380.68	704.50
380.87	664.71
381.07	695.14
381.26	720.88
381.46	587.47
381.65	678.76
381.85	704.50
382.04	660.03
382.24	692.80
382.43	786.42
382.63	737.27
382.83	683.44
383.02	760.67
383.22	594.50
383.41	718.54
383.61	727.91
383.80	753.65
384.00	692.80
384.19	730.25
384.39	781.74
384.58	669.39
384.78	744.29
384.97	730.25
385.17	683.44
385.36	767.70
385.56	730.25
385.75	741.95
385.95	779.40
386.14	697.48
386.34	793.44
386.53	786.42
386.72	814.51
386.92	840.25
387.11	866.00
387.31	805.14
387.50	816.85
387.70	798.12
387.89	814.51
388.09	863.66
388.28	758.33
388.48	842.59
388.67	877.70
388.86	816.85
389.06	849.61
389.25	917.49
389.45	933.87
389.64	870.68
389.84	814.51
390.03	950.26
390.22	861.32
390.42	884.72
390.61	894.08
390.81	931.53
391.00	940.90
391.19	901.11
391.39	976.00
391.58	961.96
391.78	1006.43
391.97	966.64
392.16	875.36
392.36	1018.13
392.55	938.55
392.75	959.62
392.94	898.77
393.13	999.41
393.33	915.15
393.52	919.83
393.71	1057.92
393.91	1015.79
394.10	1029.84
394.29	1071.97
394.49	1081.33
394.68	1076.65
394.88	1081.33
395.07	1067.28
395.26	1135.16
395.46	1083.67
395.65	1146.86
395.84	1039.20
396.04	1212.40
396.23	1111.75
396.42	1118.78
396.62	1100.05
396.81	1137.50
397.00	1153.88
397.19	1174.95
397.39	1217.08
397.58	1217.08
397.77	1172.61
397.97	1167.93
398.16	1322.40
398.35	1275.59
398.55	1170.27
398.74	1299.00
398.93	1303.68
399.12	1308.36
399.32	1294.32
399.51	1364.53
399.70	1273.25
399.90	1334.11
400.09	1479.22
400.28	1371.55
400.47	1317.72
400.67	1334.11
400.86	1376.24
401.05	1413.68
401.24	1371.55
401.44	1383.26
401.63	1495.60
401.82	1472.20
402.01	1493.26
402.21	1511.99
402.40	1516.67
402.59	1589.22
402.78	1528.37
402.97	1502.62
403.17	1540.07
403.36	1551.78
403.55	1577.52
403.74	1643.06
403.93	1600.93
404.13	1654.76
404.32	1605.61
404.51	1685.19
404.70	1703.91
404.89	1687.53
405.09	1832.64
405.28	1741.36
405.47	1746.04
405.66	1708.59
405.85	1717.95
406.05	1659.44
406.24	1724.97
406.43	1680.50
406.62	1785.83
406.81	1874.77
407.00	1781.15
407.20	1818.60
407.39	1813.92
407.58	1839.66
407.77	1916.90
407.96	1884.13
408.15	1926.26
408.34	1928.60
408.54	1870.09
408.73	1952.01
408.92	2001.16
409.11	2045.63
409.30	2024.56
409.49	1907.54
409.68	1977.75
409.87	1961.37
410.07	2050.31
410.26	2054.99
410.45	2083.08
410.64	2225.85
410.83	2188.40
411.02	2127.55
411.21	2218.83
411.40	2160.31
411.59	2242.23
411.78	2244.57
411.98	2366.28
412.17	2338.20
412.36	2377.98
412.55	2310.11
412.74	2406.07
412.93	2415.43
413.12	2340.54
413.31	2368.62
413.50	2385.01
413.69	2476.29
413.88	2516.08
414.07	2532.46
414.26	2513.74
414.45	2630.76
414.64	2548.84
414.83	2558.21
415.02	2633.10
415.22	2738.43
415.41	2700.98
415.60	2747.79
415.79	2658.85
415.98	2862.48
416.17	2710.34
416.36	2820.35
416.55	2871.84
416.74	2818.00
416.93	2888.22
417.12	2892.90
417.31	2899.92
417.50	2951.42
417.69	3033.33
417.88	3035.67
418.07	3023.97
418.26	2946.73
418.45	2984.18
418.64	3133.98
418.83	3171.43
419.02	3110.57
419.21	3075.46
419.39	3145.68
419.58	3000.57
419.77	3110.57
419.96	3267.39
420.15	3349.31
420.34	3239.30
420.53	3229.94
420.72	3265.05
420.91	3190.15
421.10	3332.92
421.29	3410.16
421.48	3239.30
421.67	3384.41
421.86	3295.47
422.05	3447.61
422.24	3368.03
422.43	3396.12
422.61	3398.46
422.80	3370.37
422.99	3382.07
423.18	3353.99
423.37	3435.91
423.56	3499.10
423.75	3449.95
423.94	3494.42
424.13	3279.09
424.32	3337.60
424.50	3569.32
424.69	3487.40
424.88	3421.86
425.07	3346.97
425.26	3382.07
425.45	3375.05
425.64	3508.46
425.83	3489.74
426.01	3578.68
426.20	3398.46
426.39	3597.40
426.58	3475.70
426.77	3513.14
426.96	3581.02
427.15	3632.51
427.33	3578.68
427.52	3576.34
427.71	3695.71
427.90	3637.19
428.09	3627.83
428.28	3669.96
428.46	3726.13
428.65	3749.54
428.84	3796.35
429.03	3831.46
429.22	3662.94
429.40	3709.75
429.59	3758.90
429.78	3602.08
429.97	3576.34
430.16	3735.50
430.34	3868.91
430.53	3887.63
430.72	3705.07
430.91	3812.73
431.10	3943.80
431.28	4166.15
431.47	4133.39
431.66	4095.94
431.85	4102.96
432.03	4077.21
432.22	4161.47
432.41	4124.02
432.60	4131.05
432.79	4100.62
432.97	4194.24
433.16	4231.69
433.35	4198.92
433.54	4318.29
433.72	4332.33
433.91	4208.28
434.10	4182.54
434.28	4306.59
434.47	4105.30
434.66	4365.10
434.85	4337.01
435.03	4255.09
435.22	4299.56
435.41	4566.39
435.59	4489.15
435.78	4425.95
435.97	4582.77
436.16	4421.27
436.34	4402.55
436.53	4578.09
436.72	4592.13
436.90	4381.48
437.09	4428.29
437.28	4430.63
437.46	4561.70
437.65	4507.87
437.84	4624.90
438.02	4603.83
438.21	4610.86
438.40	4519.57
438.58	4706.82
438.77	4873.00
438.96	4652.98
439.14	5022.79
439.33	5064.92
439.52	5032.15
439.70	4975.98
439.89	4952.57
440.08	5146.84
440.26	5004.07
440.45	5036.83
440.63	5011.09
440.82	5193.65
441.01	5352.81
441.19	5090.67
441.38	5289.61
441.57	5430.04
441.75	5289.61
441.94	5572.82
442.12	5551.75
442.31	5603.24
442.50	5504.94
442.68	5502.60
442.87	5572.82
443.05	5706.23
443.24	5699.20
443.43	5799.85
443.61	5685.16
443.80	5839.64
443.98	5654.73
444.17	5465.15
444.35	5558.77
444.54	5703.89
444.73	5771.76
444.91	5785.80
445.10	5710.91
445.28	5675.80
445.47	5657.07
445.65	5694.52
445.84	5703.89
446.02	5954.32
446.21	5776.44
446.39	5867.72
446.58	5767.08
446.77	5982.41
446.95	5577.50
447.14	5949.64
447.32	5898.15
447.51	5853.68
447.69	5778.78
447.88	5813.89
448.06	5933.26
448.25	5900.49
448.43	6136.88
448.62	6003.47
448.80	5853.68
448.99	5940.28
449.17	5947.30
449.36	5902.83
449.54	6040.92
449.73	6101.78
449.91	6328.81
450.10	6174.33
450.28	6258.59
450.46	6267.95
450.65	6321.79
450.83	6298.38
451.02	6317.11
451.20	6258.59
451.39	6312.42
451.57	6303.06
451.76	6197.74
451.94	6408.39
452.13	6560.52
452.31	6424.77
452.49	6071.35
452.68	6471.58
452.86	6408.39
453.05	6469.24
453.23	6448.18
453.42	6420.09
453.60	6504.35
453.78	6623.72
453.97	6663.51
454.15	6335.83
454.34	6647.12
454.52	6689.25
454.70	6595.63
454.89	6684.57
455.07	6736.06
455.26	6665.85
455.44	6937.35
455.62	6834.36
455.81	6834.36
455.99	6930.33
456.17	6986.50
456.36	7002.88
456.54	7030.97
456.73	7061.40
456.91	7194.81
457.09	7087.14
457.28	7400.77
457.46	6988.84
457.64	7140.97
457.83	7222.89
458.01	7208.85
458.19	7330.56
458.38	7215.87
458.56	7372.69
458.74	7442.90
458.93	7286.09
459.11	7318.86
459.29	7304.81
459.48	7321.20
459.66	7150.34
459.84	7541.21
460.03	7489.71
460.21	7602.06
460.39	7644.19
460.57	7431.20
460.76	7482.69
460.94	7494.40
461.12	7648.87
461.31	7763.56
461.49	7573.97
461.67	7543.55
461.85	7978.89
462.04	7646.53
462.22	8145.06
462.40	7730.79
462.59	7599.72
462.77	7808.03
462.95	7936.76
463.13	7889.95
463.32	7892.29
463.50	7845.48
463.68	7974.21
463.86	8030.38
464.05	7988.25
464.23	7880.58
464.41	8154.43
464.59	8084.21
464.78	8159.11
464.96	8051.44
465.14	8065.49
465.32	8313.58
465.50	8245.71
465.69	8154.43
465.87	8168.47
466.05	8184.85
466.23	8212.94
466.41	8236.35
466.60	8327.63
466.78	8187.19
466.96	8355.71
467.14	8278.47
467.32	8313.58
467.51	8498.49
467.69	8175.49
467.87	8496.14
468.05	8594.45
468.23	8390.82
468.41	8468.06
468.60	8519.55
468.78	8514.87
468.96	8554.66
469.14	8758.28
469.32	8655.30
469.50	8540.61
469.69	8585.08
469.87	8854.25
470.05	8793.39
470.23	8826.16
470.41	8720.84
470.59	8865.95
470.77	8676.37
470.95	8924.46
471.14	9036.81
471.32	8889.35
471.50	9355.12
471.68	9060.21
471.86	9270.86
472.04	9109.36
472.22	9446.40
472.40	9373.85
472.58	9069.58
472.77	9238.09
472.95	9310.65
473.13	9652.37
473.31	9540.02
473.49	9371.50
473.67	9502.58
473.85	9521.30
474.03	9720.24
474.21	9659.39
474.39	9823.23
474.57	9816.21
474.75	10045.58
474.93	9874.72
475.12	10202.40
475.30	10078.35
475.48	10155.58
475.66	10113.45
475.84	10068.98
476.02	10230.48
476.20	10186.01
476.38	10399.00
476.56	10691.57
476.74	10738.38
476.92	10544.11
477.10	10691.57
477.28	10745.40
477.46	10637.73
477.64	11112.86
477.82	11098.82
478.00	11288.40
478.18	11405.43
478.36	11199.46
478.54	11283.72
478.72	11337.56
478.90	11522.46
479.08	11866.52
479.26	11527.14
479.44	11953.12
479.62	11843.11
479.80	12028.01
479.98	12025.67
480.16	12271.43
480.34	12131.00
480.52	12547.61
480.70	12222.28
480.88	12294.83
481.06	12255.04
481.24	12383.77
481.41	12444.63
481.59	12833.16
481.77	12748.90
481.95	12980.61
482.13	13032.10
482.31	13165.51
482.49	13528.30
482.67	13504.89
482.85	13177.22
483.03	13727.24
483.21	13561.06
483.39	13834.91
483.57	13930.87
483.74	13788.10
483.92	14218.75
484.10	13998.74
484.28	14183.65
484.46	14354.51
484.64	14492.60
484.82	14499.62
485.00	14618.99
485.18	15056.67
485.35	14963.04
485.53	14871.76
485.71	14869.42
485.89	15190.08
486.07	15103.48
486.25	15215.82
486.43	15417.11
486.61	15716.70
486.78	15651.16
486.96	15852.45
487.14	16130.97
487.32	16112.25
487.50	16301.83
487.68	16322.90
487.85	16505.46
488.03	16538.23
488.21	16603.76
488.39	16872.92
488.57	17125.70
488.75	17069.53
488.92	17032.08
489.10	17731.90
489.28	17369.12
489.46	18167.24
489.64	17738.92
489.81	18155.54
489.99	18010.42
490.17	17991.70
490.35	18583.85
490.53	18434.06
490.70	18523.00
490.88	18424.70
491.06	19028.56
491.24	18834.29
491.41	18618.96
491.59	18953.66
491.77	19129.20
491.95	19019.19
492.13	19452.19
492.30	19700.29
492.48	19552.84
492.66	19564.54
492.84	19667.52
493.01	19882.85
493.19	19864.13
493.37	20109.88
493.54	20222.23
493.72	20489.05
493.90	20460.96
494.08	21001.63
494.25	20816.72
494.43	20606.08
494.61	21149.08
494.79	21277.81
494.96	20915.03
495.14	20889.28
495.32	21369.09
495.49	21479.10
495.67	21664.00
495.85	21694.43
496.02	21692.08
496.20	22148.49
496.38	22401.27
496.55	22059.55
496.73	22665.75
496.91	22380.20
497.09	22621.28
497.26	22422.33
497.44	22682.13
497.62	22860.01
497.79	23222.80
497.97	22892.78
498.14	23257.90
498.32	23267.27
498.50	23466.21
498.67	23758.78
498.85	23906.23
499.03	23885.17
499.20	23950.70
499.38	23562.17
499.56	23931.98
499.73	24116.88
499.91	24051.34
500.08	24388.38
500.26	24210.50
500.44	24603.71
500.61	24294.76
500.79	24247.95
500.97	24636.48
501.14	25064.80
501.32	24797.98
501.49	24709.04
501.67	25062.46
501.84	25317.57
502.02	25125.65
502.20	25256.72
502.37	25465.03
502.55	25371.41
502.72	25223.95
502.90	25804.41
503.07	25247.36
503.25	25858.24
503.43	25923.77
503.60	25865.26
503.78	26113.36
503.95	25996.33
504.13	25745.89
504.30	26417.63
504.48	26073.57
504.65	26621.25
504.83	26319.32
505.01	26518.27
505.18	26387.20
505.36	27065.96
505.53	26906.80
505.71	27044.89
505.88	27063.61
506.06	26984.04
506.23	27023.83
506.41	27028.51
506.58	27363.20
506.76	27372.57
506.93	27559.81
507.11	27484.91
507.28	27754.07
507.46	27648.75
507.63	27639.39
507.81	27927.27
507.98	27590.24
508.16	27555.13
508.33	28011.53
508.50	28156.64
508.68	28112.17
508.85	28217.50
509.03	28395.38
509.20	28496.02
509.38	28767.52
509.55	28606.03
509.73	29015.62
509.90	28346.23
510.08	28814.34
510.25	29064.77
510.42	28870.51
510.60	29305.85
510.77	29443.94
510.95	29579.69
511.12	29406.49
511.30	29427.56
511.47	29640.54
511.64	30022.05
511.82	29820.77
511.99	29649.91
512.17	29750.55
512.34	29472.03
512.51	30103.97
512.69	30363.77
512.86	30134.40
513.04	30230.36
513.21	30621.23
513.38	30333.34
513.56	30455.05
513.73	30476.12
513.90	30536.97
514.08	30581.44
514.25	30593.14
514.43	30883.37
514.60	30602.50
514.77	30881.03
514.95	31089.34
515.12	30728.89
515.29	31042.53
515.47	31051.89
515.64	31828.95
515.81	30946.56
515.99	31068.27
516.16	31204.02
516.33	31674.47
516.51	31445.10
516.68	31311.69
516.85	31391.26
517.03	31674.47
517.20	31824.26
517.37	31667.45
517.54	32353.23
517.72	32046.62
517.89	32156.62
518.06	32236.20
518.24	32142.58
518.41	31536.38
518.58	31789.16
518.75	32449.19
518.93	32357.91
519.10	32425.78
519.27	32947.72
519.45	32779.20
519.62	32893.89
519.79	33109.22
519.96	32891.55
520.14	32818.99
520.31	32795.59
520.48	33076.45
520.65	33308.16
520.83	33378.38
521.00	33942.45
521.17	33455.62
521.34	33280.08
521.52	33589.03
521.69	33542.22
521.86	33787.97
522.03	33631.16
522.20	34338.00
522.38	33881.60
522.55	33532.86
522.72	33867.55
522.89	33823.08
523.07	34181.18
523.24	34087.56
523.41	34244.38
523.58	34096.92
523.75	34569.71
523.92	34679.72
524.10	34443.32
524.27	34501.84
524.44	34876.32
524.61	34632.91
524.78	34871.64
524.96	34909.09
525.13	35416.99
525.30	34927.81
525.47	35250.81
525.64	34771.00
525.81	34925.47
525.98	35164.21
526.16	34780.36
526.33	34824.83
526.50	35288.26
526.67	35173.57
526.84	35269.53
527.01	35304.64
527.18	35218.04
527.36	35599.55
527.53	35810.20
527.70	35819.56
527.87	36161.28
528.04	35772.75
528.21	35665.08
528.38	35475.50
528.55	36144.89
528.72	36180.00
528.89	36320.43
529.07	35562.10
529.24	35999.78
529.41	36137.87
529.58	36027.87
529.75	36488.95
529.92	36460.87
530.09	36886.84
530.26	36535.76
530.43	36641.09
530.60	36334.48
530.77	36395.33
530.94	37212.18
531.11	36985.15
531.28	36856.42
531.46	36886.84
531.63	37097.49
531.80	36788.54
531.97	37198.13
532.14	36994.51
532.31	37167.71
532.48	36835.35
532.65	37333.89
532.82	37509.43
532.99	37563.26
533.16	37450.91
533.33	37177.07
533.50	37991.58
533.67	37448.57
533.84	37113.87
534.01	37354.95
534.18	37352.61
534.35	38300.53
534.52	37392.40
534.69	37670.92
534.86	38014.98
535.03	37830.08
535.20	37731.78
535.37	38155.41
535.54	38293.50
535.71	38122.65
535.88	38136.69
536.05	37846.46
536.22	37687.31
536.38	37862.85
536.55	38223.29
536.72	38546.28
536.89	37731.78
537.06	38225.63
537.23	38349.68
537.40	38171.80
537.57	38389.47
537.74	38756.93
537.91	38651.61
538.08	38600.12
538.25	38281.80
538.42	38913.75
538.59	38822.47
538.75	38597.77
538.92	38689.06
539.09	39056.52
539.26	38990.98
539.43	38941.83
539.60	39246.10
539.77	38888.00
539.94	39084.61
540.11	38988.64
540.28	39328.02
540.44	39332.70
540.61	39332.70
540.78	39143.12
540.95	38864.60
541.12	38930.13
541.29	39597.18
541.46	39351.43
541.62	39431.01
541.79	39571.44
541.96	39372.49
542.13	39393.56
542.30	39704.85
542.47	39831.24
542.63	39880.39
542.80	39716.55
542.97	40039.54
543.14	39864.00
543.31	40474.88
543.48	40313.39
543.64	40416.37
543.81	40692.55
543.98	40505.31
544.15	40257.21
544.32	40699.58
544.48	40821.28
544.65	40390.62
544.82	40355.52
544.99	40304.02
545.16	40341.47
545.32	40327.43
545.49	40512.33
545.66	40797.88
545.83	40788.52
546.00	41336.20
546.16	40882.14
546.33	40685.53
546.50	40575.53
546.67	41036.61
546.83	40266.58
547.00	40793.20
547.17	40931.29
547.34	40659.79
547.50	40643.40
547.67	41277.69
547.84	41446.21
548.00	41045.97
548.17	41460.25
548.34	41256.62
548.51	41375.99
548.67	41408.76
548.84	41858.14
549.01	41062.36
549.18	40940.65
549.34	41581.96
549.51	41677.92
549.68	41528.13
549.84	41462.59
550.01	41944.74
550.18	41500.04
550.34	41565.57
550.51	41698.98
550.68	41551.53
550.84	41373.65
551.01	41830.05
551.18	41830.05
551.34	42139.00
551.51	41872.18
551.68	42183.48
551.84	42113.26
552.01	41968.15
552.18	41911.97
552.34	41977.51
552.51	42246.67
552.68	42281.78
552.84	42333.27
553.01	42160.07
553.18	42267.73
553.34	42176.45
553.51	41804.31
553.67	42307.52
553.84	42396.46
554.01	42562.64
554.17	42520.51
554.34	42309.86
554.51	42717.12
554.67	42997.98
554.84	42890.32
555.00	42347.31
555.17	42225.60
555.33	43103.31
555.50	42679.67
555.67	42728.82
555.83	43040.11
556.00	43021.39
556.16	43000.32
556.33	42946.49
556.50	42436.25
556.66	42932.45
556.83	42588.39
556.99	42883.30
557.16	43117.35
557.32	42850.53
557.49	42749.88
557.65	42476.04
557.82	42829.46
557.98	43049.47
558.15	42787.33
558.32	42770.95
558.48	42670.31
558.65	42869.25
558.81	42822.44
558.98	43510.56
559.14	43161.82
559.31	43042.45
559.47	43449.70
559.64	43428.64
559.80	43487.15
559.97	43217.99
560.13	43194.59
560.30	43220.33
560.46	42871.59
560.63	43061.18
560.79	43220.33
560.96	43388.85
561.12	43269.48
561.29	43234.38
561.45	43548.01
561.61	43522.26
561.78	43491.83
561.94	43189.91
562.11	43356.08
562.27	42752.23
562.44	43655.67
562.60	43660.35
562.77	43477.79
562.93	43449.70
563.10	43622.90
563.26	43363.11
563.42	43601.84
563.59	43562.05
563.75	43756.32
563.92	43316.29
564.08	43746.95
564.24	43772.70
564.41	43922.49
564.57	43763.34
564.74	43686.10
564.90	43777.38
565.07	43536.30
565.23	43688.44
565.39	43622.90
565.56	43732.91
565.72	43948.24
565.88	44208.04
566.05	43971.64
566.21	43878.02
566.38	43983.35
566.54	43917.81
566.70	44065.27
566.87	44179.95
567.03	43971.64
567.19	44463.16
567.36	44142.50
567.52	43592.48
567.68	44264.21
567.85	43526.94
568.01	43943.56
568.17	43578.43
568.34	44093.35
568.50	44121.44
568.66	43878.02
568.83	44032.50
568.99	44404.64
569.15	43807.81
569.32	43709.50
569.48	43548.01
569.64	44299.32
569.81	44205.70
569.97	43531.62
570.13	43847.60
570.30	43903.77
570.46	43988.03
570.62	43580.78
570.78	44095.69
570.95	43964.62
571.11	44245.49
571.27	43667.37
571.43	43753.97
571.60	44442.09
571.76	44137.82
571.92	43957.60
572.09	44081.65
572.25	43882.70
572.41	44299.32
572.57	44257.19
572.74	44231.44
572.90	44191.65
573.06	43845.26
573.22	44540.39
573.38	44130.80
573.55	44219.74
573.71	44280.60
573.87	44130.80
574.03	43676.74
574.20	44334.43
574.36	44065.27
574.52	44596.57
574.68	44304.00
574.84	44002.07
575.01	44240.81
575.17	44313.36
575.33	44573.16
575.49	43878.02
575.65	44472.52
575.82	44687.85
575.98	43990.37
576.14	44804.88
576.30	44170.59
576.46	44055.90
576.62	44095.69
576.79	44147.18
576.95	43746.95
577.11	43714.19
577.27	44395.28
577.43	44416.35
577.59	44205.70
577.75	43789.08
577.92	44058.24
578.08	44189.31
578.24	44313.36
578.40	44236.12
578.56	44315.70
578.72	44362.51
578.88	44442.09
579.04	44811.90
579.21	44268.89
579.37	43910.79
579.53	44545.08
579.69	44411.67
579.85	44680.83
580.01	44652.74
580.17	44509.97
580.33	44619.97
580.49	44608.27
580.65	44163.57
580.82	44748.70
580.98	44423.37
581.14	44175.27
581.30	44219.74
581.46	44385.92
581.62	44280.60
581.78	45057.65
581.94	44900.84
582.10	44694.87
582.26	45064.67
582.42	44638.70
582.58	44266.55
582.74	44531.03
582.90	44538.05
583.06	44793.17
583.22	44741.68
583.38	44942.97
583.54	44390.60
583.70	44547.42
583.86	44781.47
584.02	44381.24
584.18	44423.37
584.34	44636.36
584.50	44835.30
584.66	44327.41
584.82	44203.36
584.98	44507.63
585.14	44605.93
585.30	44299.32
585.46	44311.02
585.62	44245.49
585.78	44568.48
585.94	44055.90
586.10	44421.03
586.26	44186.97
586.42	44488.90
586.58	44519.33
586.74	44758.06
586.90	44671.46
587.06	44346.13
587.22	44615.29
587.38	44559.12
587.54	44732.32
587.70	44837.64
587.86	44680.83
588.02	44074.63
588.18	44603.59
588.34	44575.50
588.49	44306.34
588.65	44201.02
588.81	44371.88
588.97	44371.88
589.13	44498.26
589.29	44296.98
589.45	44556.78
589.61	44554.44
589.77	44861.05
589.93	44692.53
590.08	44884.45
590.24	44879.77
