SpectraSuite Data File
++++++++++++++++++++++++++++++++++++
Date: Fri Oct 25 11:25:57 EDT 2013
User: price-jones
Dark Spectrum Present: No
Reference Spectrum Present: No
Number of Sampled Component Spectra: 1
Spectrometers: USB2+H05261
Integration Time (usec): 100000 (USB2+H05261)
Spectra Averaged: 1 (USB2+H05261)
Boxcar Smoothing: 0 (USB2+H05261)
Correct for Electrical Dark: No (USB2+H05261)
Strobe/Lamp Enabled: No (USB2+H05261)
Correct for Detector Non-linearity: No (USB2+H05261)
Correct for Stray Light: No (USB2+H05261)
Number of Pixels in Processed Spectrum: 2048
>>>>>Begin Processed Spectral Data<<<<<
365.73	252.78
365.92	252.78
366.12	252.78
366.32	191.92
366.52	145.11
366.72	147.45
366.91	126.39
367.11	147.45
367.31	147.45
367.51	142.77
367.70	145.11
367.90	163.84
368.10	67.88
368.30	159.16
368.49	81.92
368.69	187.24
368.89	163.84
369.09	133.41
369.28	159.16
369.48	196.60
369.68	205.97
369.87	229.37
370.07	121.71
370.27	198.95
370.47	308.95
370.66	645.99
370.86	655.35
371.06	638.97
371.25	732.59
371.45	634.29
371.65	704.50
371.84	655.35
372.04	704.50
372.24	702.16
372.44	699.82
372.63	800.46
372.83	753.65
373.03	828.55
373.22	765.36
373.42	814.51
373.62	770.04
373.81	802.80
374.01	840.25
374.21	821.53
374.40	798.12
374.60	856.64
374.79	807.48
374.99	856.64
375.19	854.30
375.38	830.89
375.58	842.59
375.78	866.00
375.97	952.60
376.17	873.02
376.37	861.32
376.56	847.27
376.76	896.43
376.95	835.57
377.15	866.00
377.35	931.53
377.54	978.34
377.74	891.74
377.93	894.08
378.13	940.90
378.33	943.24
378.52	898.77
378.72	957.28
378.91	1036.86
379.11	966.64
379.31	997.07
379.50	884.72
379.70	1029.84
379.89	999.41
380.09	1011.11
380.28	922.17
380.48	959.62
380.68	917.49
380.87	976.00
381.07	1060.26
381.26	968.98
381.46	1090.69
381.65	990.05
381.85	1008.77
382.04	1064.94
382.24	1069.62
382.43	1011.11
382.63	1022.81
382.83	985.37
383.02	1053.24
383.22	1177.29
383.41	1128.14
383.61	1095.37
383.80	1093.03
384.00	1046.22
384.19	1086.01
384.39	1167.93
384.58	1130.48
384.78	1041.54
384.97	1174.95
385.17	1160.91
385.36	1207.72
385.56	1196.01
385.75	1128.14
385.95	1170.27
386.14	1261.55
386.34	1193.67
386.53	1184.31
386.72	1256.87
386.92	1294.32
387.11	1214.74
387.31	1322.40
387.50	1184.31
387.70	1263.89
387.89	1228.78
388.09	1188.99
388.28	1301.34
388.48	1263.89
388.67	1296.66
388.86	1249.85
389.06	1329.42
389.25	1331.76
389.45	1327.08
389.64	1345.81
389.84	1385.60
390.03	1355.17
390.22	1380.92
390.42	1409.00
390.61	1266.23
390.81	1371.55
391.00	1437.09
391.19	1399.64
391.39	1444.11
391.58	1474.54
391.78	1420.71
391.97	1467.52
392.16	1434.75
392.36	1586.88
392.55	1507.30
392.75	1533.05
392.94	1490.92
393.13	1565.82
393.33	1537.73
393.52	1519.01
393.71	1668.80
393.91	1598.59
394.10	1591.56
394.29	1659.44
394.49	1565.82
394.68	1629.01
394.88	1668.80
395.07	1746.04
395.26	1647.74
395.46	1785.83
395.65	1631.35
395.84	1783.49
396.04	1872.43
396.23	1774.13
396.42	1757.74
396.62	1734.34
396.81	1858.39
397.00	1825.62
397.19	1877.11
397.39	1858.39
397.58	1872.43
397.77	1914.56
397.97	1792.85
398.16	1771.79
398.35	1874.77
398.55	1844.34
398.74	1771.79
398.93	1870.09
399.12	1914.56
399.32	1879.45
399.51	1944.99
399.70	1980.09
399.90	1961.37
400.09	1998.82
400.28	2033.93
400.47	2059.67
400.67	2167.34
400.86	2115.84
401.05	1984.77
401.24	2050.31
401.44	2132.23
401.63	2193.08
401.82	2127.55
402.01	2146.27
402.21	2193.08
402.40	2225.85
402.59	2176.70
402.78	2157.97
402.97	2111.16
403.17	2260.96
403.36	2216.49
403.55	2282.02
403.74	2380.32
403.93	2443.52
404.13	2415.43
404.32	2363.94
404.51	2389.69
404.70	2328.83
404.89	2373.30
405.09	2544.16
405.28	2434.16
405.47	2579.27
405.66	2586.29
405.85	2523.10
406.05	2509.05
406.24	2417.77
406.43	2558.21
406.62	2576.93
406.81	2640.12
407.00	2555.86
407.20	2553.52
407.39	2661.19
407.58	2754.81
407.77	2663.53
407.96	2677.57
408.15	2754.81
408.34	2796.94
408.54	2705.66
408.73	2789.92
408.92	2834.39
409.11	2841.41
409.30	2967.80
409.49	2890.56
409.68	3002.91
409.87	2834.39
410.07	2956.10
410.26	3091.85
410.45	3012.27
410.64	2981.84
410.83	3070.78
411.02	3141.00
411.21	3091.85
411.40	3173.77
411.59	3208.87
411.78	3218.24
411.98	3251.00
412.17	3258.03
412.36	3302.50
412.55	3382.07
412.74	3321.22
412.93	3309.52
413.12	3344.63
413.31	3566.98
413.50	3454.63
413.69	3449.95
413.88	3597.40
414.07	3442.93
414.26	3602.08
414.45	3700.39
414.64	3627.83
414.83	3768.26
415.02	3695.71
415.22	3810.39
415.41	3740.18
415.60	3653.58
415.79	3899.33
415.98	3904.01
416.17	4023.38
416.36	4030.40
416.55	3962.53
416.74	4028.06
416.93	4053.81
417.12	3976.57
417.31	4294.88
417.50	4133.39
417.69	4180.20
417.88	4285.52
418.07	4177.86
418.26	4142.75
418.45	4423.61
418.64	4454.04
418.83	4339.35
419.02	4362.76
419.21	4465.74
419.39	4542.98
419.58	4592.13
419.77	4395.53
419.96	4695.11
420.15	4491.49
420.34	4599.15
420.53	4547.66
420.72	4573.41
420.91	4793.42
421.10	4737.24
421.29	4770.01
421.48	4695.11
421.67	4793.42
421.86	4755.97
422.05	4807.46
422.24	4648.30
422.43	4802.78
422.61	4961.94
422.80	4915.12
422.99	4894.06
423.18	4980.66
423.37	4947.89
423.56	4807.46
423.75	4987.68
423.94	4950.23
424.13	4528.94
424.32	4781.71
424.50	5025.13
424.69	5104.71
424.88	5128.11
425.07	4868.31
425.26	4997.04
425.45	4994.70
425.64	5025.13
425.83	4940.87
426.01	5118.75
426.20	5114.07
426.39	5205.35
426.58	5008.75
426.77	4990.02
426.96	5097.69
427.15	5273.23
427.33	5088.32
427.52	4980.66
427.71	5338.76
427.90	5214.71
428.09	5387.91
428.28	5364.51
428.46	5289.61
428.65	5177.26
428.84	5387.91
429.03	5523.66
429.22	5327.06
429.40	5488.56
429.59	5437.06
429.78	5308.34
429.97	5170.24
430.16	5359.83
430.34	5572.82
430.53	5575.16
430.72	5675.80
430.91	5753.04
431.10	5628.99
431.28	5729.63
431.47	5771.76
431.66	5947.30
431.85	5837.30
432.03	5809.21
432.22	6045.60
432.41	5865.38
432.60	5785.80
432.79	6026.88
432.97	5930.92
433.16	5909.85
433.35	5841.98
433.54	6113.48
433.72	6146.25
433.91	6195.40
434.10	6174.33
434.28	6012.84
434.47	6186.04
434.66	6179.01
434.85	6221.14
435.03	6368.60
435.22	6272.64
435.41	6633.08
435.59	6258.59
435.78	6340.51
435.97	6478.60
436.16	6246.89
436.34	6450.52
436.53	6328.81
436.72	6469.24
436.90	6366.26
437.09	6677.55
437.28	6576.91
437.46	6532.44
437.65	6635.42
437.84	6817.98
438.02	6864.79
438.21	6794.58
438.40	6576.91
438.58	6906.92
438.77	7126.93
438.96	6991.18
439.14	6991.18
439.33	7136.29
439.52	7035.65
439.70	7180.76
439.89	7365.67
440.08	7421.84
440.26	7330.56
440.45	7297.79
440.63	7548.23
440.82	7431.20
441.01	7410.14
441.19	7672.28
441.38	7609.08
441.57	7744.83
441.75	7901.65
441.94	8016.33
442.12	7960.16
442.31	8035.06
442.50	7908.67
442.68	7906.33
442.87	8039.74
443.05	8088.89
443.24	8093.57
443.43	8252.73
443.61	8084.21
443.80	8255.07
443.98	8177.83
444.17	7817.39
444.35	8109.96
444.54	8454.02
444.73	8114.64
444.91	8290.18
445.10	8187.19
445.28	8374.44
445.47	8301.88
445.65	8376.78
445.84	8430.61
446.02	8674.03
446.21	8315.92
446.39	8353.37
446.58	8428.27
446.77	8461.04
446.95	8262.09
447.14	8219.96
447.32	8540.61
447.51	8451.67
447.69	8578.06
447.88	8549.98
448.06	8547.64
448.25	8418.91
448.43	8557.00
448.62	8372.10
448.80	8608.49
448.99	8781.69
449.17	8786.37
449.36	8659.98
449.54	8720.84
449.73	8964.25
449.91	8992.34
450.10	8905.74
450.28	8980.64
450.46	9181.92
450.65	9144.47
450.83	9144.47
451.02	9039.15
451.20	9036.81
451.39	8973.61
451.57	8961.91
451.76	9128.09
451.94	9111.71
452.13	9226.39
452.31	9252.14
452.49	9158.52
452.68	9385.55
452.86	9404.27
453.05	9462.79
453.23	9378.53
453.42	9235.75
453.60	9371.50
453.78	9404.27
453.97	9425.34
454.15	9579.81
454.34	9483.85
454.52	9865.36
454.70	9734.29
454.89	9806.84
455.07	9811.53
455.26	9837.27
455.44	9975.36
455.62	9717.90
455.81	10043.24
455.99	9806.84
456.17	10008.13
456.36	9977.70
456.54	10146.22
456.73	10244.52
456.91	10303.04
457.09	10380.28
457.28	10649.44
457.46	10394.32
457.64	10672.84
457.83	10560.50
458.01	10326.44
458.19	10583.90
458.38	10464.54
458.56	10920.94
458.74	10651.78
458.93	10635.39
459.11	10642.42
459.29	10389.64
459.48	10988.82
459.66	10787.53
459.84	10855.40
460.03	11087.12
460.21	10920.94
460.39	10892.85
460.57	10918.60
460.76	11082.44
460.94	11063.71
461.12	11290.74
461.31	11225.21
461.49	11059.03
461.67	10972.43
461.85	11248.61
462.04	11131.59
462.22	11632.46
462.40	11552.88
462.59	11487.35
462.77	11463.94
462.95	11740.13
463.13	11531.82
463.32	11536.50
463.50	11831.41
463.68	11763.53
463.86	11871.20
464.05	11517.78
464.23	11742.47
464.41	11887.58
464.59	11597.35
464.78	12004.61
464.96	12121.63
465.14	11873.54
465.32	11922.69
465.50	12028.01
465.69	11899.28
465.87	12023.33
466.05	12091.21
466.23	12138.02
466.41	12283.13
466.60	12519.53
466.78	12231.64
466.96	12154.40
467.14	12009.29
467.32	12339.30
467.51	12425.90
467.69	12404.84
467.87	12095.89
468.05	12531.23
468.23	12210.57
468.41	12278.45
468.60	12746.56
468.78	12552.29
468.96	12500.80
469.14	12645.91
469.32	12996.99
469.50	12594.42
469.69	13027.42
469.87	13114.02
470.05	13177.22
470.23	13177.22
470.41	13289.56
470.59	13217.01
470.77	13170.19
470.95	13146.79
471.14	13345.73
471.32	13020.40
471.50	13605.53
471.68	13664.05
471.86	13504.89
472.04	13556.38
472.22	13881.72
472.40	13760.01
472.58	14108.75
472.77	13825.54
472.95	14026.83
473.13	14455.15
473.31	14033.85
473.49	14047.90
473.67	14160.24
473.85	14054.92
474.03	14925.60
474.21	14721.97
474.39	14717.29
474.57	14640.05
474.75	14787.50
474.93	14923.26
475.12	14773.46
475.30	14829.63
475.48	15068.37
475.66	15365.62
475.84	14981.77
476.02	15314.13
476.20	15056.67
476.38	15459.24
476.56	15749.46
476.74	15838.41
476.92	15985.86
477.10	15702.65
477.28	16060.76
477.46	16065.44
477.64	16180.12
477.82	16456.31
478.00	16690.36
478.18	16795.68
478.36	16755.90
478.54	17102.29
478.72	16702.06
478.90	17371.46
479.08	17298.90
479.26	17879.35
479.44	17582.10
479.62	17755.30
479.80	17731.90
479.98	17916.80
480.16	18677.48
480.34	17998.72
480.52	18487.89
480.70	18541.72
480.88	18363.84
481.06	18654.07
481.24	18616.62
481.41	19115.16
481.59	18965.36
481.77	19470.92
481.95	19412.40
482.13	19782.21
482.31	19541.13
482.49	20105.20
482.67	19660.50
482.85	20482.03
483.03	20442.24
483.21	20531.18
483.39	20269.04
483.57	20690.34
483.74	20954.82
483.92	21324.62
484.10	20966.52
484.28	21312.92
484.46	21972.95
484.64	22326.37
484.82	21832.52
485.00	22525.32
485.18	22693.83
485.35	22785.12
485.53	22775.75
485.71	22916.19
485.89	23440.47
486.07	23293.01
486.25	23424.08
486.43	23403.02
486.61	23737.71
486.78	23824.31
486.96	24428.17
487.14	24339.23
487.32	24666.91
487.50	25010.96
487.68	24411.79
487.85	24968.84
488.03	25076.50
488.21	25537.59
488.39	25656.95
488.57	25839.51
488.75	25858.24
488.92	26609.55
489.10	26761.69
489.28	26874.03
489.46	27168.94
489.64	27105.74
489.81	27381.93
489.99	27515.34
490.17	27768.12
490.35	27833.65
490.53	27868.76
490.70	28107.49
490.88	28130.90
491.06	28570.92
491.24	28734.76
491.41	28687.95
491.59	29235.63
491.77	29212.23
491.95	29406.49
492.13	29607.78
492.30	30139.08
492.48	30066.52
492.66	29570.33
492.84	30340.36
493.01	30338.02
493.19	30450.37
493.37	30677.40
493.54	30775.70
493.72	31681.49
493.90	31447.44
494.08	31875.76
494.25	31721.28
494.43	31833.63
494.61	32027.89
494.79	32229.18
494.96	32552.17
495.14	32498.34
495.32	33174.75
495.49	32746.44
495.67	33046.02
495.85	33177.09
496.02	33638.18
496.20	34012.66
496.38	34464.39
496.55	34146.08
496.73	34733.55
496.91	34225.65
497.09	34850.58
497.26	34625.89
497.44	34862.28
497.62	34820.15
497.79	35667.42
497.97	35150.17
498.14	35681.47
498.32	36444.48
498.50	35981.06
498.67	36425.76
498.85	36229.15
499.03	36503.00
499.20	36748.75
499.38	36818.97
499.56	36491.29
499.73	36823.65
499.91	37027.28
500.08	37661.56
500.26	37361.97
500.44	37406.44
500.61	37495.38
500.79	37649.86
500.97	38323.93
501.14	38225.63
501.32	38361.38
501.49	38623.52
501.67	38340.32
501.84	38670.33
502.02	38649.27
502.20	39154.82
502.37	39180.57
502.55	39218.02
502.72	39201.63
502.90	39405.26
503.07	38794.38
503.25	39400.58
503.43	39681.44
503.60	39374.83
503.78	40102.74
503.95	40231.47
504.13	40622.34
504.30	40285.30
504.48	40238.49
504.65	40978.10
504.83	40868.09
505.01	41195.77
505.18	41209.81
505.36	41446.21
505.53	41170.02
505.71	41404.08
505.88	41715.37
506.06	41544.51
506.23	41989.21
506.41	41486.00
506.58	42031.34
506.76	42258.37
506.93	42344.97
507.11	42157.73
507.28	42195.18
507.46	42174.11
507.63	42759.25
507.81	43115.01
507.98	42639.88
508.16	42775.63
508.33	43002.66
508.50	43562.05
508.68	43452.05
508.85	43559.71
509.03	43746.95
509.20	43964.62
509.38	44423.37
509.55	43786.74
509.73	44320.38
509.90	44219.74
510.08	44397.62
510.25	44474.86
510.42	44587.21
510.60	45282.34
510.77	45223.83
510.95	45509.38
511.12	44947.65
511.30	45155.96
511.47	45310.43
511.64	45240.21
511.82	45170.00
511.99	45600.66
512.17	45591.30
512.34	45588.95
512.51	46024.29
512.69	46117.92
512.86	46312.18
513.04	46855.18
513.21	46628.15
513.38	46408.14
513.56	46773.27
513.73	46635.17
513.90	47248.39
514.08	46873.91
514.25	47021.36
514.43	47400.53
514.60	47023.70
514.77	47428.62
514.95	47641.60
515.12	47360.74
515.29	47185.20
515.47	47725.86
515.64	48105.03
515.81	47751.61
515.99	47737.57
516.16	48006.73
516.33	48123.75
516.51	48769.74
516.68	48151.84
516.85	48208.01
517.03	48460.79
517.20	48875.07
517.37	48531.01
517.54	48760.38
517.72	48655.06
517.89	48636.33
518.06	49289.34
518.24	49235.51
518.41	48704.21
518.58	49275.30
518.75	48877.41
518.93	49483.61
519.10	49265.94
519.27	49399.35
519.45	49565.52
519.62	49617.02
519.79	49514.03
519.96	50082.78
520.14	49942.35
520.31	49858.09
520.48	49815.96
520.65	50019.59
520.83	50370.67
521.00	50522.80
521.17	49925.97
521.34	50216.19
521.52	50354.29
521.69	50478.33
521.86	50595.36
522.03	51033.04
522.20	51271.78
522.38	51407.53
522.55	51257.73
522.72	51189.86
522.89	51201.56
523.07	51407.53
523.24	51419.23
523.41	51562.00
523.58	51255.39
523.75	51983.30
523.92	51716.48
524.10	51880.31
524.27	51941.17
524.44	51999.68
524.61	51936.49
524.78	51789.03
524.96	52135.43
525.13	52275.87
525.30	52236.08
525.47	52694.82
525.64	52374.17
525.81	52734.61
525.98	52257.14
526.16	52463.11
526.33	52577.79
526.50	52781.42
526.67	52591.84
526.84	53116.12
527.01	52528.64
527.18	52851.64
527.36	53034.20
527.53	52809.51
527.70	53265.91
527.87	53052.92
528.04	52903.13
528.21	53446.13
528.38	53272.93
528.55	53226.12
528.72	53151.23
528.89	53394.64
529.07	53488.26
529.24	53191.01
529.41	53537.41
529.58	53516.35
529.75	53432.09
529.92	53682.53
530.09	53783.17
530.26	53558.48
530.43	53694.23
530.60	53755.08
530.77	53801.89
530.94	53914.24
531.11	54010.20
531.28	53893.18
531.46	54354.26
531.63	54143.61
531.80	53616.99
531.97	54270.00
532.14	54361.28
532.31	54225.53
532.48	54593.00
532.65	54487.67
532.82	54312.13
532.99	54667.89
533.16	54319.15
533.33	54557.89
533.50	54688.96
533.67	54461.93
533.84	54571.93
534.01	54794.28
534.18	55051.74
534.35	54887.90
534.52	54883.22
534.69	55056.42
534.86	55292.82
535.03	55264.73
535.20	55196.85
535.37	55119.62
535.54	55236.64
535.71	55128.98
535.88	55143.02
536.05	55154.72
536.22	55297.50
536.38	55451.97
536.55	55379.42
536.72	55295.16
536.89	55384.10
537.06	55608.79
537.23	55573.68
537.40	55540.91
537.57	55522.19
537.74	55578.36
537.91	55955.19
538.08	55973.91
538.25	55569.00
538.42	55744.54
538.59	55943.48
538.75	55737.52
538.92	55824.12
539.09	56116.68
539.26	55959.87
539.43	55894.33
539.60	56292.22
539.77	56264.14
539.94	56463.08
540.11	56182.22
540.28	56296.91
540.44	56261.80
540.61	56439.68
540.78	56348.40
540.95	56214.99
541.12	56381.16
541.29	56065.19
541.46	56313.29
541.62	56292.22
541.79	56350.74
541.96	56046.47
542.13	56404.57
542.30	56369.46
542.47	56713.52
542.63	56748.63
542.80	56776.72
542.97	57001.41
543.14	57080.98
543.31	56947.57
543.48	57193.33
543.64	57478.88
543.81	57251.84
543.98	57263.55
544.15	57085.67
544.32	57481.22
544.48	57324.40
544.65	57366.53
544.82	57401.64
544.99	57209.71
545.16	57361.85
545.32	57354.83
545.49	57628.67
545.66	57621.65
545.83	57591.22
546.00	57577.18
546.16	57532.71
546.33	57366.53
546.50	57350.15
546.67	57322.06
546.83	57279.93
547.00	57584.20
547.17	57642.71
547.34	57570.16
547.50	57670.80
547.67	58021.88
547.84	57968.05
548.00	58131.89
548.17	57958.69
548.34	57797.19
548.51	58087.42
548.67	58092.10
548.84	57958.69
549.01	57977.41
549.18	58071.03
549.34	58085.07
549.51	58246.57
549.68	58284.02
549.84	58204.44
550.01	58354.24
550.18	58251.25
550.34	58351.90
550.51	58291.04
550.68	58244.23
550.84	58298.06
551.01	58185.72
551.18	58417.43
551.34	58379.98
551.51	58489.99
551.68	58630.42
551.84	58347.21
552.01	58363.60
552.18	58389.34
552.34	58454.88
552.51	58628.08
552.68	58293.38
552.84	58522.76
553.01	58719.36
553.18	58801.28
553.34	58827.02
553.51	58564.88
553.67	58665.53
553.84	58969.80
554.01	58787.24
554.17	58894.90
554.34	59068.10
554.51	59007.25
554.67	58864.47
554.84	58890.22
555.00	58993.20
555.17	58763.83
555.33	58969.80
555.50	58817.66
555.67	58930.01
555.83	58993.20
556.00	59028.31
556.16	59430.88
556.33	58927.67
556.50	59009.59
556.66	59341.94
556.83	58993.20
556.99	59245.98
557.16	59536.21
557.32	59292.79
557.49	59538.55
557.65	59238.96
557.82	59245.98
557.98	59114.91
558.15	59395.77
558.32	59398.12
558.48	59407.48
558.65	59395.77
558.81	59250.66
558.98	59508.12
559.14	59503.44
559.31	59290.45
559.47	59480.03
559.64	59419.18
559.80	59566.63
559.97	59625.15
560.13	59568.97
560.30	59484.72
560.46	59723.45
560.63	59402.80
560.79	59639.19
560.96	59704.73
561.12	59625.15
561.29	59669.62
561.45	59676.64
561.61	59835.80
561.78	59859.20
561.94	59686.00
562.11	59667.28
562.27	59868.56
562.44	59882.61
562.60	59955.16
562.77	59721.11
562.93	59859.20
563.10	60060.49
563.26	59800.69
563.42	60001.97
563.59	60009.00
563.75	60001.97
563.92	60069.85
564.08	59793.67
564.24	60069.85
564.41	59917.71
564.57	60009.00
564.74	59882.61
564.90	60086.23
565.07	60001.97
565.23	59746.86
565.39	59854.52
565.56	60186.88
565.72	60083.89
565.88	60016.02
566.05	59927.08
566.21	59927.08
566.38	60182.19
566.54	60196.24
566.70	60364.76
566.87	60207.94
567.03	59962.18
567.19	60273.48
567.36	60149.43
567.52	60212.62
567.68	60308.58
567.85	60268.79
568.01	60439.65
568.17	60207.94
568.34	60331.99
568.50	60381.14
568.66	60264.11
568.83	60310.92
568.99	60126.02
569.15	60416.25
569.32	60254.75
569.48	60306.24
569.64	60364.76
569.81	60322.63
569.97	60427.95
570.13	60406.89
570.30	60238.37
570.46	60348.37
570.62	60355.39
570.78	60172.83
570.95	60317.95
571.11	60734.56
571.27	60259.43
571.43	60327.31
571.60	60523.91
571.76	60526.25
571.92	60287.52
572.09	60540.30
572.25	60376.46
572.41	60346.03
572.57	60434.97
572.74	60666.69
572.90	60444.33
573.06	60528.59
573.22	60493.49
573.38	60395.18
573.55	60449.02
573.71	60610.51
573.87	60713.50
574.03	60404.55
574.20	60570.72
574.36	60458.38
574.52	60446.68
574.68	60470.08
574.84	60690.09
575.01	60542.64
575.17	60610.51
575.33	60577.75
575.49	60411.57
575.65	60608.17
575.82	60720.52
575.98	60701.79
576.14	60963.93
576.30	60701.79
576.46	60746.26
576.62	60659.66
576.79	60463.06
576.95	60505.19
577.11	60615.19
577.27	60654.98
577.43	60736.90
577.59	60633.92
577.75	60673.71
577.92	60781.37
578.08	60622.22
578.24	60772.01
578.40	60748.60
578.56	60835.20
578.72	60659.66
578.88	60734.56
579.04	60736.90
579.21	60973.30
579.37	60889.04
579.53	60931.17
579.69	60631.58
579.85	60753.29
580.01	60664.35
580.17	60605.83
580.33	60732.22
580.49	60816.48
580.65	60973.30
580.82	60701.79
580.98	60804.78
581.14	60575.40
581.30	60938.19
581.46	60832.86
581.62	60757.97
581.78	60678.39
581.94	60816.48
582.10	60729.88
582.26	60804.78
582.42	60790.73
582.58	60722.86
582.74	60807.12
582.90	60898.40
583.06	60860.95
583.22	60739.24
583.38	60797.76
583.54	60867.97
583.70	60884.36
583.86	60980.32
584.02	60690.09
584.18	60996.70
584.34	60828.18
584.50	60975.64
584.66	60704.13
584.82	60669.03
584.98	61027.13
585.14	61066.92
585.30	60683.07
585.46	60992.02
585.62	60994.36
585.78	61076.28
585.94	60746.26
586.10	60935.85
586.26	60954.57
586.42	60867.97
586.58	60970.96
586.74	60720.52
586.90	60924.14
587.06	60762.65
587.22	61109.05
587.38	60898.40
587.54	60959.25
587.70	61003.72
587.86	60891.38
588.02	61073.94
588.18	61141.81
588.34	60907.76
588.49	61057.56
