SpectraSuite Data File
++++++++++++++++++++++++++++++++++++
Date: Fri Oct 25 11:25:11 EDT 2013
User: price-jones
Dark Spectrum Present: No
Reference Spectrum Present: No
Number of Sampled Component Spectra: 1
Spectrometers: USB2+H05261
Integration Time (usec): 100000 (USB2+H05261)
Spectra Averaged: 1 (USB2+H05261)
Boxcar Smoothing: 0 (USB2+H05261)
Correct for Electrical Dark: No (USB2+H05261)
Strobe/Lamp Enabled: No (USB2+H05261)
Correct for Detector Non-linearity: No (USB2+H05261)
Correct for Stray Light: No (USB2+H05261)
Number of Pixels in Processed Spectrum: 2048
>>>>>Begin Processed Spectral Data<<<<<
365.73	243.42
365.92	243.42
366.12	243.42
366.32	145.11
366.52	128.73
366.72	159.16
366.91	79.58
367.11	114.69
367.31	142.77
367.51	159.16
367.70	133.41
367.90	154.48
368.10	110.01
368.30	135.75
368.49	159.16
368.69	168.52
368.89	124.05
369.09	161.50
369.28	102.98
369.48	131.07
369.68	215.33
369.87	273.84
370.07	187.24
370.27	276.18
370.47	372.15
370.66	568.75
370.86	711.52
371.06	645.99
371.25	755.99
371.45	631.94
371.65	653.01
371.84	648.33
372.04	744.29
372.24	716.20
372.44	711.52
372.63	697.48
372.83	681.10
373.03	760.67
373.22	748.97
373.42	737.27
373.62	730.25
373.81	805.14
374.01	889.40
374.21	798.12
374.40	830.89
374.60	863.66
374.79	713.86
374.99	758.33
375.19	851.96
375.38	835.57
375.58	819.19
375.78	844.93
375.97	814.51
376.17	912.81
376.37	894.08
376.56	875.36
376.76	858.98
376.95	863.66
377.15	959.62
377.35	877.70
377.54	844.93
377.74	990.05
377.93	947.92
378.13	938.55
378.33	873.02
378.52	884.72
378.72	952.60
378.91	954.94
379.11	983.02
379.31	1008.77
379.50	959.62
379.70	1027.50
379.89	947.92
380.09	884.72
380.28	1008.77
380.48	1027.50
380.68	968.98
380.87	1001.75
381.07	954.94
381.26	1102.39
381.46	954.94
381.65	985.37
381.85	1104.73
382.04	1020.47
382.24	1067.28
382.43	1062.60
382.63	1041.54
382.83	1095.37
383.02	1181.97
383.22	1102.39
383.41	1123.46
383.61	1102.39
383.80	1107.07
384.00	1069.62
384.19	1144.52
384.39	1121.12
384.58	1090.69
384.78	1123.46
384.97	1172.61
385.17	1191.33
385.36	1130.48
385.56	1076.65
385.75	1107.07
385.95	1153.88
386.14	1184.31
386.34	1193.67
386.53	1235.80
386.72	1317.72
386.92	1277.93
387.11	1224.10
387.31	1268.57
387.50	1196.01
387.70	1287.29
387.89	1254.53
388.09	1172.61
388.28	1287.29
388.48	1322.40
388.67	1214.74
388.86	1217.08
389.06	1221.76
389.25	1418.36
389.45	1352.83
389.64	1268.57
389.84	1427.73
390.03	1376.24
390.22	1313.04
390.42	1336.45
390.61	1338.79
390.81	1392.62
391.00	1364.53
391.19	1451.13
391.39	1352.83
391.58	1451.13
391.78	1392.62
391.97	1486.24
392.16	1425.39
392.36	1500.28
392.55	1465.18
392.75	1549.43
392.94	1528.37
393.13	1643.06
393.33	1605.61
393.52	1577.52
393.71	1570.50
393.91	1607.95
394.10	1533.05
394.29	1504.96
394.49	1467.52
394.68	1638.38
394.88	1666.46
395.07	1652.42
395.26	1694.55
395.46	1685.19
395.65	1783.49
395.84	1666.46
396.04	1699.23
396.23	1682.85
396.42	1689.87
396.62	1666.46
396.81	1792.85
397.00	1717.95
397.19	1825.62
397.39	1811.57
397.58	1788.17
397.77	1842.00
397.97	1926.26
398.16	1907.54
398.35	1846.68
398.55	1832.64
398.74	1930.94
398.93	2003.50
399.12	1947.33
399.32	1944.99
399.51	1952.01
399.70	1888.81
399.90	2043.29
400.09	2001.16
400.28	1994.14
400.47	2017.54
400.67	2040.95
400.86	2069.03
401.05	2071.37
401.24	2108.82
401.44	2038.61
401.63	2174.36
401.82	2214.15
402.01	2118.18
402.21	2122.87
402.40	2263.30
402.59	2118.18
402.78	2188.40
402.97	2260.96
403.17	2228.19
403.36	2139.25
403.55	2356.92
403.74	2296.07
403.93	2289.04
404.13	2548.84
404.32	2429.48
404.51	2225.85
404.70	2310.11
404.89	2335.85
405.09	2389.69
405.28	2525.44
405.47	2455.22
405.66	2480.97
405.85	2459.90
406.05	2473.95
406.24	2555.86
406.43	2537.14
406.62	2630.76
406.81	2602.68
407.00	2677.57
407.20	2626.08
407.39	2544.16
407.58	2651.83
407.77	2665.87
407.96	2775.88
408.15	2731.41
408.34	2583.95
408.54	2813.32
408.73	2881.20
408.92	2813.32
409.11	2820.35
409.30	2827.37
409.49	2890.56
409.68	2820.35
409.87	2925.67
410.07	3012.27
410.26	3028.65
410.45	2995.89
410.64	3023.97
410.83	3159.72
411.02	3145.68
411.21	3176.11
411.40	3108.23
411.59	3117.59
411.78	3098.87
411.98	3173.77
412.17	3262.71
412.36	3201.85
412.55	3356.33
412.74	3403.14
412.93	3391.44
413.12	3417.18
413.31	3552.93
413.50	3428.88
413.69	3494.42
413.88	3639.53
414.07	3494.42
414.26	3653.58
414.45	3749.54
414.64	3662.94
414.83	3604.42
415.02	3754.22
415.22	3765.92
415.41	3885.29
415.60	3763.58
415.79	3915.72
415.98	4018.70
416.17	3885.29
416.36	3864.22
416.55	4004.66
416.74	4058.49
416.93	4072.53
417.12	3995.29
417.31	4084.23
417.50	4126.36
417.69	4400.21
417.88	4128.70
418.07	4168.49
418.26	4327.65
418.45	4236.37
418.64	4510.21
418.83	4388.50
419.02	4432.97
419.21	4409.57
419.39	4369.78
419.58	4465.74
419.77	4440.00
419.96	4442.34
420.15	4564.04
420.34	4557.02
420.53	4418.93
420.72	4603.83
420.91	4737.24
421.10	4802.78
421.29	4697.46
421.48	4645.96
421.67	4774.69
421.86	4620.22
422.05	4870.65
422.24	4667.03
422.43	4964.28
422.61	4748.95
422.80	4870.65
422.99	4861.29
423.18	4880.02
423.37	5004.07
423.56	4807.46
423.75	4873.00
423.94	4840.23
424.13	4732.56
424.32	4734.90
424.50	4959.60
424.69	5032.15
424.88	5121.09
425.07	5022.79
425.26	4833.21
425.45	4809.80
425.64	4943.21
425.83	4994.70
426.01	5060.24
426.20	4978.32
426.39	5034.49
426.58	5090.67
426.77	5078.96
426.96	5060.24
427.15	5142.16
427.33	5174.92
427.52	5104.71
427.71	5130.45
427.90	5210.03
428.09	5224.08
428.28	5352.81
428.46	5210.03
428.65	5322.38
428.84	5441.75
429.03	5401.96
429.22	5310.68
429.40	5518.98
429.59	5603.24
429.78	5359.83
429.97	5198.33
430.16	5507.28
430.34	5549.41
430.53	5664.10
430.72	5636.01
430.91	5621.97
431.10	5671.12
431.28	5715.59
431.47	5748.36
431.66	5696.86
431.85	5701.54
432.03	5916.87
432.22	5954.32
432.41	5872.40
432.60	5909.85
432.79	5954.32
432.97	5968.37
433.16	5923.90
433.35	5937.94
433.54	6270.30
433.72	5998.79
433.91	6090.07
434.10	6174.33
434.28	6115.82
434.47	6193.06
434.66	6274.98
434.85	6223.48
435.03	6228.17
435.22	6356.90
435.41	6424.77
435.59	6413.07
435.78	6370.94
435.97	6415.41
436.16	6469.24
436.34	6431.79
436.53	6422.43
436.72	6590.95
436.90	6286.68
437.09	6504.35
437.28	6392.00
437.46	6642.44
437.65	6705.63
437.84	6548.82
438.02	6724.36
438.21	6860.11
438.40	6602.65
438.58	6796.92
438.77	6920.96
438.96	7084.80
439.14	7073.10
439.33	7023.95
439.52	7145.66
439.70	7122.25
439.89	7199.49
440.08	7295.45
440.26	7405.46
440.45	7473.33
440.63	7360.98
440.82	7428.86
441.01	7431.20
441.19	7522.48
441.38	7555.25
441.57	7831.43
441.75	7822.07
441.94	7969.52
442.12	7845.48
442.31	8065.49
442.50	7948.46
442.68	7763.56
442.87	7948.46
443.05	8102.93
443.24	8236.35
443.43	8100.59
443.61	8142.72
443.80	8346.35
443.98	8152.09
444.17	7829.09
444.35	8149.75
444.54	8332.31
444.73	8287.84
444.91	8325.29
445.10	8217.62
445.28	8285.50
445.47	8194.22
445.65	8121.66
445.84	8496.14
446.02	8507.85
446.21	8248.05
446.39	8266.77
446.58	8631.90
446.77	8538.27
446.95	8140.38
447.14	8313.58
447.32	8547.64
447.51	8322.94
447.69	8526.57
447.88	8472.74
448.06	8362.73
448.25	8505.51
448.43	8664.66
448.62	8454.02
448.80	8727.86
448.99	8461.04
449.17	8652.96
449.36	8491.46
449.54	8692.75
449.73	8987.66
449.91	9041.49
450.10	8898.72
450.28	8917.44
450.46	9055.53
450.65	9034.47
450.83	9097.66
451.02	8849.57
451.20	9090.64
451.39	9104.68
451.57	9212.35
451.76	9008.72
451.94	9041.49
452.13	9261.50
452.31	9202.99
452.49	8992.34
452.68	9142.13
452.86	9109.36
453.05	9364.48
453.23	9317.67
453.42	9528.32
453.60	9179.58
453.78	9373.85
453.97	9411.29
454.15	9474.49
454.34	9235.75
454.52	9535.34
454.70	9596.20
454.89	9593.86
455.07	9666.41
455.26	9661.73
455.44	9998.77
455.62	9816.21
455.81	9722.59
455.99	10188.35
456.17	10085.37
456.36	9937.91
456.54	10045.58
456.73	10129.84
456.91	10356.87
457.09	10296.02
457.28	10630.71
457.46	10244.52
457.64	10363.89
457.83	10441.13
458.01	10466.88
458.19	10565.18
458.38	10434.11
458.56	10572.20
458.74	10689.23
458.93	10705.61
459.11	10583.90
459.29	10869.45
459.48	10607.31
459.66	10644.76
459.84	10881.15
460.03	10974.77
460.21	10757.10
460.39	10801.57
460.57	11000.52
460.76	10984.13
460.94	11056.69
461.12	10967.75
461.31	11276.70
461.49	11307.13
461.67	10939.66
461.85	11105.84
462.04	11260.32
462.22	11655.87
462.40	11571.61
462.59	11344.58
462.77	11335.21
462.95	11396.07
463.13	11543.52
463.32	11639.48
463.50	11639.48
463.68	11786.94
463.86	11859.49
464.05	11747.15
464.23	11571.61
464.41	11906.31
464.59	11716.72
464.78	12018.65
464.96	11831.41
465.14	11817.36
465.32	11946.09
465.50	11995.25
465.69	11894.60
465.87	12023.33
466.05	12116.95
466.23	12114.61
466.41	12035.03
466.60	12322.92
466.78	11960.14
466.96	12187.17
467.14	12248.02
467.32	12098.23
467.51	12231.64
467.69	11836.09
467.87	12404.84
468.05	12753.58
468.23	12659.96
468.41	12325.26
468.60	12603.78
468.78	12638.89
468.96	12407.18
469.14	12842.52
469.32	12875.29
469.50	12643.57
469.69	13092.96
469.87	12973.59
470.05	13116.36
470.23	13275.52
470.41	13200.62
470.59	13277.86
470.77	13270.84
470.95	13179.56
471.14	13369.14
471.32	13245.09
471.50	13633.62
471.68	13598.51
471.86	13385.52
472.04	13696.82
472.22	13928.53
472.40	13621.92
472.58	13762.35
472.77	13928.53
472.95	14111.09
473.13	14441.11
473.31	14080.66
473.49	14099.39
473.67	14228.12
473.85	14485.58
474.03	14483.24
474.21	14581.54
474.39	14424.72
474.57	14520.68
474.75	14747.72
474.93	14726.65
475.12	14768.78
475.30	15133.90
475.48	14963.04
475.66	15068.37
475.84	15103.48
476.02	15267.31
476.20	15353.91
476.38	15454.56
476.56	15674.57
476.74	15765.85
476.92	15693.29
477.10	15819.68
477.28	15822.02
477.46	16107.57
477.64	16201.19
477.82	16311.19
478.00	16856.54
478.18	16425.88
478.36	16556.95
478.54	17118.68
478.72	16975.91
478.90	17369.12
479.08	17568.06
479.26	17790.41
479.44	17626.57
479.62	17657.00
479.80	17940.21
479.98	18127.45
480.16	18457.46
480.34	18347.46
480.52	18483.21
480.70	18164.90
480.88	18195.32
481.06	18572.15
481.24	18834.29
481.41	19154.94
481.59	19084.73
481.77	19140.90
481.95	19372.61
482.13	19379.64
482.31	19613.69
482.49	20233.93
482.67	20177.76
482.85	20264.36
483.03	20372.02
483.21	20795.66
483.39	20816.72
483.57	20788.64
483.74	21041.42
483.92	21345.69
484.10	20765.23
484.28	21783.37
484.46	21495.48
484.64	22061.89
484.82	22033.80
485.00	22349.78
485.18	22405.95
485.35	23049.60
485.53	22642.34
485.71	22679.79
485.89	23147.90
486.07	22836.61
486.25	23278.97
486.43	23428.76
486.61	23707.29
486.78	23880.49
486.96	24032.62
487.14	24374.34
487.32	24486.68
487.50	24844.79
487.68	24884.58
487.85	25151.40
488.03	25570.35
488.21	26012.71
488.39	25633.55
488.57	25673.34
488.75	26373.16
488.92	26293.58
489.10	26518.27
489.28	26618.91
489.46	26771.05
489.64	26740.62
489.81	27496.61
489.99	27536.40
490.17	27679.18
490.35	27604.28
490.53	28168.35
490.70	28074.73
490.88	28020.89
491.06	28779.23
491.24	28393.04
491.41	28910.30
491.59	28854.12
491.77	29191.16
491.95	29331.59
492.13	29209.89
492.30	29715.44
492.48	30022.05
492.66	29659.27
492.84	30202.27
493.01	30771.02
493.19	30593.14
493.37	30515.90
493.54	31302.32
493.72	31349.14
493.90	30937.20
494.08	31541.06
494.25	31864.05
494.43	31510.63
494.61	32341.52
494.79	32378.97
494.96	32044.27
495.14	32601.32
495.32	32519.40
495.49	32811.97
495.67	33174.75
495.85	33612.43
496.02	33736.48
496.20	33785.63
496.38	34047.77
496.55	33652.22
496.73	34653.97
496.91	33942.45
497.09	34513.54
497.26	34539.29
497.44	34389.49
497.62	34998.03
497.79	35559.76
497.97	35302.30
498.14	36158.94
498.32	35803.17
498.50	36030.21
498.67	36746.41
498.85	36498.31
499.03	36479.59
499.20	36577.89
499.38	36423.42
499.56	36442.14
499.73	36842.37
499.91	37031.96
500.08	37329.20
500.26	37298.78
500.44	37500.06
500.61	37324.52
500.79	37305.80
500.97	38405.85
501.14	38389.47
501.32	38778.00
501.49	38279.46
501.67	38780.34
501.84	38686.71
502.02	38810.76
502.20	39014.39
502.37	38871.62
502.55	38981.62
502.72	39438.03
502.90	39316.32
503.07	39533.99
503.25	39115.03
503.43	39775.06
503.60	39842.94
503.78	40287.64
503.95	39938.90
504.13	39943.58
504.30	40495.95
504.48	40357.86
504.65	40484.25
504.83	40421.05
505.01	41427.48
505.18	41099.81
505.36	40800.22
505.53	40514.67
505.71	41443.87
505.88	41556.21
506.06	41368.97
506.23	41715.37
506.41	41546.85
506.58	42146.03
506.76	41797.29
506.93	41841.76
507.11	42204.54
507.28	42089.85
507.46	42359.02
507.63	42424.55
507.81	43213.31
507.98	42457.32
508.16	42808.40
508.33	42665.63
508.50	42997.98
508.68	43189.91
508.85	43379.49
509.03	43545.67
509.20	43629.93
509.38	43868.66
509.55	44051.22
509.73	43679.08
509.90	43842.92
510.08	44245.49
510.25	44559.12
510.42	44673.81
510.60	44605.93
510.77	45008.50
510.95	45464.91
511.12	44921.90
511.30	44666.78
511.47	45272.98
511.64	45364.26
511.82	45729.39
511.99	45675.55
512.17	45642.79
512.34	45338.52
512.51	45624.06
512.69	46012.59
512.86	46028.98
513.04	46618.79
513.21	46674.96
513.38	46735.82
513.56	46747.52
513.73	46478.36
513.90	46916.04
514.08	46663.26
514.25	47157.11
514.43	47185.20
514.60	47168.82
514.77	47129.03
514.95	47592.45
515.12	47145.41
515.29	46990.94
515.47	47861.61
515.64	47894.38
515.81	47529.26
515.99	47765.65
516.16	48243.12
516.33	48058.22
516.51	48280.57
516.68	48275.89
516.85	48154.18
517.03	48444.41
517.20	48804.85
517.37	48275.89
517.54	48762.72
517.72	48776.76
517.89	48699.53
518.06	49200.40
518.24	48699.53
518.41	48879.75
518.58	49226.15
518.75	48994.43
518.93	49315.09
519.10	48903.15
519.27	49537.44
519.45	49354.88
519.62	49680.21
519.79	49581.91
519.96	49956.39
520.14	49815.96
520.31	49872.14
520.48	50190.45
520.65	50206.83
520.83	50019.59
521.00	50726.43
521.17	50356.63
521.34	50663.24
521.52	50316.84
521.69	50707.71
521.86	50443.23
522.03	50897.29
522.20	51016.66
522.38	51365.40
522.55	51016.66
522.72	51260.07
522.89	50923.04
523.07	51452.00
523.24	51103.26
523.41	51398.16
523.58	51285.82
523.75	51562.00
523.92	51175.81
524.10	51973.94
524.27	51826.48
524.44	52016.07
524.61	51978.62
524.78	51784.35
524.96	52161.18
525.13	52102.67
525.30	52203.31
525.47	52172.88
525.64	52243.10
525.81	52170.54
525.98	52315.65
526.16	52409.28
526.33	52453.75
526.50	52807.17
526.67	52605.88
526.84	52978.03
527.01	52516.94
527.18	52725.25
527.36	52580.13
527.53	52774.40
527.70	53268.25
527.87	53258.89
528.04	53132.50
528.21	53506.99
528.38	53228.46
528.55	53343.15
528.72	53275.27
528.89	53148.88
529.07	53209.74
529.24	53226.12
529.41	53514.01
529.58	53385.28
529.75	53439.11
529.92	53598.27
530.09	53829.98
530.26	53729.34
530.43	53661.46
530.60	53387.62
530.77	53764.45
530.94	53759.76
531.11	53808.92
531.28	53928.28
531.46	53886.15
531.63	54106.16
531.80	53918.92
531.97	54277.02
532.14	54417.46
532.31	54284.04
532.48	54291.07
532.65	54417.46
532.82	54248.94
532.99	54410.43
533.16	54064.03
533.33	54527.46
533.50	54574.27
533.67	54398.73
533.84	54677.25
534.01	54499.37
534.18	54714.70
534.35	54972.16
534.52	55030.68
534.69	55107.91
534.86	55030.68
535.03	54789.60
535.20	54876.20
535.37	54986.21
535.54	55236.64
535.71	55173.45
535.88	55023.65
536.05	55299.84
536.22	55505.80
536.38	55348.99
536.55	55185.15
536.72	55393.46
536.89	55447.29
537.06	55554.96
537.23	55749.22
537.40	55416.86
537.57	55414.52
537.74	55564.32
537.91	55793.69
538.08	55683.69
538.25	55325.58
538.42	55812.41
538.59	55863.91
538.75	55756.24
538.92	55831.14
539.09	55875.61
539.26	55966.89
539.43	55962.21
539.60	55917.74
539.77	55964.55
539.94	56200.94
540.11	56259.46
540.28	56060.51
540.44	56409.25
540.61	56205.62
540.78	56186.90
540.95	56348.40
541.12	56383.51
541.29	56156.47
541.46	56456.06
541.62	56395.21
541.79	56416.27
541.96	56278.18
542.13	56427.98
542.30	56465.42
542.47	56493.51
542.63	56856.29
542.80	56657.35
542.97	56975.66
543.14	56975.66
543.31	57052.90
543.48	57240.14
543.64	57249.50
543.81	57420.36
543.98	57041.20
544.15	56924.17
544.32	57127.80
544.48	57537.39
544.65	57315.04
544.82	57226.10
544.99	57148.86
545.16	57244.82
545.32	57308.02
545.49	57455.47
545.66	57539.73
545.83	57347.81
546.00	57535.05
546.16	57427.38
546.33	57425.04
546.50	57146.52
546.67	57609.95
546.83	57251.84
547.00	57623.99
547.17	57483.56
547.34	57626.33
547.50	57827.62
547.67	57825.28
547.84	57935.28
548.00	58026.56
548.17	58136.57
548.34	58021.88
548.51	57939.96
548.67	58038.26
548.84	58005.50
549.01	57748.04
549.18	58038.26
549.34	58181.04
549.51	58192.74
549.68	58370.62
549.84	58101.46
550.01	58227.85
550.18	58042.95
550.34	58244.23
550.51	58370.62
550.68	58337.85
550.84	58024.22
551.01	58501.69
551.18	58260.62
551.34	58197.42
551.51	58277.00
551.68	58389.34
551.84	58419.77
552.01	58333.17
552.18	58333.17
552.34	58183.38
552.51	58670.21
552.68	58326.15
552.84	58607.01
553.01	58946.39
553.18	58581.27
553.34	58660.85
553.51	58424.45
553.67	58557.86
553.84	58731.06
554.01	58717.02
554.17	59044.69
554.34	58850.43
554.51	58843.41
554.67	58749.79
554.84	58883.20
555.00	58768.51
555.17	58518.07
555.33	58974.48
555.50	58827.02
555.67	58944.05
555.83	58834.05
556.00	59171.08
556.16	59152.36
556.33	59133.63
556.50	59112.57
556.66	59107.89
556.83	58990.86
556.99	59236.62
557.16	59353.65
557.32	59372.37
557.49	59379.39
557.65	59199.17
557.82	59194.49
557.98	59330.24
558.15	59236.62
558.32	59351.30
558.48	59030.65
558.65	59391.09
558.81	59260.02
558.98	59454.29
559.14	59264.70
559.31	59332.58
559.47	59201.51
559.64	59611.10
559.80	59587.70
559.97	59894.31
560.13	59416.84
560.30	59772.60
560.46	59571.32
560.63	59700.04
560.79	59505.78
560.96	59812.39
561.12	59611.10
561.29	59966.87
561.45	59756.22
561.61	59512.80
561.78	59416.84
561.94	59814.73
562.11	59524.50
562.27	59657.91
562.44	59896.65
562.60	60128.36
562.77	59737.49
562.93	59655.57
563.10	59941.12
563.26	59590.04
563.42	59938.78
563.59	59842.82
563.75	59821.75
563.92	59913.03
564.08	59781.96
564.24	59861.54
564.41	59915.37
564.57	60252.41
564.74	60001.97
564.90	59814.73
565.07	59873.24
565.23	59971.55
565.39	60044.10
565.56	60065.17
565.72	59936.44
565.88	60023.04
566.05	59842.82
566.21	59814.73
566.38	59999.63
566.54	60083.89
566.70	60221.98
566.87	60207.94
567.03	60025.38
567.19	60245.39
567.36	60130.70
567.52	59999.63
567.68	60378.80
567.85	60051.12
568.01	60397.52
568.17	60133.04
568.34	60247.73
568.50	60170.49
568.66	60266.45
568.83	60186.88
568.99	60147.09
569.15	60168.15
569.32	60130.70
569.48	60107.30
569.64	60315.61
569.81	60158.79
569.97	60151.77
570.13	60271.14
570.30	60137.72
570.46	60374.12
570.62	60280.50
570.78	60327.31
570.95	60287.52
571.11	60280.50
571.27	60519.23
571.43	60254.75
571.60	60566.04
571.76	60331.99
571.92	60425.61
572.09	60477.10
572.25	60310.92
572.41	60441.99
572.57	60362.42
572.74	60556.68
572.90	60399.86
573.06	60430.29
573.22	60474.76
573.38	60416.25
573.55	60409.23
573.71	60671.37
573.87	60633.92
574.03	60479.44
574.20	60652.64
574.36	60430.29
574.52	60528.59
574.68	60685.41
574.84	60584.77
575.01	60587.11
575.17	60467.74
575.33	60474.76
575.49	60498.17
575.65	60734.56
575.82	60486.46
575.98	60694.77
576.14	60931.17
576.30	60582.43
576.46	60617.53
576.62	60683.07
576.79	60603.49
576.95	60456.04
577.11	60486.46
577.27	60692.43
577.43	60598.81
577.59	60608.17
577.75	60505.19
577.92	60505.19
578.08	60673.71
578.24	60650.30
578.40	60692.43
578.56	61031.81
578.72	60664.35
578.88	60905.42
579.04	60748.60
579.21	60619.88
579.37	60816.48
579.53	60917.12
579.69	60617.53
579.85	60757.97
580.01	60706.47
580.17	60519.23
580.33	60486.46
580.49	60966.27
580.65	60781.37
580.82	60678.39
580.98	60781.37
581.14	60514.55
581.30	61092.66
581.46	60828.18
581.62	60657.32
581.78	60601.15
581.94	60800.10
582.10	60795.42
582.26	60729.88
582.42	60676.05
582.58	60678.39
582.74	60774.35
582.90	60769.67
583.06	60851.59
583.22	60823.50
583.38	60638.60
583.54	60816.48
583.70	60835.20
583.86	60928.83
584.02	60659.66
584.18	60884.36
584.34	60842.23
584.50	60800.10
584.66	60739.24
584.82	60699.45
584.98	60987.34
585.14	60921.80
585.30	60732.22
585.46	60849.25
585.62	60797.76
585.78	61013.08
585.94	60809.46
586.10	60811.80
586.26	60837.54
586.42	60940.53
586.58	61071.60
586.74	60846.91
586.90	60748.60
587.06	60994.36
587.22	60917.12
587.38	60818.82
587.54	60835.20
587.70	61146.50
587.86	60963.93
588.02	60975.64
588.18	61209.69
588.34	60879.67
588.49	60970.96
