SpectraSuite Data File
++++++++++++++++++++++++++++++++++++
Date: Fri Oct 25 10:48:26 EDT 2013
User: price-jones
Dark Spectrum Present: No
Reference Spectrum Present: No
Number of Sampled Component Spectra: 1
Spectrometers: USB2+H05261
Integration Time (usec): 100000 (USB2+H05261)
Spectra Averaged: 1 (USB2+H05261)
Boxcar Smoothing: 0 (USB2+H05261)
Correct for Electrical Dark: No (USB2+H05261)
Strobe/Lamp Enabled: No (USB2+H05261)
Correct for Detector Non-linearity: No (USB2+H05261)
Correct for Stray Light: No (USB2+H05261)
Number of Pixels in Processed Spectrum: 2048
>>>>>Begin Processed Spectral Data<<<<<
365.73	107.66
365.92	107.66
366.12	107.66
366.32	93.62
366.52	65.54
366.72	35.11
366.91	42.13
367.11	37.45
367.31	63.19
367.51	49.15
367.70	65.54
367.90	0.00
368.10	0.00
368.30	60.85
368.49	23.41
368.69	23.41
368.89	37.45
369.09	88.94
369.28	128.73
369.48	74.90
369.68	100.64
369.87	124.05
370.07	95.96
370.27	154.48
370.47	238.73
370.66	383.85
370.86	416.62
371.06	451.72
371.25	512.58
371.45	482.15
371.65	456.40
371.84	573.43
372.04	477.47
372.24	479.81
372.44	486.83
372.63	512.58
372.83	540.66
373.03	512.58
373.22	503.22
373.42	550.03
373.62	538.32
373.81	526.62
374.01	594.50
374.21	603.86
374.40	594.50
374.60	578.11
374.79	564.07
374.99	636.63
375.19	578.11
375.38	723.23
375.58	641.31
375.78	622.58
375.97	662.37
376.17	664.71
376.37	592.16
376.56	571.09
376.76	592.16
376.95	568.75
377.15	613.22
377.35	641.31
377.54	631.94
377.74	718.54
377.93	727.91
378.13	669.39
378.33	566.41
378.52	660.03
378.72	772.38
378.91	645.99
379.11	664.71
379.31	667.05
379.50	629.60
379.70	690.46
379.89	617.90
380.09	643.65
380.28	713.86
380.48	620.24
380.68	641.31
380.87	746.63
381.07	692.80
381.26	716.20
381.46	645.99
381.65	676.41
381.85	697.48
382.04	763.01
382.24	718.54
382.43	737.27
382.63	753.65
382.83	669.39
383.02	741.95
383.22	716.20
383.41	725.57
383.61	711.52
383.80	812.17
384.00	720.88
384.19	737.27
384.39	840.25
384.58	802.80
384.78	727.91
384.97	758.33
385.17	723.23
385.36	737.27
385.56	802.80
385.75	816.85
385.95	821.53
386.14	922.17
386.34	826.21
386.53	802.80
386.72	842.59
386.92	856.64
387.11	854.30
387.31	882.38
387.50	842.59
387.70	842.59
387.89	870.68
388.09	917.49
388.28	823.87
388.48	882.38
388.67	877.70
388.86	889.40
389.06	973.66
389.25	912.81
389.45	863.66
389.64	945.58
389.84	1029.84
390.03	1025.15
390.22	938.55
390.42	990.05
390.61	1057.92
390.81	999.41
391.00	1041.54
391.19	1001.75
391.39	994.73
391.58	1064.94
391.78	1053.24
391.97	985.37
392.16	940.90
392.36	992.39
392.55	1083.67
392.75	1053.24
392.94	1004.09
393.13	1013.45
393.33	985.37
393.52	999.41
393.71	1100.05
393.91	1046.22
394.10	1151.54
394.29	1207.72
394.49	1102.39
394.68	1191.33
394.88	1275.59
395.07	1224.10
395.26	1228.78
395.46	1277.93
395.65	1249.85
395.84	1238.14
396.04	1165.59
396.23	1235.80
396.42	1212.40
396.62	1172.61
396.81	1242.82
397.00	1240.48
397.19	1350.49
397.39	1313.04
397.58	1387.94
397.77	1364.53
397.97	1301.34
398.16	1359.85
398.35	1451.13
398.55	1451.13
398.74	1399.64
398.93	1476.88
399.12	1474.54
399.32	1444.11
399.51	1455.81
399.70	1502.62
399.90	1526.03
400.09	1540.07
400.28	1678.16
400.47	1561.14
400.67	1577.52
400.86	1654.76
401.05	1577.52
401.24	1664.12
401.44	1678.16
401.63	1610.29
401.82	1685.19
402.01	1607.95
402.21	1785.83
402.40	1671.14
402.59	1661.78
402.78	1703.91
402.97	1703.91
403.17	1776.47
403.36	1762.42
403.55	1666.46
403.74	1884.13
403.93	1795.19
404.13	1771.79
404.32	1870.09
404.51	1762.42
404.70	1806.89
404.89	1879.45
405.09	1956.69
405.28	1900.52
405.47	1844.34
405.66	1975.41
405.85	1874.77
406.05	1952.01
406.24	1947.33
406.43	1935.62
406.62	1968.39
406.81	2038.61
407.00	1994.14
407.20	1984.77
407.39	1998.82
407.58	2047.97
407.77	2155.63
407.96	2218.83
408.15	2186.06
408.34	2054.99
408.54	2202.44
408.73	2193.08
408.92	2286.70
409.11	2267.98
409.30	2176.70
409.49	2267.98
409.68	2157.97
409.87	2193.08
410.07	2235.21
410.26	2342.88
410.45	2394.37
410.64	2368.62
410.83	2424.80
411.02	2408.41
411.21	2413.09
411.40	2548.84
411.59	2539.48
411.78	2441.18
411.98	2572.25
412.17	2593.31
412.36	2527.78
412.55	2581.61
412.74	2633.10
412.93	2663.53
413.12	2572.25
413.31	2780.56
413.50	2686.94
413.69	2768.85
413.88	2745.45
414.07	2878.86
414.26	2883.54
414.45	2773.53
414.64	2888.22
414.83	3023.97
415.02	2850.77
415.22	2939.71
415.41	3040.36
415.60	3002.91
415.79	2986.52
415.98	3159.72
416.17	3176.11
416.36	3061.42
416.55	3150.36
416.74	3115.25
416.93	3145.68
417.12	3133.98
417.31	3220.58
417.50	3096.53
417.69	3297.81
417.88	3267.39
418.07	3281.43
418.26	3361.01
418.45	3482.72
418.64	3510.80
418.83	3538.89
419.02	3454.63
419.21	3536.55
419.39	3562.30
419.58	3534.21
419.77	3449.95
419.96	3461.65
420.15	3627.83
420.34	3503.78
420.53	3691.02
420.72	3798.69
420.91	3721.45
421.10	3522.51
421.29	3648.90
421.48	3644.21
421.67	3770.60
421.86	3735.50
422.05	3686.34
422.24	3723.79
422.43	3641.87
422.61	3756.56
422.80	3843.16
422.99	3822.09
423.18	3810.39
423.37	3880.61
423.56	3826.78
423.75	3761.24
423.94	3758.90
424.13	3611.45
424.32	3632.51
424.50	3768.26
424.69	3847.84
424.88	3882.95
425.07	3798.69
425.26	3847.84
425.45	3728.47
425.64	3847.84
425.83	3810.39
426.01	3971.89
426.20	3803.37
426.39	3880.61
426.58	3826.78
426.77	3892.31
426.96	3995.29
427.15	3892.31
427.33	4109.98
427.52	4007.00
427.71	3948.48
427.90	3932.10
428.09	4074.87
428.28	4058.49
428.46	3978.91
428.65	4100.62
428.84	4208.28
429.03	4142.75
429.22	3985.93
429.40	4009.34
429.59	4067.85
429.78	3999.98
429.97	3967.21
430.16	3929.76
430.34	4063.17
430.53	4042.11
430.72	3988.27
430.91	4133.39
431.10	4241.05
431.28	4463.40
431.47	4493.83
431.66	4510.21
431.85	4355.74
432.03	4498.51
432.22	4550.00
432.41	4510.21
432.60	4449.36
432.79	4512.55
432.97	4496.17
433.16	4650.64
433.35	4402.55
433.54	4664.69
433.72	4587.45
433.91	4524.26
434.10	4564.04
434.28	4578.09
434.47	4550.00
434.66	4704.48
434.85	4762.99
435.03	4894.06
435.22	4793.42
435.41	4861.29
435.59	4779.37
435.78	4983.00
435.97	5029.81
436.16	4905.76
436.34	5125.77
436.53	4875.34
436.72	5036.83
436.90	4931.51
437.09	5055.56
437.28	4945.55
437.46	4863.63
437.65	5001.72
437.84	5039.17
438.02	4968.96
438.21	5029.81
438.40	5135.14
438.58	5320.04
438.77	5282.59
438.96	5266.21
439.14	5235.78
439.33	5533.03
439.52	5661.76
439.70	5317.70
439.89	5509.62
440.08	5392.59
440.26	5514.30
440.45	5526.00
440.63	5628.99
440.82	5898.15
441.01	5820.91
441.19	5867.72
441.38	5820.91
441.57	5872.40
441.75	6043.26
441.94	5987.09
442.12	5991.77
442.31	6153.27
442.50	6024.54
442.68	6092.41
442.87	6080.71
443.05	6157.95
443.24	6366.26
443.43	6279.66
443.61	6274.98
443.80	6239.87
443.98	6092.41
444.17	6087.73
444.35	6249.23
444.54	6392.00
444.73	6487.96
444.91	6183.70
445.10	6265.61
445.28	6317.11
445.47	6176.67
445.65	6223.48
445.84	6326.47
446.02	6420.09
446.21	6434.13
446.39	6389.66
446.58	6476.26
446.77	6403.71
446.95	6349.87
447.14	6604.99
447.32	6511.37
447.51	6499.67
447.69	6473.92
447.88	6539.46
448.06	6752.45
448.25	6359.24
448.43	6593.29
448.62	6462.22
448.80	6476.26
448.99	6668.19
449.17	6551.16
449.36	6712.66
449.54	6626.06
449.73	6960.75
449.91	6820.32
450.10	6834.36
450.28	6930.33
450.46	7115.23
450.65	6794.58
450.83	6967.77
451.02	6986.50
451.20	7190.13
451.39	7080.12
451.57	6981.82
451.76	7075.44
451.94	6761.81
452.13	7145.66
452.31	7059.06
452.49	7037.99
452.68	7272.04
452.86	6932.67
453.05	6958.41
453.23	7171.40
453.42	6963.09
453.60	7016.93
453.78	7272.04
453.97	7297.79
454.15	7105.87
454.34	7183.10
454.52	7449.93
454.70	7227.57
454.89	7496.74
455.07	7281.41
455.26	7314.17
455.44	7414.82
455.62	7478.01
455.81	7368.01
455.99	7501.42
456.17	7522.48
456.36	7534.18
456.54	7730.79
456.73	7719.09
456.91	7911.01
457.09	7854.84
457.28	7857.18
457.46	7815.05
457.64	7829.09
457.83	7946.12
458.01	7810.37
458.19	7852.50
458.38	8046.76
458.56	7964.84
458.74	7915.69
458.93	8072.51
459.11	8016.33
459.29	8009.31
459.48	7974.21
459.66	8065.49
459.84	8208.26
460.03	8294.86
460.21	8271.45
460.39	8154.43
460.57	8187.19
460.76	8152.09
460.94	8308.90
461.12	8390.82
461.31	8322.94
461.49	8397.84
461.67	8257.41
461.85	8648.28
462.04	8585.08
462.22	8858.93
462.40	8746.58
462.59	8608.49
462.77	8461.04
462.95	8657.64
463.13	8610.83
463.32	8659.98
463.50	8669.34
463.68	8842.54
463.86	8613.17
464.05	8461.04
464.23	8608.49
464.41	8826.16
464.59	8521.89
464.78	8997.02
464.96	8667.00
465.14	8732.54
465.32	8922.12
465.50	8959.57
465.69	8985.32
465.87	9034.47
466.05	9046.17
466.23	9020.42
466.41	9179.58
466.60	9334.06
466.78	8915.10
466.96	8842.54
467.14	9104.68
467.32	9067.24
467.51	9202.99
467.69	8889.35
467.87	9158.52
468.05	9399.59
468.23	9200.65
468.41	9205.33
468.60	9341.08
468.78	9568.11
468.96	9158.52
469.14	9481.51
469.32	9537.68
469.50	9273.20
469.69	9497.89
469.87	9558.75
470.05	9755.35
470.23	9488.53
470.41	9514.28
470.59	9685.14
470.77	9568.11
470.95	9596.20
471.14	9933.23
471.32	9785.78
471.50	10092.39
471.68	9937.91
471.86	10059.62
472.04	9973.02
472.22	10160.27
472.40	10059.62
472.58	10289.00
472.77	10200.05
472.95	10431.77
473.13	10492.62
473.31	10204.74
473.49	10389.64
473.67	10122.82
473.85	10143.88
474.03	10693.91
474.21	10640.08
474.39	10689.23
474.57	10537.09
474.75	10761.78
474.93	10850.72
475.12	10768.80
475.30	10979.45
475.48	10930.30
475.66	11105.84
475.84	11147.97
476.02	11047.33
476.20	11166.70
476.38	11370.32
476.56	11463.94
476.74	11473.31
476.92	11555.22
477.10	11557.57
477.28	11538.84
477.46	11857.15
477.64	11903.96
477.82	12004.61
478.00	12264.41
478.18	12381.43
478.36	12273.77
478.54	12414.20
478.72	12411.86
478.90	12711.45
479.08	12709.11
479.26	12781.67
479.44	13191.26
479.62	12638.89
479.80	12964.23
479.98	12828.48
480.16	13378.50
480.34	13329.35
480.52	13385.52
480.70	13193.60
480.88	12917.42
481.06	13334.03
481.24	13460.42
481.41	13858.31
481.59	14120.45
481.77	13923.85
481.95	13818.52
482.13	14359.19
482.31	14200.03
482.49	14429.40
482.67	14288.97
482.85	14628.35
483.03	14813.25
483.21	14743.03
483.39	15379.66
483.57	15157.31
483.74	15302.42
483.92	15082.41
484.10	15133.90
484.28	15386.68
484.46	15744.78
484.64	16009.26
484.82	15878.19
485.00	15756.49
485.18	15992.88
485.35	16105.23
485.53	15946.07
485.71	15648.82
485.89	16365.03
486.07	16301.83
486.25	16315.87
486.43	16645.89
486.61	16711.42
486.78	16884.62
486.96	16872.92
487.14	17284.86
487.32	17202.94
487.50	17657.00
487.68	17671.04
487.85	17671.04
488.03	18249.16
488.21	18410.65
488.39	17930.84
488.57	18389.59
488.75	18462.15
488.92	18862.38
489.10	18614.28
489.28	18932.59
489.46	19241.54
489.64	19012.17
489.81	19590.28
489.99	19367.93
490.17	19894.55
490.35	19854.76
490.53	19941.36
490.70	20034.99
490.88	19887.53
491.06	20507.77
491.24	20140.31
491.41	20020.94
491.59	20442.24
491.77	20460.96
491.95	20755.87
492.13	20676.29
492.30	21057.80
492.48	20889.28
492.66	21319.94
492.84	21582.08
493.01	21830.18
493.19	21558.67
493.37	22012.74
493.54	21933.16
493.72	22181.26
493.90	22160.19
494.08	22492.55
494.25	22438.72
494.43	22459.78
494.61	23297.69
494.79	23058.96
494.96	23091.73
495.14	23138.54
495.32	23243.86
495.49	23648.77
495.67	23190.03
495.85	23246.20
496.02	23943.68
496.20	23946.02
496.38	23730.69
496.55	24112.20
496.73	24151.99
496.91	24018.58
497.09	24563.92
497.26	24631.80
497.44	24273.70
497.62	24769.89
497.79	24704.35
497.97	24552.22
498.14	24783.93
498.32	25198.21
498.50	25097.56
498.67	25663.97
498.85	25710.78
499.03	25743.55
499.20	25467.37
499.38	25668.66
499.56	25692.06
499.73	26066.55
499.91	26052.50
500.08	26118.04
500.26	26038.46
500.44	25965.90
500.61	26307.62
500.79	26115.70
500.97	26445.71
501.14	26771.05
501.32	26906.80
501.49	26349.75
501.67	26625.93
501.84	27304.69
502.02	26544.02
502.20	26871.69
502.37	27126.81
502.55	27477.89
502.72	27644.07
502.90	27473.21
503.07	27344.48
503.25	27693.22
503.43	27618.32
503.60	27522.36
503.78	27936.63
503.95	27866.42
504.13	27651.09
504.30	28311.12
504.48	27718.96
504.65	28521.77
504.83	28573.26
505.01	28814.34
505.18	28797.95
505.36	29362.02
505.53	28606.03
505.71	28828.38
505.88	29462.66
506.06	29149.03
506.23	28875.19
506.41	28954.77
506.58	29352.66
506.76	29490.75
506.93	29518.84
507.11	29432.24
507.28	29371.38
507.46	29333.93
507.63	29301.17
507.81	29809.06
507.98	29476.71
508.16	30033.75
508.33	29811.40
508.50	30408.24
508.68	29954.18
508.85	30433.99
509.03	30618.89
509.20	30206.95
509.38	30668.04
509.55	30733.57
509.73	30677.40
509.90	31040.18
510.08	30817.83
510.25	30941.88
510.42	30988.69
510.60	31035.50
510.77	31318.71
510.95	31557.44
511.12	31173.60
511.30	31559.78
511.47	31854.69
511.64	31658.09
511.82	31763.41
511.99	31498.93
512.17	31983.42
512.34	31828.95
512.51	31894.48
512.69	32168.32
512.86	32395.35
513.04	32088.74
513.21	32463.23
513.38	32381.31
513.56	32128.53
513.73	32088.74
513.90	32545.15
514.08	32287.69
514.25	32823.67
514.43	32744.09
514.60	32844.74
514.77	32758.14
514.95	33003.89
515.12	32945.38
515.29	33518.81
515.47	33427.53
515.64	33345.61
515.81	33200.50
515.99	33329.23
516.16	32947.72
516.33	33001.55
516.51	33200.50
516.68	33151.35
516.85	32900.91
517.03	33177.09
517.20	33481.36
517.37	33816.06
517.54	34132.03
517.72	34015.01
517.89	33869.89
518.06	34010.32
518.24	33968.19
518.41	34223.31
518.58	34052.45
518.75	34026.71
518.93	34672.70
519.10	34181.18
519.27	34328.64
519.45	34410.56
519.62	34749.93
519.79	34927.81
519.96	34810.79
520.14	35412.31
520.31	35323.36
520.48	35009.73
520.65	34883.34
520.83	35306.98
521.00	35346.77
521.17	35278.89
521.34	35519.97
521.52	35714.23
521.69	35976.37
521.86	35716.58
522.03	35765.73
522.20	36261.92
522.38	35892.12
522.55	36598.96
522.72	35807.86
522.89	35573.80
523.07	36233.83
523.24	36226.81
523.41	36168.30
523.58	35978.72
523.75	36921.95
523.92	36524.06
524.10	36779.18
524.27	36985.15
524.44	36570.87
524.61	36582.57
524.78	36744.07
524.96	36865.78
525.13	37167.71
525.30	37436.87
525.47	37518.79
525.64	37488.36
525.81	36898.55
525.98	37347.93
526.16	36683.22
526.33	36772.16
526.50	37233.24
526.67	36758.11
526.84	37457.93
527.01	36914.93
527.18	37067.06
527.36	37366.65
527.53	38073.49
527.70	37546.87
527.87	37923.70
528.04	37867.53
528.21	38361.38
528.38	38288.82
528.55	38267.76
528.72	38132.01
528.89	38429.26
529.07	38239.67
529.24	37930.72
529.41	38288.82
529.58	38485.43
529.75	38419.89
529.92	38183.50
530.09	38794.38
530.26	38735.87
530.43	38363.72
530.60	38621.18
530.77	38628.20
530.94	39459.09
531.11	38934.81
531.28	39019.07
531.46	38873.96
531.63	39330.36
531.80	39049.50
531.97	38827.15
532.14	39037.80
532.31	39131.42
532.48	39288.23
532.65	39061.20
532.82	39662.72
532.99	39735.27
533.16	39145.46
533.33	39398.24
533.50	39639.31
533.67	39519.95
533.84	39910.82
534.01	39765.70
534.18	39639.31
534.35	39842.94
534.52	39655.70
534.69	40041.88
534.86	39819.53
535.03	39613.57
535.20	40133.17
535.37	40786.18
535.54	40238.49
535.71	40212.74
535.88	40140.19
536.05	40498.29
536.22	40128.48
536.38	40371.90
536.55	40299.34
536.72	40072.31
536.89	40313.39
537.06	40624.68
537.23	40793.20
537.40	40603.61
537.57	40463.18
537.74	40545.10
537.91	40847.03
538.08	41123.21
538.25	40421.05
538.42	40832.99
538.59	41116.19
538.75	40402.33
538.92	41191.09
539.09	41298.75
539.26	41064.70
539.43	40952.35
539.60	41127.89
539.77	40835.33
539.94	41317.48
540.11	40437.44
540.28	41067.04
540.44	40858.73
540.61	40989.80
540.78	41205.13
540.95	41467.27
541.12	41565.57
541.29	41029.59
541.46	41596.00
541.62	41270.67
541.79	41659.20
541.96	41750.48
542.13	42171.77
542.30	41780.90
542.47	41593.66
542.63	42134.32
542.80	41701.32
542.97	42124.96
543.14	42370.72
543.31	42265.39
543.48	42080.49
543.64	42745.20
543.81	42728.82
543.98	42761.59
544.15	42562.64
544.32	42356.67
544.48	42761.59
544.65	42883.30
544.82	42822.44
544.99	42085.17
545.16	42588.39
545.32	42466.68
545.49	42845.85
545.66	43023.73
545.83	42705.41
546.00	43131.39
546.16	43033.09
546.33	42656.26
546.50	42550.94
546.67	43016.71
546.83	42665.63
547.00	43234.38
547.17	42525.19
547.34	42983.94
547.50	43075.22
547.67	43501.20
547.84	43374.81
548.00	43531.62
548.17	43363.11
548.34	43365.45
548.51	43615.88
548.67	43585.46
548.84	43447.36
549.01	43423.96
549.18	43154.80
549.34	43599.50
549.51	43466.09
549.68	43845.26
549.84	43445.02
550.01	44032.50
550.18	43295.23
550.34	43489.49
550.51	43306.93
550.68	43594.82
550.84	43613.54
551.01	44081.65
551.18	43878.02
551.34	43973.98
551.51	43892.07
551.68	43686.10
551.84	43866.32
552.01	44357.83
552.18	43887.39
552.34	43913.13
552.51	44233.78
552.68	44222.08
552.84	44179.95
553.01	44765.09
553.18	44364.85
553.34	44217.40
553.51	43828.87
553.67	43959.94
553.84	44563.80
554.01	44421.03
554.17	44648.06
554.34	44884.45
554.51	44797.85
554.67	44748.70
554.84	44638.70
555.00	44091.01
555.17	44140.16
555.33	44868.07
555.50	44612.95
555.67	44612.95
555.83	44875.09
556.00	44676.15
556.16	45385.33
556.33	44690.19
556.50	44631.68
556.66	44727.64
556.83	44561.46
556.99	45404.05
557.16	44938.29
557.32	44935.95
557.49	44566.14
557.65	44556.78
557.82	44673.81
557.98	44882.11
558.15	44889.13
558.32	44994.46
558.48	44800.19
558.65	45174.68
558.81	45020.20
558.98	44971.05
559.14	44863.39
559.31	45043.61
559.47	45139.57
559.64	45326.81
559.80	45303.41
559.97	44879.77
560.13	45191.06
560.30	45230.85
560.46	45059.99
560.63	45188.72
560.79	45518.74
560.96	45022.54
561.12	45366.60
561.29	44971.05
561.45	45219.15
561.61	45261.28
561.78	45214.47
561.94	45186.38
562.11	45280.00
562.27	45207.45
562.44	45511.72
562.60	45886.20
562.77	45256.60
562.93	45516.40
563.10	45471.93
563.26	45282.34
563.42	45750.45
563.59	45858.12
563.75	45338.52
563.92	45736.41
564.08	45628.74
564.24	45717.68
564.41	45347.88
564.57	45600.66
564.74	45352.56
564.90	46010.25
565.07	45785.56
565.23	45352.56
565.39	45354.90
565.56	45731.73
565.72	45645.13
565.88	45467.25
566.05	45925.99
566.21	45925.99
566.38	45209.79
566.54	45776.20
566.70	45628.74
566.87	46230.26
567.03	46050.04
567.19	46206.86
567.36	45776.20
567.52	45628.74
567.68	46136.64
567.85	45382.99
568.01	45823.01
568.17	45280.00
568.34	45766.84
568.50	45675.55
568.66	45787.90
568.83	45521.08
568.99	45329.16
569.15	45687.26
569.32	45830.03
569.48	45773.86
569.64	45900.25
569.81	45890.88
569.97	45588.95
570.13	45724.71
570.30	45851.09
570.46	45731.73
570.62	45331.50
570.78	45413.41
570.95	45603.00
571.11	45921.31
571.27	46078.13
571.43	45925.99
571.60	45989.19
571.76	46167.07
571.92	45755.13
572.09	46260.69
572.25	45996.21
572.41	45776.20
572.57	45869.82
572.74	46576.66
572.90	45872.16
573.06	45935.35
573.22	46504.10
573.38	45909.61
573.55	45762.15
573.71	46199.83
573.87	45911.95
574.03	45535.12
574.20	46075.79
574.36	45717.68
574.52	46012.59
574.68	46005.57
574.84	45986.85
575.01	46134.30
575.17	46131.96
575.33	45626.40
575.49	45874.50
575.65	46101.53
575.82	46419.84
575.98	46024.29
576.14	46202.18
576.30	46204.52
576.46	45858.12
576.62	45841.73
576.79	45698.96
576.95	45717.68
577.11	46103.87
577.27	45921.31
577.43	46473.68
577.59	45738.75
577.75	46064.08
577.92	45549.17
578.08	45942.38
578.24	45591.30
578.40	46181.11
578.56	46234.94
578.72	46157.70
578.88	46190.47
579.04	45827.69
579.21	46319.20
579.37	46014.93
579.53	46080.47
579.69	45846.41
579.85	45933.01
580.01	46129.62
580.17	46344.95
580.33	46337.93
580.49	46373.03
580.65	46080.47
580.82	46361.33
580.98	45797.26
581.14	45869.82
581.30	46541.55
581.46	46038.34
581.62	46155.36
581.78	46021.95
581.94	46253.67
582.10	46380.06
582.26	46094.51
582.42	46309.84
582.58	46206.86
582.74	46199.83
582.90	46188.13
583.06	46342.61
583.22	46134.30
583.38	46087.49
583.54	45933.01
583.70	46616.45
583.86	45853.44
584.02	46291.12
584.18	46031.32
584.34	45827.69
584.50	46192.81
584.66	46253.67
584.82	45933.01
584.98	46195.15
585.14	46373.03
585.30	46087.49
585.46	46333.24
585.62	46178.77
585.78	46213.88
585.94	45783.22
586.10	45715.34
586.26	46129.62
586.42	46155.36
586.58	46747.52
586.74	46244.30
586.90	45825.35
587.06	46263.03
587.22	46401.12
587.38	46017.27
587.54	46270.05
587.70	46536.87
587.86	46422.19
588.02	46005.57
588.18	46124.94
588.34	45844.07
588.49	45736.41
588.65	45584.27
588.81	45633.42
588.97	46440.91
589.13	45750.45
589.29	46298.14
589.45	45944.72
589.61	46209.20
589.77	46223.24
589.93	46721.77
590.08	46658.58
