SpectraSuite Data File
++++++++++++++++++++++++++++++++++++
Date: Fri Oct 25 10:46:59 EDT 2013
User: price-jones
Dark Spectrum Present: No
Reference Spectrum Present: No
Number of Sampled Component Spectra: 1
Spectrometers: USB2+H05261
Integration Time (usec): 100000 (USB2+H05261)
Spectra Averaged: 1 (USB2+H05261)
Boxcar Smoothing: 0 (USB2+H05261)
Correct for Electrical Dark: No (USB2+H05261)
Strobe/Lamp Enabled: No (USB2+H05261)
Correct for Detector Non-linearity: No (USB2+H05261)
Correct for Stray Light: No (USB2+H05261)
Number of Pixels in Processed Spectrum: 2048
>>>>>Begin Processed Spectral Data<<<<<
365.73	149.79
365.92	149.79
366.12	149.79
366.32	79.58
366.52	28.09
366.72	84.26
366.91	0.00
367.11	0.00
367.31	21.06
367.51	0.00
367.70	0.00
367.90	95.96
368.10	16.38
368.30	16.38
368.49	11.70
368.69	60.85
368.89	0.00
369.09	28.09
369.28	0.00
369.48	140.43
369.68	70.22
369.87	110.01
370.07	112.35
370.27	149.79
370.47	163.84
370.66	362.78
370.86	388.53
371.06	447.04
371.25	519.60
371.45	374.49
371.65	489.17
371.84	416.62
372.04	409.59
372.24	458.74
372.44	435.34
372.63	557.05
372.83	559.39
373.03	447.04
373.22	510.24
373.42	463.43
373.62	489.17
373.81	512.58
374.01	484.49
374.21	547.69
374.40	484.49
374.60	650.67
374.79	545.34
374.99	606.20
375.19	617.90
375.38	554.71
375.58	669.39
375.78	610.88
375.97	599.18
376.17	671.73
376.37	671.73
376.56	580.45
376.76	596.84
376.95	648.33
377.15	678.76
377.35	615.56
377.54	580.45
377.74	589.82
377.93	660.03
378.13	634.29
378.33	603.86
378.52	748.97
378.72	660.03
378.91	650.67
379.11	664.71
379.31	671.73
379.50	685.78
379.70	655.35
379.89	645.99
380.09	596.84
380.28	638.97
380.48	660.03
380.68	676.41
380.87	674.07
381.07	692.80
381.26	713.86
381.46	638.97
381.65	678.76
381.85	702.16
382.04	667.05
382.24	763.01
382.43	674.07
382.63	660.03
382.83	737.27
383.02	770.04
383.22	765.36
383.41	741.95
383.61	699.82
383.80	730.25
384.00	713.86
384.19	837.91
384.39	770.04
384.58	774.72
384.78	816.85
384.97	866.00
385.17	737.27
385.36	763.01
385.56	798.12
385.75	748.97
385.95	763.01
386.14	788.76
386.34	730.25
386.53	802.80
386.72	882.38
386.92	842.59
387.11	760.67
387.31	837.91
387.50	861.32
387.70	821.53
387.89	915.15
388.09	940.90
388.28	929.19
388.48	926.85
388.67	901.11
388.86	833.23
389.06	933.87
389.25	933.87
389.45	940.90
389.64	851.96
389.84	1015.79
390.03	924.51
390.22	1041.54
390.42	961.96
390.61	978.34
390.81	961.96
391.00	936.21
391.19	1018.13
391.39	940.90
391.58	1069.62
391.78	1036.86
391.97	1071.97
392.16	1046.22
392.36	1032.18
392.55	987.71
392.75	1015.79
392.94	997.07
393.13	1029.84
393.33	990.05
393.52	1039.20
393.71	1100.05
393.91	1144.52
394.10	1053.24
394.29	1006.43
394.49	1114.10
394.68	1071.97
394.88	1111.75
395.07	1158.57
395.26	1207.72
395.46	1156.22
395.65	1191.33
395.84	1114.10
396.04	1217.08
396.23	1167.93
396.42	1156.22
396.62	1235.80
396.81	1198.35
397.00	1130.48
397.19	1231.12
397.39	1221.76
397.58	1217.08
397.77	1284.95
397.97	1313.04
398.16	1397.30
398.35	1455.81
398.55	1315.38
398.74	1437.09
398.93	1462.83
399.12	1451.13
399.32	1387.94
399.51	1404.32
399.70	1385.60
399.90	1430.07
400.09	1488.58
400.28	1521.35
400.47	1579.86
400.67	1558.80
400.86	1472.20
401.05	1572.84
401.24	1490.92
401.44	1610.29
401.63	1610.29
401.82	1600.93
402.01	1530.71
402.21	1631.35
402.40	1631.35
402.59	1675.82
402.78	1533.05
402.97	1652.42
403.17	1636.03
403.36	1614.97
403.55	1696.89
403.74	1732.00
403.93	1797.53
404.13	1706.25
404.32	1678.16
404.51	1713.27
404.70	1732.00
404.89	1842.00
405.09	1830.30
405.28	1842.00
405.47	1856.04
405.66	1900.52
405.85	1870.09
406.05	1865.41
406.24	1844.34
406.43	1895.83
406.62	1856.04
406.81	2057.33
407.00	1891.15
407.20	1942.64
407.39	1961.37
407.58	2012.86
407.77	2024.56
407.96	1984.77
408.15	1926.26
408.34	1956.69
408.54	2052.65
408.73	2183.72
408.92	2160.31
409.11	2216.49
409.30	2244.57
409.49	2106.48
409.68	2150.95
409.87	2118.18
410.07	2162.66
410.26	2317.13
410.45	2356.92
410.64	2401.39
410.83	2237.55
411.02	2373.30
411.21	2417.77
411.40	2223.51
411.59	2424.80
411.78	2483.31
411.98	2434.16
412.17	2452.88
412.36	2537.14
412.55	2541.82
412.74	2590.97
412.93	2530.12
413.12	2520.76
413.31	2691.62
413.50	2530.12
413.69	2581.61
413.88	2675.23
414.07	2754.81
414.26	2806.30
414.45	2787.58
414.64	2738.43
414.83	2787.58
415.02	2909.29
415.22	2871.84
415.41	2963.12
415.60	2904.60
415.79	2923.33
415.98	3012.27
416.17	3019.29
416.36	2918.65
416.55	2949.08
416.74	3073.12
416.93	3030.99
417.12	3014.61
417.31	3129.30
417.50	3201.85
417.69	3208.87
417.88	3187.81
418.07	3206.53
418.26	3190.15
418.45	3342.28
418.64	3353.99
418.83	3358.67
419.02	3414.84
419.21	3332.92
419.39	3286.11
419.58	3314.20
419.77	3335.26
419.96	3463.99
420.15	3471.01
420.34	3398.46
420.53	3309.52
420.72	3648.90
420.91	3569.32
421.10	3543.57
421.29	3758.90
421.48	3700.39
421.67	3592.72
421.86	3534.21
422.05	3653.58
422.24	3482.72
422.43	3676.98
422.61	3747.20
422.80	3754.22
422.99	3616.13
423.18	3747.20
423.37	3627.83
423.56	3772.94
423.75	3585.70
423.94	3559.95
424.13	3466.33
424.32	3449.95
424.50	3735.50
424.69	3758.90
424.88	3719.11
425.07	3630.17
425.26	3772.94
425.45	3590.38
425.64	3730.81
425.83	3784.65
426.01	3716.77
426.20	3777.62
426.39	3723.79
426.58	3775.28
426.77	3758.90
426.96	3747.20
427.15	3880.61
427.33	3775.28
427.52	3941.46
427.71	3964.87
427.90	3831.46
428.09	3960.19
428.28	3845.50
428.46	3859.54
428.65	3868.91
428.84	3967.21
429.03	3992.95
429.22	3934.44
429.40	3925.08
429.59	3840.82
429.78	3728.47
429.97	3801.03
430.16	3995.29
430.34	4030.40
430.53	4049.13
430.72	3955.51
430.91	4007.00
431.10	4114.66
431.28	4177.86
431.47	4219.99
431.66	4327.65
431.85	4332.33
432.03	4271.48
432.22	4332.33
432.41	4339.35
432.60	4423.61
432.79	4348.72
432.97	4444.68
433.16	4451.70
433.35	4332.33
433.54	4454.04
433.72	4444.68
433.91	4470.42
434.10	4456.38
434.28	4554.68
434.47	4404.89
434.66	4526.60
434.85	4674.05
435.03	4667.03
435.22	4531.28
435.41	4873.00
435.59	4624.90
435.78	4765.33
435.97	4954.91
436.16	4844.91
436.34	4828.53
436.53	4725.54
436.72	5001.72
436.90	4730.22
437.09	4762.99
437.28	4791.08
437.46	4915.12
437.65	4835.55
437.84	4926.83
438.02	4917.47
438.21	4816.82
438.40	4926.83
438.58	5165.56
438.77	5156.20
438.96	5076.62
439.14	5235.78
439.33	5233.44
439.52	5334.08
439.70	5247.48
439.89	5359.83
440.08	5394.93
440.26	5284.93
440.45	5327.06
440.63	5427.70
440.82	5617.29
441.01	5612.60
441.19	5647.71
441.38	5696.86
441.57	5720.27
441.75	5706.23
441.94	5823.25
442.12	5834.96
442.31	5956.66
442.50	5935.60
442.68	6001.13
442.87	5935.60
443.05	5898.15
443.24	6045.60
443.43	6019.86
443.61	5982.41
443.80	6186.04
443.98	6118.16
444.17	5900.49
444.35	6183.70
444.54	6303.06
444.73	6029.22
444.91	6092.41
445.10	6207.10
445.28	6155.61
445.47	5982.41
445.65	6050.28
445.84	6270.30
446.02	6319.45
446.21	6221.14
446.39	6228.17
446.58	6260.93
446.77	6342.85
446.95	6115.82
447.14	6263.27
447.32	6312.42
447.51	6183.70
447.69	6296.04
447.88	6150.93
448.06	6286.68
448.25	6209.44
448.43	6312.42
448.62	6277.32
448.80	6298.38
448.99	6356.90
449.17	6487.96
449.36	6300.72
449.54	6476.26
449.73	6705.63
449.91	6607.33
450.10	6813.30
450.28	6630.74
450.46	6562.86
450.65	6719.68
450.83	6918.62
451.02	6970.12
451.20	6754.79
451.39	6841.39
451.57	6665.85
451.76	6848.41
451.94	6885.86
452.13	6885.86
452.31	6909.26
452.49	6462.22
452.68	7012.24
452.86	6712.66
453.05	7002.88
453.23	7115.23
453.42	6904.58
453.60	7033.31
453.78	6986.50
453.97	6937.35
454.15	6965.43
454.34	6857.77
454.52	7192.47
454.70	6942.03
454.89	7002.88
455.07	7162.04
455.26	7344.60
455.44	7412.48
455.62	7412.48
455.81	7398.43
455.99	7494.40
456.17	7482.69
456.36	7520.14
456.54	7569.29
456.73	7466.31
456.91	7719.09
457.09	7838.45
457.28	7681.64
457.46	7595.04
457.64	7620.78
457.83	7676.96
458.01	7496.74
458.19	7896.97
458.38	7714.41
458.56	7845.48
458.74	7557.59
458.93	7779.94
459.11	7688.66
459.29	7791.64
459.48	7868.88
459.66	7674.62
459.84	7782.28
460.03	8105.28
460.21	7815.05
460.39	7969.52
460.57	8093.57
460.76	8116.98
460.94	8198.90
461.12	8145.06
461.31	8065.49
461.49	8124.00
461.67	8004.63
461.85	8257.41
462.04	8109.96
462.22	8613.17
462.40	8503.17
462.59	8355.71
462.77	8404.86
462.95	8397.84
463.13	8446.99
463.32	8234.00
463.50	8407.20
463.68	8430.61
463.86	8730.20
464.05	8320.60
464.23	8446.99
464.41	8699.77
464.59	8348.69
464.78	8678.71
464.96	8741.90
465.14	8344.01
465.32	8615.51
465.50	8678.71
465.69	8800.41
465.87	8669.34
466.05	8793.39
466.23	8643.60
466.41	8938.51
466.60	8730.20
466.78	8617.85
466.96	8657.64
467.14	8769.99
467.32	8940.85
467.51	8987.66
467.69	8580.40
467.87	9090.64
468.05	8929.14
468.23	8837.86
468.41	8905.74
468.60	9104.68
468.78	9032.13
468.96	8894.04
469.14	9160.86
469.32	9256.82
469.50	8994.68
469.69	9254.48
469.87	9327.03
470.05	9303.63
470.23	9254.48
470.41	9364.48
470.59	9579.81
470.77	9511.94
470.95	9586.83
471.14	9561.09
471.32	9533.00
471.50	9888.76
471.68	9771.74
471.86	9764.72
472.04	9671.09
472.22	10122.82
472.40	9654.71
472.58	9853.66
472.77	9973.02
472.95	9958.98
473.13	10410.70
473.31	10008.13
473.49	9858.34
473.67	10001.11
473.85	10078.35
474.03	10576.88
474.21	10541.77
474.39	10553.48
474.57	10527.73
474.75	10551.14
474.93	10569.86
475.12	10611.99
475.30	10768.80
475.48	10689.23
475.66	10832.00
475.84	10771.15
476.02	10946.69
476.20	10846.04
476.38	10897.53
476.56	11325.85
476.74	11131.59
476.92	11143.29
477.10	11272.02
477.28	11531.82
477.46	11548.20
477.64	11611.40
477.82	11583.31
478.00	12088.87
478.18	11831.41
478.36	11810.34
478.54	12009.29
478.72	12058.44
478.90	12421.22
479.08	12231.64
479.26	12194.19
479.44	12341.64
479.62	12582.72
479.80	12678.68
479.98	12849.54
480.16	12898.69
480.34	12901.03
480.52	13228.71
480.70	12940.82
480.88	12959.55
481.06	13179.56
481.24	13224.03
481.41	13437.02
481.59	13675.75
481.77	13771.71
481.95	13818.52
482.13	13797.46
482.31	13783.41
482.49	14033.85
482.67	14001.08
482.85	14176.62
483.03	14181.31
483.21	14464.51
483.39	14672.82
483.57	14511.32
483.74	14789.85
483.92	15035.60
484.10	15108.16
484.28	15253.27
484.46	15344.55
484.64	15756.49
484.82	15384.34
485.00	15513.07
485.18	15618.39
485.35	15803.30
485.53	15583.29
485.71	15644.14
485.89	15889.90
486.07	15676.91
486.25	15995.22
486.43	16100.55
486.61	16489.07
486.78	16318.22
486.96	16865.90
487.14	16678.66
487.32	16922.07
487.50	17209.96
487.68	17226.34
487.85	17486.14
488.03	17582.10
488.21	17350.39
488.39	17790.41
488.57	18026.81
488.75	17802.11
488.92	18373.21
489.10	18523.00
489.28	18661.09
489.46	18860.04
489.64	18789.82
489.81	19122.18
489.99	19363.25
490.17	19159.63
490.35	19503.68
490.53	19213.46
490.70	19445.17
490.88	19468.58
491.06	19573.90
491.24	19707.31
491.41	19700.29
491.59	20285.42
491.77	19859.45
491.95	20121.59
492.13	20400.11
492.30	20425.86
492.48	20931.41
492.66	20807.36
492.84	20631.82
493.01	21015.67
493.19	21013.33
493.37	21153.76
493.54	21455.69
493.72	21322.28
493.90	21612.51
494.08	22097.00
494.25	21963.59
494.43	22019.76
494.61	22253.81
494.79	22284.24
494.96	22515.95
495.14	22125.08
495.32	22630.64
495.49	22600.21
495.67	22565.10
495.85	23103.43
496.02	23117.47
496.20	23239.18
496.38	23276.63
496.55	23566.85
496.73	24016.24
496.91	23435.78
497.09	23812.61
497.26	23957.72
497.44	23669.84
497.62	23901.55
497.79	24320.51
497.97	24463.28
498.14	24189.44
498.32	24835.42
498.50	24624.78
498.67	24638.82
498.85	25043.73
499.03	25102.25
499.20	25008.62
499.38	25160.76
499.56	25268.42
499.73	25474.39
499.91	25565.67
500.08	25448.64
500.26	25284.81
500.44	25605.46
500.61	25785.68
500.79	25703.76
500.97	25830.15
501.14	26143.78
501.32	25745.89
501.49	26209.32
501.67	26059.52
501.84	26338.05
502.02	26445.71
502.20	26759.34
502.37	26429.33
502.55	26525.29
502.72	26918.50
502.90	26771.05
503.07	26595.51
503.25	27236.81
503.43	27131.49
503.60	27505.98
503.78	27211.07
503.95	27101.06
504.13	27559.81
504.30	27639.39
504.48	27220.43
504.65	27728.33
504.83	27730.67
505.01	27913.23
505.18	28037.28
505.36	28208.14
505.53	28133.24
505.71	28395.38
505.88	28198.77
506.06	27976.42
506.23	28306.44
506.41	28074.73
506.58	28498.36
506.76	28755.82
506.93	28978.17
507.11	29142.01
507.28	28737.10
507.46	28765.18
507.63	28477.30
507.81	29048.39
507.98	29069.45
508.16	29212.23
508.33	29457.98
508.50	29490.75
508.68	29862.90
508.85	30054.82
509.03	29846.51
509.20	29963.54
509.38	30412.92
509.55	29907.37
509.73	30293.55
509.90	30300.58
510.08	29682.67
510.25	30286.53
510.42	30328.66
510.60	30167.16
510.77	30761.66
510.95	30696.13
511.12	30513.56
511.30	31084.65
511.47	31281.26
511.64	31304.67
511.82	31220.41
511.99	31096.36
512.17	31234.45
512.34	30953.58
512.51	31622.98
512.69	31613.62
512.86	31564.46
513.04	31857.03
513.21	31538.72
513.38	31765.75
513.56	31777.45
513.73	31810.22
513.90	31723.62
514.08	31964.70
514.25	32102.79
514.43	31969.38
514.60	32165.98
514.77	31868.73
514.95	32500.68
515.12	32308.76
515.29	32313.44
515.47	32638.77
515.64	32961.76
515.81	32657.49
515.99	32521.74
516.16	32620.05
516.33	32802.61
516.51	32706.65
516.68	32591.96
516.85	32201.09
517.03	32992.19
517.20	32959.42
517.37	33205.18
517.54	32793.25
517.72	33303.48
517.89	33462.64
518.06	33146.67
518.24	33195.82
518.41	32868.14
518.58	33378.38
518.75	33244.97
518.93	33614.77
519.10	33862.87
519.27	34260.76
519.45	33790.31
519.62	34169.48
519.79	34277.15
519.96	34604.82
520.14	34567.37
520.31	34462.05
520.48	34501.84
520.65	34356.72
520.83	34380.13
521.00	34761.64
521.17	34693.76
521.34	34206.93
521.52	34845.90
521.69	35482.52
521.86	35227.40
522.03	35049.52
522.20	35339.75
522.38	35110.38
522.55	35229.74
522.72	35379.54
522.89	35278.89
523.07	35105.70
523.24	35438.05
523.41	35510.61
523.58	35292.94
523.75	35735.30
523.92	35681.47
524.10	36144.89
524.27	36308.73
524.44	35871.05
524.61	36215.11
524.78	36254.90
524.96	36430.44
525.13	36367.24
525.30	36378.95
525.47	36727.69
525.64	37219.20
525.81	36727.69
525.98	36311.07
526.16	36224.47
526.33	36400.01
526.50	36723.01
526.67	36320.43
526.84	36201.07
527.01	36374.27
527.18	36877.48
527.36	36987.49
527.53	37020.25
527.70	37170.05
527.87	37418.14
528.04	37504.74
528.21	37528.15
528.38	37488.36
528.55	37574.96
528.72	37280.05
528.89	37537.51
529.07	37654.54
529.24	37450.91
529.41	37862.85
529.58	37600.71
529.75	37125.58
529.92	37724.75
530.09	37979.87
530.26	38319.25
530.43	38110.94
530.60	37825.40
530.77	38045.41
530.94	38438.62
531.11	38014.98
531.28	38352.02
531.46	38539.26
531.63	38469.04
531.80	38457.34
531.97	38698.42
532.14	38122.65
532.31	37909.66
532.48	38773.31
532.65	38562.67
532.82	38298.19
532.99	38714.80
533.16	38396.49
533.33	38752.25
533.50	38635.22
533.67	38794.38
533.84	38834.17
534.01	38810.76
534.18	38682.03
534.35	38990.98
534.52	38836.51
534.69	39241.42
534.86	39438.03
535.03	39089.29
535.20	39613.57
535.37	39585.48
535.54	39477.82
535.71	39491.86
535.88	39571.44
536.05	39292.91
536.22	39679.10
536.38	39796.13
536.55	39824.22
536.72	40037.20
536.89	39552.71
537.06	39470.79
537.23	39931.88
537.40	39543.35
537.57	40105.08
537.74	39838.26
537.91	40142.53
538.08	39915.50
538.25	39873.37
538.42	39957.63
538.59	39842.94
538.75	40072.31
538.92	40428.07
539.09	40783.83
539.26	40278.28
539.43	40371.90
539.60	40697.24
539.77	40023.16
539.94	40521.69
540.11	40121.46
540.28	40261.90
540.44	40048.91
540.61	40341.47
540.78	40662.13
540.95	40449.14
541.12	40362.54
541.29	40491.27
541.46	40928.95
541.62	41067.04
541.79	40657.45
541.96	40715.96
542.13	40650.42
542.30	41256.62
542.47	40900.86
542.63	40954.69
542.80	41102.15
542.97	41617.07
543.14	41591.32
543.31	41518.76
543.48	41706.01
543.64	41872.18
543.81	41521.10
543.98	41588.98
544.15	41729.41
544.32	41780.90
544.48	42010.28
544.65	41593.66
544.82	41481.31
544.99	41528.13
545.16	42176.45
545.32	41794.95
545.49	42307.52
545.66	42813.08
545.83	42057.09
546.00	42459.66
546.16	42096.88
546.33	41825.37
546.50	41989.21
546.67	41933.04
546.83	41558.55
547.00	42249.01
547.17	42129.64
547.34	42223.26
547.50	42380.08
547.67	42564.98
547.84	42394.12
548.00	42761.59
548.17	42902.02
548.34	42728.82
548.51	42927.77
548.67	42838.83
548.84	42660.94
549.01	42827.12
549.18	42700.73
549.34	43110.33
549.51	43091.60
549.68	43306.93
549.84	43302.25
550.01	43243.74
550.18	42958.19
550.34	42525.19
550.51	43388.85
550.68	42813.08
550.84	42838.83
551.01	43786.74
551.18	43098.62
551.34	43185.22
551.51	43072.88
551.68	43414.60
551.84	43402.89
552.01	43140.75
552.18	42934.79
552.34	43033.09
552.51	43475.45
552.68	43346.72
552.84	43936.54
553.01	43559.71
553.18	43831.21
553.34	43636.95
553.51	43445.02
553.67	43491.83
553.84	43667.37
554.01	43669.72
554.17	43922.49
554.34	44144.84
554.51	43978.67
554.67	44030.16
554.84	43845.26
555.00	44088.67
555.17	43377.15
555.33	43543.33
555.50	44123.78
555.67	44095.69
555.83	43749.29
556.00	43681.42
556.16	44119.10
556.33	44179.95
556.50	43945.90
556.66	44252.51
556.83	43456.73
556.99	44404.64
557.16	43936.54
557.32	44294.64
557.49	44285.28
557.65	43899.09
557.82	44254.85
557.98	44126.12
558.15	43950.58
558.32	44194.00
558.48	44098.03
558.65	44109.74
558.81	44442.09
558.98	44308.68
559.14	44147.18
559.31	44280.60
559.47	44296.98
559.64	44678.49
559.80	44538.05
559.97	44486.56
560.13	44133.14
560.30	44493.58
560.46	44575.50
560.63	44617.63
560.79	44957.01
560.96	44879.77
561.12	44498.26
561.29	44500.61
561.45	44493.58
561.61	44540.39
561.78	44905.52
561.94	44830.62
562.11	45116.17
562.27	44811.90
562.44	44399.96
562.60	44877.43
562.77	44648.06
562.93	44786.15
563.10	44989.78
563.26	44849.35
563.42	44746.36
563.59	45050.63
563.75	44650.40
563.92	44697.21
564.08	44837.64
564.24	44699.55
564.41	45120.85
564.57	44903.18
564.74	45020.20
564.90	44966.37
565.07	44884.45
565.23	44828.28
565.39	44732.32
565.56	44851.69
565.72	45177.02
565.88	45139.57
566.05	44739.34
566.21	44821.26
566.38	44790.83
566.54	44978.07
566.70	45270.64
566.87	45600.66
567.03	45165.32
567.19	45663.85
567.36	45406.39
567.52	44987.44
567.68	45244.90
567.85	44978.07
568.01	45015.52
568.17	45235.53
568.34	45092.76
568.50	45092.76
568.66	45298.73
568.83	45158.30
568.99	44842.32
569.15	44917.22
569.32	44973.39
569.48	44891.48
569.64	45120.85
569.81	45242.56
569.97	45076.38
570.13	45111.49
570.30	44802.53
570.46	45045.95
570.62	45062.33
570.78	44652.74
570.95	45242.56
571.11	45846.41
571.27	44959.35
571.43	44945.31
571.60	45282.34
571.76	45565.55
571.92	45165.32
572.09	44907.86
572.25	45270.64
572.41	45191.06
572.57	45673.21
572.74	45893.22
572.90	45113.83
573.06	45212.13
573.22	45565.55
573.38	45235.53
573.55	45043.61
573.71	45668.53
573.87	45251.92
574.03	44954.67
574.20	45593.64
574.36	45436.82
574.52	45422.78
574.68	45460.23
574.84	45577.25
575.01	45731.73
575.17	45420.44
575.33	45324.47
575.49	45368.94
575.65	45413.41
575.82	45626.40
575.98	45485.97
576.14	45511.72
576.30	45277.66
576.46	45085.74
576.62	45233.19
576.79	45165.32
576.95	44879.77
577.11	45343.20
577.27	45432.14
577.43	45612.36
577.59	45336.18
577.75	45668.53
577.92	45083.40
578.08	45132.55
578.24	45064.67
578.40	45277.66
578.56	45397.03
578.72	45614.70
578.88	45380.65
579.04	45703.64
579.21	44938.29
579.37	44996.80
579.53	45340.86
579.69	45399.37
579.85	45240.21
580.01	45530.44
580.17	45551.51
580.33	45705.98
580.49	45181.70
580.65	45977.48
580.82	45324.47
580.98	45907.27
581.14	45287.03
581.30	45759.81
581.46	45427.46
581.62	45624.06
581.78	45670.87
581.94	46071.10
582.10	45925.99
582.26	45790.24
582.42	45851.09
582.58	45373.63
582.74	45125.53
582.90	45675.55
583.06	45605.34
583.22	45448.52
583.38	45823.01
583.54	45359.58
583.70	45375.97
583.86	45705.98
584.02	45368.94
584.18	45507.04
584.34	45605.34
584.50	45710.66
584.66	45668.53
584.82	45635.77
584.98	45684.92
585.14	45549.17
585.30	45329.16
585.46	46045.36
585.62	45310.43
585.78	45790.24
585.94	45261.28
586.10	45581.93
586.26	45394.69
586.42	45839.39
586.58	45780.88
586.74	45701.30
586.90	45684.92
587.06	45298.73
587.22	45633.42
587.38	45600.66
587.54	46167.07
587.70	45708.32
587.86	45593.64
588.02	45584.27
588.18	45785.56
588.34	45680.24
588.49	44947.65
588.65	45174.68
588.81	45312.77
588.97	45301.07
589.13	45434.48
589.29	45371.28
589.45	45654.49
589.61	45429.80
589.77	45933.01
589.93	45846.41
590.08	45951.74
