SpectraSuite Data File
++++++++++++++++++++++++++++++++++++
Date: Fri Oct 25 11:22:32 EDT 2013
User: price-jones
Dark Spectrum Present: No
Reference Spectrum Present: No
Number of Sampled Component Spectra: 1
Spectrometers: USB2+H05261
Integration Time (usec): 100000 (USB2+H05261)
Spectra Averaged: 1 (USB2+H05261)
Boxcar Smoothing: 0 (USB2+H05261)
Correct for Electrical Dark: No (USB2+H05261)
Strobe/Lamp Enabled: No (USB2+H05261)
Correct for Detector Non-linearity: No (USB2+H05261)
Correct for Stray Light: No (USB2+H05261)
Number of Pixels in Processed Spectrum: 2048
>>>>>Begin Processed Spectral Data<<<<<
365.73	184.90
365.92	184.90
366.12	184.90
366.32	81.92
366.52	107.66
366.72	166.18
366.91	102.98
367.11	63.19
367.31	191.92
367.51	95.96
367.70	95.96
367.90	205.97
368.10	95.96
368.30	170.86
368.49	112.35
368.69	145.11
368.89	152.13
369.09	161.50
369.28	182.56
369.48	124.05
369.68	229.37
369.87	173.20
370.07	173.20
370.27	257.46
370.47	332.36
370.66	613.22
370.86	627.26
371.06	573.43
371.25	674.07
371.45	678.76
371.65	641.31
371.84	610.88
372.04	711.52
372.24	676.41
372.44	690.46
372.63	716.20
372.83	779.40
373.03	751.31
373.22	699.82
373.42	720.88
373.62	695.14
373.81	800.46
374.01	837.91
374.21	777.06
374.40	844.93
374.60	800.46
374.79	835.57
374.99	772.38
375.19	741.95
375.38	805.14
375.58	807.48
375.78	936.21
375.97	933.87
376.17	870.68
376.37	830.89
376.56	866.00
376.76	882.38
376.95	795.78
377.15	854.30
377.35	912.81
377.54	861.32
377.74	849.61
377.93	882.38
378.13	873.02
378.33	936.21
378.52	947.92
378.72	1011.11
378.91	945.58
379.11	896.43
379.31	980.68
379.50	917.49
379.70	968.98
379.89	1022.81
380.09	884.72
380.28	919.83
380.48	1011.11
380.68	1022.81
380.87	940.90
381.07	966.64
381.26	1083.67
381.46	950.26
381.65	1165.59
381.85	1041.54
382.04	1001.75
382.24	1011.11
382.43	1109.41
382.63	1062.60
382.83	1078.99
383.02	1196.01
383.22	1130.48
383.41	1125.80
383.61	1062.60
383.80	1064.94
384.00	1078.99
384.19	1109.41
384.39	1142.18
384.58	1144.52
384.78	1132.82
384.97	1181.97
385.17	1107.07
385.36	1212.40
385.56	1078.99
385.75	1221.76
385.95	1233.46
386.14	1233.46
386.34	1188.99
386.53	1188.99
386.72	1282.61
386.92	1336.45
387.11	1191.33
387.31	1226.44
387.50	1364.53
387.70	1242.82
387.89	1254.53
388.09	1235.80
388.28	1266.23
388.48	1284.95
388.67	1308.36
388.86	1329.42
389.06	1299.00
389.25	1348.15
389.45	1364.53
389.64	1394.96
389.84	1392.62
390.03	1357.51
390.22	1451.13
390.42	1385.60
390.61	1411.34
390.81	1373.89
391.00	1427.73
391.19	1425.39
391.39	1423.05
391.58	1504.96
391.78	1380.92
391.97	1502.62
392.16	1427.73
392.36	1530.71
392.55	1537.73
392.75	1561.14
392.94	1519.01
393.13	1603.27
393.33	1504.96
393.52	1671.14
393.71	1563.48
393.91	1593.90
394.10	1605.61
394.29	1577.52
394.49	1596.25
394.68	1753.06
394.88	1652.42
395.07	1624.33
395.26	1703.91
395.46	1722.63
395.65	1783.49
395.84	1689.87
396.04	1769.44
396.23	1671.14
396.42	1720.29
396.62	1844.34
396.81	1837.32
397.00	1806.89
397.19	1739.02
397.39	1732.00
397.58	1741.36
397.77	1973.07
397.97	1771.79
398.16	1827.96
398.35	1928.60
398.55	1863.07
398.74	1994.14
398.93	1933.28
399.12	1886.47
399.32	1881.79
399.51	1947.33
399.70	2015.20
399.90	1947.33
400.09	1991.80
400.28	2216.49
400.47	2054.99
400.67	2092.44
400.86	2157.97
401.05	2064.35
401.24	2115.84
401.44	2139.25
401.63	2272.66
401.82	2141.59
402.01	2106.48
402.21	2160.31
402.40	2244.57
402.59	2286.70
402.78	2143.93
402.97	2256.28
403.17	2256.28
403.36	2291.38
403.55	2345.22
403.74	2375.64
403.93	2354.58
404.13	2331.17
404.32	2396.71
404.51	2441.18
404.70	2513.74
404.89	2457.56
405.09	2527.78
405.28	2504.37
405.47	2487.99
405.66	2459.90
405.85	2583.95
406.05	2597.99
406.24	2560.55
406.43	2569.91
406.62	2572.25
406.81	2754.81
407.00	2708.00
407.20	2569.91
407.39	2567.57
407.58	2684.59
407.77	2757.15
407.96	2799.28
408.15	2815.66
408.34	2796.94
408.54	2918.65
408.73	2869.50
408.92	2736.09
409.11	2822.69
409.30	2991.20
409.49	3007.59
409.68	2932.69
409.87	2892.90
410.07	3038.02
410.26	2972.48
410.45	3002.91
410.64	3091.85
410.83	3150.36
411.02	3138.66
411.21	3269.73
411.40	3199.51
411.59	3342.28
411.78	3269.73
411.98	3169.09
412.17	3314.20
412.36	3325.90
412.55	3421.86
412.74	3344.63
412.93	3461.65
413.12	3531.87
413.31	3665.28
413.50	3548.25
413.69	3597.40
413.88	3576.34
414.07	3733.15
414.26	3634.85
414.45	3761.24
414.64	3761.24
414.83	3789.33
415.02	3768.26
415.22	3873.59
415.41	4011.68
415.60	4009.34
415.79	4093.60
415.98	4088.92
416.17	3981.25
416.36	3999.98
416.55	4128.70
416.74	4119.34
416.93	4044.45
417.12	4215.30
417.31	4278.50
417.50	4271.48
417.69	4430.63
417.88	4299.56
418.07	4456.38
418.26	4299.56
418.45	4461.06
418.64	4566.39
418.83	4594.47
419.02	4493.83
419.21	4517.23
419.39	4451.70
419.58	4592.13
419.77	4552.34
419.96	4688.09
420.15	4716.18
420.34	4732.56
420.53	4730.22
420.72	4814.48
420.91	4812.14
421.10	4882.36
421.29	4688.09
421.48	4830.87
421.67	4564.04
421.86	4858.95
422.05	4926.83
422.24	4774.69
422.43	4873.00
422.61	5036.83
422.80	5153.86
422.99	4835.55
423.18	4987.68
423.37	5011.09
423.56	5001.72
423.75	4971.30
423.94	4898.74
424.13	4552.34
424.32	4929.17
424.50	5125.77
424.69	5046.20
424.88	5006.41
425.07	5116.41
425.26	4779.37
425.45	4997.04
425.64	5191.31
425.83	5081.30
426.01	5074.28
426.20	5310.68
426.39	5081.30
426.58	5078.96
426.77	5172.58
426.96	5170.24
427.15	5118.75
427.33	5298.97
427.52	5186.63
427.71	5359.83
427.90	5474.51
428.09	5408.98
428.28	5408.98
428.46	5404.30
428.65	5500.26
428.84	5479.19
429.03	5584.52
429.22	5453.45
429.40	5460.47
429.59	5643.03
429.78	5266.21
429.97	5392.59
430.16	5563.45
430.34	5652.39
430.53	5678.14
430.72	5790.49
430.91	5713.25
431.10	5624.31
431.28	5905.17
431.47	5921.56
431.66	5912.19
431.85	5912.19
432.03	6029.22
432.22	6249.23
432.41	5987.09
432.60	6026.88
432.79	6005.81
432.97	6139.23
433.16	6181.35
433.35	6043.26
433.54	6272.64
433.72	6047.94
433.91	6207.10
434.10	6282.00
434.28	6258.59
434.47	6209.44
434.66	6228.17
434.85	6279.66
435.03	6335.83
435.22	6260.93
435.41	6546.48
435.59	6483.28
435.78	6630.74
435.97	6661.16
436.16	6317.11
436.34	6494.99
436.53	6558.18
436.72	6747.76
436.90	6459.88
437.09	6773.51
437.28	6567.54
437.46	6663.51
437.65	6745.42
437.84	6956.07
438.02	6843.73
438.21	6981.82
438.40	6792.23
438.58	7049.69
438.77	7201.83
438.96	6937.35
439.14	7030.97
439.33	7297.79
439.52	7267.36
439.70	7349.28
439.89	7442.90
440.08	7606.74
440.26	7382.05
440.45	7442.90
440.63	7531.84
440.82	7728.45
441.01	7606.74
441.19	7758.88
441.38	7765.90
441.57	7875.90
441.75	7967.18
441.94	8079.53
442.12	7903.99
442.31	8315.92
442.50	8184.85
442.68	8210.60
442.87	8210.60
443.05	7976.55
443.24	8119.32
443.43	8173.15
443.61	8037.40
443.80	8585.08
443.98	8166.13
444.17	8042.08
444.35	8472.74
444.54	8446.99
444.73	8517.21
444.91	8318.26
445.10	8432.95
445.28	8528.91
445.47	8285.50
445.65	8444.65
445.84	8542.96
446.02	8524.23
446.21	8355.71
446.39	8451.67
446.58	8557.00
446.77	8601.47
446.95	8446.99
447.14	8461.04
447.32	8681.05
447.51	8540.61
447.69	8580.40
447.88	8585.08
448.06	8526.57
448.25	8772.33
448.43	8734.88
448.62	8936.17
448.80	8835.52
448.99	8589.77
449.17	8779.35
449.36	8617.85
449.54	9020.42
449.73	9210.01
449.91	9249.80
450.10	8973.61
450.28	9200.65
450.46	9224.05
450.65	9104.68
450.83	9214.69
451.02	9125.75
451.20	9322.35
451.39	9291.93
451.57	9287.25
451.76	9046.17
451.94	9521.30
452.13	9497.89
452.31	9275.54
452.49	9249.80
452.68	9479.17
452.86	9291.93
453.05	9530.66
453.23	9563.43
453.42	9514.28
453.60	9556.41
453.78	9727.27
453.97	9327.03
454.15	9809.19
454.34	9507.26
454.52	9797.48
454.70	9738.97
454.89	9657.05
455.07	9912.17
455.26	9832.59
455.44	10078.35
455.62	9757.69
455.81	10136.86
455.99	10108.77
456.17	10253.89
456.36	10026.86
456.54	10452.83
456.73	10387.30
456.91	10665.82
457.09	10600.29
457.28	10719.65
457.46	10504.32
457.64	10703.27
457.83	10487.94
458.01	10520.71
458.19	10806.25
458.38	10483.26
458.56	10923.28
458.74	10817.96
458.93	10801.57
459.11	10883.49
459.29	10757.10
459.48	10967.75
459.66	10684.55
459.84	11068.39
460.03	11136.27
460.21	10974.77
460.39	11110.52
460.57	11049.67
460.76	11110.52
460.94	11321.17
461.12	11253.30
461.31	11311.81
461.49	11393.73
461.67	11461.60
461.85	11515.44
462.04	11501.39
462.22	12196.53
462.40	11719.06
462.59	11595.01
462.77	11709.70
462.95	11536.50
463.13	11969.50
463.32	11826.73
463.50	11934.39
463.68	11815.02
463.86	11803.32
464.05	11939.07
464.23	12016.31
464.41	12049.08
464.59	12016.31
464.78	12222.28
464.96	12233.98
465.14	12081.85
465.32	12479.74
465.50	12189.51
465.69	12383.77
465.87	12327.60
466.05	12301.86
466.23	12533.57
466.41	12180.15
466.60	12521.87
466.78	12482.08
466.96	12159.08
467.14	12362.71
467.32	12589.74
467.51	12727.83
467.69	12425.90
467.87	12549.95
468.05	12662.30
468.23	12510.16
468.41	12599.10
468.60	13006.36
468.78	12791.03
468.96	12919.76
469.14	13041.46
469.32	13247.43
469.50	12802.73
469.69	13284.88
469.87	13345.73
470.05	13327.01
470.23	13385.52
470.41	13525.96
470.59	13364.46
470.77	13586.81
470.95	13448.72
471.14	13764.69
471.32	13481.49
471.50	13785.76
471.68	13607.87
471.86	13839.59
472.04	13851.29
472.22	14272.59
472.40	13877.04
472.58	14225.78
472.77	14068.96
472.95	14347.48
473.13	14803.89
473.31	13961.30
473.49	14391.95
473.67	14328.76
473.85	14569.83
474.03	14771.12
474.21	14953.68
474.39	15030.92
474.57	15400.72
474.75	14806.23
474.93	15587.97
475.12	15094.11
475.30	15304.76
475.48	15346.89
475.66	15328.17
475.84	15346.89
476.02	15634.78
476.20	15288.38
476.38	16018.63
476.56	16154.38
476.74	16432.90
476.92	16372.05
477.10	15896.92
477.28	16339.28
477.46	16262.04
477.64	16477.37
477.82	16870.58
478.00	17177.19
478.18	16816.75
478.36	17195.92
478.54	17432.31
478.72	17586.79
478.90	17806.80
479.08	17797.43
479.26	17963.61
479.44	17961.27
479.62	18108.72
479.80	18075.96
479.98	18457.46
480.16	18967.70
480.34	18766.42
480.52	19035.58
480.70	18939.62
480.88	18647.05
481.06	18963.02
481.24	19213.46
481.41	19520.07
481.59	19679.22
481.77	19885.19
481.95	19917.96
482.13	20240.95
482.31	19800.93
482.49	20596.71
482.67	20510.11
482.85	20940.77
483.03	20938.43
483.21	21043.76
483.39	21109.29
483.57	21422.92
483.74	21261.43
483.92	21600.80
484.10	21343.35
484.28	22082.95
484.46	21933.16
484.64	22675.11
484.82	22377.86
485.00	22735.96
485.18	22925.55
485.35	23482.59
485.53	22984.06
485.71	23222.80
485.89	23758.78
486.07	23697.92
486.25	24109.86
486.43	24009.22
486.61	24540.52
486.78	25025.01
486.96	24650.52
487.14	25226.29
487.32	25130.33
487.50	25088.20
487.68	25413.54
487.85	25628.87
488.03	26111.02
488.21	26167.19
488.39	25923.77
488.57	26405.92
488.75	26541.68
488.92	26366.13
489.10	27154.90
489.28	26752.32
489.46	27875.78
489.64	27180.64
489.81	27847.69
489.99	28065.36
490.17	28180.05
490.35	28460.91
490.53	28650.50
490.70	29050.73
490.88	28617.73
491.06	28905.62
491.24	28910.30
491.41	29523.52
491.59	29888.64
491.77	29844.17
491.95	30188.23
492.13	30040.78
492.30	30288.87
492.48	30438.67
492.66	30611.87
492.84	30548.67
493.01	31461.48
493.19	31440.42
493.37	31508.29
493.54	31782.13
493.72	31807.88
493.90	31835.97
494.08	31983.42
494.25	32416.42
494.43	32510.04
494.61	32510.04
494.79	32840.06
494.96	32486.64
495.14	33200.50
495.32	33958.83
495.49	33565.62
495.67	33504.77
495.85	33930.75
496.02	34071.18
496.20	34726.53
496.38	34429.28
496.55	34799.08
496.73	35555.08
496.91	35119.74
497.09	35328.05
497.26	35573.80
497.44	35299.96
497.62	35711.89
497.79	36428.10
497.97	36226.81
498.14	36481.93
498.32	36844.71
498.50	36809.61
498.67	37256.65
498.85	37214.52
499.03	37383.04
499.20	37151.32
499.38	37617.09
499.56	37750.50
499.73	37617.09
499.91	38059.45
500.08	37919.02
500.26	38054.77
500.44	38323.93
500.61	38508.83
500.79	38307.55
500.97	38644.59
501.14	39002.69
501.32	38930.13
501.49	39332.70
501.67	39236.74
501.84	39782.09
502.02	39068.22
502.20	39433.35
502.37	39641.65
502.55	39639.31
502.72	39796.13
502.90	40126.14
503.07	39924.86
503.25	40549.78
503.43	40215.08
503.60	40533.40
503.78	40664.47
503.95	40854.05
504.13	41034.27
504.30	41013.21
504.48	40800.22
504.65	41172.36
504.83	41471.95
505.01	41982.19
505.18	41771.54
505.36	41996.23
505.53	41654.51
505.71	42265.39
505.88	42525.19
506.06	41926.02
506.23	42724.14
506.41	42609.45
506.58	42871.59
506.76	42770.95
506.93	43295.23
507.11	42906.70
507.28	43239.06
507.46	43253.10
507.63	43679.08
507.81	43700.14
507.98	43503.54
508.16	43625.25
508.33	43810.15
508.50	43789.08
508.68	44369.54
508.85	44678.49
509.03	44538.05
509.20	44685.51
509.38	44856.37
509.55	44825.94
509.73	45455.54
509.90	45251.92
510.08	44940.63
510.25	45425.12
510.42	45731.73
510.60	45652.15
510.77	45743.43
510.95	45921.31
511.12	45764.49
511.30	45617.04
511.47	45792.58
511.64	46241.96
511.82	46525.17
511.99	46302.82
512.17	46574.32
512.34	46490.06
512.51	46614.11
512.69	46972.21
512.86	46871.57
513.04	47269.46
513.21	46993.28
513.38	47309.25
513.56	47653.31
513.73	47297.55
513.90	47683.73
514.08	47861.61
514.25	48205.67
514.43	48151.84
514.60	48437.39
514.77	47873.32
514.95	48184.61
515.12	48018.43
515.29	48339.08
515.47	48442.07
515.64	48322.70
515.81	48582.50
515.99	48683.14
516.16	48650.38
516.33	48975.71
516.51	49109.12
516.68	49230.83
516.85	49001.46
517.03	49397.01
517.20	49165.29
517.37	49364.24
517.54	49415.73
517.72	49624.04
517.89	49633.40
518.06	49598.29
518.24	49844.05
518.41	49811.28
518.58	49790.22
518.75	49865.11
518.93	50108.53
519.10	50019.59
519.27	50267.69
519.45	50019.59
519.62	50630.47
519.79	50740.47
519.96	50391.73
520.14	50883.25
520.31	50459.61
520.48	50953.46
520.65	50740.47
520.83	51213.26
521.00	50946.44
521.17	51414.55
521.34	51185.18
521.52	51227.31
521.69	51491.79
521.86	51447.32
522.03	51655.62
522.20	51753.93
522.38	51941.17
522.55	51473.06
522.72	51643.92
522.89	51767.97
523.07	52048.83
523.24	51800.74
523.41	52343.74
523.58	51845.21
523.75	52428.00
523.92	52409.28
524.10	52444.38
524.27	52381.19
524.44	52325.02
524.61	52413.96
524.78	52605.88
524.96	52666.73
525.13	52587.16
525.30	53144.20
525.47	52877.38
525.64	52715.89
525.81	52973.34
525.98	52952.28
526.16	53052.92
526.33	53258.89
526.50	53408.68
526.67	53160.59
526.84	53125.48
527.01	53378.26
527.18	53118.46
527.36	53518.69
527.53	53303.36
527.70	53724.66
527.87	53755.08
528.04	53635.72
528.21	53666.14
528.38	53673.16
528.55	53998.50
528.72	53918.92
528.89	53722.32
529.07	53783.17
529.24	53694.23
529.41	54052.33
529.58	53942.33
529.75	54185.74
529.92	54316.81
530.09	54143.61
530.26	54557.89
530.43	54529.80
530.60	54274.68
530.77	54597.68
530.94	54553.21
531.11	54230.21
531.28	54630.44
531.46	54791.94
531.63	54562.57
531.80	54625.76
531.97	54831.73
532.14	54841.09
532.31	55051.74
532.48	55136.00
532.65	55133.66
532.82	55145.36
532.99	55082.17
533.16	54822.37
533.33	55302.18
533.50	55491.76
533.67	55056.42
533.84	55004.93
534.01	55098.55
534.18	55295.16
534.35	55554.96
534.52	55545.59
534.69	55739.86
534.86	55763.26
535.03	55545.59
535.20	55547.93
535.37	55725.81
535.54	56011.36
535.71	55559.64
535.88	55580.70
536.05	55791.35
536.22	55903.70
536.38	56140.09
536.55	56011.36
536.72	56069.87
536.89	55861.57
537.06	56231.37
537.23	56086.26
537.40	56114.34
537.57	56210.31
537.74	56121.37
537.91	56266.48
538.08	56252.44
538.25	56315.63
538.42	56083.92
538.59	56287.54
538.75	56357.76
538.92	56542.66
539.09	56493.51
539.26	56383.51
539.43	56339.04
539.60	56645.65
539.77	56638.62
539.94	56699.48
540.11	56718.20
540.28	56776.72
540.44	56825.87
540.61	56858.63
540.78	56725.22
540.95	56931.19
541.12	56636.28
541.29	56772.03
541.46	57015.45
541.62	56907.79
541.79	56994.39
541.96	56718.20
542.13	57024.81
542.30	57052.90
542.47	57172.27
542.63	57001.41
542.80	57326.74
542.97	57373.55
543.14	57572.50
543.31	57499.94
543.48	57586.54
543.64	57822.93
543.81	57638.03
543.98	57666.12
544.15	57762.08
544.32	57778.46
544.48	58089.76
544.65	57670.80
544.82	57925.92
544.99	57684.84
545.16	57811.23
545.32	57916.56
545.49	57890.81
545.66	58150.61
545.83	58047.63
546.00	58141.25
546.16	58089.76
546.33	57635.69
546.50	57654.42
546.67	57954.00
546.83	57598.24
547.00	58204.44
547.17	58277.00
547.34	58028.90
547.50	58305.09
547.67	58356.58
547.84	58351.90
548.00	58632.76
548.17	58405.73
548.34	58581.27
548.51	58541.48
548.67	58628.08
548.84	58607.01
549.01	58347.21
549.18	58445.52
549.34	58644.46
549.51	58405.73
549.68	58660.85
549.84	58497.01
550.01	58630.42
550.18	58599.99
550.34	58866.81
550.51	58684.25
550.68	58841.07
550.84	58578.93
551.01	58960.44
551.18	59025.97
551.34	58944.05
551.51	58913.62
551.68	58892.56
551.84	58904.26
552.01	58897.24
552.18	58815.32
552.34	58997.88
552.51	59199.17
552.68	59084.48
552.84	59051.72
553.01	59302.15
553.18	59194.49
553.34	59243.64
553.51	59025.97
553.67	59206.19
553.84	59456.63
554.01	59105.55
554.17	59267.05
554.34	59370.03
554.51	58969.80
554.67	59465.99
554.84	59465.99
555.00	59224.92
555.17	59224.92
555.33	59522.16
555.50	59348.96
555.67	59199.17
555.83	59477.69
556.00	59323.22
556.16	59742.17
556.33	59590.04
556.50	59716.43
556.66	59852.18
556.83	59667.28
556.99	59468.33
557.16	59889.63
557.32	59854.52
557.49	59931.76
557.65	59686.00
557.82	59763.24
557.98	59620.47
558.15	59664.94
558.32	59854.52
558.48	59798.35
558.65	59812.39
558.81	59718.77
558.98	59810.05
559.14	59957.50
559.31	59821.75
559.47	60020.70
559.64	60198.58
559.80	60107.30
559.97	60006.65
560.13	60245.39
560.30	60041.76
560.46	59962.18
560.63	59908.35
560.79	60030.06
560.96	60088.57
561.12	60142.41
561.29	60273.48
561.45	60114.32
561.61	60147.09
561.78	60046.44
561.94	60156.45
562.11	60023.04
562.27	60191.56
562.44	60385.82
562.60	60343.69
562.77	60402.21
562.93	60130.70
563.10	60491.15
563.26	60275.82
563.42	60420.93
563.59	60268.79
563.75	60362.42
563.92	60334.33
564.08	60397.52
564.24	60537.96
564.41	60397.52
564.57	60547.32
564.74	60591.79
564.90	60563.70
565.07	60418.59
565.23	60339.01
565.39	60603.49
565.56	60556.68
565.72	60376.46
565.88	60598.81
566.05	60554.34
566.21	60451.36
566.38	60591.79
566.54	60507.53
566.70	60786.05
566.87	60715.84
567.03	60453.70
567.19	60788.39
567.36	60549.66
567.52	60594.13
567.68	60708.82
567.85	60622.22
568.01	60938.19
568.17	60638.60
568.34	60774.35
568.50	60650.30
568.66	60509.87
568.83	60788.39
568.99	60544.98
569.15	60643.28
569.32	60821.16
569.48	60772.01
569.64	61076.28
569.81	60975.64
569.97	60706.47
570.13	60680.73
570.30	60617.53
570.46	60781.37
570.62	60933.51
570.78	60863.29
570.95	60764.99
571.11	61120.75
571.27	60741.58
571.43	60821.16
571.60	61073.94
571.76	61024.79
571.92	60903.08
572.09	61031.81
572.25	60886.70
572.41	60795.42
572.57	60942.87
572.74	61165.22
572.90	61073.94
573.06	61104.37
573.22	60947.55
573.38	60970.96
573.55	60952.23
573.71	61279.91
573.87	61090.32
574.03	60933.51
574.20	61008.40
574.36	60788.39
574.52	60860.95
574.68	60907.76
574.84	61223.73
575.01	61085.64
575.17	61003.72
575.33	61078.62
575.49	60947.55
575.65	61125.43
575.82	61099.68
575.98	61155.86
576.14	61340.76
576.30	61235.44
576.46	61043.51
576.62	61270.54
576.79	61050.53
576.95	61066.92
577.11	61279.91
577.27	61319.70
577.43	61284.59
577.59	60884.36
577.75	60994.36
577.92	61293.95
578.08	61010.74
578.24	61389.91
578.40	61310.33
578.56	61197.99
578.72	61186.28
578.88	61228.41
579.04	61413.32
579.21	61197.99
579.37	61235.44
579.53	61326.72
579.69	61013.08
579.85	61247.14
580.01	61139.47
580.17	61315.01
580.33	61329.06
580.49	61162.88
580.65	61364.17
580.82	61106.71
580.98	61102.03
581.14	61279.91
581.30	61190.97
581.46	61310.33
581.62	61216.71
581.78	61219.05
581.94	61251.82
582.10	61310.33
582.26	61293.95
582.42	61071.60
582.58	61406.30
582.74	61389.91
582.90	61118.41
583.06	61223.73
583.22	61045.85
583.38	61263.52
583.54	61446.08
583.70	61408.64
583.86	61352.46
584.02	61205.01
584.18	61474.17
584.34	61251.82
584.50	61418.00
584.66	61364.17
584.82	61043.51
584.98	61427.36
585.14	61310.33
585.30	61207.35
585.46	61371.19
585.62	61190.97
585.78	61502.26
585.94	61123.09
586.10	61263.52
586.26	61579.49
586.42	61403.95
586.58	61338.42
586.74	61315.01
586.90	61296.29
587.06	61242.46
587.22	61539.71
587.38	61535.02
587.54	61539.71
587.70	61506.94
587.86	61495.24
588.02	61495.24
588.18	61499.92
588.34	61410.98
588.49	61375.87
