SpectraSuite Data File
++++++++++++++++++++++++++++++++++++
Date: Fri Oct 25 10:48:23 EDT 2013
User: price-jones
Dark Spectrum Present: No
Reference Spectrum Present: No
Number of Sampled Component Spectra: 1
Spectrometers: USB2+H05261
Integration Time (usec): 100000 (USB2+H05261)
Spectra Averaged: 1 (USB2+H05261)
Boxcar Smoothing: 0 (USB2+H05261)
Correct for Electrical Dark: No (USB2+H05261)
Strobe/Lamp Enabled: No (USB2+H05261)
Correct for Detector Non-linearity: No (USB2+H05261)
Correct for Stray Light: No (USB2+H05261)
Number of Pixels in Processed Spectrum: 2048
>>>>>Begin Processed Spectral Data<<<<<
365.73	182.56
365.92	182.56
366.12	182.56
366.32	86.60
366.52	32.77
366.72	28.09
366.91	58.51
367.11	7.02
367.31	102.98
367.51	0.00
367.70	60.85
367.90	11.70
368.10	60.85
368.30	74.90
368.49	0.00
368.69	42.13
368.89	93.62
369.09	0.00
369.28	95.96
369.48	98.30
369.68	46.81
369.87	135.75
370.07	168.52
370.27	147.45
370.47	194.26
370.66	362.78
370.86	449.38
371.06	505.56
371.25	554.71
371.45	491.51
371.65	496.19
371.84	510.24
372.04	425.98
372.24	552.37
372.44	561.73
372.63	484.49
372.83	561.73
373.03	514.92
373.22	589.82
373.42	524.28
373.62	589.82
373.81	589.82
374.01	493.85
374.21	550.03
374.40	571.09
374.60	589.82
374.79	552.37
374.99	547.69
375.19	645.99
375.38	564.07
375.58	545.34
375.78	550.03
375.97	592.16
376.17	650.67
376.37	582.79
376.56	589.82
376.76	641.31
376.95	685.78
377.15	655.35
377.35	737.27
377.54	596.84
377.74	634.29
377.93	641.31
378.13	660.03
378.33	760.67
378.52	676.41
378.72	629.60
378.91	671.73
379.11	613.22
379.31	622.58
379.50	667.05
379.70	748.97
379.89	667.05
380.09	711.52
380.28	624.92
380.48	695.14
380.68	629.60
380.87	709.18
381.07	575.77
381.26	669.39
381.46	688.12
381.65	706.84
381.85	650.67
382.04	660.03
382.24	713.86
382.43	695.14
382.63	720.88
382.83	678.76
383.02	711.52
383.22	791.10
383.41	744.29
383.61	723.23
383.80	828.55
384.00	784.08
384.19	788.76
384.39	905.79
384.58	758.33
384.78	821.53
384.97	809.83
385.17	802.80
385.36	795.78
385.56	805.14
385.75	819.19
385.95	828.55
386.14	917.49
386.34	882.38
386.53	926.85
386.72	819.19
386.92	849.61
387.11	821.53
387.31	851.96
387.50	807.48
387.70	868.34
387.89	830.89
388.09	936.21
388.28	870.68
388.48	875.36
388.67	987.71
388.86	924.51
389.06	957.28
389.25	1001.75
389.45	964.30
389.64	976.00
389.84	1062.60
390.03	1004.09
390.22	1062.60
390.42	910.47
390.61	994.73
390.81	1027.50
391.00	1093.03
391.19	1071.97
391.39	1020.47
391.58	1036.86
391.78	1050.90
391.97	1132.82
392.16	1055.58
392.36	1163.25
392.55	1102.39
392.75	1015.79
392.94	1018.13
393.13	1013.45
393.33	968.98
393.52	1062.60
393.71	1069.62
393.91	1135.16
394.10	1121.12
394.29	1081.33
394.49	1188.99
394.68	1252.19
394.88	1256.87
395.07	1228.78
395.26	1128.14
395.46	1214.74
395.65	1235.80
395.84	1224.10
396.04	1233.46
396.23	1053.24
396.42	1170.27
396.62	1130.48
396.81	1100.05
397.00	1277.93
397.19	1324.74
397.39	1331.76
397.58	1345.81
397.77	1432.41
397.97	1350.49
398.16	1451.13
398.35	1507.30
398.55	1345.81
398.74	1554.12
398.93	1444.11
399.12	1453.47
399.32	1554.12
399.51	1394.96
399.70	1516.67
399.90	1481.56
400.09	1544.75
400.28	1598.59
400.47	1509.65
400.67	1577.52
400.86	1577.52
401.05	1593.90
401.24	1600.93
401.44	1619.65
401.63	1764.76
401.82	1633.69
402.01	1542.41
402.21	1788.17
402.40	1708.59
402.59	1715.61
402.78	1767.10
402.97	1692.21
403.17	1769.44
403.36	1746.04
403.55	1743.70
403.74	1832.64
403.93	1832.64
404.13	1888.81
404.32	1820.94
404.51	1774.13
404.70	1914.56
404.89	1783.49
405.09	1893.49
405.28	1811.57
405.47	1827.96
405.66	1818.60
405.85	2085.42
406.05	2069.03
406.24	1865.41
406.43	1989.46
406.62	2059.67
406.81	2157.97
407.00	1959.03
407.20	1996.48
407.39	2132.23
407.58	2043.29
407.77	2038.61
407.96	2125.21
408.15	2134.57
408.34	2183.72
408.54	2289.04
408.73	2284.36
408.92	2263.30
409.11	2242.23
409.30	2143.93
409.49	2153.29
409.68	2270.32
409.87	2272.66
410.07	2319.47
410.26	2340.54
410.45	2345.22
410.64	2321.81
410.83	2396.71
411.02	2448.20
411.21	2565.23
411.40	2541.82
411.59	2450.54
411.78	2511.39
411.98	2537.14
412.17	2527.78
412.36	2722.04
412.55	2729.06
412.74	2605.02
412.93	2684.59
413.12	2572.25
413.31	2700.98
413.50	2834.39
413.69	2761.83
413.88	2825.03
414.07	2846.09
414.26	2867.16
414.45	2841.41
414.64	2843.75
414.83	3035.67
415.02	2881.20
415.22	2998.23
415.41	3063.76
415.60	3042.70
415.79	3061.42
415.98	3236.96
416.17	3213.56
416.36	3143.34
416.55	3117.59
416.74	3267.39
416.93	3119.93
417.12	3276.75
417.31	3159.72
417.50	3173.77
417.69	3323.56
417.88	3199.51
418.07	3318.88
418.26	3363.35
418.45	3541.23
418.64	3501.44
418.83	3421.86
419.02	3531.87
419.21	3412.50
419.39	3482.72
419.58	3466.33
419.77	3426.54
419.96	3693.37
420.15	3592.72
420.34	3569.32
420.53	3719.11
420.72	3712.09
420.91	3772.94
421.10	3742.52
421.29	3630.17
421.48	3630.17
421.67	3798.69
421.86	3686.34
422.05	3770.60
422.24	3721.45
422.43	3489.74
422.61	3740.18
422.80	3861.88
422.99	3803.37
423.18	3857.20
423.37	3829.12
423.56	3840.82
423.75	3824.44
423.94	3887.63
424.13	3627.83
424.32	3852.52
424.50	3929.76
424.69	3981.25
424.88	3918.06
425.07	3796.35
425.26	3801.03
425.45	3929.76
425.64	3873.59
425.83	3822.09
426.01	3915.72
426.20	3873.59
426.39	3943.80
426.58	3976.57
426.77	3887.63
426.96	3721.45
427.15	3861.88
427.33	4079.55
427.52	3901.67
427.71	4095.94
427.90	4053.81
428.09	4014.02
428.28	4030.40
428.46	4119.34
428.65	4018.70
428.84	4149.77
429.03	4154.45
429.22	4044.45
429.40	4065.51
429.59	3992.95
429.78	3906.35
429.97	3693.37
430.16	4009.34
430.34	4051.47
430.53	4058.49
430.72	4049.13
430.91	4255.09
431.10	4194.24
431.28	4386.16
431.47	4603.83
431.66	4622.56
431.85	4573.41
432.03	4484.47
432.22	4585.11
432.41	4638.94
432.60	4671.71
432.79	4655.33
432.97	4587.45
433.16	4627.24
433.35	4669.37
433.54	4496.17
433.72	4535.96
433.91	4449.36
434.10	4643.62
434.28	4620.22
434.47	4779.37
434.66	4784.06
434.85	4851.93
435.03	4793.42
435.22	4910.44
435.41	4997.04
435.59	5018.11
435.78	4968.96
435.97	4950.23
436.16	4912.78
436.34	5027.47
436.53	5064.92
436.72	5046.20
436.90	4985.34
437.09	4910.44
437.28	4884.70
437.46	5191.31
437.65	5088.32
437.84	5128.11
438.02	5102.37
438.21	5111.73
438.40	5055.56
438.58	5160.88
438.77	5270.89
438.96	5261.52
439.14	5399.62
439.33	5495.58
439.52	5500.26
439.70	5584.52
439.89	5591.54
440.08	5495.58
440.26	5746.02
440.45	5628.99
440.63	5746.02
440.82	5731.97
441.01	5675.80
441.19	5930.92
441.38	5996.45
441.57	5975.39
441.75	6122.84
441.94	6057.31
442.12	6188.38
442.31	6221.14
442.50	6214.12
442.68	6286.68
442.87	6230.51
443.05	6188.38
443.24	6284.34
443.43	6148.59
443.61	6298.38
443.80	6286.68
443.98	6354.55
444.17	6078.37
444.35	6263.27
444.54	6502.01
444.73	6427.11
444.91	6459.88
445.10	6370.94
445.28	6303.06
445.47	6218.80
445.65	6186.04
445.84	6310.08
446.02	6338.17
446.21	6473.92
446.39	6497.33
446.58	6565.20
446.77	6436.47
446.95	6345.19
447.14	6431.79
447.32	6743.08
447.51	6448.18
447.69	6345.19
447.88	6392.00
448.06	6588.61
448.25	6485.62
448.43	6698.61
448.62	6560.52
448.80	6705.63
448.99	6637.76
449.17	6602.65
449.36	6679.89
449.54	6825.00
449.73	6778.19
449.91	6808.62
450.10	6874.15
450.28	7005.22
450.46	7103.53
450.65	7220.55
450.83	7002.88
451.02	6988.84
451.20	7173.74
451.39	6956.07
451.57	6895.22
451.76	7021.61
451.94	7082.46
452.13	7075.44
452.31	6932.67
452.49	6843.73
452.68	7007.56
452.86	7082.46
453.05	7274.38
453.23	7311.83
453.42	7117.57
453.60	7037.99
453.78	7171.40
453.97	7108.21
454.15	7239.28
454.34	7194.81
454.52	7262.68
454.70	7421.84
454.89	7232.26
455.07	7478.01
455.26	7449.93
455.44	7396.09
455.62	7648.87
455.81	7541.21
455.99	7597.38
456.17	7463.97
456.36	7564.61
456.54	7588.02
456.73	7761.22
456.91	7676.96
457.09	7962.50
457.28	7957.82
457.46	7850.16
457.64	7976.55
457.83	7805.69
458.01	7840.79
458.19	8208.26
458.38	8102.93
458.56	7957.82
458.74	8077.19
458.93	8079.53
459.11	7983.57
459.29	7995.27
459.48	8187.19
459.66	8217.62
459.84	8320.60
460.03	8372.10
460.21	8416.57
460.39	8243.37
460.57	8276.13
460.76	8507.85
460.94	8617.85
461.12	8531.25
461.31	8425.93
461.49	8535.93
461.67	8538.27
461.85	8748.92
462.04	8360.39
462.22	8985.32
462.40	8690.41
462.59	8573.38
462.77	8737.22
462.95	8706.79
463.13	8795.73
463.32	8659.98
463.50	8709.13
463.68	8718.50
463.86	8917.44
464.05	8510.19
464.23	8769.99
464.41	8840.20
464.59	8870.63
464.78	8975.95
464.96	8849.57
465.14	8800.41
465.32	9004.04
465.50	9092.98
465.69	9090.64
465.87	8997.02
466.05	8821.48
466.23	8961.91
466.41	9071.92
466.60	9249.80
466.78	9029.79
466.96	8966.59
467.14	9135.11
467.32	9172.56
467.51	9277.88
467.69	9006.38
467.87	9301.29
468.05	9151.49
468.23	9371.50
468.41	9179.58
468.60	9387.89
468.78	9521.30
468.96	9224.05
469.14	9511.94
469.32	9572.79
469.50	9329.38
469.69	9373.85
469.87	9570.45
470.05	9643.01
470.23	9514.28
470.41	9521.30
470.59	9617.26
470.77	9556.41
470.95	9806.84
471.14	9926.21
471.32	9799.82
471.50	10132.18
471.68	10045.58
471.86	10146.22
472.04	10029.20
472.22	10270.27
472.40	10099.41
472.58	10015.15
472.77	10183.67
472.95	10513.69
473.13	10450.49
473.31	10303.04
473.49	10115.80
473.67	10434.11
473.85	10455.17
474.03	10754.76
474.21	10796.89
474.39	10726.68
474.57	10956.05
474.75	10897.53
474.93	10808.59
475.12	11026.26
475.30	11007.54
475.48	10820.30
475.66	10937.32
475.84	11035.63
476.02	11229.89
476.20	11073.07
476.38	11529.48
476.56	11672.25
476.74	11702.68
476.92	11405.43
477.10	11627.78
477.28	11857.15
477.46	11700.34
477.64	11864.18
477.82	11941.41
478.00	12365.05
478.18	12456.33
478.36	12334.62
478.54	12219.94
478.72	12578.04
478.90	12456.33
479.08	12765.28
479.26	12652.94
479.44	12503.14
479.62	12868.27
479.80	13137.43
479.98	13174.88
480.16	13654.69
480.34	13315.31
480.52	13397.23
480.70	13429.99
480.88	13280.20
481.06	13544.68
481.24	13495.53
481.41	13853.63
481.59	13870.01
481.77	14209.39
481.95	14127.47
482.13	14389.61
482.31	14265.57
482.49	14712.61
482.67	14604.94
482.85	14485.58
483.03	14951.34
483.21	14984.11
483.39	14878.79
483.57	15101.14
483.74	15183.06
483.92	15152.63
484.10	15335.19
484.28	15309.44
484.46	15672.23
484.64	16020.97
484.82	15620.74
485.00	16002.24
485.18	16189.49
485.35	16402.47
485.53	15875.85
485.71	15915.64
485.89	16182.46
486.07	16411.84
486.25	16554.61
486.43	16769.94
486.61	16875.26
486.78	17167.83
486.96	17032.08
487.14	17469.76
487.32	17511.89
487.50	17877.01
487.68	17783.39
487.85	18033.83
488.03	18073.62
488.21	18300.65
488.39	17951.91
488.57	18256.18
488.75	18682.16
488.92	19101.11
489.10	19108.13
489.28	19023.87
489.46	19218.14
489.64	19129.20
489.81	19733.06
489.99	19634.75
490.17	19920.30
490.35	20123.93
490.53	19761.14
490.70	20042.01
490.88	20049.03
491.06	20470.33
491.24	20517.14
491.41	20393.09
491.59	20568.63
491.77	20465.64
491.95	20489.05
492.13	21013.33
492.30	21214.62
492.48	21184.19
492.66	21467.39
492.84	21525.91
493.01	21888.69
493.19	21666.34
493.37	22052.53
493.54	21907.41
493.72	22417.65
493.90	22043.17
494.08	22857.67
494.25	22546.38
494.43	22787.46
494.61	23049.60
494.79	23129.17
494.96	23197.05
495.14	22988.74
495.32	23372.59
495.49	23082.36
495.67	23623.03
495.85	23608.98
496.02	24016.24
496.20	23901.55
496.38	23927.30
496.55	24311.14
496.73	24521.79
496.91	24290.08
497.09	24657.54
497.26	24648.18
497.44	24634.14
497.62	24484.34
497.79	25083.52
497.97	24896.28
498.14	25223.95
498.32	25097.56
498.50	25216.93
498.67	25465.03
498.85	25247.36
499.03	25731.85
499.20	26052.50
499.38	26136.76
499.56	25738.87
499.73	26202.30
499.91	25909.73
500.08	26335.71
500.26	26001.01
500.44	26370.82
500.61	26604.87
500.79	26150.81
500.97	26499.55
501.14	27019.14
501.32	26792.11
501.49	26827.22
501.67	27037.87
501.84	27379.59
502.02	26955.95
502.20	27271.92
502.37	27527.04
502.55	27557.47
502.72	27498.95
502.90	27414.69
503.07	27878.12
503.25	27789.18
503.43	28032.60
503.60	27693.22
503.78	27927.27
503.95	27824.29
504.13	28067.70
504.30	28498.36
504.48	28170.69
504.65	28446.87
504.83	28706.67
505.01	28790.93
505.18	28725.39
505.36	29216.91
505.53	28470.28
505.71	29252.02
505.88	29486.07
506.06	28978.17
506.23	28929.02
506.41	28758.16
506.58	29305.85
506.76	29448.62
506.93	29663.95
507.11	29261.38
507.28	29462.66
507.46	29677.99
507.63	29860.55
507.81	29874.60
507.98	29652.25
508.16	30188.23
508.33	30323.98
508.50	30457.39
508.68	30373.13
508.85	30532.29
509.03	30141.42
509.20	30345.05
509.38	30998.06
509.55	31398.29
509.73	30803.79
509.90	31096.36
510.08	30967.63
510.25	30883.37
510.42	31536.38
510.60	31402.97
510.77	31665.11
510.95	31580.85
511.12	31213.38
511.30	31981.08
511.47	31632.34
511.64	31838.31
511.82	31786.82
511.99	32016.19
512.17	32144.92
512.34	32268.97
512.51	32240.88
512.69	32676.22
512.86	32332.16
513.04	32573.24
513.21	32449.19
513.38	32240.88
513.56	32369.61
513.73	32697.28
513.90	32575.58
514.08	32648.13
514.25	32507.70
514.43	32821.33
514.60	32996.87
514.77	32844.74
514.95	33179.43
515.12	33017.94
515.29	33237.95
515.47	33380.72
515.64	33684.99
515.81	33362.00
515.99	33434.55
516.16	33628.82
516.33	33310.50
516.51	33298.80
516.68	33055.39
516.85	33263.69
517.03	33298.80
517.20	33722.44
517.37	33890.96
517.54	33687.33
517.72	34054.79
517.89	33574.98
518.06	33916.70
518.24	34064.16
518.41	34192.89
518.58	34202.25
518.75	34206.93
518.93	34099.26
519.10	34738.23
519.27	34766.32
519.45	34962.92
519.62	35405.28
519.79	35012.07
519.96	34878.66
520.14	35335.07
520.31	34972.28
520.48	35271.87
520.65	35082.29
520.83	35494.22
521.00	35068.25
521.17	35522.31
521.34	35700.19
521.52	35775.09
521.69	35498.91
521.86	35889.77
522.03	35751.68
522.20	36172.98
522.38	35845.30
522.55	35613.59
522.72	36266.60
522.89	36053.61
523.07	36154.26
523.24	36077.02
523.41	36210.43
523.58	36282.98
523.75	37223.88
523.92	36566.19
524.10	36718.32
524.27	36453.84
524.44	37046.00
524.61	37516.45
524.78	37041.32
524.96	37457.93
525.13	37457.93
525.30	37638.15
525.47	37282.39
525.64	37329.20
525.81	37605.39
525.98	37296.44
526.16	36910.25
526.33	36999.19
526.50	37163.03
526.67	37069.40
526.84	36870.46
527.01	37020.25
527.18	36982.80
527.36	37731.78
527.53	38136.69
527.70	38284.14
527.87	38197.54
528.04	38094.56
528.21	38007.96
528.38	37642.84
528.55	38464.36
528.72	37923.70
528.89	38258.40
529.07	38756.93
529.24	37998.60
529.41	38719.48
529.58	38183.50
529.75	38466.70
529.92	38810.76
530.09	39161.84
530.26	38862.26
530.43	39243.76
530.60	38593.09
530.77	39290.57
530.94	39126.74
531.11	38836.51
531.28	39625.27
531.46	39377.17
531.63	39407.60
531.80	39049.50
531.97	39093.97
532.14	39639.31
532.31	38770.97
532.48	39309.30
532.65	39480.16
532.82	39337.38
532.99	39416.96
533.16	39042.48
533.33	39206.31
533.50	39966.99
533.67	40023.16
533.84	39491.86
534.01	39629.95
534.18	39653.36
534.35	40142.53
534.52	39894.43
534.69	40098.06
534.86	40346.15
535.03	40039.54
535.20	40304.02
535.37	40348.50
535.54	41008.53
535.71	40034.86
535.88	40547.44
536.05	40381.26
536.22	40474.88
536.38	40875.12
536.55	40430.41
536.72	40484.25
536.89	40238.49
537.06	40472.54
537.23	40856.39
537.40	40594.25
537.57	41067.04
537.74	40472.54
537.91	40910.22
538.08	41106.83
538.25	40655.11
538.42	40837.67
538.59	41443.87
538.75	40910.22
538.92	41127.89
539.09	40950.01
539.26	41099.81
539.43	40952.35
539.60	41570.25
539.77	41139.60
539.94	41525.78
540.11	41322.16
540.28	40987.46
540.44	41188.75
540.61	41127.89
540.78	41123.21
540.95	41574.94
541.12	40891.50
541.29	41317.48
541.46	41556.21
541.62	41846.44
541.79	41790.27
541.96	41544.51
542.13	41514.08
542.30	41703.67
542.47	42246.67
542.63	42026.66
542.80	41886.23
542.97	42033.68
543.14	42609.45
543.31	42356.67
543.48	42347.31
543.64	43012.02
543.81	42595.41
543.98	42618.81
544.15	42501.79
544.32	42653.92
544.48	42841.17
544.65	42359.02
544.82	43056.50
544.99	42462.00
545.16	43161.82
545.32	42351.99
545.49	42890.32
545.66	43459.07
545.83	42979.26
546.00	43122.03
546.16	43002.66
546.33	43316.29
546.50	42752.23
546.67	42848.19
546.83	42293.48
547.00	42923.08
547.17	42815.42
547.34	42979.26
547.50	43068.20
547.67	43796.10
547.84	43545.67
548.00	43213.31
548.17	43260.12
548.34	43316.29
548.51	43627.59
548.67	43583.12
548.84	43784.40
549.01	43316.29
549.18	43533.96
549.34	43880.36
549.51	43363.11
549.68	43913.13
549.84	43906.11
550.01	43714.19
550.18	43367.79
550.34	43662.69
550.51	43526.94
550.68	43414.60
550.84	43913.13
551.01	44154.21
551.18	43634.61
551.34	43768.02
551.51	43922.49
551.68	43753.97
551.84	44364.85
552.01	44058.24
552.18	44360.17
552.34	43749.29
552.51	44275.91
552.68	43826.53
552.84	44308.68
553.01	44486.56
553.18	44439.75
553.34	44374.22
553.51	44201.02
553.67	44198.68
553.84	44477.20
554.01	44739.34
554.17	44907.86
554.34	44996.80
554.51	44851.69
554.67	44664.44
554.84	44676.15
555.00	43887.39
555.17	44222.08
555.33	44793.17
555.50	44823.60
555.67	44779.13
555.83	45088.08
556.00	45174.68
556.16	45336.18
556.33	45104.46
556.50	44612.95
556.66	44617.63
556.83	44481.88
556.99	44669.12
557.16	45207.45
557.32	44856.37
557.49	44818.92
557.65	44383.58
557.82	45092.76
557.98	44699.55
558.15	45015.52
558.32	44989.78
558.48	44793.17
558.65	44776.79
558.81	45043.61
558.98	44994.46
559.14	45518.74
559.31	44858.71
559.47	45205.11
559.64	45659.17
559.80	45371.28
559.97	45235.53
560.13	45457.88
560.30	44973.39
560.46	45340.86
560.63	45106.80
560.79	45352.56
560.96	45223.83
561.12	45607.68
561.29	45546.82
561.45	45357.24
561.61	45387.67
561.78	45439.16
561.94	45085.74
562.11	45287.03
562.27	45331.50
562.44	45287.03
562.60	45902.59
562.77	45703.64
562.93	45198.09
563.10	45436.82
563.26	45242.56
563.42	45738.75
563.59	45237.87
563.75	45361.92
563.92	45729.39
564.08	45457.88
564.24	45722.37
564.41	46160.05
564.57	45490.65
564.74	45654.49
564.90	45523.42
565.07	45729.39
565.23	45584.27
565.39	45612.36
565.56	45858.12
565.72	45556.19
565.88	45464.91
566.05	45612.36
566.21	45542.14
566.38	45591.30
566.54	45507.04
566.70	46197.49
566.87	45923.65
567.03	45741.09
567.19	45890.88
567.36	45970.46
567.52	45902.59
567.68	46181.11
567.85	45731.73
568.01	45649.81
568.17	45387.67
568.34	45701.30
568.50	45691.94
568.66	45759.81
568.83	45827.69
568.99	45893.22
569.15	45619.38
569.32	45631.08
569.48	45563.21
569.64	46321.54
569.81	46174.09
569.97	46178.77
570.13	46195.15
570.30	45830.03
570.46	45848.75
570.62	45731.73
570.78	45638.11
570.95	45818.33
571.11	45942.38
571.27	45715.34
571.43	45741.09
571.60	46274.73
571.76	46181.11
571.92	45942.38
572.09	45830.03
572.25	46078.13
572.41	45731.73
572.57	46000.89
572.74	46279.41
572.90	46014.93
573.06	46138.98
573.22	46005.57
573.38	46017.27
573.55	45872.16
573.71	45951.74
573.87	46267.71
574.03	45886.20
574.20	46288.77
574.36	45811.31
574.52	46038.34
574.68	46466.66
574.84	46073.45
575.01	46358.99
575.17	46162.39
575.33	46075.79
575.49	45750.45
575.65	46223.24
575.82	46291.12
575.98	46155.36
576.14	46373.03
576.30	46183.45
576.46	46085.15
576.62	45954.08
576.79	46253.67
576.95	45696.62
577.11	46178.77
577.27	46057.06
577.43	46197.49
577.59	46131.96
577.75	45755.13
577.92	45846.41
578.08	45687.26
578.24	45736.41
578.40	45797.26
578.56	45890.88
578.72	46143.66
578.88	46031.32
579.04	46148.34
579.21	46052.38
579.37	45883.86
579.53	46113.23
579.69	45874.50
579.85	45937.69
580.01	46195.15
580.17	46052.38
580.33	46450.27
580.49	46155.36
580.65	46064.08
580.82	46085.15
580.98	46293.46
581.14	45834.71
581.30	46508.79
581.46	45916.63
581.62	46401.12
581.78	46089.83
581.94	46433.89
582.10	46120.26
582.26	46485.38
582.42	46473.68
582.58	46071.10
582.74	46279.41
582.90	46103.87
583.06	45956.42
583.22	46263.03
583.38	46522.83
583.54	46553.26
583.70	46066.42
583.86	46110.89
584.02	46293.46
584.18	46012.59
584.34	46031.32
584.50	46546.23
584.66	45970.46
584.82	46153.02
584.98	46714.75
585.14	46232.60
585.30	46246.65
585.46	46508.79
585.62	46286.43
585.78	46131.96
585.94	45925.99
586.10	46295.80
586.26	46321.54
586.42	46504.10
586.58	46461.97
586.74	46476.02
586.90	46167.07
587.06	46241.96
587.22	46466.66
587.38	46162.39
587.54	46302.82
587.70	46227.92
587.86	46239.62
588.02	46525.17
588.18	46319.20
588.34	46141.32
588.49	45933.01
588.65	45986.85
588.81	45687.26
588.97	45921.31
589.13	45947.06
589.29	45916.63
589.45	46307.50
589.61	45958.76
589.77	46265.37
589.93	46260.69
