SpectraSuite Data File
++++++++++++++++++++++++++++++++++++
Date: Fri Oct 25 11:25:45 EDT 2013
User: price-jones
Dark Spectrum Present: No
Reference Spectrum Present: No
Number of Sampled Component Spectra: 1
Spectrometers: USB2+H05261
Integration Time (usec): 100000 (USB2+H05261)
Spectra Averaged: 1 (USB2+H05261)
Boxcar Smoothing: 0 (USB2+H05261)
Correct for Electrical Dark: No (USB2+H05261)
Strobe/Lamp Enabled: No (USB2+H05261)
Correct for Detector Non-linearity: No (USB2+H05261)
Correct for Stray Light: No (USB2+H05261)
Number of Pixels in Processed Spectrum: 2048
>>>>>Begin Processed Spectral Data<<<<<
365.73	269.16
365.92	269.16
366.12	269.16
366.32	217.67
366.52	124.05
366.72	170.86
366.91	222.35
367.11	81.92
367.31	93.62
367.51	201.29
367.70	126.39
367.90	112.35
368.10	175.54
368.30	163.84
368.49	112.35
368.69	222.35
368.89	170.86
369.09	220.01
369.28	145.11
369.48	248.10
369.68	227.03
369.87	227.03
370.07	198.95
370.27	269.16
370.47	369.80
370.66	524.28
370.86	627.26
371.06	685.78
371.25	704.50
371.45	645.99
371.65	746.63
371.84	559.39
372.04	699.82
372.24	699.82
372.44	753.65
372.63	807.48
372.83	816.85
373.03	760.67
373.22	760.67
373.42	795.78
373.62	751.31
373.81	774.72
374.01	828.55
374.21	821.53
374.40	781.74
374.60	833.23
374.79	816.85
374.99	828.55
375.19	755.99
375.38	861.32
375.58	809.83
375.78	940.90
375.97	828.55
376.17	873.02
376.37	870.68
376.56	854.30
376.76	816.85
376.95	891.74
377.15	861.32
377.35	931.53
377.54	901.11
377.74	866.00
377.93	884.72
378.13	922.17
378.33	959.62
378.52	922.17
378.72	922.17
378.91	952.60
379.11	1034.52
379.31	919.83
379.50	849.61
379.70	940.90
379.89	915.15
380.09	966.64
380.28	894.08
380.48	938.55
380.68	980.68
380.87	952.60
381.07	1013.45
381.26	1057.92
381.46	983.02
381.65	1006.43
381.85	1057.92
382.04	1018.13
382.24	1069.62
382.43	1008.77
382.63	1022.81
382.83	1167.93
383.02	1114.10
383.22	1088.35
383.41	1186.65
383.61	1057.92
383.80	1132.82
384.00	1095.37
384.19	1146.86
384.39	1181.97
384.58	1256.87
384.78	1097.71
384.97	1191.33
385.17	1174.95
385.36	1245.16
385.56	1153.88
385.75	1142.18
385.95	1221.76
386.14	1270.91
386.34	1160.91
386.53	1212.40
386.72	1228.78
386.92	1196.01
387.11	1196.01
387.31	1242.82
387.50	1191.33
387.70	1207.72
387.89	1205.38
388.09	1284.95
388.28	1306.02
388.48	1238.14
388.67	1240.48
388.86	1315.38
389.06	1350.49
389.25	1373.89
389.45	1249.85
389.64	1289.64
389.84	1380.92
390.03	1451.13
390.22	1430.07
390.42	1423.05
390.61	1385.60
390.81	1369.21
391.00	1373.89
391.19	1420.71
391.39	1462.83
391.58	1413.68
391.78	1511.99
391.97	1423.05
392.16	1474.54
392.36	1568.16
392.55	1544.75
392.75	1589.22
392.94	1479.22
393.13	1451.13
393.33	1472.20
393.52	1474.54
393.71	1535.39
393.91	1582.20
394.10	1549.43
394.29	1619.65
394.49	1537.73
394.68	1600.93
394.88	1636.03
395.07	1671.14
395.26	1696.89
395.46	1820.94
395.65	1708.59
395.84	1664.12
396.04	1849.02
396.23	1757.74
396.42	1713.27
396.62	1837.32
396.81	1708.59
397.00	1783.49
397.19	1790.51
397.39	1722.63
397.58	1802.21
397.77	1806.89
397.97	1816.26
398.16	1804.55
398.35	1874.77
398.55	1842.00
398.74	1839.66
398.93	1863.07
399.12	1877.11
399.32	1856.04
399.51	1907.54
399.70	1991.80
399.90	1963.71
400.09	2050.31
400.28	2005.84
400.47	2045.63
400.67	2097.12
400.86	2024.56
401.05	2029.24
401.24	2237.55
401.44	2064.35
401.63	2139.25
401.82	2225.85
402.01	2076.06
402.21	2066.69
402.40	2225.85
402.59	2223.51
402.78	2090.10
402.97	2265.64
403.17	2282.02
403.36	2356.92
403.55	2225.85
403.74	2300.75
403.93	2335.85
404.13	2286.70
404.32	2408.41
404.51	2385.01
404.70	2441.18
404.89	2445.86
405.09	2406.07
405.28	2368.62
405.47	2377.98
405.66	2455.22
405.85	2466.92
406.05	2455.22
406.24	2569.91
406.43	2497.35
406.62	2619.06
406.81	2789.92
407.00	2574.59
407.20	2516.08
407.39	2565.23
407.58	2677.57
407.77	2715.02
407.96	2708.00
408.15	2843.75
408.34	2619.06
408.54	2782.90
408.73	2696.30
408.92	2888.22
409.11	2958.44
409.30	2876.52
409.49	2843.75
409.68	2920.99
409.87	2984.18
410.07	2928.01
410.26	3087.17
410.45	3070.78
410.64	3098.87
410.83	3052.06
411.02	3176.11
411.21	3117.59
411.40	3110.57
411.59	3192.49
411.78	3157.38
411.98	3239.30
412.17	3281.43
412.36	3283.77
412.55	3314.20
412.74	3368.03
412.93	3290.79
413.12	3351.65
413.31	3559.95
413.50	3421.86
413.69	3365.69
413.88	3431.23
414.07	3597.40
414.26	3597.40
414.45	3646.55
414.64	3700.39
414.83	3730.81
415.02	3747.20
415.22	3768.26
415.41	3840.82
415.60	3850.18
415.79	3822.09
415.98	3978.91
416.17	4170.83
416.36	4018.70
416.55	3889.97
416.74	4156.79
416.93	3995.29
417.12	4079.55
417.31	4138.07
417.50	4198.92
417.69	4269.14
417.88	4311.27
418.07	4142.75
418.26	4388.50
418.45	4259.78
418.64	4430.63
418.83	4512.55
419.02	4409.57
419.21	4629.58
419.39	4517.23
419.58	4477.44
419.77	4362.76
419.96	4552.34
420.15	4514.89
420.34	4456.38
420.53	4468.08
420.72	4723.20
420.91	4617.88
421.10	4596.81
421.29	4847.25
421.48	4746.61
421.67	4762.99
421.86	4807.46
422.05	4709.16
422.24	4842.57
422.43	4917.47
422.61	4945.55
422.80	4861.29
422.99	4826.18
423.18	4959.60
423.37	4891.72
423.56	5069.60
423.75	4919.81
423.94	4725.54
424.13	4451.70
424.32	4751.29
424.50	4945.55
424.69	5048.54
424.88	5198.33
425.07	4854.27
425.26	4936.19
425.45	4884.70
425.64	4933.85
425.83	5008.75
426.01	5158.54
426.20	5074.28
426.39	5078.96
426.58	5057.90
426.77	5090.67
426.96	5172.58
427.15	5142.16
427.33	5088.32
427.52	5093.01
427.71	5207.69
427.90	5167.90
428.09	5313.02
428.28	5425.36
428.46	5210.03
428.65	5345.78
428.84	5476.85
429.03	5565.79
429.22	5448.77
429.40	5467.49
429.59	5469.83
429.78	5280.25
429.97	5345.78
430.16	5502.60
430.34	5671.12
430.53	5446.43
430.72	5626.65
430.91	5607.92
431.10	5633.67
431.28	5617.29
431.47	5579.84
431.66	5830.27
431.85	5783.46
432.03	5891.13
432.22	5874.74
432.41	5935.60
432.60	5877.09
432.79	5940.28
432.97	5933.26
433.16	5975.39
433.35	5923.90
433.54	6085.39
433.72	6141.57
433.91	6064.33
434.10	6164.97
434.28	6047.94
434.47	6228.17
434.66	6258.59
434.85	6253.91
435.03	6242.21
435.22	6326.47
435.41	6523.07
435.59	6392.00
435.78	6321.79
435.97	6413.07
436.16	6410.73
436.34	6406.05
436.53	6532.44
436.72	6630.74
436.90	6438.81
437.09	6705.63
437.28	6387.32
437.46	6466.90
437.65	6548.82
437.84	6696.27
438.02	6710.32
438.21	6747.76
438.40	6635.42
438.58	6932.67
438.77	7082.46
438.96	6909.26
439.14	6995.86
439.33	7070.76
439.52	7180.76
439.70	7077.78
439.89	7241.62
440.08	7225.23
440.26	7300.13
440.45	7307.15
440.63	7548.23
440.82	7520.14
441.01	7463.97
441.19	7496.74
441.38	7548.23
441.57	7639.51
441.75	7527.16
441.94	7836.11
442.12	7983.57
442.31	7943.78
442.50	7997.61
442.68	7969.52
442.87	7864.20
443.05	8208.26
443.24	8128.68
443.43	8079.53
443.61	8105.28
443.80	8212.94
443.98	7880.58
444.17	8004.63
444.35	8016.33
444.54	8327.63
444.73	8278.47
444.91	8259.75
445.10	8226.98
445.28	8245.71
445.47	8248.05
445.65	8301.88
445.84	8524.23
446.02	8362.73
446.21	8194.22
446.39	8271.45
446.58	8561.68
446.77	8578.06
446.95	8262.09
447.14	8332.31
447.32	8456.36
447.51	8308.90
447.69	8308.90
447.88	8599.13
448.06	8306.56
448.25	8393.16
448.43	8463.38
448.62	8566.36
448.80	8500.83
448.99	8812.12
449.17	8795.73
449.36	8592.11
449.54	8751.26
449.73	8823.82
449.91	9004.04
450.10	9011.06
450.28	9020.42
450.46	8940.85
450.65	8982.98
450.83	9200.65
451.02	8947.87
451.20	9329.38
451.39	9191.28
451.57	9163.20
451.76	8968.93
451.94	9088.30
452.13	9364.48
452.31	9200.65
452.49	8997.02
452.68	9310.65
452.86	9387.89
453.05	9430.02
453.23	9369.16
453.42	9607.90
453.60	9266.18
453.78	9547.05
453.97	9322.35
454.15	9607.90
454.34	9439.38
454.52	9703.86
454.70	9675.77
454.89	9788.12
455.07	9701.52
455.26	9820.89
455.44	9818.55
455.62	9973.02
455.81	9795.14
455.99	9738.97
456.17	10017.49
456.36	10097.07
456.54	10076.01
456.73	9973.02
456.91	10408.36
457.09	10380.28
457.28	10621.35
457.46	10310.06
457.64	10513.69
457.83	10513.69
458.01	10401.34
458.19	10801.57
458.38	10356.87
458.56	10637.73
458.74	10574.54
458.93	10539.43
459.11	10523.05
459.29	10574.54
459.48	10813.28
459.66	10663.48
459.84	10860.09
460.03	10944.34
460.21	11000.52
460.39	10871.79
460.57	10710.29
460.76	11183.08
460.94	11075.42
461.12	10995.84
461.31	11192.44
461.49	11044.99
461.67	11377.34
461.85	11454.58
462.04	11321.17
462.22	11719.06
462.40	11382.03
462.59	11410.11
462.77	11389.05
462.95	11461.60
463.13	11627.78
463.32	11690.98
463.50	11740.13
463.68	11529.48
463.86	11829.07
464.05	11709.70
464.23	11356.28
464.41	11751.83
464.59	11564.59
464.78	12285.47
464.96	11920.35
465.14	11595.01
465.32	12025.67
465.50	12133.34
465.69	11892.26
465.87	12123.98
466.05	12121.63
466.23	12257.39
466.41	12060.78
466.60	12482.08
466.78	12154.40
466.96	12058.44
467.14	12301.86
467.32	12318.24
467.51	12482.08
467.69	12229.30
467.87	12276.11
468.05	12479.74
468.23	12437.61
468.41	12507.82
468.60	12592.08
468.78	12879.97
468.96	12461.01
469.14	12730.17
469.32	13020.40
469.50	12713.79
469.69	12952.52
469.87	12901.03
470.05	12919.76
470.23	13217.01
470.41	13146.79
470.59	13247.43
470.77	13006.36
470.95	13411.27
471.14	13359.78
471.32	13020.40
471.50	13254.45
471.68	13710.86
471.86	13497.87
472.04	13619.58
472.22	13956.61
472.40	13465.10
472.58	13781.07
472.77	14073.64
472.95	13949.59
473.13	14328.76
473.31	14361.53
473.49	14036.19
473.67	14033.85
473.85	14029.17
474.03	14534.73
474.21	14377.91
474.39	14532.39
474.57	14630.69
474.75	14750.06
474.93	15042.62
475.12	15154.97
475.30	15110.50
475.48	14979.43
475.66	15178.37
475.84	15068.37
476.02	15564.56
476.20	15424.13
476.38	15522.43
476.56	16067.78
476.74	15943.73
476.92	15798.62
477.10	15721.38
477.28	15702.65
477.46	15957.77
477.64	16395.45
477.82	16706.74
478.00	16695.04
478.18	16589.72
478.36	16964.20
478.54	16812.07
478.72	17085.91
478.90	17359.75
479.08	17439.33
479.26	17687.43
479.44	17781.05
479.62	17916.80
479.80	18291.29
479.98	18050.21
480.16	18490.23
480.34	18052.55
480.52	18328.74
480.70	18389.59
480.88	18485.55
481.06	18574.49
481.24	18792.16
481.41	19199.41
481.59	18799.18
481.77	19543.47
481.95	19389.00
482.13	19728.38
482.31	19513.05
482.49	20252.66
482.67	19910.94
482.85	20334.57
483.03	20491.39
483.21	20493.73
483.39	20650.55
483.57	20519.48
483.74	20926.73
483.92	21111.63
484.10	21219.30
484.28	21476.76
484.46	21895.71
484.64	22101.68
484.82	21991.67
485.00	22204.66
485.18	22766.39
485.35	22829.59
485.53	22616.60
485.71	23154.92
485.89	23531.75
486.07	23187.69
486.25	22881.08
486.43	23405.36
486.61	23749.42
486.78	24278.38
486.96	23990.49
487.14	24273.70
487.32	24414.13
487.50	24634.14
487.68	24470.30
487.85	25259.06
488.03	25521.20
488.21	25535.24
488.39	25542.27
488.57	25970.58
488.75	25830.15
488.92	26127.40
489.10	26511.25
489.28	26504.23
489.46	27290.65
489.64	26771.05
489.81	27449.80
489.99	27417.04
490.17	27679.18
490.35	27927.27
490.53	27873.44
490.70	28065.36
490.88	28252.61
491.06	28961.79
491.24	28608.37
491.41	28800.29
491.59	29032.00
491.77	29312.87
491.95	29387.77
492.13	29383.09
492.30	29766.93
492.48	29532.88
492.66	30256.11
492.84	30139.08
493.01	30686.76
493.19	30513.56
493.37	30951.24
493.54	30972.31
493.72	31365.52
493.90	31339.77
494.08	31842.99
494.25	31728.30
494.43	32016.19
494.61	32283.01
494.79	32418.76
494.96	32088.74
495.14	32772.18
495.32	32868.14
495.49	33153.69
495.67	33156.03
495.85	33528.17
496.02	33645.20
496.20	33912.02
496.38	34073.52
496.55	33862.87
496.73	34583.76
496.91	34668.02
497.09	34920.79
497.26	34644.61
497.44	34679.72
497.62	35218.04
497.79	35545.72
497.97	35328.05
498.14	35697.85
498.32	36032.55
498.50	35957.65
498.67	36608.32
498.85	36041.91
499.03	36437.46
499.20	36816.63
499.38	36636.41
499.56	37448.57
499.73	36882.16
499.91	37181.75
500.08	37394.74
500.26	37345.59
500.44	37425.17
500.61	37617.09
500.79	37544.53
500.97	37979.87
501.14	38314.57
501.32	38656.29
501.49	38036.05
501.67	38827.15
501.84	38763.95
502.02	38211.59
502.20	38953.54
502.37	38906.73
502.55	39136.10
502.72	39379.51
502.90	39068.22
503.07	39653.36
503.25	39400.58
503.43	39543.35
503.60	39768.04
503.78	39772.72
503.95	40086.36
504.13	39992.73
504.30	40282.96
504.48	40240.83
504.65	40437.44
504.83	40481.91
505.01	41088.10
505.18	41251.94
505.36	41706.01
505.53	40973.42
505.71	41078.74
505.88	41560.89
506.06	41214.49
506.23	41757.50
506.41	41759.84
506.58	41488.34
506.76	42026.66
506.93	42576.69
507.11	41935.38
507.28	42368.38
507.46	42572.00
507.63	43351.40
507.81	42726.48
507.98	42827.12
508.16	43229.69
508.33	43016.71
508.50	43838.23
508.68	42866.91
508.85	43379.49
509.03	43796.10
509.20	44030.16
509.38	43971.64
509.55	44112.08
509.73	44442.09
509.90	44509.97
510.08	44395.28
510.25	45055.31
510.42	44369.54
510.60	45120.85
510.77	45289.37
510.95	45563.21
511.12	44898.50
511.30	45038.93
511.47	45170.00
511.64	45511.72
511.82	45720.02
511.99	45738.75
512.17	45736.41
512.34	45432.14
512.51	46239.62
512.69	46401.12
512.86	46316.86
513.04	46183.45
513.21	46220.90
513.38	46887.95
513.56	46829.44
513.73	46653.90
513.90	46852.84
514.08	46890.29
514.25	46962.85
514.43	47180.52
514.60	47323.29
514.77	47318.61
514.95	47229.67
515.12	46930.08
515.29	47168.82
515.47	47501.17
515.64	47838.21
515.81	47562.03
515.99	48065.24
516.16	48027.79
516.33	47845.23
516.51	48245.46
516.68	48222.06
516.85	48292.27
517.03	48825.92
517.20	48615.27
517.37	48413.98
517.54	49041.24
517.72	48978.05
517.89	49064.65
518.06	49263.60
518.24	48584.84
518.41	49219.13
518.58	49762.13
518.75	49184.02
518.93	49336.15
519.10	49083.37
519.27	49296.36
519.45	49331.47
519.62	50075.76
519.79	49682.55
519.96	49659.15
520.14	49986.82
520.31	49940.01
520.48	50742.81
520.65	50244.28
520.83	50511.10
521.00	50319.18
521.17	50710.05
521.34	50642.17
521.52	50604.72
521.69	50506.42
521.86	50688.98
522.03	51110.28
522.20	50979.21
522.38	51105.60
522.55	51496.47
522.72	50983.89
522.89	51056.45
523.07	51475.40
523.24	51260.07
523.41	51349.01
523.58	51554.98
523.75	51365.40
523.92	51484.76
524.10	51821.80
524.27	51657.96
524.44	52079.26
524.61	51973.94
524.78	52271.18
524.96	51997.34
525.13	52177.56
525.30	52451.41
525.47	52238.42
525.64	52273.52
525.81	52479.49
525.98	52568.43
526.16	52317.99
526.33	52402.25
526.50	52879.72
526.67	52804.83
526.84	52528.64
527.01	52587.16
527.18	52523.96
527.36	52790.78
527.53	52835.25
527.70	53195.70
527.87	53146.54
528.04	53148.88
528.21	53017.82
528.38	53240.17
528.55	53296.34
528.72	53286.98
528.89	53228.46
529.07	53389.96
529.24	53373.58
529.41	53598.27
529.58	53570.18
529.75	53303.36
529.92	53745.72
530.09	53556.14
530.26	53717.64
530.43	53834.66
530.60	53638.06
530.77	53448.47
530.94	53794.87
531.11	53916.58
531.28	53818.28
531.46	54262.98
531.63	54171.70
531.80	54045.31
531.97	54316.81
532.14	54499.37
532.31	54183.40
532.48	54321.49
532.65	54426.82
532.82	54555.55
532.99	54550.87
533.16	54504.06
533.33	54492.35
533.50	54752.15
533.67	54501.71
533.84	54665.55
534.01	54630.44
534.18	54817.69
534.35	55199.19
534.52	54897.27
534.69	55119.62
534.86	55220.26
535.03	54632.78
535.20	54958.12
535.37	55302.18
535.54	55246.00
535.71	55175.79
535.88	55510.49
536.05	55330.26
536.22	55442.61
536.38	55292.82
536.55	55292.82
536.72	55456.65
536.89	55320.90
537.06	55477.72
537.23	55512.83
537.40	55501.12
537.57	55494.10
537.74	55643.90
537.91	55767.94
538.08	55664.96
538.25	55683.69
538.42	55770.28
538.59	55915.40
538.75	55959.87
538.92	55906.04
539.09	55987.95
539.26	56009.02
539.43	56034.77
539.60	56292.22
539.77	56355.42
539.94	56009.02
540.11	56210.31
540.28	56315.63
540.44	56271.16
540.61	56467.76
540.78	56453.72
540.95	56439.68
541.12	56133.07
541.29	56397.55
541.46	56601.18
541.62	56765.01
541.79	56769.69
541.96	56137.75
542.13	56608.20
542.30	56500.53
542.47	56676.07
542.63	56741.61
542.80	56690.12
542.97	57099.71
543.14	57198.01
543.31	56952.26
543.48	57045.88
543.64	57394.62
543.81	57272.91
543.98	57195.67
544.15	57109.07
544.32	57209.71
544.48	57453.13
544.65	57202.69
544.82	57160.56
544.99	57247.16
545.16	57324.40
545.32	57336.10
545.49	57579.52
545.66	57368.87
545.83	57605.26
546.00	57626.33
546.16	57565.48
546.33	57492.92
546.50	57366.53
546.67	57560.79
546.83	57481.22
547.00	57703.57
547.17	57530.37
547.34	57705.91
547.50	57925.92
547.67	57848.68
547.84	57698.89
548.00	57914.22
548.17	57944.64
548.34	57958.69
548.51	58049.97
548.67	58330.83
548.84	58061.67
549.01	57979.75
549.18	58127.20
549.34	58113.16
549.51	58225.51
549.68	58225.51
549.84	58262.96
550.01	58117.84
550.18	58209.12
550.34	58356.58
550.51	58396.37
550.68	58124.86
550.84	58061.67
551.01	58592.97
551.18	58351.90
551.34	58319.13
551.51	58646.80
551.68	58639.78
551.84	58396.37
552.01	58169.33
552.18	58695.95
552.34	58396.37
552.51	58527.44
552.68	58440.84
552.84	58609.35
553.01	58820.00
553.18	58695.95
553.34	58850.43
553.51	58592.97
553.67	58653.82
553.84	58897.24
554.01	58773.19
554.17	58864.47
554.34	58714.68
554.51	58911.28
554.67	58925.33
554.84	58976.82
555.00	58831.71
555.17	58763.83
555.33	58782.55
555.50	58824.68
555.67	59040.01
555.83	58866.81
556.00	58920.65
556.16	59400.46
556.33	59309.18
556.50	59028.31
556.66	59119.59
556.83	59002.56
556.99	59339.60
557.16	59302.15
557.32	59311.52
557.49	59414.50
557.65	59297.47
557.82	59386.41
557.98	59355.99
558.15	59217.89
558.32	59409.82
558.48	59299.81
558.65	59264.70
558.81	59288.11
558.98	59498.76
559.14	59238.96
559.31	59447.27
559.47	59618.13
559.64	59398.12
559.80	59704.73
559.97	59456.63
560.13	59470.67
560.30	59639.19
560.46	59868.56
560.63	59725.79
560.79	59590.04
560.96	59819.41
561.12	59636.85
561.29	59840.48
561.45	59812.39
561.61	59723.45
561.78	59723.45
561.94	59662.60
562.11	59707.07
562.27	59758.56
562.44	59781.96
562.60	59971.55
562.77	59681.32
562.93	59604.08
563.10	60175.17
563.26	59891.97
563.42	59882.61
563.59	59828.77
563.75	59922.40
563.92	59966.87
564.08	59880.27
564.24	60081.55
564.41	59957.50
564.57	59901.33
564.74	59887.29
564.90	60016.02
565.07	59920.05
565.23	60186.88
565.39	59966.87
565.56	59966.87
565.72	60020.70
565.88	60060.49
566.05	59971.55
566.21	60226.66
566.38	59999.63
566.54	60093.25
566.70	60395.18
566.87	60179.85
567.03	60109.64
567.19	60317.95
567.36	60121.34
567.52	60048.78
567.68	60395.18
567.85	60140.07
568.01	60427.95
568.17	60097.94
568.34	60388.16
568.50	60184.54
568.66	60308.58
568.83	60458.38
568.99	60151.77
569.15	60186.88
569.32	60402.21
569.48	60147.09
569.64	60378.80
569.81	60289.86
569.97	60189.22
570.13	60416.25
570.30	60243.05
570.46	60259.43
570.62	60598.81
570.78	60177.51
570.95	60308.58
571.11	60479.44
571.27	60196.24
571.43	60336.67
571.60	60540.30
571.76	60175.17
571.92	60465.40
572.09	60350.71
572.25	60346.03
572.41	60444.33
572.57	60404.55
572.74	60605.83
572.90	60512.21
573.06	60549.66
573.22	60502.85
573.38	60619.88
573.55	60451.36
573.71	60659.66
573.87	60629.24
574.03	60505.19
574.20	60701.79
574.36	60481.78
574.52	60636.26
574.68	60458.38
574.84	60603.49
575.01	60596.47
575.17	60416.25
575.33	60563.70
575.49	60535.62
575.65	60664.35
575.82	60701.79
575.98	60694.77
576.14	60863.29
576.30	60680.73
576.46	60786.05
576.62	60750.94
576.79	60718.18
576.95	60385.82
577.11	60591.79
577.27	60725.20
577.43	60736.90
577.59	60420.93
577.75	60559.02
577.92	60598.81
578.08	60699.45
578.24	60764.99
578.40	60858.61
578.56	60926.49
578.72	60692.43
578.88	60949.89
579.04	61041.17
579.21	60811.80
579.37	60945.21
579.53	61041.17
579.69	60612.85
579.85	60643.28
580.01	60685.41
580.17	60626.90
580.33	61029.47
580.49	60919.46
580.65	60907.76
580.82	60666.69
580.98	60729.88
581.14	60678.39
581.30	60975.64
581.46	60687.75
581.62	60828.18
581.78	60561.36
581.94	60694.77
582.10	60823.50
582.26	60837.54
582.42	60619.88
582.58	61003.72
582.74	60757.97
582.90	60865.63
583.06	60793.07
583.22	60591.79
583.38	60807.12
583.54	60865.63
583.70	61020.11
583.86	60985.00
584.02	60795.42
584.18	60842.23
584.34	60757.97
584.50	60931.17
584.66	60980.32
584.82	60711.16
584.98	61045.85
585.14	61048.19
585.30	60786.05
585.46	60842.23
585.62	60832.86
585.78	60959.25
585.94	60821.16
586.10	60987.34
586.26	61158.20
586.42	60800.10
586.58	60996.70
586.74	61029.47
586.90	60849.25
587.06	61048.19
587.22	61064.58
587.38	61116.07
587.54	61017.77
587.70	61055.21
587.86	60968.61
588.02	60886.70
588.18	61109.05
588.34	60879.67
588.49	61052.87
