SpectraSuite Data File
++++++++++++++++++++++++++++++++++++
Date: Fri Oct 25 11:23:16 EDT 2013
User: price-jones
Dark Spectrum Present: No
Reference Spectrum Present: No
Number of Sampled Component Spectra: 1
Spectrometers: USB2+H05261
Integration Time (usec): 100000 (USB2+H05261)
Spectra Averaged: 1 (USB2+H05261)
Boxcar Smoothing: 0 (USB2+H05261)
Correct for Electrical Dark: No (USB2+H05261)
Strobe/Lamp Enabled: No (USB2+H05261)
Correct for Detector Non-linearity: No (USB2+H05261)
Correct for Stray Light: No (USB2+H05261)
Number of Pixels in Processed Spectrum: 2048
>>>>>Begin Processed Spectral Data<<<<<
365.73	187.24
365.92	187.24
366.12	187.24
366.32	163.84
366.52	135.75
366.72	145.11
366.91	128.73
367.11	65.54
367.31	84.26
367.51	117.03
367.70	156.82
367.90	112.35
368.10	133.41
368.30	154.48
368.49	95.96
368.69	112.35
368.89	149.79
369.09	112.35
369.28	112.35
369.48	163.84
369.68	201.29
369.87	175.54
370.07	210.65
370.27	236.39
370.47	334.70
370.66	610.88
370.86	592.16
371.06	589.82
371.25	678.76
371.45	634.29
371.65	669.39
371.84	674.07
372.04	706.84
372.24	695.14
372.44	727.91
372.63	748.97
372.83	741.95
373.03	699.82
373.22	734.93
373.42	791.10
373.62	739.61
373.81	709.18
374.01	732.59
374.21	786.42
374.40	819.19
374.60	786.42
374.79	802.80
374.99	889.40
375.19	919.83
375.38	821.53
375.58	851.96
375.78	891.74
375.97	851.96
376.17	844.93
376.37	772.38
376.56	905.79
376.76	891.74
376.95	842.59
377.15	917.49
377.35	910.47
377.54	912.81
377.74	891.74
377.93	819.19
378.13	908.13
378.33	889.40
378.52	908.13
378.72	985.37
378.91	971.32
379.11	938.55
379.31	917.49
379.50	940.90
379.70	943.24
379.89	931.53
380.09	880.04
380.28	950.26
380.48	978.34
380.68	1069.62
380.87	1043.88
381.07	976.00
381.26	1008.77
381.46	992.39
381.65	1011.11
381.85	1043.88
382.04	1050.90
382.24	1107.07
382.43	1018.13
382.63	1015.79
382.83	1135.16
383.02	1160.91
383.22	1109.41
383.41	1041.54
383.61	1100.05
383.80	1123.46
384.00	1109.41
384.19	1135.16
384.39	1212.40
384.58	1151.54
384.78	1212.40
384.97	1090.69
385.17	1165.59
385.36	1135.16
385.56	1144.52
385.75	1252.19
385.95	1219.42
386.14	1273.25
386.34	1210.06
386.53	1107.07
386.72	1210.06
386.92	1224.10
387.11	1266.23
387.31	1324.74
387.50	1238.14
387.70	1303.68
387.89	1284.95
388.09	1320.06
388.28	1327.08
388.48	1296.66
388.67	1282.61
388.86	1369.21
389.06	1273.25
389.25	1369.21
389.45	1376.24
389.64	1322.40
389.84	1411.34
390.03	1401.98
390.22	1306.02
390.42	1371.55
390.61	1324.74
390.81	1444.11
391.00	1390.28
391.19	1432.41
391.39	1441.77
391.58	1509.65
391.78	1497.94
391.97	1401.98
392.16	1497.94
392.36	1561.14
392.55	1474.54
392.75	1528.37
392.94	1577.52
393.13	1467.52
393.33	1544.75
393.52	1561.14
393.71	1621.99
393.91	1736.68
394.10	1563.48
394.29	1636.03
394.49	1547.09
394.68	1654.76
394.88	1636.03
395.07	1645.40
395.26	1689.87
395.46	1724.97
395.65	1753.06
395.84	1753.06
396.04	1837.32
396.23	1666.46
396.42	1729.66
396.62	1790.51
396.81	1743.70
397.00	1722.63
397.19	1746.04
397.39	1811.57
397.58	1788.17
397.77	1755.40
397.97	1832.64
398.16	1830.30
398.35	1959.03
398.55	1914.56
398.74	1966.05
398.93	2022.22
399.12	1879.45
399.32	1935.62
399.51	1881.79
399.70	2080.74
399.90	1970.73
400.09	2057.33
400.28	2076.06
400.47	2153.29
400.67	1947.33
400.86	2139.25
401.05	2069.03
401.24	1959.03
401.44	2069.03
401.63	2097.12
401.82	2181.38
402.01	2186.06
402.21	2181.38
402.40	2237.55
402.59	2230.53
402.78	2214.15
402.97	2211.81
403.17	2190.74
403.36	2246.91
403.55	2324.15
403.74	2452.88
403.93	2277.34
404.13	2321.81
404.32	2427.14
404.51	2338.20
404.70	2399.05
404.89	2387.35
405.09	2466.92
405.28	2438.84
405.47	2527.78
405.66	2509.05
405.85	2520.76
406.05	2478.63
406.24	2516.08
406.43	2567.57
406.62	2644.81
406.81	2726.72
407.00	2605.02
407.20	2569.91
407.39	2665.87
407.58	2722.04
407.77	2740.77
407.96	2712.68
408.15	2710.34
408.34	2712.68
408.54	2803.96
408.73	2902.26
408.92	2825.03
409.11	2857.79
409.30	2963.12
409.49	2909.29
409.68	2967.80
409.87	2878.86
410.07	3028.65
410.26	2998.23
410.45	3014.61
410.64	3056.74
410.83	3080.14
411.02	3098.87
411.21	3164.40
411.40	3143.34
411.59	3183.13
411.78	3169.09
411.98	3243.98
412.17	3232.28
412.36	3344.63
412.55	3459.31
412.74	3435.91
412.93	3417.18
413.12	3545.91
413.31	3548.25
413.50	3485.06
413.69	3576.34
413.88	3581.02
414.07	3585.70
414.26	3740.18
414.45	3740.18
414.64	3758.90
414.83	3611.45
415.02	3719.11
415.22	3906.35
415.41	3843.16
415.60	3761.24
415.79	3985.93
415.98	4032.74
416.17	4018.70
416.36	4051.47
416.55	4037.42
416.74	4023.38
416.93	4053.81
417.12	4046.79
417.31	4201.26
417.50	4245.73
417.69	4339.35
417.88	4250.41
418.07	4278.50
418.26	4447.02
418.45	4451.70
418.64	4526.60
418.83	4409.57
419.02	4519.57
419.21	4451.70
419.39	4720.86
419.58	4348.72
419.77	4409.57
419.96	4606.17
420.15	4662.35
420.34	4610.86
420.53	4688.09
420.72	4697.46
420.91	4683.41
421.10	4865.97
421.29	4940.87
421.48	4718.52
421.67	4880.02
421.86	4894.06
422.05	4919.81
422.24	4865.97
422.43	4915.12
422.61	5034.49
422.80	5118.75
422.99	5001.72
423.18	5046.20
423.37	4938.53
423.56	4957.25
423.75	4936.19
423.94	4889.38
424.13	4650.64
424.32	4861.29
424.50	5121.09
424.69	5249.82
424.88	5116.41
425.07	4922.15
425.26	4947.89
425.45	5008.75
425.64	5097.69
425.83	5011.09
426.01	5177.26
426.20	5013.43
426.39	5240.46
426.58	5048.54
426.77	5100.03
426.96	5156.20
427.15	5167.90
427.33	5263.86
427.52	5245.14
427.71	5153.86
427.90	5195.99
428.09	5399.62
428.28	5432.38
428.46	5385.57
428.65	5467.49
428.84	5575.16
429.03	5451.11
429.22	5366.85
429.40	5568.13
429.59	5554.09
429.78	5509.62
429.97	5320.04
430.16	5446.43
430.34	5696.86
430.53	5584.52
430.72	5778.78
430.91	5762.40
431.10	5582.18
431.28	5792.83
431.47	5853.68
431.66	5867.72
431.85	5902.83
432.03	5984.75
432.22	6164.97
432.41	6087.73
432.60	5996.45
432.79	6024.54
432.97	6080.71
433.16	6017.52
433.35	5982.41
433.54	6118.16
433.72	6274.98
433.91	6083.05
434.10	6139.23
434.28	6214.12
434.47	6272.64
434.66	6289.02
434.85	6307.74
435.03	6251.57
435.22	6326.47
435.41	6623.72
435.59	6565.20
435.78	6422.43
435.97	6473.92
436.16	6293.70
436.34	6422.43
436.53	6707.98
436.72	6717.34
436.90	6415.41
437.09	6551.16
437.28	6686.91
437.46	6602.65
437.65	6644.78
437.84	6801.60
438.02	6754.79
438.21	6885.86
438.40	6703.29
438.58	7201.83
438.77	7204.17
438.96	6953.73
439.14	7211.19
439.33	7311.83
439.52	7351.62
439.70	7265.02
439.89	7440.56
440.08	7431.20
440.26	7405.46
440.45	7391.41
440.63	7489.71
440.82	7578.65
441.01	7562.27
441.19	7801.01
441.38	7702.70
441.57	7777.60
441.75	7887.61
441.94	7934.42
442.12	7964.84
442.31	8135.70
442.50	8187.19
442.68	8065.49
442.87	8016.33
443.05	8081.87
443.24	8250.39
443.43	8231.66
443.61	8229.32
443.80	8505.51
443.98	8046.76
444.17	7990.59
444.35	8318.26
444.54	8657.64
444.73	8234.00
444.91	8325.29
445.10	8461.04
445.28	8496.14
445.47	8297.20
445.65	8423.59
445.84	8496.14
446.02	8461.04
446.21	8482.10
446.39	8571.04
446.58	8535.93
446.77	8690.41
446.95	8346.35
447.14	8580.40
447.32	8594.45
447.51	8489.12
447.69	8491.46
447.88	8641.26
448.06	8638.92
448.25	8545.30
448.43	8858.93
448.62	8498.49
448.80	8678.71
448.99	8760.63
449.17	8812.12
449.36	8767.65
449.54	8929.14
449.73	8999.36
449.91	8898.72
450.10	9109.36
450.28	9102.34
450.46	9074.26
450.65	9242.78
450.83	8833.18
451.02	9081.28
451.20	9186.60
451.39	9277.88
451.57	9135.11
451.76	9004.04
451.94	9401.93
452.13	9542.36
452.31	9350.44
452.49	9415.98
452.68	9497.89
452.86	9355.12
453.05	9572.79
453.23	9575.13
453.42	9397.25
453.60	9479.17
453.78	9596.20
453.97	9586.83
454.15	9774.08
454.34	9561.09
454.52	9937.91
454.70	9813.87
454.89	9909.83
455.07	9776.42
455.26	9914.51
455.44	10211.76
455.62	9966.00
455.81	10005.79
455.99	10190.69
456.17	10237.50
456.36	10394.32
456.54	10527.73
456.73	10373.25
456.91	10614.33
457.09	10284.31
457.28	10649.44
457.46	10328.78
457.64	10546.45
457.83	10551.14
458.01	10399.00
458.19	10834.34
458.38	10675.18
458.56	10857.75
458.74	10572.20
458.93	10796.89
459.11	10661.14
459.29	10803.91
459.48	11052.01
459.66	10843.70
459.84	10888.17
460.03	11269.68
460.21	10963.07
460.39	10932.64
460.57	11143.29
460.76	11321.17
460.94	11449.90
461.12	11311.81
461.31	11222.87
461.49	11122.23
461.67	11061.37
461.85	11599.70
462.04	11295.43
462.22	11620.76
462.40	11789.28
462.59	11382.03
462.77	11583.31
462.95	11929.71
463.13	11688.64
463.32	11761.19
463.50	11932.05
463.68	12002.27
463.86	11990.56
464.05	11803.32
464.23	12088.87
464.41	12168.45
464.59	11740.13
464.78	12238.66
464.96	12135.68
465.14	12093.55
465.32	12271.43
465.50	12348.67
465.69	12339.30
465.87	12205.89
466.05	12208.23
466.23	12229.30
466.41	12154.40
466.60	12360.37
466.78	12133.34
466.96	12463.35
467.14	12542.93
467.32	12549.95
467.51	12662.30
467.69	12224.62
467.87	12737.20
468.05	12648.26
468.23	12594.42
468.41	12503.14
468.60	12947.84
468.78	12666.98
468.96	12549.95
469.14	13029.76
469.32	13069.55
469.50	12564.00
469.69	12950.18
469.87	13149.13
470.05	13240.41
470.23	13191.26
470.41	13128.06
470.59	13673.41
470.77	13177.22
470.95	13439.36
471.14	13532.98
471.32	13252.11
471.50	13893.42
471.68	13769.37
471.86	13736.60
472.04	13944.91
472.22	13930.87
472.40	13928.53
472.58	13788.10
472.77	14185.99
472.95	14136.84
473.13	14682.18
473.31	14181.31
473.49	14298.33
473.67	14284.29
473.85	14366.21
474.03	14637.71
474.21	14733.67
474.39	14824.95
474.57	14944.32
474.75	14834.32
474.93	15201.78
475.12	14946.66
475.30	15419.45
475.48	15323.49
475.66	15445.20
475.84	15293.06
476.02	15857.13
476.20	15484.98
476.38	16032.67
476.56	16035.01
476.74	16095.86
476.92	15861.81
477.10	15946.07
477.28	16189.49
477.46	16269.06
477.64	16184.80
477.82	16734.83
478.00	17139.74
478.18	16929.09
478.36	16982.93
478.54	17310.60
478.72	17249.75
478.90	17727.22
479.08	17839.56
479.26	17757.64
479.44	17940.21
479.62	17963.61
479.80	18127.45
479.98	18146.17
480.16	18731.31
480.34	18733.65
480.52	18696.20
480.70	18923.23
480.88	18654.07
481.06	18719.60
481.24	19213.46
481.41	19337.51
481.59	19613.69
481.77	19529.43
481.95	19627.73
482.13	19880.51
482.31	19873.49
482.49	20713.74
482.67	20348.62
482.85	20589.69
483.03	20634.16
483.21	20947.79
483.39	21032.05
483.57	21055.46
483.74	21586.76
483.92	21535.27
484.10	21514.20
484.28	22047.85
484.46	22202.32
484.64	22490.21
484.82	22040.82
485.00	22560.42
485.18	22707.88
485.35	22939.59
485.53	22801.50
485.71	23225.14
485.89	23653.45
486.07	23480.25
486.25	23756.44
486.43	23873.46
486.61	23723.67
486.78	24364.98
486.96	24517.11
487.14	24936.07
487.32	24989.90
487.50	24755.85
487.68	24943.09
487.85	25326.94
488.03	25984.63
488.21	26195.28
488.39	26108.68
488.57	26632.96
488.75	26494.86
488.92	26899.78
489.10	27147.87
489.28	27126.81
489.46	27475.55
489.64	27505.98
489.81	27491.93
489.99	27967.06
490.17	28112.17
490.35	28292.40
490.53	28676.24
490.70	28980.51
490.88	28591.98
491.06	29120.95
491.24	29383.09
491.41	29380.74
491.59	29741.19
491.77	29549.26
491.95	29954.18
492.13	30202.27
492.30	30506.54
492.48	30298.23
492.66	30499.52
492.84	30632.93
493.01	30831.88
493.19	31002.74
493.37	31239.13
493.54	31512.97
493.72	32030.23
493.90	31917.89
494.08	32098.11
494.25	32121.51
494.43	32449.19
494.61	32591.96
494.79	32744.09
494.96	32919.63
495.14	33284.76
495.32	33722.44
495.49	33530.51
495.67	33331.57
495.85	33907.34
496.02	33673.29
496.20	34204.59
496.38	34532.26
496.55	34747.59
496.73	34932.50
496.91	34583.76
497.09	35297.62
497.26	35496.56
497.44	35531.67
497.62	35445.07
497.79	36020.84
497.97	36039.57
498.14	35967.01
498.32	36542.78
498.50	36521.72
498.67	36935.99
498.85	36919.61
499.03	37013.23
499.20	37146.64
499.38	36886.84
499.56	37518.79
499.73	37413.46
499.91	37537.51
500.08	38251.38
500.26	37785.61
500.44	38036.05
500.61	38260.74
500.79	38490.11
500.97	38590.75
501.14	38976.94
501.32	39124.40
501.49	38927.79
501.67	38749.91
501.84	38986.30
502.02	38925.45
502.20	39115.03
502.37	39470.79
502.55	39292.91
502.72	39732.93
502.90	39880.39
503.07	40058.27
503.25	40229.13
503.43	40135.51
503.60	40369.56
503.78	40790.86
503.95	40428.07
504.13	41139.60
504.30	40554.46
504.48	40807.24
504.65	41486.00
504.83	41518.76
505.01	41909.63
505.18	41251.94
505.36	42038.36
505.53	41553.87
505.71	41514.08
505.88	42466.68
506.06	42174.11
506.23	42113.26
506.41	42363.70
506.58	42326.25
506.76	42637.54
506.93	43021.39
507.11	42412.85
507.28	42927.77
507.46	43086.92
507.63	43533.96
507.81	43730.57
507.98	43770.36
508.16	43927.17
508.33	43714.19
508.50	43880.36
508.68	44147.18
508.85	43952.92
509.03	44135.48
509.20	44233.78
509.38	44746.36
509.55	44498.26
509.73	44985.10
509.90	45282.34
510.08	45361.92
510.25	45207.45
510.42	45120.85
510.60	45570.23
510.77	45532.78
510.95	46092.17
511.12	45621.72
511.30	45551.51
511.47	46167.07
511.64	45521.08
511.82	46403.46
511.99	45958.76
512.17	46204.52
512.34	46759.22
512.51	46770.93
512.69	46808.37
512.86	46380.06
513.04	47405.21
513.21	47175.84
513.38	47309.25
513.56	47075.19
513.73	46925.40
513.90	47456.70
514.08	47433.30
514.25	47875.66
514.43	47962.26
514.60	47861.61
514.77	47606.50
514.95	48259.51
515.12	48062.90
515.29	47838.21
515.47	48594.20
515.64	48477.18
515.81	48582.50
515.99	48678.46
516.16	48741.66
516.33	48470.15
516.51	49167.63
516.68	48947.62
516.85	48858.68
517.03	49174.66
517.20	49272.96
517.37	49191.04
517.54	49322.11
517.72	49270.62
517.89	49399.35
518.06	49329.13
518.24	49804.26
518.41	49619.36
518.58	49778.51
518.75	49645.10
518.93	49895.54
519.10	50115.55
519.27	50113.21
519.45	49923.63
519.62	50167.04
519.79	50473.65
519.96	50452.59
520.14	50663.24
520.31	50670.26
520.48	50873.88
520.65	51107.94
520.83	51107.94
521.00	51004.95
521.17	50548.55
521.34	50862.18
521.52	51131.34
521.69	51117.30
521.86	51246.03
522.03	51620.52
522.20	51800.74
522.38	51709.46
522.55	51770.31
522.72	51611.15
522.89	51599.45
523.07	52261.82
523.24	51639.24
523.41	51969.26
523.58	51767.97
523.75	52299.27
523.92	52229.05
524.10	52346.08
524.27	52048.83
524.44	52317.99
524.61	52458.43
524.78	52598.86
524.96	52722.91
525.13	52523.96
525.30	52783.76
525.47	52753.33
525.64	52959.30
525.81	53169.95
525.98	53315.06
526.16	52858.66
526.33	52968.66
526.50	53514.01
526.67	53015.47
526.84	53076.33
527.01	52956.96
527.18	52987.39
527.36	53165.27
527.53	53235.48
527.70	53549.12
527.87	53481.24
528.04	53544.44
528.21	53715.29
528.38	53619.33
528.55	53806.58
528.72	53443.79
528.89	54007.86
529.07	53666.14
529.24	53757.42
529.41	53986.80
529.58	53794.87
529.75	53698.91
529.92	54082.76
530.09	54099.14
530.26	54307.45
530.43	54253.62
530.60	54188.08
530.77	54248.94
530.94	54337.88
531.11	54520.44
531.28	54321.49
531.46	54326.17
531.63	54429.16
531.80	54480.65
531.97	54621.08
532.14	54621.08
532.31	54784.92
532.48	55070.46
532.65	54803.64
532.82	54583.63
532.99	54951.10
533.16	54663.21
533.33	55257.71
533.50	55196.85
533.67	54934.71
533.84	54958.12
534.01	55201.53
534.18	55178.13
534.35	55503.46
534.52	55166.43
534.69	55529.21
534.86	55316.22
535.03	55463.67
535.20	55604.11
535.37	55697.73
535.54	55737.52
535.71	55484.74
535.88	55732.84
536.05	55721.13
536.22	55962.21
536.38	55924.76
536.55	56046.47
536.72	55842.84
536.89	56002.00
537.06	56016.04
537.23	56004.34
537.40	55756.24
537.57	55913.06
537.74	56144.77
537.91	56254.78
538.08	56357.76
538.25	55847.52
538.42	56355.42
538.59	56266.48
538.75	56121.37
538.92	56367.12
539.09	56350.74
539.26	56491.17
539.43	56479.47
539.60	56498.19
539.77	56540.32
539.94	56722.88
540.11	56722.88
540.28	56715.86
540.44	56664.37
540.61	56601.18
540.78	56640.96
540.95	56638.62
541.12	56865.66
541.29	56706.50
541.46	56931.19
541.62	56713.52
541.79	56966.30
541.96	56760.33
542.13	56678.41
542.30	56956.94
542.47	57130.14
542.63	57088.01
542.80	57233.12
542.97	57455.47
543.14	57464.83
543.31	57406.32
543.48	57607.61
543.64	57654.42
543.81	57708.25
543.98	57778.46
544.15	57792.51
544.32	57682.50
544.48	57829.96
544.65	57595.90
544.82	57682.50
544.99	57682.50
545.16	57698.89
545.32	57762.08
545.49	57970.39
545.66	57701.23
545.83	57804.21
546.00	58017.20
546.16	57996.13
546.33	57958.69
546.50	57759.74
546.67	58099.12
546.83	57869.75
547.00	58014.86
547.17	57975.07
547.34	57998.48
547.50	58241.89
547.67	58342.53
547.84	58408.07
548.00	58525.10
548.17	58457.22
548.34	58232.53
548.51	58588.29
548.67	58361.26
548.84	58326.15
549.01	58611.70
549.18	58578.93
549.34	58492.33
549.51	58607.01
549.68	58543.82
549.84	58536.80
550.01	58625.74
550.18	58489.99
550.34	58590.63
550.51	58630.42
550.68	58869.15
550.84	58482.97
551.01	58780.21
551.18	58679.57
551.34	58801.28
551.51	58812.98
551.68	58726.38
551.84	58670.21
552.01	58822.34
552.18	59091.51
552.34	58871.49
552.51	58894.90
552.68	58768.51
552.84	59044.69
553.01	59269.39
553.18	59215.55
553.34	59201.51
553.51	59056.40
553.67	58934.69
553.84	59309.18
554.01	59168.74
554.17	59164.06
554.34	59145.34
554.51	59363.01
554.67	59480.03
554.84	58904.26
555.00	59213.21
555.17	59077.46
555.33	59241.30
555.50	59288.11
555.67	59255.34
555.83	59274.07
556.00	59267.05
556.16	59550.25
556.33	59475.35
556.50	59456.63
556.66	59590.04
556.83	59320.88
556.99	59779.62
557.16	59697.70
557.32	59704.73
557.49	59877.93
557.65	59608.76
557.82	59580.68
557.98	59751.54
558.15	59533.87
558.32	59725.79
558.48	59405.14
558.65	59533.87
558.81	59856.86
558.98	59812.39
559.14	59891.97
559.31	59987.93
559.47	59884.95
559.64	60053.47
559.80	60020.70
559.97	59999.63
560.13	59868.56
560.30	59983.25
560.46	59943.46
560.63	60182.19
560.79	60111.98
560.96	60198.58
561.12	60144.75
561.29	60025.38
561.45	60231.35
561.61	59735.15
561.78	60083.89
561.94	60039.42
562.11	59955.16
562.27	60130.70
562.44	60097.94
562.60	60420.93
562.77	60154.11
562.93	60095.60
563.10	60058.15
563.26	60177.51
563.42	60296.88
563.59	60205.60
563.75	60224.32
563.92	60355.39
564.08	60207.94
564.24	60299.22
564.41	60376.46
564.57	60500.51
564.74	60137.72
564.90	60502.85
565.07	60413.91
565.23	60207.94
565.39	60388.16
565.56	60449.02
565.72	60477.10
565.88	60404.55
566.05	60254.75
566.21	60397.52
566.38	60676.05
566.54	60523.91
566.70	60498.17
566.87	60561.36
567.03	60523.91
567.19	60725.20
567.36	60430.29
567.52	60537.96
567.68	60947.55
567.85	60584.77
568.01	60470.08
568.17	60734.56
568.34	60746.26
568.50	60687.75
568.66	60460.72
568.83	60563.70
568.99	60420.93
569.15	60814.14
569.32	60544.98
569.48	60629.24
569.64	60739.24
569.81	60687.75
569.97	60505.19
570.13	60746.26
570.30	60488.80
570.46	60636.26
570.62	60685.41
570.78	60797.76
570.95	60734.56
571.11	60907.76
571.27	60800.10
571.43	60846.91
571.60	61010.74
571.76	60678.39
571.92	60853.93
572.09	60912.44
572.25	60856.27
572.41	60860.95
572.57	60975.64
572.74	60966.27
572.90	60910.10
573.06	60963.93
573.22	61041.17
573.38	60760.31
573.55	60821.16
573.71	61137.13
573.87	61057.56
574.03	60692.43
574.20	61020.11
574.36	60629.24
574.52	60797.76
574.68	61020.11
574.84	61244.80
575.01	61052.87
575.17	60863.29
575.33	60781.37
575.49	61116.07
575.65	60933.51
575.82	60973.30
575.98	61052.87
576.14	61172.24
576.30	61165.22
576.46	61064.58
576.62	60907.76
576.79	61052.87
576.95	60917.12
577.11	61029.47
577.27	61160.54
577.43	60940.53
577.59	60933.51
577.75	60919.46
577.92	61050.53
578.08	61017.77
578.24	61165.22
578.40	61041.17
578.56	61307.99
578.72	60893.72
578.88	61139.47
579.04	61073.94
579.21	61010.74
579.37	61139.47
579.53	61249.48
579.69	60928.83
579.85	60872.65
580.01	61230.75
580.17	61052.87
580.33	61078.62
580.49	61207.35
580.65	61277.57
580.82	60968.61
580.98	60924.14
581.14	61066.92
581.30	61277.57
581.46	61069.26
581.62	61160.54
581.78	61097.34
581.94	61083.30
582.10	61261.18
582.26	61207.35
582.42	61165.22
582.58	61226.07
582.74	61200.33
582.90	60985.00
583.06	61066.92
583.22	60947.55
583.38	61240.12
583.54	61307.99
583.70	61319.70
583.86	61247.14
584.02	61111.39
584.18	61134.79
584.34	61179.26
584.50	61296.29
584.66	61066.92
584.82	61038.83
584.98	61235.44
585.14	61244.80
585.30	61015.43
585.46	61282.25
585.62	61160.54
585.78	61394.59
585.94	61120.75
586.10	61181.60
586.26	61165.22
586.42	61300.97
586.58	61469.49
586.74	61118.41
586.90	61125.43
587.06	61123.09
587.22	61322.04
587.38	61338.42
587.54	61542.05
587.70	61520.98
587.86	61483.53
588.02	61272.88
588.18	61389.91
588.34	61057.56
588.49	61041.17
