SpectraSuite Data File
++++++++++++++++++++++++++++++++++++
Date: Fri Oct 25 11:22:39 EDT 2013
User: price-jones
Dark Spectrum Present: No
Reference Spectrum Present: No
Number of Sampled Component Spectra: 1
Spectrometers: USB2+H05261
Integration Time (usec): 100000 (USB2+H05261)
Spectra Averaged: 1 (USB2+H05261)
Boxcar Smoothing: 0 (USB2+H05261)
Correct for Electrical Dark: No (USB2+H05261)
Strobe/Lamp Enabled: No (USB2+H05261)
Correct for Detector Non-linearity: No (USB2+H05261)
Correct for Stray Light: No (USB2+H05261)
Number of Pixels in Processed Spectrum: 2048
>>>>>Begin Processed Spectral Data<<<<<
365.73	238.73
365.92	238.73
366.12	238.73
366.32	128.73
366.52	124.05
366.72	131.07
366.91	133.41
367.11	105.32
367.31	145.11
367.51	95.96
367.70	131.07
367.90	152.13
368.10	196.60
368.30	124.05
368.49	86.60
368.69	201.29
368.89	182.56
369.09	166.18
369.28	124.05
369.48	114.69
369.68	245.76
369.87	196.60
370.07	147.45
370.27	224.69
370.47	299.59
370.66	528.96
370.86	606.20
371.06	678.76
371.25	739.61
371.45	606.20
371.65	678.76
371.84	571.09
372.04	711.52
372.24	655.35
372.44	620.24
372.63	732.59
372.83	760.67
373.03	767.70
373.22	758.33
373.42	849.61
373.62	835.57
373.81	798.12
374.01	866.00
374.21	816.85
374.40	819.19
374.60	884.72
374.79	809.83
374.99	826.21
375.19	842.59
375.38	800.46
375.58	830.89
375.78	802.80
375.97	777.06
376.17	931.53
376.37	748.97
376.56	823.87
376.76	861.32
376.95	854.30
377.15	917.49
377.35	866.00
377.54	842.59
377.74	938.55
377.93	887.06
378.13	858.98
378.33	884.72
378.52	929.19
378.72	898.77
378.91	966.64
379.11	847.27
379.31	861.32
379.50	987.71
379.70	1001.75
379.89	884.72
380.09	968.98
380.28	1006.43
380.48	936.21
380.68	943.24
380.87	957.28
381.07	938.55
381.26	1046.22
381.46	971.32
381.65	957.28
381.85	990.05
382.04	987.71
382.24	1006.43
382.43	952.60
382.63	1015.79
382.83	924.51
383.02	1107.07
383.22	1109.41
383.41	1102.39
383.61	1088.35
383.80	1039.20
384.00	1015.79
384.19	1132.82
384.39	1156.22
384.58	1144.52
384.78	1109.41
384.97	1125.80
385.17	1060.26
385.36	1249.85
385.56	1179.63
385.75	1238.14
385.95	1221.76
386.14	1224.10
386.34	1170.27
386.53	1242.82
386.72	1177.29
386.92	1198.35
387.11	1240.48
387.31	1231.12
387.50	1254.53
387.70	1219.42
387.89	1273.25
388.09	1313.04
388.28	1420.71
388.48	1242.82
388.67	1254.53
388.86	1327.08
389.06	1308.36
389.25	1341.13
389.45	1385.60
389.64	1291.98
389.84	1331.76
390.03	1423.05
390.22	1425.39
390.42	1383.26
390.61	1394.96
390.81	1401.98
391.00	1434.75
391.19	1369.21
391.39	1348.15
391.58	1392.62
391.78	1497.94
391.97	1533.05
392.16	1493.26
392.36	1509.65
392.55	1460.49
392.75	1441.77
392.94	1465.18
393.13	1509.65
393.33	1511.99
393.52	1558.80
393.71	1488.58
393.91	1511.99
394.10	1636.03
394.29	1603.27
394.49	1540.07
394.68	1584.54
394.88	1654.76
395.07	1654.76
395.26	1724.97
395.46	1636.03
395.65	1703.91
395.84	1657.10
396.04	1722.63
396.23	1774.13
396.42	1755.40
396.62	1813.92
396.81	1774.13
397.00	1816.26
397.19	1776.47
397.39	1785.83
397.58	1783.49
397.77	1846.68
397.97	1816.26
398.16	1811.57
398.35	1860.73
398.55	1867.75
398.74	1963.71
398.93	1902.86
399.12	1872.43
399.32	1839.66
399.51	1970.73
399.70	1858.39
399.90	1982.43
400.09	2064.35
400.28	2094.78
400.47	1984.77
400.67	1909.88
400.86	2071.37
401.05	2087.76
401.24	2064.35
401.44	2148.61
401.63	2127.55
401.82	2207.13
402.01	2062.01
402.21	2157.97
402.40	2146.27
402.59	2251.60
402.78	2244.57
402.97	2312.45
403.17	2181.38
403.36	2230.53
403.55	2239.89
403.74	2345.22
403.93	2307.77
404.13	2307.77
404.32	2382.67
404.51	2347.56
404.70	2314.79
404.89	2263.30
405.09	2544.16
405.28	2464.58
405.47	2366.28
405.66	2588.63
405.85	2619.06
406.05	2633.10
406.24	2583.95
406.43	2534.80
406.62	2581.61
406.81	2614.38
407.00	2609.70
407.20	2537.14
407.39	2712.68
407.58	2654.17
407.77	2736.09
407.96	2808.64
408.15	2733.75
408.34	2815.66
408.54	2820.35
408.73	2815.66
408.92	2834.39
409.11	2890.56
409.30	2822.69
409.49	2935.03
409.68	2843.75
409.87	2944.39
410.07	3035.67
410.26	3047.38
410.45	2965.46
410.64	3124.62
410.83	3066.10
411.02	3145.68
411.21	3272.07
411.40	3269.73
411.59	3077.80
411.78	3358.67
411.98	3042.70
412.17	3267.39
412.36	3218.24
412.55	3438.25
412.74	3386.76
412.93	3452.29
413.12	3384.41
413.31	3517.83
413.50	3543.57
413.69	3527.19
413.88	3693.37
414.07	3557.61
414.26	3714.43
414.45	3576.34
414.64	3583.36
414.83	3805.71
415.02	3957.85
415.22	3864.22
415.41	3878.27
415.60	3819.75
415.79	3918.06
415.98	3983.59
416.17	4032.74
416.36	3960.19
416.55	3904.01
416.74	4046.79
416.93	4004.66
417.12	4133.39
417.31	4173.18
417.50	4177.86
417.69	4294.88
417.88	4360.42
418.07	4196.58
418.26	4266.80
418.45	4334.67
418.64	4470.42
418.83	4339.35
419.02	4348.72
419.21	4557.02
419.39	4538.30
419.58	4531.28
419.77	4407.23
419.96	4613.20
420.15	4601.49
420.34	4681.07
420.53	4575.75
420.72	4702.14
420.91	4725.54
421.10	4894.06
421.29	4816.82
421.48	4638.94
421.67	4819.16
421.86	4828.53
422.05	4793.42
422.24	4812.14
422.43	4903.42
422.61	4950.23
422.80	5020.45
422.99	4828.53
423.18	4875.34
423.37	5036.83
423.56	5062.58
423.75	4807.46
423.94	4919.81
424.13	4645.96
424.32	4762.99
424.50	5039.17
424.69	5097.69
424.88	5055.56
425.07	4985.34
425.26	5008.75
425.45	4968.96
425.64	5116.41
425.83	5018.11
426.01	5191.31
426.20	5142.16
426.39	5121.09
426.58	5153.86
426.77	5057.90
426.96	5158.54
427.15	5142.16
427.33	5282.59
427.52	5081.30
427.71	5261.52
427.90	5217.05
428.09	5284.93
428.28	5418.34
428.46	5483.88
428.65	5479.19
428.84	5472.17
429.03	5500.26
429.22	5369.19
429.40	5460.47
429.59	5516.64
429.78	5273.23
429.97	5376.21
430.16	5378.55
430.34	5645.37
430.53	5724.95
430.72	5652.39
430.91	5654.73
431.10	5577.50
431.28	5549.41
431.47	5923.90
431.66	5743.67
431.85	5893.47
432.03	5888.79
432.22	6090.07
432.41	5877.09
432.60	5926.24
432.79	5963.68
432.97	5982.41
433.16	6059.65
433.35	6019.86
433.54	6249.23
433.72	6111.14
433.91	6239.87
434.10	6125.18
434.28	6190.72
434.47	6076.03
434.66	6209.44
434.85	6143.91
435.03	6289.02
435.22	6342.85
435.41	6590.95
435.59	6499.67
435.78	6583.93
435.97	6539.46
436.16	6375.62
436.34	6427.11
436.53	6633.08
436.72	6537.12
436.90	6509.03
437.09	6612.01
437.28	6630.74
437.46	6691.59
437.65	6740.74
437.84	6729.04
438.02	6850.75
438.21	6958.41
438.40	6803.94
438.58	6878.83
438.77	7059.06
438.96	6953.73
439.14	6986.50
439.33	7185.44
439.52	7318.86
439.70	7087.14
439.89	7433.54
440.08	7513.12
440.26	7456.95
440.45	7349.28
440.63	7548.23
440.82	7620.78
441.01	7480.35
441.19	7541.21
441.38	7641.85
441.57	7948.46
441.75	7854.84
441.94	8060.80
442.12	7843.14
442.31	8002.29
442.50	8065.49
442.68	7803.35
442.87	8203.58
443.05	8166.13
443.24	8339.33
443.43	8358.05
443.61	8142.72
443.80	8636.58
443.98	8065.49
444.17	7864.20
444.35	8290.18
444.54	8552.32
444.73	8409.54
444.91	8301.88
445.10	8512.53
445.28	8348.69
445.47	8276.13
445.65	8566.36
445.84	8500.83
446.02	8374.44
446.21	8477.42
446.39	8667.00
446.58	8655.30
446.77	8489.12
446.95	8257.41
447.14	8489.12
447.32	8730.20
447.51	8655.30
447.69	8521.89
447.88	8549.98
448.06	8606.15
448.25	8463.38
448.43	8793.39
448.62	8606.15
448.80	8587.43
448.99	8730.20
449.17	8772.33
449.36	8667.00
449.54	8690.41
449.73	9008.72
449.91	9170.22
450.10	8840.20
450.28	9188.94
450.46	9198.31
450.65	9102.34
450.83	9165.54
451.02	9057.87
451.20	9591.52
451.39	9392.57
451.57	9432.36
451.76	9125.75
451.94	9231.07
452.13	9441.72
452.31	9460.45
452.49	9284.91
452.68	9202.99
452.86	9322.35
453.05	9500.23
453.23	9591.52
453.42	9312.99
453.60	9362.14
453.78	9795.14
453.97	9423.00
454.15	9652.37
454.34	9579.81
454.52	9738.97
454.70	9982.38
454.89	9863.02
455.07	9731.95
455.26	9888.76
455.44	9905.15
455.62	9914.51
455.81	10090.05
455.99	10174.31
456.17	9980.04
456.36	10113.45
456.54	10178.99
456.73	10174.31
456.91	10710.29
457.09	10551.14
457.28	10520.71
457.46	10422.41
457.64	10684.55
457.83	10354.53
458.01	10541.77
458.19	10939.66
458.38	10679.86
458.56	10808.59
458.74	10597.95
458.93	10946.69
459.11	10656.46
459.29	10874.13
459.48	11005.20
459.66	10946.69
459.84	10911.58
460.03	11176.06
460.21	11117.54
460.39	10932.64
460.57	11152.65
460.76	11166.70
460.94	11272.02
461.12	11222.87
461.31	11201.80
461.49	11147.97
461.67	11339.90
461.85	11468.62
462.04	11335.21
462.22	11871.20
462.40	11660.55
462.59	11468.62
462.77	11651.19
462.95	11735.45
463.13	12044.40
463.32	11817.36
463.50	11754.17
463.68	11815.02
463.86	11943.75
464.05	11562.25
464.23	11602.04
464.41	12116.95
464.59	11707.36
464.78	12325.26
464.96	12006.95
465.14	12035.03
465.32	12065.46
465.50	12173.13
465.69	12294.83
465.87	12168.45
466.05	12325.26
466.23	12217.60
466.41	12414.20
466.60	12566.34
466.78	12308.88
466.96	12339.30
467.14	12348.67
467.32	12451.65
467.51	12542.93
467.69	12037.38
467.87	12430.59
468.05	12690.38
468.23	12400.16
468.41	12601.44
468.60	12765.28
468.78	12994.65
468.96	12624.85
469.14	13018.06
469.32	13135.09
469.50	12615.49
469.69	13247.43
469.87	12980.61
470.05	13193.60
470.23	13153.81
470.41	13266.16
470.59	13444.04
470.77	13240.41
470.95	13406.59
471.14	13563.40
471.32	12959.55
471.50	14052.58
471.68	13965.98
471.86	13568.09
472.04	13596.17
472.22	14080.66
472.40	13727.24
472.58	14099.39
472.77	14031.51
472.95	14155.56
473.13	14597.92
473.31	14113.43
473.49	14200.03
473.67	14359.19
473.85	14354.51
474.03	14714.95
474.21	14918.57
474.39	14941.98
474.57	14927.94
474.75	15019.22
474.93	15084.75
475.12	14972.41
475.30	15211.14
475.48	15145.61
475.66	15517.75
475.84	15335.19
476.02	15796.28
476.20	15627.76
476.38	15648.82
476.56	15903.94
476.74	16058.42
476.92	16152.04
477.10	15873.51
477.28	16407.16
477.46	16273.74
477.64	16376.73
477.82	16568.65
478.00	16821.43
478.18	16603.76
478.36	17039.10
478.54	17488.48
478.72	17249.75
478.90	17762.33
479.08	17589.13
479.26	18019.78
479.44	17900.42
479.62	18017.44
479.80	18279.58
479.98	18087.66
480.16	18721.95
480.34	18562.79
480.52	18743.01
480.70	18904.51
480.88	18679.82
481.06	18714.92
481.24	19183.03
481.41	19138.56
481.59	19510.71
481.77	19632.41
481.95	19847.74
482.13	19967.11
482.31	19822.00
482.49	20435.22
482.67	20304.15
482.85	20781.62
483.03	20814.38
483.21	21008.65
483.39	21050.78
483.57	21036.74
483.74	21263.77
483.92	21596.12
484.10	21348.03
484.28	21832.52
484.46	21869.97
484.64	22656.39
484.82	22272.54
485.00	22532.34
485.18	23178.33
485.35	23007.47
485.53	23255.56
485.71	23330.46
485.89	23597.28
486.07	23267.27
486.25	23583.24
486.43	23901.55
486.61	24135.60
486.78	24556.90
486.96	24482.00
487.14	24334.55
487.32	24711.38
487.50	24879.89
487.68	24959.47
487.85	25612.48
488.03	25656.95
488.21	25745.89
488.39	26216.34
488.57	26408.26
488.75	26291.24
488.92	26831.90
489.10	26993.40
489.28	26810.84
489.46	27323.41
489.64	27152.55
489.81	27777.48
489.99	27875.78
490.17	28177.71
490.35	28297.08
490.53	28636.45
490.70	28477.30
490.88	28306.44
491.06	28772.21
491.24	29083.50
491.41	29359.68
491.59	29397.13
491.77	29785.66
491.95	29919.07
492.13	29795.02
492.30	30412.92
492.48	30520.59
492.66	30483.14
492.84	30457.39
493.01	31030.82
493.19	30810.81
493.37	31187.64
493.54	31360.84
493.72	31796.18
493.90	31622.98
494.08	32196.41
494.25	32510.04
494.43	32666.86
494.61	32723.03
494.79	32528.77
494.96	32533.45
495.14	33127.94
495.32	33191.14
495.49	33689.67
495.67	33921.38
495.85	33921.38
496.02	33731.80
496.20	34316.93
496.38	34235.02
496.55	34611.84
496.73	35337.41
496.91	34668.02
497.09	34976.97
497.26	35526.99
497.44	35253.15
497.62	35473.16
497.79	35772.75
497.97	35868.71
498.14	36222.13
498.32	36631.72
498.50	36409.37
498.67	37015.57
498.85	36737.05
499.03	36971.10
499.20	37010.89
499.38	37095.15
499.56	37298.78
499.73	37184.09
499.91	37773.91
500.08	38073.49
500.26	37715.39
500.44	38192.86
500.61	38288.82
500.79	37691.99
500.97	38707.78
501.14	38639.90
501.32	39112.69
501.49	38808.42
501.67	38937.15
501.84	38967.58
502.02	38974.60
502.20	39262.49
502.37	39803.15
502.55	39543.35
502.72	39641.65
502.90	39938.90
503.07	39363.13
503.25	40467.86
503.43	40137.85
503.60	40535.74
503.78	40781.49
503.95	40395.31
504.13	40694.89
504.30	41074.06
504.48	40872.78
504.65	41228.54
504.83	41017.89
505.01	41691.96
505.18	41713.03
505.36	41778.56
505.53	41926.02
505.71	41890.91
505.88	42033.68
506.06	42029.00
506.23	42344.97
506.41	41808.99
506.58	42593.07
506.76	42511.15
506.93	42611.79
507.11	42792.01
507.28	43199.27
507.46	43007.34
507.63	43295.23
507.81	43753.97
507.98	43192.25
508.16	43466.09
508.33	43423.96
508.50	44128.46
508.68	44318.04
508.85	44095.69
509.03	44306.34
509.20	44694.87
509.38	44399.96
509.55	44226.76
509.73	45097.44
509.90	44741.68
510.08	45198.09
510.25	44786.15
510.42	44516.99
510.60	45268.30
510.77	45624.06
510.95	45825.35
511.12	45251.92
511.30	45673.21
511.47	45635.77
511.64	45984.51
511.82	46073.45
511.99	46267.71
512.17	46244.30
512.34	45951.74
512.51	47049.45
512.69	47054.13
512.86	46492.40
513.04	46909.02
513.21	46946.47
513.38	46759.22
513.56	47239.03
513.73	47447.34
513.90	47370.10
514.08	47213.29
514.25	47168.82
514.43	47739.91
514.60	47882.68
514.77	47367.76
514.95	47934.17
515.12	47763.31
515.29	47854.59
515.47	47929.49
515.64	48598.88
515.81	48399.94
515.99	48655.06
516.16	48949.96
516.33	49109.12
516.51	48985.07
516.68	48479.52
516.85	48868.05
517.03	49179.34
517.20	49478.92
517.37	49141.89
517.54	49134.87
517.72	49659.15
517.89	49570.21
518.06	49579.57
518.24	49736.38
518.41	49256.57
518.58	49811.28
518.75	49661.49
518.93	50225.56
519.10	49427.43
519.27	50190.45
519.45	50284.07
519.62	50073.42
519.79	50586.00
519.96	50518.12
520.14	50436.20
520.31	50309.82
520.48	50789.62
520.65	50590.68
520.83	51004.95
521.00	50953.46
521.17	51133.68
521.34	50700.68
521.52	50894.95
521.69	51587.75
521.86	51236.67
522.03	51470.72
522.20	51679.03
522.38	51419.23
522.55	51381.78
522.72	51571.36
522.89	51870.95
523.07	51880.31
523.24	52020.75
523.41	51936.49
523.58	51632.22
523.75	52025.43
523.92	51964.57
524.10	52446.72
524.27	52425.66
524.44	52523.96
524.61	52294.59
524.78	52154.16
524.96	52657.37
525.13	52559.07
525.30	52669.08
525.47	52584.82
525.64	52839.93
525.81	52952.28
525.98	53003.77
526.16	52903.13
526.33	53015.47
526.50	53095.05
526.67	52765.04
526.84	53359.53
527.01	53092.71
527.18	53249.53
527.36	53268.25
527.53	53270.59
527.70	53450.81
527.87	53752.74
528.04	53579.54
528.21	53687.21
528.38	53382.94
528.55	53727.00
528.72	53563.16
528.89	53659.12
529.07	53432.09
529.24	53401.66
529.41	54042.97
529.58	53989.14
529.75	54143.61
529.92	53860.41
530.09	54277.02
530.26	54384.69
530.43	54295.75
530.60	54073.40
530.77	54110.85
530.94	54405.75
531.11	54031.27
531.28	54372.99
531.46	54485.33
531.63	54436.18
531.80	54471.29
531.97	54684.28
532.14	54829.39
532.31	54827.05
532.48	54831.73
532.65	54674.91
532.82	54768.54
532.99	54827.05
533.16	54820.03
533.33	55009.61
533.50	55231.96
533.67	55180.47
533.84	54827.05
534.01	55206.22
534.18	55208.56
534.35	55400.48
534.52	55351.33
534.69	55440.27
534.86	55814.76
535.03	55365.37
535.20	55367.71
535.37	55456.65
535.54	55529.21
535.71	55348.99
535.88	55686.03
536.05	55554.96
536.22	55891.99
536.38	55894.33
536.55	55812.41
536.72	55917.74
536.89	55742.20
537.06	55751.56
537.23	56023.06
537.40	55842.84
537.57	56020.72
537.74	55861.57
537.91	56449.04
538.08	56048.81
538.25	56051.15
538.42	56072.21
538.59	56472.45
538.75	56109.66
538.92	56170.52
539.09	56432.66
539.26	56196.26
539.43	56224.35
539.60	56250.09
539.77	56516.92
539.94	56655.01
540.11	56762.67
540.28	56720.54
540.44	56427.98
540.61	56591.81
540.78	56470.11
540.95	56760.33
541.12	56690.12
541.29	56720.54
541.46	56722.88
541.62	56816.50
541.79	56835.23
541.96	56734.59
542.13	56704.16
542.30	57153.54
542.47	57172.27
542.63	57015.45
542.80	57298.65
542.97	57357.17
543.14	57368.87
543.31	57272.91
543.48	57387.60
543.64	57703.57
543.81	57544.41
543.98	57546.75
544.15	57504.62
544.32	57778.46
544.48	57757.40
544.65	57523.35
544.82	57638.03
544.99	57844.00
545.16	57708.25
545.32	57542.07
545.49	57862.72
545.66	57865.06
545.83	57893.15
546.00	58026.56
546.16	57968.05
546.33	57764.42
546.50	57748.04
546.67	57904.85
546.83	57581.86
547.00	58028.90
547.17	57790.17
547.34	58176.36
547.50	58202.10
547.67	58284.02
547.84	58188.06
548.00	58237.21
548.17	58494.67
548.34	58171.67
548.51	58576.59
548.67	58506.37
548.84	58389.34
549.01	58323.81
549.18	58417.43
549.34	58429.13
549.51	58379.98
549.68	58501.69
549.84	58410.41
550.01	58532.12
550.18	58372.96
550.34	58546.16
550.51	58597.65
550.68	58506.37
550.84	58553.18
551.01	58951.07
551.18	58733.40
551.34	58925.33
551.51	58782.55
551.68	58712.34
551.84	58686.59
552.01	58798.94
552.18	58869.15
552.34	58520.41
552.51	59075.12
552.68	58639.78
552.84	58894.90
553.01	59049.38
553.18	59065.76
553.34	58918.31
553.51	58901.92
553.67	59035.33
553.84	59344.28
554.01	59072.78
554.17	59248.32
554.34	59192.15
554.51	59201.51
554.67	59203.85
554.84	59222.58
555.00	59257.68
555.17	59236.62
555.33	59416.84
555.50	59355.99
555.67	59047.04
555.83	59192.15
556.00	59243.64
556.16	59604.08
556.33	59519.82
556.50	59379.39
556.66	59564.29
556.83	59416.84
556.99	59559.61
557.16	59721.11
557.32	59695.36
557.49	59887.29
557.65	59531.53
557.82	59608.76
557.98	59592.38
558.15	59718.77
558.32	59833.46
558.48	59402.80
558.65	59620.47
558.81	59772.60
558.98	59786.64
559.14	59877.93
559.31	59618.13
559.47	60076.87
559.64	60133.04
559.80	60051.12
559.97	60111.98
560.13	59875.58
560.30	59924.74
560.46	59938.78
560.63	60100.28
560.79	59901.33
560.96	60055.81
561.12	59971.55
561.29	60006.65
561.45	59994.95
561.61	60044.10
561.78	60163.47
561.94	60142.41
562.11	60039.42
562.27	60053.47
562.44	60310.92
562.60	60095.60
562.77	60140.07
562.93	59945.80
563.10	60313.26
563.26	60294.54
563.42	60257.09
563.59	60123.68
563.75	60200.92
563.92	60296.88
564.08	60177.51
564.24	60285.18
564.41	60306.24
564.57	60257.09
564.74	60364.76
564.90	60243.05
565.07	60360.08
565.23	60271.14
565.39	60488.80
565.56	60420.93
565.72	60329.65
565.88	60449.02
566.05	60313.26
566.21	60357.74
566.38	60568.38
566.54	60591.79
566.70	60652.64
566.87	60631.58
567.03	60266.45
567.19	60603.49
567.36	60437.31
567.52	60577.75
567.68	60701.79
567.85	60411.57
568.01	60577.75
568.17	60561.36
568.34	60659.66
568.50	60411.57
568.66	60467.74
568.83	60528.59
568.99	60432.63
569.15	60790.73
569.32	60413.91
569.48	60563.70
569.64	60790.73
569.81	60692.43
569.97	60556.68
570.13	60575.40
570.30	60418.59
570.46	60722.86
570.62	60774.35
570.78	60615.19
570.95	60669.03
571.11	60713.50
571.27	60795.42
571.43	60589.45
571.60	60678.39
571.76	60715.84
571.92	60907.76
572.09	60755.63
572.25	60867.97
572.41	60772.01
572.57	60804.78
572.74	61104.37
572.90	60753.29
573.06	60769.67
573.22	60814.14
573.38	60851.59
573.55	60821.16
573.71	60977.98
573.87	60664.35
574.03	60629.24
574.20	60769.67
574.36	60846.91
574.52	60870.31
574.68	60942.87
574.84	61029.47
575.01	60933.51
575.17	60907.76
575.33	60769.67
575.49	60924.14
575.65	60912.44
575.82	61076.28
575.98	60987.34
576.14	61069.26
576.30	61118.41
576.46	61069.26
576.62	60846.91
576.79	60961.59
576.95	60762.65
577.11	60907.76
577.27	60940.53
577.43	60959.25
577.59	60828.18
577.75	60837.54
577.92	60846.91
578.08	61111.39
578.24	61073.94
578.40	61261.18
578.56	61102.03
578.72	61097.34
578.88	61113.73
579.04	61155.86
579.21	61146.50
579.37	61319.70
579.53	61233.10
579.69	60966.27
579.85	61102.03
580.01	61247.14
580.17	60987.34
580.33	61284.59
580.49	61045.85
580.65	61151.18
580.82	61106.71
580.98	60896.06
581.14	60940.53
581.30	61181.60
581.46	60823.50
581.62	61193.31
581.78	61106.71
581.94	61179.26
582.10	61134.79
582.26	60870.31
582.42	61244.80
582.58	61080.96
582.74	61186.28
582.90	61207.35
583.06	61137.13
583.22	60980.32
583.38	61076.28
583.54	61034.15
583.70	61205.01
583.86	61228.41
584.02	61066.92
584.18	61293.95
584.34	61090.32
584.50	61275.22
584.66	61216.71
584.82	61010.74
584.98	61375.87
585.14	61361.82
585.30	61003.72
585.46	61116.07
585.62	61296.29
585.78	61160.54
585.94	61076.28
586.10	61132.45
586.26	61331.40
586.42	61254.16
586.58	61233.10
586.74	61212.03
586.90	61230.75
587.06	61279.91
587.22	61338.42
587.38	61242.46
587.54	61581.84
587.70	61474.17
587.86	61104.37
588.02	61296.29
588.18	61378.21
588.34	61326.72
588.49	61226.07
