SpectraSuite Data File
++++++++++++++++++++++++++++++++++++
Date: Fri Oct 25 10:47:09 EDT 2013
User: price-jones
Dark Spectrum Present: No
Reference Spectrum Present: No
Number of Sampled Component Spectra: 1
Spectrometers: USB2+H05261
Integration Time (usec): 100000 (USB2+H05261)
Spectra Averaged: 1 (USB2+H05261)
Boxcar Smoothing: 0 (USB2+H05261)
Correct for Electrical Dark: No (USB2+H05261)
Strobe/Lamp Enabled: No (USB2+H05261)
Correct for Detector Non-linearity: No (USB2+H05261)
Correct for Stray Light: No (USB2+H05261)
Number of Pixels in Processed Spectrum: 2048
>>>>>Begin Processed Spectral Data<<<<<
365.73	100.64
365.92	100.64
366.12	100.64
366.32	0.00
366.52	42.13
366.72	112.35
366.91	28.09
367.11	70.22
367.31	42.13
367.51	60.85
367.70	4.68
367.90	23.41
368.10	53.83
368.30	46.81
368.49	32.77
368.69	44.47
368.89	18.72
369.09	88.94
369.28	35.11
369.48	79.58
369.68	74.90
369.87	110.01
370.07	60.85
370.27	100.64
370.47	100.64
370.66	358.10
370.86	381.51
371.06	461.09
371.25	447.04
371.45	397.89
371.65	454.06
371.84	397.89
372.04	486.83
372.24	524.28
372.44	463.43
372.63	505.56
372.83	433.00
373.03	486.83
373.22	463.43
373.42	454.06
373.62	425.98
373.81	535.98
374.01	505.56
374.21	514.92
374.40	533.64
374.60	531.30
374.79	526.62
374.99	528.96
375.19	561.73
375.38	571.09
375.58	603.86
375.78	610.88
375.97	514.92
376.17	543.00
376.37	559.39
376.56	608.54
376.76	575.77
376.95	568.75
377.15	538.32
377.35	610.88
377.54	627.26
377.74	580.45
377.93	540.66
378.13	631.94
378.33	657.69
378.52	664.71
378.72	631.94
378.91	585.13
379.11	603.86
379.31	624.92
379.50	615.56
379.70	613.22
379.89	613.22
380.09	681.10
380.28	629.60
380.48	697.48
380.68	617.90
380.87	688.12
381.07	664.71
381.26	688.12
381.46	657.69
381.65	629.60
381.85	650.67
382.04	643.65
382.24	657.69
382.43	613.22
382.63	706.84
382.83	641.31
383.02	676.41
383.22	716.20
383.41	699.82
383.61	645.99
383.80	758.33
384.00	685.78
384.19	737.27
384.39	725.57
384.58	704.50
384.78	779.40
384.97	711.52
385.17	739.61
385.36	821.53
385.56	748.97
385.75	674.07
385.95	798.12
386.14	730.25
386.34	821.53
386.53	781.74
386.72	737.27
386.92	807.48
387.11	748.97
387.31	837.91
387.50	751.31
387.70	779.40
387.89	802.80
388.09	891.74
388.28	880.04
388.48	880.04
388.67	887.06
388.86	884.72
389.06	809.83
389.25	922.17
389.45	807.48
389.64	884.72
389.84	856.64
390.03	980.68
390.22	931.53
390.42	887.06
390.61	898.77
390.81	887.06
391.00	917.49
391.19	898.77
391.39	961.96
391.58	926.85
391.78	987.71
391.97	1029.84
392.16	954.94
392.36	1004.09
392.55	887.06
392.75	966.64
392.94	940.90
393.13	983.02
393.33	823.87
393.52	980.68
393.71	992.39
393.91	964.30
394.10	1025.15
394.29	1055.58
394.49	1071.97
394.68	1060.26
394.88	1128.14
395.07	1097.71
395.26	1149.20
395.46	1029.84
395.65	1111.75
395.84	1116.44
396.04	1132.82
396.23	1172.61
396.42	1102.39
396.62	1198.35
396.81	1097.71
397.00	1107.07
397.19	1121.12
397.39	1121.12
397.58	1200.69
397.77	1163.25
397.97	1277.93
398.16	1282.61
398.35	1224.10
398.55	1247.51
398.74	1275.59
398.93	1327.08
399.12	1306.02
399.32	1352.83
399.51	1242.82
399.70	1284.95
399.90	1334.11
400.09	1413.68
400.28	1516.67
400.47	1462.83
400.67	1385.60
400.86	1310.70
401.05	1413.68
401.24	1451.13
401.44	1507.30
401.63	1446.45
401.82	1504.96
402.01	1434.75
402.21	1455.81
402.40	1469.86
402.59	1472.20
402.78	1481.56
402.97	1439.43
403.17	1568.16
403.36	1582.20
403.55	1549.43
403.74	1617.31
403.93	1652.42
404.13	1572.84
404.32	1568.16
404.51	1715.61
404.70	1633.69
404.89	1636.03
405.09	1694.55
405.28	1680.50
405.47	1692.21
405.66	1692.21
405.85	1748.38
406.05	1682.85
406.24	1734.34
406.43	1792.85
406.62	1818.60
406.81	1870.09
407.00	1734.34
407.20	1792.85
407.39	1834.98
407.58	1816.26
407.77	1879.45
407.96	1891.15
408.15	1893.49
408.34	1820.94
408.54	1834.98
408.73	1935.62
408.92	2031.58
409.11	2010.52
409.30	2054.99
409.49	1980.09
409.68	1996.48
409.87	2012.86
410.07	2057.33
410.26	1980.09
410.45	2094.78
410.64	2099.46
410.83	2066.69
411.02	2186.06
411.21	2216.49
411.40	2183.72
411.59	2188.40
411.78	2263.30
411.98	2263.30
412.17	2263.30
412.36	2258.62
412.55	2204.78
412.74	2298.41
412.93	2499.69
413.12	2387.35
413.31	2443.52
413.50	2429.48
413.69	2466.92
413.88	2612.04
414.07	2427.14
414.26	2614.38
414.45	2532.46
414.64	2539.48
414.83	2609.70
415.02	2722.04
415.22	2534.80
415.41	2761.83
415.60	2724.38
415.79	2747.79
415.98	2909.29
416.17	2813.32
416.36	2726.72
416.55	2846.09
416.74	2803.96
416.93	2902.26
417.12	2822.69
417.31	2904.60
417.50	2850.77
417.69	3054.40
417.88	3026.31
418.07	3019.29
418.26	3063.76
418.45	3098.87
418.64	3173.77
418.83	3077.80
419.02	3101.21
419.21	3180.79
419.39	3218.24
419.58	3122.27
419.77	3178.45
419.96	3229.94
420.15	3171.43
420.34	3162.06
420.53	3325.90
420.72	3307.18
420.91	3300.16
421.10	3337.60
421.29	3375.05
421.48	3466.33
421.67	3293.13
421.86	3307.18
422.05	3414.84
422.24	3314.20
422.43	3363.35
422.61	3382.07
422.80	3419.52
422.99	3522.51
423.18	3463.99
423.37	3431.23
423.56	3356.33
423.75	3550.59
423.94	3361.01
424.13	3328.24
424.32	3386.76
424.50	3503.78
424.69	3459.31
424.88	3531.87
425.07	3419.52
425.26	3349.31
425.45	3463.99
425.64	3492.08
425.83	3482.72
426.01	3513.14
426.20	3541.23
426.39	3440.59
426.58	3492.08
426.77	3543.57
426.96	3475.70
427.15	3574.00
427.33	3686.34
427.52	3609.11
427.71	3585.70
427.90	3641.87
428.09	3648.90
428.28	3733.15
428.46	3581.02
428.65	3571.66
428.84	3749.54
429.03	3700.39
429.22	3583.36
429.40	3772.94
429.59	3728.47
429.78	3566.98
429.97	3726.13
430.16	3545.91
430.34	3761.24
430.53	3784.65
430.72	3866.56
430.91	3789.33
431.10	3887.63
431.28	4032.74
431.47	4070.19
431.66	4086.58
431.85	3882.95
432.03	3995.29
432.22	4292.54
432.41	4091.26
432.60	4255.09
432.79	4297.22
432.97	4264.46
433.16	4072.53
433.35	4077.21
433.54	4278.50
433.72	4170.83
433.91	4159.13
434.10	4219.99
434.28	4280.84
434.47	4315.95
434.66	4219.99
434.85	4397.87
435.03	4425.95
435.22	4409.57
435.41	4472.76
435.59	4564.04
435.78	4456.38
435.97	4472.76
436.16	4510.21
436.34	4571.07
436.53	4531.28
436.72	4676.39
436.90	4477.44
437.09	4617.88
437.28	4432.97
437.46	4657.67
437.65	4660.01
437.84	4629.58
438.02	4641.28
438.21	4540.64
438.40	4582.77
438.58	4777.03
438.77	4746.61
438.96	4830.87
439.14	4961.94
439.33	4997.04
439.52	4994.70
439.70	4940.87
439.89	5074.28
440.08	4924.49
440.26	4990.02
440.45	5132.79
440.63	5146.84
440.82	5369.19
441.01	5310.68
441.19	5085.98
441.38	5455.79
441.57	5437.06
441.75	5387.91
441.94	5535.37
442.12	5434.72
442.31	5547.07
442.50	5572.82
442.68	5493.24
442.87	5448.77
443.05	5596.22
443.24	5666.44
443.43	5605.58
443.61	5682.82
443.80	5865.38
443.98	5589.20
444.17	5579.84
444.35	5518.98
444.54	5666.44
444.73	5757.72
444.91	5652.39
445.10	5703.89
445.28	5696.86
445.47	5767.08
445.65	5631.33
445.84	5832.62
446.02	5746.02
446.21	5799.85
446.39	5813.89
446.58	5867.72
446.77	5856.02
446.95	5621.97
447.14	5909.85
447.32	6031.56
447.51	5734.31
447.69	5905.17
447.88	5776.44
448.06	5893.47
448.25	5795.17
448.43	5809.21
448.62	5954.32
448.80	5802.19
448.99	6019.86
449.17	6036.24
449.36	5984.75
449.54	5996.45
449.73	6134.54
449.91	6279.66
450.10	6263.27
450.28	6317.11
450.46	6214.12
450.65	6307.74
450.83	6289.02
451.02	6289.02
451.20	6270.30
451.39	6490.31
451.57	6340.51
451.76	6331.15
451.94	6352.21
452.13	6459.88
452.31	6438.81
452.49	6392.00
452.68	6450.52
452.86	6408.39
453.05	6516.05
453.23	6345.19
453.42	6448.18
453.60	6476.26
453.78	6516.05
453.97	6572.22
454.15	6539.46
454.34	6583.93
454.52	6633.08
454.70	6562.86
454.89	6722.02
455.07	6754.79
455.26	6792.23
455.44	6787.55
455.62	6778.19
455.81	6942.03
455.99	6803.94
456.17	6850.75
456.36	6953.73
456.54	6899.90
456.73	7061.40
456.91	7033.31
457.09	7117.57
457.28	7314.17
457.46	7030.97
457.64	7070.76
457.83	7215.87
458.01	7021.61
458.19	7236.94
458.38	7297.79
458.56	7316.51
458.74	7358.64
458.93	7171.40
459.11	7323.54
459.29	7449.93
459.48	7438.22
459.66	7445.24
459.84	7353.96
460.03	7634.83
460.21	7625.47
460.39	7545.89
460.57	7419.50
460.76	7691.00
460.94	7634.83
461.12	7604.40
461.31	7770.58
461.49	7559.93
461.67	7632.49
461.85	7812.71
462.04	7836.11
462.22	8257.41
462.40	7707.38
462.59	7730.79
462.77	7868.88
462.95	7854.84
463.13	7875.90
463.32	7772.92
463.50	7798.66
463.68	8042.08
463.86	8070.17
464.05	7906.33
464.23	7918.03
464.41	8016.33
464.59	7957.82
464.78	8170.81
464.96	7932.08
465.14	8006.97
465.32	7978.89
465.50	8194.22
465.69	8126.34
465.87	8079.53
466.05	8250.39
466.23	8222.30
466.41	8236.35
466.60	8463.38
466.78	8189.53
466.96	8124.00
467.14	8210.60
467.32	8348.69
467.51	8353.37
467.69	8231.66
467.87	8248.05
468.05	8674.03
468.23	8587.43
468.41	8226.98
468.60	8500.83
468.78	8592.11
468.96	8491.46
469.14	8547.64
469.32	8858.93
469.50	8491.46
469.69	8823.82
469.87	8709.13
470.05	8847.22
470.23	8788.71
470.41	8765.31
470.59	8669.34
470.77	8992.34
470.95	8826.16
471.14	8924.46
471.32	8964.25
471.50	8990.00
471.68	9041.49
471.86	9284.91
472.04	9423.00
472.22	9392.57
472.40	9048.51
472.58	9294.27
472.77	9355.12
472.95	9261.50
473.13	9685.14
473.31	9514.28
473.49	9397.25
473.67	9359.80
473.85	9603.22
474.03	9699.18
474.21	9626.62
474.39	9851.31
474.57	9907.49
474.75	9846.63
474.93	10036.22
475.12	9930.89
475.30	10174.31
475.48	9893.44
475.66	10228.14
475.84	10129.84
476.02	10104.09
476.20	9998.77
476.38	10525.39
476.56	10551.14
476.74	10462.19
476.92	10544.11
477.10	10714.97
477.28	10977.11
477.46	10937.32
477.64	10796.89
477.82	11122.23
478.00	11136.27
478.18	11122.23
478.36	11164.36
478.54	11328.19
478.72	11276.70
478.90	11492.03
479.08	11712.04
479.26	11838.43
479.44	11735.45
479.62	11712.04
479.80	11885.24
479.98	11901.62
480.16	12208.23
480.34	12147.38
480.52	12142.70
480.70	12306.54
480.88	12269.09
481.06	12351.01
481.24	12472.71
481.41	12664.64
481.59	12645.91
481.77	12950.18
481.95	12709.11
482.13	13109.34
482.31	13188.92
482.49	13392.55
482.67	13186.58
482.85	13504.89
483.03	13612.56
483.21	13703.84
483.39	13827.88
483.57	13731.92
483.74	14136.84
483.92	14101.73
484.10	14092.37
484.28	14347.48
484.46	14607.28
484.64	14581.54
484.82	14544.09
485.00	14595.58
485.18	14693.88
485.35	15122.20
485.53	14640.05
485.71	14668.14
485.89	15288.38
486.07	15063.69
486.25	15014.54
486.43	15440.51
486.61	15452.22
486.78	15702.65
486.96	15754.15
487.14	16020.97
487.32	15967.13
487.50	16137.99
487.68	16056.08
487.85	16587.38
488.03	16620.14
488.21	17085.91
488.39	17020.38
488.57	16926.75
488.75	16961.86
488.92	17205.28
489.10	17380.82
489.28	17624.23
489.46	17596.15
489.64	17628.92
489.81	18092.34
489.99	18054.89
490.17	18075.96
490.35	18195.32
490.53	18340.44
490.70	18764.07
490.88	18672.79
491.06	18757.05
491.24	18845.99
491.41	18972.38
491.59	18927.91
491.77	18944.30
491.95	19475.60
492.13	19262.61
492.30	19536.45
492.48	19812.63
492.66	19616.03
492.84	19562.20
493.01	19939.02
493.19	19824.34
493.37	20116.90
493.54	20329.89
493.72	20187.12
493.90	20428.20
494.08	20205.84
494.25	20964.18
494.43	20989.92
494.61	21090.57
494.79	21221.64
494.96	21032.05
495.14	21252.06
495.32	21205.25
495.49	21514.20
495.67	21579.74
495.85	21741.24
496.02	21935.50
496.20	21895.71
496.38	22246.79
496.55	22347.44
496.73	22803.84
496.91	22427.01
497.09	22600.21
497.26	22579.15
497.44	22787.46
497.62	22443.40
497.79	22974.70
497.97	22916.19
498.14	23307.05
498.32	23023.85
498.50	23674.52
498.67	23498.98
498.85	23213.43
499.03	23789.20
499.20	23676.86
499.38	24056.03
499.56	24201.14
499.73	24098.16
499.91	24418.81
500.08	24570.94
500.26	23789.20
500.44	24238.59
500.61	24526.47
500.79	24364.98
500.97	24491.37
501.14	25142.03
501.32	24872.87
501.49	25088.20
501.67	25046.07
501.84	25034.37
502.02	25446.30
502.20	25474.39
502.37	25621.84
502.55	25338.64
502.72	25699.08
502.90	25692.06
503.07	25392.47
503.25	25687.38
503.43	25612.48
503.60	26125.06
503.78	25663.97
503.95	25956.54
504.13	26153.15
504.30	26178.89
504.48	26349.75
504.65	26335.71
504.83	26529.97
505.01	26644.66
505.18	26792.11
505.36	26960.63
505.53	26827.22
505.71	27054.25
505.88	27278.94
506.06	26539.33
506.23	27407.67
506.41	27035.53
506.58	27225.11
506.76	27190.00
506.93	27840.67
507.11	27356.18
507.28	27613.64
507.46	27241.50
507.63	27828.97
507.81	28205.80
507.98	27639.39
508.16	28247.93
508.33	27920.25
508.50	27985.79
508.68	28388.36
508.85	28500.70
509.03	28353.25
509.20	28437.51
509.38	28418.78
509.55	28739.44
509.73	28947.75
509.90	28959.45
510.08	28638.80
510.25	28706.67
510.42	28947.75
510.60	29132.65
510.77	29137.33
510.95	28989.88
511.12	29034.35
511.30	29537.56
511.47	29465.00
511.64	29759.91
511.82	29567.99
511.99	29811.40
512.17	29785.66
512.34	29834.81
512.51	29947.15
512.69	29986.94
512.86	30036.09
513.04	30155.46
513.21	30543.99
513.38	30141.42
513.56	30270.15
513.73	30213.98
513.90	30806.13
514.08	30022.05
514.25	30895.07
514.43	30459.73
514.60	30738.26
514.77	30419.94
514.95	31489.57
515.12	31157.21
515.29	30965.29
515.47	31292.96
515.64	31658.09
515.81	31016.78
515.99	31356.16
516.16	30953.58
516.33	31402.97
516.51	31505.95
516.68	31674.47
516.85	31538.72
517.03	31812.56
517.20	31583.19
517.37	32039.59
517.54	31826.60
517.72	32168.32
517.89	31915.54
518.06	31941.29
518.24	31817.24
518.41	31896.82
518.58	31861.71
518.75	32063.00
518.93	32322.80
519.10	32692.60
519.27	32409.40
519.45	32481.95
519.62	32865.80
519.79	32893.89
519.96	32816.65
520.14	33490.73
520.31	32643.45
520.48	33397.10
520.65	33029.64
520.83	33207.52
521.00	33254.33
521.17	33055.39
521.34	33429.87
521.52	33359.66
521.69	33635.84
521.86	33354.97
522.03	33593.71
522.20	33656.90
522.38	34190.55
522.55	34305.23
522.72	34162.46
522.89	34096.92
523.07	33942.45
523.24	34022.03
523.41	34253.74
523.58	34082.88
523.75	34756.96
523.92	34410.56
524.10	34714.83
524.27	34705.46
524.44	34878.66
524.61	34962.92
524.78	34852.92
524.96	34705.46
525.13	35112.72
525.30	35042.50
525.47	35164.21
525.64	35222.72
525.81	35405.28
525.98	35068.25
526.16	35278.89
526.33	34899.73
526.50	35606.57
526.67	35005.05
526.84	35386.56
527.01	34742.91
527.18	35250.81
527.36	35674.45
527.53	35885.09
527.70	35847.64
527.87	35915.52
528.04	35779.77
528.21	36371.92
528.38	35882.75
528.55	36067.66
528.72	35964.67
528.89	36336.82
529.07	35964.67
529.24	35796.15
529.41	36004.46
529.58	35887.43
529.75	36163.62
529.92	36334.48
530.09	36320.43
530.26	36397.67
530.43	36811.95
530.60	36456.18
530.77	36783.86
530.94	36903.23
531.11	36643.43
531.28	36652.79
531.46	36811.95
531.63	36732.37
531.80	37198.13
531.97	36521.72
532.14	37207.50
532.31	36650.45
532.48	37003.87
532.65	37329.20
532.82	37378.36
532.99	37160.69
533.16	37001.53
533.33	37043.66
533.50	37425.17
533.67	37865.19
533.84	37570.28
534.01	37542.19
534.18	37432.19
534.35	37787.95
534.52	37921.36
534.69	37935.40
534.86	37645.18
535.03	37624.11
535.20	37914.34
535.37	37820.72
535.54	38321.59
535.71	38298.19
535.88	37930.72
536.05	37874.55
536.22	38237.33
536.38	38220.95
536.55	38078.18
536.72	38272.44
536.89	37958.81
537.06	38117.96
537.23	38234.99
537.40	38476.07
537.57	38731.18
537.74	38485.43
537.91	38789.70
538.08	38649.27
538.25	38387.13
538.42	38319.25
538.59	38976.94
538.75	38902.04
538.92	39068.22
539.09	38899.70
539.26	39283.55
539.43	38682.03
539.60	38857.57
539.77	38682.03
539.94	39519.95
540.11	39173.55
540.28	38885.66
540.44	39100.99
540.61	39166.52
540.78	39154.82
540.95	39058.86
541.12	39185.25
541.29	39147.80
541.46	38962.90
541.62	39665.06
541.79	39459.09
541.96	39342.06
542.13	39086.95
542.30	39861.66
542.47	39871.03
542.63	39611.23
542.80	39517.60
542.97	40196.36
543.14	40292.32
543.31	40065.29
543.48	40048.91
543.64	40416.37
543.81	40439.78
543.98	40596.59
544.15	40208.06
544.32	40547.44
544.48	40847.03
544.65	40521.69
544.82	40739.36
544.99	40252.53
545.16	40884.48
545.32	40542.76
545.49	41001.50
545.66	40882.14
545.83	40889.16
546.00	41062.36
546.16	40858.73
546.33	40519.35
546.50	40514.67
546.67	40744.05
546.83	40535.74
547.00	40690.21
547.17	40811.92
547.34	40762.77
547.50	41083.42
547.67	41439.18
547.84	41265.99
548.00	41134.92
548.17	41928.36
548.34	41387.69
548.51	41731.75
548.67	41469.61
548.84	41703.67
549.01	41640.47
549.18	41198.11
549.34	41638.13
549.51	41457.91
549.68	41935.38
549.84	41361.95
550.01	41394.71
550.18	41738.77
550.34	41530.47
550.51	41816.01
550.68	41497.70
550.84	41081.08
551.01	41935.38
551.18	41940.06
551.34	41684.94
551.51	42115.60
551.68	41647.49
551.84	42106.24
552.01	41633.45
552.18	41752.82
552.34	41970.49
552.51	42347.31
552.68	41530.47
552.84	42251.35
553.01	42525.19
553.18	42019.64
553.34	42085.17
553.51	42256.03
553.67	41755.16
553.84	42590.73
554.01	42337.95
554.17	42686.69
554.34	42471.36
554.51	42412.85
554.67	42721.80
554.84	42665.63
555.00	42000.91
555.17	42232.63
555.33	42810.74
555.50	42080.49
555.67	42298.16
555.83	42679.67
556.00	42457.32
556.16	43091.60
556.33	42801.38
556.50	42792.01
556.66	42562.64
556.83	42445.62
556.99	42909.04
557.16	42834.14
557.32	42808.40
557.49	42525.19
557.65	42684.35
557.82	42850.53
557.98	43161.82
558.15	42969.90
558.32	43110.33
558.48	43276.51
558.65	42880.95
558.81	42974.58
558.98	42909.04
559.14	42972.24
559.31	42923.08
559.47	43044.79
559.64	43309.27
559.80	43271.82
559.97	42887.98
560.13	43021.39
560.30	43072.88
560.46	42564.98
560.63	43234.38
560.79	42939.47
560.96	43447.36
561.12	43662.69
561.29	43487.15
561.45	42993.30
561.61	43253.10
561.78	43138.41
561.94	43030.75
562.11	43381.83
562.27	43807.81
562.44	43182.88
562.60	43185.22
562.77	43662.69
562.93	43573.75
563.10	43618.22
563.26	43152.46
563.42	43440.34
563.59	43739.93
563.75	43484.81
563.92	43627.59
564.08	43475.45
564.24	43377.15
564.41	43618.22
564.57	43463.75
564.74	43772.70
564.90	43910.79
565.07	43885.04
565.23	43569.07
565.39	43468.43
565.56	44107.40
565.72	43688.44
565.88	43969.30
566.05	43412.26
566.21	43784.40
566.38	43828.87
566.54	43751.63
566.70	44112.08
566.87	44170.59
567.03	43997.39
567.19	44289.96
567.36	44048.88
567.52	44280.60
567.68	44069.95
567.85	43529.28
568.01	43871.00
568.17	43646.31
568.34	44095.69
568.50	43791.42
568.66	43533.96
568.83	44425.71
568.99	43707.16
569.15	43981.01
569.32	43737.59
569.48	43555.03
569.64	44687.85
569.81	44484.22
569.97	44016.11
570.13	43941.22
570.30	44083.99
570.46	43529.28
570.62	44135.48
570.78	43824.19
570.95	43693.12
571.11	44268.89
571.27	44006.75
571.43	44009.09
571.60	43959.94
571.76	43943.56
571.92	43959.94
572.09	43700.14
572.25	43917.81
572.41	43632.27
572.57	44182.29
572.74	44428.05
572.90	44147.18
573.06	44575.50
573.22	44107.40
573.38	43849.94
573.55	43941.22
573.71	44612.95
573.87	43920.15
574.03	43793.76
574.20	43763.34
574.36	44142.50
574.52	44233.78
574.68	44332.09
574.84	44282.94
575.01	44280.60
575.17	44334.43
575.33	43901.43
575.49	44549.76
575.65	44423.37
575.82	44594.23
575.98	44254.85
576.14	44580.18
576.30	44098.03
576.46	44704.23
576.62	43955.26
576.79	44233.78
576.95	43840.57
577.11	44264.21
577.27	44334.43
577.43	44406.98
577.59	44271.23
577.75	44376.56
577.92	44128.46
578.08	43847.60
578.24	44442.09
578.40	44048.88
578.56	44198.68
578.72	44458.48
578.88	44741.68
579.04	44257.19
579.21	44435.07
579.37	44081.65
579.53	44123.78
579.69	43913.13
579.85	44339.11
580.01	44301.66
580.17	44280.60
580.33	44390.60
580.49	44575.50
580.65	44533.37
580.82	44271.23
580.98	44690.19
581.14	44259.53
581.30	44701.89
581.46	44336.77
581.62	44549.76
581.78	44580.18
581.94	44912.54
582.10	44612.95
582.26	44311.02
582.42	44341.45
582.58	44556.78
582.74	44325.07
582.90	44444.43
583.06	44678.49
583.22	44542.74
583.38	44755.72
583.54	44533.37
583.70	44381.24
583.86	44205.70
584.02	44215.06
584.18	44212.72
584.34	44919.56
584.50	44519.33
584.66	44575.50
584.82	44411.67
584.98	44580.18
585.14	44528.69
585.30	44311.02
585.46	44266.55
585.62	43854.62
585.78	44535.71
585.94	44294.64
586.10	44509.97
586.26	44554.44
586.42	44631.68
586.58	44910.20
586.74	44481.88
586.90	44416.35
587.06	44259.53
587.22	44673.81
587.38	44362.51
587.54	44601.25
587.70	44638.70
587.86	44685.51
588.02	44512.31
588.18	44652.74
588.34	44910.20
588.49	44418.69
588.65	44355.49
588.81	44619.97
588.97	44615.29
589.13	44519.33
589.29	44535.71
589.45	44488.90
589.61	44835.30
589.77	44942.97
589.93	45022.54
590.08	44601.25
590.24	44505.29
590.40	44795.51
