SpectraSuite Data File
++++++++++++++++++++++++++++++++++++
Date: Fri Oct 25 11:24:07 EDT 2013
User: price-jones
Dark Spectrum Present: No
Reference Spectrum Present: No
Number of Sampled Component Spectra: 1
Spectrometers: USB2+H05261
Integration Time (usec): 100000 (USB2+H05261)
Spectra Averaged: 1 (USB2+H05261)
Boxcar Smoothing: 0 (USB2+H05261)
Correct for Electrical Dark: No (USB2+H05261)
Strobe/Lamp Enabled: No (USB2+H05261)
Correct for Detector Non-linearity: No (USB2+H05261)
Correct for Stray Light: No (USB2+H05261)
Number of Pixels in Processed Spectrum: 2048
>>>>>Begin Processed Spectral Data<<<<<
365.73	231.71
365.92	231.71
366.12	231.71
366.32	241.08
366.52	128.73
366.72	187.24
366.91	93.62
367.11	145.11
367.31	72.56
367.51	191.92
367.70	114.69
367.90	149.79
368.10	98.30
368.30	229.37
368.49	74.90
368.69	147.45
368.89	145.11
369.09	152.13
369.28	135.75
369.48	102.98
369.68	184.90
369.87	168.52
370.07	112.35
370.27	248.10
370.47	388.53
370.66	531.30
370.86	568.75
371.06	559.39
371.25	683.44
371.45	688.12
371.65	664.71
371.84	706.84
372.04	720.88
372.24	697.48
372.44	741.95
372.63	711.52
372.83	763.01
373.03	739.61
373.22	777.06
373.42	784.08
373.62	716.20
373.81	784.08
374.01	819.19
374.21	924.51
374.40	856.64
374.60	842.59
374.79	917.49
374.99	784.08
375.19	858.98
375.38	833.23
375.58	812.17
375.78	877.70
375.97	866.00
376.17	912.81
376.37	880.04
376.56	847.27
376.76	851.96
376.95	905.79
377.15	896.43
377.35	856.64
377.54	950.26
377.74	903.45
377.93	912.81
378.13	919.83
378.33	910.47
378.52	936.21
378.72	976.00
378.91	964.30
379.11	905.79
379.31	961.96
379.50	964.30
379.70	978.34
379.89	924.51
380.09	997.07
380.28	931.53
380.48	992.39
380.68	1029.84
380.87	938.55
381.07	968.98
381.26	1027.50
381.46	1004.09
381.65	994.73
381.85	1001.75
382.04	1018.13
382.24	1008.77
382.43	1074.31
382.63	926.85
382.83	1139.84
383.02	1053.24
383.22	1142.18
383.41	1076.65
383.61	1114.10
383.80	1104.73
384.00	1064.94
384.19	1107.07
384.39	1137.50
384.58	1121.12
384.78	1097.71
384.97	1121.12
385.17	1198.35
385.36	1165.59
385.56	1231.12
385.75	1242.82
385.95	1146.86
386.14	1114.10
386.34	1172.61
386.53	1186.65
386.72	1247.51
386.92	1270.91
387.11	1203.04
387.31	1254.53
387.50	1275.59
387.70	1266.23
387.89	1203.04
388.09	1329.42
388.28	1329.42
388.48	1306.02
388.67	1266.23
388.86	1324.74
389.06	1315.38
389.25	1322.40
389.45	1338.79
389.64	1378.58
389.84	1352.83
390.03	1378.58
390.22	1418.36
390.42	1315.38
390.61	1308.36
390.81	1343.47
391.00	1481.56
391.19	1413.68
391.39	1490.92
391.58	1584.54
391.78	1446.45
391.97	1472.20
392.16	1453.47
392.36	1486.24
392.55	1472.20
392.75	1565.82
392.94	1364.53
393.13	1554.12
393.33	1495.60
393.52	1596.25
393.71	1629.01
393.91	1659.44
394.10	1626.67
394.29	1612.63
394.49	1621.99
394.68	1741.36
394.88	1708.59
395.07	1671.14
395.26	1661.78
395.46	1687.53
395.65	1638.38
395.84	1767.10
396.04	1860.73
396.23	1774.13
396.42	1689.87
396.62	1795.19
396.81	1820.94
397.00	1804.55
397.19	1666.46
397.39	1795.19
397.58	1867.75
397.77	1764.76
397.97	1881.79
398.16	1806.89
398.35	1891.15
398.55	1968.39
398.74	1952.01
398.93	1926.26
399.12	1942.64
399.32	1930.94
399.51	1853.70
399.70	1937.96
399.90	2015.20
400.09	1991.80
400.28	1944.99
400.47	1989.46
400.67	1961.37
400.86	2040.95
401.05	2139.25
401.24	2108.82
401.44	2078.40
401.63	2111.16
401.82	2092.44
402.01	2162.66
402.21	2253.94
402.40	2186.06
402.59	2160.31
402.78	2155.63
402.97	2221.17
403.17	2267.98
403.36	2244.57
403.55	2314.79
403.74	2455.22
403.93	2363.94
404.13	2450.54
404.32	2352.24
404.51	2366.28
404.70	2469.27
404.89	2417.77
405.09	2558.21
405.28	2427.14
405.47	2537.14
405.66	2373.30
405.85	2502.03
406.05	2595.65
406.24	2661.19
406.43	2630.76
406.62	2647.15
406.81	2642.46
407.00	2490.33
407.20	2546.50
407.39	2530.12
407.58	2747.79
407.77	2719.70
407.96	2862.48
408.15	2705.66
408.34	2764.17
408.54	2848.43
408.73	2752.47
408.92	2834.39
409.11	2977.16
409.30	2843.75
409.49	2974.82
409.68	2935.03
409.87	2881.20
410.07	3030.99
410.26	3070.78
410.45	2993.55
410.64	3035.67
410.83	3077.80
411.02	3178.45
411.21	3138.66
411.40	3169.09
411.59	3262.71
411.78	3225.26
411.98	3148.02
412.17	3335.26
412.36	3246.32
412.55	3337.60
412.74	3428.88
412.93	3426.54
413.12	3431.23
413.31	3522.51
413.50	3456.97
413.69	3590.38
413.88	3417.18
414.07	3552.93
414.26	3740.18
414.45	3733.15
414.64	3719.11
414.83	3833.80
415.02	3840.82
415.22	3763.58
415.41	3850.18
415.60	3861.88
415.79	3915.72
415.98	4002.32
416.17	3976.57
416.36	4035.08
416.55	3967.21
416.74	4126.36
416.93	3936.78
417.12	4177.86
417.31	4243.39
417.50	4025.72
417.69	4238.71
417.88	4234.03
418.07	4320.63
418.26	4444.68
418.45	4397.87
418.64	4449.36
418.83	4320.63
419.02	4407.23
419.21	4514.89
419.39	4554.68
419.58	4390.84
419.77	4557.02
419.96	4496.17
420.15	4601.49
420.34	4575.75
420.53	4533.62
420.72	4870.65
420.91	4650.64
421.10	4741.93
421.29	4582.77
421.48	4784.06
421.67	4809.80
421.86	4732.56
422.05	4868.31
422.24	4779.37
422.43	4924.49
422.61	4898.74
422.80	5041.51
422.99	4905.76
423.18	4931.51
423.37	5039.17
423.56	4868.31
423.75	4978.32
423.94	4819.16
424.13	4645.96
424.32	4732.56
424.50	4915.12
424.69	5277.91
424.88	5170.24
425.07	4994.70
425.26	4940.87
425.45	5088.32
425.64	4966.62
425.83	4901.08
426.01	4985.34
426.20	5057.90
426.39	4954.91
426.58	5132.79
426.77	4931.51
426.96	5163.22
427.15	5074.28
427.33	5125.77
427.52	5305.99
427.71	5266.21
427.90	5305.99
428.09	5249.82
428.28	5240.46
428.46	5324.72
428.65	5275.57
428.84	5516.64
429.03	5507.28
429.22	5378.55
429.40	5582.18
429.59	5458.13
429.78	5327.06
429.97	5233.44
430.16	5394.93
430.34	5518.98
430.53	5692.18
430.72	5638.35
430.91	5860.70
431.10	5540.05
431.28	5837.30
431.47	5905.17
431.66	5879.43
431.85	5870.06
432.03	5846.66
432.22	5926.24
432.41	5872.40
432.60	6104.12
432.79	6026.88
432.97	6015.18
433.16	6101.78
433.35	6003.47
433.54	6052.63
433.72	6094.76
433.91	6099.44
434.10	6347.53
434.28	6223.48
434.47	6073.69
434.66	6237.53
434.85	6265.61
435.03	6326.47
435.22	6312.42
435.41	6530.09
435.59	6469.24
435.78	6492.65
435.97	6661.16
436.16	6473.92
436.34	6696.27
436.53	6569.88
436.72	6820.32
436.90	6469.24
437.09	6696.27
437.28	6363.92
437.46	6740.74
437.65	6719.68
437.84	6825.00
438.02	6672.87
438.21	6841.39
438.40	6729.04
438.58	6890.54
438.77	7129.27
438.96	6956.07
439.14	7096.50
439.33	7199.49
439.52	7052.03
439.70	7262.68
439.89	7379.71
440.08	7351.62
440.26	7470.99
440.45	7478.01
440.63	7496.74
440.82	7506.10
441.01	7672.28
441.19	7618.44
441.38	7707.38
441.57	7782.28
441.75	7831.43
441.94	7946.12
442.12	7981.23
442.31	8163.79
442.50	7999.95
442.68	8063.15
442.87	8051.44
443.05	8175.49
443.24	8269.11
443.43	8215.28
443.61	8374.44
443.80	8449.33
443.98	8091.23
444.17	7971.86
444.35	8292.52
444.54	8444.65
444.73	8376.78
444.91	8299.54
445.10	8367.42
445.28	8348.69
445.47	8301.88
445.65	8285.50
445.84	8439.97
446.02	8336.99
446.21	8358.05
446.39	8451.67
446.58	8720.84
446.77	8582.74
446.95	8449.33
447.14	8510.19
447.32	8702.11
447.51	8432.95
447.69	8496.14
447.88	8482.10
448.06	8667.00
448.25	8641.26
448.43	8636.58
448.62	8655.30
448.80	8580.40
448.99	8685.73
449.17	8833.18
449.36	8856.59
449.54	9001.70
449.73	8929.14
449.91	9123.41
450.10	8961.91
450.28	9317.67
450.46	8975.95
450.65	9104.68
450.83	9170.22
451.02	9179.58
451.20	9125.75
451.39	9343.42
451.57	9221.71
451.76	9062.55
451.94	9317.67
452.13	9301.29
452.31	9547.05
452.49	9256.82
452.68	9383.21
452.86	9366.82
453.05	9591.52
453.23	9521.30
453.42	9373.85
453.60	9394.91
453.78	9600.88
453.97	9383.21
454.15	9479.17
454.34	9603.22
454.52	9858.34
454.70	9891.10
454.89	9745.99
455.07	9898.13
455.26	10019.83
455.44	10104.09
455.62	9977.70
455.81	9825.57
455.99	9856.00
456.17	10080.69
456.36	10099.41
456.54	10312.40
456.73	10321.76
456.91	10420.06
457.09	10291.34
457.28	10478.58
457.46	10331.12
457.64	10604.97
457.83	10382.62
458.01	10544.11
458.19	10817.96
458.38	10485.60
458.56	10888.17
458.74	10668.16
458.93	10677.52
459.11	10829.66
459.29	10803.91
459.48	10712.63
459.66	10787.53
459.84	10808.59
460.03	10923.28
460.21	10827.32
460.39	10934.98
460.57	10930.30
460.76	11040.31
460.94	11279.04
461.12	11119.89
461.31	11503.73
461.49	11164.36
461.67	11253.30
461.85	11693.32
462.04	11433.52
462.22	11492.03
462.40	11627.78
462.59	11695.66
462.77	11417.13
462.95	11777.58
463.13	11477.99
463.32	11700.34
463.50	11976.52
463.68	11779.92
463.86	11796.30
464.05	11693.32
464.23	11833.75
464.41	12035.03
464.59	11676.93
464.78	12217.60
464.96	11868.86
465.14	11934.39
465.32	11974.18
465.50	12201.21
465.69	12161.42
465.87	12196.53
466.05	12292.49
466.23	12210.57
466.41	12219.94
466.60	12723.15
466.78	12383.77
466.96	12329.94
467.14	12535.91
467.32	12446.97
467.51	12442.29
467.69	12189.51
467.87	12475.06
468.05	12748.90
468.23	12423.56
468.41	12479.74
468.60	12908.05
468.78	12776.98
468.96	12606.13
469.14	12744.22
469.32	12980.61
469.50	12538.25
469.69	13214.66
469.87	13125.72
470.05	13217.01
470.23	13207.64
470.41	13184.24
470.59	13451.06
470.77	13352.76
470.95	13385.52
471.14	13635.96
471.32	13256.79
471.50	13542.34
471.68	13544.68
471.86	13846.61
472.04	13752.99
472.22	14129.81
472.40	13792.78
472.58	13961.30
472.77	13956.61
472.95	14207.05
473.13	15051.99
473.31	14239.82
473.49	14501.96
473.67	14195.35
473.85	14384.93
474.03	14530.05
474.21	14303.01
474.39	14593.24
474.57	14555.79
474.75	15023.90
474.93	14820.27
475.12	15009.86
475.30	14904.53
475.48	14927.94
475.66	15360.94
475.84	15131.56
476.02	15611.37
476.20	15246.25
476.38	15494.35
476.56	15983.52
476.74	16058.42
476.92	16086.50
477.10	16037.35
477.28	16365.03
477.46	16549.93
477.64	16479.71
477.82	16568.65
478.00	17085.91
478.18	16858.88
478.36	16659.93
478.54	17193.58
478.72	17397.20
478.90	17149.11
479.08	17659.34
479.26	17666.36
479.44	17577.42
479.62	17657.00
479.80	17958.93
479.98	18277.24
480.16	18738.33
480.34	18300.65
480.52	18845.99
480.70	18558.11
480.88	18623.64
481.06	19117.50
481.24	18991.11
481.41	19098.77
481.59	19377.30
481.77	19152.60
481.95	19503.68
482.13	19772.85
482.31	19768.16
482.49	20383.73
482.67	20212.87
482.85	20372.02
483.03	20940.77
483.21	20849.49
483.39	21053.12
483.57	21008.65
483.74	21102.27
483.92	21640.59
484.10	21027.37
484.28	21795.07
484.46	22380.20
484.64	22354.46
484.82	22188.28
485.00	22394.25
485.18	22656.39
485.35	23035.55
485.53	23239.18
485.71	22778.09
485.89	23854.74
486.07	23545.79
486.25	23803.25
486.43	23388.97
486.61	23929.64
486.78	24332.21
486.96	24292.42
487.14	24517.11
487.32	24718.40
487.50	25078.84
487.68	25205.23
487.85	25476.73
488.03	25696.74
488.21	25862.92
488.39	25766.96
488.57	25979.95
488.75	26331.03
488.92	26623.59
489.10	26785.09
489.28	26787.43
489.46	27215.75
489.64	27281.28
489.81	27934.29
489.99	27875.78
490.17	27747.05
490.35	28184.73
490.53	28257.29
490.70	28016.21
490.88	28215.16
491.06	28868.17
491.24	28919.66
491.41	29050.73
491.59	29488.41
491.77	29415.85
491.95	29483.73
492.13	29734.17
492.30	30141.42
492.48	30061.84
492.66	30106.31
492.84	30574.42
493.01	31002.74
493.19	30677.40
493.37	30869.33
493.54	31309.35
493.72	31459.14
493.90	32060.66
494.08	32009.17
494.25	32404.72
494.43	32191.73
494.61	32519.40
494.79	32423.44
494.96	32804.95
495.14	33149.01
495.32	33764.57
495.49	32753.46
495.67	33404.13
495.85	33865.21
496.02	33783.29
496.20	33778.61
496.38	34085.22
496.55	34293.53
496.73	35353.79
496.91	34906.75
497.09	35257.83
497.26	35002.71
497.44	35026.12
497.62	35651.04
497.79	36018.50
497.97	35496.56
498.14	36095.74
498.32	36011.48
498.50	36591.94
498.67	36814.29
498.85	36575.55
499.03	37104.51
499.20	36868.12
499.38	36629.38
499.56	37001.53
499.73	37226.22
499.91	37514.11
500.08	37897.95
500.26	37504.74
500.44	37804.33
500.61	37888.59
500.79	37792.63
500.97	38047.75
501.14	38803.74
501.32	38684.37
501.49	38965.24
501.67	38948.85
501.84	38756.93
502.02	38906.73
502.20	39299.94
502.37	39625.27
502.55	39227.38
502.72	39571.44
502.90	39531.65
503.07	39662.72
503.25	39924.86
503.43	40325.09
503.60	40081.67
503.78	40346.15
503.95	40280.62
504.13	40512.33
504.30	41184.07
504.48	40659.79
504.65	40982.78
504.83	41275.35
505.01	41509.40
505.18	41612.38
505.36	41560.89
505.53	41326.84
505.71	41443.87
505.88	41851.12
506.06	41401.74
506.23	42433.91
506.41	42160.07
506.58	42321.57
506.76	42300.50
506.93	43220.33
507.11	42625.84
507.28	42703.07
507.46	42602.43
507.63	43138.41
507.81	43491.83
507.98	43007.34
508.16	43241.40
508.33	43349.06
508.50	43587.80
508.68	43632.27
508.85	44130.80
509.03	44201.02
509.20	44172.93
509.38	44322.72
509.55	44329.75
509.73	44678.49
509.90	44811.90
510.08	44603.59
510.25	45050.63
510.42	44832.96
510.60	45141.91
510.77	45291.71
510.95	45483.63
511.12	45422.78
511.30	45778.54
511.47	45610.02
511.64	45961.10
511.82	46314.52
511.99	45771.52
512.17	46410.48
512.34	46440.91
512.51	46155.36
512.69	46270.05
512.86	46887.95
513.04	46635.17
513.21	46894.97
513.38	46892.63
513.56	47126.69
513.73	46728.80
513.90	47452.02
514.08	47084.56
514.25	47576.07
514.43	47611.18
514.60	47435.64
514.77	47463.72
514.95	47924.81
515.12	47793.74
515.29	47555.00
515.47	48137.80
515.64	48411.64
515.81	47892.04
515.99	48378.87
516.16	48952.30
516.33	48561.44
516.51	48903.15
516.68	48662.08
516.85	48872.73
517.03	48856.34
517.20	49429.77
517.37	48931.24
517.54	49081.03
517.72	49045.93
517.89	49354.88
518.06	49425.09
518.24	49294.02
518.41	49591.27
518.58	49429.77
518.75	49738.72
518.93	49598.29
519.10	49656.81
519.27	49916.61
519.45	49886.18
519.62	50176.40
519.79	49928.31
519.96	50000.86
520.14	50251.30
520.31	50246.62
520.48	50773.24
520.65	50431.52
520.83	50864.52
521.00	50691.32
521.17	50878.57
521.34	50829.41
521.52	50843.46
521.69	51040.06
521.86	51159.43
522.03	51255.39
522.20	51461.36
522.38	51601.79
522.55	51297.52
522.72	51655.62
522.89	51557.32
523.07	51767.97
523.24	51491.79
523.41	51739.88
523.58	51540.94
523.75	52196.29
523.92	51943.51
524.10	51936.49
524.27	52273.52
524.44	52079.26
524.61	52186.92
524.78	52186.92
524.96	52339.06
525.13	52442.04
525.30	52488.85
525.47	52961.64
525.64	52472.47
525.81	52732.27
525.98	52839.93
526.16	52516.94
526.33	52732.27
526.50	53158.25
526.67	52807.17
526.84	52935.90
527.01	53205.06
527.18	53027.18
527.36	53209.74
527.53	53043.56
527.70	53525.71
527.87	53764.45
528.04	53205.06
528.21	53556.14
528.38	53574.86
528.55	53563.16
528.72	53628.69
528.89	53663.80
529.07	53350.17
529.24	53443.79
529.41	53787.85
529.58	53724.66
529.75	53738.70
529.92	53862.75
530.09	53916.58
530.26	53825.30
530.43	54003.18
530.60	54260.64
530.77	53914.24
530.94	54183.40
531.11	54262.98
531.28	54188.08
531.46	54265.32
531.63	54281.70
531.80	54124.89
531.97	54700.66
532.14	54508.74
532.31	54656.19
532.48	54700.66
532.65	54646.83
532.82	54665.55
532.99	54901.95
533.16	54731.09
533.33	54614.06
533.50	55201.53
533.67	54937.05
533.84	54927.69
534.01	55018.97
534.18	54934.71
534.35	55140.68
534.52	55093.87
534.69	55189.83
534.86	55468.36
535.03	55238.98
535.20	55437.93
535.37	55522.19
535.54	55887.31
535.71	55487.08
535.88	55341.97
536.05	55744.54
536.22	55964.55
536.38	55723.47
536.55	55821.78
536.72	55763.26
536.89	55533.89
537.06	55707.09
537.23	56112.00
537.40	55458.99
537.57	55800.71
537.74	55927.10
537.91	56116.68
538.08	56086.26
538.25	55786.67
538.42	56039.45
538.59	56420.95
538.75	55929.44
538.92	56404.57
539.09	56528.62
539.26	56112.00
539.43	56191.58
539.60	56357.76
539.77	56247.75
539.94	56502.87
540.11	56453.72
540.28	56432.66
540.44	56580.11
540.61	56537.98
540.78	56615.22
540.95	56722.88
541.12	56493.51
541.29	56577.77
541.46	56765.01
541.62	56552.02
541.79	56772.03
541.96	56832.89
542.13	56563.73
542.30	56652.67
542.47	57198.01
542.63	56900.76
542.80	56860.97
542.97	57223.76
543.14	57286.95
543.31	57064.60
543.48	57050.56
543.64	57478.88
543.81	57598.24
543.98	57385.25
544.15	57392.28
544.32	57640.37
544.48	57565.48
544.65	57481.22
544.82	57558.45
544.99	57436.75
545.16	57666.12
545.32	57460.15
545.49	57928.26
545.66	57888.47
545.83	57836.98
546.00	58000.82
546.16	57691.86
546.33	57729.31
546.50	57551.43
546.67	57944.64
546.83	57631.01
547.00	57872.09
547.17	57867.40
547.34	57811.23
547.50	57829.96
547.67	58197.42
547.84	58064.01
548.00	58080.39
548.17	58382.32
548.34	58330.83
548.51	58354.24
548.67	58398.71
548.84	58099.12
549.01	58204.44
549.18	58372.96
549.34	58396.37
549.51	58365.94
549.68	58592.97
549.84	58246.57
550.01	58738.08
550.18	58515.73
550.34	58389.34
550.51	58417.43
550.68	58539.14
550.84	58410.41
551.01	58557.86
551.18	58599.99
551.34	58630.42
551.51	58494.67
551.68	58588.29
551.84	58621.06
552.01	58670.21
552.18	58599.99
552.34	58356.58
552.51	58836.39
552.68	58773.19
552.84	58873.84
553.01	59032.99
553.18	59018.95
553.34	59168.74
553.51	59082.14
553.67	58822.34
553.84	59100.87
554.01	58955.75
554.17	59344.28
554.34	59243.64
554.51	59201.51
554.67	59217.89
554.84	59021.29
555.00	59086.82
555.17	58983.84
555.33	59157.04
555.50	58981.50
555.67	59040.01
555.83	59103.21
556.00	59208.53
556.16	59437.90
556.33	59278.75
556.50	59255.34
556.66	59391.09
556.83	59334.92
556.99	59540.89
557.16	59625.15
557.32	59597.06
557.49	59622.81
557.65	59543.23
557.82	59421.52
557.98	59393.43
558.15	59695.36
558.32	59580.68
558.48	59320.88
558.65	59639.19
558.81	59611.10
558.98	59695.36
559.14	59955.16
559.31	59800.69
559.47	59735.15
559.64	59913.03
559.80	59840.48
559.97	59693.02
560.13	59611.10
560.30	59863.88
560.46	59718.77
560.63	59751.54
560.79	59781.96
560.96	60133.04
561.12	59784.30
561.29	59889.63
561.45	59943.46
561.61	59784.30
561.78	60055.81
561.94	59835.80
562.11	60018.36
562.27	59994.95
562.44	60013.68
562.60	60006.65
562.77	59964.52
562.93	59873.24
563.10	60184.54
563.26	60025.38
563.42	60233.69
563.59	60147.09
563.75	60046.44
563.92	60034.74
564.08	60154.11
564.24	60329.65
564.41	60282.84
564.57	60266.45
564.74	60369.44
564.90	60355.39
565.07	60123.68
565.23	60310.92
565.39	60203.26
565.56	60331.99
565.72	60231.35
565.88	60458.38
566.05	60090.91
566.21	60303.90
566.38	60395.18
566.54	60296.88
566.70	60367.10
566.87	60322.63
567.03	60303.90
567.19	60509.87
567.36	60479.44
567.52	60467.74
567.68	60619.88
567.85	60336.67
568.01	60556.68
568.17	60465.40
568.34	60647.96
568.50	60549.66
568.66	60596.47
568.83	60638.60
568.99	60540.30
569.15	60746.26
569.32	60275.82
569.48	60687.75
569.64	60697.11
569.81	60463.06
569.97	60439.65
570.13	60500.51
570.30	60441.99
570.46	60413.91
570.62	60598.81
570.78	60690.09
570.95	60746.26
571.11	60844.57
571.27	60629.24
571.43	60547.32
571.60	60905.42
571.76	60552.00
571.92	60535.62
572.09	60669.03
572.25	60673.71
572.41	60701.79
572.57	60718.18
572.74	60842.23
572.90	60764.99
573.06	60839.89
573.22	60615.19
573.38	60769.67
573.55	60678.39
573.71	60996.70
573.87	60697.11
574.03	60535.62
574.20	60811.80
574.36	60601.15
574.52	60654.98
574.68	60821.16
574.84	60809.46
575.01	60821.16
575.17	60779.03
575.33	60760.31
575.49	60732.22
575.65	60835.20
575.82	61024.79
575.98	60905.42
576.14	61057.56
576.30	60959.25
576.46	61052.87
576.62	60963.93
576.79	60797.76
576.95	60706.47
577.11	60807.12
577.27	60931.17
577.43	60814.14
577.59	60856.27
577.75	60732.22
577.92	60898.40
578.08	60874.99
578.24	60844.57
578.40	61179.26
578.56	61080.96
578.72	61090.32
578.88	61123.09
579.04	61230.75
579.21	61071.60
579.37	61020.11
579.53	61109.05
579.69	60837.54
579.85	61015.43
580.01	60942.87
580.17	60891.38
580.33	61045.85
580.49	61024.79
580.65	60987.34
580.82	60809.46
580.98	60956.91
581.14	60985.00
581.30	61160.54
581.46	60970.96
581.62	60992.02
581.78	60893.72
581.94	60949.89
582.10	60992.02
582.26	60996.70
582.42	60877.33
582.58	60999.04
582.74	60956.91
582.90	61109.05
583.06	61010.74
583.22	60900.74
583.38	61048.19
583.54	61036.49
583.70	61216.71
583.86	61226.07
584.02	60884.36
584.18	61174.58
584.34	61064.58
584.50	61214.37
584.66	60889.04
584.82	60865.63
584.98	61043.51
585.14	61057.56
585.30	61146.50
585.46	61188.63
585.62	61165.22
585.78	61216.71
585.94	60966.27
586.10	61120.75
586.26	61069.26
586.42	61062.24
586.58	61359.48
586.74	61228.41
586.90	61041.17
587.06	61125.43
587.22	61205.01
587.38	61160.54
587.54	61244.80
587.70	61289.27
587.86	61169.90
588.02	61221.39
588.18	61296.29
588.34	61041.17
588.49	61214.37
