SpectraSuite Data File
++++++++++++++++++++++++++++++++++++
Date: Fri Oct 25 11:25:42 EDT 2013
User: price-jones
Dark Spectrum Present: No
Reference Spectrum Present: No
Number of Sampled Component Spectra: 1
Spectrometers: USB2+H05261
Integration Time (usec): 100000 (USB2+H05261)
Spectra Averaged: 1 (USB2+H05261)
Boxcar Smoothing: 0 (USB2+H05261)
Correct for Electrical Dark: No (USB2+H05261)
Strobe/Lamp Enabled: No (USB2+H05261)
Correct for Detector Non-linearity: No (USB2+H05261)
Correct for Stray Light: No (USB2+H05261)
Number of Pixels in Processed Spectrum: 2048
>>>>>Begin Processed Spectral Data<<<<<
365.73	212.99
365.92	212.99
366.12	212.99
366.32	142.77
366.52	173.20
366.72	196.60
366.91	133.41
367.11	117.03
367.31	140.43
367.51	56.17
367.70	100.64
367.90	168.52
368.10	161.50
368.30	166.18
368.49	159.16
368.69	131.07
368.89	161.50
369.09	131.07
369.28	184.90
369.48	126.39
369.68	194.26
369.87	234.05
370.07	145.11
370.27	173.20
370.47	318.31
370.66	613.22
370.86	645.99
371.06	699.82
371.25	667.05
371.45	648.33
371.65	697.48
371.84	699.82
372.04	734.93
372.24	699.82
372.44	704.50
372.63	706.84
372.83	713.86
373.03	704.50
373.22	734.93
373.42	767.70
373.62	779.40
373.81	840.25
374.01	814.51
374.21	777.06
374.40	826.21
374.60	718.54
374.79	777.06
374.99	823.87
375.19	842.59
375.38	828.55
375.58	866.00
375.78	931.53
375.97	915.15
376.17	809.83
376.37	896.43
376.56	812.17
376.76	894.08
376.95	858.98
377.15	889.40
377.35	1013.45
377.54	957.28
377.74	851.96
377.93	903.45
378.13	992.39
378.33	901.11
378.52	905.79
378.72	931.53
378.91	954.94
379.11	950.26
379.31	905.79
379.50	945.58
379.70	954.94
379.89	1020.47
380.09	1032.18
380.28	936.21
380.48	950.26
380.68	994.73
380.87	943.24
381.07	976.00
381.26	1011.11
381.46	1027.50
381.65	1078.99
381.85	964.30
382.04	1034.52
382.24	1097.71
382.43	1128.14
382.63	1071.97
382.83	1053.24
383.02	1111.75
383.22	1153.88
383.41	1006.43
383.61	1036.86
383.80	1188.99
384.00	1032.18
384.19	1032.18
384.39	1179.63
384.58	1198.35
384.78	1203.04
384.97	1125.80
385.17	1142.18
385.36	1200.69
385.56	1163.25
385.75	1191.33
385.95	1219.42
386.14	1235.80
386.34	1203.04
386.53	1256.87
386.72	1266.23
386.92	1238.14
387.11	1310.70
387.31	1280.27
387.50	1128.14
387.70	1188.99
387.89	1242.82
388.09	1315.38
388.28	1320.06
388.48	1231.12
388.67	1366.87
388.86	1299.00
389.06	1266.23
389.25	1252.19
389.45	1385.60
389.64	1348.15
389.84	1369.21
390.03	1343.47
390.22	1406.66
390.42	1376.24
390.61	1427.73
390.81	1409.00
391.00	1446.45
391.19	1453.47
391.39	1441.77
391.58	1465.18
391.78	1469.86
391.97	1446.45
392.16	1444.11
392.36	1572.84
392.55	1493.26
392.75	1547.09
392.94	1537.73
393.13	1516.67
393.33	1572.84
393.52	1511.99
393.71	1584.54
393.91	1563.48
394.10	1465.18
394.29	1568.16
394.49	1509.65
394.68	1671.14
394.88	1636.03
395.07	1687.53
395.26	1647.74
395.46	1710.93
395.65	1720.29
395.84	1792.85
396.04	1863.07
396.23	1668.80
396.42	1668.80
396.62	1757.74
396.81	1771.79
397.00	1811.57
397.19	1856.04
397.39	1750.72
397.58	1860.73
397.77	1769.44
397.97	1825.62
398.16	1837.32
398.35	1893.49
398.55	1959.03
398.74	1905.20
398.93	1856.04
399.12	1853.70
399.32	1994.14
399.51	2029.24
399.70	2010.52
399.90	1940.30
400.09	2022.22
400.28	2059.67
400.47	1959.03
400.67	2062.01
400.86	2150.95
401.05	2085.42
401.24	1977.75
401.44	2122.87
401.63	1980.09
401.82	2115.84
402.01	2141.59
402.21	2237.55
402.40	2150.95
402.59	2125.21
402.78	2218.83
402.97	2193.08
403.17	2317.13
403.36	2333.51
403.55	2298.41
403.74	2333.51
403.93	2314.79
404.13	2335.85
404.32	2345.22
404.51	2434.16
404.70	2534.80
404.89	2455.22
405.09	2380.32
405.28	2459.90
405.47	2466.92
405.66	2399.05
405.85	2602.68
406.05	2532.46
406.24	2590.97
406.43	2485.65
406.62	2693.96
406.81	2628.42
407.00	2530.12
407.20	2642.46
407.39	2590.97
407.58	2581.61
407.77	2768.85
407.96	2649.49
408.15	2787.58
408.34	2729.06
408.54	2803.96
408.73	2848.43
408.92	2813.32
409.11	2850.77
409.30	2867.16
409.49	2991.20
409.68	2942.05
409.87	3150.36
410.07	3073.12
410.26	2986.52
410.45	2946.73
410.64	3035.67
410.83	2923.33
411.02	3073.12
411.21	3105.89
411.40	2993.55
411.59	3129.30
411.78	3159.72
411.98	3166.74
412.17	3304.84
412.36	3197.17
412.55	3384.41
412.74	3435.91
412.93	3485.06
413.12	3332.92
413.31	3428.88
413.50	3510.80
413.69	3492.08
413.88	3639.53
414.07	3609.11
414.26	3585.70
414.45	3599.74
414.64	3609.11
414.83	3754.22
415.02	3721.45
415.22	3967.21
415.41	3794.01
415.60	3836.14
415.79	3925.08
415.98	4028.06
416.17	3915.72
416.36	3927.42
416.55	4023.38
416.74	4093.60
416.93	4002.32
417.12	4018.70
417.31	4102.96
417.50	4198.92
417.69	4308.93
417.88	4219.99
418.07	4175.52
418.26	4243.39
418.45	4327.65
418.64	4372.12
418.83	4313.61
419.02	4418.93
419.21	4482.13
419.39	4416.59
419.58	4414.25
419.77	4435.32
419.96	4683.41
420.15	4791.08
420.34	4566.39
420.53	4636.60
420.72	4557.02
420.91	4667.03
421.10	4734.90
421.29	4770.01
421.48	4727.88
421.67	4667.03
421.86	4753.63
422.05	4723.20
422.24	4894.06
422.43	4802.78
422.61	4758.31
422.80	4936.19
422.99	4966.62
423.18	4826.18
423.37	5109.39
423.56	4910.44
423.75	4809.80
423.94	4571.07
424.13	4578.09
424.32	4657.67
424.50	4950.23
424.69	5055.56
424.88	5041.51
425.07	4884.70
425.26	4880.02
425.45	4971.30
425.64	5111.73
425.83	4961.94
426.01	5074.28
426.20	5123.43
426.39	5135.14
426.58	5022.79
426.77	5020.45
426.96	5107.05
427.15	5191.31
427.33	5284.93
427.52	5128.11
427.71	5273.23
427.90	5240.46
428.09	5170.24
428.28	5263.86
428.46	5458.13
428.65	5355.15
428.84	5460.47
429.03	5448.77
429.22	5170.24
429.40	5432.38
429.59	5537.71
429.78	5249.82
429.97	5294.29
430.16	5551.75
430.34	5509.62
430.53	5626.65
430.72	5612.60
430.91	5614.95
431.10	5535.37
431.28	5741.33
431.47	5650.05
431.66	5846.66
431.85	5891.13
432.03	5905.17
432.22	5909.85
432.41	6052.63
432.60	5799.85
432.79	5841.98
432.97	5888.79
433.16	5902.83
433.35	5954.32
433.54	5980.07
433.72	6218.80
433.91	6061.99
434.10	5949.64
434.28	6127.52
434.47	6150.93
434.66	6167.31
434.85	6108.80
435.03	6265.61
435.22	6209.44
435.41	6389.66
435.59	6342.85
435.78	6333.49
435.97	6476.26
436.16	6436.47
436.34	6394.34
436.53	6406.05
436.72	6523.07
436.90	6396.68
437.09	6595.63
437.28	6443.49
437.46	6647.12
437.65	6689.25
437.84	6773.51
438.02	6579.25
438.21	6825.00
438.40	6623.72
438.58	7098.84
438.77	7126.93
438.96	6876.49
439.14	7063.74
439.33	7236.94
439.52	7045.01
439.70	7089.48
439.89	7405.46
440.08	7272.04
440.26	7353.96
440.45	7323.54
440.63	7667.60
440.82	7393.75
441.01	7325.88
441.19	7482.69
441.38	7559.93
441.57	7496.74
441.75	7742.49
441.94	7861.86
442.12	7817.39
442.31	7901.65
442.50	7901.65
442.68	7896.97
442.87	7939.10
443.05	7974.21
443.24	8226.98
443.43	8077.19
443.61	8304.22
443.80	8351.03
443.98	8042.08
444.17	7843.14
444.35	8255.07
444.54	8461.04
444.73	8327.63
444.91	8294.86
445.10	8306.56
445.28	8334.65
445.47	8194.22
445.65	8266.77
445.84	8353.37
446.02	8365.07
446.21	8517.21
446.39	8372.10
446.58	8486.78
446.77	8388.48
446.95	8180.17
447.14	8388.48
447.32	8306.56
447.51	8397.84
447.69	8271.45
447.88	8430.61
448.06	8667.00
448.25	8442.31
448.43	8442.31
448.62	8454.02
448.80	8681.05
448.99	8580.40
449.17	8720.84
449.36	8655.30
449.54	8652.96
449.73	9074.26
449.91	9013.40
450.10	9015.74
450.28	9006.38
450.46	8887.01
450.65	8992.34
450.83	9022.77
451.02	8943.19
451.20	9100.00
451.39	8985.32
451.57	8912.76
451.76	8912.76
451.94	9078.94
452.13	9210.01
452.31	9320.01
452.49	9057.87
452.68	9118.73
452.86	9411.29
453.05	9437.04
453.23	9305.97
453.42	9406.61
453.60	9301.29
453.78	9511.94
453.97	9462.79
454.15	9453.42
454.34	9586.83
454.52	9586.83
454.70	9617.26
454.89	9376.19
455.07	9359.80
455.26	9820.89
455.44	10003.45
455.62	9792.80
455.81	9771.74
455.99	9881.74
456.17	9888.76
456.36	10155.58
456.54	10047.92
456.73	10354.53
456.91	10445.81
457.09	10408.36
457.28	10321.76
457.46	10312.40
457.64	10525.39
457.83	10511.35
458.01	10249.21
458.19	10719.65
458.38	10600.29
458.56	10555.82
458.74	10520.71
458.93	10689.23
459.11	10581.56
459.29	10572.20
459.48	10707.95
459.66	10431.77
459.84	11084.78
460.03	11119.89
460.21	10930.30
460.39	10934.98
460.57	11194.78
460.76	10963.07
460.94	11197.12
461.12	11059.03
461.31	11199.46
461.49	11007.54
461.67	11091.80
461.85	11075.42
462.04	11227.55
462.22	11770.55
462.40	11541.18
462.59	11461.60
462.77	11482.67
462.95	11482.67
463.13	11480.33
463.32	11482.67
463.50	11941.41
463.68	11957.80
463.86	11796.30
464.05	11667.57
464.23	11859.49
464.41	11817.36
464.59	11569.27
464.78	11798.64
464.96	11875.88
465.14	11929.71
465.32	11873.54
465.50	12241.00
465.69	12006.95
465.87	12039.72
466.05	12044.40
466.23	12086.53
466.41	11960.14
466.60	12407.18
466.78	11990.56
466.96	12196.53
467.14	12147.38
467.32	12187.17
467.51	12425.90
467.69	12128.66
467.87	12400.16
468.05	12585.06
468.23	12549.95
468.41	12219.94
468.60	12355.69
468.78	12765.28
468.96	12416.54
469.14	12521.87
469.32	12894.01
469.50	12599.10
469.69	13001.68
469.87	13050.83
470.05	13060.19
470.23	13153.81
470.41	13172.54
470.59	13287.22
470.77	13046.15
470.95	13303.60
471.14	13479.15
471.32	13123.38
471.50	13612.56
471.68	13568.09
471.86	13535.32
472.04	13364.46
472.22	13827.88
472.40	13760.01
472.58	13694.47
472.77	13645.32
472.95	13949.59
473.13	14317.06
473.31	14038.53
473.49	14195.35
473.67	14267.91
473.85	14230.46
474.03	14546.43
474.21	14464.51
474.39	14647.07
474.57	14609.62
474.75	14981.77
474.93	15166.67
475.12	14860.06
475.30	15014.54
475.48	14862.40
475.66	14827.29
475.84	15084.75
476.02	15445.20
476.20	15365.62
476.38	15414.77
476.56	16056.08
476.74	15868.83
476.92	15864.15
477.10	15730.74
477.28	16147.36
477.46	16116.93
477.64	16379.07
477.82	16542.91
478.00	16566.31
478.18	16643.55
478.36	16823.77
478.54	16793.34
478.72	17224.00
478.90	17214.64
479.08	17343.37
479.26	17504.87
479.44	17678.07
479.62	17647.64
479.80	18171.92
479.98	18157.88
480.16	18614.28
480.34	18164.90
480.52	18422.36
480.70	18684.50
480.88	18405.97
481.06	18630.66
481.24	18738.33
481.41	19241.54
481.59	18937.27
481.77	19243.88
481.95	19283.67
482.13	19747.10
482.31	19709.65
482.49	20079.46
482.67	20051.37
482.85	20257.34
483.03	20400.11
483.21	20704.38
483.39	20711.40
483.57	20718.42
483.74	21294.19
483.92	21137.38
484.10	21420.58
484.28	21312.92
484.46	21750.60
484.64	21979.97
484.82	21834.86
485.00	22352.12
485.18	22539.36
485.35	22757.03
485.53	22977.04
485.71	23009.81
485.89	23229.82
486.07	23255.56
486.25	23042.57
486.43	23700.26
486.61	23414.72
486.78	24053.69
486.96	23756.44
487.14	24425.83
487.32	24180.07
487.50	24961.81
487.68	25076.50
487.85	24905.64
488.03	24999.26
488.21	25975.27
488.39	25476.73
488.57	25741.21
488.75	26293.58
488.92	26302.94
489.10	26595.51
489.28	26431.67
489.46	26920.84
489.64	26803.82
489.81	27590.24
489.99	27536.40
490.17	27857.06
490.35	27803.22
490.53	28224.52
490.70	28276.01
490.88	27885.14
491.06	28725.39
491.24	28250.27
491.41	28804.97
491.59	29191.16
491.77	29230.95
491.95	29413.51
492.13	29617.14
492.30	29783.32
492.48	29867.58
492.66	30087.59
492.84	30237.38
493.01	30558.03
493.19	30410.58
493.37	30815.49
493.54	30984.01
493.72	31454.46
493.90	31250.83
494.08	31707.24
494.25	31875.76
494.43	31957.67
494.61	32123.85
494.79	32673.88
494.96	32914.95
495.14	32643.45
495.32	33043.68
495.49	33118.58
495.67	33141.99
495.85	33172.41
496.02	33605.41
496.20	33738.82
496.38	34129.69
496.55	33930.75
496.73	34635.25
496.91	34129.69
497.09	34543.97
497.26	34670.36
497.44	34763.98
497.62	35215.70
497.79	35861.69
497.97	35395.92
498.14	35526.99
498.32	35817.22
498.50	35983.40
498.67	36535.76
498.85	36280.64
499.03	36694.92
499.20	36811.95
499.38	36788.54
499.56	36966.42
499.73	37170.05
499.91	37261.33
500.08	37385.38
500.26	37544.53
500.44	37336.23
500.61	37329.20
500.79	37977.53
500.97	37888.59
501.14	38590.75
501.32	38328.61
501.49	38047.75
501.67	38387.13
501.84	38768.63
502.02	38305.21
502.20	39028.43
502.37	39145.46
502.55	39173.55
502.72	39150.14
502.90	39529.31
503.07	39435.69
503.25	39915.50
503.43	39449.73
503.60	39791.45
503.78	40142.53
503.95	39864.00
504.13	40194.02
504.30	40397.65
504.48	40411.69
504.65	40762.77
504.83	40786.18
505.01	41228.54
505.18	41141.94
505.36	41219.17
505.53	41076.40
505.71	41322.16
505.88	41460.25
506.06	41067.04
506.23	41834.74
506.41	41862.82
506.58	42117.94
506.76	42047.72
506.93	42401.14
507.11	42120.28
507.28	42246.67
507.46	42543.92
507.63	42878.61
507.81	43077.56
507.98	42354.33
508.16	43091.60
508.33	42836.48
508.50	43288.21
508.68	43309.27
508.85	43948.24
509.03	43753.97
509.20	44062.93
509.38	44123.78
509.55	44327.41
509.73	44191.65
509.90	44753.38
510.08	44294.64
510.25	44332.09
510.42	44825.94
510.60	44839.98
510.77	44793.17
510.95	45418.10
511.12	45024.89
511.30	45137.23
511.47	45249.58
511.64	45476.61
511.82	45624.06
511.99	45478.95
512.17	45546.82
512.34	45371.28
512.51	45792.58
512.69	46452.61
512.86	46335.59
513.04	46291.12
513.21	46213.88
513.38	46440.91
513.56	46831.78
513.73	46635.17
513.90	46845.82
514.08	46604.75
514.25	47143.07
514.43	46679.64
514.60	47306.91
514.77	46979.23
514.95	47386.49
515.12	47358.40
515.29	47264.78
515.47	47859.27
515.64	48044.18
515.81	47304.57
515.99	47908.43
516.16	47969.28
516.33	47721.18
516.51	48619.95
516.68	48116.73
516.85	48406.96
517.03	48306.32
517.20	48636.33
517.37	48423.34
517.54	48729.95
517.72	48942.94
517.89	48509.94
518.06	49048.27
518.24	48582.50
518.41	48903.15
518.58	49408.71
518.75	49202.74
518.93	49141.89
519.10	49345.51
519.27	49471.90
519.45	49783.19
519.62	49818.30
519.79	50005.55
519.96	49727.02
520.14	49958.73
520.31	49790.22
520.48	49977.46
520.65	49841.71
520.83	50099.17
521.00	50539.19
521.17	50255.98
521.34	50583.66
521.52	50883.25
521.69	50316.84
521.86	51093.89
522.03	51133.68
522.20	51316.25
522.38	51440.29
522.55	50904.31
522.72	51077.51
522.89	51344.33
523.07	51566.68
523.24	51009.64
523.41	51770.31
523.58	51381.78
523.75	51922.44
523.92	51559.66
524.10	51943.51
524.27	51941.17
524.44	51608.81
524.61	51819.46
524.78	51997.34
524.96	52095.64
525.13	52161.18
525.30	52264.16
525.47	52385.87
525.64	52231.40
525.81	52224.37
525.98	52530.98
526.16	52327.36
526.33	52371.83
526.50	52629.29
526.67	52498.22
526.84	53006.11
527.01	52746.31
527.18	52762.70
527.36	52666.73
527.53	52790.78
527.70	53233.14
527.87	53411.02
528.04	53029.52
528.21	53432.09
528.38	52877.38
528.55	53378.26
528.72	53038.88
528.89	53331.45
529.07	52987.39
529.24	53228.46
529.41	53645.08
529.58	53708.27
529.75	53446.13
529.92	53408.68
530.09	53490.60
530.26	53778.49
530.43	53705.93
530.60	53600.61
530.77	53705.93
530.94	54141.27
531.11	54024.25
531.28	53759.76
531.46	54365.96
531.63	54157.66
531.80	54136.59
531.97	54227.87
532.14	54253.62
532.31	54426.82
532.48	54492.35
532.65	54461.93
532.82	54295.75
532.99	54220.85
533.16	54365.96
533.33	54728.75
533.50	55098.55
533.67	54801.30
533.84	54590.66
534.01	54953.44
534.18	54843.43
534.35	54988.55
534.52	54969.82
534.69	54862.16
534.86	55311.54
535.03	54815.35
535.20	55084.51
535.37	55229.62
535.54	55224.94
535.71	55224.94
535.88	55271.75
536.05	55515.17
536.22	55458.99
536.38	55487.08
536.55	55489.42
536.72	55388.78
536.89	55290.48
537.06	55356.01
537.23	55604.11
537.40	55508.14
537.57	55789.01
537.74	55611.13
537.91	55620.49
538.08	55751.56
538.25	55690.71
538.42	56100.30
538.59	55786.67
538.75	55896.67
538.92	55959.87
539.09	56069.87
539.26	55866.25
539.43	55943.48
539.60	55959.87
539.77	56193.92
539.94	56456.06
540.11	56163.50
540.28	56378.82
540.44	56184.56
540.61	56273.50
540.78	56130.73
540.95	56219.67
541.12	56315.63
541.29	56470.11
541.46	56336.69
541.62	56523.94
541.79	56486.49
541.96	56121.37
542.13	56444.36
542.30	56472.45
542.47	56701.82
542.63	56821.19
542.80	56736.93
542.97	56947.57
543.14	56966.30
543.31	56853.95
543.48	57097.37
543.64	57305.68
543.81	57092.69
543.98	57495.26
544.15	57134.82
544.32	57476.54
544.48	57443.77
544.65	57097.37
544.82	57228.44
544.99	57172.27
545.16	57235.46
545.32	57233.12
545.49	57240.14
545.66	57364.19
545.83	57556.11
546.00	57741.02
546.16	57565.48
546.33	57277.59
546.50	57340.78
546.67	57769.10
546.83	57336.10
547.00	57528.03
547.17	57565.48
547.34	57958.69
547.50	57698.89
547.67	57914.22
547.84	58033.58
548.00	57813.57
548.17	58188.06
548.34	58056.99
548.51	57846.34
548.67	58174.02
548.84	58010.18
549.01	58134.23
549.18	57970.39
549.34	58000.82
549.51	58045.29
549.68	58291.04
549.84	58075.71
550.01	58515.73
550.18	58101.46
550.34	58143.59
550.51	58394.03
550.68	58190.40
550.84	57923.58
551.01	58454.88
551.18	58295.72
551.34	58546.16
551.51	58375.30
551.68	58319.13
551.84	58529.78
552.01	58394.03
552.18	58506.37
552.34	58539.14
552.51	58553.18
552.68	58492.33
552.84	58604.67
553.01	58574.25
553.18	58735.74
553.34	58815.32
553.51	58852.77
553.67	58604.67
553.84	58899.58
554.01	58843.41
554.17	59000.22
554.34	58960.44
554.51	58733.40
554.67	59145.34
554.84	58899.58
555.00	58960.44
555.17	58897.24
555.33	58908.94
555.50	58789.58
555.67	58951.07
555.83	58988.52
556.00	59065.76
556.16	59222.58
556.33	59107.89
556.50	59189.81
556.66	59161.72
556.83	59143.00
556.99	59243.64
557.16	59398.12
557.32	59419.18
557.49	59702.38
557.65	59370.03
557.82	59002.56
557.98	59208.53
558.15	59250.66
558.32	59348.96
558.48	59175.76
558.65	59370.03
558.81	59384.07
558.98	59306.83
559.14	59391.09
559.31	59550.25
559.47	59442.59
559.64	59648.55
559.80	59484.72
559.97	59533.87
560.13	59388.75
560.30	59580.68
560.46	59489.40
560.63	59786.64
560.79	59634.51
560.96	59840.48
561.12	59852.18
561.29	59662.60
561.45	59664.94
561.61	59793.67
561.78	59845.16
561.94	59735.15
562.11	59709.41
562.27	59650.89
562.44	59891.97
562.60	60128.36
562.77	59903.67
562.93	59585.36
563.10	59856.86
563.26	59800.69
563.42	60030.06
563.59	59852.18
563.75	59915.37
563.92	59957.50
564.08	59896.65
564.24	60226.66
564.41	60130.70
564.57	59931.76
564.74	59994.95
564.90	60041.76
565.07	60095.60
565.23	59945.80
565.39	59915.37
565.56	59901.33
565.72	60119.00
565.88	60135.38
566.05	60210.28
566.21	59824.09
566.38	60142.41
566.54	60069.85
566.70	60252.41
566.87	60163.47
567.03	60130.70
567.19	60278.16
567.36	60151.77
567.52	60289.86
567.68	60315.61
567.85	60149.43
568.01	60495.83
568.17	60221.98
568.34	60271.14
568.50	60231.35
568.66	60041.76
568.83	60324.97
568.99	60184.54
569.15	60093.25
569.32	60378.80
569.48	60238.37
569.64	60364.76
569.81	60463.06
569.97	60207.94
570.13	60537.96
570.30	60292.20
570.46	60369.44
570.62	60369.44
570.78	60477.10
570.95	60420.93
571.11	60477.10
571.27	60364.76
571.43	60317.95
571.60	60441.99
571.76	60537.96
571.92	60519.23
572.09	60626.90
572.25	60523.91
572.41	60385.82
572.57	60535.62
572.74	60626.90
572.90	60432.63
573.06	60556.68
573.22	60556.68
573.38	60760.31
573.55	60460.72
573.71	60552.00
573.87	60481.78
574.03	60512.21
574.20	60523.91
574.36	60563.70
574.52	60505.19
574.68	60535.62
574.84	60718.18
575.01	60568.38
575.17	60430.29
575.33	60598.81
575.49	60554.34
575.65	60561.36
575.82	60734.56
575.98	60743.92
576.14	60900.74
576.30	60664.35
576.46	60514.55
576.62	60715.84
576.79	60622.22
576.95	60559.02
577.11	60654.98
577.27	60769.67
577.43	60882.02
577.59	60591.79
577.75	60589.45
577.92	60488.80
578.08	60640.94
578.24	60811.80
578.40	60959.25
578.56	60882.02
578.72	60680.73
578.88	60942.87
579.04	60783.71
579.21	60617.53
579.37	60828.18
579.53	60924.14
579.69	60659.66
579.85	60701.79
580.01	60786.05
580.17	60725.20
580.33	60889.04
580.49	60872.65
580.65	60664.35
580.82	60722.86
580.98	60842.23
581.14	60825.84
581.30	61024.79
581.46	60797.76
581.62	60739.24
581.78	60694.77
581.94	61020.11
582.10	60867.97
582.26	60715.84
582.42	60786.05
582.58	60917.12
582.74	60940.53
582.90	60732.22
583.06	60975.64
583.22	60736.90
583.38	60898.40
583.54	61008.40
583.70	60961.59
583.86	60942.87
584.02	60685.41
584.18	61069.26
584.34	60729.88
584.50	60877.33
584.66	60750.94
584.82	60750.94
584.98	60839.89
585.14	61038.83
585.30	60657.32
585.46	60786.05
585.62	60776.69
585.78	61010.74
585.94	60952.23
586.10	60889.04
586.26	60685.41
586.42	60863.29
586.58	61106.71
586.74	60924.14
586.90	60952.23
587.06	60914.78
587.22	60867.97
587.38	61024.79
587.54	61006.06
587.70	61059.90
587.86	61087.98
588.02	61055.21
588.18	61151.18
588.34	60898.40
588.49	61083.30
