SpectraSuite Data File
++++++++++++++++++++++++++++++++++++
Date: Fri Oct 25 11:25:05 EDT 2013
User: price-jones
Dark Spectrum Present: No
Reference Spectrum Present: No
Number of Sampled Component Spectra: 1
Spectrometers: USB2+H05261
Integration Time (usec): 100000 (USB2+H05261)
Spectra Averaged: 1 (USB2+H05261)
Boxcar Smoothing: 0 (USB2+H05261)
Correct for Electrical Dark: No (USB2+H05261)
Strobe/Lamp Enabled: No (USB2+H05261)
Correct for Detector Non-linearity: No (USB2+H05261)
Correct for Stray Light: No (USB2+H05261)
Number of Pixels in Processed Spectrum: 2048
>>>>>Begin Processed Spectral Data<<<<<
365.73	212.99
365.92	212.99
366.12	212.99
366.32	86.60
366.52	138.09
366.72	180.22
366.91	180.22
367.11	203.63
367.31	117.03
367.51	135.75
367.70	102.98
367.90	119.37
368.10	126.39
368.30	152.13
368.49	191.92
368.69	140.43
368.89	161.50
369.09	67.88
369.28	159.16
369.48	187.24
369.68	121.71
369.87	222.35
370.07	194.26
370.27	198.95
370.47	341.72
370.66	634.29
370.86	615.56
371.06	610.88
371.25	746.63
371.45	650.67
371.65	655.35
371.84	725.57
372.04	648.33
372.24	636.63
372.44	699.82
372.63	788.76
372.83	753.65
373.03	716.20
373.22	709.18
373.42	737.27
373.62	688.12
373.81	730.25
374.01	727.91
374.21	809.83
374.40	774.72
374.60	842.59
374.79	807.48
374.99	833.23
375.19	863.66
375.38	793.44
375.58	798.12
375.78	856.64
375.97	898.77
376.17	816.85
376.37	833.23
376.56	898.77
376.76	835.57
376.95	884.72
377.15	901.11
377.35	887.06
377.54	936.21
377.74	933.87
377.93	945.58
378.13	889.40
378.33	985.37
378.52	851.96
378.72	959.62
378.91	985.37
379.11	990.05
379.31	917.49
379.50	931.53
379.70	947.92
379.89	992.39
380.09	933.87
380.28	994.73
380.48	1046.22
380.68	985.37
380.87	999.41
381.07	987.71
381.26	1015.79
381.46	1008.77
381.65	1088.35
381.85	994.73
382.04	1025.15
382.24	1064.94
382.43	1041.54
382.63	1090.69
382.83	1121.12
383.02	1050.90
383.22	1060.26
383.41	1109.41
383.61	1086.01
383.80	1135.16
384.00	1146.86
384.19	1130.48
384.39	1055.58
384.58	1064.94
384.78	1203.04
384.97	1130.48
385.17	1207.72
385.36	1167.93
385.56	1186.65
385.75	1149.20
385.95	1146.86
386.14	1174.95
386.34	1149.20
386.53	1137.50
386.72	1221.76
386.92	1238.14
387.11	1188.99
387.31	1261.55
387.50	1217.08
387.70	1303.68
387.89	1256.87
388.09	1306.02
388.28	1308.36
388.48	1280.27
388.67	1327.08
388.86	1366.87
389.06	1273.25
389.25	1383.26
389.45	1324.74
389.64	1394.96
389.84	1401.98
390.03	1313.04
390.22	1331.76
390.42	1364.53
390.61	1315.38
390.81	1416.02
391.00	1425.39
391.19	1444.11
391.39	1488.58
391.58	1441.77
391.78	1444.11
391.97	1486.24
392.16	1444.11
392.36	1540.07
392.55	1544.75
392.75	1626.67
392.94	1563.48
393.13	1465.18
393.33	1495.60
393.52	1629.01
393.71	1521.35
393.91	1526.03
394.10	1554.12
394.29	1586.88
394.49	1600.93
394.68	1568.16
394.88	1631.35
395.07	1605.61
395.26	1621.99
395.46	1652.42
395.65	1746.04
395.84	1680.50
396.04	1813.92
396.23	1792.85
396.42	1647.74
396.62	1797.53
396.81	1797.53
397.00	1729.66
397.19	1764.76
397.39	1717.95
397.58	1860.73
397.77	1774.13
397.97	1771.79
398.16	1825.62
398.35	1830.30
398.55	1877.11
398.74	1825.62
398.93	1907.54
399.12	1919.24
399.32	1724.97
399.51	1975.41
399.70	1989.46
399.90	1975.41
400.09	2057.33
400.28	2099.46
400.47	2111.16
400.67	1935.62
400.86	2106.48
401.05	2050.31
401.24	2038.61
401.44	2012.86
401.63	2176.70
401.82	2050.31
402.01	2108.82
402.21	2101.80
402.40	2214.15
402.59	2169.68
402.78	2235.21
402.97	2223.51
403.17	2251.60
403.36	2258.62
403.55	2293.72
403.74	2399.05
403.93	2279.68
404.13	2305.43
404.32	2298.41
404.51	2317.13
404.70	2438.84
404.89	2303.09
405.09	2415.43
405.28	2455.22
405.47	2506.71
405.66	2450.54
405.85	2555.86
406.05	2590.97
406.24	2600.34
406.43	2445.86
406.62	2651.83
406.81	2733.75
407.00	2607.36
407.20	2558.21
407.39	2808.64
407.58	2663.53
407.77	2670.55
407.96	2808.64
408.15	2689.28
408.34	2574.59
408.54	2691.62
408.73	2724.38
408.92	2806.30
409.11	2897.58
409.30	2803.96
409.49	2942.05
409.68	2974.82
409.87	2857.79
410.07	3068.44
410.26	3070.78
410.45	2967.80
410.64	2981.84
410.83	2998.23
411.02	3082.49
411.21	3138.66
411.40	3091.85
411.59	3101.21
411.78	3157.38
411.98	3295.47
412.17	3248.66
412.36	3183.13
412.55	3391.44
412.74	3471.01
412.93	3410.16
413.12	3293.13
413.31	3578.68
413.50	3428.88
413.69	3499.10
413.88	3655.92
414.07	3496.76
414.26	3698.05
414.45	3571.66
414.64	3672.30
414.83	3796.35
415.02	3655.92
415.22	3894.65
415.41	3749.54
415.60	3805.71
415.79	3946.14
415.98	3936.78
416.17	3873.59
416.36	3997.64
416.55	4011.68
416.74	4114.66
416.93	4084.23
417.12	4011.68
417.31	4124.02
417.50	4168.49
417.69	4262.12
417.88	4322.97
418.07	4124.02
418.26	4210.62
418.45	4177.86
418.64	4486.81
418.83	4545.32
419.02	4376.80
419.21	4620.22
419.39	4573.41
419.58	4348.72
419.77	4409.57
419.96	4573.41
420.15	4416.59
420.34	4538.30
420.53	4514.89
420.72	4676.39
420.91	4613.20
421.10	4739.58
421.29	4774.69
421.48	4638.94
421.67	4870.65
421.86	4805.12
422.05	4746.61
422.24	4788.74
422.43	4997.04
422.61	4821.50
422.80	4844.91
422.99	4924.49
423.18	5153.86
423.37	5020.45
423.56	4882.36
423.75	4856.61
423.94	4739.58
424.13	4554.68
424.32	4554.68
424.50	4945.55
424.69	5095.35
424.88	5085.98
425.07	4894.06
425.26	4807.46
425.45	4961.94
425.64	5015.77
425.83	5064.92
426.01	5025.13
426.20	5158.54
426.39	4936.19
426.58	4980.66
426.77	5071.94
426.96	5214.71
427.15	5064.92
427.33	5242.80
427.52	5200.67
427.71	5294.29
427.90	5261.52
428.09	5317.70
428.28	5289.61
428.46	5392.59
428.65	5252.16
428.84	5362.17
429.03	5685.16
429.22	5259.18
429.40	5434.72
429.59	5500.26
429.78	5392.59
429.97	5247.48
430.16	5472.17
430.34	5544.73
430.53	5530.69
430.72	5666.44
430.91	5514.30
431.10	5610.26
431.28	5675.80
431.47	5776.44
431.66	5980.07
431.85	5708.57
432.03	5956.66
432.22	5937.94
432.41	5966.03
432.60	5912.19
432.79	5886.45
432.97	5916.87
433.16	5921.56
433.35	5935.60
433.54	6031.56
433.72	6202.42
433.91	6118.16
434.10	5996.45
434.28	6054.97
434.47	6157.95
434.66	6106.46
434.85	6356.90
435.03	6132.20
435.22	6139.23
435.41	6448.18
435.59	6286.68
435.78	6480.94
435.97	6466.90
436.16	6331.15
436.34	6349.87
436.53	6492.65
436.72	6523.07
436.90	6595.63
437.09	6576.91
437.28	6389.66
437.46	6359.24
437.65	6586.27
437.84	6675.21
438.02	6581.59
438.21	6768.83
438.40	6516.05
438.58	6817.98
438.77	7049.69
438.96	6998.20
439.14	7075.44
439.33	7265.02
439.52	7096.50
439.70	7012.24
439.89	7281.41
440.08	7412.48
440.26	7410.14
440.45	7283.75
440.63	7393.75
440.82	7485.03
441.01	7480.35
441.19	7564.61
441.38	7534.18
441.57	7683.98
441.75	7892.29
441.94	7822.07
442.12	7915.69
442.31	8135.70
442.50	7829.09
442.68	7882.92
442.87	7913.35
443.05	7880.58
443.24	8084.21
443.43	8079.53
443.61	8166.13
443.80	8231.66
443.98	7936.76
444.17	7742.49
444.35	8128.68
444.54	8393.16
444.73	8252.73
444.91	8236.35
445.10	8322.94
445.28	8142.72
445.47	8257.41
445.65	8329.97
445.84	8461.04
446.02	8528.91
446.21	8379.12
446.39	8479.76
446.58	8278.47
446.77	8400.18
446.95	8067.83
447.14	8428.27
447.32	8667.00
447.51	8557.00
447.69	8322.94
447.88	8489.12
448.06	8479.76
448.25	8327.63
448.43	8542.96
448.62	8559.34
448.80	8458.70
448.99	8765.31
449.17	8638.92
449.36	8592.11
449.54	8814.46
449.73	8903.40
449.91	8961.91
450.10	8952.55
450.28	9158.52
450.46	8982.98
450.65	8980.64
450.83	8814.46
451.02	9158.52
451.20	9097.66
451.39	8959.57
451.57	9100.00
451.76	8945.53
451.94	9322.35
452.13	9390.23
452.31	9022.77
452.49	8992.34
452.68	9261.50
452.86	9195.96
453.05	9568.11
453.23	9495.55
453.42	9114.05
453.60	9404.27
453.78	9371.50
453.97	9383.21
454.15	9366.82
454.34	9537.68
454.52	9722.59
454.70	9551.73
454.89	9668.75
455.07	9755.35
455.26	9888.76
455.44	9806.84
455.62	9755.35
455.81	9912.17
455.99	9956.64
456.17	9921.53
456.36	10211.76
456.54	10122.82
456.73	10092.39
456.91	10607.31
457.09	10345.17
457.28	10490.28
457.46	10193.03
457.64	10424.75
457.83	10497.30
458.01	10300.70
458.19	10633.05
458.38	10569.86
458.56	10796.89
458.74	10672.84
458.93	10401.34
459.11	10619.01
459.29	10525.39
459.48	10810.93
459.66	10878.81
459.84	10822.64
460.03	10881.15
460.21	10813.28
460.39	11112.86
460.57	11066.05
460.76	11040.31
460.94	11255.64
461.12	11016.90
461.31	11136.27
461.49	11293.08
461.67	11211.17
461.85	11239.25
462.04	11199.46
462.22	11733.11
462.40	11510.75
462.59	11485.01
462.77	11580.97
462.95	11726.08
463.13	11634.80
463.32	11709.70
463.50	11681.61
463.68	11597.35
463.86	11630.12
464.05	11384.37
464.23	11730.76
464.41	11658.21
464.59	11679.27
464.78	11847.79
464.96	11967.16
465.14	11850.13
465.32	11871.20
465.50	12241.00
465.69	12135.68
465.87	11943.75
466.05	12039.72
466.23	12145.04
466.41	12112.27
466.60	12383.77
466.78	11936.73
466.96	12102.91
467.14	12196.53
467.32	12025.67
467.51	12610.81
467.69	12271.43
467.87	12526.55
468.05	12491.44
468.23	12386.12
468.41	12423.56
468.60	12421.22
468.78	12734.85
468.96	12767.62
469.14	12746.56
469.32	12992.31
469.50	12589.74
469.69	12987.63
469.87	12807.41
470.05	12971.25
470.23	13085.94
470.41	13170.19
470.59	13179.56
470.77	12945.50
470.95	13011.04
471.14	13385.52
471.32	13055.51
471.50	13544.68
471.68	13640.64
471.86	13563.40
472.04	13671.07
472.22	14073.64
472.40	13792.78
472.58	13804.48
472.77	13930.87
472.95	14003.43
473.13	14274.93
473.31	13792.78
473.49	14015.13
473.67	13961.30
473.85	14307.69
474.03	14565.15
474.21	14326.42
474.39	14829.63
474.57	14471.53
474.75	14696.22
474.93	14846.02
475.12	14949.00
475.30	14939.64
475.48	15007.52
475.66	15012.20
475.84	15180.71
476.02	15279.02
476.20	15382.00
476.38	15688.61
476.56	16046.71
476.74	15925.00
476.92	15730.74
477.10	15721.38
477.28	16219.91
477.46	16128.63
477.64	16245.66
477.82	16493.76
478.00	16996.97
478.18	16695.04
478.36	16662.27
478.54	16952.50
478.72	17128.04
478.90	17146.76
479.08	17748.28
479.26	17502.53
479.44	17774.03
479.62	18047.87
479.80	18031.49
479.98	18036.17
480.16	18391.93
480.34	17980.00
480.52	18555.77
480.70	18251.50
480.88	18499.59
481.06	19183.03
481.24	18808.54
481.41	19126.86
481.59	19129.20
481.77	19360.91
481.95	19295.38
482.13	19349.21
482.31	19850.08
482.49	20369.68
482.67	19936.68
482.85	20149.67
483.03	20196.48
483.21	20606.08
483.39	21078.86
483.57	20643.52
483.74	21106.95
483.92	20987.58
484.10	21123.33
484.28	21694.43
484.46	21680.38
484.64	22113.38
484.82	21872.31
485.00	22073.59
485.18	23049.60
485.35	22855.33
485.53	22850.65
485.71	23091.73
485.89	23377.27
486.07	23082.36
486.25	23536.43
486.43	23346.84
486.61	23583.24
486.78	23962.40
486.96	24194.12
487.14	24505.41
487.32	24601.37
487.50	24505.41
487.68	25120.97
487.85	25034.37
488.03	25401.83
488.21	25488.43
488.39	25593.76
488.57	26136.76
488.75	25759.94
488.92	26235.06
489.10	26885.73
489.28	26424.65
489.46	27037.87
489.64	26941.91
489.81	27400.65
489.99	27709.60
490.17	27513.00
490.35	28051.32
490.53	28039.62
490.70	28283.03
490.88	28149.62
491.06	28687.95
491.24	28793.27
491.41	28751.14
491.59	29252.02
491.77	29195.84
491.95	29546.92
492.13	29532.88
492.30	29542.24
492.48	30019.71
492.66	30040.78
492.84	30387.18
493.01	30312.28
493.19	30431.65
493.37	30583.78
493.54	30672.72
493.72	31297.64
493.90	31105.72
494.08	31653.40
494.25	31620.64
494.43	31847.67
494.61	32346.20
494.79	32205.77
494.96	32720.69
495.14	32744.09
495.32	32936.02
495.49	33275.40
495.67	32594.30
495.85	33170.07
496.02	33977.56
496.20	33687.33
496.38	33881.60
496.55	33919.04
496.73	34499.50
496.91	34361.40
497.09	34698.44
497.26	34749.93
497.44	34658.65
497.62	34740.57
497.79	35187.61
497.97	35054.20
498.14	35592.53
498.32	35952.97
498.50	35709.55
498.67	36687.90
498.85	36524.06
499.03	36418.74
499.20	36327.45
499.38	36577.89
499.56	36833.01
499.73	36926.63
499.91	37209.84
500.08	37046.00
500.26	37256.65
500.44	37752.84
500.61	37879.23
500.79	37490.70
500.97	38043.07
501.14	38300.53
501.32	38347.34
501.49	38380.10
501.67	38433.94
501.84	38370.74
502.02	38263.08
502.20	39042.48
502.37	38951.20
502.55	39218.02
502.72	39208.65
502.90	39428.66
503.07	39541.01
503.25	39695.49
503.43	39337.38
503.60	39845.28
503.78	40322.75
503.95	39948.26
504.13	40196.36
504.30	40917.25
504.48	40100.40
504.65	40486.59
504.83	40711.28
505.01	41036.61
505.18	41017.89
505.36	41467.27
505.53	40828.30
505.71	41418.12
505.88	41649.83
506.06	41076.40
506.23	41968.15
506.41	41457.91
506.58	41823.03
506.76	41731.75
506.93	42424.55
507.11	42354.33
507.28	41921.34
507.46	42401.14
507.63	42635.20
507.81	42731.16
507.98	42710.10
508.16	43157.14
508.33	43271.82
508.50	43103.31
508.68	43180.54
508.85	43442.68
509.03	43452.05
509.20	43959.94
509.38	44278.25
509.55	44210.38
509.73	44266.55
509.90	44617.63
510.08	44411.67
510.25	44720.62
510.42	44432.73
510.60	44528.69
510.77	44987.44
510.95	45174.68
511.12	44928.92
511.30	44594.23
511.47	45322.13
511.64	45137.23
511.82	45682.58
511.99	45284.68
512.17	46007.91
512.34	45567.89
512.51	46026.63
512.69	46366.01
512.86	46089.83
513.04	46539.21
513.21	46326.22
513.38	46370.69
513.56	46658.58
513.73	46497.08
513.90	46829.44
514.08	47054.13
514.25	47140.73
514.43	47143.07
514.60	47264.78
514.77	46803.69
514.95	47356.06
515.12	47248.39
515.29	47302.23
515.47	47524.58
515.64	47718.84
515.81	48121.41
515.99	47936.51
516.16	48385.89
516.33	48301.64
516.51	48561.44
516.68	48039.50
516.85	48210.35
517.03	48704.21
517.20	48149.50
517.37	48800.17
517.54	48662.08
517.72	48704.21
517.89	49223.81
518.06	48956.99
518.24	48978.05
518.41	48865.70
518.58	48945.28
518.75	49006.14
518.93	49296.36
519.10	49357.22
519.27	49581.91
519.45	49401.69
519.62	49972.78
519.79	49469.56
519.96	49818.30
520.14	49993.84
520.31	50244.28
520.48	50220.87
520.65	50005.55
520.83	50550.89
521.00	50691.32
521.17	50461.95
521.34	50431.52
521.52	50415.14
521.69	50614.08
521.86	51009.64
522.03	50958.14
522.20	51269.43
522.38	51255.39
522.55	51220.28
522.72	50969.85
522.89	51384.12
523.07	51468.38
523.24	51189.86
523.41	51604.13
523.58	51285.82
523.75	51440.29
523.92	51515.19
524.10	51894.36
524.27	51821.80
524.44	51784.35
524.61	52004.36
524.78	51866.27
524.96	51798.40
525.13	52126.07
525.30	52250.12
525.47	52374.17
525.64	52215.01
525.81	52140.11
525.98	52643.33
526.16	52512.26
526.33	52549.71
526.50	52521.62
526.67	52643.33
526.84	52875.04
527.01	52872.70
527.18	52540.35
527.36	52928.87
527.53	53055.26
527.70	53336.13
527.87	52938.24
528.04	52933.56
528.21	53294.00
528.38	52844.62
528.55	53441.45
528.72	53041.22
528.89	53008.45
529.07	53319.74
529.24	53331.45
529.41	53619.33
529.58	53633.38
529.75	53303.36
529.92	53542.10
530.09	53748.06
530.26	53921.26
530.43	53886.15
530.60	53815.94
530.77	53792.53
530.94	53888.49
531.11	53787.85
531.28	53937.65
531.46	54141.27
531.63	54054.67
531.80	54246.60
531.97	54230.21
532.14	54188.08
532.31	54508.74
532.48	54120.21
532.65	54136.59
532.82	54342.56
532.99	54646.83
533.16	54482.99
533.33	54862.16
533.50	54588.31
533.67	54719.38
533.84	54487.67
534.01	54653.85
534.18	54663.21
534.35	55119.62
534.52	54981.52
534.69	55119.62
534.86	55065.78
535.03	54855.14
535.20	55021.31
535.37	55271.75
535.54	55208.56
535.71	55110.25
535.88	55341.97
536.05	55262.39
536.22	55330.26
536.38	55515.17
536.55	55304.52
536.72	55360.69
536.89	55058.76
537.06	55348.99
537.23	55444.95
537.40	55538.57
537.57	55566.66
537.74	55606.45
537.91	55962.21
538.08	55941.14
538.25	55377.08
538.42	55700.07
538.59	56062.85
538.75	55880.29
538.92	56030.08
539.09	56158.81
539.26	55744.54
539.43	56006.68
539.60	56006.68
539.77	56004.34
539.94	56346.06
540.11	56177.54
540.28	56144.77
540.44	56322.65
540.61	56456.06
540.78	56315.63
540.95	56474.79
541.12	56233.71
541.29	56315.63
541.46	56301.59
541.62	56523.94
541.79	56367.12
541.96	56154.13
542.13	56545.00
542.30	56458.40
542.47	56685.43
542.63	56816.50
542.80	56732.25
542.97	56884.38
543.14	57097.37
543.31	57134.82
543.48	56928.85
543.64	57308.02
543.81	57268.23
543.98	56872.68
544.15	57057.58
544.32	57174.61
544.48	57631.01
544.65	57277.59
544.82	57202.69
544.99	57064.60
545.16	57378.23
545.32	57212.06
545.49	57492.92
545.66	57673.14
545.83	57401.64
546.00	57574.84
546.16	57546.75
546.33	57572.50
546.50	57392.28
546.67	57633.35
546.83	57319.72
547.00	57572.50
547.17	57516.32
547.34	57741.02
547.50	57832.30
547.67	57853.36
547.84	57970.39
548.00	57902.51
548.17	58307.43
548.34	58014.86
548.51	58080.39
548.67	57986.77
548.84	58056.99
549.01	58066.35
549.18	58059.33
549.34	58120.18
549.51	58197.42
549.68	58192.74
549.84	58113.16
550.01	58220.83
550.18	58014.86
550.34	58321.47
550.51	58309.77
550.68	58426.79
550.84	58145.93
551.01	58344.87
551.18	58300.40
551.34	58269.98
551.51	58197.42
551.68	58286.36
551.84	58216.14
552.01	58326.15
552.18	58618.72
552.34	58445.52
552.51	58803.62
552.68	58307.43
552.84	58513.39
553.01	58726.38
553.18	58681.91
553.34	58721.70
553.51	58693.61
553.67	58639.78
553.84	58932.35
554.01	58827.02
554.17	58794.26
554.34	58958.09
554.51	58845.75
554.67	59049.38
554.84	58932.35
555.00	58913.62
555.17	58899.58
555.33	59018.95
555.50	58782.55
555.67	58925.33
555.83	59056.40
556.00	59121.93
556.16	59299.81
556.33	59086.82
556.50	59126.61
556.66	59028.31
556.83	59065.76
556.99	59271.73
557.16	59227.26
557.32	59327.90
557.49	59503.44
557.65	59285.77
557.82	59140.66
557.98	59091.51
558.15	59339.60
558.32	59318.54
558.48	59175.76
558.65	59178.10
558.81	59283.43
558.98	59494.08
559.14	59538.55
559.31	59643.87
559.47	59557.27
559.64	59561.95
559.80	59559.61
559.97	59627.49
560.13	59505.78
560.30	59737.49
560.46	59608.76
560.63	59810.05
560.79	59475.35
560.96	59838.14
561.12	59564.29
561.29	59779.62
561.45	59615.79
561.61	59786.64
561.78	59416.84
561.94	59592.38
562.11	59657.91
562.27	59842.82
562.44	59826.43
562.60	59978.57
562.77	59812.39
562.93	59793.67
563.10	60030.06
563.26	59852.18
563.42	60044.10
563.59	59962.18
563.75	59987.93
563.92	59941.12
564.08	59854.52
564.24	59877.93
564.41	59929.42
564.57	60083.89
564.74	60065.17
564.90	59980.91
565.07	59990.27
565.23	59915.37
565.39	60158.79
565.56	60083.89
565.72	60151.77
565.88	59980.91
566.05	60072.19
566.21	60060.49
566.38	60264.11
566.54	60074.53
566.70	60126.02
566.87	60334.33
567.03	59852.18
567.19	60456.04
567.36	60271.14
567.52	60191.56
567.68	60299.22
567.85	60044.10
568.01	60374.12
568.17	60154.11
568.34	60275.82
568.50	60364.76
568.66	60175.17
568.83	60404.55
568.99	60292.20
569.15	60144.75
569.32	60294.54
569.48	60266.45
569.64	60336.67
569.81	60406.89
569.97	60168.15
570.13	60385.82
570.30	60221.98
570.46	60397.52
570.62	60341.35
570.78	60542.64
570.95	60465.40
571.11	60500.51
571.27	60444.33
571.43	60355.39
571.60	60519.23
571.76	60530.93
571.92	60589.45
572.09	60353.05
572.25	60596.47
572.41	60409.23
572.57	60610.51
572.74	60638.60
572.90	60217.30
573.06	60633.92
573.22	60575.40
573.38	60589.45
573.55	60573.06
573.71	60713.50
573.87	60507.53
574.03	60371.78
574.20	60608.17
574.36	60456.04
574.52	60697.11
574.68	60470.08
574.84	60795.42
575.01	60523.91
575.17	60502.85
575.33	60673.71
575.49	60509.87
575.65	60610.51
575.82	60851.59
575.98	60629.24
576.14	61006.06
576.30	60640.94
576.46	60509.87
576.62	60533.28
576.79	60643.28
576.95	60547.32
577.11	60945.21
577.27	60601.15
577.43	60767.33
577.59	60477.10
577.75	60807.12
577.92	60636.26
578.08	60589.45
578.24	60676.05
578.40	60750.94
578.56	60903.08
578.72	60729.88
578.88	60942.87
579.04	60830.52
579.21	60814.14
579.37	60919.46
579.53	60750.94
579.69	60633.92
579.85	60519.23
580.01	60732.22
580.17	60568.38
580.33	60814.14
580.49	61017.77
580.65	60856.27
580.82	60893.72
580.98	60718.18
581.14	60734.56
581.30	60884.36
581.46	60706.47
581.62	60800.10
581.78	60764.99
581.94	60757.97
582.10	60919.46
582.26	60867.97
582.42	60856.27
582.58	60680.73
582.74	60762.65
582.90	60720.52
583.06	60800.10
583.22	60865.63
583.38	60928.83
583.54	60821.16
583.70	60884.36
583.86	61165.22
584.02	60907.76
584.18	60947.55
584.34	60877.33
584.50	60865.63
584.66	60825.84
584.82	60575.40
584.98	60919.46
585.14	60963.93
585.30	60970.96
585.46	60947.55
585.62	60832.86
585.78	61048.19
585.94	60636.26
586.10	61052.87
586.26	60839.89
586.42	61015.43
586.58	61031.81
586.74	61013.08
586.90	60807.12
587.06	60900.74
587.22	61116.07
587.38	61102.03
587.54	61038.83
587.70	61050.53
587.86	60795.42
588.02	60959.25
588.18	61167.56
588.34	60858.61
588.49	60940.53
