SpectraSuite Data File
++++++++++++++++++++++++++++++++++++
Date: Fri Oct 25 10:43:36 EDT 2013
User: price-jones
Dark Spectrum Present: No
Reference Spectrum Present: No
Number of Sampled Component Spectra: 1
Spectrometers: USB2+H05261
Integration Time (usec): 100000 (USB2+H05261)
Spectra Averaged: 1 (USB2+H05261)
Boxcar Smoothing: 0 (USB2+H05261)
Correct for Electrical Dark: No (USB2+H05261)
Strobe/Lamp Enabled: No (USB2+H05261)
Correct for Detector Non-linearity: No (USB2+H05261)
Correct for Stray Light: No (USB2+H05261)
Number of Pixels in Processed Spectrum: 2048
>>>>>Begin Processed Spectral Data<<<<<
365.73	117.03
365.92	117.03
366.12	117.03
366.32	30.43
366.52	18.72
366.72	0.00
366.91	0.00
367.11	21.06
367.31	0.00
367.51	18.72
367.70	23.41
367.90	21.06
368.10	95.96
368.30	65.54
368.49	9.36
368.69	74.90
368.89	56.17
369.09	0.00
369.28	74.90
369.48	93.62
369.68	53.83
369.87	67.88
370.07	56.17
370.27	91.28
370.47	255.12
370.66	355.76
370.86	447.04
371.06	472.79
371.25	425.98
371.45	442.36
371.65	470.45
371.84	383.85
372.04	524.28
372.24	430.66
372.44	433.00
372.63	550.03
372.83	456.40
373.03	503.22
373.22	491.51
373.42	521.94
373.62	543.00
373.81	573.43
374.01	599.18
374.21	543.00
374.40	531.30
374.60	627.26
374.79	573.43
374.99	645.99
375.19	587.47
375.38	617.90
375.58	599.18
375.78	601.52
375.97	599.18
376.17	669.39
376.37	587.47
376.56	629.60
376.76	592.16
376.95	660.03
377.15	655.35
377.35	667.05
377.54	709.18
377.74	582.79
377.93	674.07
378.13	688.12
378.33	678.76
378.52	610.88
378.72	669.39
378.91	641.31
379.11	657.69
379.31	711.52
379.50	727.91
379.70	779.40
379.89	744.29
380.09	739.61
380.28	688.12
380.48	645.99
380.68	695.14
380.87	739.61
381.07	655.35
381.26	688.12
381.46	720.88
381.65	751.31
381.85	653.01
382.04	683.44
382.24	699.82
382.43	624.92
382.63	688.12
382.83	748.97
383.02	716.20
383.22	772.38
383.41	753.65
383.61	758.33
383.80	828.55
384.00	741.95
384.19	753.65
384.39	774.72
384.58	741.95
384.78	849.61
384.97	805.14
385.17	821.53
385.36	781.74
385.56	821.53
385.75	842.59
385.95	823.87
386.14	884.72
386.34	770.04
386.53	837.91
386.72	842.59
386.92	884.72
387.11	901.11
387.31	833.23
387.50	828.55
387.70	945.58
387.89	905.79
388.09	870.68
388.28	905.79
388.48	957.28
388.67	983.02
388.86	908.13
389.06	1008.77
389.25	1034.52
389.45	1013.45
389.64	994.73
389.84	1036.86
390.03	1062.60
390.22	1064.94
390.42	922.17
390.61	917.49
390.81	1104.73
391.00	1036.86
391.19	1095.37
391.39	1095.37
391.58	1083.67
391.78	954.94
391.97	1139.84
392.16	1050.90
392.36	1015.79
392.55	1062.60
392.75	1039.20
392.94	1013.45
393.13	1029.84
393.33	1081.33
393.52	1022.81
393.71	1149.20
393.91	1184.31
394.10	1163.25
394.29	1137.50
394.49	1102.39
394.68	1263.89
394.88	1275.59
395.07	1306.02
395.26	1181.97
395.46	1226.44
395.65	1299.00
395.84	1238.14
396.04	1275.59
396.23	1181.97
396.42	1174.95
396.62	1165.59
396.81	1203.04
397.00	1224.10
397.19	1352.83
397.39	1336.45
397.58	1352.83
397.77	1469.86
397.97	1472.20
398.16	1467.52
398.35	1462.83
398.55	1521.35
398.74	1481.56
398.93	1589.22
399.12	1593.90
399.32	1561.14
399.51	1542.41
399.70	1540.07
399.90	1519.01
400.09	1619.65
400.28	1699.23
400.47	1636.03
400.67	1617.31
400.86	1650.08
401.05	1741.36
401.24	1764.76
401.44	1755.40
401.63	1710.93
401.82	1762.42
402.01	1682.85
402.21	1842.00
402.40	1818.60
402.59	1820.94
402.78	1830.30
402.97	1792.85
403.17	1781.15
403.36	1799.87
403.55	1933.28
403.74	1893.49
403.93	1823.28
404.13	1865.41
404.32	1973.07
404.51	1954.35
404.70	1907.54
404.89	1830.30
405.09	1959.03
405.28	2024.56
405.47	1898.17
405.66	1935.62
405.85	2045.63
406.05	2050.31
406.24	2078.40
406.43	2127.55
406.62	2122.87
406.81	2134.57
407.00	2080.74
407.20	2122.87
407.39	2139.25
407.58	2197.76
407.77	2305.43
407.96	2291.38
408.15	2209.47
408.34	2275.00
408.54	2377.98
408.73	2321.81
408.92	2340.54
409.11	2401.39
409.30	2345.22
409.49	2249.25
409.68	2373.30
409.87	2211.81
410.07	2523.10
410.26	2382.67
410.45	2349.90
410.64	2448.20
410.83	2565.23
411.02	2558.21
411.21	2686.94
411.40	2682.25
411.59	2722.04
411.78	2647.15
411.98	2663.53
412.17	2649.49
412.36	2825.03
412.55	2729.06
412.74	2785.24
412.93	2745.45
413.12	2768.85
413.31	3035.67
413.50	2766.51
413.69	2974.82
413.88	2860.13
414.07	2963.12
414.26	2981.84
414.45	3082.49
414.64	3035.67
414.83	3091.85
415.02	3101.21
415.22	3129.30
415.41	3129.30
415.60	3173.77
415.79	3218.24
415.98	3314.20
416.17	3393.78
416.36	3300.16
416.55	3438.25
416.74	3302.50
416.93	3302.50
417.12	3361.01
417.31	3375.05
417.50	3375.05
417.69	3564.64
417.88	3412.50
418.07	3496.76
418.26	3428.88
418.45	3442.93
418.64	3885.29
418.83	3777.62
419.02	3475.70
419.21	3646.55
419.39	3737.84
419.58	3625.49
419.77	3548.25
419.96	3782.31
420.15	3719.11
420.34	3836.14
420.53	3889.97
420.72	3871.25
420.91	3880.61
421.10	3943.80
421.29	3997.64
421.48	3868.91
421.67	3819.75
421.86	3920.40
422.05	3700.39
422.24	3990.61
422.43	3894.65
422.61	3803.37
422.80	3932.10
422.99	3939.12
423.18	3960.19
423.37	4117.00
423.56	4109.98
423.75	4086.58
423.94	3920.40
424.13	3733.15
424.32	3868.91
424.50	4074.87
424.69	4114.66
424.88	4114.66
425.07	4037.42
425.26	3950.82
425.45	4051.47
425.64	3992.95
425.83	4074.87
426.01	4124.02
426.20	4081.89
426.39	4133.39
426.58	4035.08
426.77	4051.47
426.96	4100.62
427.15	4009.34
427.33	4161.47
427.52	4198.92
427.71	4184.88
427.90	4021.04
428.09	4376.80
428.28	4299.56
428.46	4219.99
428.65	4238.71
428.84	4379.14
429.03	4203.60
429.22	4161.47
429.40	4351.06
429.59	4191.90
429.78	4081.89
429.97	3997.64
430.16	4182.54
430.34	4243.39
430.53	4257.43
430.72	4236.37
430.91	4299.56
431.10	4477.44
431.28	4510.21
431.47	4758.31
431.66	4678.73
431.85	4601.49
432.03	4664.69
432.22	4758.31
432.41	4727.88
432.60	4781.71
432.79	4917.47
432.97	4788.74
433.16	4863.63
433.35	4629.58
433.54	4652.98
433.72	4739.58
433.91	4802.78
434.10	4697.46
434.28	4690.43
434.47	4903.42
434.66	4880.02
434.85	4971.30
435.03	5015.77
435.22	5069.60
435.41	5156.20
435.59	5212.37
435.78	5198.33
435.97	5226.42
436.16	5322.38
436.34	5167.90
436.53	5252.16
436.72	5329.40
436.90	5097.69
437.09	5362.17
437.28	5177.26
437.46	5219.39
437.65	5427.70
437.84	5378.55
438.02	5191.31
438.21	5247.48
438.40	5263.86
438.58	5411.32
438.77	5617.29
438.96	5568.13
439.14	5612.60
439.33	5689.84
439.52	5799.85
439.70	5806.87
439.89	5741.33
440.08	5867.72
440.26	5900.49
440.45	5884.11
440.63	5996.45
440.82	6012.84
441.01	6078.37
441.19	6125.18
441.38	6237.53
441.57	6300.72
441.75	6349.87
441.94	6293.70
442.12	6338.17
442.31	6455.20
442.50	6558.18
442.68	6356.90
442.87	6431.79
443.05	6612.01
443.24	6614.35
443.43	6600.31
443.61	6583.93
443.80	6803.94
443.98	6443.49
444.17	6445.84
444.35	6612.01
444.54	6806.28
444.73	6590.95
444.91	6644.78
445.10	6670.53
445.28	6658.82
445.47	6394.34
445.65	6619.04
445.84	6623.72
446.02	6780.53
446.21	6572.22
446.39	6778.19
446.58	6761.81
446.77	6686.91
446.95	6724.36
447.14	6920.96
447.32	6944.37
447.51	6850.75
447.69	6743.08
447.88	6857.77
448.06	6801.60
448.25	6855.43
448.43	6981.82
448.62	6965.43
448.80	6792.23
448.99	6925.65
449.17	6965.43
449.36	7045.01
449.54	6932.67
449.73	7124.59
449.91	7115.23
450.10	7384.39
450.28	7269.70
450.46	7382.05
450.65	7384.39
450.83	7517.80
451.02	7236.94
451.20	7400.77
451.39	7454.61
451.57	7241.62
451.76	7269.70
451.94	7389.07
452.13	7311.83
452.31	7328.22
452.49	7309.49
452.68	7321.20
452.86	7297.79
453.05	7508.44
453.23	7382.05
453.42	7342.26
453.60	7564.61
453.78	7576.31
453.97	7569.29
454.15	7475.67
454.34	7784.62
454.52	7698.02
454.70	7742.49
454.89	7819.73
455.07	7836.11
455.26	7669.94
455.44	8051.44
455.62	8072.51
455.81	7831.43
455.99	7843.14
456.17	7967.18
456.36	7990.59
456.54	8077.19
456.73	8205.92
456.91	8557.00
457.09	8196.56
457.28	8524.23
457.46	8142.72
457.64	8236.35
457.83	8369.76
458.01	8133.36
458.19	8311.24
458.38	8231.66
458.56	8374.44
458.74	8180.17
458.93	8411.89
459.11	8336.99
459.29	8571.04
459.48	8510.19
459.66	8514.87
459.84	8367.42
460.03	8903.40
460.21	8594.45
460.39	8718.50
460.57	8690.41
460.76	8638.92
460.94	8762.97
461.12	8641.26
461.31	8980.64
461.49	8943.19
461.67	8898.72
461.85	8982.98
462.04	8781.69
462.22	9324.69
462.40	9078.94
462.59	9046.17
462.77	8999.36
462.95	8865.95
463.13	8830.84
463.32	9046.17
463.50	9165.54
463.68	9170.22
463.86	9252.14
464.05	8966.59
464.23	9071.92
464.41	9338.74
464.59	8898.72
464.78	9357.46
464.96	9249.80
465.14	9249.80
465.32	9415.98
465.50	9617.26
465.69	9453.42
465.87	9383.21
466.05	9453.42
466.23	9202.99
466.41	9343.42
466.60	9544.70
466.78	9249.80
466.96	9200.65
467.14	9579.81
467.32	9411.29
467.51	9549.39
467.69	9235.75
467.87	9933.23
468.05	9666.41
468.23	9472.15
468.41	9671.09
468.60	9727.27
468.78	9888.76
468.96	9652.37
469.14	9933.23
469.32	9834.93
469.50	9731.95
469.69	10012.81
469.87	9764.72
470.05	9832.59
470.23	10024.51
470.41	9958.98
470.59	10157.92
470.77	9991.75
470.95	10228.14
471.14	10658.80
471.32	10155.58
471.50	10403.68
471.68	10527.73
471.86	10684.55
472.04	10480.92
472.22	10792.21
472.40	10387.30
472.58	10829.66
472.77	10520.71
472.95	10778.17
473.13	10937.32
473.31	10656.46
473.49	10600.29
473.67	11061.37
473.85	10820.30
474.03	10967.75
474.21	11150.31
474.39	11272.02
474.57	11384.37
474.75	11356.28
474.93	11562.25
475.12	11431.18
475.30	11655.87
475.48	11318.83
475.66	11475.65
475.84	11700.34
476.02	11604.38
476.20	11772.89
476.38	11866.52
476.56	12175.47
476.74	12131.00
476.92	11985.88
477.10	11861.84
477.28	12400.16
477.46	12346.33
477.64	12500.80
477.82	12446.97
478.00	12879.97
478.18	12470.37
478.36	12645.91
478.54	12800.39
478.72	12929.12
478.90	12940.82
479.08	13399.57
479.26	13343.39
479.44	13336.37
479.62	13584.47
479.80	13621.92
479.98	13635.96
480.16	13947.25
480.34	14033.85
480.52	14193.01
480.70	14005.77
480.88	13855.97
481.06	14190.67
481.24	14054.92
481.41	14436.42
481.59	14485.58
481.77	14778.14
481.95	14565.15
482.13	14817.93
482.31	14703.25
482.49	15246.25
482.67	14995.81
482.85	15538.82
483.03	15344.55
483.21	15693.29
483.39	15463.92
483.57	15662.86
483.74	15740.10
483.92	15854.79
484.10	15648.82
484.28	15995.22
484.46	16484.39
484.64	16594.40
484.82	16238.64
485.00	16540.57
485.18	16704.40
485.35	16566.31
485.53	16425.88
485.71	16273.74
485.89	16767.60
486.07	16468.01
486.25	17048.46
486.43	17055.48
486.61	17317.62
486.78	17500.19
486.96	17575.08
487.14	17888.71
487.32	18155.54
487.50	18391.93
487.68	18391.93
487.85	18679.82
488.03	18778.12
488.21	18904.51
488.39	18614.28
488.57	18953.66
488.75	19264.95
488.92	19082.39
489.10	19648.80
489.28	19571.56
489.46	20198.82
489.64	19997.54
489.81	20545.22
489.99	20580.33
490.17	20451.60
490.35	20652.89
490.53	20634.16
490.70	20781.62
490.88	20709.06
491.06	21233.34
491.24	20950.14
491.41	20959.50
491.59	21116.31
491.77	21102.27
491.95	21247.38
492.13	21722.51
492.30	21951.88
492.48	21752.94
492.66	22094.66
492.84	22075.93
493.01	22335.73
493.19	22300.62
493.37	22658.73
493.54	22560.42
493.72	22810.86
493.90	22913.84
494.08	23080.02
494.25	23625.37
494.43	23442.81
494.61	23861.76
494.79	23903.89
494.96	23854.74
495.14	23695.58
495.32	24070.07
495.49	23931.98
495.67	24112.20
495.85	24442.21
496.02	24397.74
496.20	24594.35
496.38	24858.83
496.55	24772.23
496.73	25493.12
496.91	25158.42
497.09	25518.86
497.26	25310.55
497.44	25439.28
497.62	25551.63
497.79	25605.46
497.97	25530.56
498.14	26078.25
498.32	26160.17
498.50	25820.79
498.67	26174.21
498.85	26466.78
499.03	26558.06
499.20	26590.83
499.38	26583.80
499.56	27054.25
499.73	26768.71
499.91	26848.29
500.08	27147.87
500.26	26450.39
500.44	27089.36
500.61	26698.49
500.79	26937.23
500.97	27087.02
501.14	27412.35
501.32	27456.82
501.49	27569.17
501.67	27744.71
501.84	27709.60
502.02	28367.29
502.20	27580.87
502.37	27747.05
502.55	28156.64
502.72	28147.28
502.90	28620.07
503.07	28322.82
503.25	28716.03
503.43	28334.53
503.60	28570.92
503.78	28313.46
503.95	28486.66
504.13	29006.26
504.30	29457.98
504.48	28996.90
504.65	29230.95
504.83	29156.05
505.01	29631.18
505.18	29532.88
505.36	29663.95
505.53	29809.06
505.71	29977.58
505.88	30218.66
506.06	29575.01
506.23	29907.37
506.41	30087.59
506.58	30057.16
506.76	30223.34
506.93	30267.81
507.11	30059.50
507.28	30586.12
507.46	30438.67
507.63	30307.60
507.81	30686.76
507.98	30394.20
508.16	30897.41
508.33	31143.17
508.50	31084.65
508.68	31292.96
508.85	31363.18
509.03	31381.90
509.20	31632.34
509.38	32079.38
509.55	31597.23
509.73	31714.26
509.90	31630.00
510.08	31901.50
510.25	31709.58
510.42	32023.21
510.60	32669.20
510.77	31985.76
510.95	32292.37
511.12	32320.46
511.30	32374.29
511.47	32680.90
511.64	32723.03
511.82	32467.91
511.99	32725.37
512.17	32617.71
512.34	32575.58
512.51	33102.20
512.69	32905.59
512.86	33179.43
513.04	33186.46
513.21	33137.30
513.38	33493.07
513.56	33167.73
513.73	32924.32
513.90	33570.30
514.08	33439.23
514.25	33574.98
514.43	33771.59
514.60	33787.97
514.77	33727.12
514.95	33907.34
515.12	34040.75
515.29	33881.60
515.47	34078.20
515.64	34382.47
515.81	34213.95
515.99	33968.19
516.16	34546.31
516.33	33687.33
516.51	34026.71
516.68	33699.03
516.85	33399.44
517.03	33699.03
517.20	34244.38
517.37	35154.85
517.54	34766.32
517.72	34284.17
517.89	33993.94
518.06	33912.02
518.24	34600.14
518.41	34515.88
518.58	34691.42
518.75	35150.17
518.93	34983.99
519.10	35215.70
519.27	35349.11
519.45	35239.11
519.62	35374.86
519.79	36210.43
519.96	35620.61
520.14	35812.54
520.31	35761.05
520.48	35599.55
520.65	35988.08
520.83	36065.31
521.00	36645.77
521.17	36123.83
521.34	36472.57
521.52	36514.70
521.69	36697.26
521.86	36968.76
522.03	36947.70
522.20	36397.67
522.38	36720.66
522.55	36905.57
522.72	36767.48
522.89	36678.54
523.07	36701.94
523.24	36208.09
523.41	37488.36
523.58	37216.86
523.75	37713.05
523.92	37366.65
524.10	37937.74
524.27	37532.83
524.44	37703.69
524.61	37874.55
524.78	37668.58
524.96	38377.76
525.13	37919.02
525.30	38040.73
525.47	38113.28
525.64	38239.67
525.81	38101.58
525.98	38047.75
526.16	37951.79
526.33	37535.17
526.50	38237.33
526.67	37542.19
526.84	37928.38
527.01	37680.28
527.18	38080.52
527.36	38845.87
527.53	38927.79
527.70	38738.21
527.87	38871.62
528.04	38614.16
528.21	38614.16
528.38	38550.96
528.55	39192.27
528.72	39690.80
528.89	39243.76
529.07	38916.09
529.24	38988.64
529.41	39302.28
529.58	39227.38
529.75	39021.41
529.92	39515.26
530.09	39824.22
530.26	39620.59
530.43	39770.38
530.60	39704.85
530.77	39634.63
530.94	39974.01
531.11	40086.36
531.28	39910.82
531.46	39859.32
531.63	39859.32
531.80	40367.22
531.97	39934.22
532.14	40081.67
532.31	39861.66
532.48	40147.21
532.65	39920.18
532.82	39894.43
532.99	40701.92
533.16	40371.90
533.33	40275.94
533.50	40425.73
533.67	39976.35
533.84	40727.66
534.01	40741.71
534.18	40278.28
534.35	41347.90
534.52	40772.13
534.69	40893.84
534.86	40531.06
535.03	41055.34
535.20	41104.49
535.37	41375.99
535.54	41530.47
535.71	41083.42
535.88	40957.03
536.05	41003.85
536.22	41097.47
536.38	40994.48
536.55	41265.99
536.72	40847.03
536.89	40907.88
537.06	41109.17
537.23	41450.89
537.40	41359.61
537.57	41294.07
537.74	41584.30
537.91	42064.11
538.08	41436.84
538.25	41706.01
538.42	41682.60
538.59	41656.85
538.75	41291.73
538.92	42000.91
539.09	41949.42
539.26	42075.81
539.43	41968.15
539.60	41909.63
539.77	41832.39
539.94	41682.60
540.11	41577.28
540.28	41947.08
540.44	42019.64
540.61	41633.45
540.78	41378.33
540.95	41675.58
541.12	41890.91
541.29	41460.25
541.46	42211.56
541.62	42560.30
541.79	41991.55
541.96	41916.65
542.13	42380.08
542.30	42518.17
542.47	42562.64
542.63	42316.89
542.80	42520.51
542.97	43049.47
543.14	43416.94
543.31	42916.06
543.48	43210.97
543.64	43557.37
543.81	43161.82
543.98	43243.74
544.15	43442.68
544.32	43297.57
544.48	43409.92
544.65	43395.87
544.82	43292.89
544.99	42857.55
545.16	43136.07
545.32	43131.39
545.49	44151.87
545.66	43702.48
545.83	43112.67
546.00	43990.37
546.16	43482.47
546.33	43636.95
546.50	43274.16
546.67	43662.69
546.83	43072.88
547.00	43466.09
547.17	43643.97
547.34	43213.31
547.50	43728.23
547.67	43660.35
547.84	43973.98
548.00	44332.09
548.17	43997.39
548.34	43927.17
548.51	44081.65
548.67	43910.79
548.84	44151.87
549.01	43777.38
549.18	43807.81
549.34	44065.27
549.51	44175.27
549.68	44119.10
549.84	44376.56
550.01	44783.81
550.18	44318.04
550.34	44540.39
550.51	44460.82
550.68	44659.76
550.84	43833.55
551.01	44626.99
551.18	44540.39
551.34	44364.85
551.51	44872.75
551.68	45109.14
551.84	44807.22
552.01	44601.25
552.18	44404.64
552.34	44037.18
552.51	45057.65
552.68	44720.62
552.84	44355.49
553.01	44844.66
553.18	44652.74
553.34	44854.03
553.51	44823.60
553.67	44772.11
553.84	45542.14
554.01	45198.09
554.17	44982.76
554.34	45184.04
554.51	45090.42
554.67	45495.33
554.84	44650.40
555.00	45425.12
555.17	45322.13
555.33	45270.64
555.50	44933.60
555.67	45116.17
555.83	45340.86
556.00	44893.82
556.16	45542.14
556.33	45045.95
556.50	45205.11
556.66	44914.88
556.83	45104.46
556.99	45139.57
557.16	45221.49
557.32	45446.18
557.49	45752.79
557.65	45013.18
557.82	45284.68
557.98	45495.33
558.15	45481.29
558.32	45759.81
558.48	45315.11
558.65	45116.17
558.81	45684.92
558.98	45148.93
559.14	45617.04
559.31	45338.52
559.47	45691.94
559.64	45104.46
559.80	45909.61
559.97	45848.75
560.13	45319.79
560.30	45319.79
560.46	45610.02
560.63	46274.73
560.79	45722.37
560.96	46010.25
561.12	45698.96
561.29	45680.24
561.45	45521.08
561.61	45764.49
561.78	45813.65
561.94	45455.54
562.11	45530.44
562.27	45778.54
562.44	46045.36
562.60	45923.65
562.77	45811.31
562.93	46036.00
563.10	46120.26
563.26	45773.86
563.42	46176.43
563.59	45619.38
563.75	45923.65
563.92	45839.39
564.08	45752.79
564.24	46036.00
564.41	45811.31
564.57	45984.51
564.74	45820.67
564.90	46270.05
565.07	46021.95
565.23	45811.31
565.39	45572.57
565.56	46225.58
565.72	45591.30
565.88	46092.17
566.05	45645.13
566.21	45823.01
566.38	45703.64
566.54	45921.31
566.70	46445.59
566.87	46291.12
567.03	46487.72
567.19	46380.06
567.36	46295.80
567.52	46138.98
567.68	46394.10
567.85	46356.65
568.01	46160.05
568.17	46506.44
568.34	45998.55
568.50	45834.71
568.66	45502.35
568.83	46548.57
568.99	46218.56
569.15	46401.12
569.32	46300.48
569.48	46059.40
569.64	46356.65
569.81	46361.33
569.97	46241.96
570.13	45991.53
570.30	45771.52
570.46	45769.18
570.62	45598.32
570.78	45598.32
570.95	46028.98
571.11	45846.41
571.27	45638.11
571.43	46010.25
571.60	46726.46
571.76	46129.62
571.92	46141.32
572.09	46300.48
572.25	46138.98
572.41	46188.13
572.57	46312.18
572.74	46461.97
572.90	46623.47
573.06	46183.45
573.22	46309.84
573.38	45942.38
573.55	46064.08
573.71	46574.32
573.87	46436.23
574.03	46075.79
574.20	46560.28
574.36	45935.35
574.52	46101.53
574.68	46150.68
574.84	46171.75
575.01	46461.97
575.17	46064.08
575.33	46071.10
575.49	46370.69
575.65	46632.83
575.82	46405.80
575.98	46410.48
576.14	46190.47
576.30	46197.49
576.46	46220.90
576.62	45998.55
576.79	46017.27
576.95	46206.86
577.11	46342.61
577.27	46445.59
577.43	46314.52
577.59	46216.22
577.75	46422.19
577.92	45792.58
578.08	45876.84
578.24	46160.05
578.40	46270.05
578.56	46714.75
578.72	46033.66
578.88	46459.63
579.04	46532.19
579.21	46174.09
579.37	46251.33
579.53	46813.05
579.69	45897.91
579.85	45858.12
580.01	46501.76
580.17	46391.76
580.33	46337.93
580.49	46129.62
580.65	46178.77
580.82	46499.42
580.98	46206.86
581.14	46012.59
581.30	46632.83
581.46	46213.88
581.62	46997.96
581.78	46277.07
581.94	46358.99
582.10	46777.95
582.26	46745.18
582.42	46281.75
582.58	46424.53
582.74	46525.17
582.90	46799.01
583.06	46799.01
583.22	46824.76
583.38	46642.20
583.54	46450.27
583.70	46237.28
583.86	46223.24
584.02	46396.44
584.18	46658.58
584.34	46085.15
584.50	46178.77
584.66	46574.32
584.82	46181.11
584.98	46429.21
585.14	46438.57
585.30	46227.92
585.46	46064.08
585.62	46138.98
585.78	46391.76
585.94	46059.40
586.10	45881.52
586.26	46527.51
586.42	46665.60
586.58	46700.71
586.74	46401.12
586.90	46731.14
587.06	46450.27
587.22	46312.18
587.38	46522.83
587.54	46588.36
587.70	46827.10
587.86	46209.20
588.02	46150.68
588.18	46436.23
588.34	46300.48
588.49	45696.62
588.65	45780.88
588.81	46211.54
588.97	46408.14
589.13	46321.54
589.29	45682.58
589.45	46230.26
589.61	46256.01
589.77	46681.98
589.93	46731.14
