SpectraSuite Data File
++++++++++++++++++++++++++++++++++++
Date: Fri Oct 25 11:23:36 EDT 2013
User: price-jones
Dark Spectrum Present: No
Reference Spectrum Present: No
Number of Sampled Component Spectra: 1
Spectrometers: USB2+H05261
Integration Time (usec): 100000 (USB2+H05261)
Spectra Averaged: 1 (USB2+H05261)
Boxcar Smoothing: 0 (USB2+H05261)
Correct for Electrical Dark: No (USB2+H05261)
Strobe/Lamp Enabled: No (USB2+H05261)
Correct for Detector Non-linearity: No (USB2+H05261)
Correct for Stray Light: No (USB2+H05261)
Number of Pixels in Processed Spectrum: 2048
>>>>>Begin Processed Spectral Data<<<<<
365.73	250.44
365.92	250.44
366.12	250.44
366.32	95.96
366.52	105.32
366.72	128.73
366.91	126.39
367.11	91.28
367.31	177.88
367.51	152.13
367.70	138.09
367.90	140.43
368.10	140.43
368.30	128.73
368.49	138.09
368.69	95.96
368.89	72.56
369.09	156.82
369.28	182.56
369.48	163.84
369.68	257.46
369.87	161.50
370.07	252.78
370.27	194.26
370.47	294.91
370.66	608.54
370.86	533.64
371.06	601.52
371.25	688.12
371.45	566.41
371.65	734.93
371.84	695.14
372.04	723.23
372.24	709.18
372.44	671.73
372.63	734.93
372.83	732.59
373.03	844.93
373.22	798.12
373.42	767.70
373.62	837.91
373.81	753.65
374.01	894.08
374.21	765.36
374.40	781.74
374.60	837.91
374.79	844.93
374.99	816.85
375.19	788.76
375.38	882.38
375.58	866.00
375.78	882.38
375.97	856.64
376.17	929.19
376.37	809.83
376.56	828.55
376.76	887.06
376.95	861.32
377.15	856.64
377.35	873.02
377.54	898.77
377.74	889.40
377.93	856.64
378.13	976.00
378.33	891.74
378.52	990.05
378.72	933.87
378.91	957.28
379.11	997.07
379.31	952.60
379.50	835.57
379.70	959.62
379.89	940.90
380.09	926.85
380.28	978.34
380.48	1027.50
380.68	961.96
380.87	1041.54
381.07	1004.09
381.26	990.05
381.46	978.34
381.65	1053.24
381.85	1039.20
382.04	1069.62
382.24	1057.92
382.43	1167.93
382.63	1050.90
382.83	1139.84
383.02	978.34
383.22	1086.01
383.41	1083.67
383.61	1097.71
383.80	1235.80
384.00	1132.82
384.19	1153.88
384.39	1118.78
384.58	1137.50
384.78	1071.97
384.97	1172.61
385.17	1184.31
385.36	1078.99
385.56	1193.67
385.75	1100.05
385.95	1181.97
386.14	1217.08
386.34	1135.16
386.53	1231.12
386.72	1263.89
386.92	1259.21
387.11	1273.25
387.31	1334.11
387.50	1226.44
387.70	1207.72
387.89	1132.82
388.09	1228.78
388.28	1214.74
388.48	1219.42
388.67	1301.34
388.86	1376.24
389.06	1294.32
389.25	1357.51
389.45	1392.62
389.64	1341.13
389.84	1315.38
390.03	1411.34
390.22	1413.68
390.42	1296.66
390.61	1352.83
390.81	1308.36
391.00	1376.24
391.19	1399.64
391.39	1385.60
391.58	1519.01
391.78	1444.11
391.97	1530.71
392.16	1469.86
392.36	1526.03
392.55	1434.75
392.75	1558.80
392.94	1558.80
393.13	1617.31
393.33	1640.72
393.52	1593.90
393.71	1612.63
393.91	1629.01
394.10	1568.16
394.29	1603.27
394.49	1600.93
394.68	1650.08
394.88	1593.90
395.07	1710.93
395.26	1589.22
395.46	1605.61
395.65	1790.51
395.84	1743.70
396.04	1799.87
396.23	1760.08
396.42	1809.23
396.62	1788.17
396.81	1820.94
397.00	1755.40
397.19	1743.70
397.39	1736.68
397.58	1832.64
397.77	1757.74
397.97	1795.19
398.16	1849.02
398.35	1860.73
398.55	1900.52
398.74	1944.99
398.93	1966.05
399.12	1912.22
399.32	1891.15
399.51	1877.11
399.70	1956.69
399.90	1968.39
400.09	1952.01
400.28	2012.86
400.47	2146.27
400.67	2057.33
400.86	2155.63
401.05	2015.20
401.24	2078.40
401.44	2104.14
401.63	2179.04
401.82	2211.81
402.01	2043.29
402.21	2169.68
402.40	2111.16
402.59	2223.51
402.78	2312.45
402.97	2265.64
403.17	2176.70
403.36	2335.85
403.55	2375.64
403.74	2396.71
403.93	2317.13
404.13	2267.98
404.32	2359.26
404.51	2298.41
404.70	2387.35
404.89	2450.54
405.09	2544.16
405.28	2473.95
405.47	2504.37
405.66	2434.16
405.85	2509.05
406.05	2537.14
406.24	2567.57
406.43	2532.46
406.62	2612.04
406.81	2619.06
407.00	2560.55
407.20	2546.50
407.39	2513.74
407.58	2820.35
407.77	2665.87
407.96	2665.87
408.15	2705.66
408.34	2832.05
408.54	2867.16
408.73	2850.77
408.92	2949.08
409.11	2937.37
409.30	2930.35
409.49	2780.56
409.68	2963.12
409.87	2916.31
410.07	3101.21
410.26	3009.93
410.45	3028.65
410.64	2939.71
410.83	3098.87
411.02	3119.93
411.21	3215.90
411.40	3108.23
411.59	3173.77
411.78	3180.79
411.98	3248.66
412.17	3279.09
412.36	3419.52
412.55	3286.11
412.74	3478.04
412.93	3417.18
413.12	3393.78
413.31	3574.00
413.50	3576.34
413.69	3379.73
413.88	3639.53
414.07	3627.83
414.26	3707.41
414.45	3665.28
414.64	3644.21
414.83	3819.75
415.02	3808.05
415.22	3794.01
415.41	3740.18
415.60	3716.77
415.79	3868.91
415.98	3936.78
416.17	4004.66
416.36	3957.85
416.55	3875.93
416.74	4072.53
416.93	4021.04
417.12	4016.36
417.31	4025.72
417.50	4154.45
417.69	4388.50
417.88	4337.01
418.07	4318.29
418.26	4297.22
418.45	4327.65
418.64	4421.27
418.83	4437.66
419.02	4362.76
419.21	4573.41
419.39	4432.97
419.58	4484.47
419.77	4585.11
419.96	4547.66
420.15	4568.73
420.34	4744.27
420.53	4751.29
420.72	4819.16
420.91	4711.50
421.10	4725.54
421.29	4837.89
421.48	4657.67
421.67	4751.29
421.86	4676.39
422.05	4856.61
422.24	4868.31
422.43	4987.68
422.61	4978.32
422.80	5039.17
422.99	4915.12
423.18	4828.53
423.37	4926.83
423.56	5025.13
423.75	4938.53
423.94	4830.87
424.13	4507.87
424.32	4849.59
424.50	5142.16
424.69	4985.34
424.88	5104.71
425.07	5053.22
425.26	5048.54
425.45	5067.26
425.64	4947.89
425.83	4929.17
426.01	5151.52
426.20	5170.24
426.39	5146.84
426.58	4973.64
426.77	5057.90
426.96	5123.43
427.15	5060.24
427.33	5181.95
427.52	5341.10
427.71	5423.02
427.90	5219.39
428.09	5341.10
428.28	5481.53
428.46	5413.66
428.65	5294.29
428.84	5514.30
429.03	5554.09
429.22	5348.12
429.40	5507.28
429.59	5523.66
429.78	5486.22
429.97	5205.35
430.16	5563.45
430.34	5593.88
430.53	5593.88
430.72	5734.31
430.91	5579.84
431.10	5593.88
431.28	5729.63
431.47	5834.96
431.66	6005.81
431.85	5701.54
432.03	5944.96
432.22	5900.49
432.41	5980.07
432.60	6040.92
432.79	5907.51
432.97	5968.37
433.16	6003.47
433.35	6047.94
433.54	6024.54
433.72	6197.74
433.91	6296.04
434.10	6155.61
434.28	6125.18
434.47	6043.26
434.66	6242.21
434.85	6244.55
435.03	6394.34
435.22	6296.04
435.41	6478.60
435.59	6485.62
435.78	6274.98
435.97	6200.08
436.16	6441.15
436.34	6462.22
436.53	6485.62
436.72	6619.04
436.90	6476.26
437.09	6616.69
437.28	6424.77
437.46	6626.06
437.65	6689.25
437.84	6843.73
438.02	6747.76
438.21	6750.10
438.40	6698.61
438.58	6918.62
438.77	6895.22
438.96	7037.99
439.14	7178.42
439.33	7082.46
439.52	7199.49
439.70	7183.10
439.89	7302.47
440.08	7545.89
440.26	7405.46
440.45	7286.09
440.63	7524.82
440.82	7616.10
441.01	7440.56
441.19	7744.83
441.38	7733.13
441.57	7840.79
441.75	7709.72
441.94	8051.44
442.12	8095.91
442.31	8098.25
442.50	7964.84
442.68	8145.06
442.87	7817.39
443.05	8079.53
443.24	8161.45
443.43	8332.31
443.61	8056.12
443.80	8428.27
443.98	8116.98
444.17	7957.82
444.35	8156.77
444.54	8339.33
444.73	8301.88
444.91	8294.86
445.10	8315.92
445.28	8388.48
445.47	8327.63
445.65	8210.60
445.84	8336.99
446.02	8521.89
446.21	8489.12
446.39	8435.29
446.58	8533.59
446.77	8304.22
446.95	8437.63
447.14	8542.96
447.32	8695.09
447.51	8542.96
447.69	8496.14
447.88	8479.76
448.06	8430.61
448.25	8648.28
448.43	8699.77
448.62	8575.72
448.80	8582.74
448.99	8734.88
449.17	8784.03
449.36	8807.44
449.54	8847.22
449.73	9025.11
449.91	8990.00
450.10	8938.51
450.28	9186.60
450.46	9011.06
450.65	9055.53
450.83	9235.75
451.02	9092.98
451.20	9046.17
451.39	9153.84
451.57	8968.93
451.76	9083.62
451.94	9252.14
452.13	9362.14
452.31	9383.21
452.49	9256.82
452.68	9366.82
452.86	9291.93
453.05	9495.55
453.23	9741.31
453.42	9359.80
453.60	9357.46
453.78	9837.27
453.97	9507.26
454.15	9411.29
454.34	9390.23
454.52	9497.89
454.70	9699.18
454.89	9778.76
455.07	9919.19
455.26	9839.61
455.44	10054.94
455.62	9930.89
455.81	9956.64
455.99	10068.98
456.17	10003.45
456.36	10078.35
456.54	10401.34
456.73	10441.13
456.91	10422.41
457.09	10342.83
457.28	10562.84
457.46	10394.32
457.64	10396.66
457.83	10663.48
458.01	10518.37
458.19	10698.59
458.38	10597.95
458.56	10656.46
458.74	10869.45
458.93	10569.86
459.11	10635.39
459.29	10839.02
459.48	10906.90
459.66	10946.69
459.84	10934.98
460.03	11091.80
460.21	11131.59
460.39	11145.63
460.57	10810.93
460.76	11073.07
460.94	11218.19
461.12	11314.15
461.31	11136.27
461.49	11159.67
461.67	11220.53
461.85	11302.45
462.04	11197.12
462.22	11597.35
462.40	11583.31
462.59	11552.88
462.77	11648.85
462.95	11634.80
463.13	11618.42
463.32	11709.70
463.50	11808.00
463.68	11847.79
463.86	11793.96
464.05	11775.24
464.23	11587.99
464.41	11957.80
464.59	11763.53
464.78	12360.37
464.96	11871.20
465.14	11887.58
465.32	11932.05
465.50	11971.84
465.69	12348.67
465.87	12105.25
466.05	12145.04
466.23	12145.04
466.41	12035.03
466.60	12435.27
466.78	11939.07
466.96	12367.39
467.14	12299.52
467.32	12262.07
467.51	12788.69
467.69	12393.14
467.87	12500.80
468.05	12650.60
468.23	12205.89
468.41	12706.77
468.60	12648.26
468.78	12875.29
468.96	12521.87
469.14	12758.26
469.32	12762.94
469.50	12868.27
469.69	13027.42
469.87	13179.56
470.05	13064.87
470.23	13102.32
470.41	13226.37
470.59	13284.88
470.77	13160.83
470.95	13266.16
471.14	13376.16
471.32	13273.18
471.50	13287.22
471.68	13647.66
471.86	13640.64
472.04	13851.29
472.22	14029.17
472.40	13502.55
472.58	13975.34
472.77	14045.55
472.95	14214.07
473.13	14553.45
473.31	14125.13
473.49	14197.69
473.67	14321.74
473.85	14593.24
474.03	14260.88
474.21	14932.62
474.39	14705.59
474.57	14658.78
474.75	15056.67
474.93	15026.24
475.12	15089.43
475.30	15232.21
475.48	14927.94
475.66	15246.25
475.84	14874.10
476.02	15506.05
476.20	15452.22
476.38	15744.78
476.56	16081.82
476.74	16184.80
476.92	15716.70
477.10	15899.26
477.28	15922.66
477.46	16383.75
477.64	16599.08
477.82	16699.72
478.00	16856.54
478.18	16943.14
478.36	17165.49
478.54	16924.41
478.72	17336.35
478.90	17394.86
479.08	17479.12
479.26	17729.56
479.44	17727.22
479.62	18001.06
479.80	18190.64
479.98	18197.67
480.16	18602.58
480.34	18115.75
480.52	18513.64
480.70	18684.50
480.88	18331.08
481.06	18684.50
481.24	18719.60
481.41	19140.90
481.59	19232.18
481.77	19557.52
481.95	19349.21
482.13	19679.22
482.31	19791.57
482.49	20304.15
482.67	20327.55
482.85	20519.48
483.03	20599.05
483.21	20657.57
483.39	20982.90
483.57	20910.35
483.74	21338.66
483.92	21462.71
484.10	21376.11
484.28	21869.97
484.46	22008.06
484.64	22169.55
484.82	22501.91
485.00	22101.68
485.18	22277.22
485.35	23000.44
485.53	22885.76
485.71	22930.23
485.89	23854.74
486.07	23400.68
486.25	23524.72
486.43	23407.70
486.61	23878.15
486.78	24100.50
486.96	24093.47
487.14	24900.96
487.32	24978.20
487.50	25015.65
487.68	25392.47
487.85	25720.15
488.03	25563.33
488.21	25743.55
488.39	25633.55
488.57	25900.37
488.75	26256.13
488.92	26536.99
489.10	27047.23
489.28	26749.98
489.46	27419.38
489.64	27098.72
489.81	27821.95
489.99	27625.34
490.17	28091.11
490.35	28329.84
490.53	28245.58
490.70	28807.31
490.88	28247.93
491.06	28734.76
491.24	28907.96
491.41	28968.81
491.59	29682.67
491.77	29123.29
491.95	29432.24
492.13	29851.19
492.30	29954.18
492.48	30129.72
492.66	30211.64
492.84	30679.74
493.01	30712.51
493.19	30487.82
493.37	31391.26
493.54	31524.68
493.72	31508.29
493.90	31374.88
494.08	31924.91
494.25	32187.05
494.43	32039.59
494.61	32584.94
494.79	32594.30
494.96	32713.67
495.14	32680.90
495.32	33591.37
495.49	33158.37
495.67	33378.38
495.85	33579.67
496.02	34314.59
496.20	34302.89
496.38	34066.50
496.55	34333.32
496.73	34948.88
496.91	34602.48
497.09	34878.66
497.26	35393.58
497.44	35234.42
497.62	35220.38
497.79	35695.51
497.97	35742.32
498.14	35906.16
498.32	36313.41
498.50	36580.23
498.67	36416.40
498.85	36114.47
499.03	36943.02
499.20	36629.38
499.38	36940.68
499.56	37062.38
499.73	37411.12
499.91	37649.86
500.08	38052.43
500.26	37670.92
500.44	37874.55
500.61	37984.55
500.79	37722.41
500.97	38281.80
501.14	38609.48
501.32	38864.60
501.49	38923.11
501.67	38834.17
501.84	39166.52
502.02	39199.29
502.20	39143.12
502.37	39325.68
502.55	39173.55
502.72	39550.37
502.90	39618.25
503.07	39353.77
503.25	39772.72
503.43	39814.85
503.60	39842.94
503.78	39997.41
503.95	40411.69
504.13	40982.78
504.30	40830.65
504.48	40399.99
504.65	40552.12
504.83	41439.18
505.01	41532.81
505.18	41654.51
505.36	41691.96
505.53	41832.39
505.71	41834.74
505.88	42094.53
506.06	41352.58
506.23	42005.59
506.41	41909.63
506.58	42499.45
506.76	42101.56
506.93	42724.14
507.11	42143.69
507.28	42780.31
507.46	43012.02
507.63	43021.39
507.81	43220.33
507.98	43487.15
508.16	43449.70
508.33	43489.49
508.50	43510.56
508.68	44062.93
508.85	43686.10
509.03	43906.11
509.20	44018.46
509.38	44507.63
509.55	44453.79
509.73	44788.49
509.90	44942.97
510.08	44610.61
510.25	44648.06
510.42	45015.52
510.60	45081.06
510.77	45366.60
510.95	45710.66
511.12	45476.61
511.30	45368.94
511.47	45373.63
511.64	45567.89
511.82	46113.23
511.99	45853.44
512.17	45525.76
512.34	46129.62
512.51	46199.83
512.69	46747.52
512.86	46309.84
513.04	46813.05
513.21	46382.40
513.38	46665.60
513.56	47026.04
513.73	47269.46
513.90	47365.42
514.08	46616.45
514.25	47496.49
514.43	47461.38
514.60	47889.70
514.77	47510.53
514.95	47859.27
515.12	47721.18
515.29	47746.93
515.47	48002.05
515.64	48542.71
515.81	48081.63
515.99	48846.98
516.16	48285.25
516.33	48172.91
516.51	48872.73
516.68	48486.54
516.85	48636.33
517.03	48996.77
517.20	49258.91
517.37	48669.10
517.54	48706.55
517.72	48872.73
517.89	49090.40
518.06	49509.35
518.24	49654.47
518.41	49542.12
518.58	49244.87
518.75	49364.24
518.93	50087.46
519.10	49642.76
519.27	50010.23
519.45	49986.82
519.62	50410.46
519.79	50398.76
519.96	50075.76
520.14	50625.79
520.31	50232.58
520.48	50447.91
520.65	50548.55
520.83	50384.71
521.00	50621.11
521.17	50801.33
521.34	50562.59
521.52	51133.68
521.69	50843.46
521.86	51309.22
522.03	51196.88
522.20	51309.22
522.38	51686.05
522.55	51459.02
522.72	51395.82
522.89	51461.36
523.07	51597.11
523.24	51433.27
523.41	51882.66
523.58	51489.45
523.75	52275.87
523.92	51990.32
524.10	52067.56
524.27	52182.24
524.44	52149.48
524.61	52172.88
524.78	52137.77
524.96	52360.12
525.13	52549.71
525.30	52573.11
525.47	52552.05
525.64	52385.87
525.81	52713.55
525.98	52694.82
526.16	52734.61
526.33	52720.57
526.50	53598.27
526.67	52942.92
526.84	52978.03
527.01	53059.94
527.18	53116.12
527.36	53097.39
527.53	53212.08
527.70	53385.28
527.87	53284.64
528.04	53432.09
528.21	53516.35
528.38	53670.82
528.55	53682.53
528.72	53457.84
528.89	53521.03
529.07	53652.10
529.24	53504.65
529.41	53783.17
529.58	53542.10
529.75	53593.59
529.92	54089.78
530.09	53900.20
530.26	54082.76
530.43	54124.89
530.60	53535.07
530.77	53972.75
530.94	54239.57
531.11	54092.12
531.28	54349.58
531.46	54457.24
531.63	54244.26
531.80	54260.64
531.97	54384.69
532.14	54454.90
532.31	54557.89
532.48	54827.05
532.65	54672.57
532.82	54658.53
532.99	54817.69
533.16	54780.24
533.33	54798.96
533.50	55093.87
533.67	54824.71
533.84	54766.20
534.01	54794.28
534.18	54768.54
534.35	55241.32
534.52	55042.38
534.69	55363.03
534.86	55257.71
535.03	55295.16
535.20	55227.28
535.37	55267.07
535.54	55395.80
535.71	55337.29
535.88	55393.46
536.05	55646.24
536.22	55285.79
536.38	55831.14
536.55	55398.14
536.72	55686.03
536.89	55643.90
537.06	55817.10
537.23	55760.92
537.40	55732.84
537.57	55779.65
537.74	55891.99
537.91	56004.34
538.08	55807.73
538.25	56030.08
538.42	56112.00
538.59	56179.88
538.75	56074.55
538.92	56367.12
539.09	56200.94
539.26	56226.69
539.43	56140.09
539.60	56317.97
539.77	56301.59
539.94	56636.28
540.11	56317.97
540.28	56596.49
540.44	56540.32
540.61	56418.61
540.78	56442.02
540.95	56568.41
541.12	56444.36
541.29	56294.56
541.46	56570.75
541.62	56500.53
541.79	56615.22
541.96	56437.34
542.13	56704.16
542.30	56765.01
542.47	57148.86
542.63	56807.14
542.80	56935.87
542.97	56931.19
543.14	57279.93
543.31	57455.47
543.48	57132.48
543.64	57499.94
543.81	57537.39
543.98	57450.79
544.15	57467.17
544.32	57378.23
544.48	57614.63
544.65	57436.75
544.82	57420.36
544.99	57551.43
545.16	57478.88
545.32	57495.26
545.49	57773.78
545.66	57888.47
545.83	57485.90
546.00	57855.70
546.16	57881.45
546.33	57593.56
546.50	57563.14
546.67	58017.20
546.83	57549.09
547.00	57900.17
547.17	57893.15
547.34	58047.63
547.50	57986.77
547.67	58277.00
547.84	58071.03
548.00	58478.28
548.17	58363.60
548.34	58323.81
548.51	58337.85
548.67	58248.91
548.84	58092.10
549.01	58089.76
549.18	58232.53
549.34	58274.66
549.51	58265.30
549.68	58525.10
549.84	58578.93
550.01	58555.52
550.18	58230.19
550.34	58459.56
550.51	58520.41
550.68	58473.60
550.84	58255.93
551.01	58653.82
551.18	58583.61
551.34	58555.52
551.51	58501.69
551.68	58684.25
551.84	58466.58
552.01	58492.33
552.18	58660.85
552.34	58555.52
552.51	58796.60
552.68	58738.08
552.84	58698.30
553.01	59025.97
553.18	58918.31
553.34	59178.10
553.51	58721.70
553.67	58621.06
553.84	58869.15
554.01	59100.87
554.17	59166.40
554.34	58990.86
554.51	58983.84
554.67	59178.10
554.84	58908.94
555.00	58939.37
555.17	58871.49
555.33	59224.92
555.50	59082.14
555.67	59107.89
555.83	59182.79
556.00	59285.77
556.16	59620.47
556.33	59304.49
556.50	59257.68
556.66	59594.72
556.83	59194.49
556.99	59391.09
557.16	59580.68
557.32	59669.62
557.49	59873.24
557.65	59283.43
557.82	59416.84
557.98	59304.49
558.15	59517.48
558.32	59557.27
558.48	59355.99
558.65	59583.02
558.81	59634.51
558.98	59629.83
559.14	59873.24
559.31	59854.52
559.47	59742.17
559.64	59749.20
559.80	59704.73
559.97	59810.05
560.13	59758.56
560.30	59964.52
560.46	59784.30
560.63	59831.11
560.79	59969.21
560.96	59861.54
561.12	59945.80
561.29	59765.58
561.45	60023.04
561.61	59728.13
561.78	59842.82
561.94	59924.74
562.11	59973.89
562.27	59952.82
562.44	59973.89
562.60	60048.78
562.77	60247.73
562.93	59681.32
563.10	60055.81
563.26	60039.42
563.42	60402.21
563.59	59934.10
563.75	60144.75
563.92	60196.24
564.08	60048.78
564.24	60060.49
564.41	60327.31
564.57	60336.67
564.74	60378.80
564.90	60175.17
565.07	60301.56
565.23	60111.98
565.39	60175.17
565.56	60280.50
565.72	60254.75
565.88	60273.48
566.05	60126.02
566.21	60212.62
566.38	60296.88
566.54	60287.52
566.70	60512.21
566.87	60449.02
567.03	60303.90
567.19	60638.60
567.36	60430.29
567.52	60266.45
567.68	60608.17
567.85	60355.39
568.01	60441.99
568.17	60362.42
568.34	60608.17
568.50	60481.78
568.66	60477.10
568.83	60671.37
568.99	60339.01
569.15	60446.68
569.32	60495.83
569.48	60701.79
569.64	60779.03
569.81	60519.23
569.97	60493.49
570.13	60671.37
570.30	60453.70
570.46	60467.74
570.62	60472.42
570.78	60519.23
570.95	60601.15
571.11	60699.45
571.27	60519.23
571.43	60647.96
571.60	60842.23
571.76	60587.11
571.92	60860.95
572.09	60882.02
572.25	60762.65
572.41	60573.06
572.57	60666.69
572.74	60914.78
572.90	60666.69
573.06	60575.40
573.22	60722.86
573.38	60500.51
573.55	60704.13
573.71	61010.74
573.87	60954.57
574.03	60587.11
574.20	60830.52
574.36	60626.90
574.52	60734.56
574.68	60858.61
574.84	60800.10
575.01	60823.50
575.17	60816.48
575.33	60659.66
575.49	60825.84
575.65	60828.18
575.82	60935.85
575.98	60764.99
576.14	61015.43
576.30	60935.85
576.46	60830.52
576.62	60746.26
576.79	60975.64
576.95	60769.67
577.11	61176.92
577.27	61064.58
577.43	61013.08
577.59	60903.08
577.75	60884.36
577.92	60839.89
578.08	60966.27
578.24	60982.66
578.40	61027.13
578.56	61038.83
578.72	60809.46
578.88	60865.63
579.04	61139.47
579.21	61017.77
579.37	61137.13
579.53	61123.09
579.69	60910.10
579.85	60884.36
580.01	60863.29
580.17	60835.20
580.33	60975.64
580.49	61174.58
580.65	61059.90
580.82	60807.12
580.98	60982.66
581.14	60818.82
581.30	61123.09
581.46	60697.11
581.62	60935.85
581.78	60844.57
581.94	61073.94
582.10	61031.81
582.26	60935.85
582.42	60858.61
582.58	60863.29
582.74	60982.66
582.90	61013.08
583.06	61045.85
583.22	60849.25
583.38	60994.36
583.54	60968.61
583.70	60940.53
583.86	61059.90
584.02	60942.87
584.18	61141.81
584.34	61006.06
584.50	60987.34
584.66	61031.81
584.82	60795.42
584.98	61169.90
585.14	61160.54
585.30	61001.38
585.46	61076.28
585.62	61111.39
585.78	61275.22
585.94	60989.68
586.10	61078.62
586.26	61125.43
586.42	61141.81
586.58	61300.97
586.74	61300.97
586.90	61059.90
587.06	60994.36
587.22	61268.20
587.38	61272.88
587.54	61352.46
587.70	61219.05
587.86	61120.75
588.02	61034.15
588.18	61207.35
588.34	61073.94
588.49	61059.90
