SpectraSuite Data File
++++++++++++++++++++++++++++++++++++
Date: Fri Oct 25 10:47:39 EDT 2013
User: price-jones
Dark Spectrum Present: No
Reference Spectrum Present: No
Number of Sampled Component Spectra: 1
Spectrometers: USB2+H05261
Integration Time (usec): 100000 (USB2+H05261)
Spectra Averaged: 1 (USB2+H05261)
Boxcar Smoothing: 0 (USB2+H05261)
Correct for Electrical Dark: No (USB2+H05261)
Strobe/Lamp Enabled: No (USB2+H05261)
Correct for Detector Non-linearity: No (USB2+H05261)
Correct for Stray Light: No (USB2+H05261)
Number of Pixels in Processed Spectrum: 2048
>>>>>Begin Processed Spectral Data<<<<<
365.73	159.16
365.92	159.16
366.12	159.16
366.32	63.19
366.52	53.83
366.72	4.68
366.91	70.22
367.11	63.19
367.31	2.34
367.51	77.24
367.70	0.00
367.90	58.51
368.10	0.00
368.30	81.92
368.49	79.58
368.69	51.49
368.89	51.49
369.09	77.24
369.28	37.45
369.48	84.26
369.68	44.47
369.87	72.56
370.07	102.98
370.27	149.79
370.47	149.79
370.66	414.27
370.86	465.77
371.06	503.22
371.25	472.79
371.45	463.43
371.65	423.64
371.84	414.27
372.04	491.51
372.24	512.58
372.44	433.00
372.63	397.89
372.83	514.92
373.03	514.92
373.22	500.87
373.42	493.85
373.62	507.90
373.81	540.66
374.01	550.03
374.21	550.03
374.40	512.58
374.60	554.71
374.79	526.62
374.99	526.62
375.19	383.85
375.38	594.50
375.58	543.00
375.78	585.13
375.97	606.20
376.17	711.52
376.37	575.77
376.56	617.90
376.76	596.84
376.95	538.32
377.15	535.98
377.35	575.77
377.54	624.92
377.74	662.37
377.93	580.45
378.13	592.16
378.33	617.90
378.52	592.16
378.72	645.99
378.91	596.84
379.11	653.01
379.31	648.33
379.50	638.97
379.70	662.37
379.89	660.03
380.09	660.03
380.28	662.37
380.48	692.80
380.68	648.33
380.87	667.05
381.07	660.03
381.26	751.31
381.46	624.92
381.65	627.26
381.85	681.10
382.04	664.71
382.24	706.84
382.43	613.22
382.63	662.37
382.83	709.18
383.02	734.93
383.22	716.20
383.41	697.48
383.61	781.74
383.80	781.74
384.00	718.54
384.19	699.82
384.39	725.57
384.58	816.85
384.78	777.06
384.97	833.23
385.17	744.29
385.36	777.06
385.56	737.27
385.75	753.65
385.95	788.76
386.14	943.24
386.34	816.85
386.53	741.95
386.72	753.65
386.92	798.12
387.11	854.30
387.31	854.30
387.50	807.48
387.70	819.19
387.89	887.06
388.09	856.64
388.28	809.83
388.48	755.99
388.67	898.77
388.86	854.30
389.06	891.74
389.25	854.30
389.45	901.11
389.64	931.53
389.84	915.15
390.03	1001.75
390.22	959.62
390.42	950.26
390.61	861.32
390.81	943.24
391.00	964.30
391.19	992.39
391.39	994.73
391.58	898.77
391.78	968.98
391.97	1100.05
392.16	910.47
392.36	1076.65
392.55	997.07
392.75	985.37
392.94	1018.13
393.13	933.87
393.33	936.21
393.52	992.39
393.71	1048.56
393.91	1060.26
394.10	1004.09
394.29	1083.67
394.49	1149.20
394.68	1078.99
394.88	1125.80
395.07	1160.91
395.26	1125.80
395.46	1181.97
395.65	1156.22
395.84	1121.12
396.04	1198.35
396.23	1177.29
396.42	1172.61
396.62	1186.65
396.81	1263.89
397.00	1226.44
397.19	1259.21
397.39	1153.88
397.58	1179.63
397.77	1263.89
397.97	1238.14
398.16	1198.35
398.35	1336.45
398.55	1373.89
398.74	1373.89
398.93	1387.94
399.12	1425.39
399.32	1345.81
399.51	1315.38
399.70	1437.09
399.90	1313.04
400.09	1397.30
400.28	1458.15
400.47	1444.11
400.67	1427.73
400.86	1483.90
401.05	1411.34
401.24	1577.52
401.44	1511.99
401.63	1425.39
401.82	1511.99
402.01	1519.01
402.21	1584.54
402.40	1509.65
402.59	1537.73
402.78	1530.71
402.97	1488.58
403.17	1579.86
403.36	1717.95
403.55	1619.65
403.74	1708.59
403.93	1729.66
404.13	1678.16
404.32	1619.65
404.51	1692.21
404.70	1734.34
404.89	1631.35
405.09	1795.19
405.28	1823.28
405.47	1834.98
405.66	1778.81
405.85	1790.51
406.05	1788.17
406.24	1762.42
406.43	1736.68
406.62	1849.02
406.81	1909.88
407.00	1776.47
407.20	1764.76
407.39	1919.24
407.58	2019.88
407.77	1961.37
407.96	2022.22
408.15	2017.54
408.34	1984.77
408.54	2040.95
408.73	2024.56
408.92	2008.18
409.11	2043.29
409.30	2003.50
409.49	2083.08
409.68	2111.16
409.87	2001.16
410.07	2069.03
410.26	2066.69
410.45	2200.10
410.64	2183.72
410.83	2216.49
411.02	2354.58
411.21	2380.32
411.40	2370.96
411.59	2277.34
411.78	2197.76
411.98	2429.48
412.17	2457.56
412.36	2408.41
412.55	2415.43
412.74	2588.63
412.93	2490.33
413.12	2434.16
413.31	2576.93
413.50	2457.56
413.69	2630.76
413.88	2656.51
414.07	2593.31
414.26	2640.12
414.45	2682.25
414.64	2569.91
414.83	2679.91
415.02	2834.39
415.22	2839.07
415.41	2867.16
415.60	2806.30
415.79	2832.05
415.98	2853.11
416.17	2869.50
416.36	2960.78
416.55	3030.99
416.74	3042.70
416.93	2991.20
417.12	2998.23
417.31	3056.74
417.50	2981.84
417.69	3035.67
417.88	3267.39
418.07	3150.36
418.26	3002.91
418.45	3178.45
418.64	3279.09
418.83	3190.15
419.02	3190.15
419.21	3265.05
419.39	3094.19
419.58	3075.46
419.77	3180.79
419.96	3330.58
420.15	3318.88
420.34	3300.16
420.53	3365.69
420.72	3382.07
420.91	3335.26
421.10	3375.05
421.29	3566.98
421.48	3447.61
421.67	3393.78
421.86	3428.88
422.05	3375.05
422.24	3428.88
422.43	3485.06
422.61	3522.51
422.80	3466.33
422.99	3531.87
423.18	3574.00
423.37	3714.43
423.56	3496.76
423.75	3501.44
423.94	3590.38
424.13	3335.26
424.32	3480.38
424.50	3639.53
424.69	3578.68
424.88	3735.50
425.07	3578.68
425.26	3562.30
425.45	3555.27
425.64	3419.52
425.83	3574.00
426.01	3737.84
426.20	3552.93
426.39	3538.89
426.58	3604.42
426.77	3548.25
426.96	3681.66
427.15	3730.81
427.33	3714.43
427.52	3782.31
427.71	3892.31
427.90	3761.24
428.09	3705.07
428.28	3822.09
428.46	3808.05
428.65	3803.37
428.84	3761.24
429.03	3899.33
429.22	3838.48
429.40	3992.95
429.59	3786.99
429.78	3749.54
429.97	3641.87
430.16	3768.26
430.34	3747.20
430.53	3967.21
430.72	4032.74
430.91	3946.14
431.10	3964.87
431.28	4140.41
431.47	4084.23
431.66	4131.05
431.85	4065.51
432.03	4227.01
432.22	4418.93
432.41	4189.56
432.60	4168.49
432.79	4341.69
432.97	4292.54
433.16	4299.56
433.35	4191.90
433.54	4250.41
433.72	4376.80
433.91	4191.90
434.10	4393.19
434.28	4346.37
434.47	4383.82
434.66	4458.72
434.85	4580.43
435.03	4554.68
435.22	4505.53
435.41	4643.62
435.59	4512.55
435.78	4664.69
435.97	4786.40
436.16	4720.86
436.34	4610.86
436.53	4603.83
436.72	4751.29
436.90	4601.49
437.09	4842.57
437.28	4674.05
437.46	4690.43
437.65	4725.54
437.84	4795.76
438.02	4744.27
438.21	4840.23
438.40	4741.93
438.58	4933.85
438.77	4980.66
438.96	4903.42
439.14	5144.50
439.33	5247.48
439.52	5291.95
439.70	5219.39
439.89	5212.37
440.08	5188.97
440.26	5146.84
440.45	5043.85
440.63	5369.19
440.82	5444.09
441.01	5425.36
441.19	5416.00
441.38	5411.32
441.57	5533.03
441.75	5713.25
441.94	5692.18
442.12	5575.16
442.31	5729.63
442.50	5673.46
442.68	5687.50
442.87	5717.93
443.05	5750.70
443.24	5937.94
443.43	5881.77
443.61	5776.44
443.80	6052.63
443.98	5673.46
444.17	5668.78
444.35	5977.73
444.54	5959.00
444.73	5750.70
444.91	5954.32
445.10	5970.71
445.28	5731.97
445.47	5830.27
445.65	5715.59
445.84	5905.17
446.02	5996.45
446.21	6101.78
446.39	6026.88
446.58	6073.69
446.77	6078.37
446.95	5947.30
447.14	6155.61
447.32	6029.22
447.51	6061.99
447.69	5947.30
447.88	6010.50
448.06	6083.05
448.25	6069.01
448.43	6127.52
448.62	6136.88
448.80	6036.24
448.99	6228.17
449.17	6209.44
449.36	6225.82
449.54	6324.13
449.73	6399.02
449.91	6319.45
450.10	6422.43
450.28	6473.92
450.46	6492.65
450.65	6462.22
450.83	6614.35
451.02	6553.50
451.20	6560.52
451.39	6623.72
451.57	6307.74
451.76	6408.39
451.94	6459.88
452.13	6647.12
452.31	6569.88
452.49	6401.37
452.68	6544.14
452.86	6558.18
453.05	6621.38
453.23	6738.40
453.42	6612.01
453.60	6572.22
453.78	6717.34
453.97	6684.57
454.15	6658.82
454.34	6722.02
454.52	6792.23
454.70	6860.11
454.89	6850.75
455.07	6707.98
455.26	6909.26
455.44	7190.13
455.62	7087.14
455.81	6967.77
455.99	6960.75
456.17	7173.74
456.36	7089.48
456.54	7258.00
456.73	7220.55
456.91	7234.60
457.09	7241.62
457.28	7449.93
457.46	7309.49
457.64	7475.67
457.83	7398.43
458.01	7279.07
458.19	7562.27
458.38	7428.86
458.56	7545.89
458.74	7606.74
458.93	7520.14
459.11	7609.08
459.29	7564.61
459.48	7625.47
459.66	7576.31
459.84	7609.08
460.03	7726.11
460.21	7789.30
460.39	7871.22
460.57	7653.55
460.76	7782.28
460.94	7796.32
461.12	7812.71
461.31	7836.11
461.49	7850.16
461.67	7751.85
461.85	8081.87
462.04	7967.18
462.22	8606.15
462.40	8327.63
462.59	7985.91
462.77	8229.32
462.95	8156.77
463.13	8226.98
463.32	8205.92
463.50	8320.60
463.68	8292.52
463.86	8250.39
464.05	8145.06
464.23	8173.15
464.41	8079.53
464.59	8250.39
464.78	8365.07
464.96	8301.88
465.14	8456.36
465.32	8278.47
465.50	8276.13
465.69	8496.14
465.87	8475.08
466.05	8383.80
466.23	8531.25
466.41	8503.17
466.60	8704.45
466.78	8568.70
466.96	8566.36
467.14	8699.77
467.32	8505.51
467.51	8697.43
467.69	8519.55
467.87	8479.76
468.05	8568.70
468.23	8791.05
468.41	8807.44
468.60	8725.52
468.78	8863.61
468.96	8826.16
469.14	9039.15
469.32	8781.69
469.50	8549.98
469.69	8966.59
469.87	8879.99
470.05	9118.73
470.23	9088.30
470.41	9074.26
470.59	9195.96
470.77	9097.66
470.95	9020.42
471.14	9284.91
471.32	9050.85
471.50	9444.06
471.68	9455.76
471.86	9488.53
472.04	9703.86
472.22	9708.54
472.40	9495.55
472.58	9420.66
472.77	9607.90
472.95	9619.60
473.13	9973.02
473.31	9591.52
473.49	9568.11
473.67	9795.14
473.85	9792.80
474.03	9968.34
474.21	10113.45
474.39	10026.86
474.57	10324.10
474.75	10129.84
474.93	10270.27
475.12	10422.41
475.30	10511.35
475.48	10202.40
475.66	10265.59
475.84	10382.62
476.02	10544.11
476.20	10441.13
476.38	10778.17
476.56	10972.43
476.74	11030.94
476.92	10890.51
477.10	10944.34
477.28	11232.23
477.46	11260.32
477.64	11302.45
477.82	11073.07
478.00	11353.94
478.18	11372.66
478.36	11466.28
478.54	11796.30
478.72	11840.77
478.90	11967.16
479.08	12004.61
479.26	12138.02
479.44	12187.17
479.62	12077.16
479.80	12222.28
479.98	12432.93
480.16	12526.55
480.34	12535.91
480.52	12688.04
480.70	12739.54
480.88	12659.96
481.06	12800.39
481.24	12755.92
481.41	12947.84
481.59	13191.26
481.77	13277.86
481.95	13142.11
482.13	13322.33
482.31	13493.19
482.49	13734.26
482.67	13785.76
482.85	14064.28
483.03	13839.59
483.21	14078.32
483.39	14157.90
483.57	13872.36
483.74	14265.57
483.92	14466.85
484.10	14403.66
484.28	14698.56
484.46	14869.42
484.64	14939.64
484.82	14995.81
485.00	14960.70
485.18	15197.10
485.35	15391.36
485.53	15129.22
485.71	15126.88
485.89	15229.87
486.07	15384.34
486.25	15454.56
486.43	15545.84
486.61	15674.57
486.78	16238.64
486.96	16114.59
487.14	16198.85
487.32	16273.74
487.50	16631.85
487.68	16877.60
487.85	17090.59
488.03	17076.55
488.21	17179.53
488.39	17493.16
488.57	17359.75
488.75	17518.91
488.92	17912.12
489.10	18010.42
489.28	18001.06
489.46	18195.32
489.64	18036.17
489.81	18471.51
489.99	18539.38
490.17	18602.58
490.35	18838.97
490.53	18757.05
490.70	19042.60
490.88	19033.24
491.06	19541.13
491.24	19208.78
491.41	19260.27
491.59	19396.02
491.77	19166.65
491.95	19782.21
492.13	19854.76
492.30	19786.89
492.48	20269.04
492.66	20418.83
492.84	20297.13
493.01	20208.19
493.19	20449.26
493.37	20409.47
493.54	20861.19
493.72	20898.64
493.90	20975.88
494.08	21057.80
494.25	21352.71
494.43	21446.33
494.61	21476.76
494.79	21799.75
494.96	21874.65
495.14	21884.01
495.32	22153.17
495.49	22078.27
495.67	21862.94
495.85	22644.68
496.02	22419.99
496.20	22609.58
496.38	22567.45
496.55	22909.16
496.73	23208.75
496.91	22951.29
497.09	23080.02
497.26	23229.82
497.44	23211.09
497.62	23110.45
497.79	23716.65
497.97	23424.08
498.14	23627.71
498.32	23845.38
498.50	23913.25
498.67	24259.65
498.85	24081.77
499.03	24524.13
499.20	24252.63
499.38	24343.91
499.56	24482.00
499.73	24601.37
499.91	24699.67
500.08	25214.59
500.26	24606.05
500.44	24772.23
500.61	25254.38
500.79	24886.92
500.97	25472.05
501.14	25603.12
501.32	25355.02
501.49	25455.67
501.67	25516.52
501.84	25385.45
502.02	25738.87
502.20	25771.64
502.37	26139.10
502.55	25909.73
502.72	26094.63
502.90	26263.15
503.07	25926.11
503.25	26368.48
503.43	26066.55
503.60	26181.23
503.78	26541.68
503.95	26803.82
504.13	26649.34
504.30	26555.72
504.48	26544.02
504.65	26967.65
504.83	27084.68
505.01	27166.60
505.18	27080.00
505.36	27349.16
505.53	27559.81
505.71	27828.97
505.88	27606.62
506.06	27400.65
506.23	27814.93
506.41	27805.56
506.58	27683.86
506.76	27978.76
506.93	28402.40
507.11	28147.28
507.28	28636.45
507.46	28243.24
507.63	28053.66
507.81	28081.75
507.98	28198.77
508.16	28332.18
508.33	29046.05
508.50	28966.47
508.68	28989.88
508.85	28727.74
509.03	28912.64
509.20	28882.21
509.38	28945.41
509.55	29099.88
509.73	29113.92
509.90	29301.17
510.08	29261.38
510.25	29312.87
510.42	29530.54
510.60	29628.84
510.77	29837.15
510.95	29570.33
511.12	29940.13
511.30	30192.91
511.47	30050.14
511.64	30293.55
511.82	30593.14
511.99	29846.51
512.17	30611.87
512.34	30223.34
512.51	30309.94
512.69	30703.15
512.86	30710.17
513.04	31016.78
513.21	31023.80
513.38	31014.44
513.56	30827.20
513.73	30972.31
513.90	31042.53
514.08	31161.89
514.25	31220.41
514.43	31065.93
514.60	31487.23
514.77	31421.69
514.95	31740.00
515.12	31866.39
515.29	31585.53
515.47	31646.38
515.64	31599.57
515.81	31491.91
515.99	31555.10
516.16	31885.12
516.33	31714.26
516.51	31871.07
516.68	31548.08
516.85	31831.29
517.03	31866.39
517.20	32587.28
517.37	32091.09
517.54	32353.23
517.72	32613.02
517.89	32290.03
518.06	32390.67
518.24	32343.86
518.41	32109.81
518.58	32606.00
518.75	32666.86
518.93	32889.21
519.10	32999.21
519.27	33373.70
519.45	33120.92
519.62	33518.81
519.79	32975.81
519.96	33392.42
520.14	33343.27
520.31	33750.52
520.48	34164.80
520.65	33249.65
520.83	33942.45
521.00	33827.76
521.17	34211.61
521.34	34092.24
521.52	34312.25
521.69	33989.26
521.86	34377.79
522.03	34316.93
522.20	34340.34
522.38	34979.31
522.55	34550.99
522.72	34335.66
522.89	34529.92
523.07	34937.18
523.24	34686.74
523.41	34789.72
523.58	34906.75
523.75	35187.61
523.92	35384.22
524.10	35262.51
524.27	34792.06
524.44	35246.13
524.61	35314.00
524.78	35353.79
524.96	35391.24
525.13	35824.24
525.30	35875.73
525.47	35697.85
525.64	35496.56
525.81	35828.92
525.98	35789.13
526.16	35688.49
526.33	35615.93
526.50	35913.18
526.67	35615.93
526.84	35906.16
527.01	35679.13
527.18	36364.90
527.36	35913.18
527.53	36708.96
527.70	36325.11
527.87	36002.12
528.04	36507.68
528.21	36807.26
528.38	36383.63
528.55	36964.08
528.72	36233.83
528.89	37219.20
529.07	36954.72
529.24	36460.87
529.41	36891.52
529.58	36580.23
529.75	36961.74
529.92	36863.44
530.09	36957.06
530.26	37235.58
530.43	37193.45
530.60	37120.90
530.77	37340.91
530.94	37226.22
531.11	37331.54
531.28	37069.40
531.46	37766.88
531.63	37797.31
531.80	37141.96
531.97	37483.68
532.14	37479.00
532.31	37368.99
532.48	38249.03
532.65	37661.56
532.82	37745.82
532.99	38064.13
533.16	37340.91
533.33	37902.64
533.50	38230.31
533.67	38190.52
533.84	37397.08
534.01	38234.99
534.18	37797.31
534.35	38490.11
534.52	38263.08
534.69	38843.53
534.86	38665.65
535.03	38150.73
535.20	38969.92
535.37	38902.04
535.54	38827.15
535.71	39007.37
535.88	38649.27
536.05	38752.25
536.22	38953.54
536.38	38808.42
536.55	38948.85
536.72	38565.01
536.89	39264.83
537.06	38855.23
537.23	39655.70
537.40	39075.24
537.57	39047.16
537.74	39281.21
537.91	39510.58
538.08	39232.06
538.25	39187.59
538.42	38946.51
538.59	39798.47
538.75	39358.45
538.92	39311.64
539.09	39702.51
539.26	39510.58
539.43	39166.52
539.60	39592.50
539.77	39480.16
539.94	39758.68
540.11	39697.83
540.28	39618.25
540.44	39578.46
540.61	39391.22
540.78	39461.43
540.95	39959.97
541.12	40013.80
541.29	39414.62
541.46	39817.19
541.62	39978.69
541.79	40404.67
541.96	39702.51
542.13	40318.07
542.30	39915.50
542.47	40423.39
542.63	40486.59
542.80	40509.99
542.97	40758.09
543.14	40935.97
543.31	40774.47
543.48	41017.89
543.64	41053.00
543.81	41233.22
543.98	40945.33
544.15	41050.66
544.32	40788.52
544.48	41247.26
544.65	41209.81
544.82	41221.52
544.99	40655.11
545.16	40919.59
545.32	40715.96
545.49	41418.12
545.66	41221.52
545.83	41469.61
546.00	41301.09
546.16	41439.18
546.33	41572.60
546.50	40772.13
546.67	41263.64
546.83	41062.36
547.00	41301.09
547.17	41427.48
547.34	41553.87
547.50	41680.26
547.67	42017.30
547.84	41511.74
548.00	41982.19
548.17	42134.32
548.34	41947.08
548.51	41947.08
548.67	42117.94
548.84	42417.53
549.01	41977.51
549.18	42139.00
549.34	42054.75
549.51	42253.69
549.68	42464.34
549.84	41989.21
550.01	42115.60
550.18	42117.94
550.34	42113.26
550.51	41689.62
550.68	41991.55
550.84	41808.99
551.01	41785.58
551.18	42164.75
551.34	42431.57
551.51	42714.78
551.68	42136.66
551.84	42609.45
552.01	42518.17
552.18	42543.92
552.34	41979.85
552.51	42913.72
552.68	42941.81
552.84	42384.76
553.01	43044.79
553.18	42593.07
553.34	42918.40
553.51	42564.98
553.67	42462.00
553.84	43353.74
554.01	42906.70
554.17	42789.67
554.34	43227.35
554.51	43161.82
554.67	43082.24
554.84	43196.93
555.00	43091.60
555.17	42876.27
555.33	43086.92
555.50	43063.52
555.67	42962.87
555.83	43423.96
556.00	43000.32
556.16	43775.04
556.33	43131.39
556.50	43164.16
556.66	43140.75
556.83	43143.09
556.99	43306.93
557.16	43147.78
557.32	43430.98
557.49	43533.96
557.65	42995.64
557.82	43515.24
557.98	42756.91
558.15	43812.49
558.32	43573.75
558.48	43529.28
558.65	43608.86
558.81	43611.20
558.98	43772.70
559.14	44060.58
559.31	43646.31
559.47	43522.26
559.64	43629.93
559.80	44100.37
559.97	44030.16
560.13	43662.69
560.30	43578.43
560.46	43758.66
560.63	44294.64
560.79	43629.93
560.96	44048.88
561.12	43765.68
561.29	43966.96
561.45	44161.23
561.61	43835.89
561.78	43922.49
561.94	43709.50
562.11	43611.20
562.27	43632.27
562.44	43945.90
562.60	44058.24
562.77	44311.02
562.93	43948.24
563.10	44432.73
563.26	43959.94
563.42	44168.25
563.59	44004.41
563.75	44142.50
563.92	44095.69
564.08	44378.90
564.24	44147.18
564.41	44163.57
564.57	44451.45
564.74	44137.82
564.90	44521.67
565.07	44392.94
565.23	44144.84
565.39	43856.96
565.56	44238.47
565.72	44107.40
565.88	44282.94
566.05	44367.20
566.21	44149.53
566.38	44432.73
566.54	44493.58
566.70	44699.55
566.87	45174.68
567.03	44467.84
567.19	44416.35
567.36	44725.30
567.52	44521.67
567.68	44165.91
567.85	44865.73
568.01	44507.63
568.17	44495.92
568.34	44229.10
568.50	44360.17
568.66	44350.81
568.83	44385.92
568.99	44165.91
569.15	44201.02
569.32	44046.54
569.48	44512.31
569.64	44987.44
569.81	44718.28
569.97	44690.19
570.13	44851.69
570.30	44456.14
570.46	44458.48
570.62	44320.38
570.78	44566.14
570.95	44921.90
571.11	44938.29
571.27	44498.26
571.43	44652.74
571.60	44631.68
571.76	44472.52
571.92	44563.80
572.09	44566.14
572.25	44746.36
572.41	44343.79
572.57	44666.78
572.74	45258.94
572.90	44575.50
573.06	44729.98
573.22	44959.35
573.38	44299.32
573.55	44304.00
573.71	44851.69
573.87	44718.28
574.03	44531.03
574.20	44973.39
574.36	44622.31
574.52	44758.06
574.68	44942.97
574.84	44910.20
575.01	44687.85
575.17	44966.37
575.33	44399.96
575.49	44765.09
575.65	45113.83
575.82	44994.46
575.98	44788.49
576.14	45378.31
576.30	44945.31
576.46	44797.85
576.62	44844.66
576.79	44755.72
576.95	44348.47
577.11	44360.17
577.27	44907.86
577.43	45048.29
577.59	44605.93
577.75	45118.51
577.92	44205.70
578.08	44680.83
578.24	44650.40
578.40	44811.90
578.56	45111.49
578.72	44453.79
578.88	45052.97
579.04	44694.87
579.21	44402.30
579.37	44521.67
579.53	45090.42
579.69	44549.76
579.85	44823.60
580.01	45230.85
580.17	45027.23
580.33	45134.89
580.49	45385.33
580.65	44884.45
580.82	45059.99
580.98	45095.10
581.14	44371.88
581.30	45127.87
581.46	44732.32
581.62	44554.44
581.78	44891.48
581.94	45301.07
582.10	44463.16
582.26	45212.13
582.42	45041.27
582.58	44928.92
582.74	45013.18
582.90	45111.49
583.06	45186.38
583.22	44964.03
583.38	45256.60
583.54	45106.80
583.70	44720.62
583.86	44603.59
584.02	44566.14
584.18	44954.67
584.34	45167.66
584.50	45263.62
584.66	44783.81
584.82	44921.90
584.98	45158.30
585.14	44933.60
585.30	44540.39
585.46	44839.98
585.62	44619.97
585.78	44942.97
585.94	44748.70
586.10	44577.84
586.26	44701.89
586.42	45085.74
586.58	44907.86
586.74	44776.79
586.90	44816.58
587.06	44751.04
587.22	45277.66
587.38	44842.32
587.54	44994.46
587.70	45179.36
587.86	44982.76
588.02	45233.19
588.18	45670.87
588.34	44823.60
588.49	44903.18
588.65	44570.82
588.81	44465.50
588.97	44404.64
589.13	44713.59
589.29	44821.26
589.45	44729.98
589.61	45015.52
589.77	45237.87
589.93	45268.30
590.08	45359.58
590.24	45153.62
