SpectraSuite Data File
++++++++++++++++++++++++++++++++++++
Date: Fri Oct 25 10:48:06 EDT 2013
User: price-jones
Dark Spectrum Present: No
Reference Spectrum Present: No
Number of Sampled Component Spectra: 1
Spectrometers: USB2+H05261
Integration Time (usec): 100000 (USB2+H05261)
Spectra Averaged: 1 (USB2+H05261)
Boxcar Smoothing: 0 (USB2+H05261)
Correct for Electrical Dark: No (USB2+H05261)
Strobe/Lamp Enabled: No (USB2+H05261)
Correct for Detector Non-linearity: No (USB2+H05261)
Correct for Stray Light: No (USB2+H05261)
Number of Pixels in Processed Spectrum: 2048
>>>>>Begin Processed Spectral Data<<<<<
365.73	121.71
365.92	121.71
366.12	121.71
366.32	44.47
366.52	37.45
366.72	65.54
366.91	0.00
367.11	18.72
367.31	49.15
367.51	0.00
367.70	84.26
367.90	117.03
368.10	49.15
368.30	0.00
368.49	67.88
368.69	60.85
368.89	60.85
369.09	77.24
369.28	51.49
369.48	72.56
369.68	102.98
369.87	86.60
370.07	49.15
370.27	110.01
370.47	154.48
370.66	351.08
370.86	440.02
371.06	442.36
371.25	493.85
371.45	414.27
371.65	503.22
371.84	463.43
372.04	397.89
372.24	521.94
372.44	526.62
372.63	486.83
372.83	465.77
373.03	479.81
373.22	496.19
373.42	489.17
373.62	578.11
373.81	433.00
374.01	540.66
374.21	547.69
374.40	454.06
374.60	547.69
374.79	557.05
374.99	538.32
375.19	533.64
375.38	535.98
375.58	643.65
375.78	596.84
375.97	550.03
376.17	669.39
376.37	608.54
376.56	599.18
376.76	538.32
376.95	571.09
377.15	603.86
377.35	545.34
377.54	655.35
377.74	662.37
377.93	585.13
378.13	596.84
378.33	645.99
378.52	592.16
378.72	645.99
378.91	667.05
379.11	671.73
379.31	650.67
379.50	648.33
379.70	624.92
379.89	681.10
380.09	594.50
380.28	531.30
380.48	568.75
380.68	592.16
380.87	547.69
381.07	662.37
381.26	704.50
381.46	650.67
381.65	683.44
381.85	615.56
382.04	613.22
382.24	636.63
382.43	617.90
382.63	624.92
382.83	613.22
383.02	657.69
383.22	725.57
383.41	746.63
383.61	667.05
383.80	685.78
384.00	713.86
384.19	660.03
384.39	676.41
384.58	760.67
384.78	709.18
384.97	748.97
385.17	826.21
385.36	704.50
385.56	716.20
385.75	772.38
385.95	837.91
386.14	784.08
386.34	814.51
386.53	772.38
386.72	763.01
386.92	798.12
387.11	751.31
387.31	891.74
387.50	833.23
387.70	826.21
387.89	847.27
388.09	807.48
388.28	830.89
388.48	814.51
388.67	863.66
388.86	814.51
389.06	968.98
389.25	901.11
389.45	812.17
389.64	840.25
389.84	805.14
390.03	912.81
390.22	915.15
390.42	896.43
390.61	894.08
390.81	800.46
391.00	908.13
391.19	870.68
391.39	961.96
391.58	943.24
391.78	950.26
391.97	924.51
392.16	894.08
392.36	997.07
392.55	933.87
392.75	919.83
392.94	898.77
393.13	929.19
393.33	978.34
393.52	976.00
393.71	1043.88
393.91	971.32
394.10	1027.50
394.29	1029.84
394.49	1137.50
394.68	1088.35
394.88	1118.78
395.07	1118.78
395.26	1111.75
395.46	1090.69
395.65	1193.67
395.84	1151.54
396.04	1102.39
396.23	1111.75
396.42	1034.52
396.62	1114.10
396.81	1172.61
397.00	1151.54
397.19	1093.03
397.39	1184.31
397.58	1308.36
397.77	1231.12
397.97	1200.69
398.16	1249.85
398.35	1249.85
398.55	1226.44
398.74	1270.91
398.93	1324.74
399.12	1294.32
399.32	1324.74
399.51	1301.34
399.70	1327.08
399.90	1291.98
400.09	1390.28
400.28	1320.06
400.47	1366.87
400.67	1416.02
400.86	1483.90
401.05	1432.41
401.24	1469.86
401.44	1479.22
401.63	1437.09
401.82	1453.47
402.01	1502.62
402.21	1535.39
402.40	1448.79
402.59	1507.30
402.78	1446.45
402.97	1514.33
403.17	1486.24
403.36	1526.03
403.55	1458.15
403.74	1535.39
403.93	1664.12
404.13	1589.22
404.32	1542.41
404.51	1614.97
404.70	1633.69
404.89	1657.10
405.09	1664.12
405.28	1743.70
405.47	1687.53
405.66	1764.76
405.85	1689.87
406.05	1523.69
406.24	1732.00
406.43	1703.91
406.62	1717.95
406.81	1748.38
407.00	1799.87
407.20	1734.34
407.39	1827.96
407.58	1884.13
407.77	1778.81
407.96	1942.64
408.15	1879.45
408.34	1863.07
408.54	1944.99
408.73	1956.69
408.92	1994.14
409.11	1982.43
409.30	2036.27
409.49	1970.73
409.68	2026.90
409.87	2001.16
410.07	2033.93
410.26	2090.10
410.45	2172.02
410.64	2148.61
410.83	2153.29
411.02	2165.00
411.21	2155.63
411.40	2148.61
411.59	2165.00
411.78	2172.02
411.98	2347.56
412.17	2279.68
412.36	2305.43
412.55	2380.32
412.74	2359.26
412.93	2335.85
413.12	2282.02
413.31	2499.69
413.50	2424.80
413.69	2427.14
413.88	2492.67
414.07	2487.99
414.26	2525.44
414.45	2466.92
414.64	2579.27
414.83	2626.08
415.02	2745.45
415.22	2567.57
415.41	2682.25
415.60	2710.34
415.79	2750.13
415.98	2778.22
416.17	2818.00
416.36	2787.58
416.55	2869.50
416.74	2850.77
416.93	2874.18
417.12	2869.50
417.31	2789.92
417.50	2930.35
417.69	3059.08
417.88	2902.26
418.07	2890.56
418.26	3063.76
418.45	3007.59
418.64	3192.49
418.83	3112.91
419.02	3138.66
419.21	3103.55
419.39	3084.83
419.58	3199.51
419.77	3005.25
419.96	3248.66
420.15	3206.53
420.34	3155.04
420.53	3269.73
420.72	3302.50
420.91	3377.39
421.10	3346.97
421.29	3389.10
421.48	3358.67
421.67	3344.63
421.86	3328.24
422.05	3321.22
422.24	3368.03
422.43	3426.54
422.61	3370.37
422.80	3391.44
422.99	3396.12
423.18	3309.52
423.37	3459.31
423.56	3375.05
423.75	3412.50
423.94	3431.23
424.13	3211.22
424.32	3400.80
424.50	3541.23
424.69	3562.30
424.88	3503.78
425.07	3499.10
425.26	3417.18
425.45	3527.19
425.64	3480.38
425.83	3524.85
426.01	3550.59
426.20	3597.40
426.39	3644.21
426.58	3569.32
426.77	3531.87
426.96	3527.19
427.15	3562.30
427.33	3550.59
427.52	3597.40
427.71	3644.21
427.90	3630.17
428.09	3630.17
428.28	3644.21
428.46	3604.42
428.65	3637.19
428.84	3871.25
429.03	3796.35
429.22	3543.57
429.40	3726.13
429.59	3747.20
429.78	3557.61
429.97	3529.53
430.16	3641.87
430.34	3686.34
430.53	3974.23
430.72	3817.41
430.91	3815.07
431.10	3847.84
431.28	3918.06
431.47	3990.61
431.66	4210.62
431.85	3936.78
432.03	3957.85
432.22	4248.07
432.41	4065.51
432.60	4086.58
432.79	4126.36
432.97	4241.05
433.16	4079.55
433.35	4227.01
433.54	4152.11
433.72	4248.07
433.91	4301.90
434.10	4161.47
434.28	4271.48
434.47	4294.88
434.66	4337.01
434.85	4362.76
435.03	4395.53
435.22	4407.23
435.41	4503.19
435.59	4512.55
435.78	4456.38
435.97	4437.66
436.16	4444.68
436.34	4461.06
436.53	4369.78
436.72	4828.53
436.90	4465.74
437.09	4594.47
437.28	4388.50
437.46	4587.45
437.65	4561.70
437.84	4617.88
438.02	4582.77
438.21	4566.39
438.40	4620.22
438.58	4821.50
438.77	4627.24
438.96	4788.74
439.14	4777.03
439.33	4807.46
439.52	4812.14
439.70	4791.08
439.89	5062.58
440.08	4940.87
440.26	4954.91
440.45	5029.81
440.63	5036.83
440.82	5263.86
441.01	5156.20
441.19	5277.91
441.38	5460.47
441.57	5383.23
441.75	5261.52
441.94	5495.58
442.12	5453.45
442.31	5582.18
442.50	5572.82
442.68	5584.52
442.87	5579.84
443.05	5598.56
443.24	5823.25
443.43	5762.40
443.61	5827.93
443.80	5858.36
443.98	5626.65
444.17	5521.32
444.35	5720.27
444.54	5717.93
444.73	5771.76
444.91	5710.91
445.10	5575.16
445.28	5802.19
445.47	5778.78
445.65	5617.29
445.84	5776.44
446.02	5893.47
446.21	5881.77
446.39	5827.93
446.58	5790.49
446.77	5809.21
446.95	5767.08
447.14	5856.02
447.32	5996.45
447.51	5919.21
447.69	5715.59
447.88	5937.94
448.06	5774.10
448.25	5909.85
448.43	5846.66
448.62	5839.64
448.80	5790.49
448.99	5809.21
449.17	5916.87
449.36	5891.13
449.54	6045.60
449.73	6038.58
449.91	6279.66
450.10	6223.48
450.28	6174.33
450.46	6174.33
450.65	6230.51
450.83	6349.87
451.02	6207.10
451.20	6258.59
451.39	6310.08
451.57	6410.73
451.76	6342.85
451.94	6286.68
452.13	6394.34
452.31	6551.16
452.49	6085.39
452.68	6399.02
452.86	6300.72
453.05	6352.21
453.23	6523.07
453.42	6520.73
453.60	6532.44
453.78	6586.27
453.97	6335.83
454.15	6476.26
454.34	6403.71
454.52	6558.18
454.70	6684.57
454.89	6637.76
455.07	6497.33
455.26	6700.95
455.44	6787.55
455.62	6715.00
455.81	6682.23
455.99	6813.30
456.17	6927.99
456.36	6853.09
456.54	6986.50
456.73	6967.77
456.91	7073.10
457.09	7023.95
457.28	7377.37
457.46	7279.07
457.64	7140.97
457.83	7101.19
458.01	7077.78
458.19	7311.83
458.38	7145.66
458.56	7232.26
458.74	7260.34
458.93	7281.41
459.11	7417.16
459.29	7555.25
459.48	7274.38
459.66	7307.15
459.84	7389.07
460.03	7672.28
460.21	7433.54
460.39	7496.74
460.57	7218.21
460.76	7520.14
460.94	7637.17
461.12	7726.11
461.31	7726.11
461.49	7499.08
461.67	7803.35
461.85	7857.18
462.04	7499.08
462.22	8166.13
462.40	7824.41
462.59	7901.65
462.77	7761.22
462.95	7948.46
463.13	7817.39
463.32	7927.39
463.50	7971.86
463.68	8006.97
463.86	7866.54
464.05	7695.68
464.23	7859.52
464.41	7969.52
464.59	7911.01
464.78	8140.38
464.96	7906.33
465.14	7997.61
465.32	8175.49
465.50	8276.13
465.69	8374.44
465.87	8124.00
466.05	8177.83
466.23	8301.88
466.41	8100.59
466.60	8226.98
466.78	8063.15
466.96	8292.52
467.14	8124.00
467.32	8266.77
467.51	8414.23
467.69	8243.37
467.87	8353.37
468.05	8451.67
468.23	8234.00
468.41	8400.18
468.60	8271.45
468.78	8498.49
468.96	8465.72
469.14	8695.09
469.32	8643.60
469.50	8388.48
469.69	8655.30
469.87	8573.38
470.05	8758.28
470.23	8718.50
470.41	8767.65
470.59	8837.86
470.77	8767.65
470.95	8882.33
471.14	8870.63
471.32	8833.18
471.50	9188.94
471.68	9102.34
471.86	9179.58
472.04	9174.90
472.22	9523.64
472.40	9104.68
472.58	9245.12
472.77	9252.14
472.95	9312.99
473.13	9577.47
473.31	9355.12
473.49	9415.98
473.67	9268.52
473.85	9427.68
474.03	9802.16
474.21	9652.37
474.39	9799.82
474.57	9802.16
474.75	9991.75
474.93	10022.17
475.12	9937.91
475.30	9998.77
475.48	9844.29
475.66	9832.59
475.84	10054.94
476.02	10307.72
476.20	10076.01
476.38	10513.69
476.56	10492.62
476.74	10696.25
476.92	10516.03
477.10	10721.99
477.28	10775.83
477.46	10651.78
477.64	10686.89
477.82	11063.71
478.00	11346.92
478.18	11152.65
478.36	11082.44
478.54	11314.15
478.72	11187.76
478.90	11442.88
479.08	11623.10
479.26	11630.12
479.44	11939.07
479.62	11613.74
479.80	11889.92
479.98	11960.14
480.16	12142.70
480.34	11906.31
480.52	12514.84
480.70	12175.47
480.88	12175.47
481.06	12149.72
481.24	12383.77
481.41	12538.25
481.59	12877.63
481.77	12844.86
481.95	12774.64
482.13	13097.64
482.31	12812.09
482.49	13277.86
482.67	13284.88
482.85	13563.40
483.03	13348.08
483.21	13451.06
483.39	13762.35
483.57	13748.31
483.74	14022.15
483.92	13914.48
484.10	13722.56
484.28	14054.92
484.46	14506.64
484.64	14719.63
484.82	14235.14
485.00	14511.32
485.18	14831.97
485.35	15068.37
485.53	14523.02
485.71	14820.27
485.89	15187.74
486.07	15012.20
486.25	15169.01
486.43	15159.65
486.61	15414.77
486.78	15695.63
486.96	15744.78
487.14	15868.83
487.32	15683.93
487.50	16222.25
487.68	16240.98
487.85	16627.17
488.03	16634.19
488.21	17188.89
488.39	16776.96
488.57	16975.91
488.75	17149.11
488.92	17219.32
489.10	17326.99
489.28	17153.79
489.46	17614.87
489.64	17539.97
489.81	18143.83
489.99	18328.74
490.17	18176.60
490.35	18160.22
490.53	18373.21
490.70	18195.32
490.88	18434.06
491.06	18953.66
491.24	18747.69
491.41	18913.87
491.59	18728.97
491.77	18794.50
491.95	19215.80
492.13	19571.56
492.30	19517.73
492.48	19461.55
492.66	19751.78
492.84	19555.18
493.01	19962.43
493.19	20231.59
493.37	20360.32
493.54	19950.73
493.72	20514.80
493.90	20334.57
494.08	20418.83
494.25	20908.01
494.43	20975.88
494.61	21240.36
494.79	20943.11
494.96	21097.59
495.14	21020.35
495.32	21631.23
495.49	21418.24
495.67	21504.84
495.85	21558.67
496.02	22022.10
496.20	22125.08
496.38	21942.52
496.55	22085.30
496.73	22726.60
496.91	22480.85
497.09	22513.61
497.26	22986.40
497.44	22434.03
497.62	22803.84
497.79	23073.00
497.97	22852.99
498.14	23040.23
498.32	23178.33
498.50	23197.05
498.67	23503.66
498.85	23557.49
499.03	23859.42
499.20	23800.91
499.38	23878.15
499.56	24182.42
499.73	23758.78
499.91	24390.72
500.08	24034.96
500.26	24100.50
500.44	24184.76
500.61	24119.22
500.79	24161.35
500.97	24678.61
501.14	25135.01
501.32	24891.60
501.49	24694.99
501.67	24915.00
501.84	24865.85
502.02	24863.51
502.20	25113.95
502.37	25654.61
502.55	25179.48
502.72	25312.89
502.90	25500.14
503.07	25116.29
503.25	26113.36
503.43	25619.50
503.60	25748.23
503.78	25729.51
503.95	26192.94
504.13	26050.16
504.30	26195.28
504.48	25869.94
504.65	26153.15
504.83	26412.95
505.01	26785.09
505.18	26321.66
505.36	26822.54
505.53	26611.89
505.71	26871.69
505.88	26939.57
506.06	26649.34
506.23	26707.85
506.41	26841.26
506.58	27363.20
506.76	27131.49
506.93	28011.53
507.11	27587.89
507.28	27449.80
507.46	27459.16
507.63	27632.36
507.81	27810.25
507.98	27646.41
508.16	28077.07
508.33	28123.88
508.50	28184.73
508.68	28285.37
508.85	28371.97
509.03	28350.91
509.20	28280.69
509.38	28566.24
509.55	28811.99
509.73	28650.50
509.90	28608.37
510.08	28486.66
510.25	28907.96
510.42	29123.29
510.60	29219.25
510.77	29322.23
510.95	29069.45
511.12	29216.91
511.30	29273.08
511.47	29685.01
511.64	29848.85
511.82	29537.56
511.99	29570.33
512.17	29820.77
512.34	29256.70
512.51	30080.56
512.69	30068.86
512.86	30150.78
513.04	30195.25
513.21	30080.56
513.38	30349.73
513.56	30345.05
513.73	30347.39
513.90	30483.14
514.08	30579.10
514.25	30576.76
514.43	30380.15
514.60	30066.52
514.77	30471.43
514.95	30719.53
515.12	31016.78
515.29	30892.73
515.47	31194.66
515.64	31386.58
515.81	31234.45
515.99	30979.33
516.16	31519.99
516.33	31143.17
516.51	31641.70
516.68	31058.91
516.85	30976.99
517.03	31365.52
517.20	31845.33
517.37	31426.37
517.54	31761.07
517.72	31653.40
517.89	31938.95
518.06	31770.43
518.24	31894.48
518.41	31445.10
518.58	31873.42
518.75	31880.44
518.93	32746.44
519.10	31990.44
519.27	32503.02
519.45	32676.22
519.62	32734.73
519.79	32580.26
519.96	32830.69
520.14	32954.74
520.31	32570.90
520.48	33134.96
520.65	33392.42
520.83	32840.06
521.00	33226.24
521.17	33240.29
521.34	33322.21
521.52	33336.25
521.69	33347.95
521.86	33537.54
522.03	33710.74
522.20	33443.91
522.38	33937.77
522.55	33755.21
522.72	33666.27
522.89	33422.85
523.07	33895.64
523.24	33785.63
523.41	33928.41
523.58	33689.67
523.75	34026.71
523.92	34403.53
524.10	34338.00
524.27	34396.51
524.44	34536.94
524.61	34675.04
524.78	34239.70
524.96	34930.16
525.13	34749.93
525.30	34775.68
525.47	35054.20
525.64	34752.27
525.81	35072.93
525.98	35180.59
526.16	34511.20
526.33	35063.57
526.50	35257.83
526.67	35292.94
526.84	35178.25
527.01	34799.08
527.18	35241.45
527.36	35491.88
527.53	35828.92
527.70	35697.85
527.87	35704.87
528.04	35372.52
528.21	35508.27
528.38	35981.06
528.55	36116.81
528.72	35793.81
528.89	36027.87
529.07	35908.50
529.24	35976.37
529.41	36231.49
529.58	36294.69
529.75	36074.68
529.92	36306.39
530.09	36238.51
530.26	36685.56
530.43	36493.63
530.60	36414.05
530.77	36299.37
530.94	36711.30
531.11	36638.75
531.28	36692.58
531.46	36437.46
531.63	36713.64
531.80	36912.59
531.97	36945.36
532.14	36982.80
532.31	36676.19
532.48	37223.88
532.65	37167.71
532.82	36868.12
532.99	37546.87
533.16	37258.99
533.33	37055.36
533.50	37610.07
533.67	37425.17
533.84	37020.25
534.01	37429.85
534.18	37184.09
534.35	37986.89
534.52	37214.52
534.69	37855.82
534.86	37724.75
535.03	37696.67
535.20	37811.35
535.37	38057.11
535.54	38005.62
535.71	37736.46
535.88	37729.44
536.05	37996.26
536.22	38029.02
536.38	38293.50
536.55	37794.97
536.72	38426.92
536.89	37977.53
537.06	37874.55
537.23	37902.64
537.40	38277.12
537.57	38522.88
537.74	38356.70
537.91	38382.45
538.08	38572.03
538.25	37935.40
538.42	39063.54
538.59	38548.62
538.75	38663.31
538.92	38955.88
539.09	38642.24
539.26	38745.23
539.43	38972.26
539.60	38897.36
539.77	38864.60
539.94	39028.43
540.11	38733.53
540.28	38632.88
540.44	38855.23
540.61	38838.85
540.78	38785.02
540.95	38862.26
541.12	39138.44
541.29	38515.86
541.46	39150.14
541.62	39220.36
541.79	39398.24
541.96	38967.58
542.13	39250.78
542.30	39655.70
542.47	39423.98
542.63	39564.42
542.80	39737.62
542.97	40086.36
543.14	40165.93
543.31	40170.61
543.48	40158.91
543.64	40266.58
543.81	40289.98
543.98	40179.98
544.15	40289.98
544.32	40289.98
544.48	40364.88
544.65	40622.34
544.82	40217.43
544.99	39962.31
545.16	40381.26
545.32	40350.84
545.49	40320.41
545.66	40797.88
545.83	40933.63
546.00	41092.79
546.16	40844.69
546.33	40575.53
546.50	40584.89
546.67	40615.32
546.83	39646.33
547.00	41078.74
547.17	40402.33
547.34	40753.41
547.50	40753.41
547.67	41031.93
547.84	41326.84
548.00	40966.40
548.17	41170.02
548.34	41088.10
548.51	41551.53
548.67	40825.96
548.84	41310.46
549.01	41305.77
549.18	41441.53
549.34	41495.36
549.51	41418.12
549.68	41691.96
549.84	41228.54
550.01	41748.14
550.18	41635.79
550.34	41163.00
550.51	41500.04
550.68	41500.04
550.84	41067.04
551.01	41975.17
551.18	41563.23
551.34	41462.59
551.51	41464.93
551.68	41921.34
551.84	41970.49
552.01	41794.95
552.18	41773.88
552.34	41724.73
552.51	41607.70
552.68	42007.94
552.84	42213.90
553.01	42522.85
553.18	42031.34
553.34	42141.35
553.51	41771.54
553.67	41783.24
553.84	42499.45
554.01	42672.65
554.17	42366.04
554.34	42080.49
554.51	42768.61
554.67	42689.03
554.84	41972.83
555.00	42361.36
555.17	42162.41
555.33	42150.71
555.50	42656.26
555.67	42707.76
555.83	42391.78
556.00	42590.73
556.16	43028.41
556.33	42384.76
556.50	42735.84
556.66	43086.92
556.83	42593.07
556.99	43100.97
557.16	42859.89
557.32	42733.50
557.49	42494.77
557.65	42869.25
557.82	42834.14
557.98	42897.34
558.15	42679.67
558.32	42546.26
558.48	42955.85
558.65	43346.72
558.81	42885.64
558.98	43105.65
559.14	43084.58
559.31	42735.84
559.47	43180.54
559.64	43536.30
559.80	43276.51
559.97	43241.40
560.13	42895.00
560.30	42939.47
560.46	43213.31
560.63	43051.81
560.79	43056.50
560.96	43154.80
561.12	43519.92
561.29	43274.16
561.45	43519.92
561.61	43051.81
561.78	43037.77
561.94	42981.60
562.11	43328.00
562.27	43225.01
562.44	43110.33
562.60	43707.16
562.77	43695.46
562.93	43175.86
563.10	43538.65
563.26	43447.36
563.42	43749.29
563.59	43501.20
563.75	43070.54
563.92	43924.83
564.08	43430.98
564.24	43702.48
564.41	43714.19
564.57	43313.95
564.74	43913.13
564.90	43505.88
565.07	43604.18
565.23	43447.36
565.39	43613.54
565.56	43643.97
565.72	43377.15
565.88	43508.22
566.05	44088.67
566.21	43377.15
566.38	43498.86
566.54	43737.59
566.70	43775.04
566.87	43952.92
567.03	43875.68
567.19	43999.73
567.36	43676.74
567.52	43995.05
567.68	43878.02
567.85	43592.48
568.01	43941.22
568.17	43484.81
568.34	44128.46
568.50	43749.29
568.66	43524.60
568.83	44224.42
568.99	43690.78
569.15	43377.15
569.32	43405.23
569.48	44048.88
569.64	44158.89
569.81	44130.80
569.97	43936.54
570.13	43798.44
570.30	43941.22
570.46	43814.83
570.62	43805.47
570.78	43835.89
570.95	43854.62
571.11	44203.36
571.27	44002.07
571.43	44037.18
571.60	44133.14
571.76	43999.73
571.92	43847.60
572.09	44121.44
572.25	44165.91
572.41	44357.83
572.57	44020.80
572.74	44477.20
572.90	44191.65
573.06	44055.90
573.22	44364.85
573.38	44065.27
573.55	44217.40
573.71	44444.43
573.87	44067.61
574.03	43992.71
574.20	43878.02
574.36	43997.39
574.52	44411.67
574.68	44229.10
574.84	43971.64
575.01	44308.68
575.17	44156.55
575.33	43800.79
575.49	43744.61
575.65	44247.83
575.82	44486.56
575.98	44243.15
576.14	44612.95
576.30	44076.97
576.46	43665.03
576.62	43988.03
576.79	43817.17
576.95	44109.74
577.11	43943.56
577.27	44376.56
577.43	44250.17
577.59	44069.95
577.75	44086.33
577.92	44004.41
578.08	43770.36
578.24	44142.50
578.40	44205.70
578.56	43922.49
578.72	44116.76
578.88	44540.39
579.04	44327.41
579.21	44137.82
579.37	43910.79
579.53	44215.06
579.69	43796.10
579.85	44083.99
580.01	44238.47
580.17	44390.60
580.33	44498.26
580.49	44226.76
580.65	44205.70
580.82	44516.99
580.98	44126.12
581.14	43938.88
581.30	44079.31
581.46	44062.93
581.62	44512.31
581.78	44264.21
581.94	44713.59
582.10	44418.69
582.26	44573.16
582.42	44479.54
582.58	43973.98
582.74	43992.71
582.90	44470.18
583.06	44914.88
583.22	44626.99
583.38	44502.95
583.54	44392.94
583.70	44266.55
583.86	44233.78
584.02	44203.36
584.18	44158.89
584.34	44346.13
584.50	44542.74
584.66	44402.30
584.82	44158.89
584.98	44397.62
585.14	44226.76
585.30	44238.47
585.46	44367.20
585.62	44231.44
585.78	44137.82
585.94	44189.31
586.10	44177.61
586.26	44285.28
586.42	44727.64
586.58	44701.89
586.74	44362.51
586.90	44261.87
587.06	44566.14
587.22	44486.56
587.38	43948.24
587.54	44697.21
587.70	44734.66
587.86	44442.09
588.02	44240.81
588.18	44500.61
588.34	44488.90
588.49	44119.10
588.65	44444.43
588.81	43842.92
588.97	44322.72
589.13	44549.76
589.29	44381.24
589.45	44233.78
589.61	44306.34
589.77	44849.35
589.93	44278.25
590.08	44605.93
590.24	44715.93
590.40	44648.06
