SpectraSuite Data File
++++++++++++++++++++++++++++++++++++
Date: Fri Oct 25 11:22:38 EDT 2013
User: price-jones
Dark Spectrum Present: No
Reference Spectrum Present: No
Number of Sampled Component Spectra: 1
Spectrometers: USB2+H05261
Integration Time (usec): 100000 (USB2+H05261)
Spectra Averaged: 1 (USB2+H05261)
Boxcar Smoothing: 0 (USB2+H05261)
Correct for Electrical Dark: No (USB2+H05261)
Strobe/Lamp Enabled: No (USB2+H05261)
Correct for Detector Non-linearity: No (USB2+H05261)
Correct for Stray Light: No (USB2+H05261)
Number of Pixels in Processed Spectrum: 2048
>>>>>Begin Processed Spectral Data<<<<<
365.73	229.37
365.92	229.37
366.12	229.37
366.32	112.35
366.52	70.22
366.72	107.66
366.91	86.60
367.11	105.32
367.31	100.64
367.51	60.85
367.70	93.62
367.90	168.52
368.10	117.03
368.30	56.17
368.49	128.73
368.69	161.50
368.89	166.18
369.09	156.82
369.28	159.16
369.48	140.43
369.68	142.77
369.87	196.60
370.07	173.20
370.27	196.60
370.47	301.93
370.66	575.77
370.86	660.03
371.06	685.78
371.25	685.78
371.45	734.93
371.65	692.80
371.84	713.86
372.04	730.25
372.24	645.99
372.44	650.67
372.63	631.94
372.83	809.83
373.03	711.52
373.22	730.25
373.42	779.40
373.62	765.36
373.81	669.39
374.01	863.66
374.21	809.83
374.40	821.53
374.60	725.57
374.79	798.12
374.99	840.25
375.19	840.25
375.38	835.57
375.58	802.80
375.78	849.61
375.97	891.74
376.17	961.96
376.37	924.51
376.56	798.12
376.76	891.74
376.95	898.77
377.15	866.00
377.35	816.85
377.54	894.08
377.74	912.81
377.93	933.87
378.13	992.39
378.33	940.90
378.52	938.55
378.72	901.11
378.91	957.28
379.11	884.72
379.31	938.55
379.50	912.81
379.70	1013.45
379.89	997.07
380.09	905.79
380.28	1029.84
380.48	1025.15
380.68	1013.45
380.87	1043.88
381.07	1053.24
381.26	1060.26
381.46	1039.20
381.65	1008.77
381.85	959.62
382.04	1076.65
382.24	1132.82
382.43	1057.92
382.63	1104.73
382.83	1076.65
383.02	1100.05
383.22	1086.01
383.41	1137.50
383.61	1090.69
383.80	1149.20
384.00	1057.92
384.19	1118.78
384.39	1050.90
384.58	1090.69
384.78	1179.63
384.97	1121.12
385.17	1177.29
385.36	1193.67
385.56	1078.99
385.75	1219.42
385.95	1153.88
386.14	1203.04
386.34	1186.65
386.53	1275.59
386.72	1149.20
386.92	1254.53
387.11	1196.01
387.31	1233.46
387.50	1315.38
387.70	1287.29
387.89	1149.20
388.09	1207.72
388.28	1275.59
388.48	1174.95
388.67	1322.40
388.86	1324.74
389.06	1320.06
389.25	1235.80
389.45	1224.10
389.64	1359.85
389.84	1430.07
390.03	1392.62
390.22	1420.71
390.42	1343.47
390.61	1352.83
390.81	1416.02
391.00	1373.89
391.19	1322.40
391.39	1430.07
391.58	1504.96
391.78	1357.51
391.97	1495.60
392.16	1376.24
392.36	1563.48
392.55	1488.58
392.75	1558.80
392.94	1425.39
393.13	1497.94
393.33	1540.07
393.52	1521.35
393.71	1474.54
393.91	1643.06
394.10	1572.84
394.29	1640.72
394.49	1563.48
394.68	1629.01
394.88	1624.33
395.07	1743.70
395.26	1736.68
395.46	1732.00
395.65	1722.63
395.84	1715.61
396.04	1748.38
396.23	1748.38
396.42	1877.11
396.62	1671.14
396.81	1703.91
397.00	1809.23
397.19	1886.47
397.39	1753.06
397.58	1830.30
397.77	1757.74
397.97	1907.54
398.16	1701.57
398.35	1856.04
398.55	1954.35
398.74	1944.99
398.93	1914.56
399.12	1942.64
399.32	2040.95
399.51	1944.99
399.70	2064.35
399.90	1982.43
400.09	2003.50
400.28	2087.76
400.47	2073.71
400.67	2139.25
400.86	2064.35
401.05	2111.16
401.24	2038.61
401.44	2202.44
401.63	2022.22
401.82	2214.15
402.01	2106.48
402.21	2218.83
402.40	2172.02
402.59	2155.63
402.78	2244.57
402.97	2244.57
403.17	2307.77
403.36	2218.83
403.55	2356.92
403.74	2356.92
403.93	2347.56
404.13	2399.05
404.32	2431.82
404.51	2373.30
404.70	2555.86
404.89	2455.22
405.09	2574.59
405.28	2410.75
405.47	2420.11
405.66	2518.42
405.85	2530.12
406.05	2487.99
406.24	2511.39
406.43	2476.29
406.62	2583.95
406.81	2607.36
407.00	2551.18
407.20	2654.17
407.39	2574.59
407.58	2679.91
407.77	2766.51
407.96	2759.49
408.15	2825.03
408.34	2771.19
408.54	2888.22
408.73	2862.48
408.92	2815.66
409.11	2848.43
409.30	2789.92
409.49	2913.97
409.68	2775.88
409.87	2857.79
410.07	3115.25
410.26	2935.03
410.45	2963.12
410.64	3016.95
410.83	3105.89
411.02	2993.55
411.21	3009.93
411.40	3243.98
411.59	3258.03
411.78	3204.19
411.98	3087.17
412.17	3293.13
412.36	3363.35
412.55	3311.86
412.74	3375.05
412.93	3414.84
413.12	3440.59
413.31	3412.50
413.50	3552.93
413.69	3555.27
413.88	3634.85
414.07	3669.96
414.26	3522.51
414.45	3646.55
414.64	3747.20
414.83	3871.25
415.02	3674.64
415.22	3801.03
415.41	3878.27
415.60	3908.69
415.79	3981.25
415.98	3997.64
416.17	4009.34
416.36	3887.63
416.55	3999.98
416.74	4145.09
416.93	4046.79
417.12	4119.34
417.31	4280.84
417.50	4100.62
417.69	4388.50
417.88	4416.59
418.07	4219.99
418.26	4271.48
418.45	4376.80
418.64	4521.92
418.83	4472.76
419.02	4498.51
419.21	4463.40
419.39	4575.75
419.58	4568.73
419.77	4514.89
419.96	4704.48
420.15	4582.77
420.34	4641.28
420.53	4674.05
420.72	4573.41
420.91	4622.56
421.10	4774.69
421.29	4985.34
421.48	4807.46
421.67	4784.06
421.86	4608.51
422.05	4812.14
422.24	4894.06
422.43	4945.55
422.61	4873.00
422.80	4924.49
422.99	4812.14
423.18	4854.27
423.37	4931.51
423.56	4856.61
423.75	4983.00
423.94	4844.91
424.13	4643.62
424.32	4716.18
424.50	5062.58
424.69	5083.64
424.88	4987.68
425.07	5088.32
425.26	4926.83
425.45	5020.45
425.64	5018.11
425.83	4851.93
426.01	5050.88
426.20	5078.96
426.39	5025.13
426.58	5121.09
426.77	5313.02
426.96	5128.11
427.15	5231.10
427.33	5193.65
427.52	5287.27
427.71	5390.25
427.90	5111.73
428.09	5369.19
428.28	5397.28
428.46	5369.19
428.65	5465.15
428.84	5544.73
429.03	5568.13
429.22	5184.29
429.40	5474.51
429.59	5617.29
429.78	5369.19
429.97	5469.83
430.16	5511.96
430.34	5746.02
430.53	5689.84
430.72	5748.36
430.91	5643.03
431.10	5493.24
431.28	5785.80
431.47	5746.02
431.66	5944.96
431.85	5809.21
432.03	5935.60
432.22	6026.88
432.41	5980.07
432.60	6139.23
432.79	6139.23
432.97	6059.65
433.16	6024.54
433.35	5951.98
433.54	6188.38
433.72	6176.67
433.91	6127.52
434.10	6246.89
434.28	6207.10
434.47	6090.07
434.66	6097.10
434.85	6321.79
435.03	6471.58
435.22	6171.99
435.41	6471.58
435.59	6417.75
435.78	6487.96
435.97	6553.50
436.16	6466.90
436.34	6715.00
436.53	6492.65
436.72	6806.28
436.90	6485.62
437.09	6698.61
437.28	6525.41
437.46	6663.51
437.65	6740.74
437.84	6860.11
438.02	6745.42
438.21	6750.10
438.40	6722.02
438.58	6810.96
438.77	6932.67
438.96	6927.99
439.14	6984.16
439.33	7368.01
439.52	7363.33
439.70	7309.49
439.89	7407.80
440.08	7372.69
440.26	7470.99
440.45	7239.28
440.63	7403.11
440.82	7709.72
441.01	7569.29
441.19	7669.94
441.38	7728.45
441.57	7789.30
441.75	7646.53
441.94	8170.81
442.12	8049.10
442.31	8046.76
442.50	8079.53
442.68	8156.77
442.87	7964.84
443.05	8133.36
443.24	8126.34
443.43	8243.37
443.61	8203.58
443.80	8528.91
443.98	7978.89
444.17	7922.71
444.35	8336.99
444.54	8531.25
444.73	8383.80
444.91	8540.61
445.10	8367.42
445.28	8187.19
445.47	8283.16
445.65	8278.47
445.84	8549.98
446.02	8339.33
446.21	8376.78
446.39	8559.34
446.58	8533.59
446.77	8512.53
446.95	8308.90
447.14	8540.61
447.32	8512.53
447.51	8418.91
447.69	8334.65
447.88	8650.62
448.06	8608.49
448.25	8531.25
448.43	8615.51
448.62	8517.21
448.80	8578.06
448.99	8851.91
449.17	8793.39
449.36	8774.67
449.54	8805.10
449.73	8940.85
449.91	9060.21
450.10	9284.91
450.28	9266.18
450.46	9102.34
450.65	9198.31
450.83	8917.44
451.02	9034.47
451.20	9184.26
451.39	9287.25
451.57	9118.73
451.76	9242.78
451.94	9289.59
452.13	9465.13
452.31	9397.25
452.49	9446.40
452.68	9577.47
452.86	9359.80
453.05	9523.64
453.23	9650.03
453.42	9521.30
453.60	9245.12
453.78	9675.77
453.97	9652.37
454.15	9589.17
454.34	9652.37
454.52	9856.00
454.70	9881.74
454.89	9856.00
455.07	9813.87
455.26	9919.19
455.44	10026.86
455.62	9954.30
455.81	9930.89
455.99	9954.30
456.17	10169.63
456.36	10090.05
456.54	10164.95
456.73	10328.78
456.91	10696.25
457.09	10611.99
457.28	10700.93
457.46	10345.17
457.64	10523.05
457.83	10773.49
458.01	10541.77
458.19	10808.59
458.38	10682.20
458.56	10621.35
458.74	10761.78
458.93	10832.00
459.11	10654.12
459.29	10714.97
459.48	11052.01
459.66	11044.99
459.84	11009.88
460.03	11178.40
460.21	10995.84
460.39	11260.32
460.57	11105.84
460.76	11243.93
460.94	11297.77
461.12	11417.13
461.31	11122.23
461.49	11016.90
461.67	11229.89
461.85	11658.21
462.04	11382.03
462.22	11915.67
462.40	11398.41
462.59	11714.38
462.77	11604.38
462.95	11695.66
463.13	11784.60
463.32	11686.29
463.50	11714.38
463.68	11775.24
463.86	11786.94
464.05	11714.38
464.23	11747.15
464.41	11847.79
464.59	11770.55
464.78	12191.85
464.96	12287.81
465.14	12140.36
465.32	12049.08
465.50	12217.60
465.69	12161.42
465.87	12215.26
466.05	12189.51
466.23	12114.61
466.41	12217.60
466.60	12692.73
466.78	12299.52
466.96	12451.65
467.14	12414.20
467.32	12468.03
467.51	12627.19
467.69	12131.00
467.87	12444.63
468.05	12802.73
468.23	12500.80
468.41	12697.41
468.60	12709.11
468.78	13013.38
468.96	12643.57
469.14	12709.11
469.32	13170.19
469.50	12482.08
469.69	13139.77
469.87	13092.96
470.05	13224.03
470.23	13352.76
470.41	13224.03
470.59	13329.35
470.77	13362.12
470.95	13219.35
471.14	13673.41
471.32	13432.33
471.50	13703.84
471.68	13694.47
471.86	13788.10
472.04	13755.33
472.22	14193.01
472.40	13439.36
472.58	13886.40
472.77	14148.54
472.95	14155.56
473.13	14728.99
473.31	14148.54
473.49	14207.05
473.67	14129.81
473.85	14298.33
474.03	14553.45
474.21	14876.44
474.39	14719.63
474.57	15091.77
474.75	15087.09
474.93	15164.33
475.12	14871.76
475.30	15625.42
475.48	15157.31
475.66	15044.96
475.84	15410.09
476.02	15431.15
476.20	15389.02
476.38	15786.91
476.56	15880.53
476.74	15896.92
476.92	15852.45
477.10	16166.08
477.28	16212.89
477.46	16137.99
477.64	16313.53
477.82	16622.48
478.00	17064.85
478.18	16908.03
478.36	17235.70
478.54	17357.41
478.72	17268.47
478.90	17598.49
479.08	17729.56
479.26	18057.23
479.44	17837.22
479.62	17947.23
479.80	18050.21
479.98	18047.87
480.16	18743.01
480.34	18466.83
480.52	18848.33
480.70	19061.32
480.88	18485.55
481.06	18834.29
481.24	18792.16
481.41	19400.70
481.59	19531.77
481.77	19903.92
481.95	20051.37
482.13	20112.22
482.31	19576.24
482.49	20404.79
482.67	20290.10
482.85	20540.54
483.03	20858.85
483.21	20844.81
483.39	21151.42
483.57	20940.77
483.74	21043.76
483.92	21390.16
484.10	21446.33
484.28	22052.53
484.46	22019.76
484.64	22146.15
484.82	22162.53
485.00	22534.68
485.18	22927.89
485.35	23262.58
485.53	23054.28
485.71	23494.30
485.89	23419.40
486.07	23639.41
486.25	23730.69
486.43	23927.30
486.61	23660.48
486.78	24159.01
486.96	24353.27
487.14	24622.44
487.32	24762.87
487.50	25303.53
487.68	25340.98
487.85	25303.53
488.03	25783.34
488.21	25848.88
488.39	25944.84
488.57	26761.69
488.75	26125.06
488.92	26567.42
489.10	26780.41
489.28	26951.27
489.46	27536.40
489.64	27070.64
489.81	27936.63
489.99	27772.80
490.17	27950.68
490.35	28477.30
490.53	28400.06
490.70	28634.11
490.88	28474.96
491.06	29352.66
491.24	28982.85
491.41	29427.56
491.59	29415.85
491.77	29488.41
491.95	29577.35
492.13	29912.05
492.30	30239.72
492.48	30043.12
492.66	30511.22
492.84	30644.63
493.01	31119.76
493.19	30845.92
493.37	30885.71
493.54	31009.76
493.72	31459.14
493.90	31534.04
494.08	31749.37
494.25	32165.98
494.43	32109.81
494.61	32404.72
494.79	32573.24
494.96	32652.81
495.14	33031.98
495.32	33710.74
495.49	33240.29
495.67	33221.56
495.85	33738.82
496.02	34209.27
496.20	34422.26
496.38	34286.51
496.55	34195.23
496.73	35559.76
496.91	34878.66
497.09	34934.84
497.26	35519.97
497.44	35412.31
497.62	35491.88
497.79	36172.98
497.97	35908.50
498.14	36500.65
498.32	36744.07
498.50	36357.88
498.67	36797.90
498.85	36657.47
499.03	37282.39
499.20	36947.70
499.38	37331.54
499.56	37502.40
499.73	37317.50
499.91	37310.48
500.08	38148.39
500.26	37909.66
500.44	38110.94
500.61	38459.68
500.79	38211.59
500.97	38447.98
501.14	38906.73
501.32	38770.97
501.49	38955.88
501.67	39292.91
501.84	39271.85
502.02	39112.69
502.20	39161.84
502.37	39505.90
502.55	39438.03
502.72	39555.05
502.90	40264.24
503.07	39445.05
503.25	39789.11
503.43	40334.45
503.60	40374.24
503.78	40086.36
503.95	40634.04
504.13	40816.60
504.30	40676.17
504.48	40872.78
504.65	40924.27
504.83	41385.35
505.01	41172.36
505.18	41336.20
505.36	41886.23
505.53	41453.23
505.71	41961.12
505.88	42246.67
506.06	41937.72
506.23	42171.77
506.41	42108.58
506.58	42546.26
506.76	42560.30
506.93	42995.64
507.11	42719.46
507.28	42944.15
507.46	42714.78
507.63	43234.38
507.81	43505.88
507.98	43192.25
508.16	43508.22
508.33	44172.93
508.50	43936.54
508.68	43711.84
508.85	44428.05
509.03	44224.42
509.20	44367.20
509.38	44467.84
509.55	44722.96
509.73	44556.78
509.90	45179.36
510.08	44652.74
510.25	44708.91
510.42	45118.51
510.60	45516.40
510.77	45151.27
510.95	45762.15
511.12	45099.78
511.30	45476.61
511.47	45270.64
511.64	45813.65
511.82	46426.87
511.99	45944.72
512.17	46415.16
512.34	46068.76
512.51	47030.72
512.69	46667.94
512.86	46763.90
513.04	47255.42
513.21	46892.63
513.38	46403.46
513.56	47372.44
513.73	46796.67
513.90	47360.74
514.08	47395.85
514.25	47384.15
514.43	47475.43
514.60	48189.29
514.77	47306.91
514.95	48058.22
515.12	47870.98
515.29	48109.71
515.47	47920.13
515.64	48332.06
515.81	48308.66
515.99	48547.39
516.16	48736.98
516.33	48781.45
516.51	48903.15
516.68	48830.60
516.85	48463.13
517.03	49081.03
517.20	49198.06
517.37	49375.94
517.54	49081.03
517.72	49212.10
517.89	49184.02
518.06	49413.39
518.24	49214.44
518.41	49600.63
518.58	49865.11
518.75	49310.41
518.93	49677.87
519.10	49607.65
519.27	49895.54
519.45	49982.14
519.62	50319.18
519.79	50384.71
519.96	50464.29
520.14	50281.73
520.31	50258.32
520.48	50686.64
520.65	50586.00
520.83	51119.64
521.00	51019.00
521.17	50918.35
521.34	50810.69
521.52	50944.10
521.69	51091.55
521.86	51351.35
522.03	51430.93
522.20	51381.78
522.38	51702.43
522.55	51737.54
522.72	51620.52
522.89	51683.71
523.07	51718.82
523.24	52065.22
523.41	52004.36
523.58	51625.20
523.75	52126.07
523.92	51976.28
524.10	52294.59
524.27	52107.35
524.44	52538.01
524.61	52268.84
524.78	52587.16
524.96	52409.28
525.13	52636.31
525.30	52514.60
525.47	52758.02
525.64	52963.98
525.81	52942.92
525.98	53006.11
526.16	52715.89
526.33	52945.26
526.50	53499.97
526.67	52954.62
526.84	53333.79
527.01	53034.20
527.18	53146.54
527.36	53425.07
527.53	53411.02
527.70	53282.30
527.87	53535.07
528.04	53092.71
528.21	53834.66
528.38	53378.26
528.55	54101.48
528.72	53829.98
528.89	53820.62
529.07	53539.75
529.24	53528.05
529.41	53689.55
529.58	53649.76
529.75	53837.00
529.92	53858.07
530.09	54162.34
530.26	54148.29
530.43	54291.07
530.60	54092.12
530.77	54028.93
530.94	54567.25
531.11	53970.41
531.28	54167.02
531.46	54557.89
531.63	54279.36
531.80	54637.47
531.97	54679.60
532.14	54801.30
532.31	54822.37
532.48	54944.08
532.65	55091.53
532.82	54791.94
532.99	54878.54
533.16	54805.98
533.33	55044.72
533.50	55295.16
533.67	55128.98
533.84	54871.52
534.01	55374.73
534.18	55346.65
534.35	55671.98
534.52	55498.78
534.69	55391.12
534.86	55702.41
535.03	55281.11
535.20	55636.87
535.37	55629.85
535.54	55697.73
535.71	55538.57
535.88	55732.84
536.05	55751.56
536.22	55882.63
536.38	55943.48
536.55	55695.39
536.72	55938.80
536.89	55828.80
537.06	55833.48
537.23	56048.81
537.40	55751.56
537.57	55735.18
537.74	56013.70
537.91	56303.93
538.08	56165.84
538.25	55934.12
538.42	56252.44
538.59	56495.85
538.75	56212.65
538.92	56329.67
539.09	56418.61
539.26	56435.00
539.43	56271.16
539.60	56413.93
539.77	56203.28
539.94	56645.65
540.11	56575.43
540.28	56545.00
540.44	56743.95
540.61	56783.74
540.78	56685.43
540.95	56722.88
541.12	56577.77
541.29	56381.16
541.46	56711.18
541.62	56919.49
541.79	56893.74
541.96	56755.65
542.13	56949.92
542.30	56912.47
542.47	57158.22
542.63	57031.83
542.80	57083.33
542.97	57394.62
543.14	57265.89
543.31	57291.63
543.48	57694.21
543.64	57584.20
543.81	57439.09
543.98	57446.11
544.15	57439.09
544.32	57638.03
544.48	57827.62
544.65	57485.90
544.82	57701.23
544.99	57539.73
545.16	57574.84
545.32	57513.98
545.49	57855.70
545.66	57834.64
545.83	58117.84
546.00	57841.66
546.16	57893.15
546.33	57811.23
546.50	57794.85
546.67	58092.10
546.83	57851.02
547.00	57738.68
547.17	58234.87
547.34	58227.85
547.50	58199.76
547.67	58452.54
547.84	57965.71
548.00	58370.62
548.17	58574.25
548.34	58457.22
548.51	58525.10
548.67	58450.20
548.84	58314.45
549.01	58330.83
549.18	58473.60
549.34	58595.31
549.51	58520.41
549.68	58784.90
549.84	58588.29
550.01	58674.89
550.18	58361.26
550.34	58700.64
550.51	58852.77
550.68	58527.44
550.84	58585.95
551.01	58777.87
551.18	58646.80
551.34	58628.08
551.51	58618.72
551.68	58787.24
551.84	58777.87
552.01	58686.59
552.18	58965.12
552.34	58841.07
552.51	59114.91
552.68	58780.21
552.84	58710.00
553.01	59028.31
553.18	59077.46
553.34	59128.95
553.51	58880.86
553.67	59016.61
553.84	59014.27
554.01	59173.42
554.17	59264.70
554.34	59213.21
554.51	58981.50
554.67	59245.98
554.84	59208.53
555.00	59267.05
555.17	59079.80
555.33	59206.19
555.50	59145.34
555.67	59133.63
555.83	59346.62
556.00	59238.96
556.16	59821.75
556.33	59440.24
556.50	59536.21
556.66	59648.55
556.83	59348.96
556.99	59709.41
557.16	59599.40
557.32	59758.56
557.49	59849.84
557.65	59615.79
557.82	59456.63
557.98	59599.40
558.15	59480.03
558.32	59700.04
558.48	59564.29
558.65	59629.83
558.81	59854.52
558.98	59686.00
559.14	60182.19
559.31	59739.83
559.47	59917.71
559.64	59976.23
559.80	59913.03
559.97	59950.48
560.13	59765.58
560.30	59903.67
560.46	59877.93
560.63	59973.89
560.79	59847.50
560.96	60128.36
561.12	60023.04
561.29	60093.25
561.45	60104.96
561.61	60023.04
561.78	60044.10
561.94	59952.82
562.11	60060.49
562.27	60177.51
562.44	60207.94
562.60	60221.98
562.77	60172.83
562.93	59845.16
563.10	60203.26
563.26	60259.43
563.42	60357.74
563.59	60147.09
563.75	60231.35
563.92	60069.85
564.08	60074.53
564.24	60250.07
564.41	60289.86
564.57	60231.35
564.74	60217.30
564.90	60310.92
565.07	60446.68
565.23	60331.99
565.39	60233.69
565.56	60505.19
565.72	60434.97
565.88	60467.74
566.05	60383.48
566.21	60287.52
566.38	60500.51
566.54	60388.16
566.70	60474.76
566.87	60544.98
567.03	60343.69
567.19	60591.79
567.36	60608.17
567.52	60535.62
567.68	60392.84
567.85	60399.86
568.01	60493.49
568.17	60526.25
568.34	60516.89
568.50	60486.46
568.66	60493.49
568.83	60495.83
568.99	60423.27
569.15	60526.25
569.32	60437.31
569.48	60474.76
569.64	60858.61
569.81	60631.58
569.97	60540.30
570.13	60636.26
570.30	60519.23
570.46	60732.22
570.62	60767.33
570.78	60624.56
570.95	60594.13
571.11	60842.23
571.27	60580.09
571.43	60886.70
571.60	60891.38
571.76	60800.10
571.92	60837.54
572.09	60882.02
572.25	60821.16
572.41	60795.42
572.57	60786.05
572.74	61013.08
572.90	60910.10
573.06	60893.72
573.22	60729.88
573.38	60762.65
573.55	60856.27
573.71	61055.21
573.87	60851.59
574.03	60711.16
574.20	60891.38
574.36	60896.06
574.52	60980.32
574.68	60615.19
574.84	60935.85
575.01	60800.10
575.17	60954.57
575.33	60928.83
575.49	60830.52
575.65	60846.91
575.82	60933.51
575.98	61078.62
576.14	60961.59
576.30	60987.34
576.46	60933.51
576.62	60732.22
576.79	60762.65
576.95	60748.60
577.11	60877.33
577.27	60992.02
577.43	60748.60
577.59	60781.37
577.75	61008.40
577.92	61024.79
578.08	60928.83
578.24	60921.80
578.40	61265.86
578.56	61062.24
578.72	61055.21
578.88	61207.35
579.04	61174.58
579.21	61151.18
579.37	61048.19
579.53	61216.71
579.69	61006.06
579.85	61034.15
580.01	61055.21
580.17	60980.32
580.33	61038.83
580.49	61076.28
580.65	60987.34
580.82	61160.54
580.98	60905.42
581.14	60921.80
581.30	61116.07
581.46	60874.99
581.62	61034.15
581.78	61190.97
581.94	61071.60
582.10	60982.66
582.26	60947.55
582.42	60910.10
582.58	61172.24
582.74	61069.26
582.90	61212.03
583.06	61235.44
583.22	60989.68
583.38	61041.17
583.54	61205.01
583.70	61076.28
583.86	61099.68
584.02	61052.87
584.18	61188.63
584.34	60945.21
584.50	61190.97
584.66	61125.43
584.82	60977.98
584.98	61300.97
585.14	61303.31
585.30	61106.71
585.46	61310.33
585.62	61254.16
585.78	61340.76
585.94	61127.77
586.10	61202.67
586.26	61134.79
586.42	61354.80
586.58	61146.50
586.74	61237.78
586.90	61268.20
587.06	61202.67
587.22	61499.92
587.38	61120.75
587.54	61375.87
587.70	61183.94
587.86	61235.44
588.02	61317.35
588.18	61427.36
588.34	61247.14
588.49	61202.67
