SpectraSuite Data File
++++++++++++++++++++++++++++++++++++
Date: Fri Oct 25 11:33:59 EDT 2013
User: price-jones
Dark Spectrum Present: No
Reference Spectrum Present: No
Number of Sampled Component Spectra: 1
Spectrometers: USB2+H05261
Integration Time (usec): 100000 (USB2+H05261)
Spectra Averaged: 1 (USB2+H05261)
Boxcar Smoothing: 0 (USB2+H05261)
Correct for Electrical Dark: No (USB2+H05261)
Strobe/Lamp Enabled: No (USB2+H05261)
Correct for Detector Non-linearity: No (USB2+H05261)
Correct for Stray Light: No (USB2+H05261)
Number of Pixels in Processed Spectrum: 2048
>>>>>Begin Processed Spectral Data<<<<<
365.73	236.39
365.92	236.39
366.12	236.39
366.32	184.90
366.52	210.65
366.72	252.78
366.91	152.13
367.11	229.37
367.31	205.97
367.51	156.82
367.70	119.37
367.90	252.78
368.10	191.92
368.30	241.08
368.49	196.60
368.69	259.80
368.89	203.63
369.09	194.26
369.28	173.20
369.48	196.60
369.68	210.65
369.87	201.29
370.07	210.65
370.27	264.48
370.47	344.06
370.66	470.45
370.86	456.40
371.06	538.32
371.25	589.82
371.45	533.64
371.65	638.97
371.84	587.47
372.04	528.96
372.24	547.69
372.44	526.62
372.63	547.69
372.83	636.63
373.03	596.84
373.22	538.32
373.42	685.78
373.62	620.24
373.81	566.41
374.01	674.07
374.21	617.90
374.40	648.33
374.60	664.71
374.79	582.79
374.99	645.99
375.19	678.76
375.38	620.24
375.58	683.44
375.78	655.35
375.97	610.88
376.17	655.35
376.37	732.59
376.56	718.54
376.76	615.56
376.95	688.12
377.15	681.10
377.35	702.16
377.54	678.76
377.74	692.80
377.93	727.91
378.13	685.78
378.33	690.46
378.52	669.39
378.72	678.76
378.91	641.31
379.11	690.46
379.31	781.74
379.50	706.84
379.70	821.53
379.89	784.08
380.09	758.33
380.28	753.65
380.48	748.97
380.68	755.99
380.87	688.12
381.07	840.25
381.26	788.76
381.46	674.07
381.65	706.84
381.85	786.42
382.04	809.83
382.24	746.63
382.43	816.85
382.63	795.78
382.83	833.23
383.02	755.99
383.22	861.32
383.41	692.80
383.61	835.57
383.80	856.64
384.00	856.64
384.19	802.80
384.39	755.99
384.58	866.00
384.78	821.53
384.97	887.06
385.17	830.89
385.36	861.32
385.56	851.96
385.75	894.08
385.95	821.53
386.14	828.55
386.34	812.17
386.53	901.11
386.72	922.17
386.92	861.32
387.11	936.21
387.31	837.91
387.50	957.28
387.70	880.04
387.89	866.00
388.09	844.93
388.28	877.70
388.48	952.60
388.67	983.02
388.86	919.83
389.06	917.49
389.25	889.40
389.45	924.51
389.64	983.02
389.84	961.96
390.03	1036.86
390.22	1011.11
390.42	961.96
390.61	924.51
390.81	896.43
391.00	976.00
391.19	1011.11
391.39	990.05
391.58	987.71
391.78	978.34
391.97	1013.45
392.16	924.51
392.36	1067.28
392.55	1121.12
392.75	1074.31
392.94	1132.82
393.13	1076.65
393.33	1008.77
393.52	1086.01
393.71	1125.80
393.91	1078.99
394.10	1174.95
394.29	1090.69
394.49	1029.84
394.68	1090.69
394.88	1095.37
395.07	1111.75
395.26	1142.18
395.46	1107.07
395.65	1167.93
395.84	1177.29
396.04	1282.61
396.23	1144.52
396.42	1207.72
396.62	1151.54
396.81	1158.57
397.00	1160.91
397.19	1270.91
397.39	1263.89
397.58	1280.27
397.77	1179.63
397.97	1219.42
398.16	1287.29
398.35	1217.08
398.55	1301.34
398.74	1245.16
398.93	1306.02
399.12	1357.51
399.32	1268.57
399.51	1341.13
399.70	1348.15
399.90	1259.21
400.09	1352.83
400.28	1348.15
400.47	1303.68
400.67	1427.73
400.86	1394.96
401.05	1338.79
401.24	1416.02
401.44	1366.87
401.63	1420.71
401.82	1488.58
402.01	1458.15
402.21	1432.41
402.40	1451.13
402.59	1504.96
402.78	1446.45
402.97	1514.33
403.17	1481.56
403.36	1554.12
403.55	1481.56
403.74	1645.40
403.93	1603.27
404.13	1619.65
404.32	1626.67
404.51	1591.56
404.70	1694.55
404.89	1696.89
405.09	1692.21
405.28	1710.93
405.47	1722.63
405.66	1703.91
405.85	1774.13
406.05	1657.10
406.24	1666.46
406.43	1610.29
406.62	1769.44
406.81	1746.04
407.00	1746.04
407.20	1767.10
407.39	1785.83
407.58	1825.62
407.77	1919.24
407.96	1942.64
408.15	1849.02
408.34	1937.96
408.54	1813.92
408.73	1912.22
408.92	1942.64
409.11	1804.55
409.30	1888.81
409.49	2005.84
409.68	1977.75
409.87	1933.28
410.07	1989.46
410.26	2036.27
410.45	1923.92
410.64	2111.16
410.83	2090.10
411.02	2176.70
411.21	2054.99
411.40	2188.40
411.59	2141.59
411.78	2148.61
411.98	2162.66
412.17	2193.08
412.36	2193.08
412.55	2251.60
412.74	2232.87
412.93	2424.80
413.12	2399.05
413.31	2427.14
413.50	2406.07
413.69	2370.96
413.88	2424.80
414.07	2434.16
414.26	2513.74
414.45	2495.01
414.64	2513.74
414.83	2560.55
415.02	2541.82
415.22	2630.76
415.41	2670.55
415.60	2609.70
415.79	2679.91
415.98	2684.59
416.17	2850.77
416.36	2663.53
416.55	2567.57
416.74	2827.37
416.93	2785.24
417.12	2796.94
417.31	2829.71
417.50	2864.82
417.69	2818.00
417.88	2862.48
418.07	2944.39
418.26	3000.57
418.45	2984.18
418.64	3124.62
418.83	2974.82
419.02	2846.09
419.21	2986.52
419.39	2995.89
419.58	3005.25
419.77	2953.76
419.96	3129.30
420.15	3236.96
420.34	3178.45
420.53	3279.09
420.72	3222.92
420.91	3117.59
421.10	3157.38
421.29	3302.50
421.48	3199.51
421.67	3361.01
421.86	3258.03
422.05	3361.01
422.24	3370.37
422.43	3288.45
422.61	3384.41
422.80	3365.69
422.99	3417.18
423.18	3400.80
423.37	3559.95
423.56	3328.24
423.75	3365.69
423.94	3248.66
424.13	3171.43
424.32	3255.69
424.50	3538.89
424.69	3386.76
424.88	3431.23
425.07	3499.10
425.26	3445.27
425.45	3344.63
425.64	3492.08
425.83	3265.05
426.01	3513.14
426.20	3377.39
426.39	3351.65
426.58	3414.84
426.77	3379.73
426.96	3548.25
427.15	3466.33
427.33	3506.12
427.52	3506.12
427.71	3630.17
427.90	3585.70
428.09	3733.15
428.28	3508.46
428.46	3604.42
428.65	3679.32
428.84	3845.50
429.03	3819.75
429.22	3679.32
429.40	3733.15
429.59	3744.86
429.78	3667.62
429.97	3623.15
430.16	3801.03
430.34	3887.63
430.53	3847.84
430.72	3782.31
430.91	3714.43
431.10	3730.81
431.28	3953.16
431.47	3859.54
431.66	3833.80
431.85	3936.78
432.03	4072.53
432.22	4011.68
432.41	3950.82
432.60	4109.98
432.79	3885.29
432.97	4109.98
433.16	4091.26
433.35	4145.09
433.54	4196.58
433.72	4285.52
433.91	4231.69
434.10	4102.96
434.28	4170.83
434.47	4208.28
434.66	4329.99
434.85	4278.50
435.03	4121.68
435.22	4278.50
435.41	4411.91
435.59	4510.21
435.78	4386.16
435.97	4344.03
436.16	4395.53
436.34	4372.12
436.53	4315.95
436.72	4479.79
436.90	4477.44
437.09	4526.60
437.28	4276.16
437.46	4517.23
437.65	4517.23
437.84	4669.37
438.02	4585.11
438.21	4592.13
438.40	4564.04
438.58	4652.98
438.77	4629.58
438.96	4772.35
439.14	4734.90
439.33	4830.87
439.52	4873.00
439.70	4784.06
439.89	5123.43
440.08	4926.83
440.26	4973.64
440.45	5001.72
440.63	5001.72
440.82	5088.32
441.01	4966.62
441.19	5160.88
441.38	5184.29
441.57	5336.42
441.75	5303.65
441.94	5217.05
442.12	5430.04
442.31	5423.02
442.50	5518.98
442.68	5336.42
442.87	5465.15
443.05	5413.66
443.24	5612.60
443.43	5572.82
443.61	5568.13
443.80	5736.65
443.98	5380.89
444.17	5289.61
444.35	5523.66
444.54	5563.45
444.73	5605.58
444.91	5593.88
445.10	5556.43
445.28	5547.07
445.47	5767.08
445.65	5528.35
445.84	5734.31
446.02	5647.71
446.21	5556.43
446.39	5495.58
446.58	5706.23
446.77	5703.89
446.95	5434.72
447.14	5830.27
447.32	5797.51
447.51	5767.08
447.69	5633.67
447.88	5673.46
448.06	5799.85
448.25	5755.38
448.43	5767.08
448.62	5755.38
448.80	5802.19
448.99	5923.90
449.17	5846.66
449.36	5809.21
449.54	5928.58
449.73	5877.09
449.91	6024.54
450.10	6057.31
450.28	6078.37
450.46	6031.56
450.65	5928.58
450.83	6078.37
451.02	6026.88
451.20	6157.95
451.39	6277.32
451.57	6190.72
451.76	6207.10
451.94	6300.72
452.13	6111.14
452.31	6235.19
452.49	5996.45
452.68	6164.97
452.86	6207.10
453.05	6586.27
453.23	6267.95
453.42	6424.77
453.60	6291.36
453.78	6249.23
453.97	6195.40
454.15	6317.11
454.34	6200.08
454.52	6593.29
454.70	6518.39
454.89	6509.03
455.07	6373.28
455.26	6663.51
455.44	6626.06
455.62	6729.04
455.81	6600.31
455.99	6548.82
456.17	6707.98
456.36	6883.52
456.54	6862.45
456.73	7080.12
456.91	7049.69
457.09	7040.33
457.28	6881.18
457.46	6942.03
457.64	6829.68
457.83	6939.69
458.01	6902.24
458.19	7241.62
458.38	7052.03
458.56	7133.95
458.74	7145.66
458.93	7101.19
459.11	7222.89
459.29	7283.75
459.48	7091.82
459.66	7082.46
459.84	7365.67
460.03	7229.91
460.21	7417.16
460.39	7379.71
460.57	7508.44
460.76	7588.02
460.94	7529.50
461.12	7349.28
461.31	7515.46
461.49	7318.86
461.67	7349.28
461.85	7515.46
462.04	7599.72
462.22	7936.76
462.40	7679.30
462.59	7751.85
462.77	7674.62
462.95	7880.58
463.13	7641.85
463.32	7779.94
463.50	7918.03
463.68	7885.26
463.86	7871.22
464.05	7751.85
464.23	7789.30
464.41	7932.08
464.59	7559.93
464.78	8028.04
464.96	8053.78
465.14	7815.05
465.32	8116.98
465.50	8039.74
465.69	8077.19
465.87	7955.48
466.05	7971.86
466.23	7990.59
466.41	8053.78
466.60	8393.16
466.78	8105.28
466.96	8198.90
467.14	7985.91
467.32	8266.77
467.51	8147.40
467.69	7955.48
467.87	8070.17
468.05	8400.18
468.23	8374.44
468.41	8234.00
468.60	8449.33
468.78	8507.85
468.96	8449.33
469.14	8592.11
469.32	8475.08
469.50	8315.92
469.69	8690.41
469.87	8737.22
470.05	8671.68
470.23	8723.18
470.41	8671.68
470.59	9020.42
470.77	8711.47
470.95	8730.20
471.14	8940.85
471.32	8732.54
471.50	9015.74
471.68	8982.98
471.86	8940.85
472.04	9053.19
472.22	9092.98
472.40	9277.88
472.58	9172.56
472.77	9146.81
472.95	9338.74
473.13	9741.31
473.31	9284.91
473.49	9418.32
473.67	9446.40
473.85	9315.33
474.03	9720.24
474.21	9734.29
474.39	9783.44
474.57	9734.29
474.75	9886.42
474.93	9745.99
475.12	9844.29
475.30	9841.95
475.48	10129.84
475.66	10134.52
475.84	9944.94
476.02	10368.57
476.20	9994.09
476.38	10225.80
476.56	10565.18
476.74	10539.43
476.92	10207.08
477.10	10296.02
477.28	10604.97
477.46	10541.77
477.64	10553.48
477.82	11005.20
478.00	11192.44
478.18	10944.34
478.36	11012.22
478.54	11213.51
478.72	11089.46
478.90	11492.03
479.08	11447.56
479.26	11550.54
479.44	11506.07
479.62	11805.66
479.80	11803.32
479.98	11786.94
480.16	12126.32
480.34	11941.41
480.52	12257.39
480.70	12020.99
480.88	12315.90
481.06	12067.80
481.24	12372.07
481.41	12503.14
481.59	12767.62
481.77	12898.69
481.95	12877.63
482.13	12938.48
482.31	12915.08
482.49	13240.41
482.67	12891.67
482.85	13516.59
483.03	13387.86
483.21	13486.17
483.39	13664.05
483.57	13619.58
483.74	13645.32
483.92	13624.26
484.10	13441.70
484.28	14216.41
484.46	14389.61
484.64	14611.96
484.82	14504.30
485.00	14436.42
485.18	14616.65
485.35	15246.25
485.53	15009.86
485.71	14754.74
485.89	15403.07
486.07	15337.53
486.25	15094.11
486.43	15264.97
486.61	15920.32
486.78	15768.19
486.96	15714.36
487.14	15950.75
487.32	16276.09
487.50	16236.30
487.68	16468.01
487.85	16280.77
488.03	16695.04
488.21	16814.41
488.39	16594.40
488.57	16851.86
488.75	16910.37
488.92	17055.48
489.10	17228.68
489.28	17336.35
489.46	17626.57
489.64	17823.18
489.81	17823.18
489.99	17975.31
490.17	17891.06
490.35	18192.98
490.53	18305.33
490.70	18625.98
490.88	18331.08
491.06	18719.60
491.24	18569.81
491.41	18944.30
491.59	18941.96
491.77	18824.93
491.95	19267.29
492.13	19459.21
492.30	19707.31
492.48	19353.89
492.66	19934.34
492.84	19637.09
493.01	20067.75
493.19	19798.59
493.37	20304.15
493.54	20004.56
493.72	20334.57
493.90	20257.34
494.08	20737.15
494.25	20624.80
494.43	20929.07
494.61	21151.42
494.79	21003.97
494.96	20987.58
495.14	21106.95
495.32	21436.97
495.49	21678.04
495.67	21535.27
495.85	21994.01
496.02	21570.38
496.20	21898.05
496.38	22565.10
496.55	22043.17
496.73	22995.76
496.91	22284.24
497.09	22766.39
497.26	22937.25
497.44	22576.81
497.62	22593.19
497.79	23183.01
497.97	22986.40
498.14	23393.65
498.32	23548.13
498.50	23494.30
498.67	23480.25
498.85	23700.26
499.03	23824.31
499.20	24184.76
499.38	24175.39
499.56	24004.53
499.73	24458.60
499.91	24088.79
500.08	24648.18
500.26	24540.52
500.44	24629.46
500.61	24709.04
500.79	24776.91
500.97	25053.09
501.14	25069.48
501.32	25179.48
501.49	24903.30
501.67	25174.80
501.84	25429.92
502.02	25539.93
502.20	25202.89
502.37	25399.49
502.55	25418.22
502.72	25668.66
502.90	25460.35
503.07	25867.60
503.25	25696.74
503.43	25848.88
503.60	26567.42
503.78	26066.55
503.95	26314.64
504.13	26384.86
504.30	26714.87
504.48	26228.04
504.65	26394.22
504.83	26438.69
505.01	26946.59
505.18	26859.99
505.36	27520.02
505.53	26965.31
505.71	27281.28
505.88	26946.59
506.06	27124.47
506.23	27337.46
506.41	27494.27
506.58	27349.16
506.76	27733.01
506.93	27690.88
507.11	27688.54
507.28	27655.77
507.46	27941.32
507.63	28247.93
507.81	28180.05
507.98	28002.17
508.16	28166.01
508.33	28327.50
508.50	28283.03
508.68	28587.30
508.85	28863.49
509.03	28594.32
509.20	28627.09
509.38	28540.49
509.55	28851.78
509.73	29088.18
509.90	29067.11
510.08	29256.70
510.25	28774.55
510.42	29448.62
510.60	29333.93
510.77	29708.42
510.95	29750.55
511.12	29521.18
511.30	29860.55
511.47	30099.29
511.64	29975.24
511.82	30298.23
511.99	29876.94
512.17	30134.40
512.34	29977.58
512.51	30377.81
512.69	30513.56
512.86	30515.90
513.04	30632.93
513.21	30251.42
513.38	31178.28
513.56	30993.37
513.73	30813.15
513.90	30665.70
514.08	30918.48
514.25	31204.02
514.43	31395.95
514.60	31372.54
514.77	31583.19
514.95	31449.78
515.12	31211.04
515.29	30925.50
515.47	31859.37
515.64	31714.26
515.81	31833.63
515.99	31534.04
516.16	32224.50
516.33	31922.57
516.51	31744.69
516.68	32070.02
516.85	32226.84
517.03	32467.91
517.20	32608.34
517.37	32432.80
517.54	32566.21
517.72	32292.37
517.89	32308.76
518.06	32842.40
518.24	32634.09
518.41	32772.18
518.58	32720.69
518.75	32748.78
518.93	33413.49
519.10	33099.86
519.27	33385.40
519.45	33219.22
519.62	32996.87
519.79	33525.83
519.96	33486.04
520.14	33844.15
520.31	33273.06
520.48	33696.69
520.65	33780.95
520.83	34078.20
521.00	34258.42
521.17	33956.49
521.34	34405.88
521.52	34206.93
521.69	34181.18
521.86	34316.93
522.03	34448.00
522.20	34717.17
522.38	34593.12
522.55	34749.93
522.72	34829.51
522.89	34473.75
523.07	35274.21
523.24	34766.32
523.41	34593.12
523.58	35225.06
523.75	35044.84
523.92	35166.55
524.10	35161.87
524.27	35274.21
524.44	35702.53
524.61	35627.63
524.78	35440.39
524.96	35749.34
525.13	35529.33
525.30	35784.45
525.47	35959.99
525.64	35693.17
525.81	36254.90
525.98	35779.77
526.16	35693.17
526.33	35887.43
526.50	35917.86
526.67	36320.43
526.84	36236.17
527.01	35927.22
527.18	36849.39
527.36	36374.27
527.53	36723.01
527.70	37111.53
527.87	36952.38
528.04	37041.32
528.21	36411.71
528.38	36542.78
528.55	36999.19
528.72	36521.72
528.89	36706.62
529.07	37127.92
529.24	37078.77
529.41	37163.03
529.58	36980.46
529.75	36882.16
529.92	37558.58
530.09	37261.33
530.26	37354.95
530.43	37509.43
530.60	37228.56
530.77	37638.15
530.94	37294.10
531.11	37235.58
531.28	37670.92
531.46	37656.88
531.63	37816.04
531.80	37893.27
531.97	38101.58
532.14	38160.09
532.31	38099.24
532.48	38345.00
532.65	38480.75
532.82	38426.92
532.99	38263.08
533.16	38181.16
533.33	38623.52
533.50	38543.94
533.67	38279.46
533.84	38183.50
534.01	38438.62
534.18	38391.81
534.35	38850.55
534.52	39037.80
534.69	38916.09
534.86	38829.49
535.03	38808.42
535.20	39178.23
535.37	38810.76
535.54	39379.51
535.71	38895.02
535.88	39047.16
536.05	39395.90
536.22	39342.06
536.38	39431.01
536.55	39115.03
536.72	38880.98
536.89	39503.56
537.06	39737.62
537.23	39721.23
537.40	39374.83
537.57	39592.50
537.74	39636.97
537.91	39571.44
538.08	40233.81
538.25	39835.92
538.42	39470.79
538.59	40194.02
538.75	39784.43
538.92	40067.63
539.09	40133.17
539.26	40062.95
539.43	40044.23
539.60	40121.46
539.77	40294.66
539.94	40474.88
540.11	40306.37
540.28	40292.32
540.44	40549.78
540.61	40367.22
540.78	40364.88
540.95	40774.47
541.12	39999.76
541.29	40727.66
541.46	40774.47
541.62	40748.73
541.79	41090.44
541.96	40641.06
542.13	40694.89
542.30	40582.55
542.47	40872.78
542.63	41560.89
542.80	41050.66
542.97	41483.66
543.14	41329.18
543.31	41340.88
543.48	40832.99
543.64	41935.38
543.81	41979.85
543.98	41954.10
544.15	41635.79
544.32	41888.57
544.48	42202.20
544.65	41930.70
544.82	42127.30
544.99	41757.50
545.16	42057.09
545.32	41750.48
545.49	42230.29
545.66	42281.78
545.83	42281.78
546.00	42279.44
546.16	42239.65
546.33	41897.93
546.50	41830.05
546.67	42265.39
546.83	42087.51
547.00	42171.77
547.17	42459.66
547.34	42349.65
547.50	43012.02
547.67	42714.78
547.84	42373.06
548.00	42906.70
548.17	42625.84
548.34	42742.86
548.51	42747.54
548.67	42862.23
548.84	42923.08
549.01	42754.57
549.18	43105.65
549.34	42983.94
549.51	43278.85
549.68	42834.14
549.84	43274.16
550.01	42770.95
550.18	42953.51
550.34	43571.41
550.51	43863.98
550.68	43540.99
550.84	42658.60
551.01	43608.86
551.18	43381.83
551.34	43496.52
551.51	43012.02
551.68	43470.77
551.84	43442.68
552.01	43576.09
552.18	43421.62
552.34	43201.61
552.51	43723.55
552.68	43636.95
552.84	43871.00
553.01	43988.03
553.18	43655.67
553.34	43564.39
553.51	43215.65
553.67	44020.80
553.84	44112.08
554.01	44137.82
554.17	43910.79
554.34	44219.74
554.51	43959.94
554.67	44268.89
554.84	44432.73
555.00	43775.04
555.17	43957.60
555.33	44500.61
555.50	44559.12
555.67	44243.15
555.83	44514.65
556.00	44844.66
556.16	44877.43
556.33	44594.23
556.50	44201.02
556.66	44151.87
556.83	44397.62
556.99	45008.50
557.16	44725.30
557.32	45113.83
557.49	45043.61
557.65	44371.88
557.82	44608.27
557.98	44648.06
558.15	44587.21
558.32	45017.86
558.48	44715.93
558.65	44989.78
558.81	44767.43
558.98	44818.92
559.14	44638.70
559.31	45027.23
559.47	44566.14
559.64	44739.34
559.80	45289.37
559.97	45162.98
560.13	44694.87
560.30	45237.87
560.46	45570.23
560.63	45525.76
560.79	45560.87
560.96	45308.09
561.12	45448.52
561.29	45244.90
561.45	45612.36
561.61	45102.12
561.78	45504.70
561.94	45188.72
562.11	45155.96
562.27	45254.26
562.44	45453.20
562.60	45652.15
562.77	45694.28
562.93	45120.85
563.10	45415.76
563.26	45478.95
563.42	45876.84
563.59	45284.68
563.75	44928.92
563.92	45766.84
564.08	45310.43
564.24	45656.83
564.41	45322.13
564.57	45366.60
564.74	45694.28
564.90	45275.32
565.07	45535.12
565.23	45619.38
565.39	45759.81
565.56	45771.52
565.72	45338.52
565.88	45930.67
566.05	45666.19
566.21	45563.21
566.38	45858.12
566.54	45811.31
566.70	45745.77
566.87	45705.98
567.03	45471.93
567.19	45600.66
567.36	46026.63
567.52	45867.48
567.68	46061.74
567.85	46129.62
568.01	46300.48
568.17	45874.50
568.34	46082.81
568.50	45837.05
568.66	45914.29
568.83	45722.37
568.99	46134.30
569.15	46073.45
569.32	45900.25
569.48	46000.89
569.64	46609.43
569.81	45958.76
569.97	46536.87
570.13	46160.05
570.30	46401.12
570.46	46010.25
570.62	46298.14
570.78	46183.45
570.95	46227.92
571.11	46162.39
571.27	46326.22
571.43	45806.62
571.60	45874.50
571.76	46342.61
571.92	46459.63
572.09	46445.59
572.25	46473.68
572.41	45921.31
572.57	46607.09
572.74	46838.80
572.90	46050.04
573.06	46368.35
573.22	46925.40
573.38	46731.14
573.55	46330.90
573.71	46389.42
573.87	46515.81
574.03	46637.51
574.20	46536.87
574.36	46679.64
574.52	46632.83
574.68	46476.02
574.84	46424.53
575.01	46333.24
575.17	46801.35
575.33	46429.21
575.49	46356.65
575.65	46726.46
575.82	46813.05
575.98	46480.70
576.14	46923.06
576.30	46508.79
576.46	46188.13
576.62	46850.50
576.79	46876.25
576.95	46101.53
577.11	46665.60
577.27	46836.46
577.43	46616.45
577.59	46721.77
577.75	46653.90
577.92	46330.90
578.08	46394.10
578.24	46796.67
578.40	46859.87
578.56	47112.64
578.72	46735.82
578.88	46574.32
579.04	47313.93
579.21	46656.24
579.37	46574.32
579.53	46789.65
579.69	46705.39
579.85	46710.07
580.01	46777.95
580.17	46667.94
580.33	46923.06
580.49	46649.22
580.65	46705.39
580.82	46223.24
580.98	46817.74
581.14	46274.73
581.30	46885.61
581.46	46958.17
581.62	46244.30
581.78	46401.12
581.94	47023.70
582.10	46822.42
582.26	46946.47
582.42	46911.36
582.58	46780.29
582.74	46691.35
582.90	46483.04
583.06	46890.29
583.22	47208.61
583.38	46564.96
583.54	46880.93
583.70	47084.56
583.86	47065.83
584.02	46539.21
584.18	47037.75
584.34	46803.69
584.50	47065.83
584.66	47187.54
584.82	47033.07
584.98	47250.74
585.14	47435.64
585.30	46827.10
585.46	47175.84
585.62	46979.23
585.78	47126.69
585.94	46649.22
586.10	46719.43
586.26	46674.96
586.42	46611.77
586.58	46958.17
586.74	46838.80
586.90	46911.36
587.06	46628.15
587.22	46866.89
587.38	47061.15
587.54	47271.80
587.70	47246.05
587.86	47192.22
588.02	47056.47
588.18	47051.79
588.34	47250.74
588.49	47299.89
588.65	46974.55
588.81	47337.33
588.97	47161.79
589.13	47143.07
589.29	47084.56
589.45	47091.58
589.61	47119.66
589.77	47646.29
589.93	47171.16
590.08	47264.78
