SpectraSuite Data File
++++++++++++++++++++++++++++++++++++
Date: Fri Oct 25 10:47:11 EDT 2013
User: price-jones
Dark Spectrum Present: No
Reference Spectrum Present: No
Number of Sampled Component Spectra: 1
Spectrometers: USB2+H05261
Integration Time (usec): 100000 (USB2+H05261)
Spectra Averaged: 1 (USB2+H05261)
Boxcar Smoothing: 0 (USB2+H05261)
Correct for Electrical Dark: No (USB2+H05261)
Strobe/Lamp Enabled: No (USB2+H05261)
Correct for Detector Non-linearity: No (USB2+H05261)
Correct for Stray Light: No (USB2+H05261)
Number of Pixels in Processed Spectrum: 2048
>>>>>Begin Processed Spectral Data<<<<<
365.73	140.43
365.92	140.43
366.12	140.43
366.32	0.00
366.52	37.45
366.72	21.06
366.91	46.81
367.11	81.92
367.31	35.11
367.51	32.77
367.70	0.00
367.90	70.22
368.10	0.00
368.30	21.06
368.49	16.38
368.69	98.30
368.89	37.45
369.09	9.36
369.28	56.17
369.48	65.54
369.68	42.13
369.87	147.45
370.07	72.56
370.27	131.07
370.47	182.56
370.66	374.49
370.86	407.25
371.06	512.58
371.25	468.11
371.45	430.66
371.65	390.87
371.84	400.23
372.04	395.55
372.24	512.58
372.44	433.00
372.63	512.58
372.83	496.19
373.03	498.53
373.22	465.77
373.42	489.17
373.62	486.83
373.81	491.51
374.01	571.09
374.21	482.15
374.40	521.94
374.60	601.52
374.79	524.28
374.99	491.51
375.19	613.22
375.38	566.41
375.58	517.26
375.78	519.60
375.97	629.60
376.17	571.09
376.37	545.34
376.56	620.24
376.76	582.79
376.95	610.88
377.15	613.22
377.35	620.24
377.54	596.84
377.74	613.22
377.93	627.26
378.13	547.69
378.33	681.10
378.52	568.75
378.72	624.92
378.91	610.88
379.11	561.73
379.31	545.34
379.50	690.46
379.70	580.45
379.89	671.73
380.09	610.88
380.28	599.18
380.48	645.99
380.68	571.09
380.87	575.77
381.07	578.11
381.26	662.37
381.46	643.65
381.65	685.78
381.85	582.79
382.04	624.92
382.24	671.73
382.43	678.76
382.63	653.01
382.83	620.24
383.02	725.57
383.22	720.88
383.41	678.76
383.61	683.44
383.80	758.33
384.00	744.29
384.19	638.97
384.39	674.07
384.58	676.41
384.78	734.93
384.97	732.59
385.17	793.44
385.36	704.50
385.56	760.67
385.75	730.25
385.95	795.78
386.14	739.61
386.34	697.48
386.53	802.80
386.72	720.88
386.92	788.76
387.11	713.86
387.31	781.74
387.50	849.61
387.70	861.32
387.89	739.61
388.09	854.30
388.28	847.27
388.48	784.08
388.67	788.76
388.86	854.30
389.06	774.72
389.25	931.53
389.45	849.61
389.64	889.40
389.84	856.64
390.03	884.72
390.22	929.19
390.42	887.06
390.61	880.04
390.81	936.21
391.00	919.83
391.19	929.19
391.39	983.02
391.58	1020.47
391.78	945.58
391.97	912.81
392.16	936.21
392.36	961.96
392.55	1039.20
392.75	980.68
392.94	891.74
393.13	929.19
393.33	985.37
393.52	938.55
393.71	1090.69
393.91	957.28
394.10	1029.84
394.29	1078.99
394.49	1060.26
394.68	1001.75
394.88	1107.07
395.07	1188.99
395.26	1081.33
395.46	1102.39
395.65	1177.29
395.84	1064.94
396.04	1142.18
396.23	1032.18
396.42	1097.71
396.62	1139.84
396.81	1198.35
397.00	1158.57
397.19	1146.86
397.39	1196.01
397.58	1259.21
397.77	1252.19
397.97	1287.29
398.16	1219.42
398.35	1252.19
398.55	1287.29
398.74	1284.95
398.93	1324.74
399.12	1275.59
399.32	1331.76
399.51	1364.53
399.70	1345.81
399.90	1364.53
400.09	1350.49
400.28	1404.32
400.47	1390.28
400.67	1437.09
400.86	1299.00
401.05	1387.94
401.24	1397.30
401.44	1540.07
401.63	1516.67
401.82	1369.21
402.01	1446.45
402.21	1476.88
402.40	1540.07
402.59	1533.05
402.78	1582.20
402.97	1523.69
403.17	1523.69
403.36	1540.07
403.55	1610.29
403.74	1696.89
403.93	1617.31
404.13	1605.61
404.32	1526.03
404.51	1467.52
404.70	1685.19
404.89	1591.56
405.09	1884.13
405.28	1671.14
405.47	1722.63
405.66	1664.12
405.85	1699.23
406.05	1750.72
406.24	1750.72
406.43	1743.70
406.62	1839.66
406.81	1795.19
407.00	1813.92
407.20	1760.08
407.39	1867.75
407.58	1898.17
407.77	1846.68
407.96	1851.36
408.15	1792.85
408.34	1895.83
408.54	1893.49
408.73	2066.69
408.92	2062.01
409.11	1970.73
409.30	2078.40
409.49	1947.33
409.68	2017.54
409.87	2024.56
410.07	2033.93
410.26	2111.16
410.45	2092.44
410.64	2143.93
410.83	2092.44
411.02	2104.14
411.21	2155.63
411.40	2260.96
411.59	2321.81
411.78	2267.98
411.98	2183.72
412.17	2260.96
412.36	2225.85
412.55	2354.58
412.74	2342.88
412.93	2387.35
413.12	2230.53
413.31	2445.86
413.50	2282.02
413.69	2429.48
413.88	2551.18
414.07	2448.20
414.26	2567.57
414.45	2506.71
414.64	2675.23
414.83	2574.59
415.02	2548.84
415.22	2630.76
415.41	2857.79
415.60	2799.28
415.79	2764.17
415.98	2825.03
416.17	2647.15
416.36	2698.64
416.55	2806.30
416.74	2878.86
416.93	2818.00
417.12	2885.88
417.31	2946.73
417.50	2825.03
417.69	2960.78
417.88	3023.97
418.07	3016.95
418.26	2974.82
418.45	3028.65
418.64	3112.91
418.83	3124.62
419.02	3129.30
419.21	3232.28
419.39	3222.92
419.58	3077.80
419.77	3124.62
419.96	3185.47
420.15	3150.36
420.34	3215.90
420.53	3208.87
420.72	3318.88
420.91	3164.40
421.10	3311.86
421.29	3438.25
421.48	3232.28
421.67	3316.54
421.86	3375.05
422.05	3283.77
422.24	3365.69
422.43	3351.65
422.61	3370.37
422.80	3396.12
422.99	3492.08
423.18	3487.40
423.37	3611.45
423.56	3372.71
423.75	3485.06
423.94	3428.88
424.13	3201.85
424.32	3297.81
424.50	3564.64
424.69	3447.61
424.88	3597.40
425.07	3412.50
425.26	3454.63
425.45	3440.59
425.64	3325.90
425.83	3398.46
426.01	3536.55
426.20	3562.30
426.39	3463.99
426.58	3496.76
426.77	3361.01
426.96	3625.49
427.15	3581.02
427.33	3562.30
427.52	3552.93
427.71	3566.98
427.90	3691.02
428.09	3627.83
428.28	3578.68
428.46	3602.08
428.65	3747.20
428.84	3878.27
429.03	3765.92
429.22	3592.72
429.40	3768.26
429.59	3655.92
429.78	3712.09
429.97	3520.17
430.16	3770.60
430.34	3742.52
430.53	3751.88
430.72	3833.80
430.91	3992.95
431.10	3894.65
431.28	3875.93
431.47	3850.18
431.66	3997.64
431.85	3882.95
432.03	4081.89
432.22	4142.75
432.41	4138.07
432.60	4025.72
432.79	4077.21
432.97	4329.99
433.16	4318.29
433.35	4161.47
433.54	4131.05
433.72	4236.37
433.91	4266.80
434.10	4285.52
434.28	4243.39
434.47	4234.03
434.66	4362.76
434.85	4262.12
435.03	4329.99
435.22	4477.44
435.41	4444.68
435.59	4489.15
435.78	4507.87
435.97	4454.04
436.16	4535.96
436.34	4540.64
436.53	4383.82
436.72	4669.37
436.90	4526.60
437.09	4585.11
437.28	4526.60
437.46	4734.90
437.65	4617.88
437.84	4564.04
438.02	4622.56
438.21	4608.51
438.40	4507.87
438.58	4695.11
438.77	4833.21
438.96	4784.06
439.14	4870.65
439.33	4985.34
439.52	5029.81
439.70	4945.55
439.89	5062.58
440.08	4975.98
440.26	5029.81
440.45	5132.79
440.63	5163.22
440.82	5423.02
441.01	5135.14
441.19	5231.10
441.38	5343.44
441.57	5483.88
441.75	5308.34
441.94	5437.06
442.12	5528.35
442.31	5572.82
442.50	5486.22
442.68	5504.94
442.87	5579.84
443.05	5568.13
443.24	5694.52
443.43	5504.94
443.61	5633.67
443.80	5769.42
443.98	5692.18
444.17	5408.98
444.35	5671.12
444.54	5643.03
444.73	5818.57
444.91	5851.34
445.10	5666.44
445.28	5689.84
445.47	5722.61
445.65	5736.65
445.84	5816.23
446.02	5841.98
446.21	5921.56
446.39	5715.59
446.58	5874.74
446.77	5788.14
446.95	5659.42
447.14	5717.93
447.32	5870.06
447.51	6010.50
447.69	5664.10
447.88	5694.52
448.06	5802.19
448.25	5879.43
448.43	6031.56
448.62	5984.75
448.80	5935.60
448.99	5888.79
449.17	5973.05
449.36	6010.50
449.54	6176.67
449.73	6050.28
449.91	6155.61
450.10	6127.52
450.28	6181.35
450.46	6354.55
450.65	6310.08
450.83	6251.57
451.02	6279.66
451.20	6193.06
451.39	6258.59
451.57	6179.01
451.76	6179.01
451.94	6230.51
452.13	6396.68
452.31	6312.42
452.49	6335.83
452.68	6328.81
452.86	6333.49
453.05	6413.07
453.23	6614.35
453.42	6413.07
453.60	6471.58
453.78	6576.91
453.97	6469.24
454.15	6473.92
454.34	6422.43
454.52	6801.60
454.70	6658.82
454.89	6705.63
455.07	6604.99
455.26	6822.66
455.44	6752.45
455.62	6862.45
455.81	6857.77
455.99	6876.49
456.17	6675.21
456.36	6913.94
456.54	6916.28
456.73	6956.07
456.91	7119.91
457.09	7164.38
457.28	7117.57
457.46	7129.27
457.64	7035.65
457.83	7194.81
458.01	7026.29
458.19	7211.19
458.38	7229.91
458.56	7262.68
458.74	7328.22
458.93	7152.68
459.11	7426.52
459.29	7447.58
459.48	7428.86
459.66	7222.89
459.84	7391.41
460.03	7375.03
460.21	7403.11
460.39	7353.96
460.57	7452.27
460.76	7602.06
460.94	7777.60
461.12	7548.23
461.31	7784.62
461.49	7609.08
461.67	7740.15
461.85	7726.11
462.04	7595.04
462.22	8182.51
462.40	8013.99
462.59	7782.28
462.77	7672.28
462.95	7801.01
463.13	7833.77
463.32	7906.33
463.50	7857.18
463.68	8154.43
463.86	8070.17
464.05	7920.37
464.23	7887.61
464.41	7974.21
464.59	7985.91
464.78	8107.62
464.96	8081.87
465.14	8133.36
465.32	8004.63
465.50	8210.60
465.69	8269.11
465.87	8156.77
466.05	8191.88
466.23	8203.58
466.41	8332.31
466.60	8299.54
466.78	8039.74
466.96	8145.06
467.14	8226.98
467.32	8369.76
467.51	8292.52
467.69	8049.10
467.87	8498.49
468.05	8423.59
468.23	8425.93
468.41	8365.07
468.60	8542.96
468.78	8301.88
468.96	8489.12
469.14	8762.97
469.32	8863.61
469.50	8449.33
469.69	8659.98
469.87	9036.81
470.05	8894.04
470.23	8634.24
470.41	8751.26
470.59	8936.17
470.77	8798.07
470.95	8961.91
471.14	8973.61
471.32	8952.55
471.50	9062.55
471.68	9076.60
471.86	9125.75
472.04	9343.42
472.22	9516.62
472.40	9125.75
472.58	9238.09
472.77	9308.31
472.95	9205.33
473.13	9755.35
473.31	9474.49
473.49	9507.26
473.67	9444.06
473.85	9568.11
474.03	9888.76
474.21	9802.16
474.39	9870.04
474.57	9825.57
474.75	9853.66
474.93	9879.40
475.12	9867.70
475.30	10127.50
475.48	10225.80
475.66	10279.63
475.84	10003.45
476.02	10239.84
476.20	10265.59
476.38	10422.41
476.56	10586.24
476.74	10438.79
476.92	10478.58
477.10	10431.77
477.28	10855.40
477.46	10583.90
477.64	11091.80
477.82	10906.90
478.00	11253.30
478.18	11183.08
478.36	11318.83
478.54	11473.31
478.72	11461.60
478.90	11403.09
479.08	11676.93
479.26	11768.21
479.44	11733.11
479.62	11894.60
479.80	11957.80
479.98	11754.17
480.16	12091.21
480.34	12093.55
480.52	12446.97
480.70	12472.71
480.88	12121.63
481.06	12409.52
481.24	12322.92
481.41	12676.34
481.59	12716.13
481.77	12870.61
481.95	12879.97
482.13	12774.64
482.31	13081.25
482.49	13364.46
482.67	13357.44
482.85	13490.85
483.03	13500.21
483.21	13680.43
483.39	13858.31
483.57	13776.39
483.74	13741.29
483.92	13862.99
484.10	13895.76
484.28	14209.39
484.46	14396.64
484.64	14635.37
484.82	14457.49
485.00	14307.69
485.18	14794.53
485.35	14813.25
485.53	14958.36
485.71	14782.82
485.89	15257.95
486.07	14953.68
486.25	15374.98
486.43	15564.56
486.61	15304.76
486.78	15777.55
486.96	15679.25
487.14	16163.74
487.32	15953.09
487.50	16219.91
487.68	16262.04
487.85	16779.30
488.03	16769.94
488.21	16816.75
488.39	16491.41
488.57	16959.52
488.75	17224.00
488.92	17221.66
489.10	17539.97
489.28	17755.30
489.46	17820.84
489.64	17680.41
489.81	18153.20
489.99	18176.60
490.17	18078.30
490.35	18567.47
490.53	18054.89
490.70	18546.40
490.88	18506.62
491.06	18834.29
491.24	18927.91
491.41	18682.16
491.59	19047.28
491.77	19112.81
491.95	19096.43
492.13	19400.70
492.30	19412.40
492.48	19342.19
492.66	19559.86
492.84	19936.68
493.01	19915.62
493.19	19957.75
493.37	19988.18
493.54	20116.90
493.72	20875.24
493.90	20343.94
494.08	20858.85
494.25	20833.11
494.43	20769.91
494.61	20973.54
494.79	21151.42
494.96	20884.60
495.14	21064.82
495.32	21425.26
495.49	21310.58
495.67	21891.03
495.85	21792.73
496.02	21830.18
496.20	21848.90
496.38	22272.54
496.55	22267.86
496.73	22710.22
496.91	22223.39
497.09	22640.00
497.26	22670.43
497.44	22906.82
497.62	22841.29
497.79	23147.90
497.97	22850.65
498.14	23204.07
498.32	22852.99
498.50	23098.75
498.67	23683.88
498.85	23419.40
499.03	24250.29
499.20	23967.09
499.38	24159.01
499.56	23995.17
499.73	23962.40
499.91	24030.28
500.08	24245.61
500.26	24376.68
500.44	24095.82
500.61	24350.93
500.79	24400.08
500.97	24231.57
501.14	24603.71
501.32	24889.26
501.49	24636.48
501.67	25043.73
501.84	25235.66
502.02	25291.83
502.20	25404.17
502.37	25256.72
502.55	25212.25
502.72	25799.73
502.90	25642.91
503.07	25666.31
503.25	25759.94
503.43	25692.06
503.60	25916.75
503.78	25715.47
503.95	25947.18
504.13	25949.52
504.30	26529.97
504.48	26092.29
504.65	26361.45
504.83	26518.27
505.01	26480.82
505.18	26733.60
505.36	27154.90
505.53	26951.27
505.71	26984.04
505.88	26920.84
506.06	26838.92
506.23	27402.99
506.41	26972.33
506.58	27094.04
506.76	27030.85
506.93	27768.12
507.11	27379.59
507.28	27770.46
507.46	27871.10
507.63	27651.09
507.81	28189.41
507.98	27969.40
508.16	28013.87
508.33	27782.16
508.50	28540.49
508.68	28283.03
508.85	28769.86
509.03	28063.02
509.20	28842.42
509.38	28837.74
509.55	29106.90
509.73	28631.77
509.90	28603.69
510.08	28936.04
510.25	28819.02
510.42	28910.30
510.60	29303.51
510.77	29170.10
510.95	29397.13
511.12	29495.43
511.30	29106.90
511.47	29762.25
511.64	29682.67
511.82	29511.81
511.99	29659.27
512.17	29816.08
512.34	29668.63
512.51	30169.51
512.69	29773.95
512.86	29874.60
513.04	30543.99
513.21	30181.21
513.38	30417.60
513.56	30651.66
513.73	30029.07
513.90	30794.43
514.08	30321.64
514.25	30684.42
514.43	30504.20
514.60	30646.97
514.77	30972.31
514.95	30981.67
515.12	31115.08
515.29	30874.01
515.47	30986.35
515.64	31342.11
515.81	31381.90
515.99	31096.36
516.16	31414.67
516.33	31304.67
516.51	31632.34
516.68	31398.29
516.85	31187.64
517.03	31543.40
517.20	32123.85
517.37	31580.85
517.54	32074.70
517.72	31978.74
517.89	31903.84
518.06	31943.63
518.24	32123.85
518.41	31606.59
518.58	32306.41
518.75	32084.06
518.93	32472.59
519.10	32411.74
519.27	32432.80
519.45	32357.91
519.62	32608.34
519.79	33219.22
519.96	32790.91
520.14	32870.48
520.31	32814.31
520.48	32947.72
520.65	32924.32
520.83	33198.16
521.00	33425.19
521.17	33181.77
521.34	32929.00
521.52	33385.40
521.69	33418.17
521.86	33591.37
522.03	33993.94
522.20	33757.55
522.38	34363.75
522.55	34115.65
522.72	33851.17
522.89	33916.70
523.07	34139.05
523.24	33818.40
523.41	34515.88
523.58	34073.52
523.75	34197.57
523.92	34373.11
524.10	34494.82
524.27	34623.54
524.44	34717.17
524.61	34897.39
524.78	34663.33
524.96	35133.78
525.13	35002.71
525.30	35103.35
525.47	34995.69
525.64	35028.46
525.81	34918.45
525.98	34998.03
526.16	35510.61
526.33	34941.86
526.50	35325.71
526.67	35180.59
526.84	35222.72
527.01	35285.92
527.18	35105.70
527.36	35281.24
527.53	35924.88
527.70	35920.20
527.87	35789.13
528.04	35648.70
528.21	35896.80
528.38	36126.17
528.55	36147.23
528.72	36013.82
528.89	36271.28
529.07	36395.33
529.24	35934.24
529.41	36444.48
529.58	36084.04
529.75	36196.38
529.92	36425.76
530.09	36629.38
530.26	36659.81
530.43	36313.41
530.60	36154.26
530.77	36671.51
530.94	36648.11
531.11	36086.38
531.28	36779.18
531.46	36620.02
531.63	37186.43
531.80	36776.84
531.97	36811.95
532.14	36952.38
532.31	36879.82
532.48	37244.94
532.65	37305.80
532.82	37500.06
532.99	37453.25
533.16	37165.37
533.33	37277.71
533.50	37773.91
533.67	36828.33
533.84	37581.98
534.01	37509.43
534.18	37373.67
534.35	37860.51
534.52	37762.20
534.69	37970.51
534.86	38139.03
535.03	37893.27
535.20	38007.96
535.37	37811.35
535.54	37837.10
535.71	37883.91
535.88	37965.83
536.05	38277.12
536.22	37998.60
536.38	38384.79
536.55	38244.35
536.72	38356.70
536.89	38120.31
537.06	37876.89
537.23	38557.99
537.40	38115.62
537.57	38363.72
537.74	38607.14
537.91	38618.84
538.08	38670.33
538.25	38387.13
538.42	38895.02
538.59	38801.40
538.75	38682.03
538.92	38698.42
539.09	39150.14
539.26	38806.08
539.43	38883.32
539.60	38979.28
539.77	38878.64
539.94	38918.43
540.11	38993.32
540.28	39196.95
540.44	38888.00
540.61	39342.06
540.78	38810.76
540.95	39510.58
541.12	39313.98
541.29	39192.27
541.46	39271.85
541.62	39494.20
541.79	39580.80
541.96	39222.70
542.13	39618.25
542.30	39646.33
542.47	39786.77
542.63	39629.95
542.80	39798.47
542.97	40023.16
543.14	40219.77
543.31	39985.71
543.48	40470.20
543.64	40484.25
543.81	40161.25
543.98	40636.38
544.15	40671.49
544.32	40311.05
544.48	40488.93
544.65	40472.54
544.82	40594.25
544.99	39812.51
545.16	40786.18
545.32	40645.74
545.49	40814.26
545.66	41041.29
545.83	40830.65
546.00	40823.62
546.16	41244.92
546.33	40418.71
546.50	40769.79
546.67	40573.19
546.83	40554.46
547.00	40540.42
547.17	40910.22
547.34	40779.15
547.50	41200.45
547.67	41104.49
547.84	41212.15
548.00	41497.70
548.17	41160.66
548.34	41067.04
548.51	41567.91
548.67	41226.20
548.84	41425.14
549.01	41464.93
549.18	41390.03
549.34	41298.75
549.51	41930.70
549.68	41612.38
549.84	41570.25
550.01	41663.88
550.18	41076.40
550.34	41804.31
550.51	41617.07
550.68	41736.43
550.84	40790.86
551.01	41780.90
551.18	41897.93
551.34	41886.23
551.51	41930.70
551.68	41841.76
551.84	42241.99
552.01	41888.57
552.18	41926.02
552.34	41546.85
552.51	42344.97
552.68	42160.07
552.84	42043.04
553.01	42003.25
553.18	42511.15
553.34	42136.66
553.51	41881.55
553.67	42328.59
553.84	42251.35
554.01	42405.83
554.17	42689.03
554.34	42349.65
554.51	42326.25
554.67	42674.99
554.84	42433.91
555.00	42073.47
555.17	42513.49
555.33	42377.74
555.50	42387.10
555.67	42059.43
555.83	42773.29
556.00	42513.49
556.16	43344.38
556.33	43044.79
556.50	42595.41
556.66	42895.00
556.83	42508.81
556.99	42981.60
557.16	42684.35
557.32	43105.65
557.49	43065.86
557.65	42981.60
557.82	42660.94
557.98	42742.86
558.15	42986.28
558.32	43124.37
558.48	42986.28
558.65	43042.45
558.81	42560.30
558.98	43255.44
559.14	43065.86
559.31	43115.01
559.47	43140.75
559.64	43381.83
559.80	43524.60
559.97	43674.40
560.13	42859.89
560.30	43019.05
560.46	43000.32
560.63	42939.47
560.79	43201.61
560.96	43178.20
561.12	43278.85
561.29	43196.93
561.45	43257.78
561.61	43339.70
561.78	43072.88
561.94	43093.94
562.11	43536.30
562.27	43288.21
562.44	43559.71
562.60	43775.04
562.77	43538.65
562.93	43468.43
563.10	43892.07
563.26	43182.88
563.42	43833.55
563.59	43421.62
563.75	43433.32
563.92	43627.59
564.08	43662.69
564.24	43473.11
564.41	43349.06
564.57	43400.55
564.74	43835.89
564.90	44215.06
565.07	43861.64
565.23	43391.19
565.39	43564.39
565.56	43817.17
565.72	43800.79
565.88	43510.56
566.05	44135.48
566.21	43409.92
566.38	43428.64
566.54	43796.10
566.70	43976.33
566.87	43878.02
567.03	43880.36
567.19	44495.92
567.36	43838.23
567.52	43915.47
567.68	43917.81
567.85	44165.91
568.01	43943.56
568.17	43716.53
568.34	43758.66
568.50	43786.74
568.66	44046.54
568.83	44198.68
568.99	44142.50
569.15	43871.00
569.32	43885.04
569.48	44109.74
569.64	44020.80
569.81	44268.89
569.97	44161.23
570.13	44158.89
570.30	44133.14
570.46	43466.09
570.62	43838.23
570.78	43875.68
570.95	44051.22
571.11	44229.10
571.27	43840.57
571.43	43906.11
571.60	43929.51
571.76	44308.68
571.92	44322.72
572.09	43950.58
572.25	43791.42
572.41	44423.37
572.57	44201.02
572.74	44505.29
572.90	44121.44
573.06	44516.99
573.22	43997.39
573.38	44142.50
573.55	44009.09
573.71	44238.47
573.87	44275.91
574.03	43821.85
574.20	44247.83
574.36	44315.70
574.52	44414.01
574.68	43955.26
574.84	44671.46
575.01	44292.30
575.17	44329.75
575.33	44128.46
575.49	44495.92
575.65	44329.75
575.82	44935.95
575.98	44266.55
576.14	44278.25
576.30	44512.31
576.46	44460.82
576.62	43866.32
576.79	44069.95
576.95	43880.36
577.11	43936.54
577.27	44442.09
577.43	44587.21
577.59	44463.16
577.75	44442.09
577.92	44247.83
578.08	44399.96
578.24	43793.76
578.40	44275.91
578.56	44626.99
578.72	44261.87
578.88	44470.18
579.04	44315.70
579.21	44245.49
579.37	44463.16
579.53	44418.69
579.69	44196.34
579.85	44428.05
580.01	44556.78
580.17	44694.87
580.33	45083.40
580.49	44781.47
580.65	44610.61
580.82	44442.09
580.98	44491.24
581.14	44463.16
581.30	44685.51
581.46	44430.39
581.62	44371.88
581.78	44428.05
581.94	44872.75
582.10	44746.36
582.26	44552.10
582.42	44449.11
582.58	44774.45
582.74	44217.40
582.90	44243.15
583.06	44701.89
583.22	44121.44
583.38	45074.04
583.54	44542.74
583.70	44477.20
583.86	44577.84
584.02	44112.08
584.18	44367.20
584.34	44645.72
584.50	44456.14
584.66	44376.56
584.82	44425.71
584.98	44917.22
585.14	44648.06
585.30	44456.14
585.46	44514.65
585.62	44231.44
585.78	44292.30
585.94	44362.51
586.10	44566.14
586.26	44547.42
586.42	44985.10
586.58	44797.85
586.74	44631.68
586.90	44399.96
587.06	44289.96
587.22	44816.58
587.38	44282.94
587.54	44655.08
587.70	44708.91
587.86	45092.76
588.02	44474.86
588.18	44847.00
588.34	44189.31
588.49	44179.95
588.65	44016.11
588.81	44079.31
588.97	44339.11
589.13	44418.69
589.29	44406.98
589.45	44643.38
589.61	44793.17
589.77	45001.48
589.93	45165.32
590.08	44779.13
590.24	44788.49
590.40	44940.63
