SpectraSuite Data File
++++++++++++++++++++++++++++++++++++
Date: Fri Oct 25 10:43:50 EDT 2013
User: price-jones
Dark Spectrum Present: No
Reference Spectrum Present: No
Number of Sampled Component Spectra: 1
Spectrometers: USB2+H05261
Integration Time (usec): 100000 (USB2+H05261)
Spectra Averaged: 1 (USB2+H05261)
Boxcar Smoothing: 0 (USB2+H05261)
Correct for Electrical Dark: No (USB2+H05261)
Strobe/Lamp Enabled: No (USB2+H05261)
Correct for Detector Non-linearity: No (USB2+H05261)
Correct for Stray Light: No (USB2+H05261)
Number of Pixels in Processed Spectrum: 2048
>>>>>Begin Processed Spectral Data<<<<<
365.73	159.16
365.92	159.16
366.12	159.16
366.32	63.19
366.52	0.00
366.72	0.00
366.91	32.77
367.11	30.43
367.31	0.00
367.51	37.45
367.70	0.00
367.90	88.94
368.10	9.36
368.30	74.90
368.49	0.00
368.69	0.00
368.89	18.72
369.09	37.45
369.28	60.85
369.48	0.00
369.68	63.19
369.87	107.66
370.07	98.30
370.27	177.88
370.47	250.44
370.66	348.74
370.86	447.04
371.06	414.27
371.25	447.04
371.45	489.17
371.65	472.79
371.84	475.13
372.04	437.68
372.24	472.79
372.44	550.03
372.63	491.51
372.83	479.81
373.03	587.47
373.22	505.56
373.42	552.37
373.62	582.79
373.81	418.96
374.01	540.66
374.21	505.56
374.40	484.49
374.60	610.88
374.79	540.66
374.99	573.43
375.19	585.13
375.38	559.39
375.58	610.88
375.78	645.99
375.97	599.18
376.17	744.29
376.37	603.86
376.56	629.60
376.76	641.31
376.95	641.31
377.15	667.05
377.35	641.31
377.54	568.75
377.74	627.26
377.93	641.31
378.13	758.33
378.33	660.03
378.52	681.10
378.72	653.01
378.91	655.35
379.11	692.80
379.31	695.14
379.50	601.52
379.70	650.67
379.89	650.67
380.09	624.92
380.28	688.12
380.48	634.29
380.68	720.88
380.87	631.94
381.07	702.16
381.26	695.14
381.46	685.78
381.65	688.12
381.85	704.50
382.04	737.27
382.24	746.63
382.43	638.97
382.63	737.27
382.83	641.31
383.02	669.39
383.22	748.97
383.41	697.48
383.61	697.48
383.80	802.80
384.00	795.78
384.19	770.04
384.39	875.36
384.58	786.42
384.78	826.21
384.97	884.72
385.17	786.42
385.36	786.42
385.56	858.98
385.75	774.72
385.95	826.21
386.14	828.55
386.34	849.61
386.53	891.74
386.72	809.83
386.92	933.87
387.11	847.27
387.31	894.08
387.50	844.93
387.70	875.36
387.89	826.21
388.09	840.25
388.28	887.06
388.48	863.66
388.67	1008.77
388.86	1022.81
389.06	896.43
389.25	950.26
389.45	1069.62
389.64	994.73
389.84	905.79
390.03	1060.26
390.22	980.68
390.42	940.90
390.61	1015.79
390.81	947.92
391.00	1123.46
391.19	1111.75
391.39	1036.86
391.58	1048.56
391.78	1095.37
391.97	999.41
392.16	1001.75
392.36	980.68
392.55	1083.67
392.75	1090.69
392.94	1029.84
393.13	994.73
393.33	952.60
393.52	968.98
393.71	1090.69
393.91	1090.69
394.10	1139.84
394.29	1207.72
394.49	1156.22
394.68	1203.04
394.88	1198.35
395.07	1240.48
395.26	1207.72
395.46	1146.86
395.65	1310.70
395.84	1282.61
396.04	1275.59
396.23	1165.59
396.42	1242.82
396.62	1181.97
396.81	1256.87
397.00	1196.01
397.19	1233.46
397.39	1296.66
397.58	1437.09
397.77	1397.30
397.97	1425.39
398.16	1364.53
398.35	1460.49
398.55	1500.28
398.74	1481.56
398.93	1495.60
399.12	1451.13
399.32	1465.18
399.51	1495.60
399.70	1582.20
399.90	1565.82
400.09	1657.10
400.28	1647.74
400.47	1636.03
400.67	1647.74
400.86	1720.29
401.05	1607.95
401.24	1664.12
401.44	1661.78
401.63	1739.02
401.82	1739.02
402.01	1685.19
402.21	1696.89
402.40	1769.44
402.59	1732.00
402.78	1701.57
402.97	1767.10
403.17	1689.87
403.36	1806.89
403.55	1795.19
403.74	1865.41
403.93	1788.17
404.13	1856.04
404.32	1764.76
404.51	1827.96
404.70	1947.33
404.89	1818.60
405.09	2008.18
405.28	1966.05
405.47	1856.04
405.66	1996.48
405.85	2045.63
406.05	1996.48
406.24	1961.37
406.43	2066.69
406.62	2141.59
406.81	2047.97
407.00	2080.74
407.20	2050.31
407.39	2162.66
407.58	2122.87
407.77	2169.68
407.96	2190.74
408.15	2282.02
408.34	2150.95
408.54	2242.23
408.73	2319.47
408.92	2310.11
409.11	2286.70
409.30	2387.35
409.49	2282.02
409.68	2134.57
409.87	2253.94
410.07	2349.90
410.26	2310.11
410.45	2396.71
410.64	2539.48
410.83	2520.76
411.02	2546.50
411.21	2520.76
411.40	2597.99
411.59	2532.46
411.78	2579.27
411.98	2527.78
412.17	2651.83
412.36	2810.98
412.55	2689.28
412.74	2750.13
412.93	2757.15
413.12	2619.06
413.31	2848.43
413.50	2810.98
413.69	2743.11
413.88	2860.13
414.07	2871.84
414.26	2995.89
414.45	2970.14
414.64	3068.44
414.83	2960.78
415.02	3012.27
415.22	3148.02
415.41	3185.47
415.60	3225.26
415.79	3138.66
415.98	3227.60
416.17	3150.36
416.36	3255.69
416.55	3262.71
416.74	3325.90
416.93	3260.37
417.12	3178.45
417.31	3255.69
417.50	3105.89
417.69	3468.67
417.88	3426.54
418.07	3459.31
418.26	3365.69
418.45	3428.88
418.64	3522.51
418.83	3552.93
419.02	3616.13
419.21	3641.87
419.39	3618.47
419.58	3499.10
419.77	3564.64
419.96	3574.00
420.15	3679.32
420.34	3632.51
420.53	3667.62
420.72	3840.82
420.91	3770.60
421.10	3946.14
421.29	3777.62
421.48	3889.97
421.67	3866.56
421.86	3744.86
422.05	3857.20
422.24	3850.18
422.43	3815.07
422.61	3896.99
422.80	4011.68
422.99	3906.35
423.18	3775.28
423.37	3969.55
423.56	3866.56
423.75	3948.48
423.94	3906.35
424.13	3691.02
424.32	3901.67
424.50	3913.38
424.69	4168.49
424.88	4095.94
425.07	3929.76
425.26	3859.54
425.45	3906.35
425.64	3983.59
425.83	4187.22
426.01	4060.83
426.20	3913.38
426.39	3950.82
426.58	3889.97
426.77	4091.26
426.96	4025.72
427.15	3967.21
427.33	4107.64
427.52	3983.59
427.71	4044.45
427.90	4198.92
428.09	4163.81
428.28	4315.95
428.46	4149.77
428.65	4100.62
428.84	4318.29
429.03	4369.78
429.22	4025.72
429.40	4014.02
429.59	4102.96
429.78	3922.74
429.97	3941.46
430.16	4063.17
430.34	4035.08
430.53	4224.67
430.72	4121.68
430.91	4287.86
431.10	4358.08
431.28	4505.53
431.47	4636.60
431.66	4704.48
431.85	4400.21
432.03	4578.09
432.22	4660.01
432.41	4692.77
432.60	4669.37
432.79	4629.58
432.97	4711.50
433.16	4643.62
433.35	4627.24
433.54	4802.78
433.72	4634.26
433.91	4542.98
434.10	4739.58
434.28	4723.20
434.47	4695.11
434.66	4842.57
434.85	4861.29
435.03	4994.70
435.22	4975.98
435.41	4947.89
435.59	5036.83
435.78	5107.05
435.97	5214.71
436.16	5121.09
436.34	5078.96
436.53	5193.65
436.72	5289.61
436.90	4973.64
437.09	5193.65
437.28	5013.43
437.46	5172.58
437.65	5305.99
437.84	5041.51
438.02	5144.50
438.21	5095.35
438.40	5090.67
438.58	5231.10
438.77	5380.89
438.96	5343.44
439.14	5561.11
439.33	5607.92
439.52	5568.13
439.70	5675.80
439.89	5563.45
440.08	5640.69
440.26	5846.66
440.45	5809.21
440.63	5839.64
440.82	6047.94
441.01	5832.62
441.19	5996.45
441.38	6071.35
441.57	6043.26
441.75	6071.35
441.94	6239.87
442.12	6153.27
442.31	6375.62
442.50	6375.62
442.68	6225.82
442.87	6242.21
443.05	6380.30
443.24	6448.18
443.43	6502.01
443.61	6551.16
443.80	6506.69
443.98	6417.75
444.17	6209.44
444.35	6441.15
444.54	6733.72
444.73	6633.08
444.91	6445.84
445.10	6537.12
445.28	6516.05
445.47	6436.47
445.65	6303.06
445.84	6413.07
446.02	6766.49
446.21	6654.14
446.39	6459.88
446.58	6506.69
446.77	6558.18
446.95	6506.69
447.14	6649.46
447.32	6696.27
447.51	6787.55
447.69	6651.80
447.88	6619.04
448.06	6719.68
448.25	6729.04
448.43	6705.63
448.62	6691.59
448.80	6740.74
448.99	6881.18
449.17	7033.31
449.36	6792.23
449.54	7056.72
449.73	6960.75
449.91	7103.53
450.10	7239.28
450.28	7225.23
450.46	7148.00
450.65	7194.81
450.83	7297.79
451.02	7124.59
451.20	7222.89
451.39	7262.68
451.57	7243.96
451.76	6991.18
451.94	7234.60
452.13	7138.63
452.31	7281.41
452.49	7096.50
452.68	7068.42
452.86	7176.08
453.05	7105.87
453.23	7372.69
453.42	7246.30
453.60	7325.88
453.78	7510.78
453.97	7342.26
454.15	7274.38
454.34	7447.58
454.52	7393.75
454.70	7433.54
454.89	7447.58
455.07	7620.78
455.26	7611.42
455.44	7742.49
455.62	7763.56
455.81	7669.94
455.99	7595.04
456.17	7929.74
456.36	7639.51
456.54	7934.42
456.73	7934.42
456.91	8156.77
457.09	8114.64
457.28	8379.12
457.46	8042.08
457.64	8116.98
457.83	7845.48
458.01	8004.63
458.19	8152.09
458.38	8217.62
458.56	8138.04
458.74	8205.92
458.93	8243.37
459.11	8257.41
459.29	8353.37
459.48	8409.54
459.66	8189.53
459.84	8259.75
460.03	8353.37
460.21	8252.73
460.39	8409.54
460.57	8266.77
460.76	8514.87
460.94	8676.37
461.12	8568.70
461.31	8671.68
461.49	8674.03
461.67	8549.98
461.85	8828.50
462.04	8837.86
462.22	9015.74
462.40	8950.21
462.59	8830.84
462.77	8854.25
462.95	8975.95
463.13	8840.20
463.32	8744.24
463.50	8889.35
463.68	9107.02
463.86	8957.23
464.05	8847.22
464.23	8800.41
464.41	9167.88
464.59	8898.72
464.78	9165.54
464.96	8849.57
465.14	9008.72
465.32	9132.77
465.50	9369.16
465.69	9151.49
465.87	9188.94
466.05	9043.83
466.23	9125.75
466.41	9186.60
466.60	9490.87
466.78	9263.84
466.96	9205.33
467.14	9362.14
467.32	9394.91
467.51	9502.58
467.69	9249.80
467.87	9301.29
468.05	9408.95
468.23	9359.80
468.41	9357.46
468.60	9430.02
468.78	9507.26
468.96	9490.87
469.14	9633.64
469.32	9792.80
469.50	9453.42
469.69	9753.01
469.87	9614.92
470.05	9385.55
470.23	9767.06
470.41	9703.86
470.59	9944.94
470.77	9680.46
470.95	9998.77
471.14	10003.45
471.32	9846.63
471.50	10335.81
471.68	10368.57
471.86	10200.05
472.04	10342.83
472.22	10532.41
472.40	10448.15
472.58	10370.91
472.77	10527.73
472.95	10644.76
473.13	10860.09
473.31	10752.42
473.49	10548.79
473.67	10429.43
473.85	10635.39
474.03	10813.28
474.21	10932.64
474.39	10820.30
474.57	10909.24
474.75	11122.23
474.93	11360.96
475.12	11286.06
475.30	11236.91
475.48	11133.93
475.66	11466.28
475.84	11253.30
476.02	11227.55
476.20	11323.51
476.38	11651.19
476.56	11915.67
476.74	11997.59
476.92	11646.51
477.10	11939.07
477.28	12035.03
477.46	12002.27
477.64	12336.96
477.82	12386.12
478.00	12744.22
478.18	12517.18
478.36	12709.11
478.54	12851.88
478.72	12566.34
478.90	12718.47
479.08	12924.44
479.26	12891.67
479.44	12996.99
479.62	13118.70
479.80	13406.59
479.98	13607.87
480.16	13659.37
480.34	13682.77
480.52	13699.16
480.70	13713.20
480.88	13813.84
481.06	13844.27
481.24	13921.51
481.41	13825.54
481.59	14501.96
481.77	14169.60
481.95	14307.69
482.13	14340.46
482.31	14548.77
482.49	14792.19
482.67	14588.56
482.85	14995.81
483.03	15030.92
483.21	15206.46
483.39	15332.85
483.57	15187.74
483.74	15414.77
483.92	15492.01
484.10	15384.34
484.28	15775.21
484.46	15992.88
484.64	16051.39
484.82	16159.06
485.00	16196.51
485.18	16437.58
485.35	16517.16
485.53	16109.91
485.71	16119.27
485.89	16844.84
486.07	16245.66
486.25	16704.40
486.43	16826.11
486.61	16734.83
486.78	17139.74
486.96	17397.20
487.14	17635.94
487.32	18017.44
487.50	17970.63
487.68	18019.78
487.85	18200.01
488.03	18270.22
488.21	18593.22
488.39	18574.49
488.57	18562.79
488.75	18974.72
488.92	19131.54
489.10	18972.38
489.28	19096.43
489.46	19730.72
489.64	19686.25
489.81	20034.99
489.99	20393.09
490.17	20297.13
490.35	20390.75
490.53	19981.15
490.70	20545.22
490.88	20421.17
491.06	20671.61
491.24	20776.94
491.41	20634.16
491.59	20893.96
491.77	20624.80
491.95	20929.07
492.13	21109.29
492.30	21406.54
492.48	21741.24
492.66	21876.99
492.84	21776.34
493.01	22017.42
493.19	21886.35
493.37	22036.14
493.54	22155.51
493.72	22843.63
493.90	22618.94
494.08	22883.42
494.25	23147.90
494.43	23143.22
494.61	23442.81
494.79	23491.96
494.96	23108.11
495.14	23536.43
495.32	23840.70
495.49	23662.82
495.67	23875.80
495.85	23784.52
496.02	24166.03
496.20	24046.66
496.38	24744.14
496.55	24584.99
496.73	24875.21
496.91	24922.02
497.09	25034.37
497.26	25053.09
497.44	24872.87
497.62	25160.76
497.79	25411.20
497.97	25097.56
498.14	25504.82
498.32	25439.28
498.50	25722.49
498.67	25914.41
498.85	25879.30
499.03	26375.50
499.20	26202.30
499.38	26316.98
499.56	26506.57
499.73	26265.49
499.91	26452.73
500.08	26682.11
500.26	26515.93
500.44	26373.16
500.61	27044.89
500.79	26405.92
500.97	26897.44
501.14	27112.77
501.32	27070.64
501.49	26852.97
501.67	27175.96
501.84	27433.42
502.02	27220.43
502.20	27545.76
502.37	27873.44
502.55	27613.64
502.72	27777.48
502.90	28411.76
503.07	27803.22
503.25	27854.72
503.43	28072.39
503.60	28056.00
503.78	27765.78
503.95	27906.21
504.13	28386.02
504.30	28699.65
504.48	28526.45
504.65	28929.02
504.83	29069.45
505.01	28844.76
505.18	29149.03
505.36	29490.75
505.53	29343.30
505.71	29493.09
505.88	29738.85
506.06	29465.00
506.23	29710.76
506.41	29619.48
506.58	29703.74
506.76	29916.73
506.93	29610.12
507.11	29692.04
507.28	29860.55
507.46	30108.65
507.63	30153.12
507.81	30235.04
507.98	30094.61
508.16	30195.25
508.33	30539.31
508.50	30471.43
508.68	30909.11
508.85	30878.69
509.03	30759.32
509.20	30768.68
509.38	31227.43
509.55	31405.31
509.73	31381.90
509.90	31519.99
510.08	31154.87
510.25	31386.58
510.42	31456.80
510.60	31529.36
510.77	31754.05
510.95	31901.50
511.12	31707.24
511.30	31763.41
511.47	32332.16
511.64	32570.90
511.82	32423.44
511.99	31908.52
512.17	32149.60
512.34	32137.90
512.51	32657.49
512.69	32559.19
512.86	32479.61
513.04	32896.23
513.21	32884.53
513.38	32650.47
513.56	32641.11
513.73	32414.08
513.90	32814.31
514.08	32863.46
514.25	33273.06
514.43	32961.76
514.60	33450.94
514.77	33354.97
514.95	33509.45
515.12	33537.54
515.29	33993.94
515.47	33773.93
515.64	34043.09
515.81	34017.35
515.99	33799.68
516.16	33448.60
516.33	33687.33
516.51	33294.12
516.68	33139.65
516.85	33216.88
517.03	33954.15
517.20	33560.94
517.37	34141.39
517.54	34031.39
517.72	33998.62
517.89	33965.85
518.06	33965.85
518.24	34412.90
518.41	34220.97
518.58	34558.01
518.75	34227.99
518.93	34405.88
519.10	34450.35
519.27	35330.39
519.45	35243.79
519.62	34991.01
519.79	35295.28
519.96	35166.55
520.14	35555.08
520.31	34998.03
520.48	35278.89
520.65	35688.49
520.83	35775.09
521.00	35721.26
521.17	36006.80
521.34	35849.99
521.52	35903.82
521.69	36133.19
521.86	36210.43
522.03	36238.51
522.20	36217.45
522.38	36240.86
522.55	36552.15
522.72	36418.74
522.89	36652.79
523.07	36804.92
523.24	36348.52
523.41	36727.69
523.58	36755.77
523.75	37352.61
523.92	37024.93
524.10	37537.51
524.27	36790.88
524.44	37001.53
524.61	37312.82
524.78	37205.16
524.96	37081.11
525.13	37514.11
525.30	37371.33
525.47	37825.40
525.64	37607.73
525.81	38260.74
525.98	37209.84
526.16	37553.90
526.33	37027.28
526.50	37581.98
526.67	37237.92
526.84	37057.70
527.01	37137.28
527.18	37443.89
527.36	38087.54
527.53	38319.25
527.70	38347.34
527.87	38319.25
528.04	38117.96
528.21	38522.88
528.38	38422.23
528.55	38597.77
528.72	38436.28
528.89	38618.84
529.07	38635.22
529.24	38553.30
529.41	38684.37
529.58	38651.61
529.75	38562.67
529.92	38667.99
530.09	39208.65
530.26	39220.36
530.43	38909.07
530.60	39192.27
530.77	39421.64
530.94	39611.23
531.11	39316.32
531.28	39538.67
531.46	39489.52
531.63	39538.67
531.80	39585.48
531.97	39187.59
532.14	39239.08
532.31	39110.35
532.48	39330.36
532.65	40011.46
532.82	39562.08
532.99	39962.31
533.16	39983.37
533.33	39643.99
533.50	40142.53
533.67	40074.65
533.84	39679.10
534.01	39995.07
534.18	39964.65
534.35	40182.32
534.52	40238.49
534.69	40297.00
534.86	40659.79
535.03	40156.57
535.20	40865.75
535.37	41015.55
535.54	41055.34
535.71	40275.94
535.88	40776.81
536.05	40376.58
536.22	40212.74
536.38	40687.87
536.55	40465.52
536.72	40608.29
536.89	40650.42
537.06	40699.58
537.23	41258.96
537.40	41062.36
537.57	41273.01
537.74	41237.90
537.91	41357.27
538.08	40926.61
538.25	40844.69
538.42	40921.93
538.59	41443.87
538.75	40758.09
538.92	41125.55
539.09	41741.11
539.26	41359.61
539.43	41500.04
539.60	41486.00
539.77	41242.58
539.94	41488.34
540.11	41193.43
540.28	41219.17
540.44	41495.36
540.61	41607.70
540.78	41263.64
540.95	41106.83
541.12	41605.36
541.29	41200.45
541.46	41675.58
541.62	41787.92
541.79	41811.33
541.96	41689.62
542.13	42136.66
542.30	42024.32
542.47	42143.69
542.63	42038.36
542.80	41773.88
542.97	42389.44
543.14	42628.18
543.31	42738.18
543.48	42307.52
543.64	42581.37
543.81	42918.40
543.98	42518.17
544.15	42462.00
544.32	42670.31
544.48	43220.33
544.65	42925.42
544.82	43089.26
544.99	43030.75
545.16	43009.68
545.32	43044.79
545.49	43695.46
545.66	43299.91
545.83	42965.21
546.00	43330.34
546.16	43072.88
546.33	43103.31
546.50	42569.66
546.67	43358.42
546.83	43107.99
547.00	42930.11
547.17	43168.84
547.34	42997.98
547.50	43419.28
547.67	43536.30
547.84	43608.86
548.00	43672.06
548.17	43646.31
548.34	43562.05
548.51	43814.83
548.67	43873.34
548.84	43707.16
549.01	43714.19
549.18	43704.82
549.34	43950.58
549.51	43620.56
549.68	43655.67
549.84	43983.35
550.01	44175.27
550.18	43859.30
550.34	44025.48
550.51	43540.99
550.68	44231.44
550.84	43391.19
551.01	44158.89
551.18	43863.98
551.34	43728.23
551.51	44589.55
551.68	44018.46
551.84	44502.95
552.01	44123.78
552.18	44587.21
552.34	44046.54
552.51	44196.34
552.68	43791.42
552.84	44453.79
553.01	44423.37
553.18	44554.44
553.34	44327.41
553.51	44348.47
553.67	44535.71
553.84	44795.51
554.01	44435.07
554.17	44706.57
554.34	44304.00
554.51	44783.81
554.67	44797.85
554.84	44945.31
555.00	44432.73
555.17	44399.96
555.33	44498.26
555.50	44666.78
555.67	44779.13
555.83	44563.80
556.00	44638.70
556.16	44830.62
556.33	44502.95
556.50	44877.43
556.66	45123.19
556.83	44346.13
556.99	44912.54
557.16	45020.20
557.32	45336.18
557.49	45029.57
557.65	44830.62
557.82	44957.01
557.98	44779.13
558.15	44914.88
558.32	45354.90
558.48	44699.55
558.65	44854.03
558.81	44896.16
558.98	44982.76
559.14	44687.85
559.31	44879.77
559.47	45247.24
559.64	44992.12
559.80	44961.69
559.97	45272.98
560.13	45017.86
560.30	45059.99
560.46	45020.20
560.63	45287.03
560.79	45603.00
560.96	45883.86
561.12	44947.65
561.29	45057.65
561.45	45551.51
561.61	45198.09
561.78	45357.24
561.94	45031.91
562.11	45331.50
562.27	45099.78
562.44	45315.11
562.60	45893.22
562.77	45603.00
562.93	45425.12
563.10	45727.05
563.26	45310.43
563.42	45305.75
563.59	45001.48
563.75	45684.92
563.92	45961.10
564.08	45851.09
564.24	45464.91
564.41	45488.31
564.57	45652.15
564.74	45586.61
564.90	45647.47
565.07	45626.40
565.23	45626.40
565.39	45268.30
565.56	45720.02
565.72	45441.50
565.88	45626.40
566.05	45352.56
566.21	45118.51
566.38	45448.52
566.54	45394.69
566.70	45720.02
566.87	46068.76
567.03	45595.98
567.19	45900.25
567.36	46178.77
567.52	46071.10
567.68	45867.48
567.85	45813.65
568.01	46012.59
568.17	45886.20
568.34	45872.16
568.50	45441.50
568.66	45755.13
568.83	46040.68
568.99	45308.09
569.15	45743.43
569.32	45701.30
569.48	45380.65
569.64	45949.40
569.81	45663.85
569.97	45860.46
570.13	45804.28
570.30	45509.38
570.46	45673.21
570.62	45619.38
570.78	45523.42
570.95	45427.46
571.11	45860.46
571.27	45659.17
571.43	45755.13
571.60	45937.69
571.76	45825.35
571.92	45778.54
572.09	45766.84
572.25	45890.88
572.41	45956.42
572.57	45883.86
572.74	46351.97
572.90	46354.31
573.06	46153.02
573.22	45752.79
573.38	45893.22
573.55	45776.20
573.71	46211.54
573.87	45914.29
574.03	46066.42
574.20	45935.35
574.36	46082.81
574.52	46110.89
574.68	46014.93
574.84	45949.40
575.01	45862.80
575.17	45933.01
575.33	45350.22
575.49	45588.95
575.65	45865.14
575.82	46293.46
575.98	45823.01
576.14	45991.53
576.30	46043.02
576.46	46141.32
576.62	45956.42
576.79	46115.58
576.95	45745.77
577.11	45951.74
577.27	46124.94
577.43	46337.93
577.59	45797.26
577.75	45595.98
577.92	45584.27
578.08	45284.68
578.24	45640.45
578.40	46061.74
578.56	45942.38
578.72	46129.62
578.88	46461.97
579.04	46146.00
579.21	45773.86
579.37	45865.14
579.53	46019.61
579.69	46237.28
579.85	45694.28
580.01	46595.38
580.17	45635.77
580.33	45876.84
580.49	46195.15
580.65	45867.48
580.82	46136.64
580.98	45911.95
581.14	45947.06
581.30	46141.32
581.46	46106.21
581.62	46314.52
581.78	46197.49
581.94	46492.40
582.10	46429.21
582.26	46117.92
582.42	46216.22
582.58	45893.22
582.74	46120.26
582.90	46618.79
583.06	46717.09
583.22	45848.75
583.38	45979.82
583.54	46190.47
583.70	46501.76
583.86	46183.45
584.02	46342.61
584.18	46080.47
584.34	46003.23
584.50	45944.72
584.66	46323.88
584.82	45991.53
584.98	46110.89
585.14	46295.80
585.30	45872.16
585.46	46274.73
585.62	45654.49
585.78	46153.02
585.94	45890.88
586.10	46171.75
586.26	46073.45
586.42	46855.18
586.58	46057.06
586.74	45947.06
586.90	46270.05
587.06	45970.46
587.22	46087.49
587.38	46583.68
587.54	46141.32
587.70	46349.63
587.86	46136.64
588.02	46239.62
588.18	46382.40
588.34	45815.99
588.49	45851.09
588.65	45457.88
588.81	45684.92
588.97	46220.90
589.13	45907.27
589.29	45801.94
589.45	45918.97
589.61	45769.18
589.77	46263.03
589.93	46190.47
590.08	46375.37
