SpectraSuite Data File
++++++++++++++++++++++++++++++++++++
Date: Fri Oct 25 11:34:19 EDT 2013
User: price-jones
Dark Spectrum Present: No
Reference Spectrum Present: No
Number of Sampled Component Spectra: 1
Spectrometers: USB2+H05261
Integration Time (usec): 100000 (USB2+H05261)
Spectra Averaged: 1 (USB2+H05261)
Boxcar Smoothing: 0 (USB2+H05261)
Correct for Electrical Dark: No (USB2+H05261)
Strobe/Lamp Enabled: No (USB2+H05261)
Correct for Detector Non-linearity: No (USB2+H05261)
Correct for Stray Light: No (USB2+H05261)
Number of Pixels in Processed Spectrum: 2048
>>>>>Begin Processed Spectral Data<<<<<
365.73	229.37
365.92	229.37
366.12	229.37
366.32	159.16
366.52	189.58
366.72	154.48
366.91	138.09
367.11	95.96
367.31	198.95
367.51	156.82
367.70	152.13
367.90	177.88
368.10	159.16
368.30	212.99
368.49	168.52
368.69	177.88
368.89	198.95
369.09	173.20
369.28	114.69
369.48	266.82
369.68	292.57
369.87	231.71
370.07	308.95
370.27	266.82
370.47	348.74
370.66	463.43
370.86	540.66
371.06	479.81
371.25	650.67
371.45	468.11
371.65	608.54
371.84	559.39
372.04	545.34
372.24	599.18
372.44	613.22
372.63	521.94
372.83	564.07
373.03	599.18
373.22	568.75
373.42	685.78
373.62	615.56
373.81	603.86
374.01	631.94
374.21	568.75
374.40	582.79
374.60	617.90
374.79	582.79
374.99	641.31
375.19	723.23
375.38	589.82
375.58	709.18
375.78	631.94
375.97	690.46
376.17	702.16
376.37	692.80
376.56	678.76
376.76	645.99
376.95	688.12
377.15	739.61
377.35	746.63
377.54	746.63
377.74	587.47
377.93	704.50
378.13	660.03
378.33	753.65
378.52	720.88
378.72	692.80
378.91	765.36
379.11	716.20
379.31	753.65
379.50	697.48
379.70	793.44
379.89	767.70
380.09	716.20
380.28	695.14
380.48	734.93
380.68	791.10
380.87	716.20
381.07	706.84
381.26	716.20
381.46	746.63
381.65	786.42
381.85	748.97
382.04	723.23
382.24	695.14
382.43	765.36
382.63	774.72
382.83	793.44
383.02	774.72
383.22	774.72
383.41	816.85
383.61	793.44
383.80	805.14
384.00	795.78
384.19	795.78
384.39	753.65
384.58	786.42
384.78	828.55
384.97	863.66
385.17	753.65
385.36	725.57
385.56	809.83
385.75	781.74
385.95	821.53
386.14	828.55
386.34	823.87
386.53	835.57
386.72	840.25
386.92	894.08
387.11	884.72
387.31	861.32
387.50	919.83
387.70	830.89
387.89	798.12
388.09	858.98
388.28	891.74
388.48	821.53
388.67	896.43
388.86	933.87
389.06	870.68
389.25	947.92
389.45	936.21
389.64	873.02
389.84	915.15
390.03	1069.62
390.22	959.62
390.42	1006.43
390.61	896.43
390.81	901.11
391.00	915.15
391.19	945.58
391.39	1029.84
391.58	999.41
391.78	933.87
391.97	1036.86
392.16	940.90
392.36	1020.47
392.55	1029.84
392.75	1001.75
392.94	992.39
393.13	1046.22
393.33	999.41
393.52	1027.50
393.71	1128.14
393.91	1043.88
394.10	1053.24
394.29	1078.99
394.49	1064.94
394.68	1095.37
394.88	1064.94
395.07	1160.91
395.26	1153.88
395.46	1128.14
395.65	1130.48
395.84	1240.48
396.04	1128.14
396.23	1123.46
396.42	1203.04
396.62	1231.12
396.81	1200.69
397.00	1165.59
397.19	1172.61
397.39	1256.87
397.58	1163.25
397.77	1167.93
397.97	1231.12
398.16	1184.31
398.35	1224.10
398.55	1181.97
398.74	1322.40
398.93	1249.85
399.12	1277.93
399.32	1329.42
399.51	1261.55
399.70	1383.26
399.90	1324.74
400.09	1401.98
400.28	1366.87
400.47	1291.98
400.67	1394.96
400.86	1366.87
401.05	1352.83
401.24	1329.42
401.44	1404.32
401.63	1437.09
401.82	1423.05
402.01	1418.36
402.21	1430.07
402.40	1406.66
402.59	1390.28
402.78	1519.01
402.97	1537.73
403.17	1439.43
403.36	1511.99
403.55	1458.15
403.74	1547.09
403.93	1579.86
404.13	1565.82
404.32	1598.59
404.51	1523.69
404.70	1659.44
404.89	1511.99
405.09	1703.91
405.28	1563.48
405.47	1614.97
405.66	1708.59
405.85	1734.34
406.05	1650.08
406.24	1715.61
406.43	1692.21
406.62	1753.06
406.81	1820.94
407.00	1816.26
407.20	1680.50
407.39	1795.19
407.58	1710.93
407.77	1809.23
407.96	1806.89
408.15	1849.02
408.34	1865.41
408.54	1928.60
408.73	1842.00
408.92	1837.32
409.11	1884.13
409.30	1935.62
409.49	1959.03
409.68	1970.73
409.87	1935.62
410.07	1947.33
410.26	2003.50
410.45	2005.84
410.64	1954.35
410.83	2054.99
411.02	2104.14
411.21	2040.95
411.40	2090.10
411.59	2209.47
411.78	2157.97
411.98	1942.64
412.17	2200.10
412.36	2150.95
412.55	2223.51
412.74	2282.02
412.93	2223.51
413.12	2216.49
413.31	2420.11
413.50	2310.11
413.69	2277.34
413.88	2415.43
414.07	2502.03
414.26	2392.03
414.45	2401.39
414.64	2452.88
414.83	2462.24
415.02	2586.29
415.22	2520.76
415.41	2633.10
415.60	2541.82
415.79	2525.44
415.98	2626.08
416.17	2754.81
416.36	2609.70
416.55	2752.47
416.74	2640.12
416.93	2661.19
417.12	2846.09
417.31	2860.13
417.50	2782.90
417.69	2951.42
417.88	2841.41
418.07	2832.05
418.26	2813.32
418.45	2902.26
418.64	2939.71
418.83	2918.65
419.02	2839.07
419.21	3019.29
419.39	3082.49
419.58	3087.17
419.77	2932.69
419.96	3152.70
420.15	3007.59
420.34	3042.70
420.53	3138.66
420.72	3157.38
420.91	3115.25
421.10	3171.43
421.29	3236.96
421.48	3171.43
421.67	3136.32
421.86	3279.09
422.05	3234.62
422.24	3206.53
422.43	3211.22
422.61	3222.92
422.80	3454.63
422.99	3311.86
423.18	3281.43
423.37	3501.44
423.56	3370.37
423.75	3311.86
423.94	3248.66
424.13	3166.74
424.32	3227.60
424.50	3253.34
424.69	3435.91
424.88	3269.73
425.07	3349.31
425.26	3400.80
425.45	3442.93
425.64	3358.67
425.83	3424.20
426.01	3403.14
426.20	3349.31
426.39	3258.03
426.58	3323.56
426.77	3428.88
426.96	3487.40
427.15	3482.72
427.33	3485.06
427.52	3466.33
427.71	3571.66
427.90	3449.95
428.09	3623.15
428.28	3557.61
428.46	3522.51
428.65	3571.66
428.84	3578.68
429.03	3684.00
429.22	3557.61
429.40	3630.17
429.59	3611.45
429.78	3543.57
429.97	3459.31
430.16	3524.85
430.34	3684.00
430.53	3728.47
430.72	3831.46
430.91	3791.67
431.10	3700.39
431.28	3822.09
431.47	3770.60
431.66	3922.74
431.85	3775.28
432.03	3983.59
432.22	4037.42
432.41	3824.44
432.60	4042.11
432.79	3784.65
432.97	3985.93
433.16	3995.29
433.35	3995.29
433.54	3990.61
433.72	4121.68
433.91	4112.32
434.10	4046.79
434.28	3971.89
434.47	4173.18
434.66	4194.24
434.85	4058.49
435.03	4154.45
435.22	4241.05
435.41	4465.74
435.59	4112.32
435.78	4219.99
435.97	4269.14
436.16	4337.01
436.34	4404.89
436.53	4301.90
436.72	4423.61
436.90	4376.80
437.09	4400.21
437.28	4248.07
437.46	4418.93
437.65	4477.44
437.84	4360.42
438.02	4355.74
438.21	4498.51
438.40	4437.66
438.58	4528.94
438.77	4669.37
438.96	4603.83
439.14	4601.49
439.33	4718.52
439.52	4779.37
439.70	4791.08
439.89	4858.95
440.08	4849.59
440.26	4880.02
440.45	4809.80
440.63	4882.36
440.82	4929.17
441.01	4919.81
441.19	4865.97
441.38	5076.62
441.57	5107.05
441.75	5076.62
441.94	5263.86
442.12	5268.55
442.31	5231.10
442.50	5268.55
442.68	5294.29
442.87	5287.27
443.05	5493.24
443.24	5331.74
443.43	5355.15
443.61	5439.40
443.80	5397.28
443.98	5280.25
444.17	5172.58
444.35	5460.47
444.54	5413.66
444.73	5556.43
444.91	5280.25
445.10	5371.53
445.28	5455.79
445.47	5394.93
445.65	5582.18
445.84	5497.92
446.02	5575.16
446.21	5500.26
446.39	5593.88
446.58	5568.13
446.77	5427.70
446.95	5404.30
447.14	5385.57
447.32	5661.76
447.51	5596.22
447.69	5586.86
447.88	5636.01
448.06	5540.05
448.25	5455.79
448.43	5509.62
448.62	5572.82
448.80	5636.01
448.99	5582.18
449.17	5652.39
449.36	5750.70
449.54	5767.08
449.73	5809.21
449.91	5898.15
450.10	5874.74
450.28	5827.93
450.46	5930.92
450.65	5839.64
450.83	5935.60
451.02	5886.45
451.20	5891.13
451.39	6066.67
451.57	6015.18
451.76	5944.96
451.94	5905.17
452.13	6024.54
452.31	6181.35
452.49	5839.64
452.68	6040.92
452.86	6148.59
453.05	6153.27
453.23	6127.52
453.42	6083.05
453.60	6005.81
453.78	6221.14
453.97	6366.26
454.15	6157.95
454.34	6230.51
454.52	6384.98
454.70	6338.17
454.89	6307.74
455.07	6331.15
455.26	6389.66
455.44	6408.39
455.62	6485.62
455.81	6361.58
455.99	6462.22
456.17	6469.24
456.36	6530.09
456.54	6684.57
456.73	6813.30
456.91	6993.52
457.09	6773.51
457.28	6932.67
457.46	6707.98
457.64	6874.15
457.83	6902.24
458.01	6682.23
458.19	7019.27
458.38	6864.79
458.56	6984.16
458.74	7140.97
458.93	6932.67
459.11	7042.67
459.29	6977.14
459.48	6750.10
459.66	7012.24
459.84	7061.40
460.03	7194.81
460.21	7143.32
460.39	7077.78
460.57	7082.46
460.76	7227.57
460.94	7438.22
461.12	7241.62
461.31	7321.20
461.49	7360.98
461.67	7295.45
461.85	7637.17
462.04	7215.87
462.22	7765.90
462.40	7447.58
462.59	7576.31
462.77	7433.54
462.95	7527.16
463.13	7431.20
463.32	7566.95
463.50	7630.15
463.68	7644.19
463.86	7786.96
464.05	7569.29
464.23	7609.08
464.41	7630.15
464.59	7452.27
464.78	7843.14
464.96	7709.72
465.14	7669.94
465.32	7845.48
465.50	7918.03
465.69	8011.65
465.87	7913.35
466.05	7873.56
466.23	8070.17
466.41	7882.92
466.60	8063.15
466.78	7953.14
466.96	7791.64
467.14	7878.24
467.32	8102.93
467.51	8098.25
467.69	8046.76
467.87	8018.68
468.05	7985.91
468.23	8100.59
468.41	8159.11
468.60	7969.52
468.78	8304.22
468.96	8184.85
469.14	8346.35
469.32	8470.40
469.50	8063.15
469.69	8163.79
469.87	8634.24
470.05	8446.99
470.23	8571.04
470.41	8531.25
470.59	8503.17
470.77	8617.85
470.95	8503.17
471.14	8753.60
471.32	8404.86
471.50	8959.57
471.68	8667.00
471.86	8807.44
472.04	8786.37
472.22	8978.30
472.40	8842.54
472.58	8936.17
472.77	8987.66
472.95	9092.98
473.13	9411.29
473.31	9060.21
473.49	9034.47
473.67	8987.66
473.85	9053.19
474.03	9247.46
474.21	9280.22
474.39	9451.08
474.57	9444.06
474.75	9579.81
474.93	9483.85
475.12	9514.28
475.30	9570.45
475.48	9535.34
475.66	9734.29
475.84	9654.71
476.02	9743.65
476.20	9844.29
476.38	9961.32
476.56	10256.23
476.74	10230.48
476.92	10132.18
477.10	10036.22
477.28	10441.13
477.46	10296.02
477.64	10359.21
477.82	10534.75
478.00	10717.31
478.18	10637.73
478.36	10930.30
478.54	10869.45
478.72	11101.16
478.90	10965.41
479.08	11323.51
479.26	11461.60
479.44	11339.90
479.62	11363.30
479.80	11587.99
479.98	11494.37
480.16	11786.94
480.34	11702.68
480.52	11763.53
480.70	11777.58
480.88	11662.89
481.06	11864.18
481.24	11892.26
481.41	12091.21
481.59	12145.04
481.77	12369.73
481.95	12428.24
482.13	12592.08
482.31	12561.66
482.49	12863.58
482.67	12826.14
482.85	13020.40
483.03	13041.46
483.21	13214.66
483.39	13291.90
483.57	13226.37
483.74	13589.15
483.92	13364.46
484.10	13437.02
484.28	13741.29
484.46	13865.33
484.64	14047.90
484.82	14120.45
485.00	14211.73
485.18	14256.20
485.35	14733.67
485.53	14579.20
485.71	14438.76
485.89	14876.44
486.07	14644.73
486.25	14782.82
486.43	15124.54
486.61	14787.50
486.78	15117.52
486.96	15424.13
487.14	15566.90
487.32	15620.74
487.50	15419.45
487.68	15885.22
487.85	16250.34
488.03	16039.69
488.21	16505.46
488.39	16383.75
488.57	16849.52
488.75	16760.58
488.92	16648.23
489.10	16826.11
489.28	16865.90
489.46	17053.14
489.64	17130.38
489.81	17537.63
489.99	17661.68
490.17	17727.22
490.35	17940.21
490.53	17928.50
490.70	17743.60
490.88	18017.44
491.06	18162.56
491.24	18293.63
491.41	18347.46
491.59	18370.86
491.77	18373.21
491.95	18750.03
492.13	18743.01
492.30	19157.28
492.48	18876.42
492.66	18824.93
492.84	19105.79
493.01	19634.75
493.19	19410.06
493.37	19721.35
493.54	19733.06
493.72	19967.11
493.90	19782.21
494.08	20144.99
494.25	20311.17
494.43	20086.48
494.61	20472.67
494.79	20592.03
494.96	20493.73
495.14	20786.30
495.32	20994.61
495.49	21303.56
495.67	21104.61
495.85	20992.26
496.02	21312.92
496.20	21834.86
496.38	21607.83
496.55	21455.69
496.73	22134.45
496.91	21752.94
497.09	22127.42
497.26	22195.30
497.44	22302.96
497.62	22441.06
497.79	22658.73
497.97	22363.82
498.14	22764.05
498.32	22665.75
498.50	23023.85
498.67	23346.84
498.85	23047.26
499.03	23241.52
499.20	23461.53
499.38	23407.70
499.56	23316.42
499.73	23541.11
499.91	23744.73
500.08	23953.04
500.26	23948.36
500.44	23894.53
500.61	23906.23
500.79	23936.66
500.97	24123.90
501.14	24360.30
501.32	24748.82
501.49	24299.44
501.67	24816.70
501.84	24870.53
502.02	24411.79
502.20	24542.86
502.37	24903.30
502.55	24812.02
502.72	25137.35
502.90	24931.39
503.07	24678.61
503.25	24989.90
503.43	24992.24
503.60	25565.67
503.78	25593.76
503.95	25392.47
504.13	25853.56
504.30	25640.57
504.48	25867.60
504.65	25420.56
504.83	25766.96
505.01	26031.44
505.18	26141.44
505.36	26501.89
505.53	26377.84
505.71	26415.29
505.88	26567.42
506.06	26370.82
506.23	26555.72
506.41	26513.59
506.58	26668.06
506.76	26565.08
506.93	27367.88
507.11	26859.99
507.28	27447.46
507.46	27274.26
507.63	27278.94
507.81	27316.39
507.98	26749.98
508.16	27747.05
508.33	27360.86
508.50	27721.30
508.68	27976.42
508.85	28271.33
509.03	27941.32
509.20	28032.60
509.38	28315.80
509.55	28500.70
509.73	28423.47
509.90	28163.67
510.08	28376.66
510.25	28676.24
510.42	28287.71
510.60	28814.34
510.77	28849.44
510.95	29001.58
511.12	28594.32
511.30	28863.49
511.47	28971.15
511.64	29102.22
511.82	29237.97
511.99	28760.50
512.17	29298.83
512.34	29567.99
512.51	29785.66
512.69	29713.10
512.86	29759.91
513.04	29869.92
513.21	30115.67
513.38	29975.24
513.56	29827.79
513.73	29890.98
513.90	30188.23
514.08	30363.77
514.25	30352.07
514.43	30597.82
514.60	30527.61
514.77	30588.46
514.95	30742.94
515.12	30520.59
515.29	30536.97
515.47	31110.40
515.64	30965.29
515.81	30490.16
515.99	31316.37
516.16	31344.45
516.33	31264.88
516.51	31353.82
516.68	31211.04
516.85	31566.81
517.03	31662.77
517.20	31349.14
517.37	31709.58
517.54	31936.61
517.72	31576.17
517.89	31768.09
518.06	31899.16
518.24	31864.05
518.41	31810.22
518.58	31702.56
518.75	31859.37
518.93	31821.92
519.10	32177.68
519.27	32189.39
519.45	32170.66
519.62	32833.04
519.79	32603.66
519.96	32910.27
520.14	32444.51
520.31	32198.75
520.48	32779.20
520.65	32795.59
520.83	32737.07
521.00	33462.64
521.17	33221.56
521.34	32994.53
521.52	33301.14
521.69	33371.36
521.86	33549.24
522.03	33472.00
522.20	33790.31
522.38	33900.32
522.55	33886.28
522.72	33846.49
522.89	34132.03
523.07	33837.12
523.24	34183.52
523.41	33682.65
523.58	33949.47
523.75	34403.53
523.92	33699.03
524.10	33954.15
524.27	34527.58
524.44	34333.32
524.61	34600.14
524.78	34609.50
524.96	34677.38
525.13	35016.75
525.30	35007.39
525.47	34742.91
525.64	35079.95
525.81	35262.51
525.98	35241.45
526.16	34937.18
526.33	34843.56
526.50	35192.30
526.67	35108.04
526.84	35351.45
527.01	35344.43
527.18	35599.55
527.36	35419.33
527.53	35835.94
527.70	36165.96
527.87	36067.66
528.04	35796.15
528.21	35807.86
528.38	35817.22
528.55	35770.41
528.72	35730.62
528.89	35737.64
529.07	35810.20
529.24	36109.78
529.41	36243.20
529.58	36032.55
529.75	36107.44
529.92	36360.22
530.09	36622.36
530.26	36371.92
530.43	36503.00
530.60	36095.74
530.77	36397.67
530.94	36297.03
531.11	36765.14
531.28	36821.31
531.46	36739.39
531.63	36641.09
531.80	36898.55
531.97	37043.66
532.14	36779.18
532.31	36849.39
532.48	37212.18
532.65	37057.70
532.82	37184.09
532.99	37151.32
533.16	36896.20
533.33	37467.30
533.50	37408.78
533.67	37338.57
533.84	37221.54
534.01	37467.30
534.18	37446.23
534.35	38162.43
534.52	37717.73
534.69	38169.46
534.86	38410.53
535.03	37626.45
535.20	37427.51
535.37	37809.01
535.54	38410.53
535.71	38305.21
535.88	38319.25
536.05	37881.57
536.22	38478.41
536.38	37839.44
536.55	38326.27
536.72	38059.45
536.89	37954.13
537.06	38459.68
537.23	38649.27
537.40	38487.77
537.57	38237.33
537.74	38099.24
537.91	39079.92
538.08	38593.09
538.25	38384.79
538.42	38944.17
538.59	39072.90
538.75	38946.51
538.92	39098.65
539.09	39063.54
539.26	38749.91
539.43	39016.73
539.60	38946.51
539.77	39239.08
539.94	39416.96
540.11	39487.18
540.28	39201.63
540.44	39466.11
540.61	39569.10
540.78	39295.25
540.95	39519.95
541.12	39498.88
541.29	39395.90
541.46	39349.09
541.62	39889.75
541.79	39983.37
541.96	39058.86
542.13	39739.96
542.30	39648.68
542.47	39854.64
542.63	40158.91
542.80	40130.83
542.97	40561.48
543.14	40500.63
543.31	39995.07
543.48	40282.96
543.64	40905.54
543.81	40261.90
543.98	40573.19
544.15	40175.30
544.32	40982.78
544.48	40882.14
544.65	40914.90
544.82	40676.17
544.99	40432.75
545.16	40788.52
545.32	40921.93
545.49	41542.17
545.66	41296.41
545.83	41340.88
546.00	41280.03
546.16	41034.27
546.33	41390.03
546.50	41031.93
546.67	41528.13
546.83	40758.09
547.00	40914.90
547.17	41289.39
547.34	41338.54
547.50	41830.05
547.67	41406.42
547.84	41603.02
548.00	41907.29
548.17	41806.65
548.34	42054.75
548.51	42230.29
548.67	41890.91
548.84	41703.67
549.01	41703.67
549.18	41762.18
549.34	42129.64
549.51	42244.33
549.68	41820.69
549.84	41659.20
550.01	42614.13
550.18	41916.65
550.34	42366.04
550.51	42153.05
550.68	42403.49
550.84	41883.89
551.01	42103.90
551.18	41858.14
551.34	41881.55
551.51	42019.64
551.68	42136.66
551.84	42117.94
552.01	42150.71
552.18	42445.62
552.34	42270.08
552.51	42298.16
552.68	42368.38
552.84	42499.45
553.01	42639.88
553.18	42436.25
553.34	42763.93
553.51	42459.66
553.67	43014.37
553.84	43026.07
554.01	42677.33
554.17	42822.44
554.34	43133.73
554.51	42815.42
554.67	43093.94
554.84	43328.00
555.00	42995.64
555.17	42579.03
555.33	43168.84
555.50	42934.79
555.67	43157.14
555.83	43370.13
556.00	43292.89
556.16	43700.14
556.33	43681.42
556.50	43217.99
556.66	43316.29
556.83	43299.91
556.99	43461.41
557.16	43868.66
557.32	43536.30
557.49	43746.95
557.65	43515.24
557.82	43377.15
557.98	43494.18
558.15	43564.39
558.32	43590.14
558.48	43531.62
558.65	44156.55
558.81	43562.05
558.98	43559.71
559.14	43505.88
559.31	43739.93
559.47	43281.19
559.64	43627.59
559.80	43938.88
559.97	43744.61
560.13	43337.36
560.30	43995.05
560.46	44081.65
560.63	44088.67
560.79	44032.50
560.96	43922.49
561.12	44542.74
561.29	44067.61
561.45	44390.60
561.61	44601.25
561.78	44030.16
561.94	44051.22
562.11	44210.38
562.27	44123.78
562.44	44184.63
562.60	44182.29
562.77	44151.87
562.93	44259.53
563.10	44376.56
563.26	44184.63
563.42	44779.13
563.59	44423.37
563.75	44542.74
563.92	44081.65
564.08	44524.01
564.24	44638.70
564.41	44126.12
564.57	44573.16
564.74	44582.52
564.90	44301.66
565.07	44149.53
565.23	44336.77
565.39	44493.58
565.56	44678.49
565.72	44734.66
565.88	44790.83
566.05	44589.55
566.21	44491.24
566.38	44964.03
566.54	44821.26
566.70	44989.78
566.87	44919.56
567.03	44835.30
567.19	45017.86
567.36	44793.17
567.52	44619.97
567.68	44966.37
567.85	44952.33
568.01	45038.93
568.17	45141.91
568.34	44985.10
568.50	44748.70
568.66	44662.10
568.83	45151.27
568.99	44898.50
569.15	44863.39
569.32	44959.35
569.48	45186.38
569.64	45078.72
569.81	45029.57
569.97	45298.73
570.13	45296.39
570.30	44863.39
570.46	44975.73
570.62	45083.40
570.78	45071.70
570.95	45153.62
571.11	45050.63
571.27	45099.78
571.43	44622.31
571.60	45586.61
571.76	44793.17
571.92	45127.87
572.09	44851.69
572.25	45420.44
572.41	44762.75
572.57	45120.85
572.74	45787.90
572.90	45097.44
573.06	45347.88
573.22	45401.71
573.38	45607.68
573.55	45221.49
573.71	45717.68
573.87	45361.92
574.03	45652.15
574.20	45244.90
574.36	45806.62
574.52	45869.82
574.68	45436.82
574.84	45804.28
575.01	45345.54
575.17	45219.15
575.33	45612.36
575.49	45069.36
575.65	45881.52
575.82	45331.50
575.98	45642.79
576.14	45897.91
576.30	45865.14
576.46	45818.33
576.62	45200.43
576.79	45825.35
576.95	45310.43
577.11	45404.05
577.27	45221.49
577.43	45305.75
577.59	45642.79
577.75	45610.02
577.92	45359.58
578.08	45382.99
578.24	45930.67
578.40	45617.04
578.56	45684.92
578.72	45434.48
578.88	45872.16
579.04	45663.85
579.21	45544.48
579.37	45748.11
579.53	45727.05
579.69	45378.31
579.85	45322.13
580.01	45600.66
580.17	44961.69
580.33	45532.78
580.49	45427.46
580.65	45743.43
580.82	45645.13
580.98	44980.42
581.14	45057.65
581.30	45762.15
581.46	45528.10
581.62	45558.53
581.78	45474.27
581.94	45584.27
582.10	45361.92
582.26	46190.47
582.42	45464.91
582.58	45598.32
582.74	46263.03
582.90	45947.06
583.06	46265.37
583.22	45530.44
583.38	45694.28
583.54	45837.05
583.70	46113.23
583.86	45996.21
584.02	45600.66
584.18	46061.74
584.34	45794.92
584.50	46141.32
584.66	45865.14
584.82	45787.90
584.98	46206.86
585.14	45755.13
585.30	45750.45
585.46	46012.59
585.62	45823.01
585.78	46134.30
585.94	45698.96
586.10	45577.25
586.26	45724.71
586.42	45591.30
586.58	45776.20
586.74	45495.33
586.90	45792.58
587.06	45914.29
587.22	46146.00
587.38	45804.28
587.54	46010.25
587.70	45514.06
587.86	45933.01
588.02	46199.83
588.18	46239.62
588.34	45755.13
588.49	46057.06
588.65	45350.22
588.81	45729.39
588.97	46108.55
589.13	46319.20
589.29	46389.42
589.45	46389.42
589.61	46122.60
589.77	46471.34
589.93	45656.83
590.08	46073.45
