SpectraSuite Data File
++++++++++++++++++++++++++++++++++++
Date: Fri Oct 25 11:25:50 EDT 2013
User: price-jones
Dark Spectrum Present: No
Reference Spectrum Present: No
Number of Sampled Component Spectra: 1
Spectrometers: USB2+H05261
Integration Time (usec): 100000 (USB2+H05261)
Spectra Averaged: 1 (USB2+H05261)
Boxcar Smoothing: 0 (USB2+H05261)
Correct for Electrical Dark: No (USB2+H05261)
Strobe/Lamp Enabled: No (USB2+H05261)
Correct for Detector Non-linearity: No (USB2+H05261)
Correct for Stray Light: No (USB2+H05261)
Number of Pixels in Processed Spectrum: 2048
>>>>>Begin Processed Spectral Data<<<<<
365.73	236.39
365.92	236.39
366.12	236.39
366.32	149.79
366.52	121.71
366.72	93.62
366.91	93.62
367.11	131.07
367.31	138.09
367.51	117.03
367.70	102.98
367.90	121.71
368.10	112.35
368.30	145.11
368.49	177.88
368.69	194.26
368.89	163.84
369.09	149.79
369.28	180.22
369.48	154.48
369.68	210.65
369.87	241.08
370.07	241.08
370.27	259.80
370.47	283.20
370.66	678.76
370.86	716.20
371.06	676.41
371.25	657.69
371.45	631.94
371.65	706.84
371.84	725.57
372.04	706.84
372.24	685.78
372.44	683.44
372.63	744.29
372.83	723.23
373.03	741.95
373.22	847.27
373.42	779.40
373.62	786.42
373.81	748.97
374.01	844.93
374.21	819.19
374.40	889.40
374.60	847.27
374.79	875.36
374.99	781.74
375.19	795.78
375.38	833.23
375.58	884.72
375.78	805.14
375.97	812.17
376.17	922.17
376.37	812.17
376.56	912.81
376.76	816.85
376.95	908.13
377.15	882.38
377.35	898.77
377.54	912.81
377.74	959.62
377.93	992.39
378.13	898.77
378.33	971.32
378.52	940.90
378.72	980.68
378.91	870.68
379.11	922.17
379.31	858.98
379.50	957.28
379.70	1004.09
379.89	947.92
380.09	1001.75
380.28	896.43
380.48	1001.75
380.68	957.28
380.87	1006.43
381.07	973.66
381.26	985.37
381.46	1001.75
381.65	1055.58
381.85	1090.69
382.04	1095.37
382.24	1074.31
382.43	1032.18
382.63	1029.84
382.83	1076.65
383.02	1060.26
383.22	1088.35
383.41	1151.54
383.61	1090.69
383.80	1048.56
384.00	1121.12
384.19	1018.13
384.39	1102.39
384.58	1167.93
384.78	1184.31
384.97	1139.84
385.17	1128.14
385.36	1165.59
385.56	1181.97
385.75	1097.71
385.95	1153.88
386.14	1224.10
386.34	1125.80
386.53	1191.33
386.72	1128.14
386.92	1226.44
387.11	1219.42
387.31	1233.46
387.50	1137.50
387.70	1142.18
387.89	1221.76
388.09	1313.04
388.28	1296.66
388.48	1214.74
388.67	1313.04
388.86	1268.57
389.06	1294.32
389.25	1373.89
389.45	1217.08
389.64	1378.58
389.84	1270.91
390.03	1317.72
390.22	1357.51
390.42	1437.09
390.61	1357.51
390.81	1329.42
391.00	1376.24
391.19	1352.83
391.39	1535.39
391.58	1502.62
391.78	1420.71
391.97	1556.46
392.16	1483.90
392.36	1582.20
392.55	1455.81
392.75	1511.99
392.94	1561.14
393.13	1490.92
393.33	1523.69
393.52	1565.82
393.71	1593.90
393.91	1643.06
394.10	1549.43
394.29	1593.90
394.49	1661.78
394.68	1645.40
394.88	1673.48
395.07	1619.65
395.26	1736.68
395.46	1640.72
395.65	1832.64
395.84	1699.23
396.04	1708.59
396.23	1703.91
396.42	1732.00
396.62	1720.29
396.81	1776.47
397.00	1778.81
397.19	1778.81
397.39	1778.81
397.58	1870.09
397.77	1760.08
397.97	1839.66
398.16	1788.17
398.35	1886.47
398.55	1874.77
398.74	1923.92
398.93	1966.05
399.12	1959.03
399.32	1907.54
399.51	1907.54
399.70	2017.54
399.90	2017.54
400.09	2015.20
400.28	2045.63
400.47	1949.67
400.67	2024.56
400.86	2036.27
401.05	2092.44
401.24	2139.25
401.44	2218.83
401.63	2188.40
401.82	2143.93
402.01	2108.82
402.21	2155.63
402.40	2169.68
402.59	2209.47
402.78	2211.81
402.97	2134.57
403.17	2242.23
403.36	2197.76
403.55	2265.64
403.74	2338.20
403.93	2387.35
404.13	2340.54
404.32	2312.45
404.51	2441.18
404.70	2450.54
404.89	2441.18
405.09	2506.71
405.28	2520.76
405.47	2422.45
405.66	2480.97
405.85	2443.52
406.05	2469.27
406.24	2588.63
406.43	2600.34
406.62	2476.29
406.81	2712.68
407.00	2672.89
407.20	2637.78
407.39	2630.76
407.58	2700.98
407.77	2724.38
407.96	2808.64
408.15	2822.69
408.34	2703.32
408.54	2743.11
408.73	2888.22
408.92	2775.88
409.11	2909.29
409.30	2850.77
409.49	2892.90
409.68	2906.95
409.87	2885.88
410.07	2974.82
410.26	2923.33
410.45	3035.67
410.64	3063.76
410.83	3169.09
411.02	3103.55
411.21	3246.32
411.40	3136.32
411.59	3311.86
411.78	3176.11
411.98	3105.89
412.17	3089.51
412.36	3267.39
412.55	3318.88
412.74	3325.90
412.93	3372.71
413.12	3342.28
413.31	3468.67
413.50	3466.33
413.69	3492.08
413.88	3662.94
414.07	3625.49
414.26	3604.42
414.45	3684.00
414.64	3665.28
414.83	3786.99
415.02	3782.31
415.22	3805.71
415.41	3728.47
415.60	3920.40
415.79	3943.80
415.98	3932.10
416.17	3936.78
416.36	3950.82
416.55	3875.93
416.74	3976.57
416.93	3927.42
417.12	4084.23
417.31	4039.76
417.50	4175.52
417.69	4322.97
417.88	4276.16
418.07	4086.58
418.26	4229.35
418.45	4205.94
418.64	4440.00
418.83	4273.82
419.02	4262.12
419.21	4411.91
419.39	4486.81
419.58	4404.89
419.77	4372.12
419.96	4461.06
420.15	4498.51
420.34	4482.13
420.53	4564.04
420.72	4695.11
420.91	4589.79
421.10	4526.60
421.29	4858.95
421.48	4571.07
421.67	4760.65
421.86	4667.03
422.05	4807.46
422.24	4716.18
422.43	4877.68
422.61	4884.70
422.80	4929.17
422.99	4774.69
423.18	5053.22
423.37	4917.47
423.56	4814.48
423.75	4795.76
423.94	4856.61
424.13	4638.94
424.32	4821.50
424.50	4954.91
424.69	5032.15
424.88	5165.56
425.07	4971.30
425.26	4758.31
425.45	4971.30
425.64	4933.85
425.83	4933.85
426.01	5006.41
426.20	5025.13
426.39	5090.67
426.58	4947.89
426.77	4971.30
426.96	5093.01
427.15	5121.09
427.33	5039.17
427.52	5088.32
427.71	5247.48
427.90	5259.18
428.09	5289.61
428.28	5364.51
428.46	5444.09
428.65	5198.33
428.84	5458.13
429.03	5369.19
429.22	5418.34
429.40	5589.20
429.59	5483.88
429.78	5256.84
429.97	5369.19
430.16	5516.64
430.34	5582.18
430.53	5738.99
430.72	5556.43
430.91	5736.65
431.10	5575.16
431.28	5783.46
431.47	5722.61
431.66	5799.85
431.85	5652.39
432.03	5987.09
432.22	5905.17
432.41	5720.27
432.60	5837.30
432.79	5891.13
432.97	5909.85
433.16	6118.16
433.35	6104.12
433.54	6043.26
433.72	6087.73
433.91	6118.16
434.10	5987.09
434.28	6005.81
434.47	6286.68
434.66	6181.35
434.85	6216.46
435.03	6293.70
435.22	6157.95
435.41	6602.65
435.59	6349.87
435.78	6349.87
435.97	6441.15
436.16	6282.00
436.34	6342.85
436.53	6328.81
436.72	6626.06
436.90	6494.99
437.09	6712.66
437.28	6406.05
437.46	6597.97
437.65	6738.40
437.84	6705.63
438.02	6757.13
438.21	6846.07
438.40	6593.29
438.58	6949.05
438.77	6974.80
438.96	6920.96
439.14	7197.15
439.33	7098.84
439.52	7084.80
439.70	7045.01
439.89	7286.09
440.08	7222.89
440.26	7351.62
440.45	7318.86
440.63	7414.82
440.82	7534.18
441.01	7545.89
441.19	7597.38
441.38	7728.45
441.57	7641.85
441.75	7903.99
441.94	7903.99
442.12	8044.42
442.31	7995.27
442.50	7976.55
442.68	7911.01
442.87	7911.01
443.05	7981.23
443.24	8311.24
443.43	8231.66
443.61	8170.81
443.80	8322.94
443.98	7847.82
444.17	7981.23
444.35	8430.61
444.54	8173.15
444.73	8140.38
444.91	8400.18
445.10	8299.54
445.28	8109.96
445.47	8191.88
445.65	8159.11
445.84	8432.95
446.02	8458.70
446.21	8280.82
446.39	8461.04
446.58	8517.21
446.77	8451.67
446.95	8397.84
447.14	8379.12
447.32	8446.99
447.51	8280.82
447.69	8510.19
447.88	8329.97
448.06	8402.52
448.25	8568.70
448.43	8702.11
448.62	8599.13
448.80	8559.34
448.99	8620.19
449.17	8805.10
449.36	8615.51
449.54	8816.80
449.73	8910.42
449.91	8957.23
450.10	8912.76
450.28	8802.75
450.46	9001.70
450.65	8926.80
450.83	9097.66
451.02	9032.13
451.20	9200.65
451.39	9228.73
451.57	9156.18
451.76	9029.79
451.94	9158.52
452.13	9399.59
452.31	9334.06
452.49	9135.11
452.68	9444.06
452.86	9277.88
453.05	9341.08
453.23	9291.93
453.42	9289.59
453.60	9413.63
453.78	9628.96
453.97	9488.53
454.15	9406.61
454.34	9518.96
454.52	9769.40
454.70	9628.96
454.89	9664.07
455.07	9664.07
455.26	9612.58
455.44	10008.13
455.62	9724.93
455.81	10047.92
455.99	10031.54
456.17	10106.43
456.36	10118.14
456.54	10073.67
456.73	10174.31
456.91	10525.39
457.09	10319.42
457.28	10677.52
457.46	10221.12
457.64	10644.76
457.83	10370.91
458.01	10349.85
458.19	10541.77
458.38	10572.20
458.56	10509.01
458.74	10387.30
458.93	10658.80
459.11	10637.73
459.29	10630.71
459.48	10829.66
459.66	10703.27
459.84	10963.07
460.03	10817.96
460.21	10932.64
460.39	10806.25
460.57	10995.84
460.76	11084.78
460.94	11213.51
461.12	11136.27
461.31	11042.65
461.49	11091.80
461.67	11194.78
461.85	11400.75
462.04	11342.24
462.22	11536.50
462.40	11662.89
462.59	11527.14
462.77	11342.24
462.95	11405.43
463.13	11602.04
463.32	11723.74
463.50	11571.61
463.68	11676.93
463.86	11772.89
464.05	11602.04
464.23	11690.98
464.41	11857.15
464.59	11744.81
464.78	12086.53
464.96	11850.13
465.14	11740.13
465.32	11894.60
465.50	12170.79
465.69	12058.44
465.87	12135.68
466.05	12304.20
466.23	11761.19
466.41	12170.79
466.60	12397.82
466.78	11957.80
466.96	12035.03
467.14	12098.23
467.32	12360.37
467.51	12498.46
467.69	12278.45
467.87	12650.60
468.05	12535.91
468.23	12276.11
468.41	12624.85
468.60	12849.54
468.78	12631.87
468.96	12634.21
469.14	12854.22
469.32	12863.58
469.50	12367.39
469.69	12975.93
469.87	13259.13
470.05	13032.10
470.23	13158.49
470.41	13280.20
470.59	13212.32
470.77	13107.00
470.95	13303.60
471.14	13345.73
471.32	12879.97
471.50	13781.07
471.68	13420.63
471.86	13731.92
472.04	13495.53
472.22	13783.41
472.40	13537.66
472.58	13635.96
472.77	14200.03
472.95	14185.99
473.13	14508.98
473.31	13933.21
473.49	14115.77
473.67	14162.58
473.85	14284.29
474.03	14675.16
474.21	14604.94
474.39	14595.58
474.57	14574.52
474.75	14930.28
474.93	15059.01
475.12	15070.71
475.30	15096.46
475.48	14878.79
475.66	15166.67
475.84	15192.42
476.02	15213.48
476.20	15625.42
476.38	15576.27
476.56	15906.28
476.74	15910.96
476.92	15840.75
477.10	15662.86
477.28	15847.77
477.46	16077.14
477.64	16257.36
477.82	16531.20
478.00	16868.24
478.18	16727.81
478.36	16786.32
478.54	16884.62
478.72	16982.93
478.90	17364.43
479.08	17296.56
479.26	17734.24
479.44	17610.19
479.62	17839.56
479.80	17994.04
479.98	17893.40
480.16	18754.71
480.34	17994.04
480.52	18703.22
480.70	18466.83
480.88	18305.33
481.06	18920.89
481.24	18735.99
481.41	19204.10
481.59	19482.62
481.77	19482.62
481.95	19548.15
482.13	19599.65
482.31	19695.61
482.49	20229.25
482.67	20390.75
482.85	20526.50
483.03	20652.89
483.21	20634.16
483.39	20879.92
483.57	20865.88
483.74	21069.50
483.92	21319.94
484.10	20978.22
484.28	21572.72
484.46	21886.35
484.64	22541.70
484.82	22087.64
485.00	22059.55
485.18	22527.66
485.35	22787.46
485.53	22665.75
485.71	23005.13
485.89	23274.29
486.07	23211.09
486.25	23257.90
486.43	23669.84
486.61	23641.75
486.78	24084.11
486.96	24023.26
487.14	24292.42
487.32	24732.44
487.50	24865.85
487.68	24762.87
487.85	25235.66
488.03	25067.14
488.21	25771.64
488.39	25724.83
488.57	25825.47
488.75	26321.66
488.92	26366.13
489.10	26511.25
489.28	26483.16
489.46	26995.74
489.64	26829.56
489.81	27571.51
489.99	27307.03
490.17	27543.42
490.35	27915.57
490.53	27936.63
490.70	28301.76
490.88	28229.20
491.06	28446.87
491.24	28367.29
491.41	28926.68
491.59	29317.55
491.77	29605.44
491.95	29577.35
492.13	29759.91
492.30	30092.27
492.48	29612.46
492.66	30089.93
492.84	30185.89
493.01	30618.89
493.19	30782.73
493.37	30771.02
493.54	31105.72
493.72	31732.98
493.90	31283.60
494.08	31541.06
494.25	31878.10
494.43	31566.81
494.61	32449.19
494.79	32191.73
494.96	32226.84
495.14	32486.64
495.32	32933.68
495.49	32847.08
495.67	33401.79
495.85	33336.25
496.02	33696.69
496.20	34096.92
496.38	33809.04
496.55	34157.78
496.73	34862.28
496.91	34291.19
497.09	34298.21
497.26	35075.27
497.44	34370.77
497.62	35136.12
497.79	35534.01
497.97	35414.65
498.14	35798.49
498.32	35913.18
498.50	36041.91
498.67	36385.97
498.85	36243.20
499.03	36285.33
499.20	36577.89
499.38	36992.17
499.56	37090.47
499.73	36926.63
499.91	37064.72
500.08	37701.35
500.26	37385.38
500.44	37542.19
500.61	37619.43
500.79	37544.53
500.97	38171.80
501.14	38426.92
501.32	38139.03
501.49	38483.09
501.67	38705.44
501.84	38782.68
502.02	39168.87
502.20	38937.15
502.37	39112.69
502.55	39129.08
502.72	39091.63
502.90	39374.83
503.07	39576.12
503.25	39433.35
503.43	39824.22
503.60	40086.36
503.78	40498.29
503.95	40603.61
504.13	40318.07
504.30	40341.47
504.48	40428.07
504.65	40418.71
504.83	40814.26
505.01	41198.11
505.18	41134.92
505.36	41366.63
505.53	41184.07
505.71	41720.05
505.88	41647.49
506.06	41713.03
506.23	41930.70
506.41	41773.88
506.58	41876.86
506.76	42103.90
506.93	42817.76
507.11	42190.50
507.28	42384.76
507.46	42602.43
507.63	43047.13
507.81	42850.53
507.98	42616.47
508.16	43295.23
508.33	43028.41
508.50	42862.23
508.68	43311.61
508.85	43641.63
509.03	43679.08
509.20	43533.96
509.38	44320.38
509.55	44203.36
509.73	44332.09
509.90	44280.60
510.08	44449.11
510.25	44257.19
510.42	44507.63
510.60	44795.51
510.77	44774.45
510.95	45343.20
511.12	44957.01
511.30	45017.86
511.47	45324.47
511.64	45303.41
511.82	45993.87
511.99	45382.99
512.17	46153.02
512.34	45439.16
512.51	45881.52
512.69	46155.36
512.86	46146.00
513.04	46880.93
513.21	46286.43
513.38	46883.27
513.56	46560.28
513.73	46836.46
513.90	46752.20
514.08	47447.34
514.25	47114.98
514.43	47557.35
514.60	46967.53
514.77	47269.46
514.95	47634.58
515.12	47367.76
515.29	47555.00
515.47	47924.81
515.64	48303.98
515.81	47721.18
515.99	47906.08
516.16	48315.68
516.33	48460.79
516.51	48498.24
516.68	48282.91
516.85	48168.22
517.03	48222.06
517.20	48910.17
517.37	48795.49
517.54	48776.76
517.72	48872.73
517.89	48999.12
518.06	48842.30
518.24	49106.78
518.41	49228.49
518.58	49212.10
518.75	49137.21
518.93	49635.74
519.10	49022.52
519.27	49389.98
519.45	49387.64
519.62	49944.69
519.79	49822.98
519.96	49895.54
520.14	50073.42
520.31	49818.30
520.48	50213.85
520.65	50340.24
520.83	50581.32
521.00	50590.68
521.17	50525.14
521.34	50632.81
521.52	50497.06
521.69	50616.43
521.86	50672.60
522.03	50820.05
522.20	51274.12
522.38	51196.88
522.55	51065.81
522.72	51339.65
522.89	51236.67
523.07	51587.75
523.24	51318.59
523.41	51512.85
523.58	51306.88
523.75	51828.82
523.92	51625.20
524.10	51760.95
524.27	51849.89
524.44	52041.81
524.61	51704.77
524.78	52257.14
524.96	51934.15
525.13	52207.99
525.30	52100.32
525.47	52369.49
525.64	52406.94
525.81	52568.43
525.98	52406.94
526.16	52442.04
526.33	52648.01
526.50	53066.97
526.67	52530.98
526.84	52704.18
527.01	52828.23
527.18	52788.44
527.36	53066.97
527.53	53013.13
527.70	53226.12
527.87	53329.11
528.04	53256.55
528.21	53272.93
528.38	53326.77
528.55	53392.30
528.72	53357.19
528.89	53389.96
529.07	53317.40
529.24	53301.02
529.41	53708.27
529.58	53399.32
529.75	53577.20
529.92	53797.21
530.09	53731.68
530.26	53862.75
530.43	53741.04
530.60	53677.85
530.77	53874.45
530.94	54054.67
531.11	53858.07
531.28	53853.39
531.46	54155.32
531.63	54073.40
531.80	54164.68
531.97	54307.45
532.14	54461.93
532.31	54464.27
532.48	54497.03
532.65	54471.29
532.82	54363.62
532.99	54499.37
533.16	54625.76
533.33	54595.34
533.50	54841.09
533.67	54569.59
533.84	54607.04
534.01	55004.93
534.18	54918.33
534.35	55405.16
534.52	54946.42
534.69	55103.23
534.86	55175.79
535.03	54843.43
535.20	55199.19
535.37	55580.70
535.54	55379.42
535.71	55140.68
535.88	55114.94
536.05	55306.86
536.22	55454.31
536.38	55475.38
536.55	55627.51
536.72	55358.35
536.89	55238.98
537.06	55805.39
537.23	55704.75
537.40	55585.38
537.57	55686.03
537.74	55679.00
537.91	55997.32
538.08	55817.10
538.25	55519.85
538.42	55917.74
538.59	55969.23
538.75	55812.41
538.92	55985.61
539.09	56238.39
539.26	55859.23
539.43	55866.25
539.60	56186.90
539.77	56020.72
539.94	56446.70
540.11	56219.67
540.28	56413.93
540.44	56467.76
540.61	56350.74
540.78	56334.35
540.95	56308.61
541.12	56275.84
541.29	56339.04
541.46	56713.52
541.62	56629.26
541.79	56676.07
541.96	56273.50
542.13	56678.41
542.30	56526.28
542.47	56952.26
542.63	56757.99
542.80	56786.08
542.97	56825.87
543.14	57059.92
543.31	56938.21
543.48	57080.98
543.64	57254.18
543.81	57226.10
543.98	57277.59
544.15	57312.70
544.32	57291.63
544.48	57343.12
544.65	57242.48
544.82	57453.13
544.99	56952.26
545.16	57193.33
545.32	57368.87
545.49	57668.46
545.66	57694.21
545.83	57492.92
546.00	57832.30
546.16	57467.17
546.33	57387.60
546.50	57343.12
546.67	57752.72
546.83	57303.34
547.00	57776.12
547.17	57684.84
547.34	57574.84
547.50	57968.05
547.67	57841.66
547.84	58054.65
548.00	57921.24
548.17	58096.78
548.34	57836.98
548.51	58155.29
548.67	58096.78
548.84	58087.42
549.01	57984.43
549.18	58066.35
549.34	58206.78
549.51	58143.59
549.68	58309.77
549.84	58255.93
550.01	58410.41
550.18	58040.60
550.34	58298.06
550.51	58333.17
550.68	58288.70
550.84	58035.92
551.01	58417.43
551.18	58372.96
551.34	58466.58
551.51	58511.05
551.68	58438.50
551.84	58550.84
552.01	58375.30
552.18	58656.17
552.34	58581.27
552.51	58705.32
552.68	58424.45
552.84	58487.65
553.01	58976.82
553.18	58688.93
553.34	58925.33
553.51	58805.96
553.67	58731.06
553.84	58995.54
554.01	58845.75
554.17	59040.01
554.34	58791.92
554.51	58915.96
554.67	58955.75
554.84	58714.68
555.00	58745.11
555.17	58637.44
555.33	58969.80
555.50	58845.75
555.67	58892.56
555.83	59021.29
556.00	59274.07
556.16	59360.67
556.33	59185.13
556.50	59267.05
556.66	59260.02
556.83	59194.49
556.99	59166.40
557.16	59337.26
557.32	59381.73
557.49	59494.08
557.65	59175.76
557.82	59419.18
557.98	59276.41
558.15	59442.59
558.32	59461.31
558.48	59208.53
558.65	59325.56
558.81	59416.84
558.98	59405.14
559.14	59351.30
559.31	59543.23
559.47	59442.59
559.64	59568.97
559.80	59819.41
559.97	59796.01
560.13	59323.22
560.30	59559.61
560.46	59629.83
560.63	59597.06
560.79	59788.98
560.96	59838.14
561.12	59655.57
561.29	59746.86
561.45	59465.99
561.61	59826.43
561.78	59697.70
561.94	59288.11
562.11	59744.51
562.27	59807.71
562.44	59943.46
562.60	59842.82
562.77	59812.39
562.93	59833.46
563.10	60055.81
563.26	59688.34
563.42	60016.02
563.59	59870.90
563.75	59636.85
563.92	59941.12
564.08	59852.18
564.24	59943.46
564.41	60111.98
564.57	60104.96
564.74	60104.96
564.90	60109.64
565.07	59910.69
565.23	60114.32
565.39	60081.55
565.56	60069.85
565.72	60006.65
565.88	60196.24
566.05	60198.58
566.21	59908.35
566.38	60083.89
566.54	60285.18
566.70	60224.32
566.87	60245.39
567.03	60027.72
567.19	60303.90
567.36	60214.96
567.52	60151.77
567.68	60507.53
567.85	60212.62
568.01	60420.93
568.17	60193.90
568.34	60287.52
568.50	60210.28
568.66	60114.32
568.83	60294.54
568.99	60229.01
569.15	60360.08
569.32	60324.97
569.48	60198.58
569.64	60378.80
569.81	60388.16
569.97	60336.67
570.13	60289.86
570.30	60088.57
570.46	60430.29
570.62	60233.69
570.78	60453.70
570.95	60229.01
571.11	60301.56
571.27	60376.46
571.43	60463.06
571.60	60537.96
571.76	60423.27
571.92	60636.26
572.09	60491.15
572.25	60584.77
572.41	60577.75
572.57	60303.90
572.74	60746.26
572.90	60484.12
573.06	60608.17
573.22	60512.21
573.38	60713.50
573.55	60624.56
573.71	60788.39
573.87	60516.89
574.03	60608.17
574.20	60781.37
574.36	60664.35
574.52	60650.30
574.68	60715.84
574.84	60559.02
575.01	60736.90
575.17	60818.82
575.33	60493.49
575.49	60563.70
575.65	60636.26
575.82	60753.29
575.98	60743.92
576.14	60704.13
576.30	60924.14
576.46	60650.30
576.62	60629.24
576.79	60664.35
576.95	60514.55
577.11	60629.24
577.27	60788.39
577.43	60711.16
577.59	60542.64
577.75	60533.28
577.92	60776.69
578.08	60680.73
578.24	60617.53
578.40	60849.25
578.56	60757.97
578.72	60715.84
578.88	60746.26
579.04	61001.38
579.21	60952.23
579.37	60676.05
579.53	60863.29
579.69	60739.24
579.85	60699.45
580.01	60589.45
580.17	60729.88
580.33	60802.44
580.49	60842.23
580.65	61055.21
580.82	60720.52
580.98	60697.11
581.14	60544.98
581.30	60987.34
581.46	60896.06
581.62	60807.12
581.78	60605.83
581.94	60921.80
582.10	60715.84
582.26	60753.29
582.42	60807.12
582.58	60814.14
582.74	60811.80
582.90	60942.87
583.06	60697.11
583.22	60818.82
583.38	60914.78
583.54	60779.03
583.70	60961.59
583.86	61029.47
584.02	60743.92
584.18	61066.92
584.34	60893.72
584.50	60933.51
584.66	61003.72
584.82	60669.03
584.98	61008.40
585.14	60912.44
585.30	60837.54
585.46	61113.73
585.62	60659.66
585.78	61080.96
585.94	60856.27
586.10	60917.12
586.26	61034.15
586.42	61062.24
586.58	61165.22
586.74	60884.36
586.90	60767.33
587.06	60926.49
587.22	61043.51
587.38	60832.86
587.54	60860.95
587.70	61235.44
587.86	60889.04
588.02	61179.26
588.18	61022.45
588.34	61104.37
