SpectraSuite Data File
++++++++++++++++++++++++++++++++++++
Date: Fri Oct 25 11:26:21 EDT 2013
User: price-jones
Dark Spectrum Present: No
Reference Spectrum Present: No
Number of Sampled Component Spectra: 1
Spectrometers: USB2+H05261
Integration Time (usec): 100000 (USB2+H05261)
Spectra Averaged: 1 (USB2+H05261)
Boxcar Smoothing: 0 (USB2+H05261)
Correct for Electrical Dark: No (USB2+H05261)
Strobe/Lamp Enabled: No (USB2+H05261)
Correct for Detector Non-linearity: No (USB2+H05261)
Correct for Stray Light: No (USB2+H05261)
Number of Pixels in Processed Spectrum: 2048
>>>>>Begin Processed Spectral Data<<<<<
365.73	287.89
365.92	287.89
366.12	287.89
366.32	198.95
366.52	191.92
366.72	161.50
366.91	112.35
367.11	152.13
367.31	117.03
367.51	159.16
367.70	102.98
367.90	138.09
368.10	124.05
368.30	63.19
368.49	168.52
368.69	170.86
368.89	138.09
369.09	86.60
369.28	156.82
369.48	234.05
369.68	220.01
369.87	217.67
370.07	215.33
370.27	215.33
370.47	390.87
370.66	681.10
370.86	653.01
371.06	599.18
371.25	622.58
371.45	676.41
371.65	627.26
371.84	648.33
372.04	648.33
372.24	730.25
372.44	732.59
372.63	709.18
372.83	734.93
373.03	748.97
373.22	706.84
373.42	802.80
373.62	849.61
373.81	781.74
374.01	884.72
374.21	868.34
374.40	840.25
374.60	837.91
374.79	793.44
374.99	875.36
375.19	760.67
375.38	748.97
375.58	847.27
375.78	788.76
375.97	863.66
376.17	915.15
376.37	826.21
376.56	954.94
376.76	940.90
376.95	891.74
377.15	950.26
377.35	964.30
377.54	926.85
377.74	976.00
377.93	947.92
378.13	931.53
378.33	931.53
378.52	891.74
378.72	880.04
378.91	1048.56
379.11	870.68
379.31	992.39
379.50	880.04
379.70	1006.43
379.89	1069.62
380.09	973.66
380.28	1039.20
380.48	938.55
380.68	1001.75
380.87	945.58
381.07	929.19
381.26	1086.01
381.46	1004.09
381.65	1102.39
381.85	961.96
382.04	968.98
382.24	999.41
382.43	1111.75
382.63	1008.77
382.83	1020.47
383.02	1102.39
383.22	1093.03
383.41	1146.86
383.61	1135.16
383.80	1153.88
384.00	1128.14
384.19	1121.12
384.39	1153.88
384.58	1125.80
384.78	1097.71
384.97	1226.44
385.17	1167.93
385.36	1163.25
385.56	1165.59
385.75	1212.40
385.95	1109.41
386.14	1149.20
386.34	1137.50
386.53	1203.04
386.72	1233.46
386.92	1238.14
387.11	1247.51
387.31	1296.66
387.50	1231.12
387.70	1327.08
387.89	1245.16
388.09	1439.43
388.28	1284.95
388.48	1238.14
388.67	1341.13
388.86	1280.27
389.06	1235.80
389.25	1280.27
389.45	1392.62
389.64	1359.85
389.84	1380.92
390.03	1364.53
390.22	1289.64
390.42	1338.79
390.61	1329.42
390.81	1394.96
391.00	1479.22
391.19	1554.12
391.39	1404.32
391.58	1441.77
391.78	1542.41
391.97	1399.64
392.16	1486.24
392.36	1558.80
392.55	1584.54
392.75	1563.48
392.94	1437.09
393.13	1528.37
393.33	1540.07
393.52	1565.82
393.71	1617.31
393.91	1696.89
394.10	1561.14
394.29	1666.46
394.49	1507.30
394.68	1565.82
394.88	1640.72
395.07	1643.06
395.26	1570.50
395.46	1668.80
395.65	1703.91
395.84	1715.61
396.04	1717.95
396.23	1750.72
396.42	1799.87
396.62	1764.76
396.81	1760.08
397.00	1823.28
397.19	1806.89
397.39	1811.57
397.58	1816.26
397.77	1802.21
397.97	1863.07
398.16	1732.00
398.35	1858.39
398.55	1825.62
398.74	1881.79
398.93	1996.48
399.12	1893.49
399.32	1825.62
399.51	1947.33
399.70	2057.33
399.90	2036.27
400.09	2019.88
400.28	2181.38
400.47	2054.99
400.67	2005.84
400.86	2115.84
401.05	2092.44
401.24	2127.55
401.44	2064.35
401.63	2186.06
401.82	2118.18
402.01	2043.29
402.21	2122.87
402.40	2223.51
402.59	2155.63
402.78	2214.15
402.97	2202.44
403.17	2317.13
403.36	2305.43
403.55	2275.00
403.74	2420.11
403.93	2300.75
404.13	2420.11
404.32	2319.47
404.51	2319.47
404.70	2375.64
404.89	2356.92
405.09	2518.42
405.28	2452.88
405.47	2616.72
405.66	2602.68
405.85	2459.90
406.05	2448.20
406.24	2532.46
406.43	2602.68
406.62	2607.36
406.81	2665.87
407.00	2541.82
407.20	2600.34
407.39	2605.02
407.58	2717.36
407.77	2768.85
407.96	2738.43
408.15	2661.19
408.34	2663.53
408.54	2726.72
408.73	2724.38
408.92	2752.47
409.11	2827.37
409.30	2839.07
409.49	2895.24
409.68	2899.92
409.87	2951.42
410.07	2928.01
410.26	3014.61
410.45	2986.52
410.64	2944.39
410.83	3068.44
411.02	3059.08
411.21	2986.52
411.40	3119.93
411.59	3267.39
411.78	3087.17
411.98	3136.32
412.17	3229.94
412.36	3201.85
412.55	3377.39
412.74	3412.50
412.93	3375.05
413.12	3405.48
413.31	3520.17
413.50	3466.33
413.69	3487.40
413.88	3536.55
414.07	3449.95
414.26	3531.87
414.45	3625.49
414.64	3782.31
414.83	3761.24
415.02	3747.20
415.22	3854.86
415.41	3873.59
415.60	3878.27
415.79	3758.90
415.98	3953.16
416.17	3983.59
416.36	3997.64
416.55	3962.53
416.74	4142.75
416.93	4009.34
417.12	3978.91
417.31	3983.59
417.50	4077.21
417.69	4091.26
417.88	4313.61
418.07	4301.90
418.26	4276.16
418.45	4503.19
418.64	4514.89
418.83	4351.06
419.02	4411.91
419.21	4325.31
419.39	4585.11
419.58	4437.66
419.77	4325.31
419.96	4498.51
420.15	4526.60
420.34	4578.09
420.53	4540.64
420.72	4601.49
420.91	4704.48
421.10	4786.40
421.29	4617.88
421.48	4716.18
421.67	4725.54
421.86	4716.18
422.05	4753.63
422.24	4781.71
422.43	4828.53
422.61	4898.74
422.80	4863.63
422.99	4950.23
423.18	4861.29
423.37	5090.67
423.56	5006.41
423.75	4990.02
423.94	4807.46
424.13	4571.07
424.32	4835.55
424.50	4933.85
424.69	5107.05
424.88	5111.73
425.07	4706.82
425.26	4858.95
425.45	4851.93
425.64	4926.83
425.83	5006.41
426.01	5069.60
426.20	4929.17
426.39	4957.25
426.58	4985.34
426.77	5006.41
426.96	5221.74
427.15	5067.26
427.33	5111.73
427.52	5041.51
427.71	5238.12
427.90	5149.18
428.09	5188.97
428.28	5313.02
428.46	5273.23
428.65	5191.31
428.84	5446.43
429.03	5432.38
429.22	5305.99
429.40	5371.53
429.59	5483.88
429.78	5247.48
429.97	5343.44
430.16	5427.70
430.34	5825.59
430.53	5591.54
430.72	5591.54
430.91	5554.09
431.10	5596.22
431.28	5591.54
431.47	5820.91
431.66	5783.46
431.85	5708.57
432.03	5783.46
432.22	5888.79
432.41	5926.24
432.60	5881.77
432.79	5961.34
432.97	6015.18
433.16	5966.03
433.35	6036.24
433.54	6218.80
433.72	6167.31
433.91	6003.47
434.10	6104.12
434.28	5907.51
434.47	6118.16
434.66	6183.70
434.85	6235.19
435.03	6342.85
435.22	6111.14
435.41	6511.37
435.59	6263.27
435.78	6438.81
435.97	6417.75
436.16	6284.34
436.34	6406.05
436.53	6546.48
436.72	6595.63
436.90	6410.73
437.09	6504.35
437.28	6408.39
437.46	6658.82
437.65	6590.95
437.84	6792.23
438.02	6595.63
438.21	6576.91
438.40	6560.52
438.58	6965.43
438.77	6895.22
438.96	6850.75
439.14	7066.08
439.33	7084.80
439.52	7042.67
439.70	7143.32
439.89	7239.28
440.08	7269.70
440.26	7241.62
440.45	7246.30
440.63	7487.37
440.82	7616.10
441.01	7417.16
441.19	7482.69
441.38	7578.65
441.57	7529.50
441.75	7709.72
441.94	8013.99
442.12	7939.10
442.31	8154.43
442.50	8053.78
442.68	7861.86
442.87	7967.18
443.05	8006.97
443.24	8035.06
443.43	8166.13
443.61	8163.79
443.80	8315.92
443.98	8119.32
444.17	7702.70
444.35	8049.10
444.54	8231.66
444.73	8074.85
444.91	8205.92
445.10	8222.30
445.28	8177.83
445.47	8173.15
445.65	8344.01
445.84	8362.73
446.02	8456.36
446.21	8315.92
446.39	8360.39
446.58	8388.48
446.77	8411.89
446.95	8042.08
447.14	8545.30
447.32	8517.21
447.51	8358.05
447.69	8334.65
447.88	8622.53
448.06	8461.04
448.25	8479.76
448.43	8599.13
448.62	8538.27
448.80	8622.53
448.99	8566.36
449.17	8664.66
449.36	8610.83
449.54	8802.75
449.73	8814.46
449.91	8943.19
450.10	8879.99
450.28	8987.66
450.46	9064.89
450.65	9074.26
450.83	9355.12
451.02	8875.31
451.20	9188.94
451.39	9217.03
451.57	9088.30
451.76	8861.27
451.94	9055.53
452.13	9383.21
452.31	9163.20
452.49	9266.18
452.68	9401.93
452.86	9348.10
453.05	9423.00
453.23	9511.94
453.42	9266.18
453.60	9224.05
453.78	9425.34
453.97	9231.07
454.15	9460.45
454.34	9451.08
454.52	9572.79
454.70	9664.07
454.89	9568.11
455.07	9612.58
455.26	9736.63
455.44	9790.46
455.62	10059.62
455.81	9954.30
455.99	10036.22
456.17	10143.88
456.36	10115.80
456.54	10300.70
456.73	10111.11
456.91	10443.47
457.09	10410.70
457.28	10551.14
457.46	10340.49
457.64	10611.99
457.83	10565.18
458.01	10401.34
458.19	10567.52
458.38	10487.94
458.56	10642.42
458.74	10724.33
458.93	10574.54
459.11	10396.66
459.29	10492.62
459.48	10839.02
459.66	10778.17
459.84	10707.95
460.03	10839.02
460.21	10721.99
460.39	10949.03
460.57	10855.40
460.76	11000.52
460.94	11199.46
461.12	11119.89
461.31	10834.34
461.49	11070.73
461.67	11117.54
461.85	11470.97
462.04	11389.05
462.22	11815.02
462.40	11344.58
462.59	11456.92
462.77	11389.05
462.95	11702.68
463.13	11580.97
463.32	11585.65
463.50	11679.27
463.68	11859.49
463.86	11625.44
464.05	11709.70
464.23	11744.81
464.41	11833.75
464.59	11655.87
464.78	12032.69
464.96	11887.58
465.14	11709.70
465.32	11878.22
465.50	12030.35
465.69	12025.67
465.87	11962.48
466.05	11988.22
466.23	12009.29
466.41	12093.55
466.60	12336.96
466.78	12049.08
466.96	11976.52
467.14	12346.33
467.32	12496.12
467.51	12671.66
467.69	12063.12
467.87	12262.07
468.05	12374.41
468.23	12170.79
468.41	12486.76
468.60	12666.98
468.78	12739.54
468.96	12353.35
469.14	12613.15
469.32	12776.98
469.50	12402.50
469.69	12922.10
469.87	12856.56
470.05	13020.40
470.23	13116.36
470.41	13069.55
470.59	13125.72
470.77	13245.09
470.95	13125.72
471.14	13502.55
471.32	13078.91
471.50	13605.53
471.68	13455.74
471.86	13666.39
472.04	13745.97
472.22	14010.45
472.40	13380.84
472.58	13818.52
472.77	13825.54
472.95	13951.93
473.13	14546.43
473.31	14026.83
473.49	13958.96
473.67	14237.48
473.85	14106.41
474.03	14740.69
474.21	14527.71
474.39	14555.79
474.57	14604.94
474.75	14934.96
474.93	14853.04
475.12	14927.94
475.30	14998.15
475.48	15105.82
475.66	15023.90
475.84	14902.19
476.02	15147.95
476.20	15550.52
476.38	15648.82
476.56	15997.56
476.74	15744.78
476.92	15861.81
477.10	15449.88
477.28	16219.91
477.46	16042.03
477.64	16037.35
477.82	16524.18
478.00	16795.68
478.18	16528.86
478.36	16884.62
478.54	16968.88
478.72	16851.86
478.90	17135.06
479.08	17432.31
479.26	17724.88
479.44	17790.41
479.62	17769.35
479.80	17977.65
479.98	18174.26
480.16	18106.38
480.34	18061.91
480.52	18487.89
480.70	18324.05
480.88	18398.95
481.06	18448.10
481.24	18607.26
481.41	18904.51
481.59	19335.17
481.77	19337.51
481.95	19372.61
482.13	19269.63
482.31	19473.26
482.49	20280.74
482.67	19901.58
482.85	20269.04
483.03	20477.35
483.21	20397.77
483.39	20683.31
483.57	20732.47
483.74	20994.61
483.92	21212.28
484.10	21135.04
484.28	21647.61
484.46	21790.39
484.64	22541.70
484.82	21750.60
485.00	22539.36
485.18	22281.90
485.35	22661.07
485.53	22604.89
485.71	22927.89
485.89	23381.95
486.07	23314.08
486.25	23283.65
486.43	23473.23
486.61	23543.45
486.78	23854.74
486.96	23929.64
487.14	24545.20
487.32	24346.25
487.50	24727.76
487.68	24465.62
487.85	24821.38
488.03	25621.84
488.21	26068.89
488.39	25858.24
488.57	25776.32
488.75	25898.03
488.92	25968.24
489.10	26632.96
489.28	26263.15
489.46	26651.68
489.64	26647.00
489.81	27161.92
489.99	27896.85
490.17	27768.12
490.35	28105.15
490.53	28156.64
490.70	28437.51
490.88	28201.11
491.06	28648.16
491.24	28643.48
491.41	28849.44
491.59	29113.92
491.77	29216.91
491.95	29575.01
492.13	29163.08
492.30	29703.74
492.48	30026.73
492.66	29949.50
492.84	30176.53
493.01	30515.90
493.19	30485.48
493.37	30649.32
493.54	31094.02
493.72	31072.95
493.90	31040.18
494.08	31321.05
494.25	31594.89
494.43	31908.52
494.61	31992.78
494.79	32465.57
494.96	32538.13
495.14	32493.66
495.32	33177.09
495.49	32973.47
495.67	32739.41
495.85	33242.63
496.02	33528.17
496.20	33991.60
496.38	33940.11
496.55	33715.42
496.73	34394.17
496.91	34202.25
497.09	34300.55
497.26	35108.04
497.44	35157.19
497.62	34618.86
497.79	35335.07
497.97	34815.47
498.14	35920.20
498.32	35754.02
498.50	35988.08
498.67	36060.63
498.85	36259.58
499.03	36507.68
499.20	36540.44
499.38	36650.45
499.56	36528.74
499.73	36943.02
499.91	36751.09
500.08	37020.25
500.26	37017.91
500.44	37319.84
500.61	37345.59
500.79	37539.85
500.97	37638.15
501.14	38513.52
501.32	38157.75
501.49	38424.57
501.67	38490.11
501.84	38850.55
502.02	38880.98
502.20	38574.37
502.37	38953.54
502.55	38962.90
502.72	38902.04
502.90	39381.85
503.07	39461.43
503.25	39716.55
503.43	39711.87
503.60	39758.68
503.78	39789.11
503.95	39901.45
504.13	40009.12
504.30	40535.74
504.48	40566.16
504.65	40706.60
504.83	40816.60
505.01	41036.61
505.18	40421.05
505.36	41167.68
505.53	41146.62
505.71	41034.27
505.88	41546.85
506.06	41116.19
506.23	41823.03
506.41	41759.84
506.58	41752.82
506.76	42188.16
506.93	41935.38
507.11	42202.20
507.28	42504.13
507.46	42546.26
507.63	42546.26
507.81	42557.96
507.98	42740.52
508.16	43014.37
508.33	43213.31
508.50	43241.40
508.68	43311.61
508.85	43917.81
509.03	43608.86
509.20	43746.95
509.38	43866.32
509.55	44161.23
509.73	44102.71
509.90	44348.47
510.08	44500.61
510.25	44069.95
510.42	44343.79
510.60	44746.36
510.77	44814.24
510.95	45441.50
511.12	44722.96
511.30	45022.54
511.47	45006.16
511.64	45352.56
511.82	45645.13
511.99	45298.73
512.17	45720.02
512.34	45471.93
512.51	45867.48
512.69	46354.31
512.86	46150.68
513.04	46450.27
513.21	46396.44
513.38	46733.48
513.56	46981.57
513.73	46820.08
513.90	46705.39
514.08	46356.65
514.25	47138.39
514.43	46925.40
514.60	47262.44
514.77	47166.48
514.95	47606.50
515.12	47414.57
515.29	47040.09
515.47	48006.73
515.64	47683.73
515.81	47632.24
515.99	48268.87
516.16	48147.16
516.33	48191.63
516.51	48430.36
516.68	48266.53
516.85	48332.06
517.03	48516.96
517.20	48538.03
517.37	48175.25
517.54	48432.71
517.72	48746.34
517.89	48559.09
518.06	49216.78
518.24	49097.42
518.41	49085.72
518.58	49291.68
518.75	48905.49
518.93	49244.87
519.10	49354.88
519.27	49387.64
519.45	49495.31
519.62	49855.75
519.79	49736.38
519.96	49385.30
520.14	49897.88
520.31	50045.33
520.48	49937.67
520.65	49977.46
520.83	50344.92
521.00	50398.76
521.17	50373.01
521.34	50679.62
521.52	50380.03
521.69	50522.80
521.86	50588.34
522.03	50820.05
522.20	50777.92
522.38	51210.92
522.55	50878.57
522.72	51114.96
522.89	51241.35
523.07	51299.86
523.24	51285.82
523.41	51920.10
523.58	51171.13
523.75	51559.66
523.92	51564.34
524.10	51557.32
524.27	51746.90
524.44	51590.09
524.61	51538.60
524.78	51976.28
524.96	51700.09
525.13	51798.40
525.30	52144.80
525.47	52371.83
525.64	52039.47
525.81	52114.37
525.98	52329.70
526.16	52182.24
526.33	52626.95
526.50	52643.33
526.67	52552.05
526.84	52931.22
527.01	52865.68
527.18	52687.80
527.36	52711.20
527.53	52568.43
527.70	53160.59
527.87	53116.12
528.04	53059.94
528.21	53073.99
528.38	53020.16
528.55	53251.87
528.72	53237.83
528.89	53198.04
529.07	53254.21
529.24	53216.76
529.41	53790.19
529.58	53270.59
529.75	53031.86
529.92	53694.23
530.09	53530.39
530.26	53956.37
530.43	53778.49
530.60	53462.52
530.77	53656.78
530.94	53813.60
531.11	53738.70
531.28	53844.02
531.46	54017.22
531.63	53902.54
531.80	54195.10
531.97	54202.13
532.14	54061.69
532.31	54225.53
532.48	54099.14
532.65	54625.76
532.82	54012.54
532.99	54539.16
533.16	54246.60
533.33	54401.07
533.50	54700.66
533.67	54628.10
533.84	54391.71
534.01	54623.42
534.18	54602.36
534.35	54901.95
534.52	54990.89
534.69	55304.52
534.86	55143.02
535.03	54834.07
535.20	55210.90
535.37	55285.79
535.54	55107.91
535.71	55056.42
535.88	55379.42
536.05	55136.00
536.22	55372.39
536.38	55290.48
536.55	55529.21
536.72	55297.50
536.89	55213.24
537.06	55491.76
537.23	55451.97
537.40	55269.41
537.57	55491.76
537.74	55473.04
537.91	55845.18
538.08	55718.79
538.25	55463.67
538.42	55739.86
538.59	55835.82
538.75	55650.92
538.92	55772.63
539.09	55831.14
539.26	56006.68
539.43	55889.65
539.60	55810.07
539.77	55966.89
539.94	56261.80
540.11	56306.27
540.28	56224.35
540.44	56074.55
540.61	56334.35
540.78	56090.94
540.95	56488.83
541.12	56282.86
541.29	56191.58
541.46	56156.47
541.62	56505.21
541.79	56502.87
541.96	56306.27
542.13	56444.36
542.30	56556.70
542.47	56856.29
542.63	56718.20
542.80	57057.58
542.97	56844.59
543.14	57055.24
543.31	57022.47
543.48	56882.04
543.64	57228.44
543.81	57169.93
543.98	57230.78
544.15	57198.01
544.32	57233.12
544.48	57275.25
544.65	57097.37
544.82	57041.20
544.99	57139.50
545.16	57247.16
545.32	57223.76
545.49	57420.36
545.66	57488.24
545.83	57396.96
546.00	57427.38
546.16	57481.22
546.33	57467.17
546.50	57357.17
546.67	57474.20
546.83	57439.09
547.00	57675.48
547.17	57567.82
547.34	57499.94
547.50	57684.84
547.67	58059.33
547.84	57745.70
548.00	57839.32
548.17	58059.33
548.34	57811.23
548.51	58040.60
548.67	58258.27
548.84	58014.86
549.01	57855.70
549.18	57925.92
549.34	58103.80
549.51	58227.85
549.68	58169.33
549.84	58286.36
550.01	58246.57
550.18	58087.42
550.34	58218.49
550.51	58288.70
550.68	58286.36
550.84	57900.17
551.01	58625.74
551.18	58227.85
551.34	58379.98
551.51	58363.60
551.68	58583.61
551.84	58382.32
552.01	58220.83
552.18	58347.21
552.34	58368.28
552.51	58609.35
552.68	58248.91
552.84	58604.67
553.01	58529.78
553.18	58702.98
553.34	58567.23
553.51	58672.55
553.67	58784.90
553.84	58880.86
554.01	58773.19
554.17	58817.66
554.34	58787.24
554.51	58972.14
554.67	58693.61
554.84	58848.09
555.00	58939.37
555.17	58773.19
555.33	58728.72
555.50	58618.72
555.67	58738.08
555.83	58873.84
556.00	58899.58
556.16	59227.26
556.33	59215.55
556.50	58986.18
556.66	59194.49
556.83	58827.02
556.99	59009.59
557.16	59297.47
557.32	59245.98
557.49	59278.75
557.65	59208.53
557.82	59187.47
557.98	59178.10
558.15	59295.13
558.32	59339.60
558.48	59257.68
558.65	59304.49
558.81	59325.56
558.98	59255.34
559.14	59503.44
559.31	59461.31
559.47	59557.27
559.64	59348.96
559.80	59613.44
559.97	59536.21
560.13	59243.64
560.30	59496.42
560.46	59667.28
560.63	59592.38
560.79	59646.21
560.96	59655.57
561.12	59454.29
561.29	59650.89
561.45	59730.47
561.61	59796.01
561.78	59580.68
561.94	59583.02
562.11	59606.42
562.27	59686.00
562.44	59798.35
562.60	59847.50
562.77	59957.50
562.93	59676.64
563.10	60109.64
563.26	59700.04
563.42	59966.87
563.59	59791.33
563.75	59880.27
563.92	60009.00
564.08	59915.37
564.24	59737.49
564.41	59903.67
564.57	59927.08
564.74	59955.16
564.90	59931.76
565.07	59987.93
565.23	59875.58
565.39	60051.12
565.56	60051.12
565.72	59891.97
565.88	59955.16
566.05	59945.80
566.21	60126.02
566.38	60182.19
566.54	60376.46
566.70	60205.60
566.87	60252.41
567.03	60107.30
567.19	60329.65
567.36	60111.98
567.52	60275.82
567.68	60247.73
567.85	60065.17
568.01	60329.65
568.17	60191.56
568.34	60257.09
568.50	60186.88
568.66	60320.29
568.83	60168.15
568.99	60133.04
569.15	60144.75
569.32	60189.22
569.48	60240.71
569.64	60376.46
569.81	60299.22
569.97	60149.43
570.13	60226.66
570.30	60193.90
570.46	60509.87
570.62	60292.20
570.78	60378.80
570.95	60385.82
571.11	60425.61
571.27	60144.75
571.43	60381.14
571.60	60460.72
571.76	60388.16
571.92	60458.38
572.09	60327.31
572.25	60329.65
572.41	60336.67
572.57	60453.70
572.74	60547.32
572.90	60416.25
573.06	60535.62
573.22	60456.04
573.38	60547.32
573.55	60666.69
573.71	60636.26
573.87	60575.40
574.03	60512.21
574.20	60547.32
574.36	60470.08
574.52	60594.13
574.68	60556.68
574.84	60446.68
575.01	60755.63
575.17	60561.36
575.33	60519.23
575.49	60385.82
575.65	60453.70
575.82	60659.66
575.98	60647.96
576.14	60743.92
576.30	60725.20
576.46	60640.94
576.62	60502.85
576.79	60343.69
576.95	60399.86
577.11	60608.17
577.27	60589.45
577.43	60624.56
577.59	60554.34
577.75	60722.86
577.92	60451.36
578.08	60519.23
578.24	60601.15
578.40	60797.76
578.56	60811.80
578.72	60603.49
578.88	60933.51
579.04	60676.05
579.21	60711.16
579.37	60844.57
579.53	60963.93
579.69	60383.48
579.85	60519.23
580.01	60568.38
580.17	60526.25
580.33	60746.26
580.49	60844.57
580.65	60638.60
580.82	60783.71
580.98	60509.87
581.14	60764.99
581.30	60877.33
581.46	60570.72
581.62	60914.78
581.78	60715.84
581.94	60713.50
582.10	60748.60
582.26	60779.03
582.42	60704.13
582.58	60823.50
582.74	60685.41
582.90	60825.84
583.06	60734.56
583.22	60580.09
583.38	60743.92
583.54	60879.67
583.70	60743.92
583.86	60921.80
584.02	60481.78
584.18	60802.44
584.34	60732.22
584.50	60917.12
584.66	60690.09
584.82	60697.11
584.98	60896.06
585.14	60999.04
585.30	60704.13
585.46	60842.23
585.62	60825.84
585.78	60928.83
585.94	60725.20
586.10	60718.18
586.26	60940.53
586.42	61144.16
586.58	60877.33
586.74	60910.10
586.90	60907.76
587.06	60982.66
587.22	60973.30
587.38	60713.50
587.54	60917.12
587.70	61300.97
587.86	60928.83
588.02	60912.44
588.18	61071.60
588.34	60903.08
588.49	60945.21
