SpectraSuite Data File
++++++++++++++++++++++++++++++++++++
Date: Fri Oct 25 10:43:21 EDT 2013
User: price-jones
Dark Spectrum Present: No
Reference Spectrum Present: No
Number of Sampled Component Spectra: 1
Spectrometers: USB2+H05261
Integration Time (usec): 100000 (USB2+H05261)
Spectra Averaged: 1 (USB2+H05261)
Boxcar Smoothing: 0 (USB2+H05261)
Correct for Electrical Dark: No (USB2+H05261)
Strobe/Lamp Enabled: No (USB2+H05261)
Correct for Detector Non-linearity: No (USB2+H05261)
Correct for Stray Light: No (USB2+H05261)
Number of Pixels in Processed Spectrum: 2048
>>>>>Begin Processed Spectral Data<<<<<
365.73	51.49
365.92	51.49
366.12	51.49
366.32	18.72
366.52	0.00
366.72	21.06
366.91	14.04
367.11	0.00
367.31	0.00
367.51	0.00
367.70	32.77
367.90	4.68
368.10	63.19
368.30	37.45
368.49	0.00
368.69	77.24
368.89	0.00
369.09	37.45
369.28	37.45
369.48	42.13
369.68	39.79
369.87	93.62
370.07	42.13
370.27	93.62
370.47	175.54
370.66	383.85
370.86	418.96
371.06	444.70
371.25	475.13
371.45	428.32
371.65	543.00
371.84	437.68
372.04	470.45
372.24	475.13
372.44	451.72
372.63	500.87
372.83	505.56
373.03	489.17
373.22	521.94
373.42	599.18
373.62	475.13
373.81	519.60
374.01	601.52
374.21	599.18
374.40	683.44
374.60	528.96
374.79	594.50
374.99	596.84
375.19	599.18
375.38	557.05
375.58	674.07
375.78	573.43
375.97	636.63
376.17	631.94
376.37	582.79
376.56	620.24
376.76	596.84
376.95	645.99
377.15	653.01
377.35	610.88
377.54	636.63
377.74	638.97
377.93	660.03
378.13	610.88
378.33	704.50
378.52	662.37
378.72	674.07
378.91	711.52
379.11	657.69
379.31	589.82
379.50	629.60
379.70	725.57
379.89	718.54
380.09	692.80
380.28	695.14
380.48	664.71
380.68	601.52
380.87	662.37
381.07	730.25
381.26	826.21
381.46	692.80
381.65	653.01
381.85	709.18
382.04	727.91
382.24	720.88
382.43	674.07
382.63	671.73
382.83	812.17
383.02	772.38
383.22	746.63
383.41	711.52
383.61	784.08
383.80	688.12
384.00	695.14
384.19	744.29
384.39	919.83
384.58	828.55
384.78	828.55
384.97	816.85
385.17	823.87
385.36	777.06
385.56	770.04
385.75	751.31
385.95	840.25
386.14	870.68
386.34	819.19
386.53	887.06
386.72	826.21
386.92	861.32
387.11	915.15
387.31	863.66
387.50	926.85
387.70	847.27
387.89	816.85
388.09	823.87
388.28	919.83
388.48	849.61
388.67	954.94
388.86	926.85
389.06	964.30
389.25	926.85
389.45	945.58
389.64	929.19
389.84	1011.11
390.03	1029.84
390.22	980.68
390.42	987.71
390.61	1039.20
390.81	968.98
391.00	1093.03
391.19	1114.10
391.39	1001.75
391.58	1062.60
391.78	1008.77
391.97	1013.45
392.16	1139.84
392.36	1062.60
392.55	985.37
392.75	976.00
392.94	1006.43
393.13	976.00
393.33	1008.77
393.52	1074.31
393.71	1179.63
393.91	1036.86
394.10	1060.26
394.29	1233.46
394.49	1210.06
394.68	1200.69
394.88	1226.44
395.07	1210.06
395.26	1233.46
395.46	1240.48
395.65	1205.38
395.84	1167.93
396.04	1198.35
396.23	1231.12
396.42	1135.16
396.62	1261.55
396.81	1205.38
397.00	1235.80
397.19	1254.53
397.39	1299.00
397.58	1341.13
397.77	1448.79
397.97	1423.05
398.16	1441.77
398.35	1469.86
398.55	1540.07
398.74	1409.00
398.93	1570.50
399.12	1568.16
399.32	1511.99
399.51	1509.65
399.70	1568.16
399.90	1577.52
400.09	1533.05
400.28	1631.35
400.47	1584.54
400.67	1692.21
400.86	1579.86
401.05	1659.44
401.24	1643.06
401.44	1717.95
401.63	1617.31
401.82	1804.55
402.01	1710.93
402.21	1666.46
402.40	1741.36
402.59	1762.42
402.78	1757.74
402.97	1874.77
403.17	1830.30
403.36	1881.79
403.55	1877.11
403.74	1856.04
403.93	1914.56
404.13	1893.49
404.32	1832.64
404.51	1895.83
404.70	1888.81
404.89	2015.20
405.09	2050.31
405.28	2012.86
405.47	2036.27
405.66	2003.50
405.85	1961.37
406.05	1912.22
406.24	2076.06
406.43	1998.82
406.62	2045.63
406.81	2223.51
407.00	2047.97
407.20	1959.03
407.39	2029.24
407.58	2118.18
407.77	2214.15
407.96	2214.15
408.15	2251.60
408.34	2183.72
408.54	2293.72
408.73	2275.00
408.92	2382.67
409.11	2305.43
409.30	2368.62
409.49	2267.98
409.68	2354.58
409.87	2214.15
410.07	2380.32
410.26	2300.75
410.45	2368.62
410.64	2415.43
410.83	2443.52
411.02	2410.75
411.21	2518.42
411.40	2588.63
411.59	2672.89
411.78	2616.72
411.98	2689.28
412.17	2658.85
412.36	2616.72
412.55	2663.53
412.74	2668.21
412.93	2846.09
413.12	2677.57
413.31	2860.13
413.50	2810.98
413.69	2782.90
413.88	2944.39
414.07	2916.31
414.26	2930.35
414.45	2995.89
414.64	3054.40
414.83	3110.57
415.02	2928.01
415.22	3061.42
415.41	3218.24
415.60	3159.72
415.79	3234.62
415.98	3356.33
416.17	3164.40
416.36	3159.72
416.55	3215.90
416.74	3253.34
416.93	3229.94
417.12	3328.24
417.31	3403.14
417.50	3337.60
417.69	3346.97
417.88	3485.06
418.07	3449.95
418.26	3365.69
418.45	3454.63
418.64	3571.66
418.83	3508.46
419.02	3478.04
419.21	3496.76
419.39	3571.66
419.58	3438.25
419.77	3599.74
419.96	3672.30
420.15	3772.94
420.34	3714.43
420.53	3646.55
420.72	3925.08
420.91	3770.60
421.10	3967.21
421.29	3904.01
421.48	3630.17
421.67	3915.72
421.86	3878.27
422.05	3606.77
422.24	3784.65
422.43	3798.69
422.61	3749.54
422.80	3950.82
422.99	3939.12
423.18	4042.11
423.37	3878.27
423.56	3976.57
423.75	3866.56
423.94	3873.59
424.13	3803.37
424.32	3749.54
424.50	4039.76
424.69	3988.27
424.88	4030.40
425.07	4077.21
425.26	3925.08
425.45	3953.16
425.64	3889.97
425.83	3864.22
426.01	4093.60
426.20	3908.69
426.39	4016.36
426.58	4063.17
426.77	4018.70
426.96	3976.57
427.15	3936.78
427.33	3988.27
427.52	4138.07
427.71	4086.58
427.90	4152.11
428.09	4152.11
428.28	4117.00
428.46	4163.81
428.65	4287.86
428.84	4315.95
429.03	4166.15
429.22	4173.18
429.40	4175.52
429.59	4201.26
429.78	3906.35
429.97	4098.28
430.16	4121.68
430.34	4175.52
430.53	4217.65
430.72	4161.47
430.91	4126.36
431.10	4355.74
431.28	4566.39
431.47	4662.35
431.66	4564.04
431.85	4601.49
432.03	4692.77
432.22	4762.99
432.41	4791.08
432.60	4645.96
432.79	4571.07
432.97	4737.24
433.16	4718.52
433.35	4582.77
433.54	4770.01
433.72	4636.60
433.91	4816.82
434.10	4699.80
434.28	4830.87
434.47	4856.61
434.66	4842.57
434.85	4954.91
435.03	5004.07
435.22	5212.37
435.41	5071.94
435.59	4870.65
435.78	5076.62
435.97	5022.79
436.16	5167.90
436.34	5123.43
436.53	5046.20
436.72	5123.43
436.90	5128.11
437.09	5259.18
437.28	5167.90
437.46	5275.57
437.65	5247.48
437.84	5146.84
438.02	5011.09
438.21	5179.61
438.40	5114.07
438.58	5263.86
438.77	5542.39
438.96	5645.37
439.14	5390.25
439.33	5645.37
439.52	5636.01
439.70	5621.97
439.89	5750.70
440.08	5612.60
440.26	5579.84
440.45	5820.91
440.63	5884.11
440.82	5994.11
441.01	5909.85
441.19	6012.84
441.38	6097.10
441.57	6253.91
441.75	6080.71
441.94	6118.16
442.12	6349.87
442.31	6324.13
442.50	6331.15
442.68	6286.68
442.87	6277.32
443.05	6324.13
443.24	6630.74
443.43	6487.96
443.61	6562.86
443.80	6693.93
443.98	6401.37
444.17	6211.78
444.35	6600.31
444.54	6614.35
444.73	6464.56
444.91	6649.46
445.10	6502.01
445.28	6532.44
445.47	6340.51
445.65	6686.91
445.84	6567.54
446.02	6572.22
446.21	6614.35
446.39	6604.99
446.58	6806.28
446.77	6745.42
446.95	6633.08
447.14	6860.11
447.32	6682.23
447.51	6532.44
447.69	6733.72
447.88	6707.98
448.06	6633.08
448.25	6567.54
448.43	6642.44
448.62	6677.55
448.80	6654.14
448.99	6881.18
449.17	6930.33
449.36	6888.20
449.54	6895.22
449.73	7150.34
449.91	7049.69
450.10	7199.49
450.28	7332.90
450.46	7281.41
450.65	7269.70
450.83	7140.97
451.02	7227.57
451.20	7384.39
451.39	7419.50
451.57	7108.21
451.76	7180.76
451.94	7304.81
452.13	7384.39
452.31	7353.96
452.49	7349.28
452.68	7297.79
452.86	7129.27
453.05	7246.30
453.23	7180.76
453.42	7178.42
453.60	7323.54
453.78	7644.19
453.97	7382.05
454.15	7487.37
454.34	7424.18
454.52	7602.06
454.70	7405.46
454.89	7674.62
455.07	7510.78
455.26	7744.83
455.44	7927.39
455.62	7815.05
455.81	7831.43
455.99	7840.79
456.17	7882.92
456.36	8025.70
456.54	8016.33
456.73	8030.38
456.91	8252.73
457.09	8182.51
457.28	8376.78
457.46	8063.15
457.64	8156.77
457.83	8154.43
458.01	8168.47
458.19	8428.27
458.38	8088.89
458.56	8245.71
458.74	8128.68
458.93	8269.11
459.11	8194.22
459.29	8327.63
459.48	8322.94
459.66	8219.96
459.84	8414.23
460.03	8514.87
460.21	8587.43
460.39	8432.95
460.57	8629.56
460.76	8512.53
460.94	8762.97
461.12	8690.41
461.31	8727.86
461.49	8468.06
461.67	8608.49
461.85	8772.33
462.04	8755.94
462.22	9280.22
462.40	8905.74
462.59	8781.69
462.77	8990.00
462.95	9092.98
463.13	8901.06
463.32	9062.55
463.50	9083.62
463.68	9109.36
463.86	9011.06
464.05	8812.12
464.23	8945.53
464.41	9029.79
464.59	8898.72
464.78	9242.78
464.96	9020.42
465.14	8985.32
465.32	9219.37
465.50	9312.99
465.69	9329.38
465.87	9301.29
466.05	9359.80
466.23	9153.84
466.41	9263.84
466.60	9359.80
466.78	9301.29
466.96	9467.47
467.14	9415.98
467.32	9486.19
467.51	9362.14
467.69	9303.63
467.87	9479.17
468.05	9535.34
468.23	9444.06
468.41	9439.38
468.60	9493.21
468.78	9561.09
468.96	9493.21
469.14	9713.22
469.32	9753.01
469.50	9568.11
469.69	9776.42
469.87	10008.13
470.05	9818.55
470.23	10066.64
470.41	9792.80
470.59	9912.17
470.77	9767.06
470.95	10146.22
471.14	10223.46
471.32	10223.46
471.50	10284.31
471.68	10328.78
471.86	10410.70
472.04	10450.49
472.22	10813.28
472.40	10359.21
472.58	10406.02
472.77	10616.67
472.95	10668.16
473.13	10855.40
473.31	10356.87
473.49	10672.84
473.67	10684.55
473.85	10516.03
474.03	11059.03
474.21	11075.42
474.39	10949.03
474.57	11358.62
474.75	11276.70
474.93	11126.91
475.12	11300.11
475.30	11073.07
475.48	11349.26
475.66	11506.07
475.84	11323.51
476.02	11311.81
476.20	11344.58
476.38	11447.56
476.56	12072.48
476.74	11995.25
476.92	11618.42
477.10	12011.63
477.28	12325.26
477.46	12128.66
477.64	12325.26
477.82	12287.81
478.00	12561.66
478.18	12461.01
478.36	12622.51
478.54	12758.26
478.72	12919.76
478.90	12737.20
479.08	13207.64
479.26	13107.00
479.44	13184.24
479.62	13109.34
479.80	13322.33
479.98	13481.49
480.16	13685.11
480.34	13598.51
480.52	13970.66
480.70	13685.11
480.88	13818.52
481.06	13996.40
481.24	13949.59
481.41	14008.11
481.59	14508.98
481.77	14429.40
481.95	14658.78
482.13	14586.22
482.31	14607.28
482.49	14925.60
482.67	14532.39
482.85	14993.47
483.03	15119.86
483.21	15382.00
483.39	15412.43
483.57	15157.31
483.74	15480.30
483.92	15765.85
484.10	15351.57
484.28	15847.77
484.46	16123.95
484.64	16252.68
484.82	16102.89
485.00	16212.89
485.18	16458.65
485.35	16648.23
485.53	15990.54
485.71	16226.93
485.89	16540.57
486.07	16503.12
486.25	16589.72
486.43	16893.99
486.61	16767.60
486.78	17411.25
486.96	17535.29
487.14	17568.06
487.32	17764.67
487.50	17774.03
487.68	18127.45
487.85	18438.74
488.03	18403.63
488.21	18480.87
488.39	18492.57
488.57	18691.52
488.75	18738.33
488.92	19166.65
489.10	19260.27
489.28	19302.40
489.46	19763.48
489.64	19838.38
489.81	20365.00
489.99	20238.61
490.17	20126.27
490.35	20292.44
490.53	20451.60
490.70	20465.64
490.88	20613.10
491.06	20746.51
491.24	20844.81
491.41	20718.42
491.59	20893.96
491.77	20863.54
491.95	20783.96
492.13	21565.70
492.30	21640.59
492.48	21579.74
492.66	22038.48
492.84	21855.92
493.01	22300.62
493.19	22008.06
493.37	22230.41
493.54	22363.82
493.72	22881.08
493.90	22934.91
494.08	23140.88
494.25	22958.31
494.43	23201.73
494.61	23374.93
494.79	23433.44
494.96	23534.09
495.14	23293.01
495.32	23695.58
495.49	23639.41
495.67	23784.52
495.85	24109.86
496.02	24458.60
496.20	24570.94
496.38	24477.32
496.55	24629.46
496.73	24971.18
496.91	24704.35
497.09	25020.33
497.26	24982.88
497.44	24929.05
497.62	25216.93
497.79	25142.03
497.97	25184.16
498.14	25584.40
498.32	25858.24
498.50	25792.70
498.67	25898.03
498.85	26087.61
499.03	26422.31
499.20	26263.15
499.38	26239.75
499.56	26354.43
499.73	26462.10
499.91	26630.62
500.08	26757.00
500.26	26483.16
500.44	26654.02
500.61	26471.46
500.79	26347.41
500.97	26967.65
501.14	27077.66
501.32	26916.16
501.49	27070.64
501.67	26948.93
501.84	27356.18
502.02	27440.44
502.20	27782.16
502.37	27618.32
502.55	27924.93
502.72	28034.94
502.90	28130.90
503.07	28135.58
503.25	28168.35
503.43	28187.07
503.60	28425.81
503.78	28091.11
503.95	28109.83
504.13	28643.48
504.30	28601.35
504.48	28577.94
504.65	28980.51
504.83	29053.07
505.01	29177.12
505.18	28968.81
505.36	29474.37
505.53	29446.28
505.71	30164.82
505.88	29958.86
506.06	29322.23
506.23	29696.72
506.41	29607.78
506.58	29874.60
506.76	29645.23
506.93	29977.58
507.11	30139.08
507.28	29762.25
507.46	30059.50
507.63	30237.38
507.81	30171.85
507.98	30309.94
508.16	30363.77
508.33	30356.75
508.50	30955.93
508.68	30796.77
508.85	31194.66
509.03	31323.39
509.20	31295.30
509.38	31405.31
509.55	31545.74
509.73	31304.67
509.90	31365.52
510.08	31723.62
510.25	31613.62
510.42	31208.70
510.60	31924.91
510.77	31765.75
510.95	32151.94
511.12	32109.81
511.30	32252.58
511.47	32542.81
511.64	32353.23
511.82	32655.15
511.99	32278.33
512.17	32692.60
512.34	32280.67
512.51	32900.91
512.69	32816.65
512.86	32542.81
513.04	32905.59
513.21	32694.94
513.38	33214.54
513.56	32858.78
513.73	32809.63
513.90	33006.23
514.08	32809.63
514.25	33497.75
514.43	33099.86
514.60	33493.07
514.77	33270.72
514.95	33703.71
515.12	33446.26
515.29	33530.51
515.47	33933.09
515.64	34195.23
515.81	34050.11
515.99	33942.45
516.16	34227.99
516.33	33675.63
516.51	33675.63
516.68	33366.68
516.85	33198.16
517.03	33624.14
517.20	34188.21
517.37	34394.17
517.54	34625.89
517.72	34637.59
517.89	33750.52
518.06	34150.76
518.24	33905.00
518.41	34066.50
518.58	34405.88
518.75	34405.88
518.93	35126.76
519.10	34588.44
519.27	34754.61
519.45	35325.71
519.62	34925.47
519.79	35360.81
519.96	35637.00
520.14	35587.85
520.31	35360.81
520.48	35285.92
520.65	35559.76
520.83	35543.38
521.00	36030.21
521.17	35978.72
521.34	36109.78
521.52	36339.16
521.69	36231.49
521.86	36371.92
522.03	36079.36
522.20	36215.11
522.38	36706.62
522.55	36311.07
522.72	36027.87
522.89	36575.55
523.07	36634.06
523.24	36575.55
523.41	37029.62
523.58	37071.75
523.75	37368.99
523.92	37031.96
524.10	37317.50
524.27	37427.51
524.44	37326.86
524.61	37645.18
524.78	37823.06
524.96	37928.38
525.13	37649.86
525.30	37296.44
525.47	37741.14
525.64	37598.37
525.81	37528.15
525.98	37490.70
526.16	37535.17
526.33	37291.76
526.50	37668.58
526.67	37027.28
526.84	37624.11
527.01	37476.66
527.18	37865.19
527.36	37933.06
527.53	38155.41
527.70	38869.28
527.87	38342.66
528.04	38050.09
528.21	38480.75
528.38	38614.16
528.55	38625.86
528.72	38712.46
528.89	39580.80
529.07	38960.56
529.24	38752.25
529.41	38862.26
529.58	38485.43
529.75	38651.61
529.92	38808.42
530.09	39203.97
530.26	39187.59
530.43	39005.03
530.60	39182.91
530.77	39580.80
530.94	39356.11
531.11	39744.64
531.28	39580.80
531.46	39686.12
531.63	39473.13
531.80	39210.99
531.97	39274.19
532.14	39723.57
532.31	39133.76
532.48	39283.55
532.65	39482.50
532.82	39468.45
532.99	39658.04
533.16	39791.45
533.33	39927.20
533.50	40315.73
533.67	40306.37
533.84	39842.94
534.01	39908.47
534.18	39742.30
534.35	40322.75
534.52	39976.35
534.69	40245.51
534.86	40507.65
535.03	40509.99
535.20	40947.67
535.37	40814.26
535.54	41268.33
535.71	40570.85
535.88	41041.29
536.05	41055.34
536.22	40879.80
536.38	40896.18
536.55	40655.11
536.72	40596.59
536.89	40453.82
537.06	40788.52
537.23	41303.43
537.40	41013.21
537.57	41085.76
537.74	40683.19
537.91	41535.15
538.08	41202.79
538.25	40828.30
538.42	41137.26
538.59	41277.69
538.75	41050.66
538.92	41095.13
539.09	41364.29
539.26	41415.78
539.43	41481.31
539.60	41153.64
539.77	40926.61
539.94	41455.57
540.11	41198.11
540.28	41612.38
540.44	41638.13
540.61	41563.23
540.78	41397.06
540.95	41371.31
541.12	41104.49
541.29	41975.17
541.46	41708.35
541.62	41720.05
541.79	42288.80
541.96	41923.68
542.13	42237.31
542.30	41921.34
542.47	42270.08
542.63	42075.81
542.80	42366.04
542.97	42120.28
543.14	42609.45
543.31	42768.61
543.48	42593.07
543.64	43157.14
543.81	43035.43
543.98	42583.71
544.15	42588.39
544.32	42717.12
544.48	42979.26
544.65	42981.60
544.82	43243.74
544.99	42906.70
545.16	42944.15
545.32	42508.81
545.49	43222.67
545.66	43344.38
545.83	43271.82
546.00	43353.74
546.16	42880.95
546.33	43192.25
546.50	42843.51
546.67	43260.12
546.83	42703.07
547.00	43248.42
547.17	43012.02
547.34	43379.49
547.50	43482.47
547.67	43393.53
547.84	43407.58
548.00	43728.23
548.17	43885.04
548.34	44107.40
548.51	44154.21
548.67	43943.56
548.84	43931.86
549.01	43468.43
549.18	43739.93
549.34	43487.15
549.51	43573.75
549.68	43955.26
549.84	43519.92
550.01	44264.21
550.18	43812.49
550.34	43604.18
550.51	43873.34
550.68	44079.31
550.84	43636.95
551.01	43732.91
551.18	43753.97
551.34	43810.15
551.51	44339.11
551.68	44680.83
551.84	44280.60
552.01	44186.97
552.18	44210.38
552.34	44545.08
552.51	44296.98
552.68	44053.56
552.84	44390.60
553.01	44769.77
553.18	44203.36
553.34	44498.26
553.51	44729.98
553.67	44631.68
553.84	44739.34
554.01	44931.26
554.17	44839.98
554.34	44804.88
554.51	44715.93
554.67	44711.25
554.84	44435.07
555.00	44701.89
555.17	44783.81
555.33	44844.66
555.50	44690.19
555.67	44610.61
555.83	44788.49
556.00	44762.75
556.16	45113.83
556.33	44542.74
556.50	44753.38
556.66	44952.33
556.83	44357.83
556.99	45001.48
557.16	44865.73
557.32	45230.85
557.49	45088.08
557.65	45113.83
557.82	44776.79
557.98	44891.48
558.15	44767.43
558.32	45205.11
558.48	44996.80
558.65	44765.09
558.81	44975.73
558.98	44753.38
559.14	45170.00
559.31	44914.88
559.47	45017.86
559.64	45382.99
559.80	44905.52
559.97	45422.78
560.13	45029.57
560.30	45092.76
560.46	45663.85
560.63	45495.33
560.79	45488.31
560.96	45638.11
561.12	45411.07
561.29	45174.68
561.45	45305.75
561.61	45123.19
561.78	45062.33
561.94	45144.25
562.11	45144.25
562.27	45088.08
562.44	45766.84
562.60	45642.79
562.77	45696.62
562.93	45343.20
563.10	45668.53
563.26	45170.00
563.42	45450.86
563.59	45565.55
563.75	45689.60
563.92	45858.12
564.08	45212.13
564.24	45806.62
564.41	45897.91
564.57	45516.40
564.74	45783.22
564.90	45397.03
565.07	45570.23
565.23	45539.80
565.39	45525.76
565.56	45839.39
565.72	45298.73
565.88	45034.25
566.05	45532.78
566.21	45460.23
566.38	45628.74
566.54	45787.90
566.70	45546.82
566.87	46160.05
567.03	45947.06
567.19	46408.14
567.36	46092.17
567.52	45799.60
567.68	45720.02
567.85	45549.17
568.01	45773.86
568.17	45612.36
568.34	45797.26
568.50	45736.41
568.66	45397.03
568.83	45600.66
568.99	45633.42
569.15	45923.65
569.32	45893.22
569.48	45368.94
569.64	45846.41
569.81	46124.94
569.97	46024.29
570.13	45839.39
570.30	45148.93
570.46	45577.25
570.62	45640.45
570.78	45165.32
570.95	45624.06
571.11	45586.61
571.27	46061.74
571.43	45537.46
571.60	45827.69
571.76	45909.61
571.92	45682.58
572.09	46003.23
572.25	45949.40
572.41	46059.40
572.57	45937.69
572.74	46752.20
572.90	46239.62
573.06	45883.86
573.22	46131.96
573.38	46560.28
573.55	45586.61
573.71	46288.77
573.87	46216.22
574.03	45841.73
574.20	45914.29
574.36	45649.81
574.52	46129.62
574.68	45867.48
574.84	46251.33
575.01	45879.18
575.17	45514.06
575.33	45521.08
575.49	45741.09
575.65	46169.41
575.82	46279.41
575.98	45900.25
576.14	45830.03
576.30	45991.53
576.46	46113.23
576.62	45801.94
576.79	45518.74
576.95	45888.54
577.11	46153.02
577.27	46036.00
577.43	46167.07
577.59	45659.17
577.75	45799.60
577.92	45731.73
578.08	45806.62
578.24	45258.94
578.40	45738.75
578.56	46047.70
578.72	46181.11
578.88	46190.47
579.04	45930.67
579.21	45469.59
579.37	45968.12
579.53	45544.48
579.69	45628.74
579.85	45897.91
580.01	46005.57
580.17	45642.79
580.33	46106.21
580.49	46281.75
580.65	46021.95
580.82	45818.33
580.98	46174.09
581.14	45705.98
581.30	46089.83
581.46	46017.27
581.62	45928.33
581.78	46185.79
581.94	46216.22
582.10	46040.68
582.26	46319.20
582.42	46019.61
582.58	46148.34
582.74	46256.01
582.90	46466.66
583.06	45947.06
583.22	46075.79
583.38	46197.49
583.54	46162.39
583.70	46185.79
583.86	46141.32
584.02	45888.54
584.18	46424.53
584.34	46246.65
584.50	45762.15
584.66	46153.02
584.82	46010.25
584.98	46202.18
585.14	46024.29
585.30	45869.82
585.46	46134.30
585.62	46017.27
585.78	46031.32
585.94	46330.90
586.10	45890.88
586.26	46075.79
586.42	46153.02
586.58	46099.19
586.74	45844.07
586.90	46052.38
587.06	45771.52
587.22	46251.33
587.38	46387.08
587.54	46134.30
587.70	46213.88
587.86	45923.65
588.02	46330.90
588.18	46358.99
588.34	46003.23
588.49	45064.67
588.65	45347.88
588.81	45635.77
588.97	45799.60
589.13	45439.16
589.29	45642.79
589.45	45645.13
589.61	45762.15
589.77	46337.93
589.93	46115.58
590.08	46218.56
