SpectraSuite Data File
++++++++++++++++++++++++++++++++++++
Date: Fri Oct 25 10:47:44 EDT 2013
User: price-jones
Dark Spectrum Present: No
Reference Spectrum Present: No
Number of Sampled Component Spectra: 1
Spectrometers: USB2+H05261
Integration Time (usec): 100000 (USB2+H05261)
Spectra Averaged: 1 (USB2+H05261)
Boxcar Smoothing: 0 (USB2+H05261)
Correct for Electrical Dark: No (USB2+H05261)
Strobe/Lamp Enabled: No (USB2+H05261)
Correct for Detector Non-linearity: No (USB2+H05261)
Correct for Stray Light: No (USB2+H05261)
Number of Pixels in Processed Spectrum: 2048
>>>>>Begin Processed Spectral Data<<<<<
365.73	147.45
365.92	147.45
366.12	147.45
366.32	131.07
366.52	32.77
366.72	70.22
366.91	11.70
367.11	9.36
367.31	72.56
367.51	25.75
367.70	49.15
367.90	95.96
368.10	9.36
368.30	95.96
368.49	0.00
368.69	25.75
368.89	77.24
369.09	93.62
369.28	100.64
369.48	105.32
369.68	74.90
369.87	67.88
370.07	88.94
370.27	142.77
370.47	220.01
370.66	402.57
370.86	418.96
371.06	444.70
371.25	463.43
371.45	367.46
371.65	433.00
371.84	463.43
372.04	425.98
372.24	519.60
372.44	526.62
372.63	423.64
372.83	484.49
373.03	418.96
373.22	463.43
373.42	535.98
373.62	479.81
373.81	592.16
374.01	559.39
374.21	568.75
374.40	510.24
374.60	641.31
374.79	627.26
374.99	559.39
375.19	596.84
375.38	535.98
375.58	566.41
375.78	594.50
375.97	578.11
376.17	631.94
376.37	594.50
376.56	603.86
376.76	559.39
376.95	613.22
377.15	582.79
377.35	557.05
377.54	535.98
377.74	660.03
377.93	571.09
378.13	636.63
378.33	716.20
378.52	608.54
378.72	660.03
378.91	706.84
379.11	620.24
379.31	624.92
379.50	592.16
379.70	702.16
379.89	580.45
380.09	627.26
380.28	645.99
380.48	690.46
380.68	645.99
380.87	613.22
381.07	599.18
381.26	608.54
381.46	690.46
381.65	706.84
381.85	723.23
382.04	615.56
382.24	660.03
382.43	774.72
382.63	617.90
382.83	688.12
383.02	664.71
383.22	763.01
383.41	688.12
383.61	678.76
383.80	643.65
384.00	676.41
384.19	772.38
384.39	716.20
384.58	688.12
384.78	795.78
384.97	734.93
385.17	690.46
385.36	772.38
385.56	753.65
385.75	781.74
385.95	763.01
386.14	772.38
386.34	772.38
386.53	866.00
386.72	770.04
386.92	833.23
387.11	866.00
387.31	781.74
387.50	837.91
387.70	837.91
387.89	723.23
388.09	835.57
388.28	896.43
388.48	870.68
388.67	894.08
388.86	849.61
389.06	894.08
389.25	851.96
389.45	1008.77
389.64	898.77
389.84	950.26
390.03	851.96
390.22	976.00
390.42	858.98
390.61	997.07
390.81	828.55
391.00	959.62
391.19	961.96
391.39	1004.09
391.58	961.96
391.78	968.98
391.97	987.71
392.16	961.96
392.36	943.24
392.55	905.79
392.75	990.05
392.94	936.21
393.13	976.00
393.33	952.60
393.52	931.53
393.71	1032.18
393.91	1039.20
394.10	1013.45
394.29	1067.28
394.49	1125.80
394.68	1104.73
394.88	1064.94
395.07	1144.52
395.26	1097.71
395.46	1186.65
395.65	1177.29
395.84	1109.41
396.04	1135.16
396.23	1121.12
396.42	1095.37
396.62	1109.41
396.81	1093.03
397.00	1247.51
397.19	1149.20
397.39	1188.99
397.58	1193.67
397.77	1179.63
397.97	1193.67
398.16	1221.76
398.35	1247.51
398.55	1263.89
398.74	1313.04
398.93	1303.68
399.12	1296.66
399.32	1350.49
399.51	1359.85
399.70	1334.11
399.90	1364.53
400.09	1366.87
400.28	1423.05
400.47	1383.26
400.67	1479.22
400.86	1423.05
401.05	1511.99
401.24	1465.18
401.44	1453.47
401.63	1472.20
401.82	1516.67
402.01	1444.11
402.21	1493.26
402.40	1533.05
402.59	1472.20
402.78	1533.05
402.97	1540.07
403.17	1558.80
403.36	1474.54
403.55	1682.85
403.74	1612.63
403.93	1675.82
404.13	1680.50
404.32	1563.48
404.51	1645.40
404.70	1682.85
404.89	1666.46
405.09	1659.44
405.28	1736.68
405.47	1659.44
405.66	1685.19
405.85	1785.83
406.05	1661.78
406.24	1750.72
406.43	1785.83
406.62	1804.55
406.81	1867.75
407.00	1823.28
407.20	1790.51
407.39	1851.36
407.58	1851.36
407.77	1867.75
407.96	1863.07
408.15	1877.11
408.34	1930.94
408.54	1970.73
408.73	1886.47
408.92	1989.46
409.11	2120.53
409.30	2012.86
409.49	1954.35
409.68	2078.40
409.87	2059.67
410.07	1996.48
410.26	2092.44
410.45	2066.69
410.64	2251.60
410.83	2129.89
411.02	2207.13
411.21	2174.36
411.40	2303.09
411.59	2347.56
411.78	2218.83
411.98	2165.00
412.17	2303.09
412.36	2300.75
412.55	2382.67
412.74	2352.24
412.93	2349.90
413.12	2427.14
413.31	2534.80
413.50	2424.80
413.69	2431.82
413.88	2555.86
414.07	2462.24
414.26	2586.29
414.45	2464.58
414.64	2656.51
414.83	2785.24
415.02	2651.83
415.22	2679.91
415.41	2691.62
415.60	2759.49
415.79	2878.86
415.98	2946.73
416.17	2768.85
416.36	2874.18
416.55	2836.73
416.74	2956.10
416.93	2935.03
417.12	2932.69
417.31	2925.67
417.50	2972.48
417.69	2995.89
417.88	3049.72
418.07	2995.89
418.26	2979.50
418.45	3159.72
418.64	3122.27
418.83	3110.57
419.02	3115.25
419.21	3183.13
419.39	3122.27
419.58	3190.15
419.77	3178.45
419.96	3302.50
420.15	3316.54
420.34	3258.03
420.53	3314.20
420.72	3346.97
420.91	3339.94
421.10	3288.45
421.29	3358.67
421.48	3335.26
421.67	3438.25
421.86	3311.86
422.05	3358.67
422.24	3279.09
422.43	3337.60
422.61	3513.14
422.80	3524.85
422.99	3447.61
423.18	3520.17
423.37	3606.77
423.56	3611.45
423.75	3510.80
423.94	3407.82
424.13	3318.88
424.32	3368.03
424.50	3531.87
424.69	3515.48
424.88	3538.89
425.07	3414.84
425.26	3489.74
425.45	3478.04
425.64	3531.87
425.83	3515.48
426.01	3485.06
426.20	3520.17
426.39	3536.55
426.58	3515.48
426.77	3641.87
426.96	3494.42
427.15	3545.91
427.33	3634.85
427.52	3627.83
427.71	3653.58
427.90	3581.02
428.09	3669.96
428.28	3726.13
428.46	3700.39
428.65	3805.71
428.84	3772.94
429.03	3887.63
429.22	3684.00
429.40	3838.48
429.59	3824.44
429.78	3733.15
429.97	3559.95
430.16	3658.26
430.34	3833.80
430.53	3843.16
430.72	3899.33
430.91	3906.35
431.10	3985.93
431.28	3988.27
431.47	4180.20
431.66	4145.09
431.85	4128.70
432.03	4145.09
432.22	4098.28
432.41	4105.30
432.60	4196.58
432.79	4147.43
432.97	4196.58
433.16	4189.56
433.35	4161.47
433.54	4152.11
433.72	4285.52
433.91	4166.15
434.10	4238.71
434.28	4217.65
434.47	4325.31
434.66	4428.29
434.85	4381.48
435.03	4432.97
435.22	4346.37
435.41	4507.87
435.59	4540.64
435.78	4526.60
435.97	4624.90
436.16	4547.66
436.34	4454.04
436.53	4617.88
436.72	4596.81
436.90	4449.36
437.09	4695.11
437.28	4578.09
437.46	4746.61
437.65	4676.39
437.84	4671.71
438.02	4688.09
438.21	4709.16
438.40	4760.65
438.58	4851.93
438.77	4835.55
438.96	4887.04
439.14	5050.88
439.33	4873.00
439.52	4968.96
439.70	4917.47
439.89	5048.54
440.08	5277.91
440.26	5191.31
440.45	4917.47
440.63	5156.20
440.82	5348.12
441.01	5397.28
441.19	5427.70
441.38	5273.23
441.57	5420.68
441.75	5408.98
441.94	5430.04
442.12	5544.73
442.31	5598.56
442.50	5586.86
442.68	5411.32
442.87	5551.75
443.05	5654.73
443.24	5680.48
443.43	5760.06
443.61	5804.53
443.80	5863.04
443.98	5605.58
444.17	5526.00
444.35	5682.82
444.54	5893.47
444.73	5891.13
444.91	5778.78
445.10	5727.29
445.28	5802.19
445.47	5729.63
445.65	5813.89
445.84	5729.63
446.02	5825.59
446.21	5837.30
446.39	5741.33
446.58	5914.53
446.77	5921.56
446.95	5930.92
447.14	5900.49
447.32	5884.11
447.51	5944.96
447.69	5863.04
447.88	6001.13
448.06	6181.35
448.25	5783.46
448.43	5930.92
448.62	5944.96
448.80	5980.07
448.99	6045.60
449.17	6038.58
449.36	6069.01
449.54	6183.70
449.73	6251.57
449.91	6370.94
450.10	6218.80
450.28	6326.47
450.46	6380.30
450.65	6289.02
450.83	6354.55
451.02	6415.41
451.20	6382.64
451.39	6370.94
451.57	6384.98
451.76	6312.42
451.94	6434.13
452.13	6466.90
452.31	6422.43
452.49	6260.93
452.68	6530.09
452.86	6473.92
453.05	6511.37
453.23	6459.88
453.42	6438.81
453.60	6663.51
453.78	6707.98
453.97	6715.00
454.15	6616.69
454.34	6438.81
454.52	6761.81
454.70	6808.62
454.89	6609.67
455.07	6670.53
455.26	6785.21
455.44	6628.40
455.62	6899.90
455.81	6710.32
455.99	6815.64
456.17	6946.71
456.36	6855.43
456.54	6897.56
456.73	7070.76
456.91	7353.96
457.09	7232.26
457.28	7386.73
457.46	7166.72
457.64	7056.72
457.83	7302.47
458.01	7108.21
458.19	7438.22
458.38	7164.38
458.56	7286.09
458.74	7279.07
458.93	7449.93
459.11	7281.41
459.29	7515.46
459.48	7410.14
459.66	7442.90
459.84	7562.27
460.03	7637.17
460.21	7761.22
460.39	7620.78
460.57	7508.44
460.76	7534.18
460.94	7662.91
461.12	7686.32
461.31	7679.30
461.49	7676.96
461.67	7644.19
461.85	7847.82
462.04	7805.69
462.22	8077.19
462.40	7962.50
462.59	7889.95
462.77	8021.02
462.95	7957.82
463.13	8021.02
463.32	8067.83
463.50	8187.19
463.68	8011.65
463.86	8102.93
464.05	7791.64
464.23	8065.49
464.41	8065.49
464.59	7948.46
464.78	8224.64
464.96	8088.89
465.14	8109.96
465.32	8229.32
465.50	8154.43
465.69	8320.60
465.87	8072.51
466.05	8238.69
466.23	8093.57
466.41	8252.73
466.60	8362.73
466.78	8290.18
466.96	8372.10
467.14	8360.39
467.32	8376.78
467.51	8559.34
467.69	8339.33
467.87	8355.71
468.05	8713.81
468.23	8575.72
468.41	8540.61
468.60	8699.77
468.78	8547.64
468.96	8746.58
469.14	8629.56
469.32	8695.09
469.50	8671.68
469.69	8730.20
469.87	8760.63
470.05	8870.63
470.23	8854.25
470.41	8959.57
470.59	9076.60
470.77	8828.50
470.95	9050.85
471.14	9064.89
471.32	8819.14
471.50	9212.35
471.68	9195.96
471.86	9144.47
472.04	9247.46
472.22	9472.15
472.40	9092.98
472.58	9469.81
472.77	9406.61
472.95	9575.13
473.13	9628.96
473.31	9572.79
473.49	9394.91
473.67	9689.82
473.85	9621.94
474.03	9942.60
474.21	9841.95
474.39	9954.30
474.57	9834.93
474.75	9898.13
474.93	10036.22
475.12	10087.71
475.30	10019.83
475.48	9956.64
475.66	10068.98
475.84	10183.67
476.02	10270.27
476.20	10326.44
476.38	10583.90
476.56	10693.91
476.74	10431.77
476.92	10691.57
477.10	10743.06
477.28	10913.92
477.46	10827.32
477.64	11026.26
477.82	10930.30
478.00	11311.81
478.18	11274.36
478.36	11316.49
478.54	11365.64
478.72	11356.28
478.90	11845.45
479.08	11676.93
479.26	11817.36
479.44	12093.55
479.62	12095.89
479.80	11934.39
479.98	12226.96
480.16	12196.53
480.34	12154.40
480.52	12367.39
480.70	12526.55
480.88	12327.60
481.06	12315.90
481.24	12533.57
481.41	12868.27
481.59	12755.92
481.77	12957.21
481.95	13130.41
482.13	13074.23
482.31	13369.14
482.49	13348.08
482.67	13558.72
482.85	13778.73
483.03	13596.17
483.21	13771.71
483.39	14057.26
483.57	14001.08
483.74	13898.10
483.92	14204.71
484.10	14078.32
484.28	14155.56
484.46	14801.55
484.64	14953.68
484.82	14448.13
485.00	14682.18
485.18	15152.63
485.35	14984.11
485.53	14946.66
485.71	14920.92
485.89	15417.11
486.07	15405.41
486.25	15279.02
486.43	15133.90
486.61	15527.11
486.78	15819.68
486.96	15995.22
487.14	16093.52
487.32	15988.20
487.50	16334.60
487.68	16563.97
487.85	16884.62
488.03	16879.94
488.21	16601.42
488.39	17132.72
488.57	16945.48
488.75	17298.90
488.92	17298.90
489.10	17694.45
489.28	17680.41
489.46	17914.46
489.64	17502.53
489.81	18251.50
489.99	18267.88
490.17	18146.17
490.35	18640.03
490.53	18586.19
490.70	18700.88
490.88	18675.13
491.06	19058.98
491.24	18993.45
491.41	18977.06
491.59	19007.49
491.77	18998.13
491.95	19365.59
492.13	19353.89
492.30	19653.48
492.48	19845.40
492.66	19749.44
492.84	19889.87
493.01	20336.91
493.19	19901.58
493.37	20114.56
493.54	20294.79
493.72	20596.71
493.90	20500.75
494.08	20924.39
494.25	21228.66
494.43	20849.49
494.61	21324.62
494.79	21247.38
494.96	21425.26
495.14	21191.21
495.32	21652.30
495.49	21862.94
495.67	21546.97
495.85	21575.06
496.02	22113.38
496.20	22155.51
496.38	21996.35
496.55	22001.04
496.73	22970.02
496.91	22663.41
497.09	22647.02
497.26	23089.38
497.44	22787.46
497.62	23047.26
497.79	23487.28
497.97	22845.97
498.14	23503.66
498.32	23173.64
498.50	23679.20
498.67	24046.66
498.85	23728.35
499.03	24046.66
499.20	24203.48
499.38	23819.63
499.56	24049.00
499.73	24322.85
499.91	24484.34
500.08	24451.58
500.26	24334.55
500.44	24498.39
500.61	24702.01
500.79	24671.59
500.97	24404.77
501.14	24938.41
501.32	25113.95
501.49	24945.43
501.67	25083.52
501.84	25179.48
502.02	25123.31
502.20	25614.82
502.37	25448.64
502.55	25359.70
502.72	25703.76
502.90	25937.82
503.07	25462.69
503.25	25776.32
503.43	25846.54
503.60	26199.96
503.78	26022.08
503.95	26230.38
504.13	25886.32
504.30	26656.36
504.48	26485.50
504.65	26457.42
504.83	26787.43
505.01	27049.57
505.18	26654.02
505.36	27049.57
505.53	27180.64
505.71	26822.54
505.88	27269.58
506.06	27103.40
506.23	27330.44
506.41	27173.62
506.58	27838.33
506.76	27433.42
506.93	27906.21
507.11	27576.19
507.28	27761.09
507.46	27655.77
507.63	27833.65
507.81	27667.47
507.98	27742.37
508.16	28362.61
508.33	28395.38
508.50	28257.29
508.68	28428.15
508.85	28823.70
509.03	28673.90
509.20	28851.78
509.38	28659.86
509.55	29170.10
509.73	28900.94
509.90	29062.43
510.08	29017.96
510.25	29198.18
510.42	29106.90
510.60	29511.81
510.77	29759.91
510.95	29624.16
511.12	29429.90
511.30	29511.81
511.47	29610.12
511.64	29949.50
511.82	29947.15
511.99	29450.96
512.17	29886.30
512.34	29752.89
512.51	30103.97
512.69	30101.63
512.86	30497.18
513.04	30623.57
513.21	30696.13
513.38	30532.29
513.56	30483.14
513.73	30740.60
513.90	30445.69
514.08	30576.76
514.25	30878.69
514.43	30845.92
514.60	30845.92
514.77	30969.97
514.95	30948.90
515.12	31154.87
515.29	31285.94
515.47	31482.55
515.64	31648.72
515.81	31470.84
515.99	31358.50
516.16	31454.46
516.33	31353.82
516.51	31798.52
516.68	31810.22
516.85	31559.78
517.03	31091.68
517.20	31707.24
517.37	31934.27
517.54	32067.68
517.72	32175.34
517.89	32044.27
518.06	32215.13
518.24	32065.34
518.41	31978.74
518.58	31962.36
518.75	32023.21
518.93	32329.82
519.10	32711.33
519.27	32781.54
519.45	33022.62
519.62	32870.48
519.79	32774.52
519.96	32961.76
520.14	33001.55
520.31	32994.53
520.48	33504.77
520.65	33198.16
520.83	33280.08
521.00	33572.64
521.17	33364.34
521.34	33240.29
521.52	33853.51
521.69	33684.99
521.86	33642.86
522.03	33462.64
522.20	33886.28
522.38	34408.22
522.55	33996.28
522.72	33820.74
522.89	34394.17
523.07	34066.50
523.24	34050.11
523.41	34480.77
523.58	34209.27
523.75	34787.38
523.92	34618.86
524.10	34668.02
524.27	34705.46
524.44	34862.28
524.61	35075.27
524.78	35105.70
524.96	35424.01
525.13	35171.23
525.30	35330.39
525.47	35597.21
525.64	35206.34
525.81	35515.29
525.98	35175.91
526.16	35075.27
526.33	35075.27
526.50	35271.87
526.67	35321.02
526.84	35367.84
527.01	35543.38
527.18	35431.03
527.36	35204.00
527.53	35927.22
527.70	36070.00
527.87	35732.96
528.04	35849.99
528.21	36025.53
528.38	35704.87
528.55	36261.92
528.72	36177.66
528.89	36144.89
529.07	36421.08
529.24	36187.02
529.41	35718.92
529.58	36243.20
529.75	36198.73
529.92	36346.18
530.09	36620.02
530.26	36568.53
530.43	36481.93
530.60	36594.28
530.77	36781.52
530.94	36718.32
531.11	36961.74
531.28	36708.96
531.46	37469.64
531.63	37268.35
531.80	36797.90
531.97	37200.47
532.14	37298.78
532.31	36975.78
532.48	37298.78
532.65	36982.80
532.82	37280.05
532.99	37954.13
533.16	37193.45
533.33	37890.93
533.50	37874.55
533.67	37738.80
533.84	37511.77
534.01	37867.53
534.18	37617.09
534.35	37860.51
534.52	37837.10
534.69	38279.46
534.86	38115.62
535.03	37881.57
535.20	38183.50
535.37	38300.53
535.54	38087.54
535.71	37930.72
535.88	38089.88
536.05	38469.04
536.22	38347.34
536.38	37958.81
536.55	38543.94
536.72	38539.26
536.89	38616.50
537.06	38387.13
537.23	38211.59
537.40	38117.96
537.57	38785.02
537.74	38632.88
537.91	39381.85
538.08	38731.18
538.25	38508.83
538.42	38902.04
538.59	39084.61
538.75	38876.30
538.92	38714.80
539.09	39089.29
539.26	39456.75
539.43	39147.80
539.60	39189.93
539.77	38852.89
539.94	39152.48
540.11	39292.91
540.28	38939.49
540.44	39400.58
540.61	39112.69
540.78	39318.66
540.95	39508.24
541.12	39353.77
541.29	39632.29
541.46	39388.88
541.62	39737.62
541.79	39976.35
541.96	39533.99
542.13	39412.28
542.30	40154.23
542.47	39952.94
542.63	39505.90
542.80	40023.16
542.97	40238.49
543.14	40545.10
543.31	40194.02
543.48	40491.27
543.64	41116.19
543.81	40250.19
543.98	40304.02
544.15	40432.75
544.32	40701.92
544.48	41116.19
544.65	40343.81
544.82	40737.02
544.99	40484.25
545.16	40861.07
545.32	40594.25
545.49	41249.60
545.66	40959.38
545.83	41078.74
546.00	41104.49
546.16	40882.14
546.33	40807.24
546.50	40060.61
546.67	40765.11
546.83	40395.31
547.00	40919.59
547.17	41015.55
547.34	40992.14
547.50	41045.97
547.67	41200.45
547.84	41106.83
548.00	41312.80
548.17	41301.09
548.34	41436.84
548.51	41598.34
548.67	41542.17
548.84	41741.11
549.01	41450.89
549.18	41502.38
549.34	42000.91
549.51	41357.27
549.68	41586.64
549.84	41642.81
550.01	42089.85
550.18	41038.95
550.34	41689.62
550.51	41579.62
550.68	42054.75
550.84	41375.99
551.01	42007.94
551.18	41708.35
551.34	42129.64
551.51	41872.18
551.68	42171.77
551.84	42429.23
552.01	42209.22
552.18	42029.00
552.34	41476.63
552.51	41991.55
552.68	42099.22
552.84	42377.74
553.01	42588.39
553.18	42586.05
553.34	42351.99
553.51	42206.88
553.67	42061.77
553.84	42576.69
554.01	43030.75
554.17	42686.69
554.34	42808.40
554.51	42979.26
554.67	42941.81
554.84	42784.99
555.00	42651.58
555.17	42384.76
555.33	43042.45
555.50	42813.08
555.67	42824.78
555.83	42822.44
556.00	42995.64
556.16	43107.99
556.33	42813.08
556.50	42557.96
556.66	42834.14
556.83	42609.45
556.99	43086.92
557.16	43023.73
557.32	43058.84
557.49	42808.40
557.65	42513.49
557.82	42735.84
557.98	42780.31
558.15	43061.18
558.32	43033.09
558.48	43061.18
558.65	43194.59
558.81	43124.37
558.98	42995.64
559.14	43164.16
559.31	43470.77
559.47	43236.72
559.64	44151.87
559.80	43763.34
559.97	43421.62
560.13	43349.06
560.30	43316.29
560.46	43438.00
560.63	43154.80
560.79	43770.36
560.96	43863.98
561.12	43793.76
561.29	43540.99
561.45	43215.65
561.61	43552.69
561.78	43288.21
561.94	43601.84
562.11	43721.21
562.27	43416.94
562.44	43601.84
562.60	43753.97
562.77	43667.37
562.93	43409.92
563.10	43573.75
563.26	43232.04
563.42	43388.85
563.59	43494.18
563.75	43618.22
563.92	43835.89
564.08	43428.64
564.24	43981.01
564.41	43746.95
564.57	43775.04
564.74	43639.29
564.90	43885.04
565.07	43768.02
565.23	43524.60
565.39	43601.84
565.56	44191.65
565.72	43576.09
565.88	43981.01
566.05	43901.43
566.21	44105.06
566.38	43320.98
566.54	44093.35
566.70	43901.43
566.87	44219.74
567.03	44116.76
567.19	44313.36
567.36	44348.47
567.52	44238.47
567.68	43945.90
567.85	44107.40
568.01	43716.53
568.17	44098.03
568.34	43964.62
568.50	44100.37
568.66	44095.69
568.83	44268.89
568.99	43452.05
569.15	43915.47
569.32	43587.80
569.48	43756.32
569.64	44130.80
569.81	44147.18
569.97	44170.59
570.13	44177.61
570.30	44161.23
570.46	44011.43
570.62	44023.14
570.78	43990.37
570.95	43571.41
571.11	44362.51
571.27	44399.96
571.43	43768.02
571.60	44648.06
571.76	43976.33
571.92	44493.58
572.09	43920.15
572.25	44383.58
572.41	44264.21
572.57	43936.54
572.74	44678.49
572.90	44409.32
573.06	44369.54
573.22	44294.64
573.38	44135.48
573.55	44210.38
573.71	44648.06
573.87	44446.77
574.03	44163.57
574.20	44135.48
574.36	44144.84
574.52	44421.03
574.68	44308.68
574.84	44357.83
575.01	44161.23
575.17	44463.16
575.33	44346.13
575.49	44259.53
575.65	44704.23
575.82	44966.37
575.98	44704.23
576.14	44671.46
576.30	44002.07
576.46	44034.84
576.62	44430.39
576.79	43976.33
576.95	44081.65
577.11	44879.77
577.27	44320.38
577.43	44500.61
577.59	44299.32
577.75	44493.58
577.92	44044.20
578.08	44217.40
578.24	44198.68
578.40	44287.62
578.56	44486.56
578.72	44479.54
578.88	44271.23
579.04	44107.40
579.21	44509.97
579.37	44306.34
579.53	44765.09
579.69	44126.12
579.85	44306.34
580.01	44374.22
580.17	44636.36
580.33	44402.30
580.49	44790.83
580.65	44636.36
580.82	44552.10
580.98	44179.95
581.14	44425.71
581.30	44545.08
581.46	44533.37
581.62	44524.01
581.78	43899.09
581.94	45109.14
582.10	44428.05
582.26	44353.15
582.42	44961.69
582.58	44790.83
582.74	44573.16
582.90	44837.64
583.06	44617.63
583.22	44409.32
583.38	44488.90
583.54	44744.02
583.70	44437.41
583.86	44238.47
584.02	44320.38
584.18	44481.88
584.34	44615.29
584.50	44699.55
584.66	44540.39
584.82	44739.34
584.98	44505.29
585.14	44868.07
585.30	44364.85
585.46	44505.29
585.62	44266.55
585.78	44444.43
585.94	44418.69
586.10	44577.84
586.26	44823.60
586.42	45118.51
586.58	44598.91
586.74	44877.43
586.90	44355.49
587.06	44767.43
587.22	45006.16
587.38	44711.25
587.54	44910.20
587.70	45038.93
587.86	44713.59
588.02	44978.07
588.18	44800.19
588.34	44409.32
588.49	44325.07
588.65	44339.11
588.81	44229.10
588.97	44655.08
589.13	44165.91
589.29	44554.44
589.45	44699.55
589.61	44800.19
589.77	44875.09
589.93	45067.02
590.08	45385.33
590.24	44996.80
