SpectraSuite Data File
++++++++++++++++++++++++++++++++++++
Date: Fri Oct 25 11:25:08 EDT 2013
User: price-jones
Dark Spectrum Present: No
Reference Spectrum Present: No
Number of Sampled Component Spectra: 1
Spectrometers: USB2+H05261
Integration Time (usec): 100000 (USB2+H05261)
Spectra Averaged: 1 (USB2+H05261)
Boxcar Smoothing: 0 (USB2+H05261)
Correct for Electrical Dark: No (USB2+H05261)
Strobe/Lamp Enabled: No (USB2+H05261)
Correct for Detector Non-linearity: No (USB2+H05261)
Correct for Stray Light: No (USB2+H05261)
Number of Pixels in Processed Spectrum: 2048
>>>>>Begin Processed Spectral Data<<<<<
365.73	292.57
365.92	292.57
366.12	292.57
366.32	149.79
366.52	51.49
366.72	142.77
366.91	105.32
367.11	212.99
367.31	147.45
367.51	88.94
367.70	98.30
367.90	110.01
368.10	128.73
368.30	161.50
368.49	131.07
368.69	154.48
368.89	100.64
369.09	117.03
369.28	142.77
369.48	184.90
369.68	227.03
369.87	138.09
370.07	152.13
370.27	220.01
370.47	346.40
370.66	608.54
370.86	664.71
371.06	734.93
371.25	645.99
371.45	648.33
371.65	697.48
371.84	678.76
372.04	622.58
372.24	692.80
372.44	770.04
372.63	758.33
372.83	760.67
373.03	763.01
373.22	734.93
373.42	781.74
373.62	774.72
373.81	791.10
374.01	791.10
374.21	835.57
374.40	751.31
374.60	851.96
374.79	748.97
374.99	809.83
375.19	739.61
375.38	816.85
375.58	849.61
375.78	823.87
375.97	844.93
376.17	964.30
376.37	798.12
376.56	851.96
376.76	870.68
376.95	877.70
377.15	861.32
377.35	807.48
377.54	898.77
377.74	931.53
377.93	903.45
378.13	896.43
378.33	889.40
378.52	922.17
378.72	1013.45
378.91	940.90
379.11	926.85
379.31	990.05
379.50	1006.43
379.70	1048.56
379.89	959.62
380.09	990.05
380.28	966.64
380.48	1011.11
380.68	1004.09
380.87	1036.86
381.07	983.02
381.26	966.64
381.46	1071.97
381.65	992.39
381.85	1048.56
382.04	1039.20
382.24	1093.03
382.43	1057.92
382.63	1069.62
382.83	1123.46
383.02	1074.31
383.22	1086.01
383.41	1090.69
383.61	1224.10
383.80	1198.35
384.00	1076.65
384.19	1132.82
384.39	1153.88
384.58	1116.44
384.78	1057.92
384.97	1238.14
385.17	1137.50
385.36	1088.35
385.56	1231.12
385.75	1282.61
385.95	1121.12
386.14	1210.06
386.34	1238.14
386.53	1151.54
386.72	1170.27
386.92	1217.08
387.11	1277.93
387.31	1172.61
387.50	1273.25
387.70	1266.23
387.89	1228.78
388.09	1308.36
388.28	1231.12
388.48	1277.93
388.67	1341.13
388.86	1334.11
389.06	1336.45
389.25	1306.02
389.45	1383.26
389.64	1437.09
389.84	1455.81
390.03	1420.71
390.22	1378.58
390.42	1331.76
390.61	1420.71
390.81	1420.71
391.00	1458.15
391.19	1448.79
391.39	1369.21
391.58	1355.17
391.78	1427.73
391.97	1521.35
392.16	1409.00
392.36	1453.47
392.55	1504.96
392.75	1474.54
392.94	1565.82
393.13	1481.56
393.33	1502.62
393.52	1558.80
393.71	1565.82
393.91	1577.52
394.10	1504.96
394.29	1582.20
394.49	1526.03
394.68	1554.12
394.88	1582.20
395.07	1617.31
395.26	1722.63
395.46	1671.14
395.65	1694.55
395.84	1678.16
396.04	1806.89
396.23	1671.14
396.42	1739.02
396.62	1781.15
396.81	1755.40
397.00	1722.63
397.19	1755.40
397.39	1722.63
397.58	1863.07
397.77	1708.59
397.97	1905.20
398.16	1877.11
398.35	1919.24
398.55	1886.47
398.74	1891.15
398.93	1947.33
399.12	1991.80
399.32	1956.69
399.51	1870.09
399.70	2001.16
399.90	1966.05
400.09	1949.67
400.28	2062.01
400.47	2036.27
400.67	2064.35
400.86	2092.44
401.05	2104.14
401.24	2134.57
401.44	2186.06
401.63	2071.37
401.82	2122.87
402.01	2190.74
402.21	2162.66
402.40	2129.89
402.59	2186.06
402.78	2136.91
402.97	2181.38
403.17	2275.00
403.36	2221.17
403.55	2345.22
403.74	2275.00
403.93	2396.71
404.13	2359.26
404.32	2375.64
404.51	2448.20
404.70	2354.58
404.89	2385.01
405.09	2544.16
405.28	2431.82
405.47	2495.01
405.66	2569.91
405.85	2513.74
406.05	2471.61
406.24	2548.84
406.43	2473.95
406.62	2637.78
406.81	2637.78
407.00	2609.70
407.20	2581.61
407.39	2537.14
407.58	2712.68
407.77	2663.53
407.96	2778.22
408.15	2710.34
408.34	2771.19
408.54	2923.33
408.73	2864.82
408.92	2750.13
409.11	2883.54
409.30	2953.76
409.49	2916.31
409.68	2860.13
409.87	2972.48
410.07	3023.97
410.26	2956.10
410.45	3005.25
410.64	3096.53
410.83	2977.16
411.02	3166.74
411.21	3101.21
411.40	3059.08
411.59	3183.13
411.78	3253.34
411.98	3101.21
412.17	3300.16
412.36	3339.94
412.55	3325.90
412.74	3433.57
412.93	3442.93
413.12	3414.84
413.31	3517.83
413.50	3707.41
413.69	3459.31
413.88	3590.38
414.07	3606.77
414.26	3660.60
414.45	3620.81
414.64	3714.43
414.83	3667.62
415.02	3730.81
415.22	3763.58
415.41	3922.74
415.60	3801.03
415.79	3831.46
415.98	3941.46
416.17	4046.79
416.36	3915.72
416.55	3946.14
416.74	3999.98
416.93	4014.02
417.12	4053.81
417.31	4248.07
417.50	4219.99
417.69	4332.33
417.88	4243.39
418.07	4159.13
418.26	4386.16
418.45	4365.10
418.64	4430.63
418.83	4400.21
419.02	4355.74
419.21	4524.26
419.39	4580.43
419.58	4521.92
419.77	4329.99
419.96	4496.17
420.15	4512.55
420.34	4503.19
420.53	4519.57
420.72	4798.10
420.91	4662.35
421.10	4751.29
421.29	4641.28
421.48	4688.09
421.67	4622.56
421.86	4699.80
422.05	4840.23
422.24	4730.22
422.43	4858.95
422.61	4830.87
422.80	4770.01
422.99	4819.16
423.18	4905.76
423.37	5034.49
423.56	4933.85
423.75	4873.00
423.94	4809.80
424.13	4650.64
424.32	4793.42
424.50	4826.18
424.69	5055.56
424.88	5153.86
425.07	4877.68
425.26	4870.65
425.45	4842.57
425.64	4784.06
425.83	4795.76
426.01	5025.13
426.20	5025.13
426.39	5020.45
426.58	4873.00
426.77	5034.49
426.96	5193.65
427.15	5252.16
427.33	5135.14
427.52	5130.45
427.71	5207.69
427.90	5172.58
428.09	5397.28
428.28	5481.53
428.46	5345.78
428.65	5390.25
428.84	5434.72
429.03	5593.88
429.22	5364.51
429.40	5476.85
429.59	5397.28
429.78	5385.57
429.97	5184.29
430.16	5430.04
430.34	5638.35
430.53	5720.27
430.72	5600.90
430.91	5717.93
431.10	5537.71
431.28	5668.78
431.47	5694.52
431.66	5907.51
431.85	5802.19
432.03	5832.62
432.22	5959.00
432.41	5888.79
432.60	5781.12
432.79	5961.34
432.97	5940.28
433.16	6066.67
433.35	6003.47
433.54	6136.88
433.72	6108.80
433.91	6111.14
434.10	6104.12
434.28	6040.92
434.47	6190.72
434.66	6176.67
434.85	6155.61
435.03	6174.33
435.22	6129.86
435.41	6569.88
435.59	6319.45
435.78	6422.43
435.97	6434.13
436.16	6445.84
436.34	6523.07
436.53	6396.68
436.72	6539.46
436.90	6380.30
437.09	6565.20
437.28	6471.58
437.46	6518.39
437.65	6537.12
437.84	6736.06
438.02	6635.42
438.21	6644.78
438.40	6778.19
438.58	6913.94
438.77	6916.28
438.96	6764.15
439.14	7030.97
439.33	7386.73
439.52	7155.02
439.70	7140.97
439.89	7311.83
440.08	7407.80
440.26	7293.11
440.45	7176.08
440.63	7328.22
440.82	7410.14
441.01	7316.51
441.19	7639.51
441.38	7536.52
441.57	7590.36
441.75	7667.60
441.94	7934.42
442.12	7974.21
442.31	8116.98
442.50	8013.99
442.68	8044.42
442.87	8060.80
443.05	8002.29
443.24	8084.21
443.43	8056.12
443.61	8154.43
443.80	8414.23
443.98	7840.79
444.17	7948.46
444.35	7943.78
444.54	8271.45
444.73	8238.69
444.91	8219.96
445.10	8348.69
445.28	8290.18
445.47	8241.03
445.65	8322.94
445.84	8369.76
446.02	8369.76
446.21	8496.14
446.39	8334.65
446.58	8524.23
446.77	8348.69
446.95	8257.41
447.14	8428.27
447.32	8376.78
447.51	8503.17
447.69	8561.68
447.88	8505.51
448.06	8704.45
448.25	8484.44
448.43	8545.30
448.62	8669.34
448.80	8514.87
448.99	8514.87
449.17	8477.42
449.36	8631.90
449.54	8746.58
449.73	9006.38
449.91	9008.72
450.10	8788.71
450.28	9137.45
450.46	8910.42
450.65	8954.89
450.83	8891.70
451.02	9015.74
451.20	9100.00
451.39	9121.07
451.57	9088.30
451.76	8807.44
451.94	9046.17
452.13	9329.38
452.31	9444.06
452.49	9165.54
452.68	9355.12
452.86	9275.54
453.05	9383.21
453.23	9533.00
453.42	9366.82
453.60	9406.61
453.78	9528.32
453.97	9537.68
454.15	9441.72
454.34	9383.21
454.52	9668.75
454.70	9570.45
454.89	9621.94
455.07	9799.82
455.26	9596.20
455.44	9841.95
455.62	9935.57
455.81	9671.09
455.99	10015.15
456.17	9966.00
456.36	9888.76
456.54	10045.58
456.73	10279.63
456.91	10263.25
457.09	10270.27
457.28	10551.14
457.46	10113.45
457.64	10338.15
457.83	10403.68
458.01	10249.21
458.19	10583.90
458.38	10548.79
458.56	10649.44
458.74	10448.15
458.93	10560.50
459.11	10663.48
459.29	10644.76
459.48	10675.18
459.66	10698.59
459.84	10696.25
460.03	11059.03
460.21	10883.49
460.39	10920.94
460.57	10752.42
460.76	11131.59
460.94	11253.30
461.12	11162.01
461.31	10995.84
461.49	11056.69
461.67	11080.10
461.85	11286.06
462.04	11098.82
462.22	11658.21
462.40	11618.42
462.59	11466.28
462.77	11403.09
462.95	11482.67
463.13	11382.03
463.32	11569.27
463.50	11646.51
463.68	11793.96
463.86	11740.13
464.05	11744.81
464.23	11571.61
464.41	11885.24
464.59	11534.16
464.78	12072.48
464.96	11925.03
465.14	11800.98
465.32	11957.80
465.50	12032.69
465.69	11932.05
465.87	12028.01
466.05	12042.06
466.23	12086.53
466.41	12100.57
466.60	12414.20
466.78	11925.03
466.96	12243.34
467.14	12269.09
467.32	12266.75
467.51	12414.20
467.69	12149.72
467.87	12482.08
468.05	12503.14
468.23	12533.57
468.41	12170.79
468.60	12629.53
468.78	12725.49
468.96	12631.87
469.14	12767.62
469.32	12807.41
469.50	12582.72
469.69	12961.89
469.87	13107.00
470.05	13149.13
470.23	12975.93
470.41	13025.08
470.59	13069.55
470.77	12912.74
470.95	13219.35
471.14	13537.66
471.32	13144.45
471.50	13448.72
471.68	13645.32
471.86	13619.58
472.04	13650.00
472.22	13673.41
472.40	13488.51
472.58	13973.00
472.77	13984.70
472.95	13919.17
473.13	14787.50
473.31	13987.04
473.49	13954.27
473.67	14164.92
473.85	14178.97
474.03	14555.79
474.21	14501.96
474.39	14518.34
474.57	14836.66
474.75	14927.94
474.93	15005.17
475.12	15019.22
475.30	15178.37
475.48	14719.63
475.66	15061.35
475.84	14913.89
476.02	15314.13
476.20	15229.87
476.38	15721.38
476.56	15943.73
476.74	16011.60
476.92	15777.55
477.10	15644.14
477.28	16245.66
477.46	15854.79
477.64	15807.98
477.82	16566.31
478.00	16851.86
478.18	16470.35
478.36	17060.16
478.54	16947.82
478.72	16912.71
478.90	17429.97
479.08	17444.01
479.26	17460.40
479.44	17352.73
479.62	17848.93
479.80	17767.01
479.98	17862.97
480.16	18600.24
480.34	18525.34
480.52	18504.28
480.70	18478.53
480.88	18340.44
481.06	18551.09
481.24	18616.62
481.41	18948.98
481.59	19098.77
481.77	19314.10
481.95	19381.98
482.13	19749.44
482.31	19606.67
482.49	20194.14
482.67	19901.58
482.85	20446.92
483.03	20350.96
483.21	20828.43
483.39	20908.01
483.57	20938.43
483.74	21233.34
483.92	21624.21
484.10	21041.42
484.28	21359.73
484.46	22029.12
484.64	22511.27
484.82	22094.66
485.00	22008.06
485.18	22623.62
485.35	22941.93
485.53	22548.72
485.71	22707.88
485.89	23515.36
486.07	23475.57
486.25	23199.39
486.43	23419.40
486.61	23812.61
486.78	23711.97
486.96	24060.71
487.14	24470.30
487.32	24170.71
487.50	24659.88
487.68	24627.12
487.85	25268.42
488.03	25418.22
488.21	25450.99
488.39	25645.25
488.57	26038.46
488.75	26103.99
488.92	26178.89
489.10	26206.98
489.28	26494.86
489.46	27014.46
489.64	26642.32
489.81	27510.66
489.99	27527.04
490.17	27644.07
490.35	27985.79
490.53	28009.19
490.70	27754.07
490.88	28140.26
491.06	28573.26
491.24	28587.30
491.41	28917.32
491.59	29200.52
491.77	29074.13
491.95	29570.33
492.13	29565.65
492.30	29748.21
492.48	29689.70
492.66	29546.92
492.84	30167.16
493.01	30375.47
493.19	30286.53
493.37	30696.13
493.54	31077.63
493.72	31122.10
493.90	31248.49
494.08	31613.62
494.25	31665.11
494.43	31943.63
494.61	32081.72
494.79	32203.43
494.96	32451.53
495.14	32898.57
495.32	32996.87
495.49	33090.49
495.67	32865.80
495.85	33280.08
496.02	33694.35
496.20	33539.88
496.38	33631.16
496.55	34129.69
496.73	34787.38
496.91	34227.99
497.09	34712.49
497.26	34780.36
497.44	34635.25
497.62	34775.68
497.79	35524.65
497.97	34773.34
498.14	35990.42
498.32	35440.39
498.50	36275.96
498.67	36367.24
498.85	36346.18
499.03	36308.73
499.20	36730.03
499.38	36833.01
499.56	36802.58
499.73	36638.75
499.91	37357.29
500.08	36755.77
500.26	37207.50
500.44	37724.75
500.61	37722.41
500.79	37261.33
500.97	37556.24
501.14	38209.25
501.32	38492.45
501.49	38389.47
501.67	38487.77
501.84	38855.23
502.02	38562.67
502.20	38808.42
502.37	39026.09
502.55	38944.17
502.72	39395.90
502.90	39510.58
503.07	39536.33
503.25	39562.08
503.43	39363.13
503.60	39751.66
503.78	39955.29
503.95	39997.41
504.13	39849.96
504.30	40371.90
504.48	40449.14
504.65	40215.08
504.83	40793.20
505.01	40989.80
505.18	40722.98
505.36	41095.13
505.53	41078.74
505.71	41205.13
505.88	41542.17
506.06	41373.65
506.23	41509.40
506.41	41329.18
506.58	41596.00
506.76	41553.87
506.93	42136.66
507.11	42382.42
507.28	42440.93
507.46	42438.59
507.63	42677.33
507.81	43110.33
507.98	42579.03
508.16	42787.33
508.33	43217.99
508.50	43112.67
508.68	43239.06
508.85	43784.40
509.03	43768.02
509.20	43601.84
509.38	43639.29
509.55	44168.25
509.73	44165.91
509.90	44442.09
510.08	44378.90
510.25	44161.23
510.42	44399.96
510.60	44744.02
510.77	44884.45
510.95	45406.39
511.12	44842.32
511.30	44884.45
511.47	45502.35
511.64	45603.00
511.82	45766.84
511.99	45357.24
512.17	45764.49
512.34	46157.70
512.51	45904.93
512.69	46185.79
512.86	45710.66
513.04	46209.20
513.21	46251.33
513.38	46501.76
513.56	47019.02
513.73	46337.93
513.90	46972.21
514.08	46639.86
514.25	47227.33
514.43	47192.22
514.60	47229.67
514.77	47297.55
514.95	47407.55
515.12	47304.57
515.29	47290.52
515.47	47805.44
515.64	48121.41
515.81	47889.70
515.99	48215.04
516.16	48390.58
516.33	47988.00
516.51	48074.60
516.68	48119.07
516.85	48222.06
517.03	48531.01
517.20	48956.99
517.37	48402.28
517.54	48903.15
517.72	48460.79
517.89	48652.72
518.06	49251.89
518.24	48612.93
518.41	48926.56
518.58	49109.12
518.75	49001.46
518.93	49233.17
519.10	49432.11
519.27	49621.70
519.45	49102.10
519.62	49724.68
519.79	49675.53
519.96	49633.40
520.14	49731.70
520.31	50241.94
520.48	50206.83
520.65	50040.65
520.83	50398.76
521.00	50096.83
521.17	50106.19
521.34	50424.50
521.52	50492.38
521.69	50836.44
521.86	50969.85
522.03	50775.58
522.20	51136.02
522.38	51337.31
522.55	51564.34
522.72	51051.76
522.89	51026.02
523.07	51419.23
523.24	51215.60
523.41	51562.00
523.58	50810.69
523.75	51793.71
523.92	51739.88
524.10	51611.15
524.27	51807.76
524.44	51863.93
524.61	51793.71
524.78	52004.36
524.96	51835.84
525.13	52090.96
525.30	52210.33
525.47	52388.21
525.64	52250.12
525.81	52573.11
525.98	52734.61
526.16	52322.68
526.33	52783.76
526.50	53022.50
526.67	52612.90
526.84	52711.20
527.01	52765.04
527.18	52680.78
527.36	52568.43
527.53	52793.12
527.70	52989.73
527.87	53003.77
528.04	53109.10
528.21	52818.87
528.38	53272.93
528.55	53329.11
528.72	53265.91
528.89	53270.59
529.07	53492.94
529.24	53188.67
529.41	53567.84
529.58	53392.30
529.75	53654.44
529.92	53436.77
530.09	53682.53
530.26	53764.45
530.43	53656.78
530.60	53600.61
530.77	53813.60
530.94	54209.15
531.11	53766.79
531.28	53914.24
531.46	53909.56
531.63	54152.97
531.80	54010.20
531.97	54078.08
532.14	54167.02
532.31	54192.76
532.48	54380.01
532.65	54347.24
532.82	53965.73
532.99	54497.03
533.16	54557.89
533.33	54541.50
533.50	54632.78
533.67	54621.08
533.84	54251.28
534.01	54838.75
534.18	54555.55
534.35	54768.54
534.52	54794.28
534.69	54834.07
534.86	54805.98
535.03	54824.71
535.20	55299.84
535.37	54976.84
535.54	55140.68
535.71	55002.59
535.88	55192.17
536.05	55360.69
536.22	55398.14
536.38	55564.32
536.55	55484.74
536.72	55458.99
536.89	55348.99
537.06	55332.60
537.23	55723.47
537.40	55269.41
537.57	55414.52
537.74	55910.72
537.91	55632.19
538.08	55491.76
538.25	55599.43
538.42	55454.31
538.59	55987.95
538.75	55826.46
538.92	56055.83
539.09	55884.97
539.26	55966.89
539.43	55959.87
539.60	56088.60
539.77	56133.07
539.94	56409.25
540.11	56362.44
540.28	56486.49
540.44	56329.67
540.61	56083.92
540.78	56170.52
540.95	56381.16
541.12	56427.98
541.29	56229.03
541.46	56381.16
541.62	56484.15
541.79	56587.13
541.96	56378.82
542.13	56416.27
542.30	56259.46
542.47	56591.81
542.63	56816.50
542.80	56732.25
542.97	56814.16
543.14	57020.13
543.31	57048.22
543.48	57127.80
543.64	57258.87
543.81	57312.70
543.98	57038.86
544.15	57151.20
544.32	57233.12
544.48	57324.40
544.65	57212.06
544.82	57148.86
544.99	57097.37
545.16	57301.00
545.32	57319.72
545.49	57523.35
545.66	57411.00
545.83	57373.55
546.00	57661.44
546.16	57443.77
546.33	57593.56
546.50	57261.21
546.67	57577.18
546.83	57387.60
547.00	57607.61
547.17	57483.56
547.34	57719.95
547.50	57808.89
547.67	58094.44
547.84	57972.73
548.00	58052.31
548.17	58127.20
548.34	57909.53
548.51	58094.44
548.67	58288.70
548.84	57813.57
549.01	57811.23
549.18	57923.58
549.34	58075.71
549.51	58312.11
549.68	58122.52
549.84	58291.04
550.01	58237.21
550.18	58227.85
550.34	58209.12
550.51	58330.83
550.68	58309.77
550.84	57989.11
551.01	58328.49
551.18	58302.74
551.34	58246.57
551.51	58443.18
551.68	58452.54
551.84	58396.37
552.01	58251.25
552.18	58501.69
552.34	58412.75
552.51	58447.86
552.68	58326.15
552.84	58506.37
553.01	58834.05
553.18	58773.19
553.34	58862.13
553.51	58471.26
553.67	58810.64
553.84	58864.47
554.01	58724.04
554.17	58871.49
554.34	58862.13
554.51	58773.19
554.67	58880.86
554.84	59082.14
555.00	58915.96
555.17	58754.47
555.33	58901.92
555.50	58822.34
555.67	58871.49
555.83	58731.06
556.00	58997.88
556.16	59262.36
556.33	59447.27
556.50	58993.20
556.66	59196.83
556.83	58890.22
556.99	59426.20
557.16	59339.60
557.32	59468.33
557.49	59540.89
557.65	59325.56
557.82	59189.81
557.98	59147.68
558.15	59325.56
558.32	59381.73
558.48	59021.29
558.65	59426.20
558.81	59363.01
558.98	59414.50
559.14	59407.48
559.31	59379.39
559.47	59655.57
559.64	59475.35
559.80	59601.74
559.97	59557.27
560.13	59487.06
560.30	59611.10
560.46	59503.44
560.63	59681.32
560.79	59781.96
560.96	59653.23
561.12	59671.96
561.29	59625.15
561.45	59648.55
561.61	59583.02
561.78	59796.01
561.94	59751.54
562.11	59798.35
562.27	59683.66
562.44	59863.88
562.60	59934.10
562.77	59681.32
562.93	59711.75
563.10	59807.71
563.26	59922.40
563.42	59798.35
563.59	59779.62
563.75	59969.21
563.92	59753.88
564.08	59908.35
564.24	59952.82
564.41	59971.55
564.57	60081.55
564.74	59997.29
564.90	60137.72
565.07	60046.44
565.23	60030.06
565.39	59894.31
565.56	60231.35
565.72	60147.09
565.88	60023.04
566.05	59948.14
566.21	60027.72
566.38	60142.41
566.54	60261.77
566.70	60292.20
566.87	60198.58
567.03	60044.10
567.19	60334.33
567.36	60224.32
567.52	60154.11
567.68	60491.15
567.85	60207.94
568.01	60310.92
568.17	60126.02
568.34	60200.92
568.50	60100.28
568.66	60161.13
568.83	60193.90
568.99	59952.82
569.15	60348.37
569.32	60324.97
569.48	60240.71
569.64	60355.39
569.81	60479.44
569.97	60161.13
570.13	60200.92
570.30	60203.26
570.46	60170.49
570.62	60413.91
570.78	60339.01
570.95	60252.41
571.11	60554.34
571.27	60437.31
571.43	60264.11
571.60	60470.08
571.76	60343.69
571.92	60671.37
572.09	60498.17
572.25	60383.48
572.41	60367.10
572.57	60640.94
572.74	60638.60
572.90	60437.31
573.06	60346.03
573.22	60301.56
573.38	60549.66
573.55	60488.80
573.71	60418.59
573.87	60615.19
574.03	60376.46
574.20	60477.10
574.36	60491.15
574.52	60839.89
574.68	60542.64
574.84	60746.26
575.01	60704.13
575.17	60846.91
575.33	60465.40
575.49	60495.83
575.65	60619.88
575.82	60556.68
575.98	60680.73
576.14	60821.16
576.30	60603.49
576.46	60477.10
576.62	60528.59
576.79	60645.62
576.95	60736.90
577.11	60650.30
577.27	60800.10
577.43	60701.79
577.59	60463.06
577.75	60535.62
577.92	60659.66
578.08	60610.51
578.24	60554.34
578.40	60940.53
578.56	60891.38
578.72	60645.62
578.88	60802.44
579.04	61069.26
579.21	60720.52
579.37	60767.33
579.53	60851.59
579.69	60687.75
579.85	60783.71
580.01	60619.88
580.17	60685.41
580.33	60743.92
580.49	60713.50
580.65	60907.76
580.82	60706.47
580.98	60523.91
581.14	60795.42
581.30	60760.31
581.46	60589.45
581.62	60865.63
581.78	60636.26
581.94	60650.30
582.10	60781.37
582.26	60816.48
582.42	60933.51
582.58	60917.12
582.74	60828.18
582.90	60788.39
583.06	60814.14
583.22	60582.43
583.38	60802.44
583.54	60769.67
583.70	60743.92
583.86	60858.61
584.02	60821.16
584.18	60966.27
584.34	60872.65
584.50	60882.02
584.66	60666.69
584.82	60842.23
584.98	61125.43
585.14	61085.64
585.30	60994.36
585.46	60973.30
585.62	60809.46
585.78	60917.12
585.94	60874.99
586.10	61036.49
586.26	60821.16
586.42	60825.84
586.58	61256.50
586.74	60863.29
586.90	60917.12
587.06	60718.18
587.22	60985.00
587.38	60828.18
587.54	60877.33
587.70	60900.74
587.86	60821.16
588.02	60814.14
588.18	60975.64
588.34	60769.67
588.49	60992.02
