SpectraSuite Data File
++++++++++++++++++++++++++++++++++++
Date: Fri Oct 25 10:44:23 EDT 2013
User: price-jones
Dark Spectrum Present: No
Reference Spectrum Present: No
Number of Sampled Component Spectra: 1
Spectrometers: USB2+H05261
Integration Time (usec): 100000 (USB2+H05261)
Spectra Averaged: 1 (USB2+H05261)
Boxcar Smoothing: 0 (USB2+H05261)
Correct for Electrical Dark: No (USB2+H05261)
Strobe/Lamp Enabled: No (USB2+H05261)
Correct for Detector Non-linearity: No (USB2+H05261)
Correct for Stray Light: No (USB2+H05261)
Number of Pixels in Processed Spectrum: 2048
>>>>>Begin Processed Spectral Data<<<<<
365.73	110.01
365.92	110.01
366.12	110.01
366.32	128.73
366.52	28.09
366.72	58.51
366.91	39.79
367.11	77.24
367.31	0.00
367.51	56.17
367.70	2.34
367.90	0.00
368.10	18.72
368.30	28.09
368.49	65.54
368.69	79.58
368.89	39.79
369.09	30.43
369.28	58.51
369.48	88.94
369.68	63.19
369.87	84.26
370.07	93.62
370.27	110.01
370.47	217.67
370.66	421.30
370.86	416.62
371.06	521.94
371.25	512.58
371.45	430.66
371.65	505.56
371.84	482.15
372.04	486.83
372.24	484.49
372.44	472.79
372.63	578.11
372.83	505.56
373.03	458.74
373.22	491.51
373.42	615.56
373.62	599.18
373.81	573.43
374.01	524.28
374.21	547.69
374.40	620.24
374.60	559.39
374.79	615.56
374.99	620.24
375.19	620.24
375.38	727.91
375.58	624.92
375.78	617.90
375.97	634.29
376.17	690.46
376.37	610.88
376.56	671.73
376.76	608.54
376.95	634.29
377.15	648.33
377.35	709.18
377.54	648.33
377.74	664.71
377.93	671.73
378.13	744.29
378.33	695.14
378.52	653.01
378.72	688.12
378.91	798.12
379.11	627.26
379.31	692.80
379.50	676.41
379.70	683.44
379.89	741.95
380.09	732.59
380.28	704.50
380.48	723.23
380.68	690.46
380.87	716.20
381.07	784.08
381.26	697.48
381.46	681.10
381.65	660.03
381.85	720.88
382.04	830.89
382.24	777.06
382.43	681.10
382.63	748.97
382.83	699.82
383.02	819.19
383.22	800.46
383.41	681.10
383.61	739.61
383.80	770.04
384.00	791.10
384.19	767.70
384.39	767.70
384.58	748.97
384.78	844.93
384.97	861.32
385.17	784.08
385.36	819.19
385.56	823.87
385.75	880.04
385.95	777.06
386.14	919.83
386.34	870.68
386.53	880.04
386.72	788.76
386.92	844.93
387.11	903.45
387.31	891.74
387.50	950.26
387.70	910.47
387.89	1006.43
388.09	945.58
388.28	966.64
388.48	931.53
388.67	945.58
388.86	894.08
389.06	983.02
389.25	924.51
389.45	1043.88
389.64	1032.18
389.84	1020.47
390.03	1046.22
390.22	985.37
390.42	1015.79
390.61	1043.88
390.81	1078.99
391.00	1006.43
391.19	1116.44
391.39	1086.01
391.58	1053.24
391.78	1081.33
391.97	1053.24
392.16	1081.33
392.36	1074.31
392.55	1060.26
392.75	1064.94
392.94	1032.18
393.13	1032.18
393.33	1004.09
393.52	1083.67
393.71	1114.10
393.91	1114.10
394.10	1226.44
394.29	1149.20
394.49	1188.99
394.68	1345.81
394.88	1186.65
395.07	1217.08
395.26	1373.89
395.46	1256.87
395.65	1217.08
395.84	1275.59
396.04	1289.64
396.23	1240.48
396.42	1156.22
396.62	1247.51
396.81	1238.14
397.00	1308.36
397.19	1308.36
397.39	1200.69
397.58	1425.39
397.77	1387.94
397.97	1486.24
398.16	1423.05
398.35	1497.94
398.55	1519.01
398.74	1514.33
398.93	1568.16
399.12	1533.05
399.32	1568.16
399.51	1589.22
399.70	1657.10
399.90	1631.35
400.09	1708.59
400.28	1727.32
400.47	1668.80
400.67	1736.68
400.86	1689.87
401.05	1708.59
401.24	1797.53
401.44	1802.21
401.63	1818.60
401.82	1746.04
402.01	1694.55
402.21	1652.42
402.40	1900.52
402.59	1839.66
402.78	1909.88
402.97	1797.53
403.17	1860.73
403.36	1863.07
403.55	1891.15
403.74	1900.52
403.93	1916.90
404.13	1851.36
404.32	1982.43
404.51	1959.03
404.70	2036.27
404.89	2031.58
405.09	2076.06
405.28	2010.52
405.47	2040.95
405.66	2054.99
405.85	1991.80
406.05	2024.56
406.24	2083.08
406.43	2150.95
406.62	2165.00
406.81	2179.04
407.00	2090.10
407.20	2097.12
407.39	2127.55
407.58	2225.85
407.77	2389.69
407.96	2298.41
408.15	2235.21
408.34	2204.78
408.54	2361.60
408.73	2335.85
408.92	2394.37
409.11	2282.02
409.30	2410.75
409.49	2427.14
409.68	2352.24
409.87	2275.00
410.07	2284.36
410.26	2394.37
410.45	2445.86
410.64	2527.78
410.83	2478.63
411.02	2583.95
411.21	2703.32
411.40	2602.68
411.59	2785.24
411.78	2679.91
411.98	2553.52
412.17	2733.75
412.36	2700.98
412.55	2789.92
412.74	2782.90
412.93	2832.05
413.12	2850.77
413.31	3047.38
413.50	2888.22
413.69	2946.73
413.88	3143.34
414.07	3063.76
414.26	2942.05
414.45	3052.06
414.64	3096.53
414.83	3260.37
415.02	3150.36
415.22	3199.51
415.41	3171.43
415.60	3152.70
415.79	3321.22
415.98	3384.41
416.17	3328.24
416.36	3248.66
416.55	3358.67
416.74	3372.71
416.93	3391.44
417.12	3323.56
417.31	3428.88
417.50	3405.48
417.69	3571.66
417.88	3496.76
418.07	3452.29
418.26	3583.36
418.45	3543.57
418.64	3716.77
418.83	3632.51
419.02	3576.34
419.21	3665.28
419.39	3698.05
419.58	3667.62
419.77	3602.08
419.96	3801.03
420.15	3824.44
420.34	3925.08
420.53	3934.44
420.72	3815.07
420.91	3808.05
421.10	4173.18
421.29	4079.55
421.48	3974.23
421.67	3955.51
421.86	3763.58
422.05	3887.63
422.24	3941.46
422.43	3852.52
422.61	4004.66
422.80	3932.10
422.99	3992.95
423.18	4072.53
423.37	4102.96
423.56	4138.07
423.75	4102.96
423.94	3939.12
424.13	3763.58
424.32	3946.14
424.50	4074.87
424.69	4070.19
424.88	4161.47
425.07	4007.00
425.26	4002.32
425.45	4084.23
425.64	4072.53
425.83	3981.25
426.01	4133.39
426.20	4266.80
426.39	4074.87
426.58	4037.42
426.77	4095.94
426.96	4135.73
427.15	4107.64
427.33	4081.89
427.52	4107.64
427.71	4194.24
427.90	4215.30
428.09	4145.09
428.28	4360.42
428.46	4219.99
428.65	4437.66
428.84	4386.16
429.03	4531.28
429.22	4315.95
429.40	4344.03
429.59	4278.50
429.78	4051.47
429.97	4124.02
430.16	4081.89
430.34	4250.41
430.53	4358.08
430.72	4372.12
430.91	4383.82
431.10	4526.60
431.28	4540.64
431.47	4760.65
431.66	4667.03
431.85	4660.01
432.03	4711.50
432.22	4718.52
432.41	4631.92
432.60	4894.06
432.79	4873.00
432.97	4847.25
433.16	4861.29
433.35	4695.11
433.54	4821.50
433.72	4784.06
433.91	4842.57
434.10	4978.32
434.28	4856.61
434.47	4975.98
434.66	5100.03
434.85	5055.56
435.03	5303.65
435.22	5139.82
435.41	5221.74
435.59	5322.38
435.78	5228.76
435.97	5373.87
436.16	5315.36
436.34	5275.57
436.53	5369.19
436.72	5542.39
436.90	5416.00
437.09	5301.31
437.28	5221.74
437.46	5352.81
437.65	5355.15
437.84	5364.51
438.02	5291.95
438.21	5310.68
438.40	5184.29
438.58	5626.65
438.77	5591.54
438.96	5626.65
439.14	5797.51
439.33	5696.86
439.52	5612.60
439.70	5762.40
439.89	5839.64
440.08	5937.94
440.26	5888.79
440.45	5804.53
440.63	5937.94
440.82	6221.14
441.01	6183.70
441.19	6289.02
441.38	6211.78
441.57	6176.67
441.75	6546.48
441.94	6384.98
442.12	6445.84
442.31	6691.59
442.50	6593.29
442.68	6382.64
442.87	6569.88
443.05	6560.52
443.24	6530.09
443.43	6707.98
443.61	6780.53
443.80	6876.49
443.98	6665.85
444.17	6429.45
444.35	6794.58
444.54	6848.41
444.73	6729.04
444.91	6782.87
445.10	6686.91
445.28	6621.38
445.47	6630.74
445.65	6429.45
445.84	6871.81
446.02	6799.26
446.21	6750.10
446.39	6892.88
446.58	6974.80
446.77	6878.83
446.95	6731.38
447.14	6923.30
447.32	7054.37
447.51	6986.50
447.69	6857.77
447.88	7028.63
448.06	6775.85
448.25	6752.45
448.43	6951.39
448.62	7014.59
448.80	6925.65
448.99	6963.09
449.17	6822.66
449.36	7084.80
449.54	7117.57
449.73	7119.91
449.91	7265.02
450.10	7297.79
450.28	7527.16
450.46	7566.95
450.65	7410.14
450.83	7435.88
451.02	7440.56
451.20	7482.69
451.39	7407.80
451.57	7417.16
451.76	7440.56
451.94	7452.27
452.13	7328.22
452.31	7332.90
452.49	7201.83
452.68	7452.27
452.86	7243.96
453.05	7599.72
453.23	7424.18
453.42	7566.95
453.60	7541.21
453.78	7723.77
453.97	7665.25
454.15	7728.45
454.34	7609.08
454.52	7906.33
454.70	7639.51
454.89	7793.98
455.07	7854.84
455.26	7974.21
455.44	8030.38
455.62	8100.59
455.81	7981.23
455.99	7978.89
456.17	8105.28
456.36	8039.74
456.54	8039.74
456.73	8372.10
456.91	8503.17
457.09	8507.85
457.28	8549.98
457.46	8285.50
457.64	8519.55
457.83	8428.27
458.01	8215.28
458.19	8601.47
458.38	8297.20
458.56	8636.58
458.74	8365.07
458.93	8470.40
459.11	8470.40
459.29	8711.47
459.48	8599.13
459.66	8624.87
459.84	8610.83
460.03	8695.09
460.21	8688.07
460.39	8784.03
460.57	8587.43
460.76	8791.05
460.94	8842.54
461.12	8823.82
461.31	8847.22
461.49	8961.91
461.67	8997.02
461.85	9128.09
462.04	9062.55
462.22	9163.20
462.40	8959.57
462.59	9135.11
462.77	9247.46
462.95	9235.75
463.13	9191.28
463.32	9275.54
463.50	9406.61
463.68	9345.76
463.86	9259.16
464.05	9355.12
464.23	9226.39
464.41	9296.61
464.59	9027.45
464.78	9371.50
464.96	9331.72
465.14	9163.20
465.32	9294.27
465.50	9528.32
465.69	9479.17
465.87	9376.19
466.05	9376.19
466.23	9163.20
466.41	9341.08
466.60	9813.87
466.78	9603.22
466.96	9385.55
467.14	9444.06
467.32	9710.88
467.51	9729.61
467.69	9444.06
467.87	9731.95
468.05	9797.48
468.23	9919.19
468.41	9652.37
468.60	9724.93
468.78	9888.76
468.96	9811.53
469.14	9970.68
469.32	10188.35
469.50	9558.75
469.69	10111.11
469.87	10022.17
470.05	10094.73
470.23	10085.37
470.41	10066.64
470.59	10260.91
470.77	10197.71
470.95	10286.65
471.14	10541.77
471.32	10326.44
471.50	10633.05
471.68	10824.98
471.86	10497.30
472.04	10719.65
472.22	11140.95
472.40	10736.04
472.58	10841.36
472.77	10700.93
472.95	10913.92
473.13	11178.40
473.31	10920.94
473.49	10719.65
473.67	10761.78
473.85	11052.01
474.03	11241.59
474.21	10974.77
474.39	11222.87
474.57	11428.84
474.75	11356.28
474.93	11503.73
475.12	11253.30
475.30	11962.48
475.48	11880.56
475.66	11648.85
475.84	11552.88
476.02	11733.11
476.20	11749.49
476.38	11845.45
476.56	12180.15
476.74	12432.93
476.92	11995.25
477.10	12133.34
477.28	12376.75
477.46	12524.21
477.64	12552.29
477.82	12861.24
478.00	12985.29
478.18	13004.02
478.36	12814.43
478.54	13071.89
478.72	13137.43
478.90	13298.92
479.08	13558.72
479.26	13605.53
479.44	13453.40
479.62	13867.67
479.80	13666.39
479.98	13806.82
480.16	14232.80
480.34	13851.29
480.52	14031.51
480.70	14174.28
480.88	13886.40
481.06	14539.41
481.24	14406.00
481.41	14553.45
481.59	14733.67
481.77	15040.28
481.95	15002.83
482.13	14871.76
482.31	15037.94
482.49	15311.78
482.67	15300.08
482.85	15728.40
483.03	15513.07
483.21	15829.04
483.39	15985.86
483.57	16095.86
483.74	16051.39
483.92	16240.98
484.10	16081.82
484.28	16264.38
484.46	16587.38
484.64	17015.69
484.82	16276.09
485.00	16458.65
485.18	16987.61
485.35	17055.48
485.53	16514.82
485.71	16271.40
485.89	16868.24
486.07	16858.88
486.25	17092.93
486.43	17238.05
486.61	17589.13
486.78	17640.62
486.96	18111.07
487.14	18043.19
487.32	18202.35
487.50	18504.28
487.68	18602.58
487.85	18892.80
488.03	19037.92
488.21	19105.79
488.39	19122.18
488.57	19168.99
488.75	19173.67
488.92	19491.98
489.10	19906.26
489.28	19805.61
489.46	20154.35
489.64	20318.19
489.81	20475.01
489.99	20805.02
490.17	20798.00
490.35	20762.89
490.53	21071.84
490.70	21242.70
490.88	20774.60
491.06	21181.85
491.24	21238.02
491.41	21343.35
491.59	21570.38
491.77	21652.30
491.95	21603.14
492.13	22010.40
492.30	22019.76
492.48	22087.64
492.66	22157.85
492.84	22291.26
493.01	22815.54
493.19	22614.26
493.37	22869.37
493.54	22977.04
493.72	23353.87
493.90	23332.80
494.08	23501.32
494.25	23948.36
494.43	23751.76
494.61	23997.51
494.79	24341.57
494.96	23936.66
495.14	24037.30
495.32	24460.94
495.49	23950.70
495.67	24367.32
495.85	24900.96
496.02	24521.79
496.20	24943.09
496.38	25043.73
496.55	25259.06
496.73	25589.08
496.91	25558.65
497.09	25806.75
497.26	26047.82
497.44	25869.94
497.62	25972.92
497.79	26033.78
497.97	25596.10
498.14	26022.08
498.32	26464.44
498.50	26164.85
498.67	26689.13
498.85	26810.84
499.03	27246.18
499.20	26855.31
499.38	26927.86
499.56	26951.27
499.73	27218.09
499.91	26918.50
500.08	27372.57
500.26	27007.44
500.44	27365.54
500.61	27482.57
500.79	27344.48
500.97	27611.30
501.14	28292.40
501.32	27758.75
501.49	27871.10
501.67	27868.76
501.84	28416.44
502.02	28329.84
502.20	28664.54
502.37	28439.85
502.55	28577.94
502.72	28706.67
502.90	28577.94
503.07	28793.27
503.25	28943.06
503.43	28800.29
503.60	28739.44
503.78	29008.60
503.95	28933.70
504.13	29404.15
504.30	29333.93
504.48	29287.12
504.65	29567.99
504.83	29682.67
505.01	29596.07
505.18	29530.54
505.36	30356.75
505.53	30162.48
505.71	30398.88
505.88	30609.53
506.06	29846.51
506.23	30218.66
506.41	30433.99
506.58	30595.48
506.76	30518.25
506.93	30787.41
507.11	30668.04
507.28	30803.79
507.46	30981.67
507.63	31318.71
507.81	31290.62
507.98	30932.52
508.16	31372.54
508.33	31751.71
508.50	31356.16
508.68	31302.32
508.85	32243.22
509.03	31992.78
509.20	31985.76
509.38	32362.59
509.55	31990.44
509.73	32086.40
509.90	32063.00
510.08	31955.33
510.25	31974.06
510.42	32247.90
510.60	32664.52
510.77	32622.39
510.95	32737.07
511.12	32664.52
511.30	32943.04
511.47	33404.13
511.64	33069.43
511.82	33254.33
511.99	32847.08
512.17	33551.58
512.34	33244.97
512.51	33392.42
512.69	33214.54
512.86	33130.28
513.04	34167.14
513.21	33699.03
513.38	33308.16
513.56	33706.05
513.73	33439.23
513.90	33699.03
514.08	34174.16
514.25	34190.55
514.43	34265.44
514.60	33954.15
514.77	33757.55
514.95	34761.64
515.12	34455.03
515.29	34291.19
515.47	34976.97
515.64	34902.07
515.81	34565.03
515.99	34483.11
516.16	34728.87
516.33	34396.51
516.51	34658.65
516.68	33954.15
516.85	33930.75
517.03	34366.09
517.20	34349.70
517.37	35126.76
517.54	35005.05
517.72	35047.18
517.89	34766.32
518.06	34920.79
518.24	34501.84
518.41	35026.12
518.58	35229.74
518.75	35304.64
518.93	35559.76
519.10	35681.47
519.27	35910.84
519.45	35845.30
519.62	35997.44
519.79	36261.92
519.96	35880.41
520.14	36240.86
520.31	36205.75
520.48	36437.46
520.65	36170.64
520.83	36472.57
521.00	36818.97
521.17	36690.24
521.34	37209.84
521.52	37223.88
521.69	37635.81
521.86	37177.07
522.03	37020.25
522.20	36945.36
522.38	37195.79
522.55	37048.34
522.72	37378.36
522.89	37148.98
523.07	37523.47
523.24	37514.11
523.41	37787.95
523.58	37670.92
523.75	38548.62
523.92	37989.24
524.10	38139.03
524.27	38452.66
524.44	38345.00
524.61	38574.37
524.78	38302.87
524.96	38859.91
525.13	38274.78
525.30	38703.10
525.47	38876.30
525.64	38464.36
525.81	38447.98
525.98	38740.55
526.16	38213.93
526.33	38064.13
526.50	38326.27
526.67	38169.46
526.84	38457.34
527.01	38185.84
527.18	38770.97
527.36	38679.69
527.53	39210.99
527.70	39311.64
527.87	39400.58
528.04	39309.30
528.21	39344.41
528.38	39433.35
528.55	39480.16
528.72	39838.26
528.89	39578.46
529.07	39959.97
529.24	39711.87
529.41	39613.57
529.58	39557.39
529.75	39517.60
529.92	39995.07
530.09	39749.32
530.26	39653.36
530.43	39922.52
530.60	40334.45
530.77	40308.71
530.94	40589.57
531.11	40318.07
531.28	40718.30
531.46	40732.34
531.63	40996.82
531.80	40617.66
531.97	40067.63
532.14	40568.51
532.31	40292.32
532.48	40126.14
532.65	40573.19
532.82	40423.39
532.99	40849.37
533.16	40732.34
533.33	40973.42
533.50	40957.03
533.67	40907.88
533.84	40875.12
534.01	41319.82
534.18	40886.82
534.35	41228.54
534.52	41371.31
534.69	41661.54
534.86	41116.19
535.03	41055.34
535.20	41757.50
535.37	42298.16
535.54	41874.52
535.71	41516.42
535.88	41883.89
536.05	41593.66
536.22	41378.33
536.38	41549.19
536.55	41141.94
536.72	41574.94
536.89	41986.87
537.06	41940.06
537.23	41993.89
537.40	41963.46
537.57	42155.39
537.74	41876.86
537.91	42185.82
538.08	42323.91
538.25	41752.82
538.42	42080.49
538.59	42225.60
538.75	42031.34
538.92	42295.82
539.09	42623.50
539.26	41940.06
539.43	42176.45
539.60	42281.78
539.77	41954.10
539.94	42096.88
540.11	42155.39
540.28	42141.35
540.44	42476.04
540.61	42637.54
540.78	42356.67
540.95	42139.00
541.12	42394.12
541.29	42993.30
541.46	42731.16
541.62	42916.06
541.79	42990.96
541.96	42794.36
542.13	42817.76
542.30	43007.34
542.47	42515.83
542.63	42852.87
542.80	42752.23
542.97	43360.76
543.14	44020.80
543.31	43402.89
543.48	43629.93
543.64	43882.70
543.81	43948.24
543.98	43768.02
544.15	43143.09
544.32	43868.66
544.48	44369.54
544.65	44224.42
544.82	44105.06
544.99	43838.23
545.16	43899.09
545.32	43248.42
545.49	44119.10
545.66	44451.45
545.83	44081.65
546.00	44088.67
546.16	44016.11
546.33	43962.28
546.50	43430.98
546.67	43915.47
546.83	43838.23
547.00	43927.17
547.17	44130.80
547.34	44832.96
547.50	44245.49
547.67	44053.56
547.84	44121.44
548.00	44526.35
548.17	44863.39
548.34	44231.44
548.51	44711.25
548.67	44685.51
548.84	44753.38
549.01	44924.24
549.18	44619.97
549.34	45048.29
549.51	45088.08
549.68	44669.12
549.84	44978.07
550.01	44839.98
550.18	45184.04
550.34	45401.71
550.51	45261.28
550.68	45029.57
550.84	44322.72
551.01	44917.22
551.18	45347.88
551.34	45074.04
551.51	45146.59
551.68	45422.78
551.84	45464.91
552.01	45186.38
552.18	45200.43
552.34	44903.18
552.51	45731.73
552.68	45151.27
552.84	45516.40
553.01	45371.28
553.18	45085.74
553.34	45179.36
553.51	45294.05
553.67	45523.42
553.84	45560.87
554.01	45640.45
554.17	45490.65
554.34	45680.24
554.51	45785.56
554.67	45593.64
554.84	45703.64
555.00	45691.94
555.17	45684.92
555.33	45581.93
555.50	45600.66
555.67	45333.84
555.83	45748.11
556.00	45907.27
556.16	45996.21
556.33	45832.37
556.50	45542.14
556.66	45928.33
556.83	45485.97
556.99	46134.30
557.16	45492.99
557.32	46000.89
557.49	46028.98
557.65	45937.69
557.82	45460.23
557.98	46361.33
558.15	45911.95
558.32	45790.24
558.48	45918.97
558.65	45745.77
558.81	45797.26
558.98	46134.30
559.14	45914.29
559.31	45626.40
559.47	46089.83
559.64	46314.52
559.80	46417.50
559.97	46279.41
560.13	45806.62
560.30	46127.28
560.46	45949.40
560.63	46466.66
560.79	46340.27
560.96	46492.40
561.12	46143.66
561.29	46571.98
561.45	46131.96
561.61	45993.87
561.78	46122.60
561.94	46284.09
562.11	46567.30
562.27	46157.70
562.44	46452.61
562.60	46703.05
562.77	46848.16
562.93	46410.48
563.10	46525.17
563.26	46096.85
563.42	46396.44
563.59	46124.94
563.75	46260.69
563.92	46660.92
564.08	46408.14
564.24	46501.76
564.41	46721.77
564.57	46036.00
564.74	46473.68
564.90	46855.18
565.07	46590.70
565.23	46630.49
565.39	46550.91
565.56	46483.04
565.72	45975.14
565.88	46256.01
566.05	46583.68
566.21	46548.57
566.38	46504.10
566.54	46476.02
566.70	46899.65
566.87	46815.40
567.03	46258.35
567.19	46845.82
567.36	46522.83
567.52	46618.79
567.68	46775.61
567.85	46710.07
568.01	46639.86
568.17	46813.05
568.34	46328.56
568.50	46443.25
568.66	46174.09
568.83	46469.00
568.99	46681.98
569.15	46616.45
569.32	46667.94
569.48	46319.20
569.64	46876.25
569.81	46515.81
569.97	46724.11
570.13	46726.46
570.30	46389.42
570.46	46387.08
570.62	46457.29
570.78	46508.79
570.95	46335.59
571.11	46733.48
571.27	46607.09
571.43	46824.76
571.60	47016.68
571.76	46756.88
571.92	47021.36
572.09	46913.70
572.25	46714.75
572.41	46871.57
572.57	46644.54
572.74	47112.64
572.90	46480.70
573.06	46614.11
573.22	46906.68
573.38	46677.30
573.55	46646.88
573.71	47063.49
573.87	46852.84
574.03	46806.03
574.20	46546.23
574.36	46752.20
574.52	46784.97
574.68	47019.02
574.84	46698.37
575.01	46724.11
575.17	46504.10
575.33	46583.68
575.49	46632.83
575.65	47075.19
575.82	46983.91
575.98	46782.63
576.14	47358.40
576.30	46789.65
576.46	47009.66
576.62	46712.41
576.79	46557.94
576.95	46600.07
577.11	46829.44
577.27	46766.24
577.43	46873.91
577.59	46761.56
577.75	46749.86
577.92	46265.37
578.08	46717.09
578.24	46656.24
578.40	46487.72
578.56	46791.99
578.72	46658.58
578.88	47077.54
579.04	47070.51
579.21	46965.19
579.37	46696.03
579.53	46756.88
579.69	46356.65
579.85	46852.84
580.01	46775.61
580.17	46948.81
580.33	47030.72
580.49	46838.80
580.65	47021.36
580.82	47117.32
580.98	46869.23
581.14	47019.02
581.30	47082.22
581.46	47157.11
581.62	47096.26
581.78	46885.61
581.94	47241.37
582.10	46712.41
582.26	47072.85
582.42	46993.28
582.58	46829.44
582.74	47344.36
582.90	46794.33
583.06	47175.84
583.22	46576.66
583.38	46869.23
583.54	47255.42
583.70	47040.09
583.86	46960.51
584.02	46726.46
584.18	47103.28
584.34	47093.92
584.50	47075.19
584.66	46681.98
584.82	47012.00
584.98	47049.45
585.14	47250.74
585.30	46660.92
585.46	46902.00
585.62	47117.32
585.78	47264.78
585.94	46784.97
586.10	47189.88
586.26	46366.01
586.42	47208.61
586.58	47040.09
586.74	47159.45
586.90	47000.30
587.06	46993.28
587.22	47304.57
587.38	46497.08
587.54	46852.84
587.70	47143.07
587.86	47157.11
588.02	46885.61
588.18	47105.62
588.34	47215.63
588.49	46749.86
588.65	46323.88
588.81	46209.20
588.97	46504.10
589.13	46120.26
589.29	46452.61
589.45	46581.34
589.61	46939.44
589.77	47054.13
