SpectraSuite Data File
++++++++++++++++++++++++++++++++++++
Date: Fri Oct 25 10:47:49 EDT 2013
User: price-jones
Dark Spectrum Present: No
Reference Spectrum Present: No
Number of Sampled Component Spectra: 1
Spectrometers: USB2+H05261
Integration Time (usec): 100000 (USB2+H05261)
Spectra Averaged: 1 (USB2+H05261)
Boxcar Smoothing: 0 (USB2+H05261)
Correct for Electrical Dark: No (USB2+H05261)
Strobe/Lamp Enabled: No (USB2+H05261)
Correct for Detector Non-linearity: No (USB2+H05261)
Correct for Stray Light: No (USB2+H05261)
Number of Pixels in Processed Spectrum: 2048
>>>>>Begin Processed Spectral Data<<<<<
365.73	135.75
365.92	135.75
366.12	135.75
366.32	56.17
366.52	25.75
366.72	53.83
366.91	7.02
367.11	39.79
367.31	16.38
367.51	107.66
367.70	4.68
367.90	124.05
368.10	11.70
368.30	35.11
368.49	28.09
368.69	102.98
368.89	112.35
369.09	51.49
369.28	117.03
369.48	72.56
369.68	53.83
369.87	112.35
370.07	14.04
370.27	117.03
370.47	203.63
370.66	320.65
370.86	353.42
371.06	418.96
371.25	433.00
371.45	425.98
371.65	484.49
371.84	404.91
372.04	461.09
372.24	458.74
372.44	447.04
372.63	517.26
372.83	477.47
373.03	500.87
373.22	547.69
373.42	601.52
373.62	543.00
373.81	545.34
374.01	547.69
374.21	484.49
374.40	533.64
374.60	559.39
374.79	594.50
374.99	547.69
375.19	535.98
375.38	543.00
375.58	589.82
375.78	634.29
375.97	631.94
376.17	657.69
376.37	561.73
376.56	561.73
376.76	521.94
376.95	582.79
377.15	585.13
377.35	554.71
377.54	631.94
377.74	550.03
377.93	615.56
378.13	657.69
378.33	575.77
378.52	599.18
378.72	634.29
378.91	594.50
379.11	638.97
379.31	582.79
379.50	594.50
379.70	711.52
379.89	683.44
380.09	706.84
380.28	610.88
380.48	720.88
380.68	711.52
380.87	653.01
381.07	685.78
381.26	657.69
381.46	645.99
381.65	664.71
381.85	695.14
382.04	641.31
382.24	720.88
382.43	723.23
382.63	706.84
382.83	725.57
383.02	716.20
383.22	753.65
383.41	674.07
383.61	718.54
383.80	765.36
384.00	784.08
384.19	779.40
384.39	706.84
384.58	587.47
384.78	716.20
384.97	727.91
385.17	739.61
385.36	751.31
385.56	805.14
385.75	730.25
385.95	828.55
386.14	730.25
386.34	746.63
386.53	781.74
386.72	751.31
386.92	798.12
387.11	809.83
387.31	821.53
387.50	763.01
387.70	861.32
387.89	889.40
388.09	908.13
388.28	767.70
388.48	718.54
388.67	828.55
388.86	842.59
389.06	889.40
389.25	861.32
389.45	849.61
389.64	929.19
389.84	959.62
390.03	945.58
390.22	983.02
390.42	882.38
390.61	901.11
390.81	943.24
391.00	926.85
391.19	968.98
391.39	887.06
391.58	976.00
391.78	1001.75
391.97	976.00
392.16	966.64
392.36	952.60
392.55	1018.13
392.75	1006.43
392.94	971.32
393.13	973.66
393.33	919.83
393.52	1018.13
393.71	1015.79
393.91	1015.79
394.10	999.41
394.29	1048.56
394.49	1107.07
394.68	1130.48
394.88	1090.69
395.07	1102.39
395.26	1095.37
395.46	1060.26
395.65	1247.51
395.84	1109.41
396.04	1196.01
396.23	1088.35
396.42	1163.25
396.62	1205.38
396.81	1196.01
397.00	1163.25
397.19	1165.59
397.39	1163.25
397.58	1301.34
397.77	1249.85
397.97	1284.95
398.16	1343.47
398.35	1348.15
398.55	1310.70
398.74	1238.14
398.93	1416.02
399.12	1416.02
399.32	1256.87
399.51	1273.25
399.70	1376.24
399.90	1348.15
400.09	1369.21
400.28	1350.49
400.47	1345.81
400.67	1521.35
400.86	1437.09
401.05	1418.36
401.24	1455.81
401.44	1511.99
401.63	1472.20
401.82	1416.02
402.01	1413.68
402.21	1577.52
402.40	1483.90
402.59	1544.75
402.78	1472.20
402.97	1458.15
403.17	1614.97
403.36	1579.86
403.55	1687.53
403.74	1549.43
403.93	1643.06
404.13	1685.19
404.32	1631.35
404.51	1701.57
404.70	1717.95
404.89	1755.40
405.09	1792.85
405.28	1760.08
405.47	1732.00
405.66	1757.74
405.85	1748.38
406.05	1743.70
406.24	1717.95
406.43	1816.26
406.62	1907.54
406.81	1844.34
407.00	1771.79
407.20	1802.21
407.39	1813.92
407.58	1867.75
407.77	1886.47
407.96	1914.56
408.15	2069.03
408.34	1942.64
408.54	2073.71
408.73	2026.90
408.92	2045.63
409.11	2090.10
409.30	2015.20
409.49	2008.18
409.68	2059.67
409.87	2113.50
410.07	2043.29
410.26	2036.27
410.45	2064.35
410.64	2136.91
410.83	2197.76
411.02	2183.72
411.21	2275.00
411.40	2195.42
411.59	2228.19
411.78	2242.23
411.98	2174.36
412.17	2345.22
412.36	2335.85
412.55	2422.45
412.74	2469.27
412.93	2483.31
413.12	2532.46
413.31	2576.93
413.50	2410.75
413.69	2574.59
413.88	2628.42
414.07	2492.67
414.26	2560.55
414.45	2651.83
414.64	2689.28
414.83	2612.04
415.02	2700.98
415.22	2754.81
415.41	2780.56
415.60	2703.32
415.79	2745.45
415.98	2981.84
416.17	2860.13
416.36	2897.58
416.55	2942.05
416.74	2937.37
416.93	2885.88
417.12	2920.99
417.31	3002.91
417.50	2977.16
417.69	3047.38
417.88	3084.83
418.07	3073.12
418.26	3126.96
418.45	3047.38
418.64	3187.81
418.83	3201.85
419.02	3150.36
419.21	3164.40
419.39	3290.79
419.58	3206.53
419.77	3220.58
419.96	3129.30
420.15	3258.03
420.34	3295.47
420.53	3410.16
420.72	3503.78
420.91	3417.18
421.10	3375.05
421.29	3545.91
421.48	3438.25
421.67	3478.04
421.86	3419.52
422.05	3471.01
422.24	3475.70
422.43	3492.08
422.61	3508.46
422.80	3456.97
422.99	3585.70
423.18	3548.25
423.37	3672.30
423.56	3581.02
423.75	3536.55
423.94	3431.23
424.13	3405.48
424.32	3449.95
424.50	3473.36
424.69	3726.13
424.88	3749.54
425.07	3529.53
425.26	3440.59
425.45	3440.59
425.64	3543.57
425.83	3543.57
426.01	3684.00
426.20	3632.51
426.39	3723.79
426.58	3604.42
426.77	3634.85
426.96	3637.19
427.15	3478.04
427.33	3676.98
427.52	3569.32
427.71	3688.68
427.90	3831.46
428.09	3801.03
428.28	3822.09
428.46	3770.60
428.65	3611.45
428.84	3920.40
429.03	3995.29
429.22	3784.65
429.40	3819.75
429.59	3758.90
429.78	3576.34
429.97	3630.17
430.16	3637.19
430.34	3775.28
430.53	3847.84
430.72	3932.10
430.91	3976.57
431.10	4011.68
431.28	4037.42
431.47	3988.27
431.66	4234.03
431.85	4187.22
432.03	4196.58
432.22	4280.84
432.41	4072.53
432.60	4245.73
432.79	4159.13
432.97	4168.49
433.16	4362.76
433.35	4102.96
433.54	4170.83
433.72	4365.10
433.91	4259.78
434.10	4341.69
434.28	4327.65
434.47	4243.39
434.66	4456.38
434.85	4472.76
435.03	4550.00
435.22	4423.61
435.41	4716.18
435.59	4493.83
435.78	4596.81
435.97	4599.15
436.16	4599.15
436.34	4650.64
436.53	4601.49
436.72	4765.33
436.90	4468.08
437.09	4671.71
437.28	4674.05
437.46	4688.09
437.65	4767.67
437.84	4910.44
438.02	4568.73
438.21	4751.29
438.40	4678.73
438.58	4844.91
438.77	5020.45
438.96	4905.76
439.14	5055.56
439.33	5163.22
439.52	4910.44
439.70	5071.94
439.89	5013.43
440.08	5210.03
440.26	5252.16
440.45	5212.37
440.63	5268.55
440.82	5322.38
441.01	5273.23
441.19	5345.78
441.38	5472.17
441.57	5390.25
441.75	5603.24
441.94	5509.62
442.12	5710.91
442.31	5600.90
442.50	5556.43
442.68	5806.87
442.87	5729.63
443.05	5680.48
443.24	5781.12
443.43	5818.57
443.61	5605.58
443.80	5891.13
443.98	5727.29
444.17	5465.15
444.35	5900.49
444.54	5870.06
444.73	5809.21
444.91	5839.64
445.10	5804.53
445.28	5736.65
445.47	5799.85
445.65	5844.32
445.84	6043.26
446.02	6038.58
446.21	6059.65
446.39	6026.88
446.58	5956.66
446.77	5851.34
446.95	5982.41
447.14	5870.06
447.32	6066.67
447.51	6085.39
447.69	6073.69
447.88	6008.16
448.06	6122.84
448.25	5989.43
448.43	6073.69
448.62	6106.46
448.80	6090.07
448.99	6122.84
449.17	6076.03
449.36	6094.76
449.54	6246.89
449.73	6284.34
449.91	6361.58
450.10	6502.01
450.28	6502.01
450.46	6406.05
450.65	6518.39
450.83	6406.05
451.02	6387.32
451.20	6448.18
451.39	6633.08
451.57	6387.32
451.76	6513.71
451.94	6544.14
452.13	6579.25
452.31	6558.18
452.49	6349.87
452.68	6551.16
452.86	6621.38
453.05	6686.91
453.23	6658.82
453.42	6328.81
453.60	6497.33
453.78	6700.95
453.97	6574.56
454.15	6834.36
454.34	6743.08
454.52	6911.60
454.70	6773.51
454.89	6794.58
455.07	6832.02
455.26	6878.83
455.44	6946.71
455.62	6942.03
455.81	6972.46
455.99	6993.52
456.17	7119.91
456.36	6951.39
456.54	7302.47
456.73	7246.30
456.91	7318.86
457.09	7211.19
457.28	7365.67
457.46	7279.07
457.64	7644.19
457.83	7089.48
458.01	7169.06
458.19	7522.48
458.38	7274.38
458.56	7456.95
458.74	7569.29
458.93	7492.05
459.11	7581.00
459.29	7489.71
459.48	7616.10
459.66	7300.13
459.84	7571.63
460.03	7772.92
460.21	7662.91
460.39	7683.98
460.57	7683.98
460.76	7737.81
460.94	7812.71
461.12	7602.06
461.31	7719.09
461.49	7878.24
461.67	7616.10
461.85	7871.22
462.04	7714.41
462.22	8358.05
462.40	8168.47
462.59	8030.38
462.77	8098.25
462.95	8063.15
463.13	8049.10
463.32	8203.58
463.50	7955.48
463.68	8121.66
463.86	8266.77
464.05	7943.78
464.23	7964.84
464.41	8414.23
464.59	8131.02
464.78	8358.05
464.96	8280.82
465.14	8208.26
465.32	8400.18
465.50	8489.12
465.69	8603.81
465.87	8210.60
466.05	8470.40
466.23	8369.76
466.41	8381.46
466.60	8545.30
466.78	8397.84
466.96	8514.87
467.14	8542.96
467.32	8692.75
467.51	8667.00
467.69	8306.56
467.87	8400.18
468.05	8596.79
468.23	8608.49
468.41	8627.21
468.60	8545.30
468.78	8667.00
468.96	8564.02
469.14	8894.04
469.32	8980.64
469.50	8692.75
469.69	8760.63
469.87	8938.51
470.05	8982.98
470.23	9092.98
470.41	9008.72
470.59	9167.88
470.77	9146.81
470.95	9210.01
471.14	9188.94
471.32	9121.07
471.50	9455.76
471.68	9460.45
471.86	9415.98
472.04	9530.66
472.22	9661.73
472.40	9270.86
472.58	9467.47
472.77	9570.45
472.95	9570.45
473.13	9710.88
473.31	9423.00
473.49	9509.60
473.67	9643.01
473.85	9923.87
474.03	9926.21
474.21	9940.26
474.39	10162.61
474.57	10047.92
474.75	10263.25
474.93	10375.59
475.12	10228.14
475.30	10340.49
475.48	10183.67
475.66	10099.41
475.84	10214.10
476.02	10216.44
476.20	10523.05
476.38	10707.95
476.56	10951.37
476.74	10743.06
476.92	10469.22
477.10	10869.45
477.28	11007.54
477.46	10721.99
477.64	11129.25
477.82	11040.31
478.00	11587.99
478.18	11695.66
478.36	11424.15
478.54	11527.14
478.72	11616.08
478.90	11735.45
479.08	11859.49
479.26	12112.27
479.44	11882.90
479.62	12121.63
479.80	11983.54
479.98	12299.52
480.16	12388.46
480.34	12297.17
480.52	12489.10
480.70	12645.91
480.88	12477.40
481.06	12526.55
481.24	12545.27
481.41	12884.65
481.59	13095.30
481.77	13048.49
481.95	13125.72
482.13	13322.33
482.31	13530.64
482.49	13357.44
482.67	13439.36
482.85	13689.79
483.03	13678.09
483.21	13961.30
483.39	14047.90
483.57	13996.40
483.74	14370.89
483.92	14539.41
484.10	14361.53
484.28	14586.22
484.46	14721.97
484.64	14773.46
484.82	14850.70
485.00	14923.26
485.18	14977.09
485.35	14984.11
485.53	15044.96
485.71	14899.85
485.89	15379.66
486.07	15412.43
486.25	15613.71
486.43	15548.18
486.61	15864.15
486.78	16044.37
486.96	15985.86
487.14	16280.77
487.32	16561.63
487.50	16676.32
487.68	16643.55
487.85	16709.08
488.03	17001.65
488.21	16922.07
488.39	17102.29
488.57	17011.01
488.75	17380.82
488.92	17898.08
489.10	17951.91
489.28	17994.04
489.46	18178.94
489.64	18113.41
489.81	18340.44
489.99	18845.99
490.17	18600.24
490.35	18974.72
490.53	18691.52
490.70	18778.12
490.88	18625.98
491.06	19208.78
491.24	18937.27
491.41	19164.31
491.59	19269.63
491.77	19616.03
491.95	19363.25
492.13	20013.92
492.30	19924.98
492.48	19939.02
492.66	20283.08
492.84	19658.16
493.01	20168.40
493.19	20346.28
493.37	20552.24
493.54	20772.25
493.72	20908.01
493.90	20893.96
494.08	20929.07
494.25	21163.12
494.43	21254.40
494.61	21212.28
494.79	21713.15
494.96	21511.86
495.14	21582.08
495.32	22005.72
495.49	21851.24
495.67	21923.80
495.85	22059.55
496.02	22293.60
496.20	22600.21
496.38	22607.23
496.55	23026.19
496.73	23328.12
496.91	22937.25
497.09	22970.02
497.26	22958.31
497.44	23143.22
497.62	22981.72
497.79	23461.53
497.97	23311.74
498.14	23391.31
498.32	23644.09
498.50	23674.52
498.67	24198.80
498.85	24123.90
499.03	24254.97
499.20	24329.87
499.38	24041.98
499.56	24430.51
499.73	24573.28
499.91	24870.53
500.08	24664.57
500.26	24409.45
500.44	24306.46
500.61	24968.84
500.79	24755.85
500.97	24861.17
501.14	25514.18
501.32	25436.94
501.49	25317.57
501.67	25132.67
501.84	25584.40
502.02	25315.23
502.20	25584.40
502.37	25837.17
502.55	25865.26
502.72	25926.11
502.90	25848.88
503.07	25734.19
503.25	26125.06
503.43	26012.71
503.60	26452.73
503.78	26600.19
503.95	26150.81
504.13	26448.05
504.30	26801.47
504.48	26658.70
504.65	26892.76
504.83	26817.86
505.01	26988.72
505.18	27168.94
505.36	27096.38
505.53	27220.43
505.71	27758.75
505.88	27487.25
506.06	27838.33
506.23	27407.67
506.41	27398.31
506.58	27615.98
506.76	28196.43
506.93	28397.72
507.11	28067.70
507.28	27887.48
507.46	28182.39
507.63	28173.03
507.81	27999.83
507.98	28383.68
508.16	28130.90
508.33	28505.38
508.50	28629.43
508.68	28737.10
508.85	28603.69
509.03	28353.25
509.20	28914.98
509.38	29284.78
509.55	29081.16
509.73	29376.06
509.90	29542.24
510.08	29427.56
510.25	29057.75
510.42	29214.57
510.60	29752.89
510.77	29694.38
510.95	30031.41
511.12	29673.31
511.30	29933.11
511.47	30103.97
511.64	30171.85
511.82	30309.94
511.99	30092.27
512.17	30125.04
512.34	30061.84
512.51	30281.85
512.69	30721.87
512.86	30450.37
513.04	30995.71
513.21	30796.77
513.38	30691.44
513.56	30405.90
513.73	30775.70
513.90	30799.11
514.08	30857.62
514.25	31267.22
514.43	31477.86
514.60	31388.92
514.77	31126.78
514.95	31695.53
515.12	31477.86
515.29	31512.97
515.47	31693.19
515.64	32058.32
515.81	31871.07
515.99	31625.32
516.16	31758.73
516.33	31644.04
516.51	31779.79
516.68	31938.95
516.85	31517.65
517.03	31892.14
517.20	32020.87
517.37	31735.32
517.54	32610.68
517.72	32360.25
517.89	32268.97
518.06	31690.85
518.24	32048.96
518.41	32280.67
518.58	32428.12
518.75	32680.90
518.93	33029.64
519.10	33055.39
519.27	32865.80
519.45	33132.62
519.62	32945.38
519.79	33247.31
519.96	33354.97
520.14	33509.45
520.31	33287.10
520.48	33415.83
520.65	33172.41
520.83	33851.17
521.00	34167.14
521.17	33425.19
521.34	33813.72
521.52	34089.90
521.69	34033.73
521.86	34389.49
522.03	34190.55
522.20	34015.01
522.38	34426.94
522.55	34307.57
522.72	34270.12
522.89	34302.89
523.07	34670.36
523.24	34160.12
523.41	34873.98
523.58	34628.23
523.75	35075.27
523.92	35115.06
524.10	34958.24
524.27	35297.62
524.44	34888.03
524.61	34976.97
524.78	35222.72
524.96	35166.55
525.13	35419.33
525.30	35538.69
525.47	34979.31
525.64	35241.45
525.81	35747.00
525.98	35519.97
526.16	35526.99
526.33	35257.83
526.50	35934.24
526.67	35363.15
526.84	35498.91
527.01	35503.59
527.18	35749.34
527.36	36002.12
527.53	36030.21
527.70	36505.34
527.87	36294.69
528.04	36374.27
528.21	36795.56
528.38	35995.10
528.55	36842.37
528.72	36266.60
528.89	36748.75
529.07	36774.50
529.24	36381.29
529.41	36577.89
529.58	36847.05
529.75	36203.41
529.92	36701.94
530.09	36643.43
530.26	36833.01
530.43	37102.17
530.60	36435.12
530.77	37258.99
530.94	37148.98
531.11	37371.33
531.28	37284.73
531.46	37184.09
531.63	37132.60
531.80	37347.93
531.97	37373.67
532.14	37579.64
532.31	37076.43
532.48	37376.01
532.65	37668.58
532.82	37890.93
532.99	37282.39
533.16	37682.62
533.33	37912.00
533.50	37827.74
533.67	38101.58
533.84	37912.00
534.01	38033.71
534.18	37996.26
534.35	38174.14
534.52	38506.49
534.69	38253.72
534.86	38188.18
535.03	38052.43
535.20	38660.97
535.37	38836.51
535.54	38747.57
535.71	38272.44
535.88	38792.04
536.05	38597.77
536.22	38667.99
536.38	38494.79
536.55	38651.61
536.72	38576.71
536.89	38284.14
537.06	38918.43
537.23	38780.34
537.40	38918.43
537.57	39061.20
537.74	39084.61
537.91	39180.57
538.08	39175.89
538.25	38895.02
538.42	39208.65
538.59	39433.35
538.75	39091.63
538.92	39257.81
539.09	39091.63
539.26	39351.43
539.43	39243.76
539.60	39461.43
539.77	39005.03
539.94	39716.55
540.11	39365.47
540.28	39585.48
540.44	39681.44
540.61	39592.50
540.78	39227.38
540.95	39711.87
541.12	39541.01
541.29	39604.20
541.46	39667.40
541.62	39608.89
541.79	39948.26
541.96	40100.40
542.13	39889.75
542.30	39913.16
542.47	40147.21
542.63	40208.06
542.80	40072.31
542.97	40601.27
543.14	40847.03
543.31	40725.32
543.48	40615.32
543.64	41202.79
543.81	40348.50
543.98	40268.92
544.15	40528.72
544.32	40938.31
544.48	41024.91
544.65	41263.64
544.82	41153.64
544.99	40652.76
545.16	40720.64
545.32	40807.24
545.49	41588.98
545.66	41483.66
545.83	41315.14
546.00	41336.20
546.16	41113.85
546.33	41308.11
546.50	40830.65
546.67	41109.17
546.83	40636.38
547.00	41617.07
547.17	41240.24
547.34	41476.63
547.50	41364.29
547.67	41385.35
547.84	41525.78
548.00	42143.69
548.17	42082.83
548.34	41364.29
548.51	42171.77
548.67	41998.57
548.84	41584.30
549.01	41766.86
549.18	42031.34
549.34	41731.75
549.51	42005.59
549.68	42029.00
549.84	42452.64
550.01	41748.14
550.18	41848.78
550.34	42012.62
550.51	41972.83
550.68	41860.48
550.84	41858.14
551.01	42375.40
551.18	42174.11
551.34	42337.95
551.51	42974.58
551.68	42382.42
551.84	42443.27
552.01	42630.52
552.18	42412.85
552.34	41886.23
552.51	42387.10
552.68	42766.27
552.84	42085.17
553.01	42529.87
553.18	42153.05
553.34	42796.70
553.51	42543.92
553.67	42473.70
553.84	43086.92
554.01	42740.52
554.17	42955.85
554.34	43112.67
554.51	43086.92
554.67	43026.07
554.84	43194.59
555.00	42927.77
555.17	42476.04
555.33	42976.92
555.50	42958.19
555.67	43234.38
555.83	43007.34
556.00	43225.01
556.16	43360.76
556.33	43126.71
556.50	43103.31
556.66	43494.18
556.83	42740.52
556.99	43810.15
557.16	43262.46
557.32	43489.49
557.49	43835.89
557.65	42782.65
557.82	43243.74
557.98	43180.54
558.15	43323.32
558.32	43400.55
558.48	43632.27
558.65	43487.15
558.81	43295.23
558.98	43447.36
559.14	43487.15
559.31	43374.81
559.47	43885.04
559.64	43922.49
559.80	43746.95
559.97	44006.75
560.13	43716.53
560.30	43386.51
560.46	43845.26
560.63	43550.35
560.79	44133.14
560.96	44184.63
561.12	43826.53
561.29	43613.54
561.45	43650.99
561.61	44175.27
561.78	43845.26
561.94	43751.63
562.11	44196.34
562.27	43739.93
562.44	43648.65
562.60	43917.81
562.77	44292.30
562.93	43770.36
563.10	44041.86
563.26	43791.42
563.42	44378.90
563.59	43959.94
563.75	44100.37
563.92	44151.87
564.08	43639.29
564.24	44301.66
564.41	43770.36
564.57	43973.98
564.74	44004.41
564.90	44369.54
565.07	44266.55
565.23	44004.41
565.39	43952.92
565.56	44009.09
565.72	43924.83
565.88	44222.08
566.05	44215.06
566.21	44182.29
566.38	43901.43
566.54	44203.36
566.70	44154.21
566.87	44406.98
567.03	43952.92
567.19	45050.63
567.36	44418.69
567.52	44575.50
567.68	44491.24
567.85	44154.21
568.01	44065.27
568.17	44332.09
568.34	44287.62
568.50	44383.58
568.66	44229.10
568.83	44446.77
568.99	44451.45
569.15	44273.57
569.32	43931.86
569.48	44311.02
569.64	44825.94
569.81	44552.10
569.97	44397.62
570.13	44355.49
570.30	44114.42
570.46	44261.87
570.62	44072.29
570.78	43973.98
570.95	44112.08
571.11	44432.73
571.27	44329.75
571.43	44521.67
571.60	44781.47
571.76	44350.81
571.92	44069.95
572.09	44406.98
572.25	44769.77
572.41	44582.52
572.57	44737.00
572.74	44879.77
572.90	44715.93
573.06	44575.50
573.22	44376.56
573.38	44626.99
573.55	44266.55
573.71	44428.05
573.87	44765.09
574.03	44175.27
574.20	44655.08
574.36	44311.02
574.52	44821.26
574.68	44781.47
574.84	44697.21
575.01	44584.86
575.17	44409.32
575.33	44388.26
575.49	44456.14
575.65	44832.96
575.82	45052.97
575.98	44708.91
576.14	45455.54
576.30	44762.75
576.46	44516.99
576.62	44261.87
576.79	44690.19
576.95	44201.02
577.11	44753.38
577.27	45003.82
577.43	44594.23
577.59	44388.26
577.75	44589.55
577.92	44182.29
578.08	44179.95
578.24	44315.70
578.40	44552.10
578.56	44727.64
578.72	44556.78
578.88	45174.68
579.04	44725.30
579.21	44446.77
579.37	44531.03
579.53	45184.04
579.69	44521.67
579.85	44507.63
580.01	44399.96
580.17	45078.72
580.33	44849.35
580.49	45090.42
580.65	44769.77
580.82	44905.52
580.98	44519.33
581.14	44381.24
581.30	44566.14
581.46	44559.12
581.62	44882.11
581.78	44774.45
581.94	45205.11
582.10	45116.17
582.26	44547.42
582.42	44788.49
582.58	44713.59
582.74	44851.69
582.90	44540.39
583.06	44814.24
583.22	45354.90
583.38	44842.32
583.54	44914.88
583.70	44704.23
583.86	45284.68
584.02	44655.08
584.18	44875.09
584.34	44821.26
584.50	44786.15
584.66	44643.38
584.82	44737.00
584.98	45153.62
585.14	44612.95
585.30	44797.85
585.46	44524.01
585.62	44800.19
585.78	44889.13
585.94	44430.39
586.10	44715.93
586.26	44788.49
586.42	44907.86
586.58	44788.49
586.74	44835.30
586.90	44676.15
587.06	44502.95
587.22	45015.52
587.38	44622.31
587.54	44973.39
587.70	45071.70
587.86	44353.15
588.02	44905.52
588.18	44994.46
588.34	45071.70
588.49	44641.04
588.65	44271.23
588.81	44755.72
588.97	44865.73
589.13	44559.12
589.29	44795.51
589.45	44732.32
589.61	44968.71
589.77	45532.78
589.93	44903.18
590.08	44830.62
590.24	45382.99
