SpectraSuite Data File
++++++++++++++++++++++++++++++++++++
Date: Fri Oct 25 10:46:56 EDT 2013
User: price-jones
Dark Spectrum Present: No
Reference Spectrum Present: No
Number of Sampled Component Spectra: 1
Spectrometers: USB2+H05261
Integration Time (usec): 100000 (USB2+H05261)
Spectra Averaged: 1 (USB2+H05261)
Boxcar Smoothing: 0 (USB2+H05261)
Correct for Electrical Dark: No (USB2+H05261)
Strobe/Lamp Enabled: No (USB2+H05261)
Correct for Detector Non-linearity: No (USB2+H05261)
Correct for Stray Light: No (USB2+H05261)
Number of Pixels in Processed Spectrum: 2048
>>>>>Begin Processed Spectral Data<<<<<
365.73	119.37
365.92	119.37
366.12	119.37
366.32	51.49
366.52	23.41
366.72	21.06
366.91	0.00
367.11	105.32
367.31	18.72
367.51	35.11
367.70	93.62
367.90	79.58
368.10	0.00
368.30	56.17
368.49	0.00
368.69	39.79
368.89	100.64
369.09	32.77
369.28	65.54
369.48	84.26
369.68	0.00
369.87	77.24
370.07	60.85
370.27	100.64
370.47	262.14
370.66	393.21
370.86	411.93
371.06	407.25
371.25	451.72
371.45	526.62
371.65	395.55
371.84	475.13
372.04	367.46
372.24	418.96
372.44	463.43
372.63	526.62
372.83	489.17
373.03	554.71
373.22	559.39
373.42	561.73
373.62	573.43
373.81	505.56
374.01	545.34
374.21	510.24
374.40	531.30
374.60	585.13
374.79	599.18
374.99	578.11
375.19	552.37
375.38	606.20
375.58	538.32
375.78	599.18
375.97	564.07
376.17	601.52
376.37	596.84
376.56	643.65
376.76	610.88
376.95	624.92
377.15	634.29
377.35	624.92
377.54	667.05
377.74	678.76
377.93	622.58
378.13	655.35
378.33	645.99
378.52	638.97
378.72	662.37
378.91	706.84
379.11	629.60
379.31	697.48
379.50	653.01
379.70	723.23
379.89	697.48
380.09	674.07
380.28	741.95
380.48	716.20
380.68	641.31
380.87	697.48
381.07	755.99
381.26	720.88
381.46	709.18
381.65	753.65
381.85	770.04
382.04	763.01
382.24	730.25
382.43	781.74
382.63	767.70
382.83	744.29
383.02	674.07
383.22	779.40
383.41	681.10
383.61	657.69
383.80	741.95
384.00	755.99
384.19	777.06
384.39	866.00
384.58	884.72
384.78	842.59
384.97	781.74
385.17	844.93
385.36	826.21
385.56	753.65
385.75	866.00
385.95	781.74
386.14	784.08
386.34	844.93
386.53	866.00
386.72	767.70
386.92	868.34
387.11	931.53
387.31	908.13
387.50	828.55
387.70	816.85
387.89	964.30
388.09	851.96
388.28	910.47
388.48	858.98
388.67	880.04
388.86	945.58
389.06	954.94
389.25	971.32
389.45	936.21
389.64	1011.11
389.84	1043.88
390.03	875.36
390.22	973.66
390.42	1001.75
390.61	1004.09
390.81	1001.75
391.00	1069.62
391.19	1074.31
391.39	1060.26
391.58	1081.33
391.78	1069.62
391.97	1062.60
392.16	1062.60
392.36	1008.77
392.55	971.32
392.75	966.64
392.94	1018.13
393.13	1032.18
393.33	959.62
393.52	1137.50
393.71	1165.59
393.91	1142.18
394.10	1090.69
394.29	1139.84
394.49	1167.93
394.68	1287.29
394.88	1151.54
395.07	1221.76
395.26	1158.57
395.46	1238.14
395.65	1263.89
395.84	1228.78
396.04	1291.98
396.23	1186.65
396.42	1139.84
396.62	1310.70
396.81	1228.78
397.00	1214.74
397.19	1261.55
397.39	1287.29
397.58	1299.00
397.77	1263.89
397.97	1385.60
398.16	1441.77
398.35	1418.36
398.55	1451.13
398.74	1451.13
398.93	1465.18
399.12	1502.62
399.32	1446.45
399.51	1448.79
399.70	1544.75
399.90	1523.69
400.09	1547.09
400.28	1619.65
400.47	1643.06
400.67	1593.90
400.86	1638.38
401.05	1570.50
401.24	1652.42
401.44	1694.55
401.63	1673.48
401.82	1720.29
402.01	1666.46
402.21	1659.44
402.40	1703.91
402.59	1727.32
402.78	1739.02
402.97	1708.59
403.17	1717.95
403.36	1849.02
403.55	1823.28
403.74	1877.11
403.93	1816.26
404.13	1806.89
404.32	1893.49
404.51	1834.98
404.70	1856.04
404.89	1914.56
405.09	1930.94
405.28	1968.39
405.47	1816.26
405.66	1984.77
405.85	1914.56
406.05	1888.81
406.24	2010.52
406.43	2017.54
406.62	2001.16
406.81	2062.01
407.00	2038.61
407.20	1991.80
407.39	2047.97
407.58	2071.37
407.77	2108.82
407.96	2207.13
408.15	2181.38
408.34	2005.84
408.54	2167.34
408.73	2289.04
408.92	2132.23
409.11	2359.26
409.30	2317.13
409.49	2267.98
409.68	2267.98
409.87	2345.22
410.07	2286.70
410.26	2331.17
410.45	2406.07
410.64	2321.81
410.83	2410.75
411.02	2431.82
411.21	2497.35
411.40	2541.82
411.59	2607.36
411.78	2518.42
411.98	2539.48
412.17	2602.68
412.36	2672.89
412.55	2715.02
412.74	2691.62
412.93	2729.06
413.12	2527.78
413.31	2818.00
413.50	2794.60
413.69	2843.75
413.88	2818.00
414.07	2799.28
414.26	2703.32
414.45	2925.67
414.64	2953.76
414.83	3014.61
415.02	3035.67
415.22	3012.27
415.41	3096.53
415.60	3012.27
415.79	3108.23
415.98	3248.66
416.17	3269.73
416.36	3169.09
416.55	3082.49
416.74	3171.43
416.93	3119.93
417.12	3080.14
417.31	3187.81
417.50	3162.06
417.69	3309.52
417.88	3449.95
418.07	3323.56
418.26	3442.93
418.45	3389.10
418.64	3552.93
418.83	3485.06
419.02	3473.36
419.21	3688.68
419.39	3506.12
419.58	3461.65
419.77	3494.42
419.96	3632.51
420.15	3641.87
420.34	3688.68
420.53	3721.45
420.72	3805.71
420.91	3815.07
421.10	3805.71
421.29	3831.46
421.48	3932.10
421.67	3747.20
421.86	3726.13
422.05	3714.43
422.24	3801.03
422.43	3747.20
422.61	3517.83
422.80	3932.10
422.99	3786.99
423.18	3866.56
423.37	3913.38
423.56	3911.04
423.75	3934.44
423.94	3798.69
424.13	3688.68
424.32	3674.64
424.50	3948.48
424.69	4119.34
424.88	3908.69
425.07	3920.40
425.26	3925.08
425.45	3885.29
425.64	3960.19
425.83	3688.68
426.01	3882.95
426.20	3943.80
426.39	3908.69
426.58	3845.50
426.77	3873.59
426.96	3789.33
427.15	3948.48
427.33	3892.31
427.52	3955.51
427.71	3974.23
427.90	4067.85
428.09	4189.56
428.28	3976.57
428.46	4014.02
428.65	4170.83
428.84	4372.12
429.03	4170.83
429.22	3964.87
429.40	4212.96
429.59	4105.30
429.78	3943.80
429.97	3978.91
430.16	4121.68
430.34	4166.15
430.53	4046.79
430.72	4212.96
430.91	4189.56
431.10	4166.15
431.28	4512.55
431.47	4432.97
431.66	4582.77
431.85	4535.96
432.03	4496.17
432.22	4690.43
432.41	4713.84
432.60	4489.15
432.79	4613.20
432.97	4671.71
433.16	4652.98
433.35	4554.68
433.54	4624.90
433.72	4627.24
433.91	4746.61
434.10	4624.90
434.28	4737.24
434.47	4856.61
434.66	4884.70
434.85	4858.95
435.03	4849.59
435.22	4863.63
435.41	4910.44
435.59	4947.89
435.78	5062.58
435.97	5048.54
436.16	5060.24
436.34	4971.30
436.53	5121.09
436.72	5111.73
436.90	5004.07
437.09	5102.37
437.28	5085.98
437.46	5139.82
437.65	5046.20
437.84	5004.07
438.02	5078.96
438.21	5032.15
438.40	5104.71
438.58	5224.08
438.77	5369.19
438.96	5364.51
439.14	5565.79
439.33	5448.77
439.52	5399.62
439.70	5469.83
439.89	5589.20
440.08	5614.95
440.26	5799.85
440.45	5593.88
440.63	5715.59
440.82	5614.95
441.01	5706.23
441.19	5935.60
441.38	5830.27
441.57	5961.34
441.75	6141.57
441.94	6225.82
442.12	6314.77
442.31	6319.45
442.50	6274.98
442.68	6303.06
442.87	6115.82
443.05	6211.78
443.24	6256.25
443.43	6223.48
443.61	6502.01
443.80	6427.11
443.98	6317.11
444.17	6094.76
444.35	6214.12
444.54	6384.98
444.73	6588.61
444.91	6366.26
445.10	6317.11
445.28	6487.96
445.47	6296.04
445.65	6319.45
445.84	6352.21
446.02	6546.48
446.21	6511.37
446.39	6361.58
446.58	6427.11
446.77	6539.46
446.95	6326.47
447.14	6516.05
447.32	6567.54
447.51	6630.74
447.69	6511.37
447.88	6527.75
448.06	6480.94
448.25	6637.76
448.43	6855.43
448.62	6661.16
448.80	6588.61
448.99	6693.93
449.17	6642.44
449.36	6644.78
449.54	6808.62
449.73	6986.50
449.91	7035.65
450.10	7089.48
450.28	7026.29
450.46	7133.95
450.65	7068.42
450.83	7108.21
451.02	7162.04
451.20	7148.00
451.39	6958.41
451.57	7059.06
451.76	6850.75
451.94	6986.50
452.13	7222.89
452.31	6939.69
452.49	6909.26
452.68	7117.57
452.86	7293.11
453.05	7183.10
453.23	7325.88
453.42	7180.76
453.60	7225.23
453.78	7253.32
453.97	7199.49
454.15	7283.75
454.34	7417.16
454.52	7370.35
454.70	7428.86
454.89	7515.46
455.07	7524.82
455.26	7487.37
455.44	7681.64
455.62	7588.02
455.81	7473.33
455.99	7810.37
456.17	7805.69
456.36	7440.56
456.54	7782.28
456.73	7873.56
456.91	7955.48
457.09	8004.63
457.28	7981.23
457.46	7995.27
457.64	8021.02
457.83	7936.76
458.01	8091.23
458.19	8070.17
458.38	7868.88
458.56	8205.92
458.74	8079.53
458.93	7985.91
459.11	8107.62
459.29	8147.40
459.48	8182.51
459.66	8098.25
459.84	8262.09
460.03	8325.29
460.21	8454.02
460.39	8493.80
460.57	8367.42
460.76	8458.70
460.94	8444.65
461.12	8388.48
461.31	8690.41
461.49	8409.54
461.67	8308.90
461.85	8669.34
462.04	8631.90
462.22	9111.71
462.40	8709.13
462.59	8554.66
462.77	8575.72
462.95	8669.34
463.13	8840.20
463.32	8830.84
463.50	8910.42
463.68	8868.29
463.86	8968.93
464.05	8947.87
464.23	8760.63
464.41	8940.85
464.59	8781.69
464.78	9074.26
464.96	8868.29
465.14	8933.82
465.32	9064.89
465.50	9060.21
465.69	9153.84
465.87	9191.28
466.05	9067.24
466.23	9217.03
466.41	8980.64
466.60	9348.10
466.78	8861.27
466.96	9123.41
467.14	9266.18
467.32	9167.88
467.51	9266.18
467.69	9043.83
467.87	9275.54
468.05	9217.03
468.23	9355.12
468.41	9221.71
468.60	9338.74
468.78	9439.38
468.96	9336.40
469.14	9540.02
469.32	9841.95
469.50	9397.25
469.69	9827.91
469.87	9589.17
470.05	9542.36
470.23	9745.99
470.41	9708.54
470.59	9865.36
470.77	9781.10
470.95	9722.59
471.14	10040.90
471.32	9715.56
471.50	10132.18
471.68	10120.48
471.86	10373.25
472.04	10335.81
472.22	10319.42
472.40	9951.96
472.58	10068.98
472.77	10279.63
472.95	10331.12
473.13	10616.67
473.31	10436.45
473.49	10307.72
473.67	10527.73
473.85	10527.73
474.03	10946.69
474.21	10686.89
474.39	10916.26
474.57	10743.06
474.75	11159.67
474.93	10942.00
475.12	11105.84
475.30	10904.56
475.48	11206.48
475.66	11056.69
475.84	11185.42
476.02	11220.53
476.20	11236.91
476.38	11456.92
476.56	11817.36
476.74	11562.25
476.92	11639.48
477.10	11646.51
477.28	11957.80
477.46	11936.73
477.64	12009.29
477.82	12194.19
478.00	12622.51
478.18	12559.31
478.36	12339.30
478.54	12423.56
478.72	12503.14
478.90	12741.88
479.08	12779.32
479.26	12905.71
479.44	12957.21
479.62	13177.22
479.80	13076.57
479.98	13497.87
480.16	13650.00
480.34	13163.17
480.52	13341.05
480.70	13516.59
480.88	13502.55
481.06	13750.65
481.24	13912.14
481.41	13947.25
481.59	14335.78
481.77	14312.38
481.95	14129.81
482.13	14530.05
482.31	14214.07
482.49	14534.73
482.67	14672.82
482.85	14855.38
483.03	14986.45
483.21	15087.09
483.39	15091.77
483.57	15426.47
483.74	15307.10
483.92	15609.03
484.10	15374.98
484.28	15822.02
484.46	15765.85
484.64	15953.09
484.82	15815.00
485.00	16018.63
485.18	16189.49
485.35	16446.94
485.53	16168.42
485.71	16219.91
485.89	16416.52
486.07	16149.70
486.25	16673.98
486.43	16521.84
486.61	16772.28
486.78	17074.21
486.96	17085.91
487.14	17441.67
487.32	17893.40
487.50	17605.51
487.68	17825.52
487.85	18251.50
488.03	18361.50
488.21	18192.98
488.39	18090.00
488.57	18263.20
488.75	18429.38
488.92	18916.21
489.10	18988.77
489.28	19227.50
489.46	19297.72
489.64	19080.05
489.81	19871.15
489.99	19852.42
490.17	20091.16
490.35	20240.95
490.53	19978.81
490.70	20255.00
490.88	20182.44
491.06	20898.64
491.24	20758.21
491.41	20283.08
491.59	20540.54
491.77	20610.76
491.95	21088.23
492.13	21039.08
492.30	21455.69
492.48	21631.23
492.66	21415.90
492.84	21352.71
493.01	21912.10
493.19	21715.49
493.37	21984.65
493.54	21895.71
493.72	22232.75
493.90	22445.74
494.08	22640.00
494.25	22918.53
494.43	22827.24
494.61	23124.49
494.79	23250.88
494.96	23044.91
495.14	23419.40
495.32	23236.84
495.49	23379.61
495.67	23344.50
495.85	23587.92
496.02	24173.05
496.20	23964.75
496.38	24290.08
496.55	24170.71
496.73	24961.81
496.91	24425.83
497.09	24929.05
497.26	24755.85
497.44	24687.97
497.62	24685.63
497.79	25099.90
497.97	24814.36
498.14	25146.72
498.32	25453.33
498.50	25422.90
498.67	25799.73
498.85	25907.39
499.03	25914.41
499.20	25968.24
499.38	26059.52
499.56	26113.36
499.73	26291.24
499.91	26443.37
500.08	26326.35
500.26	25867.60
500.44	26309.96
500.61	26551.04
500.79	26389.54
500.97	26501.89
501.14	27206.39
501.32	27096.38
501.49	26583.80
501.67	26913.82
501.84	27096.38
502.02	27325.75
502.20	27033.19
502.37	27604.28
502.55	27461.51
502.72	27545.76
502.90	27686.20
503.07	27915.57
503.25	27562.15
503.43	27868.76
503.60	27775.14
503.78	27917.91
503.95	27990.47
504.13	28327.50
504.30	28400.06
504.48	28158.99
504.65	28463.25
504.83	28797.95
505.01	28755.82
505.18	28879.87
505.36	29130.31
505.53	28725.39
505.71	29432.24
505.88	29483.73
506.06	28783.91
506.23	29427.56
506.41	29158.39
506.58	29357.34
506.76	29422.87
506.93	29528.20
507.11	29881.62
507.28	29853.53
507.46	29844.17
507.63	29638.20
507.81	29982.26
507.98	29935.45
508.16	30057.16
508.33	30883.37
508.50	30658.68
508.68	30469.09
508.85	30897.41
509.03	30567.40
509.20	30682.08
509.38	31026.14
509.55	30714.85
509.73	31234.45
509.90	31344.45
510.08	31461.48
510.25	31005.08
510.42	31454.46
510.60	31622.98
510.77	31299.98
510.95	31817.24
511.12	31557.44
511.30	31791.50
511.47	32098.11
511.64	32215.13
511.82	31910.86
511.99	31723.62
512.17	32109.81
512.34	32084.06
512.51	32657.49
512.69	32500.68
512.86	32093.43
513.04	32521.74
513.21	32676.22
513.38	32584.94
513.56	32381.31
513.73	32378.97
513.90	32994.53
514.08	32765.16
514.25	32669.20
514.43	33326.89
514.60	33460.30
514.77	33076.45
514.95	33596.05
515.12	33518.81
515.29	33404.13
515.47	33635.84
515.64	33467.32
515.81	33553.92
515.99	33621.80
516.16	33460.30
516.33	33621.80
516.51	33177.09
516.68	33010.92
516.85	33184.12
517.03	33734.14
517.20	33677.97
517.37	33853.51
517.54	34096.92
517.72	34218.63
517.89	33755.21
518.06	33984.58
518.24	34249.06
518.41	34047.77
518.58	34291.19
518.75	34616.52
518.93	34763.98
519.10	34754.61
519.27	34859.94
519.45	34637.59
519.62	34939.52
519.79	35248.47
519.96	35009.73
520.14	35669.76
520.31	35037.82
520.48	35096.33
520.65	35117.40
520.83	35491.88
521.00	35747.00
521.17	35857.01
521.34	35913.18
521.52	35784.45
521.69	35894.46
521.86	36046.59
522.03	36128.51
522.20	36456.18
522.38	36421.08
522.55	36385.97
522.72	36165.96
522.89	35924.88
523.07	36201.07
523.24	36219.79
523.41	36760.45
523.58	36624.70
523.75	37235.58
523.92	37127.92
524.10	36734.71
524.27	36863.44
524.44	37390.06
524.61	36879.82
524.78	37280.05
524.96	37418.14
525.13	37853.48
525.30	38073.49
525.47	37801.99
525.64	37404.10
525.81	37668.58
525.98	37013.23
526.16	37158.34
526.33	36921.95
526.50	37230.90
526.67	37418.14
526.84	37607.73
527.01	37476.66
527.18	37628.79
527.36	37752.84
527.53	38066.47
527.70	38309.89
527.87	38618.84
528.04	38059.45
528.21	37984.55
528.38	38012.64
528.55	38724.16
528.72	38555.64
528.89	38827.15
529.07	38663.31
529.24	38487.77
529.41	38436.28
529.58	38354.36
529.75	38536.92
529.92	38850.55
530.09	38658.63
530.26	38953.54
530.43	38888.00
530.60	39189.93
530.77	38684.37
530.94	39541.01
531.11	38705.44
531.28	38965.24
531.46	39152.48
531.63	39199.29
531.80	39384.19
531.97	39000.35
532.14	39695.49
532.31	38754.59
532.48	39510.58
532.65	39337.38
532.82	39297.59
532.99	39426.32
533.16	39445.05
533.33	39658.04
533.50	39655.70
533.67	39915.50
533.84	39922.52
534.01	39704.85
534.18	39728.25
534.35	40472.54
534.52	40219.77
534.69	40769.79
534.86	40205.72
535.03	39910.82
535.20	40620.00
535.37	40648.08
535.54	41141.94
535.71	40589.57
535.88	40182.32
536.05	40191.68
536.22	40968.74
536.38	40446.80
536.55	40547.44
536.72	40601.27
536.89	40643.40
537.06	40610.64
537.23	40730.00
537.40	40367.22
537.57	40734.68
537.74	40992.14
537.91	41448.55
538.08	40821.28
538.25	40692.55
538.42	40940.65
538.59	41361.95
538.75	40697.24
538.92	41055.34
539.09	41111.51
539.26	41144.28
539.43	41296.41
539.60	41507.06
539.77	41235.56
539.94	41390.03
540.11	41371.31
540.28	41380.67
540.44	41132.57
540.61	41359.61
540.78	41457.91
540.95	41298.75
541.12	41661.54
541.29	41116.19
541.46	41830.05
541.62	41876.86
541.79	42024.32
541.96	41780.90
542.13	41605.36
542.30	41954.10
542.47	41551.53
542.63	42120.28
542.80	41848.78
542.97	42459.66
543.14	42831.80
543.31	42527.53
543.48	43063.52
543.64	42997.98
543.81	42574.34
543.98	42754.57
544.15	42405.83
544.32	42480.72
544.48	42941.81
544.65	42749.88
544.82	42859.89
544.99	42700.73
545.16	43091.60
545.32	42951.17
545.49	42927.77
545.66	43320.98
545.83	43173.52
546.00	43320.98
546.16	42794.36
546.33	43021.39
546.50	42731.16
546.67	43246.08
546.83	42586.05
547.00	43522.26
547.17	43175.86
547.34	43124.37
547.50	43119.69
547.67	43826.53
547.84	43356.08
548.00	43295.23
548.17	43545.67
548.34	43470.77
548.51	44179.95
548.67	44119.10
548.84	44079.31
549.01	43477.79
549.18	43976.33
549.34	43466.09
549.51	44053.56
549.68	43922.49
549.84	43686.10
550.01	44383.58
550.18	44030.16
550.34	44098.03
550.51	44142.50
550.68	43847.60
550.84	43604.18
551.01	44076.97
551.18	44184.63
551.34	44179.95
551.51	44006.75
551.68	44376.56
551.84	44477.20
552.01	43887.39
552.18	43915.47
552.34	43955.26
552.51	44086.33
552.68	44266.55
552.84	44402.30
553.01	44563.80
553.18	44282.94
553.34	44423.37
553.51	44093.35
553.67	44282.94
553.84	44453.79
554.01	44994.46
554.17	44491.24
554.34	44615.29
554.51	44245.49
554.67	45022.54
554.84	44364.85
555.00	44449.11
555.17	44329.75
555.33	45191.06
555.50	44655.08
555.67	44945.31
555.83	44854.03
556.00	44804.88
556.16	45181.70
556.33	44935.95
556.50	45024.89
556.66	45071.70
556.83	44704.23
556.99	45399.37
557.16	45406.39
557.32	45003.82
557.49	44811.90
557.65	44797.85
557.82	44781.47
557.98	44982.76
558.15	45237.87
558.32	45043.61
558.48	44542.74
558.65	44912.54
558.81	45127.87
558.98	45177.02
559.14	44877.43
559.31	45188.72
559.47	45024.89
559.64	45387.67
559.80	45240.21
559.97	45038.93
560.13	44919.56
560.30	45038.93
560.46	45581.93
560.63	45387.67
560.79	45626.40
560.96	45713.00
561.12	45595.98
561.29	45535.12
561.45	45186.38
561.61	46106.21
561.78	45787.90
561.94	45380.65
562.11	45565.55
562.27	45565.55
562.44	45209.79
562.60	45181.70
562.77	45886.20
562.93	45624.06
563.10	45830.03
563.26	45631.08
563.42	45705.98
563.59	45418.10
563.75	45605.34
563.92	45429.80
564.08	45570.23
564.24	45741.09
564.41	45324.47
564.57	45619.38
564.74	45666.19
564.90	45832.37
565.07	45858.12
565.23	45907.27
565.39	45832.37
565.56	45979.82
565.72	45741.09
565.88	45879.18
566.05	45764.49
566.21	45626.40
566.38	45792.58
566.54	45518.74
566.70	45984.51
566.87	46094.51
567.03	46274.73
567.19	46253.67
567.36	45865.14
567.52	46188.13
567.68	46267.71
567.85	46153.02
568.01	45970.46
568.17	45680.24
568.34	45923.65
568.50	45727.05
568.66	45823.01
568.83	46019.61
568.99	45839.39
569.15	45705.98
569.32	45860.46
569.48	45261.28
569.64	46473.68
569.81	46059.40
569.97	45743.43
570.13	45900.25
570.30	45820.67
570.46	45485.97
570.62	45780.88
570.78	45820.67
570.95	45652.15
571.11	46028.98
571.27	45722.37
571.43	45694.28
571.60	45855.78
571.76	46050.04
571.92	45914.29
572.09	45874.50
572.25	46176.43
572.41	45942.38
572.57	46557.94
572.74	46424.53
572.90	46824.76
573.06	45965.78
573.22	45818.33
573.38	45755.13
573.55	46012.59
573.71	46370.69
573.87	45972.80
574.03	45996.21
574.20	46232.60
574.36	45460.23
574.52	46241.96
574.68	46300.48
574.84	45970.46
575.01	46436.23
575.17	45881.52
575.33	45691.94
575.49	45830.03
575.65	46401.12
575.82	46457.29
575.98	46089.83
576.14	46117.92
576.30	46232.60
576.46	46188.13
576.62	46131.96
576.79	46321.54
576.95	46005.57
577.11	45820.67
577.27	46117.92
577.43	46567.30
577.59	45900.25
577.75	46176.43
577.92	45883.86
578.08	45773.86
578.24	45799.60
578.40	46501.76
578.56	46284.09
578.72	45951.74
578.88	46595.38
579.04	46567.30
579.21	46007.91
579.37	46124.94
579.53	46356.65
579.69	46089.83
579.85	46024.29
580.01	46567.30
580.17	46171.75
580.33	46490.06
580.49	46197.49
580.65	46190.47
580.82	46281.75
580.98	46398.78
581.14	46160.05
581.30	46237.28
581.46	46478.36
581.62	46328.56
581.78	46349.63
581.94	46480.70
582.10	46321.54
582.26	46485.38
582.42	46429.21
582.58	46307.50
582.74	46251.33
582.90	46183.45
583.06	46452.61
583.22	46557.94
583.38	46443.25
583.54	46417.50
583.70	46274.73
583.86	46279.41
584.02	45888.54
584.18	46099.19
584.34	46181.11
584.50	46562.62
584.66	46408.14
584.82	46176.43
584.98	46380.06
585.14	46649.22
585.30	46436.23
585.46	46445.59
585.62	46394.10
585.78	45977.48
585.94	45949.40
586.10	46361.33
586.26	46176.43
586.42	46244.30
586.58	46799.01
586.74	46263.03
586.90	45970.46
587.06	45886.20
587.22	46071.10
587.38	46019.61
587.54	46483.04
587.70	46333.24
587.86	46251.33
588.02	46522.83
588.18	46447.93
588.34	46246.65
588.49	46047.70
588.65	45848.75
588.81	45745.77
588.97	46087.49
589.13	45755.13
589.29	45993.87
589.45	46309.84
589.61	46520.49
589.77	46300.48
589.93	46375.37
