SpectraSuite Data File
++++++++++++++++++++++++++++++++++++
Date: Fri Oct 25 10:47:27 EDT 2013
User: price-jones
Dark Spectrum Present: No
Reference Spectrum Present: No
Number of Sampled Component Spectra: 1
Spectrometers: USB2+H05261
Integration Time (usec): 100000 (USB2+H05261)
Spectra Averaged: 1 (USB2+H05261)
Boxcar Smoothing: 0 (USB2+H05261)
Correct for Electrical Dark: No (USB2+H05261)
Strobe/Lamp Enabled: No (USB2+H05261)
Correct for Detector Non-linearity: No (USB2+H05261)
Correct for Stray Light: No (USB2+H05261)
Number of Pixels in Processed Spectrum: 2048
>>>>>Begin Processed Spectral Data<<<<<
365.73	166.18
365.92	166.18
366.12	166.18
366.32	23.41
366.52	0.00
366.72	44.47
366.91	21.06
367.11	86.60
367.31	14.04
367.51	107.66
367.70	81.92
367.90	28.09
368.10	56.17
368.30	28.09
368.49	35.11
368.69	84.26
368.89	30.43
369.09	23.41
369.28	53.83
369.48	44.47
369.68	102.98
369.87	25.75
370.07	102.98
370.27	205.97
370.47	107.66
370.66	395.55
370.86	451.72
371.06	390.87
371.25	447.04
371.45	404.91
371.65	531.30
371.84	470.45
372.04	411.93
372.24	442.36
372.44	454.06
372.63	533.64
372.83	433.00
373.03	517.26
373.22	454.06
373.42	552.37
373.62	596.84
373.81	512.58
374.01	507.90
374.21	540.66
374.40	589.82
374.60	526.62
374.79	489.17
374.99	601.52
375.19	498.53
375.38	540.66
375.58	526.62
375.78	653.01
375.97	596.84
376.17	580.45
376.37	613.22
376.56	650.67
376.76	566.41
376.95	573.43
377.15	627.26
377.35	589.82
377.54	620.24
377.74	615.56
377.93	629.60
378.13	638.97
378.33	575.77
378.52	615.56
378.72	599.18
378.91	575.77
379.11	615.56
379.31	645.99
379.50	538.32
379.70	592.16
379.89	706.84
380.09	606.20
380.28	716.20
380.48	669.39
380.68	685.78
380.87	627.26
381.07	648.33
381.26	678.76
381.46	697.48
381.65	671.73
381.85	697.48
382.04	678.76
382.24	695.14
382.43	610.88
382.63	655.35
382.83	655.35
383.02	732.59
383.22	690.46
383.41	669.39
383.61	744.29
383.80	805.14
384.00	723.23
384.19	737.27
384.39	753.65
384.58	751.31
384.78	760.67
384.97	706.84
385.17	699.82
385.36	709.18
385.56	793.44
385.75	725.57
385.95	713.86
386.14	720.88
386.34	744.29
386.53	807.48
386.72	779.40
386.92	821.53
387.11	807.48
387.31	833.23
387.50	770.04
387.70	781.74
387.89	849.61
388.09	770.04
388.28	844.93
388.48	830.89
388.67	866.00
388.86	887.06
389.06	863.66
389.25	910.47
389.45	781.74
389.64	971.32
389.84	950.26
390.03	957.28
390.22	917.49
390.42	929.19
390.61	917.49
390.81	910.47
391.00	915.15
391.19	940.90
391.39	844.93
391.58	919.83
391.78	933.87
391.97	919.83
392.16	947.92
392.36	926.85
392.55	999.41
392.75	901.11
392.94	950.26
393.13	847.27
393.33	987.71
393.52	968.98
393.71	1004.09
393.91	964.30
394.10	1004.09
394.29	1055.58
394.49	978.34
394.68	1095.37
394.88	1097.71
395.07	1078.99
395.26	1057.92
395.46	1123.46
395.65	1252.19
395.84	1151.54
396.04	1146.86
396.23	1074.31
396.42	1100.05
396.62	1137.50
396.81	1074.31
397.00	1160.91
397.19	1114.10
397.39	1158.57
397.58	1221.76
397.77	1210.06
397.97	1221.76
398.16	1322.40
398.35	1196.01
398.55	1303.68
398.74	1301.34
398.93	1315.38
399.12	1252.19
399.32	1301.34
399.51	1196.01
399.70	1336.45
399.90	1334.11
400.09	1430.07
400.28	1320.06
400.47	1366.87
400.67	1299.00
400.86	1418.36
401.05	1441.77
401.24	1451.13
401.44	1479.22
401.63	1416.02
401.82	1495.60
402.01	1476.88
402.21	1483.90
402.40	1462.83
402.59	1540.07
402.78	1523.69
402.97	1514.33
403.17	1551.78
403.36	1561.14
403.55	1589.22
403.74	1624.33
403.93	1448.79
404.13	1605.61
404.32	1530.71
404.51	1643.06
404.70	1603.27
404.89	1636.03
405.09	1664.12
405.28	1753.06
405.47	1589.22
405.66	1713.27
405.85	1703.91
406.05	1806.89
406.24	1783.49
406.43	1736.68
406.62	1717.95
406.81	1827.96
407.00	1774.13
407.20	1739.02
407.39	1774.13
407.58	1785.83
407.77	1844.34
407.96	1839.66
408.15	1959.03
408.34	1959.03
408.54	1937.96
408.73	1947.33
408.92	1834.98
409.11	1954.35
409.30	1940.30
409.49	2017.54
409.68	1998.82
409.87	2092.44
410.07	1989.46
410.26	2040.95
410.45	2043.29
410.64	2141.59
410.83	2050.31
411.02	2153.29
411.21	2200.10
411.40	2277.34
411.59	2258.62
411.78	2363.94
411.98	2230.53
412.17	2267.98
412.36	2204.78
412.55	2298.41
412.74	2345.22
412.93	2319.47
413.12	2363.94
413.31	2471.61
413.50	2544.16
413.69	2429.48
413.88	2548.84
414.07	2579.27
414.26	2574.59
414.45	2530.12
414.64	2593.31
414.83	2567.57
415.02	2588.63
415.22	2644.81
415.41	2743.11
415.60	2708.00
415.79	2661.19
415.98	2764.17
416.17	2745.45
416.36	2839.07
416.55	2705.66
416.74	2860.13
416.93	2759.49
417.12	2909.29
417.31	2813.32
417.50	2946.73
417.69	3028.65
417.88	2963.12
418.07	3089.51
418.26	3016.95
418.45	3122.27
418.64	3098.87
418.83	2991.20
419.02	3105.89
419.21	3192.49
419.39	3155.04
419.58	3112.91
419.77	3122.27
419.96	3213.56
420.15	3286.11
420.34	3061.42
420.53	3302.50
420.72	3318.88
420.91	3344.63
421.10	3382.07
421.29	3325.90
421.48	3337.60
421.67	3344.63
421.86	3293.13
422.05	3337.60
422.24	3307.18
422.43	3288.45
422.61	3515.48
422.80	3222.92
422.99	3424.20
423.18	3459.31
423.37	3386.76
423.56	3503.78
423.75	3400.80
423.94	3309.52
424.13	3337.60
424.32	3302.50
424.50	3536.55
424.69	3595.06
424.88	3503.78
425.07	3459.31
425.26	3433.57
425.45	3426.54
425.64	3431.23
425.83	3440.59
426.01	3508.46
426.20	3454.63
426.39	3524.85
426.58	3548.25
426.77	3445.27
426.96	3571.66
427.15	3613.79
427.33	3548.25
427.52	3665.28
427.71	3616.13
427.90	3625.49
428.09	3679.32
428.28	3845.50
428.46	3782.31
428.65	3789.33
428.84	3770.60
429.03	3843.16
429.22	3686.34
429.40	3632.51
429.59	3637.19
429.78	3613.79
429.97	3569.32
430.16	3655.92
430.34	3801.03
430.53	3815.07
430.72	3854.86
430.91	3815.07
431.10	3779.97
431.28	3857.20
431.47	3934.44
431.66	4095.94
431.85	3833.80
432.03	3939.12
432.22	4072.53
432.41	4098.28
432.60	4102.96
432.79	4072.53
432.97	4231.69
433.16	4175.52
433.35	4042.11
433.54	4140.41
433.72	4107.64
433.91	4051.47
434.10	4283.18
434.28	4292.54
434.47	4299.56
434.66	4381.48
434.85	4362.76
435.03	4278.50
435.22	4393.19
435.41	4486.81
435.59	4287.86
435.78	4575.75
435.97	4444.68
436.16	4517.23
436.34	4444.68
436.53	4449.36
436.72	4461.06
436.90	4482.13
437.09	4500.85
437.28	4547.66
437.46	4458.72
437.65	4519.57
437.84	4594.47
438.02	4521.92
438.21	4664.69
438.40	4589.79
438.58	4910.44
438.77	4816.82
438.96	4746.61
439.14	4865.97
439.33	4865.97
439.52	4847.25
439.70	4966.62
439.89	5069.60
440.08	5085.98
440.26	5013.43
440.45	5048.54
440.63	5238.12
440.82	5277.91
441.01	5139.82
441.19	5214.71
441.38	5198.33
441.57	5245.14
441.75	5507.28
441.94	5390.25
442.12	5533.03
442.31	5563.45
442.50	5500.26
442.68	5511.96
442.87	5556.43
443.05	5584.52
443.24	5638.35
443.43	5628.99
443.61	5668.78
443.80	5694.52
443.98	5481.53
444.17	5336.42
444.35	5600.90
444.54	5741.33
444.73	5678.14
444.91	5657.07
445.10	5687.50
445.28	5537.71
445.47	5607.92
445.65	5577.50
445.84	5722.61
446.02	5736.65
446.21	5797.51
446.39	5970.71
446.58	5762.40
446.77	5816.23
446.95	5771.76
447.14	5729.63
447.32	5942.62
447.51	5872.40
447.69	5851.34
447.88	5877.09
448.06	5954.32
448.25	5870.06
448.43	5970.71
448.62	5961.34
448.80	5785.80
448.99	6050.28
449.17	6001.13
449.36	6052.63
449.54	6069.01
449.73	6064.33
449.91	6190.72
450.10	6223.48
450.28	6438.81
450.46	6347.53
450.65	6150.93
450.83	6368.60
451.02	6232.85
451.20	6223.48
451.39	6377.96
451.57	6256.25
451.76	6392.00
451.94	6382.64
452.13	6384.98
452.31	6228.17
452.49	6249.23
452.68	6429.45
452.86	6347.53
453.05	6541.80
453.23	6455.20
453.42	6462.22
453.60	6478.60
453.78	6581.59
453.97	6373.28
454.15	6406.05
454.34	6483.28
454.52	6565.20
454.70	6431.79
454.89	6780.53
455.07	6619.04
455.26	6834.36
455.44	6771.17
455.62	6829.68
455.81	6839.05
455.99	6827.34
456.17	6806.28
456.36	6970.12
456.54	6932.67
456.73	6930.33
456.91	7140.97
457.09	7049.69
457.28	7274.38
457.46	7162.04
457.64	7133.95
457.83	7129.27
458.01	6984.16
458.19	7314.17
458.38	7061.40
458.56	7342.26
458.74	7286.09
458.93	7197.15
459.11	7433.54
459.29	7321.20
459.48	7353.96
459.66	7190.13
459.84	7386.73
460.03	7555.25
460.21	7431.20
460.39	7550.57
460.57	7623.12
460.76	7602.06
460.94	7709.72
461.12	7452.27
461.31	7604.40
461.49	7623.12
461.67	7683.98
461.85	7887.61
462.04	7536.52
462.22	8243.37
462.40	7861.86
462.59	7906.33
462.77	7749.51
462.95	7948.46
463.13	7712.07
463.32	7929.74
463.50	7953.14
463.68	7978.89
463.86	8077.19
464.05	7747.17
464.23	7992.93
464.41	8067.83
464.59	7955.48
464.78	8189.53
464.96	8294.86
465.14	7969.52
465.32	8011.65
465.50	8175.49
465.69	8226.98
465.87	8107.62
466.05	8283.16
466.23	7981.23
466.41	8166.13
466.60	8409.54
466.78	8189.53
466.96	8346.35
467.14	8250.39
467.32	8336.99
467.51	8409.54
467.69	8194.22
467.87	8226.98
468.05	8470.40
468.23	8358.05
468.41	8407.20
468.60	8472.74
468.78	8397.84
468.96	8545.30
469.14	8533.59
469.32	8690.41
469.50	8669.34
469.69	8580.40
469.87	8830.84
470.05	8589.77
470.23	8734.88
470.41	8624.87
470.59	8856.59
470.77	8926.80
470.95	8865.95
471.14	9151.49
471.32	8992.34
471.50	9069.58
471.68	9095.32
471.86	9305.97
472.04	9303.63
472.22	9411.29
472.40	9060.21
472.58	9228.73
472.77	9338.74
472.95	9408.95
473.13	9661.73
473.31	9329.38
473.49	9518.96
473.67	9432.36
473.85	9659.39
474.03	9626.62
474.21	9727.27
474.39	9839.61
474.57	9788.12
474.75	9930.89
474.93	9865.36
475.12	9982.38
475.30	9804.50
475.48	10045.58
475.66	9888.76
475.84	9991.75
476.02	10134.52
476.20	10256.23
476.38	10146.22
476.56	10560.50
476.74	10548.79
476.92	10558.16
477.10	10794.55
477.28	10635.39
477.46	10785.19
477.64	11021.58
477.82	10998.18
478.00	11143.29
478.18	11126.91
478.36	11213.51
478.54	10974.77
478.72	11302.45
478.90	11749.49
479.08	11606.72
479.26	11522.46
479.44	11728.42
479.62	11669.91
479.80	11775.24
479.98	11925.03
480.16	12292.49
480.34	11925.03
480.52	12362.71
480.70	12273.77
480.88	12395.48
481.06	12339.30
481.24	12407.18
481.41	12580.38
481.59	12833.16
481.77	12879.97
481.95	12908.05
482.13	13029.76
482.31	13025.08
482.49	13200.62
482.67	13242.75
482.85	13444.04
483.03	13523.62
483.21	13544.68
483.39	13940.23
483.57	13745.97
483.74	13877.04
483.92	13855.97
484.10	14188.33
484.28	14181.31
484.46	14295.99
484.64	14422.38
484.82	14305.35
485.00	14579.20
485.18	14654.09
485.35	14911.55
485.53	14607.28
485.71	14820.27
485.89	15215.82
486.07	14918.57
486.25	15316.47
486.43	15126.88
486.61	15597.33
486.78	15899.26
486.96	15765.85
487.14	16053.73
487.32	16163.74
487.50	16063.10
487.68	16353.32
487.85	16716.11
488.03	16638.87
488.21	16755.90
488.39	16512.48
488.57	16802.71
488.75	17263.79
488.92	17277.83
489.10	17397.20
489.28	17317.62
489.46	17722.54
489.64	17727.22
489.81	18033.83
489.99	18267.88
490.17	18169.58
490.35	18239.79
490.53	18328.74
490.70	18300.65
490.88	18593.22
491.06	18862.38
491.24	18567.47
491.41	18881.10
491.59	18780.46
491.77	18822.59
491.95	19026.21
492.13	19274.31
492.30	19566.88
492.48	19728.38
492.66	19442.83
492.84	19541.13
493.01	19955.41
493.19	20222.23
493.37	20184.78
493.54	20350.96
493.72	20517.14
493.90	20507.77
494.08	20826.09
494.25	20900.98
494.43	20774.60
494.61	20926.73
494.79	21095.25
494.96	21254.40
495.14	21188.87
495.32	21516.54
495.49	21575.06
495.67	21797.41
495.85	21736.56
496.02	21944.86
496.20	21912.10
496.38	22405.95
496.55	22029.12
496.73	22703.20
496.91	22199.98
497.09	22632.98
497.26	22728.94
497.44	22403.61
497.62	22614.26
497.79	22876.40
497.97	22813.20
498.14	23227.48
498.32	23199.39
498.50	23218.11
498.67	23454.51
498.85	23309.40
499.03	23541.11
499.20	23995.17
499.38	23840.70
499.56	23779.84
499.73	23931.98
499.91	24219.86
500.08	24264.33
500.26	24067.73
500.44	24149.65
500.61	24051.34
500.79	24510.09
500.97	24606.05
501.14	24334.55
501.32	24751.17
501.49	24863.51
501.67	24933.73
501.84	24987.56
502.02	24978.20
502.20	25427.58
502.37	25455.67
502.55	25413.54
502.72	25238.00
502.90	25462.69
503.07	25385.45
503.25	25579.71
503.43	25546.95
503.60	25942.50
503.78	25879.30
503.95	26005.69
504.13	25942.50
504.30	26082.93
504.48	26010.37
504.65	26244.43
504.83	26429.33
505.01	26813.18
505.18	26476.14
505.36	26356.77
505.53	26522.95
505.71	27077.66
505.88	27005.10
506.06	26972.33
506.23	27190.00
506.41	27037.87
506.58	26946.59
506.76	27503.64
506.93	27917.91
507.11	27124.47
507.28	27335.12
507.46	27255.54
507.63	27461.51
507.81	27709.60
507.98	27449.80
508.16	27725.99
508.33	27981.10
508.50	28100.47
508.68	28325.16
508.85	28285.37
509.03	28268.99
509.20	27924.93
509.38	28891.57
509.55	28517.09
509.73	28819.02
509.90	28556.88
510.08	28472.62
510.25	29055.41
510.42	28533.47
510.60	29134.99
510.77	28989.88
510.95	29486.07
511.12	29158.39
511.30	29193.50
511.47	29532.88
511.64	29525.86
511.82	29624.16
511.99	29439.26
512.17	29425.22
512.34	29535.22
512.51	29895.66
512.69	30237.38
512.86	30075.88
513.04	30349.73
513.21	30288.87
513.38	29926.09
513.56	30050.14
513.73	30525.27
513.90	30450.37
514.08	30551.01
514.25	30464.41
514.43	30316.96
514.60	30340.36
514.77	30536.97
514.95	30738.26
515.12	30946.56
515.29	30871.67
515.47	31391.26
515.64	31365.52
515.81	30878.69
515.99	31501.27
516.16	31662.77
516.33	31189.98
516.51	31454.46
516.68	31475.52
516.85	31204.02
517.03	31239.13
517.20	31522.34
517.37	31503.61
517.54	32243.22
517.72	31971.72
517.89	31952.99
518.06	31728.30
518.24	31639.36
518.41	31573.83
518.58	31908.52
518.75	31594.89
518.93	32329.82
519.10	32217.47
519.27	32500.68
519.45	32514.72
519.62	32678.56
519.79	32720.69
519.96	32680.90
520.14	32690.26
520.31	32474.93
520.48	33181.77
520.65	33134.96
520.83	33221.56
521.00	33333.91
521.17	33022.62
521.34	33387.74
521.52	33762.23
521.69	33233.27
521.86	33483.70
522.03	33336.25
522.20	33556.26
522.38	33862.87
522.55	34066.50
522.72	33687.33
522.89	34040.75
523.07	34066.50
523.24	33900.32
523.41	33923.72
523.58	33902.66
523.75	34398.85
523.92	34377.79
524.10	34335.66
524.27	34244.38
524.44	34253.74
524.61	34546.31
524.78	35014.41
524.96	34981.65
525.13	34565.03
525.30	34862.28
525.47	34965.26
525.64	35243.79
525.81	35192.30
525.98	35110.38
526.16	35129.10
526.33	34698.44
526.50	35241.45
526.67	35196.98
526.84	35147.82
527.01	34883.34
527.18	35274.21
527.36	35159.53
527.53	35456.78
527.70	35386.56
527.87	35875.73
528.04	35409.96
528.21	35585.50
528.38	35435.71
528.55	35981.06
528.72	35803.17
528.89	36285.33
529.07	35915.52
529.24	35718.92
529.41	36205.75
529.58	36130.85
529.75	35931.90
529.92	36086.38
530.09	36346.18
530.26	36879.82
530.43	36758.11
530.60	35807.86
530.77	36437.46
530.94	36919.61
531.11	36552.15
531.28	36311.07
531.46	36697.26
531.63	37038.98
531.80	36627.04
531.97	37064.72
532.14	36545.12
532.31	37034.30
532.48	37198.13
532.65	37008.55
532.82	36858.76
532.99	36914.93
533.16	36971.10
533.33	37113.87
533.50	37345.59
533.67	37366.65
533.84	37397.08
534.01	37158.34
534.18	37017.91
534.35	37617.09
534.52	37345.59
534.69	37467.30
534.86	37691.99
535.03	37706.03
535.20	37902.64
535.37	38026.68
535.54	38410.53
535.71	37652.20
535.88	38195.20
536.05	38225.63
536.22	38068.81
536.38	38089.88
536.55	37755.18
536.72	38265.42
536.89	37912.00
537.06	38447.98
537.23	38525.22
537.40	38141.37
537.57	38225.63
537.74	38658.63
537.91	38909.07
538.08	38944.17
538.25	38485.43
538.42	38927.79
538.59	39136.10
538.75	39033.11
538.92	38995.67
539.09	38646.93
539.26	38916.09
539.43	38499.47
539.60	38485.43
539.77	38803.74
539.94	38864.60
540.11	39016.73
540.28	38476.07
540.44	39187.59
540.61	38909.07
540.78	38885.66
540.95	39009.71
541.12	39075.24
541.29	39047.16
541.46	39370.15
541.62	39533.99
541.79	39798.47
541.96	38976.94
542.13	39131.42
542.30	38976.94
542.47	39524.63
542.63	39463.77
542.80	39758.68
542.97	40018.48
543.14	39955.29
543.31	39906.13
543.48	40275.94
543.64	40306.37
543.81	40329.77
543.98	40561.48
544.15	40411.69
544.32	40346.15
544.48	40814.26
544.65	40179.98
544.82	40126.14
544.99	39999.76
545.16	40397.65
545.32	40390.62
545.49	40615.32
545.66	40790.86
545.83	40439.78
546.00	41078.74
546.16	40928.95
546.33	40940.65
546.50	40011.46
546.67	40811.92
546.83	40306.37
547.00	40479.57
547.17	40596.59
547.34	40425.73
547.50	40926.61
547.67	40755.75
547.84	40711.28
548.00	41050.66
548.17	40987.46
548.34	40917.25
548.51	41387.69
548.67	40921.93
548.84	41422.80
549.01	40950.01
549.18	40886.82
549.34	41450.89
549.51	41273.01
549.68	41397.06
549.84	41558.55
550.01	41415.78
550.18	41553.87
550.34	41350.24
550.51	41537.49
550.68	41242.58
550.84	41221.52
551.01	41509.40
551.18	41773.88
551.34	41294.07
551.51	41560.89
551.68	41572.60
551.84	41940.06
552.01	41745.80
552.18	41689.62
552.34	41446.21
552.51	42298.16
552.68	41818.35
552.84	42075.81
553.01	42499.45
553.18	41853.46
553.34	42052.41
553.51	41853.46
553.67	41986.87
553.84	42246.67
554.01	42539.24
554.17	42852.87
554.34	42602.43
554.51	42471.36
554.67	42501.79
554.84	42756.91
555.00	42122.62
555.17	42181.13
555.33	42359.02
555.50	42202.20
555.67	42370.72
555.83	42225.60
556.00	42307.52
556.16	42904.36
556.33	42724.14
556.50	43014.37
556.66	42803.72
556.83	42314.55
556.99	42983.94
557.16	42967.55
557.32	42731.16
557.49	42770.95
557.65	42960.53
557.82	42600.09
557.98	42759.25
558.15	42885.64
558.32	43014.37
558.48	42721.80
558.65	43157.14
558.81	42719.46
558.98	42962.87
559.14	43229.69
559.31	42548.60
559.47	42946.49
559.64	43454.39
559.80	43187.56
559.97	42906.70
560.13	43086.92
560.30	42958.19
560.46	42988.62
560.63	42864.57
560.79	43019.05
560.96	43164.16
561.12	43318.64
561.29	43203.95
561.45	43206.29
561.61	43323.32
561.78	43335.02
561.94	43049.47
562.11	43494.18
562.27	42967.55
562.44	43360.76
562.60	43601.84
562.77	43260.12
562.93	43138.41
563.10	43770.36
563.26	43402.89
563.42	43597.16
563.59	43412.26
563.75	43372.47
563.92	43564.39
564.08	43629.93
564.24	43594.82
564.41	43210.97
564.57	43569.07
564.74	43519.92
564.90	43360.76
565.07	43494.18
565.23	43557.37
565.39	43276.51
565.56	43098.62
565.72	43604.18
565.88	44149.53
566.05	43454.39
566.21	43540.99
566.38	43508.22
566.54	43175.86
566.70	43658.01
566.87	43969.30
567.03	43768.02
567.19	44100.37
567.36	43552.69
567.52	43878.02
567.68	44205.70
567.85	43590.14
568.01	44151.87
568.17	43859.30
568.34	43529.28
568.50	44175.27
568.66	43697.80
568.83	44027.82
568.99	43646.31
569.15	43927.17
569.32	43604.18
569.48	43391.19
569.64	44194.00
569.81	44140.16
569.97	43711.84
570.13	43491.83
570.30	43716.53
570.46	43599.50
570.62	43966.96
570.78	43976.33
570.95	43793.76
571.11	43798.44
571.27	43667.37
571.43	43634.61
571.60	43817.17
571.76	43990.37
571.92	43744.61
572.09	43859.30
572.25	44018.46
572.41	43515.24
572.57	43899.09
572.74	44516.99
572.90	44446.77
573.06	44357.83
573.22	44257.19
573.38	43973.98
573.55	43704.82
573.71	44226.76
573.87	43681.42
574.03	43721.21
574.20	44172.93
574.36	43861.64
574.52	44439.75
574.68	44266.55
574.84	44006.75
575.01	43812.49
575.17	44186.97
575.33	43812.49
575.49	44154.21
575.65	44126.12
575.82	44493.58
575.98	43856.96
576.14	44385.92
576.30	44446.77
576.46	43887.39
576.62	43667.37
576.79	44254.85
576.95	43814.83
577.11	43660.35
577.27	43943.56
577.43	44254.85
577.59	43863.98
577.75	43957.60
577.92	44072.29
578.08	44149.53
578.24	43992.71
578.40	44165.91
578.56	44392.94
578.72	44128.46
578.88	44545.08
579.04	44037.18
579.21	44020.80
579.37	44009.09
579.53	44081.65
579.69	44161.23
579.85	44107.40
580.01	44212.72
580.17	44367.20
580.33	44332.09
580.49	44416.35
580.65	44566.14
580.82	44626.99
580.98	44432.73
581.14	44149.53
581.30	44692.53
581.46	44694.87
581.62	44367.20
581.78	43938.88
581.94	44446.77
582.10	44215.06
582.26	44659.76
582.42	44528.69
582.58	44851.69
582.74	43681.42
582.90	43959.94
583.06	44849.35
583.22	43913.13
583.38	44542.74
583.54	44144.84
583.70	44524.01
583.86	44238.47
584.02	44025.48
584.18	44488.90
584.34	44201.02
584.50	44395.28
584.66	44582.52
584.82	44519.33
584.98	44844.66
585.14	44327.41
585.30	44105.06
585.46	44112.08
585.62	44149.53
585.78	44641.04
585.94	43772.70
586.10	44582.52
586.26	44210.38
586.42	44519.33
586.58	44626.99
586.74	44219.74
586.90	44210.38
587.06	43798.44
587.22	44821.26
587.38	44264.21
587.54	44575.50
587.70	44671.46
587.86	44526.35
588.02	44280.60
588.18	44619.97
588.34	44470.18
588.49	44119.10
588.65	44074.63
588.81	44076.97
588.97	44069.95
589.13	44641.04
589.29	44109.74
589.45	44554.44
589.61	44428.05
589.77	44919.56
589.93	44341.45
590.08	44495.92
590.24	44816.58
590.40	44823.60
