SpectraSuite Data File
++++++++++++++++++++++++++++++++++++
Date: Fri Oct 25 11:23:16 EDT 2013
User: price-jones
Dark Spectrum Present: No
Reference Spectrum Present: No
Number of Sampled Component Spectra: 1
Spectrometers: USB2+H05261
Integration Time (usec): 100000 (USB2+H05261)
Spectra Averaged: 1 (USB2+H05261)
Boxcar Smoothing: 0 (USB2+H05261)
Correct for Electrical Dark: No (USB2+H05261)
Strobe/Lamp Enabled: No (USB2+H05261)
Correct for Detector Non-linearity: No (USB2+H05261)
Correct for Stray Light: No (USB2+H05261)
Number of Pixels in Processed Spectrum: 2048
>>>>>Begin Processed Spectral Data<<<<<
365.73	266.82
365.92	266.82
366.12	266.82
366.32	149.79
366.52	121.71
366.72	168.52
366.91	196.60
367.11	175.54
367.31	133.41
367.51	133.41
367.70	74.90
367.90	205.97
368.10	114.69
368.30	154.48
368.49	149.79
368.69	152.13
368.89	161.50
369.09	105.32
369.28	159.16
369.48	154.48
369.68	170.86
369.87	147.45
370.07	180.22
370.27	262.14
370.47	325.33
370.66	589.82
370.86	585.13
371.06	653.01
371.25	678.76
371.45	643.65
371.65	636.63
371.84	610.88
372.04	746.63
372.24	711.52
372.44	753.65
372.63	690.46
372.83	760.67
373.03	664.71
373.22	753.65
373.42	753.65
373.62	763.01
373.81	805.14
374.01	791.10
374.21	856.64
374.40	814.51
374.60	816.85
374.79	844.93
374.99	816.85
375.19	816.85
375.38	875.36
375.58	837.91
375.78	847.27
375.97	826.21
376.17	835.57
376.37	800.46
376.56	903.45
376.76	849.61
376.95	877.70
377.15	854.30
377.35	863.66
377.54	978.34
377.74	826.21
377.93	901.11
378.13	877.70
378.33	887.06
378.52	926.85
378.72	957.28
378.91	912.81
379.11	901.11
379.31	917.49
379.50	898.77
379.70	961.96
379.89	931.53
380.09	945.58
380.28	990.05
380.48	1001.75
380.68	924.51
380.87	978.34
381.07	1022.81
381.26	1102.39
381.46	1041.54
381.65	1025.15
381.85	992.39
382.04	1048.56
382.24	1111.75
382.43	1123.46
382.63	1032.18
382.83	1111.75
383.02	1107.07
383.22	1139.84
383.41	1095.37
383.61	1060.26
383.80	1217.08
384.00	1064.94
384.19	1095.37
384.39	1102.39
384.58	1060.26
384.78	1062.60
384.97	1132.82
385.17	1137.50
385.36	1104.73
385.56	1207.72
385.75	1107.07
385.95	1226.44
386.14	1282.61
386.34	1242.82
386.53	1128.14
386.72	1219.42
386.92	1252.19
387.11	1247.51
387.31	1235.80
387.50	1125.80
387.70	1284.95
387.89	1245.16
388.09	1294.32
388.28	1329.42
388.48	1228.78
388.67	1385.60
388.86	1355.17
389.06	1268.57
389.25	1235.80
389.45	1418.36
389.64	1284.95
389.84	1446.45
390.03	1394.96
390.22	1352.83
390.42	1294.32
390.61	1334.11
390.81	1366.87
391.00	1364.53
391.19	1458.15
391.39	1437.09
391.58	1481.56
391.78	1472.20
391.97	1526.03
392.16	1453.47
392.36	1654.76
392.55	1577.52
392.75	1598.59
392.94	1551.78
393.13	1444.11
393.33	1561.14
393.52	1577.52
393.71	1591.56
393.91	1516.67
394.10	1563.48
394.29	1645.40
394.49	1500.28
394.68	1561.14
394.88	1629.01
395.07	1785.83
395.26	1652.42
395.46	1717.95
395.65	1717.95
395.84	1621.99
396.04	1788.17
396.23	1813.92
396.42	1657.10
396.62	1827.96
396.81	1722.63
397.00	1673.48
397.19	1755.40
397.39	1753.06
397.58	1839.66
397.77	1881.79
397.97	1891.15
398.16	1849.02
398.35	1902.86
398.55	1795.19
398.74	1886.47
398.93	1907.54
399.12	1914.56
399.32	1961.37
399.51	1895.83
399.70	2054.99
399.90	1923.92
400.09	2099.46
400.28	2085.42
400.47	1991.80
400.67	2169.68
400.86	2062.01
401.05	2127.55
401.24	2113.50
401.44	2010.52
401.63	2101.80
401.82	2134.57
402.01	2040.95
402.21	2186.06
402.40	2136.91
402.59	2157.97
402.78	2167.34
402.97	2293.72
403.17	2286.70
403.36	2216.49
403.55	2298.41
403.74	2326.49
403.93	2366.28
404.13	2413.09
404.32	2338.20
404.51	2389.69
404.70	2387.35
404.89	2246.91
405.09	2487.99
405.28	2586.29
405.47	2534.80
405.66	2429.48
405.85	2443.52
406.05	2518.42
406.24	2581.61
406.43	2558.21
406.62	2689.28
406.81	2787.58
407.00	2670.55
407.20	2605.02
407.39	2628.42
407.58	2771.19
407.77	2684.59
407.96	2792.26
408.15	2789.92
408.34	2731.41
408.54	2745.45
408.73	2740.77
408.92	2803.96
409.11	2988.86
409.30	2953.76
409.49	2946.73
409.68	2991.20
409.87	2913.97
410.07	2998.23
410.26	3101.21
410.45	3042.70
410.64	3075.46
410.83	3000.57
411.02	3176.11
411.21	3342.28
411.40	3169.09
411.59	3197.17
411.78	3173.77
411.98	3295.47
412.17	3276.75
412.36	3447.61
412.55	3379.73
412.74	3482.72
412.93	3337.60
413.12	3543.57
413.31	3669.96
413.50	3534.21
413.69	3566.98
413.88	3548.25
414.07	3651.24
414.26	3548.25
414.45	3660.60
414.64	3691.02
414.83	3751.88
415.02	3852.52
415.22	3946.14
415.41	3976.57
415.60	3880.61
415.79	3829.12
415.98	4007.00
416.17	3857.20
416.36	3936.78
416.55	4028.06
416.74	4056.15
416.93	4074.87
417.12	4079.55
417.31	4189.56
417.50	4219.99
417.69	4341.69
417.88	4322.97
418.07	4390.84
418.26	4367.44
418.45	4416.59
418.64	4557.02
418.83	4585.11
419.02	4479.79
419.21	4578.09
419.39	4568.73
419.58	4465.74
419.77	4500.85
419.96	4610.86
420.15	4681.07
420.34	4451.70
420.53	4685.75
420.72	4704.48
420.91	4877.68
421.10	4849.59
421.29	4791.08
421.48	4713.84
421.67	4779.37
421.86	4828.53
422.05	4933.85
422.24	4826.18
422.43	4919.81
422.61	4898.74
422.80	5013.43
422.99	4999.38
423.18	4917.47
423.37	5114.07
423.56	5025.13
423.75	4903.42
423.94	4851.93
424.13	4678.73
424.32	4812.14
424.50	4884.70
424.69	5139.82
424.88	5041.51
425.07	4966.62
425.26	4961.94
425.45	5083.64
425.64	5053.22
425.83	4910.44
426.01	5188.97
426.20	5177.26
426.39	5186.63
426.58	5184.29
426.77	5104.71
426.96	5128.11
427.15	5184.29
427.33	5217.05
427.52	5224.08
427.71	5387.91
427.90	5280.25
428.09	5413.66
428.28	5439.40
428.46	5408.98
428.65	5516.64
428.84	5603.24
429.03	5598.56
429.22	5315.36
429.40	5638.35
429.59	5413.66
429.78	5212.37
429.97	5205.35
430.16	5568.13
430.34	5717.93
430.53	5717.93
430.72	5792.83
430.91	5614.95
431.10	5661.76
431.28	5825.59
431.47	5902.83
431.66	5818.57
431.85	5870.06
432.03	5687.50
432.22	6092.41
432.41	5851.34
432.60	5991.77
432.79	5926.24
432.97	6097.10
433.16	6001.13
433.35	6141.57
433.54	6157.95
433.72	6169.65
433.91	6167.31
434.10	6176.67
434.28	6118.16
434.47	6277.32
434.66	6207.10
434.85	6448.18
435.03	6502.01
435.22	6448.18
435.41	6497.33
435.59	6497.33
435.78	6586.27
435.97	6415.41
436.16	6459.88
436.34	6551.16
436.53	6590.95
436.72	6626.06
436.90	6469.24
437.09	6698.61
437.28	6574.56
437.46	6668.19
437.65	6796.92
437.84	6794.58
438.02	6710.32
438.21	6724.36
438.40	6672.87
438.58	6916.28
438.77	7192.47
438.96	7082.46
439.14	7028.63
439.33	7323.54
439.52	7389.07
439.70	7410.14
439.89	7538.87
440.08	7386.73
440.26	7360.98
440.45	7339.92
440.63	7508.44
440.82	7541.21
441.01	7527.16
441.19	7681.64
441.38	7803.35
441.57	7522.48
441.75	7840.79
441.94	8093.57
442.12	7836.11
442.31	8004.63
442.50	8131.02
442.68	8198.90
442.87	8100.59
443.05	8060.80
443.24	8196.56
443.43	8138.04
443.61	8201.24
443.80	8636.58
443.98	8161.45
444.17	7969.52
444.35	8376.78
444.54	8690.41
444.73	8404.86
444.91	8234.00
445.10	8561.68
445.28	8418.91
445.47	8208.26
445.65	8414.23
445.84	8531.25
446.02	8245.71
446.21	8519.55
446.39	8451.67
446.58	8645.94
446.77	8540.61
446.95	8414.23
447.14	8578.06
447.32	8599.13
447.51	8643.60
447.69	8573.38
447.88	8706.79
448.06	8681.05
448.25	8514.87
448.43	8549.98
448.62	8493.80
448.80	8711.47
448.99	8851.91
449.17	8844.88
449.36	8662.32
449.54	8891.70
449.73	8751.26
449.91	9074.26
450.10	9069.58
450.28	9048.51
450.46	9186.60
450.65	9172.56
450.83	9233.41
451.02	9048.51
451.20	9125.75
451.39	9207.67
451.57	9057.87
451.76	9226.39
451.94	9188.94
452.13	9235.75
452.31	9261.50
452.49	9514.28
452.68	9394.91
452.86	9488.53
453.05	9369.16
453.23	9439.38
453.42	9415.98
453.60	9453.42
453.78	9685.14
453.97	9591.52
454.15	9657.05
454.34	9495.55
454.52	9724.93
454.70	9680.46
454.89	9792.80
455.07	9795.14
455.26	10115.80
455.44	10162.61
455.62	9930.89
455.81	9973.02
455.99	10083.03
456.17	10176.65
456.36	9994.09
456.54	10434.11
456.73	10188.35
456.91	10546.45
457.09	10424.75
457.28	10799.23
457.46	10305.38
457.64	10595.61
457.83	10569.86
458.01	10551.14
458.19	10738.38
458.38	10731.36
458.56	10764.12
458.74	10771.15
458.93	10602.63
459.11	11026.26
459.29	10930.30
459.48	10729.02
459.66	10834.34
459.84	11059.03
460.03	11136.27
460.21	11075.42
460.39	11213.51
460.57	11169.04
460.76	11239.25
460.94	11272.02
461.12	11281.38
461.31	11234.57
461.49	11183.08
461.67	11150.31
461.85	11435.86
462.04	11541.18
462.22	11503.73
462.40	11840.77
462.59	11400.75
462.77	11775.24
462.95	11894.60
463.13	11885.24
463.32	11655.87
463.50	11815.02
463.68	11861.84
463.86	11800.98
464.05	11751.83
464.23	11705.02
464.41	11927.37
464.59	11735.45
464.78	12388.46
464.96	11913.33
465.14	11852.47
465.32	11960.14
465.50	12180.15
465.69	12196.53
465.87	12383.77
466.05	12472.71
466.23	12292.49
466.41	12259.73
466.60	12547.61
466.78	12039.72
466.96	12432.93
467.14	12540.59
467.32	12517.18
467.51	12709.11
467.69	12271.43
467.87	12676.34
468.05	12844.86
468.23	12533.57
468.41	12439.95
468.60	12814.43
468.78	12865.92
468.96	12699.75
469.14	12849.54
469.32	13004.02
469.50	12828.48
469.69	12980.61
469.87	13172.54
470.05	13390.20
470.23	13401.91
470.41	13186.58
470.59	13453.40
470.77	13303.60
470.95	13387.86
471.14	13624.26
471.32	13465.10
471.50	13486.17
471.68	13802.14
471.86	13785.76
472.04	14235.14
472.22	13841.93
472.40	13799.80
472.58	14043.21
472.77	14022.15
472.95	14366.21
473.13	14738.35
473.31	14174.28
473.49	14293.65
473.67	14361.53
473.85	14338.12
474.03	14621.33
474.21	14691.54
474.39	14909.21
474.57	14911.55
474.75	15005.17
474.93	15283.70
475.12	15211.14
475.30	15274.34
475.48	15066.03
475.66	15449.88
475.84	15428.81
476.02	15459.24
476.20	15517.75
476.38	15538.82
476.56	16365.03
476.74	15967.13
476.92	15997.56
477.10	16208.21
477.28	16318.22
477.46	16301.83
477.64	16308.85
477.82	16863.56
478.00	17298.90
478.18	16903.35
478.36	17032.08
478.54	17319.96
478.72	17076.55
478.90	17516.57
479.08	17383.16
479.26	17888.71
479.44	17991.70
479.62	17905.10
479.80	17958.93
479.98	18607.26
480.16	18501.93
480.34	18499.59
480.52	18724.29
480.70	18717.26
480.88	18771.10
481.06	19047.28
481.24	19164.31
481.41	19199.41
481.59	19550.49
481.77	19819.66
481.95	19594.96
482.13	19960.09
482.31	19840.72
482.49	20559.27
482.67	20678.63
482.85	20788.64
483.03	20739.49
483.21	21097.59
483.39	21184.19
483.57	20975.88
483.74	21589.10
483.92	21696.77
484.10	21280.15
484.28	21708.47
484.46	22143.81
484.64	22733.62
484.82	22059.55
485.00	22410.63
485.18	23073.00
485.35	23087.04
485.53	23037.89
485.71	23271.95
485.89	23583.24
486.07	23585.58
486.25	23667.50
486.43	23585.58
486.61	24095.82
486.78	24250.29
486.96	24404.77
487.14	24872.87
487.32	24533.50
487.50	24896.28
487.68	25401.83
487.85	25493.12
488.03	25671.00
488.21	26396.56
488.39	26199.96
488.57	26331.03
488.75	26412.95
488.92	26960.63
489.10	27117.45
489.28	26988.72
489.46	27388.95
489.64	27295.33
489.81	28053.66
489.99	28107.49
490.17	27978.76
490.35	28446.87
490.53	28421.13
490.70	28819.02
490.88	28545.17
491.06	29324.57
491.24	29427.56
491.41	29034.35
491.59	29685.01
491.77	29809.06
491.95	29930.77
492.13	29738.85
492.30	30424.62
492.48	30527.61
492.66	30682.08
492.84	30593.14
493.01	30941.88
493.19	30792.09
493.37	30976.99
493.54	31662.77
493.72	31725.96
493.90	31859.37
494.08	32144.92
494.25	32393.01
494.43	32453.87
494.61	32519.40
494.79	32875.16
494.96	32975.81
495.14	32987.51
495.32	33528.17
495.49	33443.91
495.67	33666.27
495.85	33755.21
496.02	34246.72
496.20	34534.60
496.38	34216.29
496.55	34092.24
496.73	35342.09
496.91	34635.25
497.09	35386.56
497.26	35592.53
497.44	35295.28
497.62	35447.41
497.79	36257.24
497.97	35728.28
498.14	36348.52
498.32	36776.84
498.50	36711.30
498.67	37359.63
498.85	36989.83
499.03	37013.23
499.20	37191.11
499.38	37338.57
499.56	37226.22
499.73	37748.16
499.91	37518.79
500.08	38043.07
500.26	37773.91
500.44	38106.26
500.61	38136.69
500.79	38499.47
500.97	38534.58
501.14	38747.57
501.32	38735.87
501.49	39159.50
501.67	38946.51
501.84	39138.44
502.02	39325.68
502.20	39739.96
502.37	39674.42
502.55	39328.02
502.72	39866.34
502.90	40341.47
503.07	40107.42
503.25	40409.35
503.43	39962.31
503.60	40128.48
503.78	40673.83
503.95	40505.31
504.13	40884.48
504.30	40868.09
504.48	40725.32
504.65	41151.30
504.83	41741.11
505.01	41757.50
505.18	41137.26
505.36	41881.55
505.53	41607.70
505.71	42089.85
505.88	42354.33
506.06	41867.50
506.23	42101.56
506.41	42412.85
506.58	42515.83
506.76	42820.10
506.93	42457.32
507.11	42546.26
507.28	42902.02
507.46	43227.35
507.63	43072.88
507.81	43679.08
507.98	43276.51
508.16	43669.72
508.33	43629.93
508.50	44182.29
508.68	44004.41
508.85	44287.62
509.03	44465.50
509.20	44437.41
509.38	45050.63
509.55	44940.63
509.73	44655.08
509.90	45471.93
510.08	44697.21
510.25	45172.34
510.42	44694.87
510.60	45050.63
510.77	45869.82
510.95	45944.72
511.12	45418.10
511.30	45666.19
511.47	46026.63
511.64	45839.39
511.82	46204.52
511.99	46178.77
512.17	46225.58
512.34	46146.00
512.51	46347.29
512.69	47098.60
512.86	47117.32
513.04	46866.89
513.21	46995.62
513.38	47119.66
513.56	47250.74
513.73	47091.58
513.90	47264.78
514.08	47615.86
514.25	47372.44
514.43	47564.37
514.60	47643.94
514.77	47622.88
514.95	47597.13
515.12	48292.27
515.29	48060.56
515.47	48107.37
515.64	48406.96
515.81	48451.43
515.99	48746.34
516.16	48793.15
516.33	48659.74
516.51	48879.75
516.68	48975.71
516.85	48971.03
517.03	49165.29
517.20	49261.26
517.37	49481.27
517.54	49427.43
517.72	49193.38
517.89	49705.96
518.06	50160.02
518.24	49748.09
518.41	49776.17
518.58	49516.37
518.75	49542.12
518.93	49977.46
519.10	49785.54
519.27	50218.53
519.45	50120.23
519.62	50333.22
519.79	50117.89
519.96	49652.12
520.14	50637.49
520.31	50581.32
520.48	50890.27
520.65	50478.33
520.83	50696.00
521.00	51133.68
521.17	50960.48
521.34	50916.01
521.52	50901.97
521.69	51379.44
521.86	51473.06
522.03	51426.25
522.20	51463.70
522.38	51742.22
522.55	51899.04
522.72	51632.22
522.89	51714.14
523.07	51873.29
523.24	51700.09
523.41	51861.59
523.58	51943.51
523.75	52360.12
523.92	52076.92
524.10	52140.11
524.27	52341.40
524.44	52388.21
524.61	52428.00
524.78	52399.91
524.96	52666.73
525.13	52596.52
525.30	52673.76
525.47	52823.55
525.64	52928.87
525.81	53027.18
525.98	52910.15
526.16	53111.44
526.33	53233.14
526.50	53303.36
526.67	52912.49
526.84	52956.96
527.01	53127.82
527.18	53272.93
527.36	53088.03
527.53	53277.61
527.70	53443.79
527.87	53703.59
528.04	53422.73
528.21	53741.04
528.38	53415.71
528.55	54061.69
528.72	53738.70
528.89	53680.19
529.07	53708.27
529.24	53734.02
529.41	53731.68
529.58	53839.34
529.75	53771.47
529.92	53977.43
530.09	54115.53
530.26	54033.61
530.43	54370.64
530.60	54103.82
530.77	54071.06
530.94	54614.06
531.11	54181.06
531.28	54281.70
531.46	54443.20
531.63	54487.67
531.80	54499.37
531.97	54616.40
532.14	54571.93
532.31	54960.46
532.48	54899.61
532.65	54796.62
532.82	54775.56
532.99	55030.68
533.16	54866.84
533.33	55075.15
533.50	55316.22
533.67	55033.02
533.84	54906.63
534.01	55215.58
534.18	55199.19
534.35	55426.23
534.52	55498.78
534.69	55604.11
534.86	55723.47
535.03	55400.48
535.20	55360.69
535.37	55627.51
535.54	55561.98
535.71	55538.57
535.88	55737.52
536.05	55805.39
536.22	55913.06
536.38	55950.51
536.55	55655.60
536.72	55784.33
536.89	55676.66
537.06	55784.33
537.23	55978.59
537.40	55889.65
537.57	55894.33
537.74	56121.37
537.91	56500.53
538.08	56170.52
538.25	55992.64
538.42	56193.92
538.59	56573.09
538.75	56292.22
538.92	56362.44
539.09	56582.45
539.26	56640.96
539.43	56362.44
539.60	56451.38
539.77	56514.58
539.94	56938.21
540.11	56748.63
540.28	56853.95
540.44	56748.63
540.61	56739.27
540.78	56605.86
540.95	56736.93
541.12	56540.32
541.29	56933.53
541.46	56673.73
541.62	56863.32
541.79	56858.63
541.96	56624.58
542.13	56629.26
542.30	56860.97
542.47	57141.84
542.63	57095.03
542.80	57111.41
542.97	57333.76
543.14	57427.38
543.31	57373.55
543.48	57385.25
543.64	57733.99
543.81	57750.38
543.98	57462.49
544.15	57600.58
544.32	57745.70
544.48	57888.47
544.65	57598.24
544.82	57738.68
544.99	57726.97
545.16	57839.32
545.32	57577.18
545.49	57860.38
545.66	57872.09
545.83	57790.17
546.00	57961.03
546.16	57804.21
546.33	57956.35
546.50	57888.47
546.67	58232.53
546.83	57726.97
547.00	57972.73
547.17	57984.43
547.34	58206.78
547.50	58174.02
547.67	58185.72
547.84	58314.45
548.00	58431.47
548.17	58202.10
548.34	58445.52
548.51	58501.69
548.67	58578.93
548.84	58377.64
549.01	58433.81
549.18	58443.18
549.34	58265.30
549.51	58370.62
549.68	58726.38
549.84	58513.39
550.01	58653.82
550.18	58506.37
550.34	58724.04
550.51	58691.27
550.68	58623.40
550.84	58417.43
551.01	58644.46
551.18	58789.58
551.34	58621.06
551.51	58960.44
551.68	58864.47
551.84	58777.87
552.01	58621.06
552.18	59032.99
552.34	58642.12
552.51	58862.13
552.68	59154.70
552.84	58871.49
553.01	59348.96
553.18	59028.31
553.34	59009.59
553.51	58876.18
553.67	59217.89
553.84	59138.32
554.01	59227.26
554.17	59152.36
554.34	59107.89
554.51	59161.72
554.67	59449.61
554.84	59299.81
555.00	59281.09
555.17	59173.42
555.33	59290.45
555.50	59234.28
555.67	59159.38
555.83	59072.78
556.00	59245.98
556.16	59531.53
556.33	59508.12
556.50	59440.24
556.66	59533.87
556.83	59409.82
556.99	59627.49
557.16	59655.57
557.32	59742.17
557.49	59908.35
557.65	59557.27
557.82	59618.13
557.98	59552.59
558.15	59540.89
558.32	59784.30
558.48	59639.19
558.65	59601.74
558.81	59805.37
558.98	59784.30
559.14	59880.27
559.31	60076.87
559.47	59880.27
559.64	60013.68
559.80	59835.80
559.97	59908.35
560.13	59686.00
560.30	60018.36
560.46	60013.68
560.63	59915.37
560.79	60067.51
560.96	60280.50
561.12	60102.62
561.29	59955.16
561.45	60151.77
561.61	60034.74
561.78	60093.25
561.94	59994.95
562.11	60137.72
562.27	60294.54
562.44	60074.53
562.60	60334.33
562.77	60179.85
562.93	59896.65
563.10	60296.88
563.26	60128.36
563.42	60385.82
563.59	60193.90
563.75	60079.21
563.92	60294.54
564.08	60275.82
564.24	60409.23
564.41	60371.78
564.57	60416.25
564.74	60212.62
564.90	60500.51
565.07	60411.57
565.23	60432.63
565.39	60299.22
565.56	60397.52
565.72	60589.45
565.88	60238.37
566.05	60413.91
566.21	60313.26
566.38	60544.98
566.54	60544.98
566.70	60505.19
566.87	60617.53
567.03	60252.41
567.19	60540.30
567.36	60451.36
567.52	60540.30
567.68	60734.56
567.85	60615.19
568.01	60692.43
568.17	60472.42
568.34	60793.07
568.50	60622.22
568.66	60615.19
568.83	60640.94
568.99	60519.23
569.15	60563.70
569.32	60456.04
569.48	60713.50
569.64	60711.16
569.81	60619.88
569.97	60472.42
570.13	60736.90
570.30	60474.76
570.46	60743.92
570.62	60874.99
570.78	60685.41
570.95	60753.29
571.11	60853.93
571.27	60849.25
571.43	60750.94
571.60	60956.91
571.76	60874.99
571.92	60678.39
572.09	61050.53
572.25	60764.99
572.41	60879.67
572.57	60851.59
572.74	61052.87
572.90	60966.27
573.06	60858.61
573.22	60872.65
573.38	60830.52
573.55	60818.82
573.71	60900.74
573.87	60954.57
574.03	60622.22
574.20	61034.15
574.36	60786.05
574.52	61158.20
574.68	60970.96
574.84	60867.97
575.01	61024.79
575.17	60963.93
575.33	60959.25
575.49	60882.02
575.65	61139.47
575.82	60982.66
575.98	61022.45
576.14	61172.24
576.30	60947.55
576.46	61017.77
576.62	60921.80
576.79	61052.87
576.95	60860.95
577.11	60987.34
577.27	60975.64
577.43	61087.98
577.59	61022.45
577.75	60961.59
577.92	60837.54
578.08	61085.64
578.24	61055.21
578.40	61333.74
578.56	61125.43
578.72	61226.07
578.88	61336.08
579.04	61261.18
579.21	61209.69
579.37	61305.65
579.53	60931.17
579.69	61001.38
579.85	60893.72
580.01	61261.18
580.17	60989.68
580.33	61258.84
580.49	61125.43
580.65	61027.13
580.82	61190.97
580.98	60905.42
581.14	60996.70
581.30	61092.66
581.46	61090.32
581.62	61038.83
581.78	61125.43
581.94	61073.94
582.10	61277.57
582.26	61153.52
582.42	61125.43
582.58	61090.32
582.74	61305.65
582.90	61286.93
583.06	61165.22
583.22	61038.83
583.38	61066.92
583.54	61350.12
583.70	61329.06
583.86	61300.97
584.02	61097.34
584.18	61329.06
584.34	61165.22
584.50	61221.39
584.66	60996.70
584.82	61137.13
584.98	61265.86
585.14	61307.99
585.30	61050.53
585.46	61137.13
585.62	61139.47
585.78	61214.37
585.94	61186.28
586.10	61254.16
586.26	61366.51
586.42	61127.77
586.58	61289.27
586.74	61167.56
586.90	61080.96
587.06	61223.73
587.22	61415.66
587.38	61036.49
587.54	61268.20
587.70	61584.18
587.86	61326.72
588.02	61336.08
588.18	61399.27
588.34	61214.37
588.49	61350.12
