SpectraSuite Data File
++++++++++++++++++++++++++++++++++++
Date: Fri Oct 25 11:22:44 EDT 2013
User: price-jones
Dark Spectrum Present: No
Reference Spectrum Present: No
Number of Sampled Component Spectra: 1
Spectrometers: USB2+H05261
Integration Time (usec): 100000 (USB2+H05261)
Spectra Averaged: 1 (USB2+H05261)
Boxcar Smoothing: 0 (USB2+H05261)
Correct for Electrical Dark: No (USB2+H05261)
Strobe/Lamp Enabled: No (USB2+H05261)
Correct for Detector Non-linearity: No (USB2+H05261)
Correct for Stray Light: No (USB2+H05261)
Number of Pixels in Processed Spectrum: 2048
>>>>>Begin Processed Spectral Data<<<<<
365.73	259.80
365.92	259.80
366.12	259.80
366.32	154.48
366.52	168.52
366.72	168.52
366.91	156.82
367.11	124.05
367.31	147.45
367.51	88.94
367.70	91.28
367.90	168.52
368.10	135.75
368.30	131.07
368.49	149.79
368.69	154.48
368.89	159.16
369.09	149.79
369.28	102.98
369.48	107.66
369.68	121.71
369.87	114.69
370.07	191.92
370.27	168.52
370.47	320.65
370.66	568.75
370.86	561.73
371.06	690.46
371.25	601.52
371.45	596.84
371.65	634.29
371.84	660.03
372.04	643.65
372.24	681.10
372.44	716.20
372.63	631.94
372.83	716.20
373.03	732.59
373.22	746.63
373.42	730.25
373.62	751.31
373.81	898.77
374.01	849.61
374.21	823.87
374.40	821.53
374.60	833.23
374.79	781.74
374.99	763.01
375.19	896.43
375.38	849.61
375.58	802.80
375.78	711.52
375.97	854.30
376.17	901.11
376.37	887.06
376.56	861.32
376.76	844.93
376.95	835.57
377.15	945.58
377.35	877.70
377.54	950.26
377.74	837.91
377.93	870.68
378.13	919.83
378.33	922.17
378.52	917.49
378.72	964.30
378.91	1013.45
379.11	943.24
379.31	952.60
379.50	957.28
379.70	1020.47
379.89	1020.47
380.09	987.71
380.28	952.60
380.48	1001.75
380.68	1006.43
380.87	1027.50
381.07	1036.86
381.26	1069.62
381.46	1083.67
381.65	978.34
381.85	1076.65
382.04	1041.54
382.24	1078.99
382.43	1093.03
382.63	957.28
382.83	1153.88
383.02	1142.18
383.22	1048.56
383.41	1027.50
383.61	1132.82
383.80	1109.41
384.00	1139.84
384.19	1144.52
384.39	1078.99
384.58	1111.75
384.78	1111.75
384.97	1184.31
385.17	1228.78
385.36	1139.84
385.56	1231.12
385.75	1163.25
385.95	1240.48
386.14	1259.21
386.34	1247.51
386.53	1254.53
386.72	1186.65
386.92	1299.00
387.11	1224.10
387.31	1214.74
387.50	1275.59
387.70	1142.18
387.89	1224.10
388.09	1217.08
388.28	1289.64
388.48	1214.74
388.67	1233.46
388.86	1348.15
389.06	1409.00
389.25	1416.02
389.45	1291.98
389.64	1308.36
389.84	1420.71
390.03	1385.60
390.22	1432.41
390.42	1296.66
390.61	1371.55
390.81	1404.32
391.00	1345.81
391.19	1406.66
391.39	1341.13
391.58	1357.51
391.78	1444.11
391.97	1483.90
392.16	1392.62
392.36	1556.46
392.55	1486.24
392.75	1481.56
392.94	1593.90
393.13	1497.94
393.33	1504.96
393.52	1619.65
393.71	1626.67
393.91	1636.03
394.10	1507.30
394.29	1554.12
394.49	1582.20
394.68	1647.74
394.88	1638.38
395.07	1565.82
395.26	1638.38
395.46	1717.95
395.65	1743.70
395.84	1703.91
396.04	1792.85
396.23	1666.46
396.42	1727.32
396.62	1783.49
396.81	1806.89
397.00	1774.13
397.19	1816.26
397.39	1844.34
397.58	1834.98
397.77	1799.87
397.97	1842.00
398.16	1877.11
398.35	1813.92
398.55	1872.43
398.74	1907.54
398.93	2134.57
399.12	1844.34
399.32	2057.33
399.51	1933.28
399.70	2012.86
399.90	1895.83
400.09	2052.65
400.28	2008.18
400.47	1994.14
400.67	2029.24
400.86	2076.06
401.05	2040.95
401.24	2174.36
401.44	2054.99
401.63	2153.29
401.82	2214.15
402.01	2148.61
402.21	2207.13
402.40	2223.51
402.59	2221.17
402.78	2270.32
402.97	2200.10
403.17	2438.84
403.36	2270.32
403.55	2408.41
403.74	2401.39
403.93	2375.64
404.13	2349.90
404.32	2392.03
404.51	2340.54
404.70	2377.98
404.89	2427.14
405.09	2459.90
405.28	2455.22
405.47	2476.29
405.66	2480.97
405.85	2471.61
406.05	2520.76
406.24	2586.29
406.43	2705.66
406.62	2614.38
406.81	2621.40
407.00	2471.61
407.20	2565.23
407.39	2675.23
407.58	2656.51
407.77	2747.79
407.96	2719.70
408.15	2754.81
408.34	2808.64
408.54	2853.11
408.73	2848.43
408.92	2761.83
409.11	2855.45
409.30	2876.52
409.49	2981.84
409.68	3019.29
409.87	2920.99
410.07	2937.37
410.26	2928.01
410.45	3016.95
410.64	3042.70
410.83	3112.91
411.02	3145.68
411.21	3241.64
411.40	3033.33
411.59	3225.26
411.78	3220.58
411.98	3229.94
412.17	3311.86
412.36	3197.17
412.55	3403.14
412.74	3440.59
412.93	3506.12
413.12	3372.71
413.31	3611.45
413.50	3428.88
413.69	3527.19
413.88	3648.90
414.07	3606.77
414.26	3630.17
414.45	3611.45
414.64	3662.94
414.83	3674.64
415.02	3779.97
415.22	3936.78
415.41	3997.64
415.60	3887.63
415.79	4046.79
415.98	4032.74
416.17	3901.67
416.36	3990.61
416.55	3988.27
416.74	3939.12
416.93	4114.66
417.12	4105.30
417.31	4212.96
417.50	4149.77
417.69	4280.84
417.88	4435.32
418.07	4224.67
418.26	4292.54
418.45	4262.12
418.64	4547.66
418.83	4489.15
419.02	4423.61
419.21	4468.08
419.39	4622.56
419.58	4437.66
419.77	4409.57
419.96	4582.77
420.15	4667.03
420.34	4765.33
420.53	4688.09
420.72	4519.57
420.91	4709.16
421.10	4671.71
421.29	4954.91
421.48	4765.33
421.67	4851.93
421.86	4826.18
422.05	4873.00
422.24	4781.71
422.43	4793.42
422.61	4854.27
422.80	4959.60
422.99	4959.60
423.18	4793.42
423.37	4929.17
423.56	4947.89
423.75	5013.43
423.94	4835.55
424.13	4608.51
424.32	4823.84
424.50	5011.09
424.69	5221.74
424.88	5107.05
425.07	5039.17
425.26	5158.54
425.45	4933.85
425.64	4823.84
425.83	5060.24
426.01	5146.84
426.20	5011.09
426.39	5144.50
426.58	5156.20
426.77	5043.85
426.96	5114.07
427.15	5167.90
427.33	5174.92
427.52	5212.37
427.71	5345.78
427.90	5359.83
428.09	5275.57
428.28	5352.81
428.46	5500.26
428.65	5313.02
428.84	5514.30
429.03	5329.40
429.22	5446.43
429.40	5394.93
429.59	5582.18
429.78	5385.57
429.97	5277.91
430.16	5619.63
430.34	5696.86
430.53	5776.44
430.72	5659.42
430.91	5547.07
431.10	5664.10
431.28	5973.05
431.47	5844.32
431.66	5951.98
431.85	5846.66
432.03	5851.34
432.22	6136.88
432.41	6015.18
432.60	5909.85
432.79	5942.62
432.97	6054.97
433.16	6176.67
433.35	6059.65
433.54	6296.04
433.72	6174.33
433.91	5994.11
434.10	6078.37
434.28	6242.21
434.47	5977.73
434.66	6303.06
434.85	6225.82
435.03	6310.08
435.22	6251.57
435.41	6445.84
435.59	6553.50
435.78	6392.00
435.97	6424.77
436.16	6513.71
436.34	6457.54
436.53	6576.91
436.72	6780.53
436.90	6574.56
437.09	6719.68
437.28	6406.05
437.46	6565.20
437.65	6604.99
437.84	6810.96
438.02	6757.13
438.21	6745.42
438.40	6696.27
438.58	6972.46
438.77	7080.12
438.96	6977.14
439.14	7077.78
439.33	7246.30
439.52	7290.77
439.70	7260.34
439.89	7349.28
440.08	7445.24
440.26	7351.62
440.45	7248.64
440.63	7599.72
440.82	7515.46
441.01	7618.44
441.19	7604.40
441.38	7742.49
441.57	7925.05
441.75	7880.58
441.94	8114.64
442.12	7995.27
442.31	8060.80
442.50	8006.97
442.68	8058.46
442.87	8009.31
443.05	8336.99
443.24	8315.92
443.43	8376.78
443.61	8273.79
443.80	8514.87
443.98	8168.47
444.17	7953.14
444.35	8243.37
444.54	8381.46
444.73	8215.28
444.91	8451.67
445.10	8468.06
445.28	8285.50
445.47	8411.89
445.65	8351.03
445.84	8617.85
446.02	8514.87
446.21	8423.59
446.39	8365.07
446.58	8634.24
446.77	8634.24
446.95	8231.66
447.14	8402.52
447.32	8655.30
447.51	8648.28
447.69	8638.92
447.88	8491.46
448.06	8718.50
448.25	8421.25
448.43	8564.02
448.62	8566.36
448.80	8608.49
448.99	8812.12
449.17	8641.26
449.36	8734.88
449.54	9029.79
449.73	8821.48
449.91	9006.38
450.10	9039.15
450.28	9095.32
450.46	9043.83
450.65	9048.51
450.83	9170.22
451.02	9081.28
451.20	9179.58
451.39	9294.27
451.57	9252.14
451.76	9207.67
451.94	9212.35
452.13	9441.72
452.31	9261.50
452.49	9252.14
452.68	9476.83
452.86	9338.74
453.05	9717.90
453.23	9540.02
453.42	9394.91
453.60	9486.19
453.78	9511.94
453.97	9451.08
454.15	9469.81
454.34	9502.58
454.52	9708.54
454.70	9738.97
454.89	9865.36
455.07	9771.74
455.26	9832.59
455.44	9982.38
455.62	9778.76
455.81	10043.24
455.99	10214.10
456.17	10225.80
456.36	9963.66
456.54	10239.84
456.73	10368.57
456.91	10359.21
457.09	10459.85
457.28	10649.44
457.46	10436.45
457.64	10516.03
457.83	10628.37
458.01	10633.05
458.19	10651.78
458.38	10665.82
458.56	11019.24
458.74	10892.85
458.93	10731.36
459.11	10654.12
459.29	10754.76
459.48	10565.18
459.66	10899.87
459.84	10993.50
460.03	10925.62
460.21	11222.87
460.39	11169.04
460.57	10988.82
460.76	11272.02
460.94	11030.94
461.12	11150.31
461.31	11199.46
461.49	11194.78
461.67	10981.79
461.85	11646.51
462.04	11314.15
462.22	11974.18
462.40	11520.12
462.59	11358.62
462.77	11510.75
462.95	11499.05
463.13	11775.24
463.32	11777.58
463.50	11915.67
463.68	11887.58
463.86	11910.99
464.05	11566.93
464.23	11885.24
464.41	12152.06
464.59	11630.12
464.78	12046.74
464.96	11899.28
465.14	11826.73
465.32	12311.22
465.50	12229.30
465.69	12248.02
465.87	12231.64
466.05	12269.09
466.23	11978.86
466.41	12414.20
466.60	12379.09
466.78	12315.90
466.96	12308.88
467.14	12402.50
467.32	12477.40
467.51	12531.23
467.69	12451.65
467.87	12652.94
468.05	12613.15
468.23	12617.83
468.41	12355.69
468.60	12524.21
468.78	12950.18
468.96	12713.79
469.14	12741.88
469.32	13090.62
469.50	12814.43
469.69	12989.97
469.87	13102.32
470.05	13376.16
470.23	13270.84
470.41	13170.19
470.59	13621.92
470.77	13474.46
470.95	13217.01
471.14	13722.56
471.32	13296.58
471.50	13851.29
471.68	13696.82
471.86	13942.57
472.04	13806.82
472.22	14146.20
472.40	13994.06
472.58	13886.40
472.77	14305.35
472.95	13937.89
473.13	14464.51
473.31	14347.48
473.49	14375.57
473.67	14363.87
473.85	14398.98
474.03	14611.96
474.21	14684.52
474.39	14736.01
474.57	14834.32
474.75	14941.98
474.93	15346.89
475.12	15042.62
475.30	15131.56
475.48	15098.80
475.66	15260.29
475.84	15037.94
476.02	15688.61
476.20	15372.64
476.38	15873.51
476.56	16067.78
476.74	16236.30
476.92	15770.53
477.10	16086.50
477.28	16121.61
477.46	16074.80
477.64	16306.51
477.82	16760.58
478.00	17003.99
478.18	17018.04
478.36	16959.52
478.54	17401.88
478.72	17387.84
478.90	17542.32
479.08	17664.02
479.26	17797.43
479.44	18001.06
479.62	18097.02
479.80	18298.31
479.98	17984.68
480.16	18579.17
480.34	18497.25
480.52	18986.43
480.70	18733.65
480.88	18457.46
481.06	18911.53
481.24	19047.28
481.41	19211.12
481.59	19461.55
481.77	19583.26
481.95	19566.88
482.13	20023.28
482.31	19939.02
482.49	20283.08
482.67	20409.47
482.85	20507.77
483.03	20875.24
483.21	20961.84
483.39	20886.94
483.57	21132.70
483.74	21170.15
483.92	21443.99
484.10	21273.13
484.28	22101.68
484.46	22253.81
484.64	22696.17
484.82	22190.62
485.00	22459.78
485.18	23206.41
485.35	23051.94
485.53	22789.80
485.71	23037.89
485.89	23323.44
486.07	23290.67
486.25	23243.86
486.43	23704.95
486.61	24467.96
486.78	23894.53
486.96	24479.66
487.14	24671.59
487.32	24898.62
487.50	25017.99
487.68	25228.63
487.85	25537.59
488.03	25909.73
488.21	26101.65
488.39	26096.97
488.57	26389.54
488.75	26080.59
488.92	26396.56
489.10	27147.87
489.28	26944.25
489.46	27213.41
489.64	27407.67
489.81	27714.28
489.99	27957.70
490.17	27524.70
490.35	28362.61
490.53	28376.66
490.70	28343.89
490.88	28741.78
491.06	28952.43
491.24	28936.04
491.41	29043.71
491.59	29359.68
491.77	29600.76
491.95	29762.25
492.13	30127.38
492.30	29912.05
492.48	30354.41
492.66	30433.99
492.84	30431.65
493.01	30883.37
493.19	30855.28
493.37	31117.42
493.54	31234.45
493.72	31842.99
493.90	31786.82
494.08	31660.43
494.25	32266.63
494.43	32041.93
494.61	32339.18
494.79	32655.15
494.96	32432.80
495.14	33369.02
495.32	33462.64
495.49	33415.83
495.67	33769.25
495.85	33586.69
496.02	33769.25
496.20	34015.01
496.38	33907.34
496.55	34284.17
496.73	35016.75
496.91	34668.02
497.09	34988.67
497.26	35196.98
497.44	35461.46
497.62	35321.02
497.79	36308.73
497.97	35938.93
498.14	36144.89
498.32	36535.76
498.50	36458.52
498.67	36657.47
498.85	36858.76
499.03	36760.45
499.20	36776.84
499.38	37013.23
499.56	37226.22
499.73	37172.39
499.91	37535.17
500.08	37876.89
500.26	37694.33
500.44	37771.57
500.61	38036.05
500.79	37722.41
500.97	38499.47
501.14	38773.31
501.32	38948.85
501.49	38754.59
501.67	38962.90
501.84	39187.59
502.02	38888.00
502.20	39089.29
502.37	39615.91
502.55	39800.81
502.72	39749.32
502.90	39775.06
503.07	39878.05
503.25	40751.07
503.43	39810.17
503.60	40390.62
503.78	40369.56
503.95	40390.62
504.13	40821.28
504.30	40837.67
504.48	41565.57
504.65	40837.67
504.83	41399.40
505.01	41322.16
505.18	41591.32
505.36	41497.70
505.53	41776.22
505.71	41825.37
505.88	42312.20
506.06	41645.15
506.23	42164.75
506.41	42206.88
506.58	42272.42
506.76	42794.36
506.93	42806.06
507.11	42677.33
507.28	42759.25
507.46	43072.88
507.63	43117.35
507.81	43931.86
507.98	43189.91
508.16	43489.49
508.33	43510.56
508.50	43650.99
508.68	43796.10
508.85	44261.87
509.03	43861.64
509.20	44685.51
509.38	44584.86
509.55	44474.86
509.73	44727.64
509.90	45041.27
510.08	44842.32
510.25	45160.64
510.42	45329.16
510.60	45181.70
510.77	45425.12
510.95	45315.11
511.12	45387.67
511.30	45600.66
511.47	45656.83
511.64	45511.72
511.82	46234.94
511.99	46045.36
512.17	46506.44
512.34	45933.01
512.51	46972.21
512.69	46522.83
512.86	46452.61
513.04	47248.39
513.21	46794.33
513.38	47093.92
513.56	47129.03
513.73	46817.74
513.90	47288.18
514.08	47283.50
514.25	47650.97
514.43	47688.42
514.60	47716.50
514.77	47756.29
514.95	47952.90
515.12	47746.93
515.29	47611.18
515.47	48526.33
515.64	48205.67
515.81	48390.58
515.99	48381.21
516.16	48793.15
516.33	48435.05
516.51	49106.78
516.68	48900.81
516.85	48697.19
517.03	49141.89
517.20	49066.99
517.37	48704.21
517.54	49029.54
517.72	48846.98
517.89	49481.27
518.06	49844.05
518.24	49364.24
518.41	49853.41
518.58	49605.31
518.75	49553.82
518.93	49710.64
519.10	49565.52
519.27	49970.44
519.45	49715.32
519.62	50110.87
519.79	50344.92
519.96	50206.83
520.14	50541.53
520.31	50351.94
520.48	51089.21
520.65	50646.85
520.83	50836.44
521.00	50967.51
521.17	50679.62
521.34	50925.38
521.52	51140.71
521.69	50916.01
521.86	51248.37
522.03	51583.07
522.20	51908.40
522.38	51725.84
522.55	51629.88
522.72	51391.14
522.89	51470.72
523.07	51913.08
523.24	51854.57
523.41	51936.49
523.58	51948.19
523.75	52238.42
523.92	51772.65
524.10	51849.89
524.27	52039.47
524.44	52161.18
524.61	52392.89
524.78	52526.30
524.96	52392.89
525.13	52575.45
525.30	52444.38
525.47	53139.52
525.64	52500.56
525.81	52753.33
525.98	52912.49
526.16	52683.12
526.33	52963.98
526.50	53123.14
526.67	52807.17
526.84	53202.72
527.01	53329.11
527.18	53097.39
527.36	53095.05
527.53	53240.17
527.70	53523.37
527.87	53399.32
528.04	53221.44
528.21	53626.35
528.38	53506.99
528.55	53712.95
528.72	53483.58
528.89	53820.62
529.07	53609.97
529.24	53602.95
529.41	53968.07
529.58	53684.87
529.75	53851.05
529.92	54270.00
530.09	54124.89
530.26	54199.79
530.43	54408.09
530.60	53841.68
530.77	54106.16
530.94	54480.65
531.11	54099.14
531.28	54361.28
531.46	54504.06
531.63	54600.02
531.80	54728.75
531.97	54672.57
532.14	54906.63
532.31	54761.51
532.48	54588.31
532.65	54834.07
532.82	54581.29
532.99	54855.14
533.16	54885.56
533.33	55025.99
533.50	55309.20
533.67	54948.76
533.84	54934.71
534.01	54981.52
534.18	55206.22
534.35	55332.60
534.52	55320.90
534.69	55566.66
534.86	55620.49
535.03	55269.41
535.20	55297.50
535.37	55512.83
535.54	55444.95
535.71	55498.78
535.88	55679.00
536.05	55777.31
536.22	55702.41
536.38	55812.41
536.55	55501.12
536.72	55831.14
536.89	55746.88
537.06	55903.70
537.23	55845.18
537.40	55594.74
537.57	56032.42
537.74	56079.24
537.91	56116.68
538.08	56217.33
538.25	55714.11
538.42	56247.75
538.59	56350.74
538.75	56163.50
538.92	56128.39
539.09	56540.32
539.26	56238.39
539.43	56271.16
539.60	56388.19
539.77	56261.80
539.94	56605.86
540.11	56577.77
540.28	56458.40
540.44	56245.41
540.61	56704.16
540.78	56830.55
540.95	56427.98
541.12	56683.09
541.29	56830.55
541.46	56594.15
541.62	56860.97
541.79	56528.62
541.96	56484.15
542.13	56790.76
542.30	56755.65
542.47	57162.90
542.63	56924.17
542.80	56963.96
542.97	57286.95
543.14	57235.46
543.31	57312.70
543.48	57556.11
543.64	57509.30
543.81	57556.11
543.98	57535.05
544.15	57539.73
544.32	57429.72
544.48	57731.65
544.65	57513.98
544.82	57689.52
544.99	57577.18
545.16	57469.51
545.32	57474.20
545.49	57771.44
545.66	57925.92
545.83	57771.44
546.00	57675.48
546.16	57890.81
546.33	57649.74
546.50	57509.30
546.67	57886.13
546.83	57733.99
547.00	58024.22
547.17	58082.73
547.34	58017.20
547.50	58066.35
547.67	58026.56
547.84	58061.67
548.00	58358.92
548.17	58321.47
548.34	58422.11
548.51	58251.25
548.67	58365.94
548.84	58379.98
549.01	58436.16
549.18	58379.98
549.34	58284.02
549.51	58436.16
549.68	58342.53
549.84	58609.35
550.01	58396.37
550.18	58520.41
550.34	58822.34
550.51	58592.97
550.68	58820.00
550.84	58389.34
551.01	58693.61
551.18	58656.17
551.34	58698.30
551.51	58777.87
551.68	58726.38
551.84	58763.83
552.01	58405.73
552.18	58930.01
552.34	58663.19
552.51	59014.27
552.68	58721.70
552.84	58913.62
553.01	59157.04
553.18	59068.10
553.34	58951.07
553.51	58787.24
553.67	58941.71
553.84	59007.25
554.01	59047.04
554.17	59227.26
554.34	59124.27
554.51	59173.42
554.67	59119.59
554.84	59201.51
555.00	59161.72
555.17	59096.19
555.33	59138.32
555.50	59168.74
555.67	59032.99
555.83	59311.52
556.00	59227.26
556.16	59538.55
556.33	59496.42
556.50	59412.16
556.66	59536.21
556.83	59339.60
556.99	59477.69
557.16	59758.56
557.32	59756.22
557.49	59758.56
557.65	59496.42
557.82	59620.47
557.98	59437.90
558.15	59585.36
558.32	59634.51
558.48	59655.57
558.65	59784.30
558.81	59824.09
558.98	59870.90
559.14	59817.07
559.31	59898.99
559.47	59964.52
559.64	59957.50
559.80	59999.63
559.97	59887.29
560.13	59716.43
560.30	59882.61
560.46	59863.88
560.63	60116.66
560.79	60062.83
560.96	60072.19
561.12	60144.75
561.29	60109.64
561.45	60191.56
561.61	59917.71
561.78	60034.74
561.94	60121.34
562.11	60032.40
562.27	59980.91
562.44	60046.44
562.60	60210.28
562.77	60219.64
562.93	59992.61
563.10	60315.61
563.26	60013.68
563.42	60289.86
563.59	60362.42
563.75	60151.77
563.92	60315.61
564.08	60128.36
564.24	60472.42
564.41	60175.17
564.57	60378.80
564.74	60341.35
564.90	60252.41
565.07	60144.75
565.23	60343.69
565.39	60252.41
565.56	60378.80
565.72	60163.47
565.88	60451.36
566.05	60119.00
566.21	60273.48
566.38	60409.23
566.54	60481.78
566.70	60519.23
566.87	60514.55
567.03	60334.33
567.19	60633.92
567.36	60493.49
567.52	60420.93
567.68	60587.11
567.85	60385.82
568.01	60645.62
568.17	60416.25
568.34	60750.94
568.50	60481.78
568.66	60523.91
568.83	60552.00
568.99	60491.15
569.15	60474.76
569.32	60587.11
569.48	60324.97
569.64	60587.11
569.81	60601.15
569.97	60638.60
570.13	60760.31
570.30	60502.85
570.46	60566.04
570.62	60779.03
570.78	60638.60
570.95	60598.81
571.11	60903.08
571.27	60804.78
571.43	60631.58
571.60	60828.18
571.76	60701.79
571.92	60715.84
572.09	60846.91
572.25	60776.69
572.41	60769.67
572.57	60750.94
572.74	61066.92
572.90	60832.86
573.06	61015.43
573.22	60676.05
573.38	60814.14
573.55	60729.88
573.71	60846.91
573.87	60582.43
574.03	60671.37
574.20	60832.86
574.36	60865.63
574.52	61052.87
574.68	60659.66
574.84	61160.54
575.01	60858.61
575.17	61113.73
575.33	60931.17
575.49	60825.84
575.65	60968.61
575.82	60999.04
575.98	61029.47
576.14	61022.45
576.30	60970.96
576.46	60882.02
576.62	60985.00
576.79	60830.52
576.95	60882.02
577.11	61106.71
577.27	60926.49
577.43	60844.57
577.59	61029.47
577.75	60835.20
577.92	60994.36
578.08	60905.42
578.24	61134.79
578.40	61151.18
578.56	61118.41
578.72	61031.81
578.88	61102.03
579.04	61106.71
579.21	61001.38
579.37	60992.02
579.53	61401.61
579.69	60884.36
579.85	61043.51
580.01	61240.12
580.17	60931.17
580.33	60994.36
580.49	61336.08
580.65	61008.40
580.82	60989.68
580.98	61022.45
581.14	60846.91
581.30	61333.74
581.46	61013.08
581.62	61052.87
581.78	60959.25
581.94	61275.22
582.10	61118.41
582.26	60973.30
582.42	61247.14
582.58	61010.74
582.74	61010.74
582.90	61066.92
583.06	61090.32
583.22	61144.16
583.38	61261.18
583.54	61237.78
583.70	61265.86
583.86	61190.97
584.02	61036.49
584.18	61392.25
584.34	61078.62
584.50	61169.90
584.66	60945.21
584.82	60994.36
584.98	61221.39
585.14	61212.03
585.30	61139.47
585.46	61139.47
585.62	61092.66
585.78	61420.34
585.94	60970.96
586.10	61226.07
586.26	61258.84
586.42	61176.92
586.58	61436.72
586.74	61127.77
586.90	60994.36
587.06	61272.88
587.22	61453.11
587.38	61216.71
587.54	61357.14
587.70	61361.82
587.86	61279.91
588.02	61214.37
588.18	61413.32
588.34	61289.27
