SpectraSuite Data File
++++++++++++++++++++++++++++++++++++
Date: Fri Oct 25 10:44:46 EDT 2013
User: price-jones
Dark Spectrum Present: No
Reference Spectrum Present: No
Number of Sampled Component Spectra: 1
Spectrometers: USB2+H05261
Integration Time (usec): 100000 (USB2+H05261)
Spectra Averaged: 1 (USB2+H05261)
Boxcar Smoothing: 0 (USB2+H05261)
Correct for Electrical Dark: No (USB2+H05261)
Strobe/Lamp Enabled: No (USB2+H05261)
Correct for Detector Non-linearity: No (USB2+H05261)
Correct for Stray Light: No (USB2+H05261)
Number of Pixels in Processed Spectrum: 2048
>>>>>Begin Processed Spectral Data<<<<<
365.73	182.56
365.92	182.56
366.12	182.56
366.32	53.83
366.52	0.00
366.72	81.92
366.91	32.77
367.11	46.81
367.31	0.00
367.51	0.00
367.70	0.00
367.90	11.70
368.10	0.00
368.30	25.75
368.49	14.04
368.69	56.17
368.89	74.90
369.09	25.75
369.28	119.37
369.48	35.11
369.68	86.60
369.87	105.32
370.07	53.83
370.27	166.18
370.47	201.29
370.66	369.80
370.86	411.93
371.06	430.66
371.25	461.09
371.45	435.34
371.65	465.77
371.84	390.87
372.04	477.47
372.24	475.13
372.44	454.06
372.63	479.81
372.83	428.32
373.03	482.15
373.22	496.19
373.42	503.22
373.62	437.68
373.81	514.92
374.01	491.51
374.21	545.34
374.40	580.45
374.60	587.47
374.79	524.28
374.99	486.83
375.19	592.16
375.38	489.17
375.58	566.41
375.78	519.60
375.97	575.77
376.17	554.71
376.37	582.79
376.56	599.18
376.76	545.34
376.95	573.43
377.15	566.41
377.35	631.94
377.54	592.16
377.74	594.50
377.93	608.54
378.13	681.10
378.33	645.99
378.52	645.99
378.72	587.47
378.91	662.37
379.11	606.20
379.31	650.67
379.50	587.47
379.70	645.99
379.89	655.35
380.09	704.50
380.28	660.03
380.48	648.33
380.68	589.82
380.87	638.97
381.07	669.39
381.26	706.84
381.46	627.26
381.65	634.29
381.85	667.05
382.04	634.29
382.24	582.79
382.43	739.61
382.63	641.31
382.83	716.20
383.02	676.41
383.22	702.16
383.41	669.39
383.61	587.47
383.80	753.65
384.00	645.99
384.19	744.29
384.39	723.23
384.58	720.88
384.78	716.20
384.97	741.95
385.17	697.48
385.36	711.52
385.56	748.97
385.75	711.52
385.95	772.38
386.14	746.63
386.34	748.97
386.53	793.44
386.72	798.12
386.92	784.08
387.11	709.18
387.31	826.21
387.50	861.32
387.70	830.89
387.89	833.23
388.09	814.51
388.28	830.89
388.48	866.00
388.67	847.27
388.86	863.66
389.06	926.85
389.25	875.36
389.45	926.85
389.64	844.93
389.84	940.90
390.03	903.45
390.22	936.21
390.42	849.61
390.61	837.91
390.81	819.19
391.00	940.90
391.19	985.37
391.39	1046.22
391.58	971.32
391.78	908.13
391.97	926.85
392.16	912.81
392.36	1076.65
392.55	1069.62
392.75	978.34
392.94	889.40
393.13	901.11
393.33	915.15
393.52	1013.45
393.71	980.68
393.91	1006.43
394.10	959.62
394.29	1100.05
394.49	1008.77
394.68	1057.92
394.88	1069.62
395.07	1137.50
395.26	1055.58
395.46	1135.16
395.65	1062.60
395.84	1095.37
396.04	1086.01
396.23	1060.26
396.42	1086.01
396.62	1116.44
396.81	1137.50
397.00	1090.69
397.19	1139.84
397.39	1235.80
397.58	1207.72
397.77	1245.16
397.97	1196.01
398.16	1282.61
398.35	1282.61
398.55	1331.76
398.74	1270.91
398.93	1352.83
399.12	1329.42
399.32	1301.34
399.51	1397.30
399.70	1380.92
399.90	1362.19
400.09	1371.55
400.28	1390.28
400.47	1467.52
400.67	1444.11
400.86	1434.75
401.05	1462.83
401.24	1542.41
401.44	1511.99
401.63	1455.81
401.82	1404.32
402.01	1519.01
402.21	1577.52
402.40	1542.41
402.59	1533.05
402.78	1490.92
402.97	1605.61
403.17	1652.42
403.36	1640.72
403.55	1673.48
403.74	1664.12
403.93	1647.74
404.13	1685.19
404.32	1675.82
404.51	1694.55
404.70	1600.93
404.89	1710.93
405.09	1827.96
405.28	1713.27
405.47	1678.16
405.66	1769.44
405.85	1764.76
406.05	1732.00
406.24	1741.36
406.43	1870.09
406.62	1839.66
406.81	1886.47
407.00	1884.13
407.20	1788.17
407.39	1816.26
407.58	1940.30
407.77	2045.63
407.96	1989.46
408.15	2012.86
408.34	1968.39
408.54	1912.22
408.73	2033.93
408.92	2066.69
409.11	1968.39
409.30	2008.18
409.49	1989.46
409.68	2132.23
409.87	2003.50
410.07	2045.63
410.26	2157.97
410.45	2157.97
410.64	2200.10
410.83	2225.85
411.02	2122.87
411.21	2328.83
411.40	2282.02
411.59	2410.75
411.78	2382.67
411.98	2286.70
412.17	2300.75
412.36	2445.86
412.55	2392.03
412.74	2340.54
412.93	2530.12
413.12	2352.24
413.31	2562.89
413.50	2560.55
413.69	2455.22
413.88	2637.78
414.07	2523.10
414.26	2628.42
414.45	2672.89
414.64	2822.69
414.83	2661.19
415.02	2745.45
415.22	2796.94
415.41	2829.71
415.60	2750.13
415.79	2878.86
415.98	3000.57
416.17	2892.90
416.36	2841.41
416.55	2832.05
416.74	3045.04
416.93	3007.59
417.12	3077.80
417.31	3035.67
417.50	2991.20
417.69	3143.34
417.88	3150.36
418.07	3269.73
418.26	3103.55
418.45	3166.74
418.64	3173.77
418.83	3253.34
419.02	3098.87
419.21	3295.47
419.39	3358.67
419.58	3133.98
419.77	3269.73
419.96	3300.16
420.15	3332.92
420.34	3353.99
420.53	3363.35
420.72	3485.06
420.91	3391.44
421.10	3545.91
421.29	3583.36
421.48	3344.63
421.67	3536.55
421.86	3461.65
422.05	3496.76
422.24	3365.69
422.43	3466.33
422.61	3515.48
422.80	3442.93
422.99	3571.66
423.18	3566.98
423.37	3627.83
423.56	3522.51
423.75	3665.28
423.94	3461.65
424.13	3279.09
424.32	3365.69
424.50	3658.26
424.69	3726.13
424.88	3684.00
425.07	3566.98
425.26	3529.53
425.45	3513.14
425.64	3499.10
425.83	3433.57
426.01	3597.40
426.20	3557.61
426.39	3658.26
426.58	3749.54
426.77	3548.25
426.96	3627.83
427.15	3473.36
427.33	3653.58
427.52	3641.87
427.71	3768.26
427.90	3756.56
428.09	3871.25
428.28	3695.71
428.46	3899.33
428.65	3775.28
428.84	3808.05
429.03	3918.06
429.22	3651.24
429.40	3810.39
429.59	3782.31
429.78	3742.52
429.97	3611.45
430.16	3707.41
430.34	3667.62
430.53	3887.63
430.72	3735.50
430.91	3878.27
431.10	4007.00
431.28	4018.70
431.47	4140.41
431.66	4037.42
431.85	4067.85
432.03	4243.39
432.22	4093.60
432.41	4273.82
432.60	4301.90
432.79	4166.15
432.97	4250.41
433.16	4341.69
433.35	4301.90
433.54	4379.14
433.72	4327.65
433.91	4276.16
434.10	4360.42
434.28	4344.03
434.47	4451.70
434.66	4587.45
434.85	4416.59
435.03	4435.32
435.22	4447.02
435.41	4538.30
435.59	4479.79
435.78	4568.73
435.97	4720.86
436.16	4589.79
436.34	4624.90
436.53	4664.69
436.72	4650.64
436.90	4514.89
437.09	4781.71
437.28	4545.32
437.46	4734.90
437.65	4734.90
437.84	4786.40
438.02	4732.56
438.21	4844.91
438.40	4695.11
438.58	4908.10
438.77	4912.78
438.96	4805.12
439.14	5048.54
439.33	5097.69
439.52	4994.70
439.70	5135.14
439.89	5156.20
440.08	5004.07
440.26	5301.31
440.45	5128.11
440.63	5228.76
440.82	5451.11
441.01	5371.53
441.19	5493.24
441.38	5479.19
441.57	5575.16
441.75	5547.07
441.94	5668.78
442.12	5636.01
442.31	5722.61
442.50	5849.00
442.68	5537.71
442.87	5757.72
443.05	5713.25
443.24	5856.02
443.43	5792.83
443.61	5909.85
443.80	5898.15
443.98	5650.05
444.17	5724.95
444.35	5720.27
444.54	5947.30
444.73	5825.59
444.91	5956.66
445.10	5844.32
445.28	5839.64
445.47	5916.87
445.65	5851.34
445.84	5923.90
446.02	5935.60
446.21	5963.68
446.39	5933.26
446.58	6033.90
446.77	5891.13
446.95	5867.72
447.14	5849.00
447.32	6115.82
447.51	6162.63
447.69	6052.63
447.88	6080.71
448.06	6069.01
448.25	5973.05
448.43	6122.84
448.62	6038.58
448.80	6211.78
448.99	6300.72
449.17	6101.78
449.36	6057.31
449.54	6317.11
449.73	6401.37
449.91	6305.40
450.10	6410.73
450.28	6590.95
450.46	6544.14
450.65	6511.37
450.83	6513.71
451.02	6469.24
451.20	6595.63
451.39	6635.42
451.57	6644.78
451.76	6506.69
451.94	6520.73
452.13	6597.97
452.31	6466.90
452.49	6457.54
452.68	6541.80
452.86	6602.65
453.05	6733.72
453.23	6696.27
453.42	6541.80
453.60	6651.80
453.78	6829.68
453.97	6642.44
454.15	6731.38
454.34	6815.64
454.52	6843.73
454.70	6780.53
454.89	6803.94
455.07	6707.98
455.26	7026.29
455.44	7068.42
455.62	7091.82
455.81	7059.06
455.99	7272.04
456.17	7124.59
456.36	7115.23
456.54	7274.38
456.73	7164.38
456.91	7255.66
457.09	7274.38
457.28	7424.18
457.46	7349.28
457.64	7433.54
457.83	7225.23
458.01	7197.15
458.19	7499.08
458.38	7396.09
458.56	7393.75
458.74	7576.31
458.93	7456.95
459.11	7630.15
459.29	7662.91
459.48	7653.55
459.66	7695.68
459.84	7630.15
460.03	7688.66
460.21	7836.11
460.39	7749.51
460.57	7861.86
460.76	7840.79
460.94	7768.24
461.12	7995.27
461.31	7847.82
461.49	7990.59
461.67	7709.72
461.85	8231.66
462.04	7943.78
462.22	8205.92
462.40	8067.83
462.59	7854.84
462.77	8182.51
462.95	8025.70
463.13	7908.67
463.32	7948.46
463.50	8383.80
463.68	8262.09
463.86	8018.68
464.05	8344.01
464.23	8226.98
464.41	8510.19
464.59	8170.81
464.78	8112.30
464.96	8217.62
465.14	8339.33
465.32	8346.35
465.50	8355.71
465.69	8479.76
465.87	8524.23
466.05	8512.53
466.23	8325.29
466.41	8493.80
466.60	8549.98
466.78	8430.61
466.96	8545.30
467.14	8449.33
467.32	8610.83
467.51	8800.41
467.69	8425.93
467.87	8648.28
468.05	8720.84
468.23	8545.30
468.41	8725.52
468.60	8798.07
468.78	8905.74
468.96	8760.63
469.14	9139.79
469.32	9050.85
469.50	8664.66
469.69	8896.38
469.87	9181.92
470.05	8997.02
470.23	9256.82
470.41	9004.04
470.59	9144.47
470.77	9177.24
470.95	9362.14
471.14	9228.73
471.32	9055.53
471.50	9102.34
471.68	9467.47
471.86	9525.98
472.04	9521.30
472.22	9614.92
472.40	9465.13
472.58	9640.67
472.77	9647.69
472.95	9710.88
473.13	9795.14
473.31	9668.75
473.49	9589.17
473.67	9881.74
473.85	9926.21
474.03	10038.56
474.21	9994.09
474.39	10176.65
474.57	10190.69
474.75	10157.92
474.93	10239.84
475.12	10139.20
475.30	10455.17
475.48	10466.88
475.66	10186.01
475.84	10473.90
476.02	10595.61
476.20	10532.41
476.38	10637.73
476.56	10991.16
476.74	10986.47
476.92	10586.24
477.10	10752.42
477.28	11030.94
477.46	10960.73
477.64	11227.55
477.82	11571.61
478.00	11623.10
478.18	11330.53
478.36	11627.78
478.54	11782.26
478.72	11939.07
478.90	11899.28
479.08	12011.63
479.26	12159.08
479.44	12126.32
479.62	12271.43
479.80	12217.60
479.98	12065.46
480.16	12449.31
480.34	12437.61
480.52	12718.47
480.70	12559.31
480.88	12397.82
481.06	12629.53
481.24	12643.57
481.41	12882.31
481.59	13252.11
481.77	13240.41
481.95	13188.92
482.13	13530.64
482.31	13437.02
482.49	13790.44
482.67	13399.57
482.85	13994.06
483.03	13977.68
483.21	14038.53
483.39	14216.41
483.57	13933.21
483.74	14340.46
483.92	14424.72
484.10	14307.69
484.28	14429.40
484.46	14918.57
484.64	15119.86
484.82	14527.71
485.00	14993.47
485.18	14782.82
485.35	15241.57
485.53	14834.32
485.71	14771.12
485.89	15433.49
486.07	15353.91
486.25	15611.37
486.43	15878.19
486.61	15681.59
486.78	15892.24
486.96	16262.04
487.14	16435.24
487.32	16390.77
487.50	16840.15
487.68	16996.97
487.85	16896.33
488.03	17090.59
488.21	16961.86
488.39	17078.89
488.57	17556.36
488.75	17497.84
488.92	17649.98
489.10	17907.44
489.28	17692.11
489.46	18122.77
489.64	18052.55
489.81	18780.46
489.99	18665.77
490.17	18455.12
490.35	19047.28
490.53	18614.28
490.70	19164.31
490.88	19019.19
491.06	19063.66
491.24	19131.54
491.41	19110.47
491.59	19555.18
491.77	19302.40
491.95	19613.69
492.13	19768.16
492.30	19826.68
492.48	20100.52
492.66	20046.69
492.84	20086.48
493.01	20503.09
493.19	20020.94
493.37	20807.36
493.54	20365.00
493.72	20720.76
493.90	20790.98
494.08	21137.38
494.25	21259.09
494.43	21446.33
494.61	21724.85
494.79	21570.38
494.96	21783.37
495.14	21750.60
495.32	21891.03
495.49	21928.48
495.67	22073.59
495.85	22174.24
496.02	22401.27
496.20	22689.15
496.38	22944.27
496.55	23030.87
496.73	23035.55
496.91	22909.16
497.09	23168.96
497.26	23482.59
497.44	23080.02
497.62	23122.15
497.79	23360.89
497.97	23140.88
498.14	23534.09
498.32	23765.80
498.50	23950.70
498.67	24315.83
498.85	23751.76
499.03	24166.03
499.20	24243.27
499.38	23927.30
499.56	24629.46
499.73	24776.91
499.91	24566.26
500.08	24847.13
500.26	24709.04
500.44	24662.22
500.61	24812.02
500.79	24975.86
500.97	24898.62
501.14	25259.06
501.32	25406.52
501.49	25167.78
501.67	25205.23
501.84	25209.91
502.02	25638.23
502.20	25991.65
502.37	26195.28
502.55	25685.04
502.72	26466.78
502.90	25928.45
503.07	25795.04
503.25	26333.37
503.43	26387.20
503.60	26445.71
503.78	26312.30
503.95	26483.16
504.13	26295.92
504.30	26551.04
504.48	26946.59
504.65	26857.65
504.83	27204.05
505.01	27449.80
505.18	27026.17
505.36	27419.38
505.53	27470.87
505.71	27447.46
505.88	28114.52
506.06	27484.91
506.23	27278.94
506.41	27733.01
506.58	27871.10
506.76	27791.52
506.93	28030.26
507.11	28002.17
507.28	28285.37
507.46	28215.16
507.63	28257.29
507.81	28198.77
507.98	28350.91
508.16	28320.48
508.33	28528.79
508.50	28978.17
508.68	28854.12
508.85	29076.48
509.03	28917.32
509.20	28790.93
509.38	29020.30
509.55	29504.79
509.73	29415.85
509.90	29486.07
510.08	29465.00
510.25	29518.84
510.42	29315.21
510.60	29502.45
510.77	29738.85
510.95	30204.61
511.12	29722.46
511.30	30115.67
511.47	30024.39
511.64	30075.88
511.82	30316.96
511.99	30080.56
512.17	30115.67
512.34	29935.45
512.51	30551.01
512.69	31168.91
512.86	30178.87
513.04	30864.64
513.21	30639.95
513.38	30930.18
513.56	30792.09
513.73	30529.95
513.90	31173.60
514.08	31021.46
514.25	31318.71
514.43	30892.73
514.60	31344.45
514.77	31351.48
514.95	31414.67
515.12	31365.52
515.29	31489.57
515.47	31873.42
515.64	32095.77
515.81	31695.53
515.99	32086.40
516.16	31971.72
516.33	31683.83
516.51	31838.31
516.68	31924.91
516.85	31992.78
517.03	31557.44
517.20	32079.38
517.37	32081.72
517.54	32414.08
517.72	32240.88
517.89	32376.63
518.06	31810.22
518.24	32240.88
518.41	32341.52
518.58	32657.49
518.75	32716.01
518.93	32844.74
519.10	32484.30
519.27	32842.40
519.45	33095.18
519.62	33268.37
519.79	32879.85
519.96	33130.28
520.14	33364.34
520.31	32980.49
520.48	33481.36
520.65	33752.87
520.83	33727.12
521.00	34068.84
521.17	33930.75
521.34	33930.75
521.52	33659.24
521.69	33757.55
521.86	33923.72
522.03	34162.46
522.20	34511.20
522.38	34286.51
522.55	34450.35
522.72	34117.99
522.89	34611.84
523.07	34431.62
523.24	34384.81
523.41	34787.38
523.58	34775.68
523.75	34878.66
523.92	35304.64
524.10	35292.94
524.27	35056.54
524.44	34888.03
524.61	35431.03
524.78	35419.33
524.96	35330.39
525.13	35440.39
525.30	35206.34
525.47	35379.54
525.64	35676.79
525.81	35615.93
525.98	35318.68
526.16	35402.94
526.33	35505.93
526.50	35908.50
526.67	35426.35
526.84	35737.64
527.01	35517.63
527.18	35431.03
527.36	36030.21
527.53	36212.77
527.70	36266.60
527.87	36112.13
528.04	36271.28
528.21	36582.57
528.38	36299.37
528.55	36676.19
528.72	37008.55
528.89	36591.94
529.07	36294.69
529.24	36985.15
529.41	36708.96
529.58	37041.32
529.75	36584.91
529.92	36952.38
530.09	36772.16
530.26	36605.98
530.43	36996.85
530.60	37132.60
530.77	36989.83
530.94	37361.97
531.11	37427.51
531.28	37390.06
531.46	37212.18
531.63	37378.36
531.80	37329.20
531.97	37525.81
532.14	37495.38
532.31	37001.53
532.48	37624.11
532.65	37619.43
532.82	37301.12
532.99	37787.95
533.16	37385.38
533.33	37663.90
533.50	38120.31
533.67	38000.94
533.84	38057.11
534.01	38089.88
534.18	38036.05
534.35	38302.87
534.52	38019.66
534.69	38487.77
534.86	38469.04
535.03	38249.03
535.20	38618.84
535.37	38609.48
535.54	38883.32
535.71	38218.61
535.88	38384.79
536.05	38384.79
536.22	38667.99
536.38	38756.93
536.55	39037.80
536.72	38572.03
536.89	38700.76
537.06	38356.70
537.23	38888.00
537.40	38845.87
537.57	38878.64
537.74	38473.73
537.91	38979.28
538.08	39192.27
538.25	38637.56
538.42	38972.26
538.59	39012.05
538.75	38979.28
538.92	39023.75
539.09	39222.70
539.26	39236.74
539.43	39330.36
539.60	39641.65
539.77	39196.95
539.94	39739.96
540.11	39253.12
540.28	39370.15
540.44	39714.21
540.61	39431.01
540.78	39693.15
540.95	39526.97
541.12	39243.76
541.29	39126.74
541.46	40172.96
541.62	39866.34
541.79	39833.58
541.96	39688.46
542.13	39962.31
542.30	39751.66
542.47	40404.67
542.63	39906.13
542.80	40409.35
542.97	40500.63
543.14	40502.97
543.31	40629.36
543.48	40081.67
543.64	40697.24
543.81	41055.34
543.98	41062.36
544.15	40779.15
544.32	41263.64
544.48	41069.38
544.65	40563.82
544.82	40727.66
544.99	40336.79
545.16	41020.23
545.32	41153.64
545.49	41523.44
545.66	41514.08
545.83	41375.99
546.00	41324.50
546.16	41750.48
546.33	40886.82
546.50	40694.89
546.67	41118.53
546.83	40409.35
547.00	41102.15
547.17	41090.44
547.34	41434.50
547.50	41415.78
547.67	41935.38
547.84	41462.59
548.00	41743.45
548.17	41633.45
548.34	41354.93
548.51	41640.47
548.67	41628.77
548.84	41785.58
549.01	41610.04
549.18	41385.35
549.34	41808.99
549.51	42075.81
549.68	41949.42
549.84	41904.95
550.01	41832.39
550.18	41951.76
550.34	42405.83
550.51	42160.07
550.68	42150.71
550.84	41881.55
551.01	42124.96
551.18	42005.59
551.34	42047.72
551.51	41928.36
551.68	42438.59
551.84	42300.50
552.01	42188.16
552.18	42342.63
552.34	42258.37
552.51	42450.30
552.68	42078.15
552.84	42724.14
553.01	42939.47
553.18	42403.49
553.34	42607.11
553.51	42602.43
553.67	42415.19
553.84	43119.69
554.01	42761.59
554.17	42553.28
554.34	42806.06
554.51	43093.94
554.67	42997.98
554.84	42822.44
555.00	42721.80
555.17	42873.93
555.33	42913.72
555.50	42567.32
555.67	42543.92
555.83	42569.66
556.00	42829.46
556.16	43138.41
556.33	42878.61
556.50	42974.58
556.66	43054.15
556.83	42939.47
556.99	43414.60
557.16	43335.02
557.32	43344.38
557.49	43346.72
557.65	43145.44
557.82	42822.44
557.98	43328.00
558.15	43192.25
558.32	43122.03
558.48	43072.88
558.65	43386.51
558.81	43037.77
558.98	42934.79
559.14	43309.27
559.31	43208.63
559.47	43679.08
559.64	43606.52
559.80	43739.93
559.97	43178.20
560.13	43173.52
560.30	43194.59
560.46	43283.53
560.63	43522.26
560.79	43496.52
560.96	43686.10
561.12	43510.56
561.29	43761.00
561.45	43601.84
561.61	43325.66
561.78	43503.54
561.94	43599.50
562.11	43592.48
562.27	43641.63
562.44	43686.10
562.60	44121.44
562.77	43819.51
562.93	43449.70
563.10	43433.32
563.26	43419.28
563.42	43978.67
563.59	43763.34
563.75	43597.16
563.92	43805.47
564.08	43798.44
564.24	43852.28
564.41	43859.30
564.57	43721.21
564.74	43716.53
564.90	44058.24
565.07	44243.15
565.23	43604.18
565.39	44208.04
565.56	44123.78
565.72	44191.65
565.88	44067.61
566.05	43721.21
566.21	43756.32
566.38	43526.94
566.54	44020.80
566.70	44392.94
566.87	44418.69
567.03	43906.11
567.19	44643.38
567.36	44182.29
567.52	44210.38
567.68	44678.49
567.85	44013.77
568.01	44091.01
568.17	44175.27
568.34	44423.37
568.50	43978.67
568.66	43854.62
568.83	44371.88
568.99	43934.20
569.15	44128.46
569.32	43793.76
569.48	43948.24
569.64	44329.75
569.81	44423.37
569.97	44182.29
570.13	44318.04
570.30	43849.94
570.46	43908.45
570.62	43856.96
570.78	43817.17
570.95	44069.95
571.11	44222.08
571.27	43852.28
571.43	44292.30
571.60	43707.16
571.76	43880.36
571.92	44493.58
572.09	44287.62
572.25	43985.69
572.41	44147.18
572.57	44247.83
572.74	44552.10
572.90	44423.37
573.06	44254.85
573.22	44561.46
573.38	44175.27
573.55	44542.74
573.71	44854.03
573.87	44507.63
574.03	44158.89
574.20	44151.87
574.36	44465.50
574.52	44608.27
574.68	44521.67
574.84	44512.31
575.01	43955.26
575.17	44240.81
575.33	44360.17
575.49	44137.82
575.65	44568.48
575.82	44680.83
575.98	44044.20
576.14	44856.37
576.30	44196.34
576.46	44168.25
576.62	44865.73
576.79	44032.50
576.95	44069.95
577.11	44598.91
577.27	44233.78
577.43	44390.60
577.59	44605.93
577.75	44301.66
577.92	43650.99
578.08	44271.23
578.24	44446.77
578.40	44397.62
578.56	44425.71
578.72	44395.28
578.88	44935.95
579.04	44662.10
579.21	44025.48
579.37	44491.24
579.53	44266.55
579.69	44409.32
579.85	44292.30
580.01	44512.31
580.17	44210.38
580.33	44882.11
580.49	44135.48
580.65	44994.46
580.82	44584.86
580.98	44524.01
581.14	44470.18
581.30	44601.25
581.46	44598.91
581.62	44769.77
581.78	44374.22
581.94	44891.48
582.10	44432.73
582.26	44425.71
582.42	44601.25
582.58	44287.62
582.74	44744.02
582.90	44949.99
583.06	44952.33
583.22	45031.91
583.38	44992.12
583.54	44999.14
583.70	44587.21
583.86	44538.05
584.02	44353.15
584.18	44746.36
584.34	44388.26
584.50	44453.79
584.66	44500.61
584.82	44186.97
584.98	44966.37
585.14	44774.45
585.30	44582.52
585.46	44584.86
585.62	44231.44
585.78	44423.37
585.94	44493.58
586.10	44119.10
586.26	44278.25
586.42	44683.17
586.58	44629.34
586.74	44828.28
586.90	44259.53
587.06	44619.97
587.22	44605.93
587.38	44474.86
587.54	44694.87
587.70	44753.38
587.86	45027.23
588.02	44617.63
588.18	44751.04
588.34	44666.78
588.49	44156.55
588.65	43683.76
588.81	44011.43
588.97	44680.83
589.13	44046.54
589.29	44460.82
589.45	44460.82
589.61	44549.76
589.77	44854.03
589.93	44814.24
590.08	44779.13
590.24	44893.82
