SpectraSuite Data File
++++++++++++++++++++++++++++++++++++
Date: Fri Oct 25 11:23:08 EDT 2013
User: price-jones
Dark Spectrum Present: No
Reference Spectrum Present: No
Number of Sampled Component Spectra: 1
Spectrometers: USB2+H05261
Integration Time (usec): 100000 (USB2+H05261)
Spectra Averaged: 1 (USB2+H05261)
Boxcar Smoothing: 0 (USB2+H05261)
Correct for Electrical Dark: No (USB2+H05261)
Strobe/Lamp Enabled: No (USB2+H05261)
Correct for Detector Non-linearity: No (USB2+H05261)
Correct for Stray Light: No (USB2+H05261)
Number of Pixels in Processed Spectrum: 2048
>>>>>Begin Processed Spectral Data<<<<<
365.73	187.24
365.92	187.24
366.12	187.24
366.32	152.13
366.52	121.71
366.72	124.05
366.91	119.37
367.11	112.35
367.31	147.45
367.51	86.60
367.70	42.13
367.90	166.18
368.10	121.71
368.30	114.69
368.49	98.30
368.69	198.95
368.89	107.66
369.09	217.67
369.28	126.39
369.48	107.66
369.68	152.13
369.87	208.31
370.07	154.48
370.27	231.71
370.47	353.42
370.66	634.29
370.86	585.13
371.06	608.54
371.25	660.03
371.45	620.24
371.65	720.88
371.84	711.52
372.04	727.91
372.24	737.27
372.44	650.67
372.63	704.50
372.83	734.93
373.03	812.17
373.22	741.95
373.42	746.63
373.62	833.23
373.81	863.66
374.01	784.08
374.21	793.44
374.40	781.74
374.60	795.78
374.79	819.19
374.99	791.10
375.19	924.51
375.38	802.80
375.58	842.59
375.78	830.89
375.97	814.51
376.17	791.10
376.37	842.59
376.56	898.77
376.76	851.96
376.95	926.85
377.15	891.74
377.35	901.11
377.54	922.17
377.74	926.85
377.93	926.85
378.13	966.64
378.33	966.64
378.52	826.21
378.72	873.02
378.91	1008.77
379.11	943.24
379.31	976.00
379.50	887.06
379.70	1004.09
379.89	1055.58
380.09	922.17
380.28	966.64
380.48	1013.45
380.68	1027.50
380.87	959.62
381.07	999.41
381.26	1107.07
381.46	954.94
381.65	1076.65
381.85	1041.54
382.04	1027.50
382.24	1018.13
382.43	1048.56
382.63	1078.99
382.83	1048.56
383.02	1046.22
383.22	1177.29
383.41	1135.16
383.61	1078.99
383.80	1029.84
384.00	1097.71
384.19	1167.93
384.39	1172.61
384.58	1228.78
384.78	1217.08
384.97	1081.33
385.17	1151.54
385.36	1135.16
385.56	1139.84
385.75	1181.97
385.95	1259.21
386.14	1188.99
386.34	1170.27
386.53	1217.08
386.72	1210.06
386.92	1214.74
387.11	1149.20
387.31	1252.19
387.50	1310.70
387.70	1310.70
387.89	1273.25
388.09	1282.61
388.28	1217.08
388.48	1315.38
388.67	1299.00
388.86	1301.34
389.06	1378.58
389.25	1364.53
389.45	1376.24
389.64	1343.47
389.84	1411.34
390.03	1383.26
390.22	1406.66
390.42	1474.54
390.61	1317.72
390.81	1439.43
391.00	1420.71
391.19	1387.94
391.39	1441.77
391.58	1430.07
391.78	1430.07
391.97	1413.68
392.16	1441.77
392.36	1544.75
392.55	1411.34
392.75	1593.90
392.94	1643.06
393.13	1526.03
393.33	1523.69
393.52	1523.69
393.71	1617.31
393.91	1664.12
394.10	1645.40
394.29	1554.12
394.49	1584.54
394.68	1657.10
394.88	1596.25
395.07	1617.31
395.26	1701.57
395.46	1717.95
395.65	1785.83
395.84	1722.63
396.04	1813.92
396.23	1736.68
396.42	1717.95
396.62	1746.04
396.81	1680.50
397.00	1849.02
397.19	1760.08
397.39	1820.94
397.58	1860.73
397.77	1788.17
397.97	1851.36
398.16	1846.68
398.35	1858.39
398.55	1856.04
398.74	1937.96
398.93	2036.27
399.12	1881.79
399.32	1851.36
399.51	1989.46
399.70	1909.88
399.90	1947.33
400.09	2080.74
400.28	2019.88
400.47	1926.26
400.67	2076.06
400.86	1973.07
401.05	2155.63
401.24	2115.84
401.44	2146.27
401.63	2139.25
401.82	2031.58
402.01	2125.21
402.21	2223.51
402.40	2239.89
402.59	2207.13
402.78	2310.11
402.97	2230.53
403.17	2246.91
403.36	2289.04
403.55	2284.36
403.74	2347.56
403.93	2434.16
404.13	2331.17
404.32	2389.69
404.51	2331.17
404.70	2424.80
404.89	2396.71
405.09	2464.58
405.28	2511.39
405.47	2424.80
405.66	2492.67
405.85	2567.57
406.05	2553.52
406.24	2621.40
406.43	2483.31
406.62	2635.44
406.81	2717.36
407.00	2586.29
407.20	2574.59
407.39	2651.83
407.58	2785.24
407.77	2700.98
407.96	2829.71
408.15	2803.96
408.34	2757.15
408.54	2862.48
408.73	2745.45
408.92	2862.48
409.11	2951.42
409.30	2913.97
409.49	2974.82
409.68	2958.44
409.87	2963.12
410.07	3084.83
410.26	2918.65
410.45	2963.12
410.64	3089.51
410.83	3124.62
411.02	3035.67
411.21	3180.79
411.40	3117.59
411.59	3192.49
411.78	3283.77
411.98	3185.47
412.17	3405.48
412.36	3407.82
412.55	3351.65
412.74	3414.84
412.93	3391.44
413.12	3318.88
413.31	3545.91
413.50	3613.79
413.69	3520.17
413.88	3646.55
414.07	3625.49
414.26	3674.64
414.45	3648.90
414.64	3655.92
414.83	3733.15
415.02	3789.33
415.22	3946.14
415.41	4011.68
415.60	3953.16
415.79	3983.59
415.98	4014.02
416.17	4014.02
416.36	4037.42
416.55	3985.93
416.74	4128.70
416.93	4142.75
417.12	4119.34
417.31	4217.65
417.50	4196.58
417.69	4264.46
417.88	4154.45
418.07	4334.67
418.26	4245.73
418.45	4435.32
418.64	4486.81
418.83	4376.80
419.02	4472.76
419.21	4627.24
419.39	4624.90
419.58	4505.53
419.77	4571.07
419.96	4589.79
420.15	4699.80
420.34	4575.75
420.53	4503.19
420.72	4767.67
420.91	4657.67
421.10	4985.34
421.29	4781.71
421.48	4805.12
421.67	4777.03
421.86	4964.28
422.05	4924.49
422.24	4924.49
422.43	5015.77
422.61	4812.14
422.80	5013.43
422.99	4873.00
423.18	5032.15
423.37	5043.85
423.56	5018.11
423.75	4945.55
423.94	4891.72
424.13	4603.83
424.32	4805.12
424.50	4943.21
424.69	5097.69
424.88	5074.28
425.07	4884.70
425.26	4929.17
425.45	5118.75
425.64	4873.00
425.83	4968.96
426.01	5008.75
426.20	5022.79
426.39	5090.67
426.58	5015.77
426.77	5132.79
426.96	5200.67
427.15	5200.67
427.33	5233.44
427.52	5240.46
427.71	5331.74
427.90	5280.25
428.09	5439.40
428.28	5425.36
428.46	5357.49
428.65	5406.64
428.84	5502.60
429.03	5479.19
429.22	5177.26
429.40	5483.88
429.59	5383.23
429.78	5268.55
429.97	5490.90
430.16	5589.20
430.34	5638.35
430.53	5837.30
430.72	5647.71
430.91	5858.36
431.10	5579.84
431.28	5795.17
431.47	5884.11
431.66	5834.96
431.85	5942.62
432.03	5865.38
432.22	5951.98
432.41	6066.67
432.60	5944.96
432.79	5970.71
432.97	6071.35
433.16	6001.13
433.35	5975.39
433.54	6097.10
433.72	5944.96
433.91	6207.10
434.10	6057.31
434.28	6038.58
434.47	6160.29
434.66	6368.60
434.85	6363.92
435.03	6209.44
435.22	6356.90
435.41	6342.85
435.59	6464.56
435.78	6274.98
435.97	6656.48
436.16	6616.69
436.34	6417.75
436.53	6438.81
436.72	6597.97
436.90	6520.73
437.09	6609.67
437.28	6581.59
437.46	6712.66
437.65	6637.76
437.84	6883.52
438.02	6771.17
438.21	6864.79
438.40	6885.86
438.58	7108.21
438.77	7070.76
438.96	7110.55
439.14	7133.95
439.33	7243.96
439.52	7311.83
439.70	7330.56
439.89	7478.01
440.08	7332.90
440.26	7595.04
440.45	7368.01
440.63	7548.23
440.82	7744.83
441.01	7552.91
441.19	7702.70
441.38	7779.94
441.57	8006.97
441.75	7840.79
441.94	7833.77
442.12	7777.60
442.31	8058.46
442.50	8334.65
442.68	8039.74
442.87	8077.19
443.05	7976.55
443.24	8367.42
443.43	8290.18
443.61	8250.39
443.80	8437.63
443.98	8013.99
444.17	8004.63
444.35	8116.98
444.54	8454.02
444.73	8596.79
444.91	8161.45
445.10	8601.47
445.28	8503.17
445.47	8255.07
445.65	8491.46
445.84	8526.57
446.02	8554.66
446.21	8339.33
446.39	8500.83
446.58	8580.40
446.77	8578.06
446.95	8589.77
447.14	8498.49
447.32	8704.45
447.51	8526.57
447.69	8456.36
447.88	8751.26
448.06	8596.79
448.25	8676.37
448.43	8566.36
448.62	8542.96
448.80	8531.25
448.99	8730.20
449.17	8975.95
449.36	8706.79
449.54	9074.26
449.73	9125.75
449.91	9275.54
450.10	8915.10
450.28	9266.18
450.46	9151.49
450.65	9006.38
450.83	9273.20
451.02	9097.66
451.20	9451.08
451.39	9210.01
451.57	9432.36
451.76	9050.85
451.94	9301.29
452.13	9446.40
452.31	9338.74
452.49	9174.90
452.68	9458.10
452.86	9495.55
453.05	9317.67
453.23	9685.14
453.42	9577.47
453.60	9453.42
453.78	9879.40
453.97	9748.33
454.15	9598.54
454.34	9788.12
454.52	9816.21
454.70	9802.16
454.89	9958.98
455.07	9951.96
455.26	10211.76
455.44	9977.70
455.62	10068.98
455.81	10031.54
455.99	10146.22
456.17	10162.61
456.36	10043.24
456.54	10452.83
456.73	10415.38
456.91	10548.79
457.09	10466.88
457.28	10661.14
457.46	10824.98
457.64	10836.68
457.83	10623.69
458.01	10546.45
458.19	10904.56
458.38	10551.14
458.56	10939.66
458.74	10984.13
458.93	10703.27
459.11	10897.53
459.29	10810.93
459.48	11070.73
459.66	11000.52
459.84	10902.22
460.03	11171.38
460.21	11229.89
460.39	11199.46
460.57	11049.67
460.76	11297.77
460.94	11463.94
461.12	11482.67
461.31	11211.17
461.49	11286.06
461.67	11463.94
461.85	11667.57
462.04	11494.37
462.22	11655.87
462.40	11903.96
462.59	11566.93
462.77	11606.72
462.95	11751.83
463.13	11510.75
463.32	11674.59
463.50	11913.33
463.68	11822.05
463.86	11906.31
464.05	11721.40
464.23	11894.60
464.41	12091.21
464.59	11857.15
464.78	12264.41
464.96	12049.08
465.14	12053.76
465.32	12166.10
465.50	12334.62
465.69	12327.60
465.87	12304.20
466.05	12229.30
466.23	12147.38
466.41	12542.93
466.60	12666.98
466.78	12259.73
466.96	12266.75
467.14	12404.84
467.32	12453.99
467.51	12828.48
467.69	12432.93
467.87	12732.51
468.05	12692.73
468.23	12704.43
468.41	12622.51
468.60	12856.56
468.78	12973.59
468.96	12713.79
469.14	12844.86
469.32	13261.48
469.50	12905.71
469.69	13018.06
469.87	13331.69
470.05	13256.79
470.23	13420.63
470.41	13322.33
470.59	13497.87
470.77	13348.08
470.95	13118.70
471.14	13762.35
471.32	13158.49
471.50	13792.78
471.68	13774.05
471.86	13605.53
472.04	13879.38
472.22	14281.95
472.40	13963.64
472.58	13877.04
472.77	14244.50
472.95	14303.01
473.13	14745.38
473.31	14485.58
473.49	14352.16
473.67	14314.72
473.85	14499.62
474.03	14698.56
474.21	14956.02
474.39	14593.24
474.57	15012.20
474.75	14953.68
474.93	15061.35
475.12	15229.87
475.30	15428.81
475.48	15126.88
475.66	15321.15
475.84	15447.54
476.02	15644.14
476.20	15377.32
476.38	15756.49
476.56	16081.82
476.74	15936.71
476.92	16072.46
477.10	16077.14
477.28	16320.56
477.46	16308.85
477.64	16521.84
477.82	16624.83
478.00	16858.88
478.18	17284.86
478.36	17095.27
478.54	17205.28
478.72	17465.08
478.90	17879.35
479.08	18064.25
479.26	17832.54
479.44	17949.57
479.62	17919.14
479.80	18221.07
479.98	18492.57
480.16	18747.69
480.34	18450.44
480.52	18644.71
480.70	18656.41
480.88	18567.47
481.06	18855.36
481.24	19176.01
481.41	19091.75
481.59	19730.72
481.77	19477.94
481.95	20004.56
482.13	19915.62
482.31	19740.08
482.49	20442.24
482.67	20486.71
482.85	20631.82
483.03	21036.74
483.21	21453.35
483.39	21238.02
483.57	21083.55
483.74	21465.05
483.92	21642.93
484.10	21490.80
484.28	21741.24
484.46	22349.78
484.64	22363.82
484.82	22209.34
485.00	22696.17
485.18	23096.41
485.35	23051.94
485.53	22824.90
485.71	23220.45
485.89	23672.18
486.07	23431.10
486.25	23576.22
486.43	24137.94
486.61	23960.06
486.78	24524.13
486.96	24837.76
487.14	24767.55
487.32	24971.18
487.50	25291.83
487.68	25453.33
487.85	25425.24
488.03	26127.40
488.21	25942.50
488.39	26242.09
488.57	26438.69
488.75	26621.25
488.92	26670.40
489.10	27063.61
489.28	27082.34
489.46	27428.74
489.64	27571.51
489.81	27798.54
489.99	27889.82
490.17	28233.88
490.35	28580.28
490.53	28411.76
490.70	28884.55
490.88	28547.51
491.06	29120.95
491.24	29099.88
491.41	29495.43
491.59	29694.38
491.77	29865.24
491.95	29858.21
492.13	30272.49
492.30	30618.89
492.48	30092.27
492.66	30192.91
492.84	30679.74
493.01	30969.97
493.19	30504.20
493.37	31424.03
493.54	31232.11
493.72	32194.07
493.90	31948.31
494.08	31957.67
494.25	32418.76
494.43	32669.20
494.61	32458.55
494.79	33380.72
494.96	33022.62
495.14	32891.55
495.32	33699.03
495.49	33497.75
495.67	33479.02
495.85	34043.09
496.02	34167.14
496.20	34267.78
496.38	34714.83
496.55	34513.54
496.73	35318.68
496.91	35054.20
497.09	35311.66
497.26	35541.03
497.44	35353.79
497.62	35742.32
497.79	36240.86
497.97	36034.89
498.14	36360.22
498.32	36947.70
498.50	36390.65
498.67	36971.10
498.85	36907.91
499.03	37649.86
499.20	36842.37
499.38	37357.29
499.56	37411.12
499.73	37745.82
499.91	37647.52
500.08	37832.42
500.26	37799.65
500.44	37572.62
500.61	38497.13
500.79	38281.80
500.97	38485.43
501.14	38581.39
501.32	39002.69
501.49	38780.34
501.67	39063.54
501.84	39388.88
502.02	39014.39
502.20	39606.55
502.37	39938.90
502.55	39812.51
502.72	39901.45
502.90	40184.66
503.07	40306.37
503.25	40591.91
503.43	40360.20
503.60	40657.45
503.78	40727.66
503.95	41099.81
504.13	40793.20
504.30	40875.12
504.48	41106.83
504.65	41153.64
504.83	41640.47
505.01	41060.02
505.18	41680.26
505.36	42026.66
505.53	41500.04
505.71	42295.82
505.88	42625.84
506.06	41813.67
506.23	42115.60
506.41	42590.73
506.58	42628.18
506.76	42939.47
506.93	43257.78
507.11	42674.99
507.28	42969.90
507.46	43143.09
507.63	43325.66
507.81	43700.14
507.98	43702.48
508.16	43524.60
508.33	43643.97
508.50	44011.43
508.68	44439.75
508.85	44121.44
509.03	44055.90
509.20	44477.20
509.38	45228.51
509.55	44722.96
509.73	44648.06
509.90	45134.89
510.08	45165.32
510.25	45202.77
510.42	45200.43
510.60	45567.89
510.77	45598.32
510.95	45940.04
511.12	45638.11
511.30	45593.64
511.47	45841.73
511.64	45986.85
511.82	45909.61
511.99	46220.90
512.17	46597.73
512.34	46415.16
512.51	46777.95
512.69	46820.08
512.86	46646.88
513.04	46672.62
513.21	47440.32
513.38	47372.44
513.56	47697.78
513.73	47009.66
513.90	47669.69
514.08	47543.30
514.25	47292.86
514.43	47863.96
514.60	47997.37
514.77	48236.10
514.95	48313.34
515.12	48006.73
515.29	47959.92
515.47	48549.73
515.64	48671.44
515.81	48313.34
515.99	48418.66
516.16	48940.60
516.33	48690.16
516.51	48800.17
516.68	49169.97
516.85	48680.80
517.03	49027.20
517.20	49656.81
517.37	49380.62
517.54	49345.51
517.72	49663.83
517.89	49394.67
518.06	49223.81
518.24	49499.99
518.41	49588.93
518.58	49855.75
518.75	49710.64
518.93	50099.17
519.10	49846.39
519.27	49769.15
519.45	49942.35
519.62	50309.82
519.79	50258.32
519.96	50164.70
520.14	50506.42
520.31	50588.34
520.48	50967.51
520.65	50504.08
520.83	50878.57
521.00	50939.42
521.17	51007.29
521.34	51433.27
521.52	51040.06
521.69	51498.81
521.86	51391.14
522.03	51482.42
522.20	51634.56
522.38	51987.98
522.55	51676.69
522.72	51686.05
522.89	51433.27
523.07	51826.48
523.24	52093.30
523.41	52137.77
523.58	51746.90
523.75	52329.70
523.92	51934.15
524.10	52678.44
524.27	52413.96
524.44	52346.08
524.61	52460.77
524.78	52617.58
524.96	52507.58
525.13	52783.76
525.30	52940.58
525.47	52938.24
525.64	52643.33
525.81	53013.13
525.98	52961.64
526.16	52858.66
526.33	53230.80
526.50	53254.21
526.67	53134.84
526.84	53263.57
527.01	53581.88
527.18	53125.48
527.36	53275.27
527.53	53228.46
527.70	53715.29
527.87	53811.26
528.04	53361.87
528.21	53792.53
528.38	53872.11
528.55	53914.24
528.72	54078.08
528.89	53780.83
529.07	53647.42
529.24	53801.89
529.41	54157.66
529.58	53979.78
529.75	54057.01
529.92	54110.85
530.09	54312.13
530.26	54190.42
530.43	54298.09
530.60	54155.32
530.77	54082.76
530.94	54504.06
531.11	54188.08
531.28	54632.78
531.46	54611.72
531.63	54644.49
531.80	54501.71
531.97	54939.39
532.14	54923.01
532.31	54684.28
532.48	54941.74
532.65	55042.38
532.82	54796.62
532.99	55096.21
533.16	54796.62
533.33	55033.02
533.50	55423.89
533.67	55061.10
533.84	55016.63
534.01	55358.35
534.18	55124.30
534.35	55550.27
534.52	55281.11
534.69	55494.10
534.86	55599.43
535.03	55379.42
535.20	55494.10
535.37	55173.45
535.54	55540.91
535.71	55257.71
535.88	55922.42
536.05	55922.42
536.22	55971.57
536.38	55657.94
536.55	56016.04
536.72	55793.69
536.89	55796.03
537.06	55789.01
537.23	56238.39
537.40	55891.99
537.57	56219.67
537.74	56076.90
537.91	56177.54
538.08	56324.99
538.25	56172.86
538.42	56444.36
538.59	56353.08
538.75	56259.46
538.92	56278.18
539.09	56535.64
539.26	56439.68
539.43	56554.36
539.60	56481.81
539.77	56596.49
539.94	56697.14
540.11	56657.35
540.28	56856.29
540.44	56849.27
540.61	56846.93
540.78	56467.76
540.95	56671.39
541.12	56575.43
541.29	56486.49
541.46	56734.59
541.62	56851.61
541.79	56940.55
541.96	56657.35
542.13	56938.21
542.30	56729.90
542.47	57212.06
542.63	57003.75
542.80	57116.09
542.97	57354.83
543.14	57483.56
543.31	57244.82
543.48	57420.36
543.64	57729.31
543.81	57609.95
543.98	57705.91
544.15	57642.71
544.32	57757.40
544.48	57755.06
544.65	57930.60
544.82	57787.83
544.99	57439.09
545.16	57890.81
545.32	57652.08
545.49	57853.36
545.66	57982.09
545.83	57808.89
546.00	57783.15
546.16	57914.22
546.33	57759.74
546.50	57921.24
546.67	58066.35
546.83	57719.95
547.00	58169.33
547.17	58293.38
547.34	58099.12
547.50	58190.40
547.67	58284.02
547.84	58183.38
548.00	58391.68
548.17	58766.17
548.34	58485.31
548.51	58482.97
548.67	58571.91
548.84	58513.39
549.01	58431.47
549.18	58473.60
549.34	58508.71
549.51	58628.08
549.68	58752.13
549.84	58527.44
550.01	58546.16
550.18	58487.65
550.34	58667.87
550.51	58759.15
550.68	58564.88
550.84	58513.39
551.01	58906.60
551.18	58894.90
551.34	58791.92
551.51	58894.90
551.68	58777.87
551.84	58885.54
552.01	58698.30
552.18	59040.01
552.34	58782.55
552.51	59032.99
552.68	58981.50
552.84	59023.63
553.01	59107.89
553.18	59161.72
553.34	59152.36
553.51	58908.94
553.67	59112.57
553.84	59194.49
554.01	59271.73
554.17	59150.02
554.34	59288.11
554.51	59147.68
554.67	59400.46
554.84	59372.37
555.00	59185.13
555.17	59278.75
555.33	59447.27
555.50	59147.68
555.67	59358.33
555.83	59428.54
556.00	59327.90
556.16	59693.02
556.33	59641.53
556.50	59327.90
556.66	59622.81
556.83	59227.26
556.99	59587.70
557.16	59571.32
557.32	59910.69
557.49	60027.72
557.65	59629.83
557.82	59707.07
557.98	59625.15
558.15	59667.28
558.32	59784.30
558.48	59606.42
558.65	59774.94
558.81	59873.24
558.98	59901.33
559.14	59870.90
559.31	59882.61
559.47	59948.14
559.64	59980.91
559.80	60062.83
559.97	59859.20
560.13	59852.18
560.30	59910.69
560.46	59847.50
560.63	60058.15
560.79	60170.49
560.96	60013.68
561.12	60193.90
561.29	60257.09
561.45	60149.43
561.61	60051.12
561.78	60039.42
561.94	60060.49
562.11	59983.25
562.27	60193.90
562.44	59978.57
562.60	60163.47
562.77	60217.30
562.93	59980.91
563.10	60177.51
563.26	60107.30
563.42	60659.66
563.59	60406.89
563.75	60296.88
563.92	60264.11
564.08	60182.19
564.24	60472.42
564.41	60317.95
564.57	60313.26
564.74	60385.82
564.90	60523.91
565.07	60257.09
565.23	60444.33
565.39	60308.58
565.56	60390.50
565.72	60495.83
565.88	60360.08
566.05	60467.74
566.21	60437.31
566.38	60458.38
566.54	60477.10
566.70	60566.04
566.87	60790.73
567.03	60243.05
567.19	60491.15
567.36	60589.45
567.52	60704.13
567.68	60734.56
567.85	60694.77
568.01	60666.69
568.17	60472.42
568.34	60764.99
568.50	60594.13
568.66	60542.64
568.83	60708.82
568.99	60647.96
569.15	60528.59
569.32	60816.48
569.48	60470.08
569.64	60734.56
569.81	60732.22
569.97	60587.11
570.13	60701.79
570.30	60722.86
570.46	60692.43
570.62	60706.47
570.78	60708.82
570.95	60809.46
571.11	60884.36
571.27	60828.18
571.43	60769.67
571.60	60912.44
571.76	60676.05
571.92	60893.72
572.09	60814.14
572.25	60872.65
572.41	60896.06
572.57	60786.05
572.74	61062.24
572.90	60940.53
573.06	60886.70
573.22	60844.57
573.38	60865.63
573.55	60795.42
573.71	61106.71
573.87	60966.27
574.03	60818.82
574.20	60917.12
574.36	60919.46
574.52	61097.34
574.68	61015.43
574.84	61034.15
575.01	60762.65
575.17	60947.55
575.33	60837.54
575.49	61003.72
575.65	61057.56
575.82	60954.57
575.98	61006.06
576.14	61169.90
576.30	61020.11
576.46	60917.12
576.62	60867.97
576.79	60903.08
576.95	60912.44
577.11	61247.14
577.27	61069.26
577.43	61165.22
577.59	60889.04
577.75	61003.72
577.92	60963.93
578.08	61102.03
578.24	61106.71
578.40	61235.44
578.56	61090.32
578.72	61062.24
578.88	61052.87
579.04	61371.19
579.21	61240.12
579.37	61169.90
579.53	61317.35
579.69	60874.99
579.85	61183.94
580.01	61116.07
580.17	61052.87
580.33	61109.05
580.49	61347.78
580.65	61233.10
580.82	61167.56
580.98	60879.67
581.14	60945.21
581.30	61312.67
581.46	61247.14
581.62	61162.88
581.78	61078.62
581.94	61275.22
582.10	61289.27
582.26	60968.61
582.42	61216.71
582.58	61179.26
582.74	61106.71
582.90	61109.05
583.06	61279.91
583.22	60975.64
583.38	61303.31
583.54	61237.78
583.70	61256.50
583.86	61160.54
584.02	60933.51
584.18	61263.52
584.34	61197.99
584.50	61338.42
584.66	60989.68
584.82	60914.78
584.98	61230.75
585.14	61219.05
585.30	61064.58
585.46	61251.82
585.62	61359.48
585.78	61324.38
585.94	61179.26
586.10	61219.05
586.26	61354.80
586.42	61155.86
586.58	61469.49
586.74	61277.57
586.90	61317.35
587.06	61352.46
587.22	61286.93
587.38	61403.95
587.54	61567.79
587.70	61389.91
587.86	61434.38
588.02	61373.53
588.18	61422.68
588.34	61396.93
